06/03/2022	14:53:00	Ver.	4.1	UNKNOWN
Optical Delay	550.020508	Delta X		0.078125	Sweeps	1	Scan Rate	0/0
Coordinates	Axis 1	NaN	Axis 2	NaN	Axis 3	NaN	Axis 4	NaN	Axis 5	NaN	Axis 6	0.000000
TX Power	0.000000	RX Power	0.000000

550.021	0.0158799
550.099	0.0168141
550.177	0.0169759
550.255	0.0169032
550.333	0.0169524
550.411	0.0169673
550.489	0.0173557
550.567	0.0171942
550.646	0.0171946
550.724	0.0172636
550.802	0.0173711
550.880	0.0174931
550.958	0.0175768
551.036	0.0175532
551.114	0.0179063
551.192	0.0179166
551.271	0.0181853
551.349	0.0181454
551.427	0.0182142
551.505	0.0186076
551.583	0.0186063
551.661	0.0187076
551.739	0.0188449
551.817	0.0191057
551.896	0.0191553
551.974	0.0192439
552.052	0.0193570
552.130	0.0193139
552.208	0.0195478
552.286	0.0194558
552.364	0.0194233
552.442	0.0195304
552.521	0.0194740
552.599	0.0192236
552.677	0.0191853
552.755	0.0190047
552.833	0.0189764
552.911	0.0188061
552.989	0.0186517
553.067	0.0183763
553.146	0.0182598
553.224	0.0181116
553.302	0.0177626
553.380	0.0175616
553.458	0.0174152
553.536	0.0173003
553.614	0.0171452
553.692	0.0169917
553.771	0.0167442
553.849	0.0164897
553.927	0.0163814
554.005	0.0161573
554.083	0.0161119
554.161	0.0159376
554.239	0.0158363
554.317	0.0156699
554.396	0.0156934
554.474	0.0157925
554.552	0.0156622
554.630	0.0154420
554.708	0.0154921
554.786	0.0154158
554.864	0.0153712
554.942	0.0153895
555.021	0.0153790
555.099	0.0153889
555.177	0.0152135
555.255	0.0152312
555.333	0.0151013
555.411	0.0152166
555.489	0.0151386
555.567	0.0150591
555.646	0.0151269
555.724	0.0150106
555.802	0.0152409
555.880	0.0151124
555.958	0.0152600
556.036	0.0151785
556.114	0.0153104
556.192	0.0153619
556.271	0.0153677
556.349	0.0153474
556.427	0.0153962
556.505	0.0155766
556.583	0.0155137
556.661	0.0155043
556.739	0.0156149
556.817	0.0155450
556.896	0.0157334
556.974	0.0155929
557.052	0.0158147
557.130	0.0159258
557.208	0.0159657
557.286	0.0160482
557.364	0.0162034
557.442	0.0162440
557.521	0.0162444
557.599	0.0162474
557.677	0.0164232
557.755	0.0163148
557.833	0.0164288
557.911	0.0163470
557.989	0.0164157
558.067	0.0164173
558.146	0.0161946
558.224	0.0163010
558.302	0.0162486
558.380	0.0163765
558.458	0.0162157
558.536	0.0161501
558.614	0.0163319
558.692	0.0161617
558.771	0.0162946
558.849	0.0162283
558.927	0.0162475
559.005	0.0160848
559.083	0.0162128
559.161	0.0163071
559.239	0.0162740
559.317	0.0163139
559.396	0.0163950
559.474	0.0164979
559.552	0.0164397
559.630	0.0163409
559.708	0.0167571
559.786	0.0167642
559.864	0.0165826
559.942	0.0166696
560.021	0.0167913
560.099	0.0167212
560.177	0.0167348
560.255	0.0168301
560.333	0.0169497
560.411	0.0166147
560.489	0.0168777
560.567	0.0167929
560.646	0.0168050
560.724	0.0168465
560.802	0.0169405
560.880	0.0167819
560.958	0.0169593
561.036	0.0167893
561.114	0.0167933
561.192	0.0167990
561.271	0.0169514
561.349	0.0168073
561.427	0.0168052
561.505	0.0168291
561.583	0.0167218
561.661	0.0166810
561.739	0.0168254
561.817	0.0167098
561.896	0.0166116
561.974	0.0165501
562.052	0.0164116
562.130	0.0163676
562.208	0.0163328
562.286	0.0164275
562.364	0.0162176
562.442	0.0162197
562.521	0.0160856
562.599	0.0160359
562.677	0.0160960
562.755	0.0158329
562.833	0.0156395
562.911	0.0156111
562.989	0.0157738
563.067	0.0155885
563.146	0.0155066
563.224	0.0154329
563.302	0.0153333
563.380	0.0151872
563.458	0.0149306
563.536	0.0150592
563.614	0.0149587
563.692	0.0148380
563.771	0.0146976
563.849	0.0147162
563.927	0.0145994
564.005	0.0146252
564.083	0.0145175
564.161	0.0146328
564.239	0.0145700
564.317	0.0146455
564.396	0.0145720
564.474	0.0145979
564.552	0.0147215
564.630	0.0147041
564.708	0.0146259
564.786	0.0146915
564.864	0.0147210
564.942	0.0149717
565.021	0.0149400
565.099	0.0149356
565.177	0.0150071
565.255	0.0151295
565.333	0.0151303
565.411	0.0151720
565.489	0.0153898
565.567	0.0153996
565.646	0.0154614
565.724	0.0155981
565.802	0.0155673
565.880	0.0156087
565.958	0.0157936
566.036	0.0158813
566.114	0.0159243
566.192	0.0159885
566.271	0.0160580
566.349	0.0161388
566.427	0.0161706
566.505	0.0162605
566.583	0.0162576
566.661	0.0163223
566.739	0.0163837
566.817	0.0164248
566.896	0.0165099
566.974	0.0166038
567.052	0.0165279
567.130	0.0163383
567.208	0.0164698
567.286	0.0166126
567.364	0.0164722
567.442	0.0164005
567.521	0.0163674
567.599	0.0165372
567.677	0.0164124
567.755	0.0162901
567.833	0.0164375
567.911	0.0163725
567.989	0.0163571
568.067	0.0163917
568.146	0.0162926
568.224	0.0164642
568.302	0.0164311
568.380	0.0163209
568.458	0.0163914
568.536	0.0163898
568.614	0.0165546
568.692	0.0165055
568.771	0.0166512
568.849	0.0167186
568.927	0.0166723
569.005	0.0166819
569.083	0.0167886
569.161	0.0168913
569.239	0.0169567
569.317	0.0169242
569.396	0.0170454
569.474	0.0171883
569.552	0.0173595
569.630	0.0173862
569.708	0.0175021
569.786	0.0174579
569.864	0.0176900
569.942	0.0177934
570.021	0.0178389
570.099	0.0179250
570.177	0.0178625
570.255	0.0179527
570.333	0.0179228
570.411	0.0179921
570.489	0.0180482
570.567	0.0182783
570.646	0.0181698
570.724	0.0182074
570.802	0.0181011
570.880	0.0181624
570.958	0.0181892
571.036	0.0182233
571.114	0.0182616
571.192	0.0181534
571.271	0.0180431
571.349	0.0180053
571.427	0.0180018
571.505	0.0181568
571.583	0.0180001
571.661	0.0179742
571.739	0.0179231
571.817	0.0180566
571.896	0.0180050
571.974	0.0179654
572.052	0.0176783
572.130	0.0177742
572.208	0.0179066
572.286	0.0178487
572.364	0.0177151
572.442	0.0176247
572.521	0.0175742
572.599	0.0176918
572.677	0.0176572
572.755	0.0174770
572.833	0.0174115
572.911	0.0174378
572.989	0.0173206
573.067	0.0171870
573.146	0.0170310
573.224	0.0170741
573.302	0.0170926
573.380	0.0169360
573.458	0.0168034
573.536	0.0167496
573.614	0.0168120
573.692	0.0166149
573.771	0.0167345
573.849	0.0165151
573.927	0.0165080
574.005	0.0164651
574.083	0.0164638
574.161	0.0163907
574.239	0.0162347
574.317	0.0164385
574.396	0.0163880
574.474	0.0162995
574.552	0.0164512
574.630	0.0163953
574.708	0.0163029
574.786	0.0164619
574.864	0.0164495
574.942	0.0163912
575.021	0.0165303
575.099	0.0166499
575.177	0.0164774
575.255	0.0165798
575.333	0.0167037
575.411	0.0166867
575.489	0.0166766
575.567	0.0165173
575.646	0.0165726
575.724	0.0166871
575.802	0.0166640
575.880	0.0165153
575.958	0.0166108
576.036	0.0167628
576.114	0.0166814
576.192	0.0165324
576.271	0.0163654
576.349	0.0164832
576.427	0.0165491
576.505	0.0164149
576.583	0.0163329
576.661	0.0163361
576.739	0.0163263
576.817	0.0162804
576.896	0.0161923
576.974	0.0161699
577.052	0.0159427
577.130	0.0159093
577.208	0.0159377
577.286	0.0158285
577.364	0.0158503
577.442	0.0156085
577.521	0.0157770
577.599	0.0157655
577.677	0.0155758
577.755	0.0155268
577.833	0.0155080
577.911	0.0153632
577.989	0.0153903
578.067	0.0154326
578.146	0.0153425
578.224	0.0153163
578.302	0.0153648
578.380	0.0152729
578.458	0.0153466
578.536	0.0153992
578.614	0.0153866
578.692	0.0156097
578.771	0.0153448
578.849	0.0154385
578.927	0.0154839
579.005	0.0154749
579.083	0.0155078
579.161	0.0156951
579.239	0.0155225
579.317	0.0156631
579.396	0.0156448
579.474	0.0157902
579.552	0.0158717
579.630	0.0157913
579.708	0.0158153
579.786	0.0159179
579.864	0.0159724
579.942	0.0159153
580.021	0.0159671
580.099	0.0158626
580.177	0.0160445
580.255	0.0159904
580.333	0.0160484
580.411	0.0161641
580.489	0.0161692
580.567	0.0161740
580.646	0.0162634
580.724	0.0161761
580.802	0.0163177
580.880	0.0162878
580.958	0.0165054
581.036	0.0163497
581.114	0.0163361
581.192	0.0164413
581.271	0.0163055
581.349	0.0164067
581.427	0.0164430
581.505	0.0163401
581.583	0.0164914
581.661	0.0164642
581.739	0.0165007
581.817	0.0165060
581.896	0.0165208
581.974	0.0166297
582.052	0.0165865
582.130	0.0165825
582.208	0.0166750
582.286	0.0168716
582.364	0.0168286
582.442	0.0169110
582.521	0.0168493
582.599	0.0170370
582.677	0.0170818
582.755	0.0170759
582.833	0.0171109
582.911	0.0171758
582.989	0.0174432
583.067	0.0173564
583.146	0.0172379
583.224	0.0172230
583.302	0.0174168
583.380	0.0173492
583.458	0.0172075
583.536	0.0173395
583.614	0.0174733
583.692	0.0174957
583.771	0.0174551
583.849	0.0174332
583.927	0.0174693
584.005	0.0174615
584.083	0.0171867
584.161	0.0172481
584.239	0.0172140
584.317	0.0172353
584.396	0.0172588
584.474	0.0171547
584.552	0.0172422
584.630	0.0171105
584.708	0.0170855
584.786	0.0170232
584.864	0.0169401
584.942	0.0169438
585.021	0.0167999
585.099	0.0168258
585.177	0.0166473
585.255	0.0166525
585.333	0.0167584
585.411	0.0165067
585.489	0.0165818
585.567	0.0164945
585.646	0.0164017
585.724	0.0163686
585.802	0.0162473
585.880	0.0162315
585.958	0.0162685
586.036	0.0162405
586.114	0.0159727
586.192	0.0161717
586.271	0.0160065
586.349	0.0158534
586.427	0.0159586
586.505	0.0159432
586.583	0.0159838
586.661	0.0158088
586.739	0.0157551
586.817	0.0158616
586.896	0.0157860
586.974	0.0158041
587.052	0.0156721
587.130	0.0156271
587.208	0.0156675
587.286	0.0156898
587.364	0.0156473
587.442	0.0154675
587.521	0.0155061
587.599	0.0155706
587.677	0.0154725
587.755	0.0154482
587.833	0.0155157
587.911	0.0154029
587.989	0.0153887
588.067	0.0154719
588.146	0.0153275
588.224	0.0153397
588.302	0.0152461
588.380	0.0152723
588.458	0.0153597
588.536	0.0153049
588.614	0.0152925
588.692	0.0152892
588.771	0.0151557
588.849	0.0153368
588.927	0.0154104
589.005	0.0152646
589.083	0.0152102
589.161	0.0151839
589.239	0.0155054
589.317	0.0154706
589.396	0.0154325
589.474	0.0153583
589.552	0.0153677
589.630	0.0154342
589.708	0.0154870
589.786	0.0155167
589.864	0.0153403
589.942	0.0154934
590.021	0.0154253
590.099	0.0154446
590.177	0.0154963
590.255	0.0155364
590.333	0.0157023
590.411	0.0157065
590.489	0.0158190
590.567	0.0157336
590.646	0.0158826
590.724	0.0158553
590.802	0.0158612
590.880	0.0158788
590.958	0.0158762
591.036	0.0161092
591.114	0.0162436
591.192	0.0162881
591.271	0.0162673
591.349	0.0163948
591.427	0.0164771
591.505	0.0165395
591.583	0.0165916
591.661	0.0164391
591.739	0.0166161
591.817	0.0165998
591.896	0.0166410
591.974	0.0167076
592.052	0.0166526
592.130	0.0167073
592.208	0.0167849
592.286	0.0168126
592.364	0.0169057
592.442	0.0167987
592.521	0.0168005
592.599	0.0169294
592.677	0.0169226
592.755	0.0169080
592.833	0.0169750
592.911	0.0169405
592.989	0.0170410
593.067	0.0171806
593.146	0.0171751
593.224	0.0170093
593.302	0.0171616
593.380	0.0170284
593.458	0.0169213
593.536	0.0169645
593.614	0.0170460
593.692	0.0169844
593.771	0.0169224
593.849	0.0170438
593.927	0.0169711
594.005	0.0170088
594.083	0.0168855
594.161	0.0169127
594.239	0.0169214
594.317	0.0169238
594.396	0.0170087
594.474	0.0169373
594.552	0.0169202
594.630	0.0169305
594.708	0.0169083
594.786	0.0167522
594.864	0.0167551
594.942	0.0168696
595.021	0.0168130
595.099	0.0167805
595.177	0.0166504
595.255	0.0168839
595.333	0.0167578
595.411	0.0167766
595.489	0.0167144
595.567	0.0167286
595.646	0.0165765
595.724	0.0166225
595.802	0.0167336
595.880	0.0167639
595.958	0.0166915
596.036	0.0165598
596.114	0.0164774
596.192	0.0165680
596.271	0.0164594
596.349	0.0164886
596.427	0.0163985
596.505	0.0164917
596.583	0.0162708
596.661	0.0163842
596.739	0.0163187
596.817	0.0164140
596.896	0.0163783
596.974	0.0162593
597.052	0.0162993
597.130	0.0163632
597.208	0.0162310
597.286	0.0162611
597.364	0.0163573
597.442	0.0160465
597.521	0.0161549
597.599	0.0163289
597.677	0.0161356
597.755	0.0161149
597.833	0.0162984
597.911	0.0162494
597.989	0.0161398
598.067	0.0160906
598.146	0.0160779
598.224	0.0159917
598.302	0.0161198
598.380	0.0159470
598.458	0.0160251
598.536	0.0160860
598.614	0.0160309
598.692	0.0160163
598.771	0.0158859
598.849	0.0159579
598.927	0.0160069
599.005	0.0161101
599.083	0.0160100
599.161	0.0159911
599.239	0.0159823
599.317	0.0159436
599.396	0.0161183
599.474	0.0159897
599.552	0.0159943
599.630	0.0158231
599.708	0.0159145
599.786	0.0159821
599.864	0.0158414
599.942	0.0157772
600.021	0.0156586
600.099	0.0156928
600.177	0.0157946
600.255	0.0157138
600.333	0.0158961
600.411	0.0157608
600.489	0.0157009
600.567	0.0158722
600.646	0.0158434
600.724	0.0157261
600.802	0.0158350
600.880	0.0158089
600.958	0.0160124
601.036	0.0158626
601.114	0.0158582
601.192	0.0158909
601.271	0.0159518
601.349	0.0159346
601.427	0.0159711
601.505	0.0159358
601.583	0.0159541
601.661	0.0159512
601.739	0.0160346
601.817	0.0160245
601.896	0.0161210
601.974	0.0160876
602.052	0.0161565
602.130	0.0162756
602.208	0.0162618
602.286	0.0161597
602.364	0.0161830
602.442	0.0162749
602.521	0.0162246
602.599	0.0162636
602.677	0.0162519
602.755	0.0164075
602.833	0.0163560
602.911	0.0163566
602.989	0.0164360
603.067	0.0163078
603.146	0.0165681
603.224	0.0164172
603.302	0.0164709
603.380	0.0164165
603.458	0.0164317
603.536	0.0164017
603.614	0.0164116
603.692	0.0164622
603.771	0.0164143
603.849	0.0166100
603.927	0.0166085
604.005	0.0166119
604.083	0.0165811
604.161	0.0166702
604.239	0.0166882
604.317	0.0167363
604.396	0.0167673
604.474	0.0167232
604.552	0.0169276
604.630	0.0169215
604.708	0.0168784
604.786	0.0169017
604.864	0.0168770
604.942	0.0168368
605.021	0.0168875
605.099	0.0169538
605.177	0.0169808
605.255	0.0170568
605.333	0.0170728
605.411	0.0171124
605.489	0.0170128
605.567	0.0169630
605.646	0.0169028
605.724	0.0170089
605.802	0.0171047
605.880	0.0170216
605.958	0.0170859
606.036	0.0169834
606.114	0.0171177
606.192	0.0169109
606.271	0.0169621
606.349	0.0170241
606.427	0.0169048
606.505	0.0169157
606.583	0.0169305
606.661	0.0169797
606.739	0.0168551
606.817	0.0167886
606.896	0.0168565
606.974	0.0167356
607.052	0.0167047
607.130	0.0165632
607.208	0.0168587
607.286	0.0167674
607.364	0.0168996
607.442	0.0167332
607.521	0.0166878
607.599	0.0168803
607.677	0.0168449
607.755	0.0168890
607.833	0.0167954
607.911	0.0169129
607.989	0.0170403
608.067	0.0170279
608.146	0.0169878
608.224	0.0170623
608.302	0.0169508
608.380	0.0170955
608.458	0.0170176
608.536	0.0169000
608.614	0.0169933
608.692	0.0169086
608.771	0.0170226
608.849	0.0169002
608.927	0.0169576
609.005	0.0169975
609.083	0.0170110
609.161	0.0168499
609.239	0.0168732
609.317	0.0170155
609.396	0.0168458
609.474	0.0169000
609.552	0.0168343
609.630	0.0169177
609.708	0.0169232
609.786	0.0169653
609.864	0.0169014
609.942	0.0167654
610.021	0.0168607
610.099	0.0169170
610.177	0.0167511
610.255	0.0165900
610.333	0.0165366
610.411	0.0164506
610.489	0.0165322
610.567	0.0162880
610.646	0.0160970
610.724	0.0162982
610.802	0.0161399
610.880	0.0160481
610.958	0.0158842
611.036	0.0159167
611.114	0.0158238
611.192	0.0157372
611.271	0.0156094
611.349	0.0155191
611.427	0.0154728
611.505	0.0155699
611.583	0.0154382
611.661	0.0152895
611.739	0.0153960
611.817	0.0153049
611.896	0.0153008
611.974	0.0154339
612.052	0.0152685
612.130	0.0153809
612.208	0.0154649
612.286	0.0155521
612.364	0.0155816
612.442	0.0155892
612.521	0.0156585
612.599	0.0158086
612.677	0.0160830
612.755	0.0159061
612.833	0.0159602
612.911	0.0161345
612.989	0.0161413
613.067	0.0163731
613.146	0.0165333
613.224	0.0165543
613.302	0.0165458
613.380	0.0165176
613.458	0.0166863
613.536	0.0167050
613.614	0.0169015
613.692	0.0168442
613.771	0.0168445
613.849	0.0170065
613.927	0.0168612
614.005	0.0169244
614.083	0.0168420
614.161	0.0167907
614.239	0.0167538
614.317	0.0167283
614.396	0.0167348
614.474	0.0167474
614.552	0.0166808
614.630	0.0165794
614.708	0.0165041
614.786	0.0166288
614.864	0.0164517
614.942	0.0163931
615.021	0.0163380
615.099	0.0164039
615.177	0.0161699
615.255	0.0161236
615.333	0.0160705
615.411	0.0159960
615.489	0.0159518
615.567	0.0156711
615.646	0.0155861
615.724	0.0154282
615.802	0.0153188
615.880	0.0149488
615.958	0.0150252
616.036	0.0150235
616.114	0.0147883
616.192	0.0146234
616.271	0.0146098
616.349	0.0145509
616.427	0.0144160
616.505	0.0144724
616.583	0.0145583
616.661	0.0144693
616.739	0.0145422
616.817	0.0145664
616.896	0.0146221
616.974	0.0145904
617.052	0.0145881
617.130	0.0146493
617.208	0.0146958
617.286	0.0145472
617.364	0.0147313
617.442	0.0147995
617.521	0.0149314
617.599	0.0148953
617.677	0.0149688
617.755	0.0150658
617.833	0.0151361
617.911	0.0151401
617.989	0.0153670
618.067	0.0153835
618.146	0.0154955
618.224	0.0155041
618.302	0.0156247
618.380	0.0156961
618.458	0.0158490
618.536	0.0159705
618.614	0.0160667
618.692	0.0161703
618.771	0.0162388
618.849	0.0163659
618.927	0.0165080
619.005	0.0164946
619.083	0.0167894
619.161	0.0168779
619.239	0.0168323
619.317	0.0169304
619.396	0.0169727
619.474	0.0172336
619.552	0.0172399
619.630	0.0171797
619.708	0.0172230
619.786	0.0171899
619.864	0.0172019
619.942	0.0172629
620.021	0.0171411
620.099	0.0169620
620.177	0.0169538
620.255	0.0170267
620.333	0.0170644
620.411	0.0168704
620.489	0.0166743
620.567	0.0167279
620.646	0.0167028
620.724	0.0165822
620.802	0.0166998
620.880	0.0165029
620.958	0.0164347
621.036	0.0165087
621.114	0.0165148
621.192	0.0164666
621.271	0.0163079
621.349	0.0163821
621.427	0.0163904
621.505	0.0164032
621.583	0.0163325
621.661	0.0161594
621.739	0.0162778
621.817	0.0163333
621.896	0.0163435
621.974	0.0161966
622.052	0.0161572
622.130	0.0162366
622.208	0.0162207
622.286	0.0162547
622.364	0.0160777
622.442	0.0160642
622.521	0.0162425
622.599	0.0163615
622.677	0.0163410
622.755	0.0162287
622.833	0.0163188
622.911	0.0162411
622.989	0.0164175
623.067	0.0163510
623.146	0.0161923
623.224	0.0163678
623.302	0.0162883
623.380	0.0162086
623.458	0.0162445
623.536	0.0161893
623.614	0.0161826
623.692	0.0162008
623.771	0.0162090
623.849	0.0162014
623.927	0.0161069
624.005	0.0161159
624.083	0.0160957
624.161	0.0160159
624.239	0.0161591
624.317	0.0161320
624.396	0.0161047
624.474	0.0160703
624.552	0.0161350
624.630	0.0162409
624.708	0.0161784
624.786	0.0161613
624.864	0.0162389
624.942	0.0160865
625.021	0.0162319
625.099	0.0163333
625.177	0.0164019
625.255	0.0163530
625.333	0.0163663
625.411	0.0165235
625.489	0.0164592
625.567	0.0165411
625.646	0.0165553
625.724	0.0164542
625.802	0.0165611
625.880	0.0166898
625.958	0.0165678
626.036	0.0165458
626.114	0.0165882
626.192	0.0166059
626.271	0.0166093
626.349	0.0166900
626.427	0.0165966
626.505	0.0167017
626.583	0.0166098
626.661	0.0166708
626.739	0.0164963
626.817	0.0167526
626.896	0.0167510
626.974	0.0166965
627.052	0.0167030
627.130	0.0167452
627.208	0.0166869
627.286	0.0168219
627.364	0.0167230
627.442	0.0167580
627.521	0.0167700
627.599	0.0166937
627.677	0.0169414
627.755	0.0169124
627.833	0.0168671
627.911	0.0170055
627.989	0.0169904
628.067	0.0170225
628.146	0.0169048
628.224	0.0169312
628.302	0.0170605
628.380	0.0171046
628.458	0.0168233
628.536	0.0170287
628.614	0.0168848
628.692	0.0167579
628.771	0.0168156
628.849	0.0169106
628.927	0.0169382
629.005	0.0170310
629.083	0.0167652
629.161	0.0168182
629.239	0.0168533
629.317	0.0169184
629.396	0.0170195
629.474	0.0170466
629.552	0.0170438
629.630	0.0169157
629.708	0.0170410
629.786	0.0171278
629.864	0.0172633
629.942	0.0170814
630.021	0.0172683
630.099	0.0171733
630.177	0.0172226
630.255	0.0171941
630.333	0.0171618
630.411	0.0172202
630.489	0.0172739
630.567	0.0171564
630.646	0.0170165
630.724	0.0171484
630.802	0.0172028
630.880	0.0171661
630.958	0.0168750
631.036	0.0170336
631.114	0.0170458
631.192	0.0171075
631.271	0.0169954
631.349	0.0170076
631.427	0.0170260
631.505	0.0170101
631.583	0.0169358
631.661	0.0169658
631.739	0.0169211
631.817	0.0168367
631.896	0.0170036
631.974	0.0169276
632.052	0.0170428
632.130	0.0168654
632.208	0.0168067
632.286	0.0168588
632.364	0.0168583
632.442	0.0168369
632.521	0.0167975
632.599	0.0168425
632.677	0.0168219
632.755	0.0166649
632.833	0.0165961
632.911	0.0167149
632.989	0.0168253
633.067	0.0167108
633.146	0.0165881
633.224	0.0165046
633.302	0.0163937
633.380	0.0165015
633.458	0.0164262
633.536	0.0163787
633.614	0.0164758
633.692	0.0163946
633.771	0.0163327
633.849	0.0163535
633.927	0.0162589
634.005	0.0161950
634.083	0.0162967
634.161	0.0163571
634.239	0.0162538
634.317	0.0162422
634.396	0.0161606
634.474	0.0162289
634.552	0.0161432
634.630	0.0159708
634.708	0.0160072
634.786	0.0160535
634.864	0.0160838
634.942	0.0161681
635.021	0.0160107
635.099	0.0159660
635.177	0.0159628
635.255	0.0158147
635.333	0.0158900
635.411	0.0159069
635.489	0.0159193
635.567	0.0157653
635.646	0.0156863
635.724	0.0155537
635.802	0.0157269
635.880	0.0156525
635.958	0.0155672
636.036	0.0156208
636.114	0.0155434
636.192	0.0156480
636.271	0.0154751
636.349	0.0155371
636.427	0.0156829
636.505	0.0156491
636.583	0.0156654
636.661	0.0157342
636.739	0.0158121
636.817	0.0158458
636.896	0.0158657
636.974	0.0158881
637.052	0.0161572
637.130	0.0161449
637.208	0.0161522
637.286	0.0162635
637.364	0.0163361
637.442	0.0162185
637.521	0.0164631
637.599	0.0164786
637.677	0.0166209
637.755	0.0166048
637.833	0.0166151
637.911	0.0164613
637.989	0.0165877
638.067	0.0167245
638.146	0.0166573
638.224	0.0165446
638.302	0.0165813
638.380	0.0165625
638.458	0.0166354
638.536	0.0164635
638.614	0.0165178
638.692	0.0166335
638.771	0.0165743
638.849	0.0165713
638.927	0.0163510
639.005	0.0163300
639.083	0.0164345
639.161	0.0163779
639.239	0.0163505
639.317	0.0163111
639.396	0.0163327
639.474	0.0163010
639.552	0.0163522
639.630	0.0160069
639.708	0.0161897
639.786	0.0161961
639.864	0.0160662
639.942	0.0159460
640.021	0.0160714
640.099	0.0159435
640.177	0.0160152
640.255	0.0158869
640.333	0.0157829
640.411	0.0157832
640.489	0.0156178
640.567	0.0158154
640.646	0.0157478
640.724	0.0156928
640.802	0.0156968
640.880	0.0155808
640.958	0.0158014
641.036	0.0159258
641.114	0.0158562
641.192	0.0159357
641.271	0.0159010
641.349	0.0159492
641.427	0.0160880
641.505	0.0162347
641.583	0.0161688
641.661	0.0161810
641.739	0.0161913
641.817	0.0162249
641.896	0.0163530
641.974	0.0163273
642.052	0.0163168
642.130	0.0164144
642.208	0.0164558
642.286	0.0166907
642.364	0.0165655
642.442	0.0166125
642.521	0.0166370
642.599	0.0167497
642.677	0.0168304
642.755	0.0167480
642.833	0.0167509
642.911	0.0169897
642.989	0.0170838
643.067	0.0170045
643.146	0.0170681
643.224	0.0170255
643.302	0.0170602
643.380	0.0172573
643.458	0.0171609
643.536	0.0172533
643.614	0.0172344
643.692	0.0173111
643.771	0.0171957
643.849	0.0171864
643.927	0.0170370
644.005	0.0171525
644.083	0.0172319
644.161	0.0171668
644.239	0.0170524
644.317	0.0170896
644.396	0.0170081
644.474	0.0170480
644.552	0.0169404
644.630	0.0169411
644.708	0.0167918
644.786	0.0169016
644.864	0.0169108
644.942	0.0166441
645.021	0.0167831
645.099	0.0167464
645.177	0.0167101
645.255	0.0166449
645.333	0.0164959
645.411	0.0165150
645.489	0.0165581
645.567	0.0164043
645.646	0.0166068
645.724	0.0163728
645.802	0.0162770
645.880	0.0164140
645.958	0.0162675
646.036	0.0161050
646.114	0.0161927
646.192	0.0161574
646.271	0.0161860
646.349	0.0160812
646.427	0.0160938
646.505	0.0161066
646.583	0.0159969
646.661	0.0161160
646.739	0.0159626
646.817	0.0160606
646.896	0.0160376
646.974	0.0160627
647.052	0.0160788
647.130	0.0160916
647.208	0.0161477
647.286	0.0161376
647.364	0.0161992
647.442	0.0161938
647.521	0.0162729
647.599	0.0162785
647.677	0.0164053
647.755	0.0166293
647.833	0.0165913
647.911	0.0166959
647.989	0.0167207
648.067	0.0167641
648.146	0.0168180
648.224	0.0170134
648.302	0.0169862
648.380	0.0169631
648.458	0.0169949
648.536	0.0170383
648.614	0.0171596
648.692	0.0171164
648.771	0.0171401
648.849	0.0171430
648.927	0.0173166
649.005	0.0172438
649.083	0.0172645
649.161	0.0171553
649.239	0.0171827
649.317	0.0170883
649.396	0.0171998
649.474	0.0171041
649.552	0.0170576
649.630	0.0170262
649.708	0.0170344
649.786	0.0170246
649.864	0.0169962
649.942	0.0169897
650.021	0.0169254
650.099	0.0169581
650.177	0.0168466
650.255	0.0168429
650.333	0.0169091
650.411	0.0169268
650.489	0.0167940
650.567	0.0168352
650.646	0.0169005
650.724	0.0167223
650.802	0.0166879
650.880	0.0167094
650.958	0.0167433
651.036	0.0166424
651.114	0.0166722
651.192	0.0165577
651.271	0.0166379
651.349	0.0164775
651.427	0.0164526
651.505	0.0165231
651.583	0.0165604
651.661	0.0163026
651.739	0.0164631
651.817	0.0166521
651.896	0.0164727
651.974	0.0163875
652.052	0.0164596
652.130	0.0164625
652.208	0.0164110
652.286	0.0165252
652.364	0.0163229
652.442	0.0162791
652.521	0.0163327
652.599	0.0163866
652.677	0.0163678
652.755	0.0162687
652.833	0.0163033
652.911	0.0164034
652.989	0.0162809
653.067	0.0161664
653.146	0.0162034
653.224	0.0163873
653.302	0.0162918
653.380	0.0163109
653.458	0.0162856
653.536	0.0163586
653.614	0.0163300
653.692	0.0162903
653.771	0.0162644
653.849	0.0162699
653.927	0.0163175
654.005	0.0163951
654.083	0.0163032
654.161	0.0162466
654.239	0.0162759
654.317	0.0164084
654.396	0.0163470
654.474	0.0161999
654.552	0.0163580
654.630	0.0162718
654.708	0.0163512
654.786	0.0162679
654.864	0.0162910
654.942	0.0162234
655.021	0.0162225
655.099	0.0163556
655.177	0.0161807
655.255	0.0161659
655.333	0.0163190
655.411	0.0163194
655.489	0.0163065
655.567	0.0161539
655.646	0.0160940
655.724	0.0162244
655.802	0.0161090
655.880	0.0160886
655.958	0.0161155
656.036	0.0160676
656.114	0.0160439
656.192	0.0161301
656.271	0.0159268
656.349	0.0159985
656.427	0.0159959
656.505	0.0159845
656.583	0.0158803
656.661	0.0159397
656.739	0.0157346
656.817	0.0156834
656.896	0.0155909
656.974	0.0156490
657.052	0.0155848
657.130	0.0156719
657.208	0.0156328
657.286	0.0158284
657.364	0.0158727
657.442	0.0158776
657.521	0.0159138
657.599	0.0159970
657.677	0.0160920
657.755	0.0161109
657.833	0.0159666
657.911	0.0160228
657.989	0.0162209
658.067	0.0161894
658.146	0.0162383
658.224	0.0163317
658.302	0.0163254
658.380	0.0162843
658.458	0.0162082
658.536	0.0163023
658.614	0.0164058
658.692	0.0166018
658.771	0.0164878
658.849	0.0164571
658.927	0.0165925
659.005	0.0165839
659.083	0.0165702
659.161	0.0165817
659.239	0.0164891
659.317	0.0165546
659.396	0.0165636
659.474	0.0164363
659.552	0.0163943
659.630	0.0166394
659.708	0.0164025
659.786	0.0163061
659.864	0.0163969
659.942	0.0163326
660.021	0.0162332
660.099	0.0162849
660.177	0.0160901
660.255	0.0162262
660.333	0.0162856
660.411	0.0161912
660.489	0.0162672
660.567	0.0162972
660.646	0.0160873
660.724	0.0160800
660.802	0.0162155
660.880	0.0163002
660.958	0.0160719
661.036	0.0161794
661.114	0.0160566
661.192	0.0160844
661.271	0.0160549
661.349	0.0159305
661.427	0.0158887
661.505	0.0160883
661.583	0.0160446
661.661	0.0159297
661.739	0.0160043
661.817	0.0159830
661.896	0.0159808
661.974	0.0159786
662.052	0.0161111
662.130	0.0160973
662.208	0.0160628
662.286	0.0159795
662.364	0.0159901
662.442	0.0160136
662.521	0.0159999
662.599	0.0160234
662.677	0.0160576
662.755	0.0161731
662.833	0.0161929
662.911	0.0161903
662.989	0.0161846
663.067	0.0162061
663.146	0.0162432
663.224	0.0162285
663.302	0.0162852
663.380	0.0162670
663.458	0.0163819
663.536	0.0164326
663.614	0.0162978
663.692	0.0164256
663.771	0.0163745
663.849	0.0165725
663.927	0.0166494
664.005	0.0166489
664.083	0.0165776
664.161	0.0166751
664.239	0.0166005
664.317	0.0165649
664.396	0.0168211
664.474	0.0165880
664.552	0.0166573
664.630	0.0167046
664.708	0.0166799
664.786	0.0165693
664.864	0.0166081
664.942	0.0164039
665.021	0.0164008
665.099	0.0163550
665.177	0.0165508
665.255	0.0163065
665.333	0.0163322
665.411	0.0163631
665.489	0.0163204
665.567	0.0164108
665.646	0.0161986
665.724	0.0164008
665.802	0.0162830
665.880	0.0163735
665.958	0.0164561
666.036	0.0164794
666.114	0.0164125
666.192	0.0165675
666.271	0.0165826
666.349	0.0164116
666.427	0.0166051
666.505	0.0167052
666.583	0.0166792
666.661	0.0166013
666.739	0.0166652
666.817	0.0169300
666.896	0.0167459
666.974	0.0167538
667.052	0.0168433
667.130	0.0168287
667.208	0.0169429
667.286	0.0169826
667.364	0.0169530
667.442	0.0169729
667.521	0.0170348
667.599	0.0170797
667.677	0.0170276
667.755	0.0170485
667.833	0.0171121
667.911	0.0170490
667.989	0.0171229
668.067	0.0170422
668.146	0.0170471
668.224	0.0171967
668.302	0.0171381
668.380	0.0170628
668.458	0.0172938
668.536	0.0171712
668.614	0.0171375
668.692	0.0171170
668.771	0.0171135
668.849	0.0170415
668.927	0.0170379
669.005	0.0169368
669.083	0.0168073
669.161	0.0170289
669.239	0.0169244
669.317	0.0168584
669.396	0.0166919
669.474	0.0167325
669.552	0.0168404
669.630	0.0167302
669.708	0.0165322
669.786	0.0165875
669.864	0.0165526
669.942	0.0163705
670.021	0.0164353
670.099	0.0164234
670.177	0.0164853
670.255	0.0163033
670.333	0.0163145
670.411	0.0161601
670.489	0.0162180
670.567	0.0162453
670.646	0.0161532
670.724	0.0161618
670.802	0.0161694
670.880	0.0162851
670.958	0.0162191
671.036	0.0161076
671.114	0.0161404
671.192	0.0162376
671.271	0.0161415
671.349	0.0161928
671.427	0.0161638
671.505	0.0161684
671.583	0.0160616
671.661	0.0162849
671.739	0.0161951
671.817	0.0161232
671.896	0.0163095
671.974	0.0163156
672.052	0.0163259
672.130	0.0161883
672.208	0.0162771
672.286	0.0162461
672.364	0.0163286
672.442	0.0164259
672.521	0.0163813
672.599	0.0164087
672.677	0.0164944
672.755	0.0165250
672.833	0.0164744
672.911	0.0166898
672.989	0.0166063
673.067	0.0166594
673.146	0.0165988
673.224	0.0166013
673.302	0.0166138
673.380	0.0166431
673.458	0.0165646
673.536	0.0164526
673.614	0.0163895
673.692	0.0165733
673.771	0.0164870
673.849	0.0164001
673.927	0.0164312
674.005	0.0164114
674.083	0.0163087
674.161	0.0164554
674.239	0.0165218
674.317	0.0163227
674.396	0.0163268
674.474	0.0163461
674.552	0.0164246
674.630	0.0162547
674.708	0.0163348
674.786	0.0162536
674.864	0.0162917
674.942	0.0162632
675.021	0.0163265
675.099	0.0162176
675.177	0.0163570
675.255	0.0160888
675.333	0.0161066
675.411	0.0161592
675.489	0.0160522
675.567	0.0159985
675.646	0.0160059
675.724	0.0158759
675.802	0.0158795
675.880	0.0159424
675.958	0.0158163
676.036	0.0158705
676.114	0.0160210
676.192	0.0159423
676.271	0.0159087
676.349	0.0159834
676.427	0.0161021
676.505	0.0161179
676.583	0.0160258
676.661	0.0160224
676.739	0.0162227
676.817	0.0161359
676.896	0.0159940
676.974	0.0161910
677.052	0.0161864
677.130	0.0160210
677.208	0.0159703
677.286	0.0160123
677.364	0.0161057
677.442	0.0159825
677.521	0.0159426
677.599	0.0158604
677.677	0.0160149
677.755	0.0159509
677.833	0.0159362
677.911	0.0159273
677.989	0.0159780
678.067	0.0160132
678.146	0.0159644
678.224	0.0159505
678.302	0.0158742
678.380	0.0158664
678.458	0.0159441
678.536	0.0159906
678.614	0.0160007
678.692	0.0160937
678.771	0.0159751
678.849	0.0160217
678.927	0.0159846
679.005	0.0160216
679.083	0.0160607
679.161	0.0160748
679.239	0.0159885
679.317	0.0161133
679.396	0.0160789
679.474	0.0161647
679.552	0.0161684
679.630	0.0161004
679.708	0.0161496
679.786	0.0158582
679.864	0.0159985
679.942	0.0162263
680.021	0.0159535
680.099	0.0159425
680.177	0.0159071
680.255	0.0159683
680.333	0.0160070
680.411	0.0158502
680.489	0.0159963
680.567	0.0160136
680.646	0.0159812
680.724	0.0158585
680.802	0.0159021
680.880	0.0160004
680.958	0.0159393
681.036	0.0159130
681.114	0.0158328
681.192	0.0159644
681.271	0.0159602
681.349	0.0160625
681.427	0.0160811
681.505	0.0161357
681.583	0.0160741
681.661	0.0161196
681.739	0.0161774
681.817	0.0160994
681.896	0.0162435
681.974	0.0162565
682.052	0.0162801
682.130	0.0163322
682.208	0.0162090
682.286	0.0163847
682.364	0.0163763
682.442	0.0162057
682.521	0.0163756
682.599	0.0163354
682.677	0.0162476
682.755	0.0162653
682.833	0.0161733
682.911	0.0163578
682.989	0.0163286
683.067	0.0162672
683.146	0.0162254
683.224	0.0162957
683.302	0.0163713
683.380	0.0164405
683.458	0.0163831
683.536	0.0162898
683.614	0.0163031
683.692	0.0162704
683.771	0.0163456
683.849	0.0162949
683.927	0.0163247
684.005	0.0164754
684.083	0.0164304
684.161	0.0163403
684.239	0.0165549
684.317	0.0164583
684.396	0.0165500
684.474	0.0164602
684.552	0.0165378
684.630	0.0165936
684.708	0.0165919
684.786	0.0166025
684.864	0.0166602
684.942	0.0165796
685.021	0.0165578
685.099	0.0166611
685.177	0.0166035
685.255	0.0165776
685.333	0.0165311
685.411	0.0167450
685.489	0.0165908
685.567	0.0166895
685.646	0.0165819
685.724	0.0165436
685.802	0.0163774
685.880	0.0164629
685.958	0.0165926
686.036	0.0164499
686.114	0.0163557
686.192	0.0164159
686.271	0.0164284
686.349	0.0161855
686.427	0.0163300
686.505	0.0162227
686.583	0.0163254
686.661	0.0161672
686.739	0.0162226
686.817	0.0163734
686.896	0.0160065
686.974	0.0161404
687.052	0.0161879
687.130	0.0161676
687.208	0.0161803
687.286	0.0161910
687.364	0.0160190
687.442	0.0162348
687.521	0.0161610
687.599	0.0161334
687.677	0.0161639
687.755	0.0159927
687.833	0.0161037
687.911	0.0161835
687.989	0.0161403
688.067	0.0160889
688.146	0.0160869
688.224	0.0160898
688.302	0.0160957
688.380	0.0161794
688.458	0.0163058
688.536	0.0162834
688.614	0.0161880
688.692	0.0162807
688.771	0.0163032
688.849	0.0163200
688.927	0.0162525
689.005	0.0162659
689.083	0.0163550
689.161	0.0163602
689.239	0.0161900
689.317	0.0161866
689.396	0.0161687
689.474	0.0161099
689.552	0.0161696
689.630	0.0162426
689.708	0.0160391
689.786	0.0161724
689.864	0.0161494
689.942	0.0159504
690.021	0.0162014
690.099	0.0160503
690.177	0.0161368
690.255	0.0160673
690.333	0.0159598
690.411	0.0162907
690.489	0.0163081
690.567	0.0162017
690.646	0.0160977
690.724	0.0162631
690.802	0.0162041
690.880	0.0163270
690.958	0.0162724
691.036	0.0162499
691.114	0.0164126
691.192	0.0163575
691.271	0.0163594
691.349	0.0163684
691.427	0.0162189
691.505	0.0163828
691.583	0.0165334
691.661	0.0163882
691.739	0.0164186
691.817	0.0164181
691.896	0.0164611
691.974	0.0165005
692.052	0.0167034
692.130	0.0165397
692.208	0.0166091
692.286	0.0165380
692.364	0.0166206
692.442	0.0166777
692.521	0.0164129
692.599	0.0165330
692.677	0.0167093
692.755	0.0166416
692.833	0.0166059
692.911	0.0167034
692.989	0.0166986
693.067	0.0165408
693.146	0.0165689
693.224	0.0164820
693.302	0.0165401
693.380	0.0165134
693.458	0.0164616
693.536	0.0165476
693.614	0.0165067
693.692	0.0166154
693.771	0.0165482
693.849	0.0165184
693.927	0.0164592
694.005	0.0166419
694.083	0.0168280
694.161	0.0166663
694.239	0.0166689
694.317	0.0166418
694.396	0.0165681
694.474	0.0167091
694.552	0.0166902
694.630	0.0165854
694.708	0.0167066
694.786	0.0167036
694.864	0.0165839
694.942	0.0166256
695.021	0.0166358
695.099	0.0166002
695.177	0.0166017
695.255	0.0165924
695.333	0.0164879
695.411	0.0166282
695.489	0.0164858
695.567	0.0165549
695.646	0.0163551
695.724	0.0164004
695.802	0.0164680
695.880	0.0164120
695.958	0.0163542
696.036	0.0163171
696.114	0.0163531
696.192	0.0163089
696.271	0.0163282
696.349	0.0164031
696.427	0.0162759
696.505	0.0163186
696.583	0.0163344
696.661	0.0163981
696.739	0.0164371
696.817	0.0163484
696.896	0.0164539
696.974	0.0163295
697.052	0.0162713
697.130	0.0163650
697.208	0.0163422
697.286	0.0163470
697.364	0.0163173
697.442	0.0163363
697.521	0.0162075
697.599	0.0161951
697.677	0.0162282
697.755	0.0162357
697.833	0.0161419
697.911	0.0161576
697.989	0.0162280
698.067	0.0161320
698.146	0.0161204
698.224	0.0163298
698.302	0.0161302
698.380	0.0163035
698.458	0.0164436
698.536	0.0162849
698.614	0.0163131
698.692	0.0164222
698.771	0.0163648
698.849	0.0164367
698.927	0.0163412
699.005	0.0164443
699.083	0.0164029
699.161	0.0164967
699.239	0.0165617
699.317	0.0163686
699.396	0.0163982
699.474	0.0164676
699.552	0.0162770
699.630	0.0163094
699.708	0.0162083
699.786	0.0162771
699.864	0.0162694
699.942	0.0161442
700.021	0.0160820
700.099	0.0161733
700.177	0.0161188
700.255	0.0161156
700.333	0.0160116
700.411	0.0160456
700.489	0.0160133
700.567	0.0159591
700.646	0.0160444
700.724	0.0158400
700.802	0.0158579
700.880	0.0160533
700.958	0.0158562
701.036	0.0158878
701.114	0.0158038
701.192	0.0158836
701.271	0.0158038
701.349	0.0158750
701.427	0.0156693
701.505	0.0157149
701.583	0.0157650
701.661	0.0159678
701.739	0.0158612
701.817	0.0157795
701.896	0.0159711
701.974	0.0158904
702.052	0.0159589
702.130	0.0160703
702.208	0.0161437
702.286	0.0161588
702.364	0.0160703
702.442	0.0161241
702.521	0.0160447
702.599	0.0162839
702.677	0.0162234
702.755	0.0162726
702.833	0.0162762
702.911	0.0164228
702.989	0.0162633
703.067	0.0163502
703.146	0.0164503
703.224	0.0163235
703.302	0.0163513
703.380	0.0162659
703.458	0.0162923
703.536	0.0163741
703.614	0.0161749
703.692	0.0161988
703.771	0.0161594
703.849	0.0163084
703.927	0.0162064
704.005	0.0162611
704.083	0.0163673
704.161	0.0164065
704.239	0.0162903
704.317	0.0163328
704.396	0.0163879
704.474	0.0162458
704.552	0.0163372
704.630	0.0164974
704.708	0.0163264
704.786	0.0163205
704.864	0.0163775
704.942	0.0163172
705.021	0.0162635
705.099	0.0163069
705.177	0.0161098
705.255	0.0161438
705.333	0.0160548
705.411	0.0160484
705.489	0.0160662
705.567	0.0161455
705.646	0.0160863
705.724	0.0159958
705.802	0.0160438
705.880	0.0161634
705.958	0.0161181
706.036	0.0160941
706.114	0.0160847
706.192	0.0163016
706.271	0.0164861
706.349	0.0166250
706.427	0.0165820
706.505	0.0167048
706.583	0.0168652
706.661	0.0170166
706.739	0.0169750
706.817	0.0169574
706.896	0.0171050
706.974	0.0171873
707.052	0.0173063
707.130	0.0174834
707.208	0.0175104
707.286	0.0173827
707.364	0.0174054
707.442	0.0176646
707.521	0.0177171
707.599	0.0175980
707.677	0.0176798
707.755	0.0176381
707.833	0.0176413
707.911	0.0176125
707.989	0.0174898
708.067	0.0176351
708.146	0.0175594
708.224	0.0174628
708.302	0.0173139
708.380	0.0172987
708.458	0.0171934
708.536	0.0172736
708.614	0.0172194
708.692	0.0171676
708.771	0.0169600
708.849	0.0170469
708.927	0.0170196
709.005	0.0170473
709.083	0.0168089
709.161	0.0166898
709.239	0.0168661
709.317	0.0166714
709.396	0.0167891
709.474	0.0167547
709.552	0.0166091
709.630	0.0165717
709.708	0.0167522
709.786	0.0167792
709.864	0.0167355
709.942	0.0167593
710.021	0.0168430
710.099	0.0168729
710.177	0.0168560
710.255	0.0169595
710.333	0.0169482
710.411	0.0169293
710.489	0.0168770
710.567	0.0168319
710.646	0.0167722
710.724	0.0166324
710.802	0.0165334
710.880	0.0164876
710.958	0.0164732
711.036	0.0163500
711.114	0.0160757
711.192	0.0161897
711.271	0.0160627
711.349	0.0159034
711.427	0.0158086
711.505	0.0159566
711.583	0.0157722
711.661	0.0156018
711.739	0.0156273
711.817	0.0157130
711.896	0.0156899
711.974	0.0156506
712.052	0.0157499
712.130	0.0157462
712.208	0.0157012
712.286	0.0159142
712.364	0.0160365
712.442	0.0160694
712.521	0.0161536
712.599	0.0162792
712.677	0.0164342
712.755	0.0164989
712.833	0.0165943
712.911	0.0165350
712.989	0.0165348
713.067	0.0167606
713.146	0.0166044
713.224	0.0167014
713.302	0.0167538
713.380	0.0166475
713.458	0.0166561
713.536	0.0165940
713.614	0.0165694
713.692	0.0166273
713.771	0.0166550
713.849	0.0165784
713.927	0.0166850
714.005	0.0165096
714.083	0.0167285
714.161	0.0166108
714.239	0.0165223
714.317	0.0164695
714.396	0.0164887
714.474	0.0164856
714.552	0.0163331
714.630	0.0162077
714.708	0.0163297
714.786	0.0162610
714.864	0.0161341
714.942	0.0161727
715.021	0.0161926
715.099	0.0162695
715.177	0.0162908
715.255	0.0161870
715.333	0.0163926
715.411	0.0164379
715.489	0.0163834
715.567	0.0165430
715.646	0.0166113
715.724	0.0166440
715.802	0.0166721
715.880	0.0166812
715.958	0.0167544
716.036	0.0166994
716.114	0.0165823
716.192	0.0167336
716.271	0.0166682
716.349	0.0166374
716.427	0.0166145
716.505	0.0168128
716.583	0.0166134
716.661	0.0165540
716.739	0.0167902
716.817	0.0167727
716.896	0.0167051
716.974	0.0167223
717.052	0.0167841
717.130	0.0169441
717.208	0.0168416
717.286	0.0168788
717.364	0.0168489
717.442	0.0168804
717.521	0.0169649
717.599	0.0169006
717.677	0.0167113
717.755	0.0167211
717.833	0.0166846
717.911	0.0166280
717.989	0.0167852
718.067	0.0166853
718.146	0.0166925
718.224	0.0166102
718.302	0.0166880
718.380	0.0166051
718.458	0.0167666
718.536	0.0167014
718.614	0.0167700
718.692	0.0165750
718.771	0.0166132
718.849	0.0165817
718.927	0.0166493
719.005	0.0166724
719.083	0.0166408
719.161	0.0167537
719.239	0.0166123
719.317	0.0165520
719.396	0.0165504
719.474	0.0164560
719.552	0.0164964
719.630	0.0164707
719.708	0.0166328
719.786	0.0164751
719.864	0.0165123
719.942	0.0165715
720.021	0.0164055
720.099	0.0164805
720.177	0.0165532
720.255	0.0165242
720.333	0.0165486
720.411	0.0163589
720.489	0.0165000
720.567	0.0163277
720.646	0.0162971
720.724	0.0163860
720.802	0.0162952
720.880	0.0165436
720.958	0.0162115
721.036	0.0161712
721.114	0.0161167
721.192	0.0160876
721.271	0.0159145
721.349	0.0158769
721.427	0.0158421
721.505	0.0156562
721.583	0.0157026
721.661	0.0157470
721.739	0.0157540
721.817	0.0155555
721.896	0.0154319
721.974	0.0153601
722.052	0.0154022
722.130	0.0153916
722.208	0.0152682
722.286	0.0152975
722.364	0.0153419
722.442	0.0154525
722.521	0.0152917
722.599	0.0154832
722.677	0.0154292
722.755	0.0154745
722.833	0.0155162
722.911	0.0157256
722.989	0.0156915
723.067	0.0156887
723.146	0.0157420
723.224	0.0157896
723.302	0.0158586
723.380	0.0160116
723.458	0.0159272
723.536	0.0160869
723.614	0.0160567
723.692	0.0161086
723.771	0.0161494
723.849	0.0160902
723.927	0.0160447
724.005	0.0161244
724.083	0.0162033
724.161	0.0162485
724.239	0.0162271
724.317	0.0161786
724.396	0.0160084
724.474	0.0160535
724.552	0.0161066
724.630	0.0161415
724.708	0.0160784
724.786	0.0161695
724.864	0.0160349
724.942	0.0160212
725.021	0.0160919
725.099	0.0160912
725.177	0.0160021
725.255	0.0160355
725.333	0.0160168
725.411	0.0159328
725.489	0.0159294
725.567	0.0158228
725.646	0.0160317
725.724	0.0159085
725.802	0.0159881
725.880	0.0159709
725.958	0.0160245
726.036	0.0161649
726.114	0.0160746
726.192	0.0162085
726.271	0.0162889
726.349	0.0162530
726.427	0.0163508
726.505	0.0164800
726.583	0.0165340
726.661	0.0164078
726.739	0.0166357
726.817	0.0166508
726.896	0.0167850
726.974	0.0168697
727.052	0.0167905
727.130	0.0168788
727.208	0.0168331
727.286	0.0169730
727.364	0.0171614
727.442	0.0170152
727.521	0.0169351
727.599	0.0169015
727.677	0.0169843
727.755	0.0170525
727.833	0.0169020
727.911	0.0169208
727.989	0.0169852
728.067	0.0170074
728.146	0.0169920
728.224	0.0170177
728.302	0.0170558
728.380	0.0169537
728.458	0.0172068
728.536	0.0171284
728.614	0.0170724
728.692	0.0171558
728.771	0.0171465
728.849	0.0172075
728.927	0.0169744
729.005	0.0170776
729.083	0.0171288
729.161	0.0172324
729.239	0.0171568
729.317	0.0169653
729.396	0.0169057
729.474	0.0169029
729.552	0.0169897
729.630	0.0167796
729.708	0.0168786
729.786	0.0167307
729.864	0.0166398
729.942	0.0166923
730.021	0.0164856
730.099	0.0166013
730.177	0.0165652
730.255	0.0166611
730.333	0.0164171
730.411	0.0163381
730.489	0.0164864
730.567	0.0163603
730.646	0.0164805
730.724	0.0164455
730.802	0.0164751
730.880	0.0164622
730.958	0.0166080
731.036	0.0164130
731.114	0.0165112
731.192	0.0168182
731.271	0.0167025
731.349	0.0168779
731.427	0.0170850
731.505	0.0168887
731.583	0.0168827
731.661	0.0169201
731.739	0.0169398
731.817	0.0170306
731.896	0.0170200
731.974	0.0169347
732.052	0.0169524
732.130	0.0170321
732.208	0.0170351
732.286	0.0170089
732.364	0.0168967
732.442	0.0169250
732.521	0.0167334
732.599	0.0167505
732.677	0.0166644
732.755	0.0166184
732.833	0.0165047
732.911	0.0164192
732.989	0.0163778
733.067	0.0163142
733.146	0.0161440
733.224	0.0162196
733.302	0.0160264
733.380	0.0159872
733.458	0.0158462
733.536	0.0159531
733.614	0.0158290
733.692	0.0157862
733.771	0.0159036
733.849	0.0156471
733.927	0.0156493
734.005	0.0158464
734.083	0.0157006
734.161	0.0156442
734.239	0.0156302
734.317	0.0156296
734.396	0.0157025
734.474	0.0157918
734.552	0.0156744
734.630	0.0157503
734.708	0.0157907
734.786	0.0158470
734.864	0.0157099
734.942	0.0157614
735.021	0.0158480
735.099	0.0159502
735.177	0.0160693
735.255	0.0159474
735.333	0.0160146
735.411	0.0160567
735.489	0.0160550
735.567	0.0160604
735.646	0.0162797
735.724	0.0162121
735.802	0.0162474
735.880	0.0163366
735.958	0.0165433
736.036	0.0164223
736.114	0.0164146
736.192	0.0165176
736.271	0.0166826
736.349	0.0166472
736.427	0.0166813
736.505	0.0168106
736.583	0.0167270
736.661	0.0166956
736.739	0.0168403
736.817	0.0169811
736.896	0.0170001
736.974	0.0169521
737.052	0.0169659
737.130	0.0168751
737.208	0.0169897
737.286	0.0172221
737.364	0.0172209
737.442	0.0172606
737.521	0.0172504
737.599	0.0171134
737.677	0.0172868
737.755	0.0174165
737.833	0.0173649
737.911	0.0174060
737.989	0.0172968
738.067	0.0172630
738.146	0.0173944
738.224	0.0172230
738.302	0.0172007
738.380	0.0170856
738.458	0.0170421
738.536	0.0169867
738.614	0.0170902
738.692	0.0168726
738.771	0.0168397
738.849	0.0167406
738.927	0.0168417
739.005	0.0166640
739.083	0.0165850
739.161	0.0165943
739.239	0.0164405
739.317	0.0166602
739.396	0.0165070
739.474	0.0165564
739.552	0.0163808
739.630	0.0165158
739.708	0.0163902
739.786	0.0165067
739.864	0.0164962
739.942	0.0164668
740.021	0.0166712
740.099	0.0166090
740.177	0.0163976
740.255	0.0163973
740.333	0.0166527
740.411	0.0165031
740.489	0.0164465
740.567	0.0165926
740.646	0.0164569
740.724	0.0164761
740.802	0.0163838
740.880	0.0164805
740.958	0.0164867
741.036	0.0163895
741.114	0.0163599
741.192	0.0163363
741.271	0.0163435
741.349	0.0164237
741.427	0.0163941
741.505	0.0163086
741.583	0.0162590
741.661	0.0161665
741.739	0.0163953
741.817	0.0165102
741.896	0.0163861
741.974	0.0162183
742.052	0.0162258
742.130	0.0162273
742.208	0.0161544
742.286	0.0162467
742.364	0.0160962
742.442	0.0162396
742.521	0.0160679
742.599	0.0161595
742.677	0.0160312
742.755	0.0159052
742.833	0.0160353
742.911	0.0160368
742.989	0.0160300
743.067	0.0159386
743.146	0.0160449
743.224	0.0160165
743.302	0.0160902
743.380	0.0161508
743.458	0.0159814
743.536	0.0159795
743.614	0.0159743
743.692	0.0159909
743.771	0.0159715
743.849	0.0159955
743.927	0.0159880
744.005	0.0157801
744.083	0.0158127
744.161	0.0158617
744.239	0.0158014
744.317	0.0158568
744.396	0.0156741
744.474	0.0158607
744.552	0.0157725
744.630	0.0158039
744.708	0.0159460
744.786	0.0158086
744.864	0.0159141
744.942	0.0159131
745.021	0.0159470
745.099	0.0158221
745.177	0.0159121
745.255	0.0159258
745.333	0.0160981
745.411	0.0161577
745.489	0.0160843
745.567	0.0161253
745.646	0.0161632
745.724	0.0160561
745.802	0.0161369
745.880	0.0161688
745.958	0.0163651
746.036	0.0164885
746.114	0.0164516
746.192	0.0163033
746.271	0.0165137
746.349	0.0164883
746.427	0.0164920
746.505	0.0166197
746.583	0.0165680
746.661	0.0164973
746.739	0.0164921
746.817	0.0165130
746.896	0.0165118
746.974	0.0165086
747.052	0.0164048
747.130	0.0163369
747.208	0.0164681
747.286	0.0162511
747.364	0.0163044
747.442	0.0163957
747.521	0.0163060
747.599	0.0164394
747.677	0.0163148
747.755	0.0161306
747.833	0.0161588
747.911	0.0160809
747.989	0.0160259
748.067	0.0160977
748.146	0.0160459
748.224	0.0161784
748.302	0.0160640
748.380	0.0161817
748.458	0.0161787
748.536	0.0161166
748.614	0.0161079
748.692	0.0160860
748.771	0.0161604
748.849	0.0161177
748.927	0.0159350
749.005	0.0161840
749.083	0.0160964
749.161	0.0162376
749.239	0.0160761
749.317	0.0161095
749.396	0.0161233
749.474	0.0161280
749.552	0.0160134
749.630	0.0159997
749.708	0.0161299
749.786	0.0163010
749.864	0.0160317
749.942	0.0159824
750.021	0.0159666
750.099	0.0159810
750.177	0.0159151
750.255	0.0161395
750.333	0.0160638
750.411	0.0162479
750.489	0.0161342
750.567	0.0160972
750.646	0.0162734
750.724	0.0163397
750.802	0.0163857
750.880	0.0163715
750.958	0.0163835
751.036	0.0166141
751.114	0.0163535
751.192	0.0164476
751.271	0.0166176
751.349	0.0164535
751.427	0.0165852
751.505	0.0165952
751.583	0.0165686
751.661	0.0164605
751.739	0.0165032
751.817	0.0166132
751.896	0.0167155
751.974	0.0165738
752.052	0.0165656
752.130	0.0166873
752.208	0.0165775
752.286	0.0167053
752.364	0.0167496
752.442	0.0167559
752.521	0.0166652
752.599	0.0166531
752.677	0.0167606
752.755	0.0167567
752.833	0.0168456
752.911	0.0168060
752.989	0.0167582
753.067	0.0166714
753.146	0.0166678
753.224	0.0167908
753.302	0.0166864
753.380	0.0166470
753.458	0.0165493
753.536	0.0166457
753.614	0.0165437
753.692	0.0165144
753.771	0.0165707
753.849	0.0165056
753.927	0.0164852
754.005	0.0163683
754.083	0.0163364
754.161	0.0163796
754.239	0.0163712
754.317	0.0162620
754.396	0.0162459
754.474	0.0163044
754.552	0.0162660
754.630	0.0159975
754.708	0.0159431
754.786	0.0160011
754.864	0.0159626
754.942	0.0160197
755.021	0.0158715
755.099	0.0159240
755.177	0.0159843
755.255	0.0158703
755.333	0.0157739
755.411	0.0157544
755.489	0.0157628
755.567	0.0157754
755.646	0.0158413
755.724	0.0158486
755.802	0.0157883
755.880	0.0158014
755.958	0.0158225
756.036	0.0157475
756.114	0.0158514
756.192	0.0157341
756.271	0.0158393
756.349	0.0159586
756.427	0.0158530
756.505	0.0158305
756.583	0.0158140
756.661	0.0159275
756.739	0.0158970
756.817	0.0158327
756.896	0.0158920
756.974	0.0157880
757.052	0.0158601
757.130	0.0159753
757.208	0.0159418
757.286	0.0160151
757.364	0.0160487
757.442	0.0160410
757.521	0.0159100
757.599	0.0161180
757.677	0.0162235
757.755	0.0163174
757.833	0.0163491
757.911	0.0163982
757.989	0.0162746
758.067	0.0163914
758.146	0.0164971
758.224	0.0165210
758.302	0.0165262
758.380	0.0165601
758.458	0.0165446
758.536	0.0165427
758.614	0.0164302
758.692	0.0165580
758.771	0.0165472
758.849	0.0166776
758.927	0.0166400
759.005	0.0167376
759.083	0.0167424
759.161	0.0167284
759.239	0.0167442
759.317	0.0168038
759.396	0.0167329
759.474	0.0167208
759.552	0.0166726
759.630	0.0166667
759.708	0.0166232
759.786	0.0167625
759.864	0.0168587
759.942	0.0167829
760.021	0.0167306
760.099	0.0166978
760.177	0.0167539
760.255	0.0167775
760.333	0.0167676
760.411	0.0168432
760.489	0.0167664
760.567	0.0167810
760.646	0.0167207
760.724	0.0167056
760.802	0.0166704
760.880	0.0167413
760.958	0.0167139
761.036	0.0167759
761.114	0.0166655
761.192	0.0164761
761.271	0.0166311
761.349	0.0166411
761.427	0.0164944
761.505	0.0165308
761.583	0.0164116
761.661	0.0162593
761.739	0.0162139
761.817	0.0163081
761.896	0.0163251
761.974	0.0162546
762.052	0.0162391
762.130	0.0162414
762.208	0.0159885
762.286	0.0160415
762.364	0.0159787
762.442	0.0160864
762.521	0.0160944
762.599	0.0159004
762.677	0.0159876
762.755	0.0158397
762.833	0.0159834
762.911	0.0159241
762.989	0.0158696
763.067	0.0158847
763.146	0.0158643
763.224	0.0157581
763.302	0.0157279
763.380	0.0158106
763.458	0.0157224
763.536	0.0156249
763.614	0.0156915
763.692	0.0158118
763.771	0.0158725
763.849	0.0155021
763.927	0.0157230
764.005	0.0157110
764.083	0.0157007
764.161	0.0157530
764.239	0.0158812
764.317	0.0158741
764.396	0.0158255
764.474	0.0158102
764.552	0.0158681
764.630	0.0157196
764.708	0.0157691
764.786	0.0160198
764.864	0.0159566
764.942	0.0158875
765.021	0.0161544
765.099	0.0160774
765.177	0.0160218
765.255	0.0162093
765.333	0.0161549
765.411	0.0160246
765.489	0.0164165
765.567	0.0163019
765.646	0.0162980
765.724	0.0164261
765.802	0.0164986
765.880	0.0164808
765.958	0.0163194
766.036	0.0164091
766.114	0.0163557
766.192	0.0164139
766.271	0.0164654
766.349	0.0162961
766.427	0.0162487
766.505	0.0164573
766.583	0.0163755
766.661	0.0164757
766.739	0.0165614
766.817	0.0163838
766.896	0.0162192
766.974	0.0164069
767.052	0.0163706
767.130	0.0165800
767.208	0.0166199
767.286	0.0163878
767.364	0.0165044
767.442	0.0163504
767.521	0.0164817
767.599	0.0164305
767.677	0.0166628
767.755	0.0165429
767.833	0.0165524
767.911	0.0163567
767.989	0.0164709
768.067	0.0164723
768.146	0.0164622
768.224	0.0164751
768.302	0.0166070
768.380	0.0166662
768.458	0.0166922
768.536	0.0166299
768.614	0.0164925
768.692	0.0167342
768.771	0.0166525
768.849	0.0167282
768.927	0.0170309
769.005	0.0168639
769.083	0.0167547
769.161	0.0168420
769.239	0.0168342
769.317	0.0169732
769.396	0.0168970
769.474	0.0169118
769.552	0.0168443
769.630	0.0167515
769.708	0.0169785
769.786	0.0168987
769.864	0.0168594
769.942	0.0166797
770.021	0.0169164
770.099	0.0167630
770.177	0.0168556
770.255	0.0168658
770.333	0.0167202
770.411	0.0167439
770.489	0.0166996
770.567	0.0167408
770.646	0.0167867
770.724	0.0165536
770.802	0.0166037
770.880	0.0166077
770.958	0.0165735
771.036	0.0164944
771.114	0.0164450
771.192	0.0165292
771.271	0.0164841
771.349	0.0165421
771.427	0.0164628
771.505	0.0164936
771.583	0.0164548
771.661	0.0165148
771.739	0.0165433
771.817	0.0164492
771.896	0.0163401
771.974	0.0164432
772.052	0.0164326
772.130	0.0163815
772.208	0.0161400
772.286	0.0162556
772.364	0.0162987
772.442	0.0162872
772.521	0.0161067
772.599	0.0163431
772.677	0.0161469
772.755	0.0160193
772.833	0.0161134
772.911	0.0161149
772.989	0.0161361
773.067	0.0161385
773.146	0.0160690
773.224	0.0162080
773.302	0.0162453
773.380	0.0162685
773.458	0.0162408
773.536	0.0162748
773.614	0.0163122
773.692	0.0162960
773.771	0.0164240
773.849	0.0163600
773.927	0.0163898
774.005	0.0163045
774.083	0.0164217
774.161	0.0165221
774.239	0.0165313
774.317	0.0164967
774.396	0.0164381
774.474	0.0166628
774.552	0.0166195
774.630	0.0166231
774.708	0.0166241
774.786	0.0166474
774.864	0.0166417
774.942	0.0166028
775.021	0.0165117
775.099	0.0166889
775.177	0.0166966
775.255	0.0166489
775.333	0.0166641
775.411	0.0167866
775.489	0.0169061
775.567	0.0166357
775.646	0.0167082
775.724	0.0167268
775.802	0.0167244
775.880	0.0167128
775.958	0.0167706
776.036	0.0167975
776.114	0.0169760
776.192	0.0169031
776.271	0.0168540
776.349	0.0168366
776.427	0.0169244
776.505	0.0168977
776.583	0.0168923
776.661	0.0168081
776.739	0.0168446
776.817	0.0167965
776.896	0.0167522
776.974	0.0166752
777.052	0.0167342
777.130	0.0168633
777.208	0.0167106
777.286	0.0168011
777.364	0.0167175
777.442	0.0167109
777.521	0.0166718
777.599	0.0165768
777.677	0.0167431
777.755	0.0165411
777.833	0.0164092
777.911	0.0164894
777.989	0.0164246
778.067	0.0163092
778.146	0.0164113
778.224	0.0162224
778.302	0.0162223
778.380	0.0162671
778.458	0.0161722
778.536	0.0163229
778.614	0.0161926
778.692	0.0162533
778.771	0.0162641
778.849	0.0161768
778.927	0.0163284
779.005	0.0162578
779.083	0.0161739
779.161	0.0161485
779.239	0.0161705
779.317	0.0163164
779.396	0.0163824
779.474	0.0162469
779.552	0.0161191
779.630	0.0161968
779.708	0.0161337
779.786	0.0161787
779.864	0.0161531
779.942	0.0160748
780.021	0.0162427
780.099	0.0161157
780.177	0.0162388
780.255	0.0162072
780.333	0.0162585
780.411	0.0161362
780.489	0.0160454
780.567	0.0160368
780.646	0.0161105
780.724	0.0162182
780.802	0.0161891
780.880	0.0161297
780.958	0.0159352
781.036	0.0161697
781.114	0.0162186
781.192	0.0162441
781.271	0.0160997
781.349	0.0161375
781.427	0.0161518
781.505	0.0161111
781.583	0.0160493
781.661	0.0159936
781.739	0.0161324
781.817	0.0160379
781.896	0.0159921
781.974	0.0159059
782.052	0.0158756
782.130	0.0160291
782.208	0.0159906
782.286	0.0159171
782.364	0.0160026
782.442	0.0159422
782.521	0.0158096
782.599	0.0157866
782.677	0.0159496
782.755	0.0159553
782.833	0.0159637
782.911	0.0159670
782.989	0.0159269
783.067	0.0159864
783.146	0.0160862
783.224	0.0159957
783.302	0.0159824
783.380	0.0159315
783.458	0.0159415
783.536	0.0159554
783.614	0.0159299
783.692	0.0159913
783.771	0.0159613
783.849	0.0159522
783.927	0.0160010
784.005	0.0160784
784.083	0.0160217
784.161	0.0160252
784.239	0.0159927
784.317	0.0160156
784.396	0.0161213
784.474	0.0160349
784.552	0.0160608
784.630	0.0159677
784.708	0.0161443
784.786	0.0162829
784.864	0.0161058
784.942	0.0161057
785.021	0.0161768
785.099	0.0162674
785.177	0.0162065
785.255	0.0163062
785.333	0.0163746
785.411	0.0163148
785.489	0.0163448
785.567	0.0162749
785.646	0.0164016
785.724	0.0164336
785.802	0.0163881
785.880	0.0164389
785.958	0.0163911
786.036	0.0163607
786.114	0.0163522
786.192	0.0164448
786.271	0.0164683
786.349	0.0164958
786.427	0.0164498
786.505	0.0164552
786.583	0.0164079
786.661	0.0163443
786.739	0.0164594
786.817	0.0163788
786.896	0.0164717
786.974	0.0164903
787.052	0.0164314
787.130	0.0165056
787.208	0.0165292
787.286	0.0166154
787.364	0.0165619
787.442	0.0164844
787.521	0.0165959
787.599	0.0165377
787.677	0.0165944
787.755	0.0165983
787.833	0.0167174
787.911	0.0166097
787.989	0.0166920
788.067	0.0165224
788.146	0.0165815
788.224	0.0165579
788.302	0.0165402
788.380	0.0164680
788.458	0.0166019
788.536	0.0166696
788.614	0.0165976
788.692	0.0164221
788.771	0.0164005
788.849	0.0165596
788.927	0.0164876
789.005	0.0163152
789.083	0.0164245
789.161	0.0164618
789.239	0.0165232
789.317	0.0164677
789.396	0.0163996
789.474	0.0164285
789.552	0.0164635
789.630	0.0165060
789.708	0.0164374
789.786	0.0163481
789.864	0.0165055
789.942	0.0164447
790.021	0.0164701
790.099	0.0164502
790.177	0.0163496
790.255	0.0164230
790.333	0.0164214
790.411	0.0165586
790.489	0.0164383
790.567	0.0164007
790.646	0.0164870
790.724	0.0165062
790.802	0.0164218
790.880	0.0163990
790.958	0.0165280
791.036	0.0163241
791.114	0.0165556
791.192	0.0165560
791.271	0.0164147
791.349	0.0164330
791.427	0.0165656
791.505	0.0164332
791.583	0.0165307
791.661	0.0165591
791.739	0.0163935
791.817	0.0165031
791.896	0.0165040
791.974	0.0163792
792.052	0.0163980
792.130	0.0164027
792.208	0.0164561
792.286	0.0163812
792.364	0.0164328
792.442	0.0164803
792.521	0.0164336
792.599	0.0165601
792.677	0.0164821
792.755	0.0164322
792.833	0.0164998
792.911	0.0165124
792.989	0.0165588
793.067	0.0165074
793.146	0.0165886
793.224	0.0166289
793.302	0.0166725
793.380	0.0166496
793.458	0.0167577
793.536	0.0168464
793.614	0.0167321
793.692	0.0168797
793.771	0.0168089
793.849	0.0168720
793.927	0.0167944
794.005	0.0167385
794.083	0.0168013
794.161	0.0169176
794.239	0.0168213
794.317	0.0168423
794.396	0.0168463
794.474	0.0168357
794.552	0.0167072
794.630	0.0168058
794.708	0.0167230
794.786	0.0167320
794.864	0.0168315
794.942	0.0166812
795.021	0.0167748
795.099	0.0167232
795.177	0.0167903
795.255	0.0167497
795.333	0.0166736
795.411	0.0166824
795.489	0.0168621
795.567	0.0166911
795.646	0.0166834
795.724	0.0167624
795.802	0.0168190
795.880	0.0167063
795.958	0.0167510
796.036	0.0167638
796.114	0.0166833
796.192	0.0167629
796.271	0.0168356
796.349	0.0168148
796.427	0.0168880
796.505	0.0168546
796.583	0.0167540
796.661	0.0167309
796.739	0.0168482
796.817	0.0167648
796.896	0.0168933
796.974	0.0167080
797.052	0.0166623
797.130	0.0167856
797.208	0.0166757
797.286	0.0166544
797.364	0.0164106
797.442	0.0166648
797.521	0.0165665
797.599	0.0165123
797.677	0.0166517
797.755	0.0164969
797.833	0.0165468
797.911	0.0165921
797.989	0.0164895
798.067	0.0164884
798.146	0.0165347
798.224	0.0164340
798.302	0.0164902
798.380	0.0164278
798.458	0.0164717
798.536	0.0164594
798.614	0.0164089
798.692	0.0162627
798.771	0.0164335
798.849	0.0163355
798.927	0.0163613
799.005	0.0163312
799.083	0.0164396
799.161	0.0162968
799.239	0.0164170
799.317	0.0163406
799.396	0.0163370
799.474	0.0162768
799.552	0.0163810
799.630	0.0163461
799.708	0.0163019
799.786	0.0165284
799.864	0.0165047
799.942	0.0164259
800.021	0.0163309
800.099	0.0163966
800.177	0.0164324
800.255	0.0165611
800.333	0.0163992
800.411	0.0163044
800.489	0.0164509
800.567	0.0165409
800.646	0.0164528
800.724	0.0164900
800.802	0.0167499
800.880	0.0165052
800.958	0.0165295
801.036	0.0165614
801.114	0.0165776
801.192	0.0165290
801.271	0.0166424
801.349	0.0165761
801.427	0.0166180
801.505	0.0166799
801.583	0.0166131
801.661	0.0166610
801.739	0.0165681
801.817	0.0163905
801.896	0.0166426
801.974	0.0166286
802.052	0.0164899
802.130	0.0164661
802.208	0.0165655
802.286	0.0165390
802.364	0.0163969
802.442	0.0163684
802.521	0.0165631
802.599	0.0165477
802.677	0.0164812
802.755	0.0163885
802.833	0.0165228
802.911	0.0164769
802.989	0.0164468
803.067	0.0166908
803.146	0.0166582
803.224	0.0164888
803.302	0.0166083
803.380	0.0167692
803.458	0.0165441
803.536	0.0167155
803.614	0.0167228
803.692	0.0166109
803.771	0.0168687
803.849	0.0168018
803.927	0.0166333
804.005	0.0167904
804.083	0.0167638
804.161	0.0167961
804.239	0.0167584
804.317	0.0169410
804.396	0.0167273
804.474	0.0165513
804.552	0.0166044
804.630	0.0166827
804.708	0.0166586
804.786	0.0164230
804.864	0.0163759
804.942	0.0163801
805.021	0.0162429
805.099	0.0163378
805.177	0.0161808
805.255	0.0161082
805.333	0.0160419
805.411	0.0159791
805.489	0.0160686
805.567	0.0157829
805.646	0.0157532
805.724	0.0158192
805.802	0.0156528
805.880	0.0156901
805.958	0.0156335
806.036	0.0156459
806.114	0.0155618
806.192	0.0154405
806.271	0.0155904
806.349	0.0156419
806.427	0.0154356
806.505	0.0154746
806.583	0.0154904
806.661	0.0155789
806.739	0.0155946
806.817	0.0154941
806.896	0.0155411
806.974	0.0156493
807.052	0.0156655
807.130	0.0157274
807.208	0.0158466
807.286	0.0158170
807.364	0.0157391
807.442	0.0157974
807.521	0.0157708
807.599	0.0157881
807.677	0.0158595
807.755	0.0159910
807.833	0.0159628
807.911	0.0160764
807.989	0.0160493
808.067	0.0160752
808.146	0.0160293
808.224	0.0161929
808.302	0.0160571
808.380	0.0159479
808.458	0.0160971
808.536	0.0160330
808.614	0.0161094
808.692	0.0161645
808.771	0.0161611
808.849	0.0161269
808.927	0.0161194
809.005	0.0160573
809.083	0.0162805
809.161	0.0162486
809.239	0.0161550
809.317	0.0162354
809.396	0.0162877
809.474	0.0162772
809.552	0.0163306
809.630	0.0161820
809.708	0.0163972
809.786	0.0163456
809.864	0.0165606
809.942	0.0165140
810.021	0.0165902
810.099	0.0164279
810.177	0.0164474
810.255	0.0166016
810.333	0.0167802
810.411	0.0169541
810.489	0.0166624
810.567	0.0167892
810.646	0.0168616
810.724	0.0169490
810.802	0.0168414
810.880	0.0168768
810.958	0.0169630
811.036	0.0170312
811.114	0.0168388
811.192	0.0171094
811.271	0.0171046
811.349	0.0171815
811.427	0.0171169
811.505	0.0169726
811.583	0.0169314
811.661	0.0170067
811.739	0.0170272
811.817	0.0170368
811.896	0.0169690
811.974	0.0170838
812.052	0.0169559
812.130	0.0170104
812.208	0.0168980
812.286	0.0168501
812.364	0.0168172
812.442	0.0168315
812.521	0.0167980
812.599	0.0166843
812.677	0.0168212
812.755	0.0168355
812.833	0.0166276
812.911	0.0166494
812.989	0.0166047
813.067	0.0166838
813.146	0.0166891
813.224	0.0167007
813.302	0.0165414
813.380	0.0164841
813.458	0.0165998
813.536	0.0165248
813.614	0.0165672
813.692	0.0164623
813.771	0.0163239
813.849	0.0165807
813.927	0.0164378
814.005	0.0164322
814.083	0.0164068
814.161	0.0162231
814.239	0.0161924
814.317	0.0162500
814.396	0.0162283
814.474	0.0161802
814.552	0.0161345
814.630	0.0162112
814.708	0.0160238
814.786	0.0160143
814.864	0.0160081
814.942	0.0158939
815.021	0.0158387
815.099	0.0158481
815.177	0.0157996
815.255	0.0156387
815.333	0.0156460
815.411	0.0156366
815.489	0.0154610
815.567	0.0154740
815.646	0.0154707
815.724	0.0153856
815.802	0.0155394
815.880	0.0153861
815.958	0.0153045
816.036	0.0152525
816.114	0.0152543
816.192	0.0152625
816.271	0.0152386
816.349	0.0153112
816.427	0.0153107
816.505	0.0154357
816.583	0.0156235
816.661	0.0154490
816.739	0.0155357
816.817	0.0156316
816.896	0.0157126
816.974	0.0158054
817.052	0.0157991
817.130	0.0158291
817.208	0.0159048
817.286	0.0159670
817.364	0.0161286
817.442	0.0161942
817.521	0.0163008
817.599	0.0164449
817.677	0.0163766
817.755	0.0165814
817.833	0.0164944
817.911	0.0166145
817.989	0.0169029
818.067	0.0168346
818.146	0.0169977
818.224	0.0171375
818.302	0.0171165
818.380	0.0171915
818.458	0.0173095
818.536	0.0174604
818.614	0.0174826
818.692	0.0174756
818.771	0.0176047
818.849	0.0176196
818.927	0.0176421
819.005	0.0175931
819.083	0.0176833
819.161	0.0177260
819.239	0.0178123
819.317	0.0178223
819.396	0.0177749
819.474	0.0178441
819.552	0.0180018
819.630	0.0179221
819.708	0.0178090
819.786	0.0179434
819.864	0.0178902
819.942	0.0178561
820.021	0.0178786
820.099	0.0178237
820.177	0.0177771
820.255	0.0177466
820.333	0.0177205
820.411	0.0176871
820.489	0.0176440
820.567	0.0176021
820.646	0.0174585
820.724	0.0173940
820.802	0.0173676
820.880	0.0172715
820.958	0.0173163
821.036	0.0172361
821.114	0.0171080
821.192	0.0172169
821.271	0.0170033
821.349	0.0169680
821.427	0.0168716
821.505	0.0168669
821.583	0.0167944
821.661	0.0166544
821.739	0.0165550
821.817	0.0166064
821.896	0.0164613
821.974	0.0163395
822.052	0.0163298
822.130	0.0164062
822.208	0.0162860
822.286	0.0162362
822.364	0.0162949
822.442	0.0160502
822.521	0.0160831
822.599	0.0160860
822.677	0.0160310
822.755	0.0159982
822.833	0.0160463
822.911	0.0159511
822.989	0.0159095
823.067	0.0160359
823.146	0.0159870
823.224	0.0158924
823.302	0.0159004
823.380	0.0159781
823.458	0.0160111
823.536	0.0160368
823.614	0.0160828
823.692	0.0161149
823.771	0.0161467
823.849	0.0163505
823.927	0.0161354
824.005	0.0162713
824.083	0.0163029
824.161	0.0164600
824.239	0.0163763
824.317	0.0163245
824.396	0.0163767
824.474	0.0163921
824.552	0.0166455
824.630	0.0164886
824.708	0.0165432
824.786	0.0164399
824.864	0.0162985
824.942	0.0165868
825.021	0.0165502
825.099	0.0165139
825.177	0.0164565
825.255	0.0165661
825.333	0.0164495
825.411	0.0164086
825.489	0.0163759
825.567	0.0165183
825.646	0.0163621
825.724	0.0164194
825.802	0.0163590
825.880	0.0164510
825.958	0.0164021
826.036	0.0161374
826.114	0.0163588
826.192	0.0162878
826.271	0.0162263
826.349	0.0160774
826.427	0.0160572
826.505	0.0161157
826.583	0.0161880
826.661	0.0160352
826.739	0.0159402
826.817	0.0161087
826.896	0.0159904
826.974	0.0160618
827.052	0.0159820
827.130	0.0161045
827.208	0.0161089
827.286	0.0159644
827.364	0.0161022
827.442	0.0161574
827.521	0.0162203
827.599	0.0162495
827.677	0.0162865
827.755	0.0163177
827.833	0.0162476
827.911	0.0162399
827.989	0.0163604
828.067	0.0162546
828.146	0.0162923
828.224	0.0163865
828.302	0.0163861
828.380	0.0162272
828.458	0.0162038
828.536	0.0161159
828.614	0.0160513
828.692	0.0161051
828.771	0.0160265
828.849	0.0158773
828.927	0.0159480
829.005	0.0160263
829.083	0.0159641
829.161	0.0158643
829.239	0.0160259
829.317	0.0158838
829.396	0.0158437
829.474	0.0158689
829.552	0.0156445
829.630	0.0157150
829.708	0.0159064
829.786	0.0158429
829.864	0.0157834
829.942	0.0157330
830.021	0.0156286
830.099	0.0156857
830.177	0.0157583
830.255	0.0156812
830.333	0.0156919
830.411	0.0158547
830.489	0.0157047
830.567	0.0157093
830.646	0.0157390
830.724	0.0157720
830.802	0.0160452
830.880	0.0158800
830.958	0.0161026
831.036	0.0159663
831.114	0.0160425
831.192	0.0160475
831.271	0.0161225
831.349	0.0161128
831.427	0.0161691
831.505	0.0162032
831.583	0.0160994
831.661	0.0162228
831.739	0.0163139
831.817	0.0163435
831.896	0.0164122
831.974	0.0163673
832.052	0.0164526
832.130	0.0164463
832.208	0.0164729
832.286	0.0165742
832.364	0.0165344
832.442	0.0166196
832.521	0.0165678
832.599	0.0164952
832.677	0.0166919
832.755	0.0165355
832.833	0.0166386
832.911	0.0166869
832.989	0.0165996
833.067	0.0165720
833.146	0.0167022
833.224	0.0165030
833.302	0.0166020
833.380	0.0166759
833.458	0.0165363
833.536	0.0165658
833.614	0.0166151
833.692	0.0165966
833.771	0.0164542
833.849	0.0165472
833.927	0.0166923
834.005	0.0165759
834.083	0.0165165
834.161	0.0165636
834.239	0.0165517
834.317	0.0165382
834.396	0.0165143
834.474	0.0164685
834.552	0.0165645
834.630	0.0165325
834.708	0.0166215
834.786	0.0164809
834.864	0.0166353
834.942	0.0164798
835.021	0.0166062
835.099	0.0165126
835.177	0.0165783
835.255	0.0165155
835.333	0.0165984
835.411	0.0167524
835.489	0.0168321
835.567	0.0166427
835.646	0.0166906
835.724	0.0169166
835.802	0.0168897
835.880	0.0168427
835.958	0.0168270
836.036	0.0169540
836.114	0.0169302
836.192	0.0168700
836.271	0.0169700
836.349	0.0168409
836.427	0.0167002
836.505	0.0168570
836.583	0.0169527
836.661	0.0168586
836.739	0.0168513
836.817	0.0168613
836.896	0.0168441
836.974	0.0167353
837.052	0.0166747
837.130	0.0166632
837.208	0.0167268
837.286	0.0163905
837.364	0.0165268
837.442	0.0165421
837.521	0.0164120
837.599	0.0163319
837.677	0.0165004
837.755	0.0162141
837.833	0.0161640
837.911	0.0161997
837.989	0.0163563
838.067	0.0163081
838.146	0.0162263
838.224	0.0162081
838.302	0.0160348
838.380	0.0160848
838.458	0.0160335
838.536	0.0160201
838.614	0.0159890
838.692	0.0158746
838.771	0.0159378
838.849	0.0159758
838.927	0.0159072
839.005	0.0157275
839.083	0.0158601
839.161	0.0156421
839.239	0.0157169
839.317	0.0157738
839.396	0.0156633
839.474	0.0157310
839.552	0.0157834
839.630	0.0158006
839.708	0.0157875
839.786	0.0158323
839.864	0.0157800
839.942	0.0157712
840.021	0.0158212
840.099	0.0159837
840.177	0.0160174
840.255	0.0160374
840.333	0.0160410
840.411	0.0160676
840.489	0.0161340
840.567	0.0160555
840.646	0.0161047
840.724	0.0162594
840.802	0.0161205
840.880	0.0161722
840.958	0.0161578
841.036	0.0161813
841.114	0.0160786
841.192	0.0160411
841.271	0.0162479
841.349	0.0160590
841.427	0.0160576
841.505	0.0160637
841.583	0.0160594
841.661	0.0159843
841.739	0.0159201
841.817	0.0160410
841.896	0.0159028
841.974	0.0160119
842.052	0.0160570
842.130	0.0160809
842.208	0.0161600
842.286	0.0162373
842.364	0.0160578
842.442	0.0160522
842.521	0.0162373
842.599	0.0162939
842.677	0.0163397
842.755	0.0164724
842.833	0.0165583
842.911	0.0165084
842.989	0.0167190
843.067	0.0166276
843.146	0.0167558
843.224	0.0169232
843.302	0.0168890
843.380	0.0169120
843.458	0.0168815
843.536	0.0168683
843.614	0.0170883
843.692	0.0169437
843.771	0.0169566
843.849	0.0169688
843.927	0.0171332
844.005	0.0169114
844.083	0.0169936
844.161	0.0171429
844.239	0.0170670
844.317	0.0170210
844.396	0.0170154
844.474	0.0171863
844.552	0.0170760
844.630	0.0169920
844.708	0.0169466
844.786	0.0169716
844.864	0.0170042
844.942	0.0169788
845.021	0.0168831
845.099	0.0170599
845.177	0.0168967
845.255	0.0169535
845.333	0.0169627
845.411	0.0168922
845.489	0.0169791
845.567	0.0169802
845.646	0.0170451
845.724	0.0168782
845.802	0.0169187
845.880	0.0167233
845.958	0.0168551
846.036	0.0168495
846.114	0.0167472
846.192	0.0167382
846.271	0.0167033
846.349	0.0168450
846.427	0.0167129
846.505	0.0166368
846.583	0.0165678
846.661	0.0164606
846.739	0.0165280
846.817	0.0165813
846.896	0.0165132
846.974	0.0164537
847.052	0.0165555
847.130	0.0163667
847.208	0.0163265
847.286	0.0165118
847.364	0.0164792
847.442	0.0162115
847.521	0.0162523
847.599	0.0161879
847.677	0.0162071
847.755	0.0161297
847.833	0.0162379
847.911	0.0161490
847.989	0.0162305
848.067	0.0160700
848.146	0.0160746
848.224	0.0160449
848.302	0.0161196
848.380	0.0161113
848.458	0.0160940
848.536	0.0160942
848.614	0.0161649
848.692	0.0161521
848.771	0.0160265
848.849	0.0161846
848.927	0.0160065
849.005	0.0159476
849.083	0.0161674
849.161	0.0160568
849.239	0.0161024
849.317	0.0159421
849.396	0.0158979
849.474	0.0159303
849.552	0.0159487
849.630	0.0160077
849.708	0.0159432
849.786	0.0157874
849.864	0.0158855
849.942	0.0158235
850.021	0.0159170
850.099	0.0158370
850.177	0.0157755
850.255	0.0157710
850.333	0.0157260
850.411	0.0157056
850.489	0.0156863
850.567	0.0157334
850.646	0.0156134
850.724	0.0154282
850.802	0.0156505
850.880	0.0156142
850.958	0.0155106
851.036	0.0156996
851.114	0.0157954
851.192	0.0157314
851.271	0.0159227
851.349	0.0158842
851.427	0.0160792
851.505	0.0160070
851.583	0.0161793
851.661	0.0164488
851.739	0.0162817
851.817	0.0163123
851.896	0.0163911
851.974	0.0165382
852.052	0.0166266
852.130	0.0165703
852.208	0.0166293
852.286	0.0166847
852.364	0.0167500
852.442	0.0167205
852.521	0.0169331
852.599	0.0168053
852.677	0.0167798
852.755	0.0168776
852.833	0.0168070
852.911	0.0168331
852.989	0.0167007
853.067	0.0167992
853.146	0.0167947
853.224	0.0165569
853.302	0.0166927
853.380	0.0165347
853.458	0.0165581
853.536	0.0165210
853.614	0.0164652
853.692	0.0164706
853.771	0.0163068
853.849	0.0164420
853.927	0.0163056
854.005	0.0163441
854.083	0.0162881
854.161	0.0162000
854.239	0.0162397
854.317	0.0161524
854.396	0.0161520
854.474	0.0159978
854.552	0.0159876
854.630	0.0161256
854.708	0.0160930
854.786	0.0159933
854.864	0.0160076
854.942	0.0160532
855.021	0.0160664
855.099	0.0159697
855.177	0.0159501
855.255	0.0160883
855.333	0.0160818
855.411	0.0160417
855.489	0.0160549
855.567	0.0159721
855.646	0.0161201
855.724	0.0161298
855.802	0.0161795
855.880	0.0161237
855.958	0.0161269
856.036	0.0161975
856.114	0.0162103
856.192	0.0162180
856.271	0.0163162
856.349	0.0162387
856.427	0.0162954
856.505	0.0162943
856.583	0.0163054
856.661	0.0163506
856.739	0.0163680
856.817	0.0163405
856.896	0.0165260
856.974	0.0163663
857.052	0.0164333
857.130	0.0165254
857.208	0.0164725
857.286	0.0165340
857.364	0.0166016
857.442	0.0165913
857.521	0.0166364
857.599	0.0165851
857.677	0.0165723
857.755	0.0166796
857.833	0.0167517
857.911	0.0166647
857.989	0.0166074
858.067	0.0167525
858.146	0.0168092
858.224	0.0166780
858.302	0.0166036
858.380	0.0166669
858.458	0.0167361
858.536	0.0166992
858.614	0.0165533
858.692	0.0164651
858.771	0.0164966
858.849	0.0165479
858.927	0.0165429
859.005	0.0166753
859.083	0.0164872
859.161	0.0165449
859.239	0.0165675
859.317	0.0164964
859.396	0.0166863
859.474	0.0166724
859.552	0.0166046
859.630	0.0165529
859.708	0.0163734
859.786	0.0165366
859.864	0.0164905
859.942	0.0164179
860.021	0.0165652
860.099	0.0165219
860.177	0.0165472
860.255	0.0165263
860.333	0.0165960
860.411	0.0166113
860.489	0.0165372
860.567	0.0165700
860.646	0.0165048
860.724	0.0167184
860.802	0.0167701
860.880	0.0166652
860.958	0.0166434
861.036	0.0166631
861.114	0.0165614
861.192	0.0167301
861.271	0.0165993
861.349	0.0167044
861.427	0.0166696
861.505	0.0167118
861.583	0.0166613
861.661	0.0166322
861.739	0.0166407
861.817	0.0164706
861.896	0.0164911
861.974	0.0164488
862.052	0.0164859
862.130	0.0163056
862.208	0.0162809
862.286	0.0162550
862.364	0.0162569
862.442	0.0161926
862.521	0.0161720
862.599	0.0160004
862.677	0.0159283
862.755	0.0159193
862.833	0.0159109
862.911	0.0158852
862.989	0.0157473
863.067	0.0157197
863.146	0.0160126
863.224	0.0158151
863.302	0.0156673
863.380	0.0156229
863.458	0.0156049
863.536	0.0156600
863.614	0.0156125
863.692	0.0155840
863.771	0.0155071
863.849	0.0155547
863.927	0.0154887
864.005	0.0155040
864.083	0.0155083
864.161	0.0153082
864.239	0.0154233
864.317	0.0155618
864.396	0.0154008
864.474	0.0156001
864.552	0.0154611
864.630	0.0155297
864.708	0.0155797
864.786	0.0156824
864.864	0.0157367
864.942	0.0158060
865.021	0.0157582
865.099	0.0158665
865.177	0.0160205
865.255	0.0160509
865.333	0.0160860
865.411	0.0161907
865.489	0.0162987
865.567	0.0164216
865.646	0.0165307
865.724	0.0164870
865.802	0.0164930
865.880	0.0166334
865.958	0.0165417
866.036	0.0166919
866.114	0.0166801
866.192	0.0166815
866.271	0.0166222
866.349	0.0166911
866.427	0.0166985
866.505	0.0167648
866.583	0.0167066
866.661	0.0167409
866.739	0.0168803
866.817	0.0168749
866.896	0.0167780
866.974	0.0169273
867.052	0.0168752
867.130	0.0168424
867.208	0.0168971
867.286	0.0168126
867.364	0.0168363
867.442	0.0168905
867.521	0.0168359
867.599	0.0167216
867.677	0.0169035
867.755	0.0168566
867.833	0.0167081
867.911	0.0168134
867.989	0.0168397
868.067	0.0166628
868.146	0.0165489
868.224	0.0167197
868.302	0.0165923
868.380	0.0166425
868.458	0.0166755
868.536	0.0167094
868.614	0.0165527
868.692	0.0165789
868.771	0.0165928
868.849	0.0165941
868.927	0.0165190
869.005	0.0166452
869.083	0.0164988
869.161	0.0165193
869.239	0.0163742
869.317	0.0162987
869.396	0.0163110
869.474	0.0164135
869.552	0.0163581
869.630	0.0163192
869.708	0.0161871
869.786	0.0163146
869.864	0.0162125
869.942	0.0161976
