06/03/2022	14:53:30	Ver.	4.1	UNKNOWN
Optical Delay	550.020508	Delta X		0.078125	Sweeps	1	Scan Rate	0/0
Coordinates	Axis 1	NaN	Axis 2	NaN	Axis 3	NaN	Axis 4	NaN	Axis 5	NaN	Axis 6	0.000000
TX Power	0.000000	RX Power	0.000000

550.021	0.0176884
550.099	0.0198335
550.177	0.0195711
550.255	0.0194183
550.333	0.0191898
550.411	0.0190645
550.489	0.0188995
550.567	0.0186940
550.646	0.0186066
550.724	0.0183251
550.802	0.0180281
550.880	0.0177744
550.958	0.0175700
551.036	0.0174232
551.114	0.0170622
551.192	0.0170856
551.271	0.0169988
551.349	0.0166312
551.427	0.0164832
551.505	0.0164497
551.583	0.0161170
551.661	0.0158556
551.739	0.0157105
551.817	0.0156938
551.896	0.0154221
551.974	0.0152127
552.052	0.0151207
552.130	0.0149883
552.208	0.0148167
552.286	0.0147749
552.364	0.0148166
552.442	0.0147183
552.521	0.0146558
552.599	0.0144542
552.677	0.0143612
552.755	0.0144476
552.833	0.0144144
552.911	0.0144252
552.989	0.0146244
553.067	0.0145013
553.146	0.0145705
553.224	0.0146070
553.302	0.0145160
553.380	0.0148450
553.458	0.0146861
553.536	0.0148209
553.614	0.0149529
553.692	0.0149142
553.771	0.0149765
553.849	0.0149449
553.927	0.0150774
554.005	0.0151207
554.083	0.0151980
554.161	0.0151668
554.239	0.0153099
554.317	0.0151659
554.396	0.0154410
554.474	0.0154313
554.552	0.0155602
554.630	0.0155611
554.708	0.0155969
554.786	0.0156634
554.864	0.0157217
554.942	0.0157476
555.021	0.0158665
555.099	0.0158273
555.177	0.0160217
555.255	0.0158212
555.333	0.0158192
555.411	0.0159157
555.489	0.0158636
555.567	0.0160284
555.646	0.0161629
555.724	0.0160900
555.802	0.0160495
555.880	0.0162621
555.958	0.0161232
556.036	0.0161205
556.114	0.0161749
556.192	0.0162335
556.271	0.0162261
556.349	0.0162542
556.427	0.0162225
556.505	0.0163309
556.583	0.0161687
556.661	0.0164014
556.739	0.0163536
556.817	0.0163597
556.896	0.0164125
556.974	0.0163577
557.052	0.0165426
557.130	0.0166463
557.208	0.0164565
557.286	0.0166581
557.364	0.0166662
557.442	0.0166549
557.521	0.0166099
557.599	0.0165725
557.677	0.0166552
557.755	0.0165065
557.833	0.0165199
557.911	0.0167999
557.989	0.0165681
558.067	0.0165478
558.146	0.0167499
558.224	0.0165053
558.302	0.0166511
558.380	0.0166983
558.458	0.0165492
558.536	0.0165951
558.614	0.0166513
558.692	0.0166251
558.771	0.0164378
558.849	0.0166664
558.927	0.0164339
559.005	0.0163210
559.083	0.0163702
559.161	0.0163855
559.239	0.0163739
559.317	0.0164225
559.396	0.0163321
559.474	0.0162402
559.552	0.0161620
559.630	0.0161686
559.708	0.0160183
559.786	0.0159974
559.864	0.0159679
559.942	0.0158013
560.021	0.0156788
560.099	0.0155205
560.177	0.0154826
560.255	0.0156635
560.333	0.0151268
560.411	0.0150494
560.489	0.0149832
560.567	0.0149003
560.646	0.0147427
560.724	0.0144906
560.802	0.0144405
560.880	0.0145185
560.958	0.0142954
561.036	0.0143903
561.114	0.0141804
561.192	0.0140993
561.271	0.0139620
561.349	0.0140240
561.427	0.0140102
561.505	0.0138614
561.583	0.0139068
561.661	0.0139626
561.739	0.0141602
561.817	0.0139419
561.896	0.0140434
561.974	0.0142090
562.052	0.0143353
562.130	0.0144595
562.208	0.0144282
562.286	0.0145934
562.364	0.0146099
562.442	0.0146423
562.521	0.0147826
562.599	0.0148280
562.677	0.0147777
562.755	0.0149865
562.833	0.0150748
562.911	0.0151567
562.989	0.0151523
563.067	0.0154074
563.146	0.0152706
563.224	0.0152943
563.302	0.0155973
563.380	0.0155305
563.458	0.0156796
563.536	0.0157644
563.614	0.0157933
563.692	0.0159168
563.771	0.0160365
563.849	0.0160208
563.927	0.0160511
564.005	0.0162024
564.083	0.0162061
564.161	0.0164141
564.239	0.0162735
564.317	0.0163233
564.396	0.0163218
564.474	0.0163530
564.552	0.0163806
564.630	0.0163371
564.708	0.0161794
564.786	0.0161669
564.864	0.0161947
564.942	0.0162276
565.021	0.0162180
565.099	0.0161332
565.177	0.0161112
565.255	0.0159777
565.333	0.0159241
565.411	0.0158582
565.489	0.0158931
565.567	0.0157845
565.646	0.0158530
565.724	0.0158715
565.802	0.0158436
565.880	0.0158328
565.958	0.0160100
566.036	0.0160352
566.114	0.0158817
566.192	0.0159046
566.271	0.0159652
566.349	0.0161778
566.427	0.0161235
566.505	0.0162714
566.583	0.0163094
566.661	0.0162699
566.739	0.0163332
566.817	0.0165171
566.896	0.0166556
566.974	0.0167258
567.052	0.0168126
567.130	0.0169806
567.208	0.0170100
567.286	0.0171366
567.364	0.0171626
567.442	0.0171527
567.521	0.0173061
567.599	0.0175083
567.677	0.0176630
567.755	0.0177084
567.833	0.0176949
567.911	0.0177989
567.989	0.0179100
568.067	0.0179227
568.146	0.0179828
568.224	0.0181150
568.302	0.0180844
568.380	0.0181497
568.458	0.0180900
568.536	0.0182323
568.614	0.0181775
568.692	0.0182201
568.771	0.0181712
568.849	0.0182194
568.927	0.0181801
569.005	0.0183358
569.083	0.0183588
569.161	0.0182277
569.239	0.0181831
569.317	0.0180882
569.396	0.0181988
569.474	0.0181319
569.552	0.0181406
569.630	0.0182330
569.708	0.0181300
569.786	0.0180644
569.864	0.0179464
569.942	0.0180979
570.021	0.0177787
570.099	0.0176527
570.177	0.0177731
570.255	0.0176311
570.333	0.0177890
570.411	0.0175316
570.489	0.0175553
570.567	0.0173467
570.646	0.0172295
570.724	0.0170860
570.802	0.0170802
570.880	0.0170462
570.958	0.0169907
571.036	0.0169147
571.114	0.0167375
571.192	0.0166270
571.271	0.0165671
571.349	0.0164001
571.427	0.0165062
571.505	0.0163528
571.583	0.0162984
571.661	0.0162814
571.739	0.0163071
571.817	0.0163024
571.896	0.0163421
571.974	0.0163958
572.052	0.0161861
572.130	0.0161839
572.208	0.0163439
572.286	0.0163219
572.364	0.0162469
572.442	0.0162307
572.521	0.0163818
572.599	0.0163441
572.677	0.0162080
572.755	0.0163316
572.833	0.0163583
572.911	0.0162772
572.989	0.0161806
573.067	0.0161705
573.146	0.0163765
573.224	0.0162597
573.302	0.0163453
573.380	0.0163345
573.458	0.0162080
573.536	0.0162402
573.614	0.0161714
573.692	0.0162535
573.771	0.0161490
573.849	0.0162051
573.927	0.0161578
574.005	0.0161282
574.083	0.0159990
574.161	0.0160179
574.239	0.0159104
574.317	0.0160203
574.396	0.0159529
574.474	0.0157826
574.552	0.0158221
574.630	0.0157293
574.708	0.0156434
574.786	0.0156567
574.864	0.0154118
574.942	0.0154404
575.021	0.0154810
575.099	0.0153284
575.177	0.0153913
575.255	0.0152493
575.333	0.0152127
575.411	0.0151611
575.489	0.0150620
575.567	0.0150567
575.646	0.0149875
575.724	0.0149881
575.802	0.0149525
575.880	0.0148755
575.958	0.0148374
576.036	0.0147897
576.114	0.0148566
576.192	0.0149763
576.271	0.0148933
576.349	0.0147815
576.427	0.0148985
576.505	0.0149236
576.583	0.0148863
576.661	0.0148899
576.739	0.0148306
576.817	0.0149505
576.896	0.0151774
576.974	0.0151690
577.052	0.0151751
577.130	0.0154199
577.208	0.0152483
577.286	0.0153281
577.364	0.0152834
577.442	0.0154146
577.521	0.0154818
577.599	0.0155617
577.677	0.0155579
577.755	0.0157114
577.833	0.0155736
577.911	0.0156471
577.989	0.0156405
578.067	0.0158278
578.146	0.0158150
578.224	0.0158662
578.302	0.0159514
578.380	0.0159602
578.458	0.0161560
578.536	0.0159914
578.614	0.0161224
578.692	0.0160573
578.771	0.0161859
578.849	0.0162695
578.927	0.0162698
579.005	0.0162531
579.083	0.0162746
579.161	0.0164544
579.239	0.0163903
579.317	0.0164758
579.396	0.0165032
579.474	0.0165826
579.552	0.0166567
579.630	0.0166441
579.708	0.0168053
579.786	0.0168717
579.864	0.0168546
579.942	0.0168397
580.021	0.0169547
580.099	0.0169904
580.177	0.0171594
580.255	0.0171535
580.333	0.0170101
580.411	0.0170743
580.489	0.0171624
580.567	0.0173589
580.646	0.0173158
580.724	0.0171891
580.802	0.0171796
580.880	0.0174397
580.958	0.0174506
581.036	0.0173987
581.114	0.0172883
581.192	0.0174403
581.271	0.0174713
581.349	0.0173058
581.427	0.0174122
581.505	0.0172923
581.583	0.0174311
581.661	0.0171956
581.739	0.0172494
581.817	0.0172974
581.896	0.0171535
581.974	0.0170906
582.052	0.0170016
582.130	0.0169277
582.208	0.0168851
582.286	0.0168910
582.364	0.0168155
582.442	0.0166023
582.521	0.0166263
582.599	0.0166048
582.677	0.0164673
582.755	0.0165488
582.833	0.0164607
582.911	0.0162960
582.989	0.0162167
583.067	0.0160071
583.146	0.0160006
583.224	0.0159636
583.302	0.0158987
583.380	0.0159385
583.458	0.0157131
583.536	0.0156576
583.614	0.0154808
583.692	0.0156412
583.771	0.0154396
583.849	0.0154909
583.927	0.0153278
584.005	0.0151863
584.083	0.0152763
584.161	0.0151553
584.239	0.0152144
584.317	0.0149763
584.396	0.0150034
584.474	0.0150298
584.552	0.0149618
584.630	0.0150020
584.708	0.0149211
584.786	0.0148786
584.864	0.0148550
584.942	0.0149702
585.021	0.0148836
585.099	0.0149528
585.177	0.0148485
585.255	0.0149484
585.333	0.0149269
585.411	0.0148632
585.489	0.0148196
585.567	0.0147932
585.646	0.0147975
585.724	0.0148802
585.802	0.0148136
585.880	0.0148640
585.958	0.0148727
586.036	0.0149364
586.114	0.0147721
586.192	0.0148013
586.271	0.0148355
586.349	0.0148556
586.427	0.0147935
586.505	0.0149527
586.583	0.0148175
586.661	0.0150504
586.739	0.0147607
586.817	0.0148345
586.896	0.0149018
586.974	0.0149853
587.052	0.0149516
587.130	0.0151218
587.208	0.0151372
587.286	0.0150652
587.364	0.0150333
587.442	0.0151299
587.521	0.0152119
587.599	0.0151540
587.677	0.0152271
587.755	0.0152921
587.833	0.0152724
587.911	0.0152509
587.989	0.0153860
588.067	0.0155428
588.146	0.0154504
588.224	0.0155791
588.302	0.0156892
588.380	0.0156852
588.458	0.0156160
588.536	0.0158275
588.614	0.0157884
588.692	0.0158471
588.771	0.0159982
588.849	0.0157804
588.927	0.0159833
589.005	0.0161422
589.083	0.0161754
589.161	0.0161683
589.239	0.0163256
589.317	0.0162984
589.396	0.0162042
589.474	0.0164128
589.552	0.0163271
589.630	0.0163630
589.708	0.0163984
589.786	0.0164112
589.864	0.0164615
589.942	0.0166140
590.021	0.0166138
590.099	0.0165514
590.177	0.0167020
590.255	0.0167695
590.333	0.0167306
590.411	0.0167304
590.489	0.0166754
590.567	0.0167738
590.646	0.0168567
590.724	0.0169030
590.802	0.0168909
590.880	0.0168768
590.958	0.0169920
591.036	0.0169486
591.114	0.0169471
591.192	0.0170540
591.271	0.0169941
591.349	0.0169124
591.427	0.0168493
591.505	0.0169273
591.583	0.0170518
591.661	0.0170999
591.739	0.0170262
591.817	0.0169344
591.896	0.0169162
591.974	0.0167662
592.052	0.0170008
592.130	0.0168617
592.208	0.0169218
592.286	0.0167911
592.364	0.0168618
592.442	0.0168997
592.521	0.0167809
592.599	0.0167228
592.677	0.0168113
592.755	0.0169307
592.833	0.0165820
592.911	0.0166316
592.989	0.0167380
593.067	0.0165202
593.146	0.0166329
593.224	0.0165963
593.302	0.0165463
593.380	0.0164757
593.458	0.0165119
593.536	0.0165699
593.614	0.0164949
593.692	0.0162856
593.771	0.0163928
593.849	0.0163058
593.927	0.0163620
594.005	0.0163874
594.083	0.0161951
594.161	0.0163331
594.239	0.0163159
594.317	0.0162434
594.396	0.0161759
594.474	0.0162300
594.552	0.0161138
594.630	0.0160323
594.708	0.0162566
594.786	0.0161513
594.864	0.0162357
594.942	0.0160770
595.021	0.0161531
595.099	0.0160921
595.177	0.0160259
595.255	0.0160541
595.333	0.0161630
595.411	0.0160268
595.489	0.0160049
595.567	0.0160208
595.646	0.0160764
595.724	0.0160256
595.802	0.0159871
595.880	0.0160432
595.958	0.0158661
596.036	0.0158882
596.114	0.0159400
596.192	0.0158659
596.271	0.0158923
596.349	0.0158815
596.427	0.0159663
596.505	0.0158574
596.583	0.0157559
596.661	0.0158263
596.739	0.0158235
596.817	0.0158173
596.896	0.0157541
596.974	0.0157030
597.052	0.0157181
597.130	0.0156287
597.208	0.0154312
597.286	0.0157150
597.364	0.0157523
597.442	0.0156620
597.521	0.0154020
597.599	0.0155920
597.677	0.0155898
597.755	0.0156644
597.833	0.0156229
597.911	0.0156574
597.989	0.0156297
598.067	0.0156040
598.146	0.0157664
598.224	0.0155542
598.302	0.0157162
598.380	0.0156424
598.458	0.0156879
598.536	0.0157928
598.614	0.0157666
598.692	0.0155849
598.771	0.0158094
598.849	0.0159001
598.927	0.0158458
599.005	0.0157524
599.083	0.0158109
599.161	0.0160293
599.239	0.0158141
599.317	0.0157552
599.396	0.0159765
599.474	0.0160544
599.552	0.0159846
599.630	0.0160801
599.708	0.0160860
599.786	0.0162209
599.864	0.0160749
599.942	0.0160805
600.021	0.0160877
600.099	0.0162601
600.177	0.0161892
600.255	0.0162794
600.333	0.0162955
600.411	0.0163171
600.489	0.0163158
600.567	0.0163209
600.646	0.0162809
600.724	0.0162699
600.802	0.0163934
600.880	0.0163909
600.958	0.0164046
601.036	0.0164667
601.114	0.0163798
601.192	0.0163490
601.271	0.0164371
601.349	0.0164745
601.427	0.0164960
601.505	0.0165773
601.583	0.0165792
601.661	0.0165254
601.739	0.0165983
601.817	0.0166444
601.896	0.0166508
601.974	0.0166064
602.052	0.0166808
602.130	0.0166599
602.208	0.0166918
602.286	0.0166171
602.364	0.0166621
602.442	0.0167442
602.521	0.0166499
602.599	0.0166647
602.677	0.0166463
602.755	0.0166932
602.833	0.0168172
602.911	0.0167885
602.989	0.0166322
603.067	0.0166744
603.146	0.0167937
603.224	0.0165483
603.302	0.0165177
603.380	0.0166988
603.458	0.0166969
603.536	0.0166048
603.614	0.0165781
603.692	0.0166415
603.771	0.0166618
603.849	0.0164783
603.927	0.0163854
604.005	0.0164954
604.083	0.0165211
604.161	0.0166099
604.239	0.0165512
604.317	0.0166031
604.396	0.0164914
604.474	0.0166054
604.552	0.0165547
604.630	0.0166136
604.708	0.0165145
604.786	0.0166673
604.864	0.0166249
604.942	0.0166476
605.021	0.0165678
605.099	0.0166624
605.177	0.0165782
605.255	0.0166102
605.333	0.0166840
605.411	0.0165974
605.489	0.0165523
605.567	0.0165994
605.646	0.0165600
605.724	0.0165822
605.802	0.0166075
605.880	0.0166414
605.958	0.0165692
606.036	0.0165872
606.114	0.0165224
606.192	0.0165526
606.271	0.0165294
606.349	0.0164857
606.427	0.0165838
606.505	0.0164709
606.583	0.0164055
606.661	0.0165533
606.739	0.0164202
606.817	0.0163039
606.896	0.0163309
606.974	0.0163042
607.052	0.0163106
607.130	0.0162554
607.208	0.0162977
607.286	0.0162569
607.364	0.0161989
607.442	0.0160271
607.521	0.0160506
607.599	0.0161394
607.677	0.0161149
607.755	0.0158477
607.833	0.0157925
607.911	0.0158392
607.989	0.0157861
608.067	0.0157135
608.146	0.0155759
608.224	0.0157176
608.302	0.0155753
608.380	0.0154905
608.458	0.0155599
608.536	0.0155421
608.614	0.0154662
608.692	0.0153734
608.771	0.0153731
608.849	0.0152666
608.927	0.0152750
609.005	0.0154105
609.083	0.0153205
609.161	0.0152638
609.239	0.0154452
609.317	0.0153476
609.396	0.0154044
609.474	0.0155096
609.552	0.0153963
609.630	0.0155454
609.708	0.0156081
609.786	0.0156062
609.864	0.0156967
609.942	0.0157043
610.021	0.0158347
610.099	0.0157011
610.177	0.0158134
610.255	0.0159416
610.333	0.0160766
610.411	0.0160747
610.489	0.0162353
610.567	0.0162251
610.646	0.0163340
610.724	0.0162766
610.802	0.0163831
610.880	0.0164176
610.958	0.0164137
611.036	0.0165585
611.114	0.0163925
611.192	0.0164117
611.271	0.0164590
611.349	0.0165001
611.427	0.0165344
611.505	0.0164628
611.583	0.0163852
611.661	0.0165858
611.739	0.0165430
611.817	0.0165156
611.896	0.0164717
611.974	0.0165535
612.052	0.0163361
612.130	0.0162693
612.208	0.0161946
612.286	0.0160696
612.364	0.0161317
612.442	0.0161285
612.521	0.0157718
612.599	0.0158549
612.677	0.0157401
612.755	0.0154131
612.833	0.0154018
612.911	0.0154449
612.989	0.0152180
613.067	0.0151566
613.146	0.0149717
613.224	0.0150763
613.302	0.0149960
613.380	0.0149503
613.458	0.0148228
613.536	0.0148956
613.614	0.0147850
613.692	0.0146909
613.771	0.0146735
613.849	0.0145593
613.927	0.0146535
614.005	0.0146089
614.083	0.0143649
614.161	0.0142702
614.239	0.0142435
614.317	0.0143051
614.396	0.0143412
614.474	0.0142469
614.552	0.0141946
614.630	0.0142736
614.708	0.0143385
614.786	0.0144106
614.864	0.0144129
614.942	0.0144672
615.021	0.0145383
615.099	0.0146751
615.177	0.0148040
615.255	0.0149181
615.333	0.0150214
615.411	0.0151028
615.489	0.0153270
615.567	0.0153740
615.646	0.0154646
615.724	0.0154937
615.802	0.0156220
615.880	0.0159682
615.958	0.0159741
616.036	0.0162159
616.114	0.0162144
616.192	0.0162021
616.271	0.0162512
616.349	0.0164839
616.427	0.0164082
616.505	0.0165870
616.583	0.0166109
616.661	0.0166200
616.739	0.0166026
616.817	0.0166360
616.896	0.0168668
616.974	0.0168699
617.052	0.0167343
617.130	0.0166552
617.208	0.0167236
617.286	0.0167822
617.364	0.0167974
617.442	0.0167845
617.521	0.0167055
617.599	0.0167493
617.677	0.0166385
617.755	0.0165794
617.833	0.0166474
617.911	0.0165399
617.989	0.0165641
618.067	0.0167355
618.146	0.0164755
618.224	0.0165318
618.302	0.0165293
618.380	0.0166461
618.458	0.0163952
618.536	0.0164761
618.614	0.0163890
618.692	0.0162596
618.771	0.0162688
618.849	0.0164525
618.927	0.0162086
619.005	0.0161663
619.083	0.0161370
619.161	0.0162186
619.239	0.0163013
619.317	0.0162415
619.396	0.0162202
619.474	0.0161880
619.552	0.0160289
619.630	0.0160489
619.708	0.0161591
619.786	0.0161284
619.864	0.0160994
619.942	0.0161917
620.021	0.0161885
620.099	0.0161680
620.177	0.0162224
620.255	0.0161766
620.333	0.0162579
620.411	0.0160837
620.489	0.0162180
620.567	0.0162157
620.646	0.0161399
620.724	0.0162153
620.802	0.0161744
620.880	0.0160828
620.958	0.0162244
621.036	0.0162193
621.114	0.0161608
621.192	0.0161700
621.271	0.0160638
621.349	0.0162030
621.427	0.0161843
621.505	0.0160923
621.583	0.0161046
621.661	0.0161690
621.739	0.0161974
621.817	0.0161508
621.896	0.0162311
621.974	0.0161961
622.052	0.0161890
622.130	0.0161968
622.208	0.0161978
622.286	0.0162180
622.364	0.0161784
622.442	0.0161389
622.521	0.0161427
622.599	0.0162852
622.677	0.0163019
622.755	0.0162037
622.833	0.0162885
622.911	0.0162746
622.989	0.0162831
623.067	0.0162939
623.146	0.0161233
623.224	0.0162992
623.302	0.0162455
623.380	0.0163747
623.458	0.0163712
623.536	0.0163709
623.614	0.0163040
623.692	0.0163776
623.771	0.0164709
623.849	0.0164275
623.927	0.0163899
624.005	0.0165696
624.083	0.0165574
624.161	0.0165436
624.239	0.0167147
624.317	0.0166755
624.396	0.0167044
624.474	0.0168748
624.552	0.0167500
624.630	0.0167939
624.708	0.0166775
624.786	0.0167558
624.864	0.0169291
624.942	0.0167501
625.021	0.0168123
625.099	0.0168545
625.177	0.0166705
625.255	0.0167982
625.333	0.0167105
625.411	0.0166824
625.489	0.0166479
625.567	0.0167013
625.646	0.0166806
625.724	0.0166736
625.802	0.0164610
625.880	0.0166449
625.958	0.0165501
626.036	0.0166008
626.114	0.0166145
626.192	0.0167718
626.271	0.0168026
626.349	0.0166890
626.427	0.0166354
626.505	0.0166991
626.583	0.0167452
626.661	0.0168179
626.739	0.0168928
626.817	0.0167717
626.896	0.0168532
626.974	0.0169306
627.052	0.0168034
627.130	0.0168260
627.208	0.0169427
627.286	0.0169614
627.364	0.0168219
627.442	0.0168559
627.521	0.0167999
627.599	0.0168051
627.677	0.0168819
627.755	0.0169382
627.833	0.0168117
627.911	0.0167593
627.989	0.0168126
628.067	0.0166113
628.146	0.0168514
628.224	0.0167907
628.302	0.0167741
628.380	0.0166738
628.458	0.0166332
628.536	0.0167387
628.614	0.0166631
628.692	0.0165247
628.771	0.0167602
628.849	0.0166795
628.927	0.0165378
629.005	0.0165785
629.083	0.0167060
629.161	0.0167201
629.239	0.0167943
629.317	0.0166525
629.396	0.0164966
629.474	0.0167297
629.552	0.0167492
629.630	0.0165259
629.708	0.0166528
629.786	0.0165377
629.864	0.0164762
629.942	0.0163408
630.021	0.0163496
630.099	0.0164722
630.177	0.0163470
630.255	0.0164197
630.333	0.0162777
630.411	0.0161742
630.489	0.0161843
630.567	0.0161697
630.646	0.0161051
630.724	0.0161400
630.802	0.0161186
630.880	0.0160349
630.958	0.0161397
631.036	0.0160876
631.114	0.0159975
631.192	0.0159376
631.271	0.0160066
631.349	0.0159458
631.427	0.0160080
631.505	0.0159751
631.583	0.0159382
631.661	0.0159975
631.739	0.0160007
631.817	0.0159584
631.896	0.0159284
631.974	0.0159025
632.052	0.0159267
632.130	0.0159071
632.208	0.0160380
632.286	0.0159556
632.364	0.0159600
632.442	0.0158394
632.521	0.0158697
632.599	0.0157736
632.677	0.0157348
632.755	0.0158266
632.833	0.0155328
632.911	0.0155822
632.989	0.0155773
633.067	0.0154692
633.146	0.0153616
633.224	0.0153325
633.302	0.0154256
633.380	0.0152460
633.458	0.0152493
633.536	0.0152467
633.614	0.0152754
633.692	0.0152251
633.771	0.0151215
633.849	0.0153161
633.927	0.0152309
634.005	0.0154038
634.083	0.0153884
634.161	0.0153012
634.239	0.0154902
634.317	0.0154835
634.396	0.0155077
634.474	0.0156800
634.552	0.0157748
634.630	0.0157358
634.708	0.0157381
634.786	0.0157489
634.864	0.0158171
634.942	0.0159005
635.021	0.0159978
635.099	0.0159670
635.177	0.0161319
635.255	0.0159773
635.333	0.0161015
635.411	0.0161827
635.489	0.0161591
635.567	0.0162054
635.646	0.0162556
635.724	0.0162257
635.802	0.0164133
635.880	0.0163220
635.958	0.0162745
636.036	0.0163571
636.114	0.0163829
636.192	0.0162524
636.271	0.0162972
636.349	0.0164438
636.427	0.0164289
636.505	0.0161991
636.583	0.0163015
636.661	0.0161507
636.739	0.0160950
636.817	0.0160878
636.896	0.0159962
636.974	0.0159644
637.052	0.0159336
637.130	0.0159290
637.208	0.0158603
637.286	0.0157507
637.364	0.0157649
637.442	0.0156783
637.521	0.0157396
637.599	0.0157153
637.677	0.0157440
637.755	0.0158060
637.833	0.0156644
637.911	0.0156194
637.989	0.0157701
638.067	0.0155436
638.146	0.0156948
638.224	0.0156529
638.302	0.0154913
638.380	0.0156580
638.458	0.0156887
638.536	0.0156500
638.614	0.0155592
638.692	0.0158018
638.771	0.0156807
638.849	0.0156137
638.927	0.0155763
639.005	0.0156602
639.083	0.0156690
639.161	0.0158986
639.239	0.0158978
639.317	0.0159734
639.396	0.0160897
639.474	0.0160538
639.552	0.0161669
639.630	0.0162023
639.708	0.0162663
639.786	0.0164914
639.864	0.0164790
639.942	0.0165955
640.021	0.0167342
640.099	0.0166100
640.177	0.0167845
640.255	0.0167094
640.333	0.0168379
640.411	0.0168937
640.489	0.0168589
640.567	0.0169979
640.646	0.0167065
640.724	0.0167488
640.802	0.0167928
640.880	0.0167561
640.958	0.0166676
641.036	0.0165813
641.114	0.0167450
641.192	0.0167000
641.271	0.0167723
641.349	0.0167110
641.427	0.0166432
641.505	0.0165961
641.583	0.0167148
641.661	0.0167159
641.739	0.0166005
641.817	0.0166282
641.896	0.0166183
641.974	0.0165693
642.052	0.0165842
642.130	0.0166106
642.208	0.0163102
642.286	0.0165318
642.364	0.0164993
642.442	0.0163891
642.521	0.0165065
642.599	0.0164965
642.677	0.0162860
642.755	0.0162114
642.833	0.0163054
642.911	0.0162802
642.989	0.0162363
643.067	0.0162440
643.146	0.0160720
643.224	0.0160979
643.302	0.0160989
643.380	0.0160609
643.458	0.0160403
643.536	0.0159232
643.614	0.0159582
643.692	0.0158756
643.771	0.0158625
643.849	0.0158118
643.927	0.0157430
644.005	0.0158532
644.083	0.0158226
644.161	0.0158302
644.239	0.0157494
644.317	0.0157159
644.396	0.0157168
644.474	0.0158868
644.552	0.0159059
644.630	0.0159430
644.708	0.0159293
644.786	0.0159872
644.864	0.0162268
644.942	0.0161777
645.021	0.0160472
645.099	0.0163479
645.177	0.0163592
645.255	0.0164429
645.333	0.0164864
645.411	0.0165528
645.489	0.0166124
645.567	0.0166685
645.646	0.0167065
645.724	0.0166408
645.802	0.0167716
645.880	0.0168437
645.958	0.0168965
646.036	0.0169508
646.114	0.0170282
646.192	0.0169821
646.271	0.0171622
646.349	0.0171233
646.427	0.0171298
646.505	0.0170501
646.583	0.0171219
646.661	0.0169398
646.739	0.0170265
646.817	0.0172421
646.896	0.0172460
646.974	0.0171685
647.052	0.0171369
647.130	0.0172711
647.208	0.0171944
647.286	0.0172490
647.364	0.0171980
647.442	0.0172141
647.521	0.0171235
647.599	0.0170984
647.677	0.0169713
647.755	0.0168951
647.833	0.0170789
647.911	0.0169071
647.989	0.0168749
648.067	0.0167323
648.146	0.0167260
648.224	0.0167901
648.302	0.0165077
648.380	0.0166770
648.458	0.0165314
648.536	0.0164714
648.614	0.0165327
648.692	0.0163428
648.771	0.0164618
648.849	0.0164531
648.927	0.0164384
649.005	0.0164133
649.083	0.0161263
649.161	0.0161429
649.239	0.0161505
649.317	0.0160813
649.396	0.0159841
649.474	0.0161028
649.552	0.0159883
649.630	0.0159090
649.708	0.0159022
649.786	0.0159743
649.864	0.0159774
649.942	0.0158491
650.021	0.0159620
650.099	0.0158089
650.177	0.0158403
650.255	0.0156992
650.333	0.0158521
650.411	0.0158675
650.489	0.0157012
650.567	0.0157303
650.646	0.0155884
650.724	0.0156875
650.802	0.0157273
650.880	0.0157558
650.958	0.0156820
651.036	0.0157365
651.114	0.0157632
651.192	0.0156844
651.271	0.0157187
651.349	0.0157580
651.427	0.0157798
651.505	0.0157770
651.583	0.0158839
651.661	0.0158821
651.739	0.0160287
651.817	0.0159114
651.896	0.0159717
651.974	0.0158788
652.052	0.0158466
652.130	0.0158621
652.208	0.0159767
652.286	0.0158874
652.364	0.0158567
652.442	0.0159650
652.521	0.0158385
652.599	0.0158707
652.677	0.0159509
652.755	0.0158555
652.833	0.0158125
652.911	0.0159711
652.989	0.0159253
653.067	0.0159546
653.146	0.0158156
653.224	0.0158018
653.302	0.0158929
653.380	0.0158930
653.458	0.0158477
653.536	0.0158115
653.614	0.0156701
653.692	0.0157429
653.771	0.0157394
653.849	0.0155990
653.927	0.0155854
654.005	0.0156636
654.083	0.0155219
654.161	0.0158126
654.239	0.0157192
654.317	0.0156604
654.396	0.0155421
654.474	0.0157953
654.552	0.0157441
654.630	0.0158357
654.708	0.0159593
654.786	0.0160311
654.864	0.0160124
654.942	0.0161969
655.021	0.0159959
655.099	0.0161760
655.177	0.0162486
655.255	0.0161227
655.333	0.0160599
655.411	0.0162036
655.489	0.0161512
655.567	0.0160593
655.646	0.0161063
655.724	0.0160966
655.802	0.0161340
655.880	0.0161655
655.958	0.0161364
656.036	0.0163883
656.114	0.0163284
656.192	0.0162658
656.271	0.0162529
656.349	0.0164317
656.427	0.0162204
656.505	0.0163422
656.583	0.0162693
656.661	0.0163318
656.739	0.0163442
656.817	0.0163041
656.896	0.0162727
656.974	0.0163322
657.052	0.0162452
657.130	0.0162145
657.208	0.0159957
657.286	0.0159299
657.364	0.0160791
657.442	0.0160716
657.521	0.0158961
657.599	0.0160120
657.677	0.0160677
657.755	0.0158791
657.833	0.0160075
657.911	0.0159352
657.989	0.0159739
658.067	0.0158292
658.146	0.0157893
658.224	0.0158038
658.302	0.0159349
658.380	0.0157762
658.458	0.0158001
658.536	0.0158407
658.614	0.0156992
658.692	0.0157278
658.771	0.0158501
658.849	0.0157677
658.927	0.0156995
659.005	0.0156900
659.083	0.0157302
659.161	0.0158138
659.239	0.0156799
659.317	0.0156389
659.396	0.0157130
659.474	0.0155224
659.552	0.0157438
659.630	0.0158160
659.708	0.0157960
659.786	0.0156980
659.864	0.0157629
659.942	0.0158262
660.021	0.0156552
660.099	0.0157767
660.177	0.0157899
660.255	0.0157620
660.333	0.0159435
660.411	0.0159203
660.489	0.0159908
660.567	0.0158997
660.646	0.0158505
660.724	0.0160603
660.802	0.0161125
660.880	0.0160651
660.958	0.0161079
661.036	0.0162672
661.114	0.0161929
661.192	0.0162644
661.271	0.0164090
661.349	0.0163917
661.427	0.0162411
661.505	0.0163451
661.583	0.0164372
661.661	0.0163445
661.739	0.0163266
661.817	0.0163969
661.896	0.0163236
661.974	0.0162611
662.052	0.0163377
662.130	0.0162322
662.208	0.0163332
662.286	0.0162698
662.364	0.0163006
662.442	0.0163252
662.521	0.0161723
662.599	0.0161295
662.677	0.0162810
662.755	0.0161344
662.833	0.0160153
662.911	0.0161089
662.989	0.0160413
663.067	0.0160004
663.146	0.0160580
663.224	0.0161421
663.302	0.0160915
663.380	0.0161691
663.458	0.0160924
663.536	0.0161454
663.614	0.0161366
663.692	0.0162785
663.771	0.0163068
663.849	0.0162501
663.927	0.0162585
664.005	0.0163236
664.083	0.0162916
664.161	0.0164046
664.239	0.0162614
664.317	0.0163099
664.396	0.0163190
664.474	0.0165572
664.552	0.0164373
664.630	0.0164532
664.708	0.0165167
664.786	0.0165747
664.864	0.0166847
664.942	0.0166840
665.021	0.0167673
665.099	0.0166821
665.177	0.0168262
665.255	0.0166975
665.333	0.0166701
665.411	0.0166872
665.489	0.0166581
665.567	0.0167122
665.646	0.0166770
665.724	0.0167339
665.802	0.0167360
665.880	0.0167370
665.958	0.0166241
666.036	0.0168138
666.114	0.0168615
666.192	0.0166949
666.271	0.0166253
666.349	0.0168002
666.427	0.0167168
666.505	0.0167303
666.583	0.0166467
666.661	0.0166244
666.739	0.0167873
666.817	0.0165695
666.896	0.0165987
666.974	0.0165044
667.052	0.0164274
667.130	0.0164031
667.208	0.0163731
667.286	0.0162630
667.364	0.0162827
667.442	0.0163233
667.521	0.0162720
667.599	0.0163361
667.677	0.0161253
667.755	0.0162585
667.833	0.0163129
667.911	0.0161854
667.989	0.0160953
668.067	0.0160282
668.146	0.0160610
668.224	0.0159534
668.302	0.0159590
668.380	0.0159312
668.458	0.0159421
668.536	0.0159359
668.614	0.0159576
668.692	0.0157875
668.771	0.0159348
668.849	0.0159338
668.927	0.0158466
669.005	0.0159958
669.083	0.0159241
669.161	0.0159903
669.239	0.0160934
669.317	0.0160259
669.396	0.0160300
669.474	0.0160210
669.552	0.0160629
669.630	0.0159984
669.708	0.0160131
669.786	0.0161002
669.864	0.0161115
669.942	0.0160661
670.021	0.0160366
670.099	0.0161417
670.177	0.0161167
670.255	0.0161794
670.333	0.0162794
670.411	0.0162305
670.489	0.0162666
670.567	0.0163910
670.646	0.0162568
670.724	0.0163738
670.802	0.0161852
670.880	0.0162246
670.958	0.0163486
671.036	0.0163230
671.114	0.0163225
671.192	0.0163062
671.271	0.0163609
671.349	0.0162507
671.427	0.0163307
671.505	0.0164163
671.583	0.0163672
671.661	0.0161875
671.739	0.0162507
671.817	0.0163510
671.896	0.0162288
671.974	0.0162029
672.052	0.0161495
672.130	0.0160664
672.208	0.0161327
672.286	0.0161093
672.364	0.0160455
672.442	0.0161165
672.521	0.0159480
672.599	0.0160752
672.677	0.0159830
672.755	0.0160624
672.833	0.0160004
672.911	0.0159999
672.989	0.0158321
673.067	0.0158984
673.146	0.0159175
673.224	0.0158867
673.302	0.0159170
673.380	0.0158078
673.458	0.0158428
673.536	0.0158546
673.614	0.0157143
673.692	0.0155705
673.771	0.0157072
673.849	0.0156719
673.927	0.0156754
674.005	0.0156177
674.083	0.0154595
674.161	0.0156142
674.239	0.0154723
674.317	0.0155870
674.396	0.0155314
674.474	0.0155179
674.552	0.0156487
674.630	0.0156212
674.708	0.0155556
674.786	0.0157568
674.864	0.0157753
674.942	0.0156458
675.021	0.0154538
675.099	0.0156908
675.177	0.0157381
675.255	0.0157478
675.333	0.0157343
675.411	0.0158052
675.489	0.0157928
675.567	0.0157241
675.646	0.0156238
675.724	0.0154716
675.802	0.0156185
675.880	0.0155933
675.958	0.0156003
676.036	0.0155690
676.114	0.0157611
676.192	0.0155980
676.271	0.0156551
676.349	0.0155765
676.427	0.0157303
676.505	0.0156512
676.583	0.0157661
676.661	0.0157048
676.739	0.0158316
676.817	0.0159278
676.896	0.0158398
676.974	0.0158712
677.052	0.0158927
677.130	0.0159293
677.208	0.0156266
677.286	0.0158678
677.364	0.0159280
677.442	0.0158968
677.521	0.0158912
677.599	0.0158703
677.677	0.0158364
677.755	0.0159135
677.833	0.0157598
677.911	0.0158315
677.989	0.0157913
678.067	0.0158501
678.146	0.0158098
678.224	0.0159299
678.302	0.0158618
678.380	0.0157378
678.458	0.0157391
678.536	0.0158183
678.614	0.0159809
678.692	0.0159034
678.771	0.0160127
678.849	0.0161044
678.927	0.0160262
679.005	0.0160894
679.083	0.0161445
679.161	0.0160443
679.239	0.0160318
679.317	0.0162046
679.396	0.0161591
679.474	0.0161864
679.552	0.0161318
679.630	0.0161034
679.708	0.0160198
679.786	0.0162409
679.864	0.0162312
679.942	0.0161913
680.021	0.0160976
680.099	0.0160349
680.177	0.0161227
680.255	0.0160336
680.333	0.0160612
680.411	0.0161984
680.489	0.0159740
680.567	0.0160576
680.646	0.0160925
680.724	0.0159889
680.802	0.0160748
680.880	0.0160880
680.958	0.0159127
681.036	0.0161762
681.114	0.0161024
681.192	0.0160345
681.271	0.0161890
681.349	0.0162901
681.427	0.0162434
681.505	0.0161758
681.583	0.0162564
681.661	0.0163320
681.739	0.0163277
681.817	0.0163727
681.896	0.0164618
681.974	0.0163584
682.052	0.0163259
682.130	0.0164740
682.208	0.0165662
682.286	0.0164242
682.364	0.0162581
682.442	0.0164466
682.521	0.0164242
682.599	0.0163351
682.677	0.0164281
682.755	0.0164394
682.833	0.0163145
682.911	0.0162996
682.989	0.0163647
683.067	0.0164105
683.146	0.0162487
683.224	0.0160703
683.302	0.0162029
683.380	0.0162199
683.458	0.0162614
683.536	0.0162358
683.614	0.0161643
683.692	0.0162225
683.771	0.0162157
683.849	0.0159852
683.927	0.0159872
684.005	0.0159461
684.083	0.0160158
684.161	0.0158786
684.239	0.0159315
684.317	0.0159077
684.396	0.0158447
684.474	0.0157538
684.552	0.0157816
684.630	0.0157802
684.708	0.0156536
684.786	0.0158846
684.864	0.0157684
684.942	0.0158777
685.021	0.0158076
685.099	0.0158275
685.177	0.0157716
685.255	0.0157919
685.333	0.0159126
685.411	0.0159799
685.489	0.0160747
685.567	0.0158502
685.646	0.0157916
685.724	0.0159158
685.802	0.0159635
685.880	0.0160130
685.958	0.0158758
686.036	0.0158829
686.114	0.0159978
686.192	0.0160136
686.271	0.0159328
686.349	0.0159715
686.427	0.0158805
686.505	0.0159030
686.583	0.0160789
686.661	0.0159701
686.739	0.0159841
686.817	0.0160965
686.896	0.0160693
686.974	0.0159969
687.052	0.0158686
687.130	0.0159664
687.208	0.0160954
687.286	0.0158612
687.364	0.0160419
687.442	0.0161133
687.521	0.0159680
687.599	0.0160541
687.677	0.0161009
687.755	0.0159699
687.833	0.0159620
687.911	0.0161002
687.989	0.0161310
688.067	0.0160184
688.146	0.0160709
688.224	0.0160327
688.302	0.0162322
688.380	0.0161395
688.458	0.0160641
688.536	0.0162599
688.614	0.0162494
688.692	0.0162411
688.771	0.0161359
688.849	0.0161893
688.927	0.0162185
689.005	0.0162231
689.083	0.0163691
689.161	0.0162339
689.239	0.0162750
689.317	0.0163013
689.396	0.0163548
689.474	0.0163899
689.552	0.0163473
689.630	0.0163084
689.708	0.0162265
689.786	0.0161761
689.864	0.0162729
689.942	0.0162846
690.021	0.0162540
690.099	0.0160255
690.177	0.0161417
690.255	0.0161889
690.333	0.0161971
690.411	0.0161421
690.489	0.0162602
690.567	0.0162453
690.646	0.0162109
690.724	0.0162341
690.802	0.0163432
690.880	0.0162945
690.958	0.0162447
691.036	0.0164285
691.114	0.0163540
691.192	0.0163860
691.271	0.0163727
691.349	0.0164144
691.427	0.0162906
691.505	0.0163304
691.583	0.0163015
691.661	0.0164021
691.739	0.0164135
691.817	0.0164825
691.896	0.0163949
691.974	0.0163489
692.052	0.0164491
692.130	0.0164829
692.208	0.0162852
692.286	0.0164891
692.364	0.0163361
692.442	0.0164038
692.521	0.0162312
692.599	0.0162687
692.677	0.0163010
692.755	0.0163916
692.833	0.0163408
692.911	0.0163552
692.989	0.0162704
693.067	0.0163300
693.146	0.0162948
693.224	0.0162257
693.302	0.0162027
693.380	0.0162136
693.458	0.0161878
693.536	0.0161108
693.614	0.0161441
693.692	0.0160744
693.771	0.0161968
693.849	0.0160995
693.927	0.0161198
694.005	0.0161197
694.083	0.0161213
694.161	0.0159370
694.239	0.0160103
694.317	0.0160336
694.396	0.0160996
694.474	0.0160989
694.552	0.0161563
694.630	0.0161390
694.708	0.0159932
694.786	0.0160400
694.864	0.0160478
694.942	0.0161683
695.021	0.0161768
695.099	0.0162370
695.177	0.0163245
695.255	0.0161903
695.333	0.0160418
695.411	0.0162054
695.489	0.0161126
695.567	0.0160297
695.646	0.0160813
695.724	0.0161581
695.802	0.0161362
695.880	0.0159915
695.958	0.0160393
696.036	0.0160705
696.114	0.0159921
696.192	0.0159346
696.271	0.0159526
696.349	0.0159972
696.427	0.0159904
696.505	0.0160265
696.583	0.0159440
696.661	0.0159422
696.739	0.0158912
696.817	0.0158834
696.896	0.0160196
696.974	0.0159010
697.052	0.0159480
697.130	0.0160522
697.208	0.0157821
697.286	0.0158926
697.364	0.0159778
697.442	0.0159303
697.521	0.0159341
697.599	0.0157552
697.677	0.0158607
697.755	0.0159313
697.833	0.0157387
697.911	0.0159383
697.989	0.0158896
698.067	0.0158140
698.146	0.0157128
698.224	0.0158176
698.302	0.0158871
698.380	0.0158298
698.458	0.0158867
698.536	0.0158969
698.614	0.0158170
698.692	0.0158188
698.771	0.0159332
698.849	0.0159745
698.927	0.0159744
699.005	0.0159618
699.083	0.0158437
699.161	0.0159585
699.239	0.0160261
699.317	0.0161386
699.396	0.0160350
699.474	0.0159357
699.552	0.0160439
699.630	0.0160366
699.708	0.0161053
699.786	0.0160584
699.864	0.0159932
699.942	0.0159769
700.021	0.0160450
700.099	0.0160732
700.177	0.0159177
700.255	0.0160167
700.333	0.0160740
700.411	0.0160340
700.489	0.0159957
700.567	0.0160036
700.646	0.0159409
700.724	0.0158784
700.802	0.0159689
700.880	0.0159924
700.958	0.0158499
701.036	0.0159539
701.114	0.0160562
701.192	0.0161388
701.271	0.0160977
701.349	0.0161327
701.427	0.0161188
701.505	0.0160452
701.583	0.0160686
701.661	0.0159099
701.739	0.0160866
701.817	0.0160403
701.896	0.0159391
701.974	0.0161459
702.052	0.0160866
702.130	0.0159948
702.208	0.0160729
702.286	0.0160719
702.364	0.0161131
702.442	0.0160689
702.521	0.0159583
702.599	0.0160695
702.677	0.0159869
702.755	0.0159246
702.833	0.0159857
702.911	0.0161046
702.989	0.0161597
703.067	0.0160686
703.146	0.0160787
703.224	0.0161599
703.302	0.0161776
703.380	0.0160822
703.458	0.0162273
703.536	0.0162261
703.614	0.0163034
703.692	0.0164197
703.771	0.0163717
703.849	0.0163969
703.927	0.0165865
704.005	0.0166589
704.083	0.0166559
704.161	0.0167134
704.239	0.0168438
704.317	0.0168328
704.396	0.0168710
704.474	0.0170630
704.552	0.0172143
704.630	0.0171287
704.708	0.0170531
704.786	0.0171241
704.864	0.0170475
704.942	0.0173067
705.021	0.0171687
705.099	0.0171271
705.177	0.0171736
705.255	0.0170375
705.333	0.0172512
705.411	0.0170574
705.489	0.0169600
705.567	0.0170045
705.646	0.0170985
705.724	0.0170007
705.802	0.0169851
705.880	0.0169218
705.958	0.0169245
706.036	0.0168389
706.114	0.0167668
706.192	0.0167110
706.271	0.0169048
706.349	0.0167751
706.427	0.0167880
706.505	0.0167301
706.583	0.0167291
706.661	0.0166443
706.739	0.0167967
706.817	0.0166824
706.896	0.0168041
706.974	0.0167785
707.052	0.0167188
707.130	0.0167948
707.208	0.0167702
707.286	0.0166567
707.364	0.0166636
707.442	0.0166085
707.521	0.0164859
707.599	0.0164437
707.677	0.0164673
707.755	0.0162661
707.833	0.0161799
707.911	0.0162019
707.989	0.0162097
708.067	0.0160209
708.146	0.0160806
708.224	0.0159732
708.302	0.0159826
708.380	0.0158398
708.458	0.0158845
708.536	0.0159316
708.614	0.0158202
708.692	0.0157909
708.771	0.0159397
708.849	0.0158826
708.927	0.0158279
709.005	0.0158002
709.083	0.0158792
709.161	0.0158033
709.239	0.0159359
709.317	0.0158632
709.396	0.0159538
709.474	0.0159147
709.552	0.0160460
709.630	0.0159155
709.708	0.0160069
709.786	0.0160493
709.864	0.0159974
709.942	0.0159895
710.021	0.0158985
710.099	0.0159869
710.177	0.0160258
710.255	0.0159214
710.333	0.0158871
710.411	0.0160339
710.489	0.0160048
710.567	0.0159755
710.646	0.0161342
710.724	0.0161253
710.802	0.0162305
710.880	0.0161543
710.958	0.0162325
711.036	0.0161687
711.114	0.0163081
711.192	0.0161707
711.271	0.0161654
711.349	0.0160521
711.427	0.0160770
711.505	0.0160032
711.583	0.0159945
711.661	0.0160625
711.739	0.0160696
711.817	0.0160077
711.896	0.0160892
711.974	0.0160746
712.052	0.0161273
712.130	0.0162527
712.208	0.0162870
712.286	0.0163687
712.364	0.0163129
712.442	0.0163299
712.521	0.0162373
712.599	0.0163747
712.677	0.0163181
712.755	0.0162653
712.833	0.0162699
712.911	0.0164188
712.989	0.0163161
713.067	0.0160299
713.146	0.0162584
713.224	0.0162170
713.302	0.0162159
713.380	0.0162135
713.458	0.0163094
713.536	0.0161890
713.614	0.0162443
713.692	0.0163528
713.771	0.0163016
713.849	0.0164825
713.927	0.0163551
714.005	0.0164713
714.083	0.0165284
714.161	0.0166193
714.239	0.0166590
714.317	0.0166034
714.396	0.0167227
714.474	0.0166068
714.552	0.0168025
714.630	0.0166436
714.708	0.0166763
714.786	0.0167234
714.864	0.0166821
714.942	0.0166809
715.021	0.0167612
715.099	0.0166662
715.177	0.0165240
715.255	0.0166899
715.333	0.0165938
715.411	0.0165369
715.489	0.0165797
715.567	0.0165572
715.646	0.0164118
715.724	0.0164043
715.802	0.0163724
715.880	0.0163889
715.958	0.0163628
716.036	0.0163496
716.114	0.0162102
716.192	0.0163444
716.271	0.0161903
716.349	0.0162541
716.427	0.0162583
716.505	0.0160944
716.583	0.0161887
716.661	0.0159699
716.739	0.0160732
716.817	0.0161530
716.896	0.0163433
716.974	0.0163399
717.052	0.0162440
717.130	0.0161197
717.208	0.0161852
717.286	0.0161609
717.364	0.0161964
717.442	0.0162573
717.521	0.0162276
717.599	0.0162045
717.677	0.0161298
717.755	0.0161201
717.833	0.0160337
717.911	0.0159491
717.989	0.0159924
718.067	0.0158039
718.146	0.0158993
718.224	0.0159250
718.302	0.0158773
718.380	0.0159104
718.458	0.0158459
718.536	0.0158992
718.614	0.0156567
718.692	0.0156370
718.771	0.0157497
718.849	0.0156709
718.927	0.0157405
719.005	0.0155853
719.083	0.0155116
719.161	0.0155444
719.239	0.0154169
719.317	0.0155003
719.396	0.0154317
719.474	0.0154536
719.552	0.0155271
719.630	0.0155549
719.708	0.0153861
719.786	0.0155846
719.864	0.0155462
719.942	0.0154180
720.021	0.0156635
720.099	0.0157002
720.177	0.0155950
720.255	0.0156267
720.333	0.0155685
720.411	0.0157552
720.489	0.0156444
720.567	0.0156059
720.646	0.0156088
720.724	0.0156554
720.802	0.0157672
720.880	0.0157835
720.958	0.0157913
721.036	0.0157947
721.114	0.0158479
721.192	0.0158670
721.271	0.0158436
721.349	0.0158242
721.427	0.0158882
721.505	0.0158949
721.583	0.0159333
721.661	0.0158017
721.739	0.0160534
721.817	0.0158737
721.896	0.0157777
721.974	0.0158427
722.052	0.0157746
722.130	0.0157964
722.208	0.0158703
722.286	0.0157969
722.364	0.0157827
722.442	0.0159135
722.521	0.0158395
722.599	0.0157298
722.677	0.0158790
722.755	0.0157638
722.833	0.0157758
722.911	0.0158160
722.989	0.0158347
723.067	0.0157500
723.146	0.0157195
723.224	0.0158347
723.302	0.0158812
723.380	0.0159547
723.458	0.0157662
723.536	0.0158688
723.614	0.0159027
723.692	0.0159916
723.771	0.0160165
723.849	0.0160236
723.927	0.0159956
724.005	0.0162047
724.083	0.0161505
724.161	0.0161932
724.239	0.0162755
724.317	0.0164076
724.396	0.0164605
724.474	0.0164850
724.552	0.0165573
724.630	0.0166082
724.708	0.0166547
724.786	0.0168371
724.864	0.0168569
724.942	0.0168492
725.021	0.0169231
725.099	0.0168047
725.177	0.0168948
725.255	0.0169536
725.333	0.0168451
725.411	0.0170268
725.489	0.0169882
725.567	0.0170551
725.646	0.0171375
725.724	0.0170531
725.802	0.0171091
725.880	0.0171614
725.958	0.0170558
726.036	0.0170314
726.114	0.0170981
726.192	0.0169474
726.271	0.0170525
726.349	0.0169513
726.427	0.0170592
726.505	0.0168701
726.583	0.0167095
726.661	0.0168822
726.739	0.0167263
726.817	0.0167410
726.896	0.0166321
726.974	0.0165623
727.052	0.0164445
727.130	0.0165530
727.208	0.0165427
727.286	0.0165519
727.364	0.0163937
727.442	0.0164297
727.521	0.0162644
727.599	0.0161429
727.677	0.0161185
727.755	0.0162357
727.833	0.0161277
727.911	0.0161972
727.989	0.0161323
728.067	0.0160277
728.146	0.0160542
728.224	0.0159573
728.302	0.0160429
728.380	0.0162131
728.458	0.0160966
728.536	0.0162234
728.614	0.0163425
728.692	0.0164897
728.771	0.0164797
728.849	0.0166002
728.927	0.0167993
729.005	0.0168049
729.083	0.0168388
729.161	0.0169034
729.239	0.0167690
729.317	0.0168429
729.396	0.0168201
729.474	0.0169244
729.552	0.0169319
729.630	0.0169285
729.708	0.0168192
729.786	0.0168282
729.864	0.0166479
729.942	0.0166569
730.021	0.0165892
730.099	0.0166019
730.177	0.0165820
730.255	0.0163271
730.333	0.0162279
730.411	0.0161707
730.489	0.0162350
730.567	0.0159854
730.646	0.0160450
730.724	0.0158295
730.802	0.0158155
730.880	0.0156987
730.958	0.0156921
731.036	0.0157246
731.114	0.0155193
731.192	0.0153614
731.271	0.0154091
731.349	0.0153139
731.427	0.0152243
731.505	0.0152601
731.583	0.0152517
731.661	0.0151947
731.739	0.0152473
731.817	0.0151654
731.896	0.0153319
731.974	0.0153284
732.052	0.0154339
732.130	0.0153502
732.208	0.0154333
732.286	0.0155576
732.364	0.0156822
732.442	0.0156096
732.521	0.0157694
732.599	0.0158175
732.677	0.0159764
732.755	0.0159536
732.833	0.0159915
732.911	0.0159668
732.989	0.0161150
733.067	0.0161926
733.146	0.0161993
733.224	0.0161590
733.302	0.0163719
733.380	0.0163229
733.458	0.0162270
733.536	0.0162041
733.614	0.0162725
733.692	0.0163950
733.771	0.0163590
733.849	0.0165359
733.927	0.0164307
734.005	0.0164000
734.083	0.0165680
734.161	0.0163823
734.239	0.0166136
734.317	0.0167971
734.396	0.0167139
734.474	0.0167046
734.552	0.0167847
734.630	0.0166929
734.708	0.0167783
734.786	0.0168752
734.864	0.0168554
734.942	0.0169113
735.021	0.0168623
735.099	0.0168476
735.177	0.0170050
735.255	0.0170248
735.333	0.0169724
735.411	0.0169778
735.489	0.0170166
735.567	0.0169799
735.646	0.0169707
735.724	0.0168330
735.802	0.0169322
735.880	0.0168359
735.958	0.0167374
736.036	0.0168353
736.114	0.0167638
736.192	0.0167855
736.271	0.0167445
736.349	0.0166300
736.427	0.0165777
736.505	0.0165288
736.583	0.0164557
736.661	0.0163849
736.739	0.0163817
736.817	0.0164192
736.896	0.0163661
736.974	0.0163259
737.052	0.0163363
737.130	0.0162606
737.208	0.0163087
737.286	0.0162012
737.364	0.0161443
737.442	0.0162939
737.521	0.0163036
737.599	0.0161197
737.677	0.0162720
737.755	0.0162897
737.833	0.0161869
737.911	0.0161313
737.989	0.0161919
738.067	0.0160651
738.146	0.0161812
738.224	0.0161761
738.302	0.0160205
738.380	0.0160680
738.458	0.0161418
738.536	0.0160749
738.614	0.0160147
738.692	0.0160873
738.771	0.0161581
738.849	0.0160952
738.927	0.0160487
739.005	0.0159381
739.083	0.0161184
739.161	0.0161045
739.239	0.0161472
739.317	0.0160789
739.396	0.0161234
739.474	0.0160514
739.552	0.0160519
739.630	0.0160595
739.708	0.0159859
739.786	0.0160387
739.864	0.0159014
739.942	0.0158260
740.021	0.0158677
740.099	0.0159458
740.177	0.0158860
740.255	0.0158425
740.333	0.0159335
740.411	0.0158021
740.489	0.0158139
740.567	0.0157392
740.646	0.0157082
740.724	0.0157231
740.802	0.0158122
740.880	0.0158450
740.958	0.0159055
741.036	0.0158617
741.114	0.0157243
741.192	0.0157503
741.271	0.0157211
741.349	0.0157194
741.427	0.0157430
741.505	0.0157127
741.583	0.0157532
741.661	0.0157323
741.739	0.0156557
741.817	0.0156887
741.896	0.0156497
741.974	0.0156844
742.052	0.0156818
742.130	0.0157416
742.208	0.0157749
742.286	0.0156409
742.364	0.0157111
742.442	0.0156767
742.521	0.0158434
742.599	0.0158076
742.677	0.0158017
742.755	0.0156960
742.833	0.0158979
742.911	0.0158897
742.989	0.0159055
743.067	0.0159899
743.146	0.0159672
743.224	0.0160171
743.302	0.0160900
743.380	0.0161749
743.458	0.0161913
743.536	0.0160564
743.614	0.0160768
743.692	0.0160773
743.771	0.0159731
743.849	0.0161200
743.927	0.0160832
744.005	0.0159211
744.083	0.0162206
744.161	0.0161832
744.239	0.0161042
744.317	0.0160635
744.396	0.0161096
744.474	0.0161534
744.552	0.0159676
744.630	0.0160120
744.708	0.0160283
744.786	0.0159243
744.864	0.0160155
744.942	0.0160844
745.021	0.0159269
745.099	0.0159983
745.177	0.0157673
745.255	0.0158611
745.333	0.0158681
745.411	0.0158346
745.489	0.0157845
745.567	0.0158461
745.646	0.0158491
745.724	0.0158003
745.802	0.0158865
745.880	0.0157555
745.958	0.0158783
746.036	0.0158616
746.114	0.0159296
746.192	0.0158675
746.271	0.0157643
746.349	0.0158972
746.427	0.0158147
746.505	0.0158225
746.583	0.0158408
746.661	0.0158222
746.739	0.0157122
746.817	0.0158425
746.896	0.0157912
746.974	0.0157883
747.052	0.0158626
747.130	0.0157578
747.208	0.0156519
747.286	0.0155581
747.364	0.0158164
747.442	0.0158210
747.521	0.0158760
747.599	0.0158908
747.677	0.0160008
747.755	0.0158944
747.833	0.0158748
747.911	0.0160058
747.989	0.0159522
748.067	0.0160643
748.146	0.0161305
748.224	0.0162591
748.302	0.0161552
748.380	0.0161807
748.458	0.0162152
748.536	0.0159983
748.614	0.0161761
748.692	0.0162603
748.771	0.0161709
748.849	0.0161563
748.927	0.0163635
749.005	0.0162317
749.083	0.0161798
749.161	0.0161446
749.239	0.0161983
749.317	0.0161608
749.396	0.0162866
749.474	0.0163387
749.552	0.0163109
749.630	0.0161903
749.708	0.0163558
749.786	0.0163966
749.864	0.0163412
749.942	0.0164581
750.021	0.0162657
750.099	0.0164244
750.177	0.0163284
750.255	0.0163981
750.333	0.0163319
750.411	0.0163625
750.489	0.0163998
750.567	0.0163781
750.646	0.0163332
750.724	0.0164009
750.802	0.0165588
750.880	0.0163499
750.958	0.0164895
751.036	0.0164717
751.114	0.0164299
751.192	0.0163979
751.271	0.0162761
751.349	0.0162447
751.427	0.0162881
751.505	0.0164183
751.583	0.0162190
751.661	0.0162340
751.739	0.0161119
751.817	0.0161143
751.896	0.0159136
751.974	0.0159377
752.052	0.0158548
752.130	0.0158919
752.208	0.0158898
752.286	0.0159284
752.364	0.0159013
752.442	0.0158676
752.521	0.0158447
752.599	0.0158244
752.677	0.0158752
752.755	0.0157698
752.833	0.0157291
752.911	0.0157555
752.989	0.0157195
753.067	0.0158775
753.146	0.0156922
753.224	0.0156945
753.302	0.0157333
753.380	0.0155563
753.458	0.0157378
753.536	0.0156373
753.614	0.0156385
753.692	0.0156809
753.771	0.0156036
753.849	0.0156740
753.927	0.0154826
754.005	0.0156007
754.083	0.0156240
754.161	0.0156065
754.239	0.0157663
754.317	0.0157043
754.396	0.0157793
754.474	0.0158283
754.552	0.0156390
754.630	0.0158533
754.708	0.0159432
754.786	0.0158708
754.864	0.0158978
754.942	0.0158737
755.021	0.0159853
755.099	0.0160385
755.177	0.0159057
755.255	0.0158991
755.333	0.0160049
755.411	0.0160780
755.489	0.0160468
755.567	0.0160381
755.646	0.0160448
755.724	0.0160490
755.802	0.0161330
755.880	0.0162646
755.958	0.0161712
756.036	0.0161562
756.114	0.0163361
756.192	0.0162608
756.271	0.0164081
756.349	0.0164104
756.427	0.0162621
756.505	0.0163612
756.583	0.0164857
756.661	0.0164359
756.739	0.0164943
756.817	0.0164648
756.896	0.0165379
756.974	0.0166005
757.052	0.0166708
757.130	0.0165688
757.208	0.0165173
757.286	0.0165379
757.364	0.0166187
757.442	0.0166476
757.521	0.0165868
757.599	0.0165625
757.677	0.0166519
757.755	0.0165793
757.833	0.0165685
757.911	0.0165006
757.989	0.0165372
758.067	0.0163466
758.146	0.0164169
758.224	0.0165331
758.302	0.0163490
758.380	0.0163820
758.458	0.0165324
758.536	0.0162102
758.614	0.0161153
758.692	0.0162824
758.771	0.0160902
758.849	0.0160670
758.927	0.0162044
759.005	0.0161822
759.083	0.0159225
759.161	0.0159368
759.239	0.0160931
759.317	0.0160336
759.396	0.0159321
759.474	0.0159142
759.552	0.0158489
759.630	0.0159497
759.708	0.0158522
759.786	0.0158517
759.864	0.0159293
759.942	0.0159307
760.021	0.0158562
760.099	0.0159676
760.177	0.0159093
760.255	0.0158260
760.333	0.0156762
760.411	0.0156749
760.489	0.0158401
760.567	0.0157503
760.646	0.0156369
760.724	0.0156326
760.802	0.0156261
760.880	0.0158496
760.958	0.0156743
761.036	0.0154897
761.114	0.0155598
761.192	0.0157998
761.271	0.0156988
761.349	0.0155887
761.427	0.0156825
761.505	0.0157130
761.583	0.0157904
761.661	0.0157909
761.739	0.0157185
761.817	0.0158845
761.896	0.0159795
761.974	0.0157892
762.052	0.0159501
762.130	0.0158091
762.208	0.0159551
762.286	0.0160489
762.364	0.0161203
762.442	0.0161005
762.521	0.0160539
762.599	0.0160856
762.677	0.0161117
762.755	0.0161091
762.833	0.0161505
762.911	0.0161903
762.989	0.0162666
763.067	0.0162926
763.146	0.0161551
763.224	0.0161708
763.302	0.0163406
763.380	0.0162505
763.458	0.0163461
763.536	0.0163512
763.614	0.0164120
763.692	0.0162945
763.771	0.0162563
763.849	0.0163498
763.927	0.0165853
764.005	0.0164655
764.083	0.0165112
764.161	0.0165758
764.239	0.0164077
764.317	0.0166365
764.396	0.0164342
764.474	0.0164031
764.552	0.0164660
764.630	0.0165580
764.708	0.0164276
764.786	0.0162128
764.864	0.0163013
764.942	0.0163705
765.021	0.0163963
765.099	0.0163516
765.177	0.0164275
765.255	0.0163305
765.333	0.0162721
765.411	0.0163680
765.489	0.0164289
765.567	0.0162512
765.646	0.0162995
765.724	0.0163735
765.802	0.0164156
765.880	0.0162522
765.958	0.0163055
766.036	0.0163436
766.114	0.0162442
766.192	0.0163449
766.271	0.0162032
766.349	0.0163307
766.427	0.0163638
766.505	0.0163013
766.583	0.0163585
766.661	0.0163645
766.739	0.0162811
766.817	0.0164219
766.896	0.0163889
766.974	0.0163149
767.052	0.0164010
767.130	0.0163064
767.208	0.0162839
767.286	0.0162939
767.364	0.0164197
767.442	0.0163010
767.521	0.0162174
767.599	0.0164536
767.677	0.0163114
767.755	0.0163509
767.833	0.0163475
767.911	0.0161862
767.989	0.0163516
768.067	0.0162211
768.146	0.0162333
768.224	0.0162422
768.302	0.0162600
768.380	0.0163476
768.458	0.0162440
768.536	0.0162710
768.614	0.0162426
768.692	0.0161904
768.771	0.0162331
768.849	0.0161594
768.927	0.0161755
769.005	0.0160746
769.083	0.0160316
769.161	0.0159682
769.239	0.0160291
769.317	0.0160157
769.396	0.0159518
769.474	0.0158215
769.552	0.0160035
769.630	0.0160239
769.708	0.0158372
769.786	0.0158530
769.864	0.0159505
769.942	0.0159754
770.021	0.0159627
770.099	0.0159549
770.177	0.0159479
770.255	0.0159888
770.333	0.0158891
770.411	0.0159331
770.489	0.0158788
770.567	0.0160258
770.646	0.0159988
770.724	0.0160678
770.802	0.0159732
770.880	0.0160981
770.958	0.0161885
771.036	0.0162582
771.114	0.0161559
771.192	0.0163124
771.271	0.0162444
771.349	0.0163921
771.427	0.0164135
771.505	0.0163435
771.583	0.0164054
771.661	0.0164211
771.739	0.0163654
771.817	0.0165884
771.896	0.0165018
771.974	0.0165309
772.052	0.0166032
772.130	0.0166997
772.208	0.0165604
772.286	0.0165384
772.364	0.0165266
772.442	0.0164466
772.521	0.0166118
772.599	0.0166881
772.677	0.0166983
772.755	0.0165687
772.833	0.0165491
772.911	0.0164867
772.989	0.0164157
773.067	0.0164606
773.146	0.0165112
773.224	0.0165112
773.302	0.0166063
773.380	0.0167039
773.458	0.0166325
773.536	0.0165989
773.614	0.0164492
773.692	0.0165559
773.771	0.0165868
773.849	0.0165127
773.927	0.0165771
774.005	0.0166865
774.083	0.0166566
774.161	0.0165512
774.239	0.0165888
774.317	0.0165285
774.396	0.0165537
774.474	0.0165339
774.552	0.0164483
774.630	0.0165065
774.708	0.0164337
774.786	0.0165184
774.864	0.0164780
774.942	0.0164549
775.021	0.0162569
775.099	0.0163168
775.177	0.0162421
775.255	0.0161879
775.333	0.0162431
775.411	0.0160887
775.489	0.0159991
775.567	0.0160858
775.646	0.0160255
775.724	0.0158429
775.802	0.0158685
775.880	0.0158102
775.958	0.0158732
776.036	0.0156949
776.114	0.0159093
776.192	0.0158829
776.271	0.0158275
776.349	0.0159859
776.427	0.0158184
776.505	0.0158809
776.583	0.0158668
776.661	0.0157610
776.739	0.0158076
776.817	0.0157873
776.896	0.0156977
776.974	0.0156981
777.052	0.0156097
777.130	0.0156491
777.208	0.0157207
777.286	0.0157864
777.364	0.0157322
777.442	0.0157677
777.521	0.0157076
777.599	0.0157805
777.677	0.0158773
777.755	0.0159317
777.833	0.0157965
777.911	0.0157682
777.989	0.0158028
778.067	0.0157689
778.146	0.0157330
778.224	0.0158089
778.302	0.0157040
778.380	0.0158152
778.458	0.0156661
778.536	0.0157768
778.614	0.0157439
778.692	0.0157294
778.771	0.0157751
778.849	0.0156940
778.927	0.0157770
779.005	0.0157941
779.083	0.0156231
779.161	0.0156775
779.239	0.0156958
779.317	0.0157739
779.396	0.0158592
779.474	0.0156359
779.552	0.0158028
779.630	0.0156929
779.708	0.0155450
779.786	0.0157854
779.864	0.0156689
779.942	0.0156387
780.021	0.0155757
780.099	0.0157383
780.177	0.0156487
780.255	0.0155425
780.333	0.0156942
780.411	0.0156342
780.489	0.0155959
780.567	0.0155701
780.646	0.0156488
780.724	0.0156178
780.802	0.0155927
780.880	0.0156613
780.958	0.0156351
781.036	0.0156992
781.114	0.0155318
781.192	0.0155709
781.271	0.0157289
781.349	0.0156754
781.427	0.0158562
781.505	0.0156604
781.583	0.0157196
781.661	0.0156862
781.739	0.0157296
781.817	0.0158668
781.896	0.0157767
781.974	0.0157846
782.052	0.0158992
782.130	0.0159265
782.208	0.0160140
782.286	0.0161737
782.364	0.0161768
782.442	0.0161608
782.521	0.0161088
782.599	0.0161311
782.677	0.0162366
782.755	0.0161982
782.833	0.0162471
782.911	0.0163065
782.989	0.0163360
783.067	0.0162200
783.146	0.0162031
783.224	0.0163198
783.302	0.0163986
783.380	0.0164238
783.458	0.0162753
783.536	0.0163609
783.614	0.0163638
783.692	0.0163082
783.771	0.0163544
783.849	0.0164002
783.927	0.0163586
784.005	0.0164732
784.083	0.0163324
784.161	0.0163304
784.239	0.0163681
784.317	0.0164660
784.396	0.0164270
784.474	0.0163633
784.552	0.0164603
784.630	0.0163571
784.708	0.0165055
784.786	0.0164742
784.864	0.0164059
784.942	0.0162715
785.021	0.0165385
785.099	0.0164314
785.177	0.0164779
785.255	0.0165612
785.333	0.0163466
785.411	0.0164777
785.489	0.0164347
785.567	0.0163494
785.646	0.0163237
785.724	0.0163492
785.802	0.0163931
785.880	0.0163860
785.958	0.0164664
786.036	0.0163274
786.114	0.0164221
786.192	0.0163583
786.271	0.0162658
786.349	0.0162345
786.427	0.0163805
786.505	0.0163152
786.583	0.0161791
786.661	0.0162061
786.739	0.0161874
786.817	0.0162486
786.896	0.0162415
786.974	0.0163092
787.052	0.0161240
787.130	0.0162797
787.208	0.0161383
787.286	0.0162383
787.364	0.0162386
787.442	0.0160324
787.521	0.0162366
787.599	0.0161752
787.677	0.0162006
787.755	0.0161983
787.833	0.0161703
787.911	0.0161929
787.989	0.0162305
788.067	0.0162026
788.146	0.0162834
788.224	0.0162388
788.302	0.0162547
788.380	0.0162381
788.458	0.0162873
788.536	0.0163590
788.614	0.0161749
788.692	0.0163071
788.771	0.0164812
788.849	0.0163918
788.927	0.0163393
789.005	0.0163428
789.083	0.0163808
789.161	0.0163122
789.239	0.0164732
789.317	0.0163652
789.396	0.0163319
789.474	0.0161976
789.552	0.0163295
789.630	0.0161423
789.708	0.0162688
789.786	0.0161891
789.864	0.0162701
789.942	0.0162555
790.021	0.0162477
790.099	0.0163991
790.177	0.0164493
790.255	0.0162791
790.333	0.0161220
790.411	0.0163205
790.489	0.0163597
790.567	0.0162070
790.646	0.0162991
790.724	0.0163179
790.802	0.0164365
790.880	0.0163476
790.958	0.0164586
791.036	0.0164734
791.114	0.0163547
791.192	0.0164396
791.271	0.0164809
791.349	0.0164680
791.427	0.0165426
791.505	0.0166084
791.583	0.0165037
791.661	0.0164731
791.739	0.0165993
791.817	0.0167543
791.896	0.0166663
791.974	0.0166258
792.052	0.0165996
792.130	0.0166065
792.208	0.0166217
792.286	0.0166093
792.364	0.0166144
792.442	0.0166273
792.521	0.0167290
792.599	0.0165790
792.677	0.0164808
792.755	0.0165017
792.833	0.0163923
792.911	0.0163386
792.989	0.0164410
793.067	0.0165388
793.146	0.0165365
793.224	0.0164301
793.302	0.0163634
793.380	0.0164494
793.458	0.0163921
793.536	0.0163867
793.614	0.0163923
793.692	0.0162969
793.771	0.0163648
793.849	0.0162950
793.927	0.0163676
794.005	0.0163529
794.083	0.0162833
794.161	0.0163387
794.239	0.0162653
794.317	0.0163267
794.396	0.0162349
794.474	0.0163212
794.552	0.0164666
794.630	0.0163023
794.708	0.0162711
794.786	0.0163187
794.864	0.0163738
794.942	0.0162061
795.021	0.0161990
795.099	0.0161856
795.177	0.0162884
795.255	0.0163312
795.333	0.0162027
795.411	0.0161696
795.489	0.0161872
795.567	0.0162527
795.646	0.0161152
795.724	0.0160730
795.802	0.0161339
795.880	0.0161459
795.958	0.0159762
796.036	0.0160575
796.114	0.0160423
796.192	0.0161115
796.271	0.0159984
796.349	0.0160648
796.427	0.0160814
796.505	0.0159280
796.583	0.0159358
796.661	0.0160272
796.739	0.0160468
796.817	0.0159418
796.896	0.0160027
796.974	0.0159834
797.052	0.0159606
797.130	0.0160891
797.208	0.0159085
797.286	0.0159591
797.364	0.0159805
797.442	0.0160577
797.521	0.0160762
797.599	0.0160484
797.677	0.0160576
797.755	0.0160871
797.833	0.0160454
797.911	0.0160873
797.989	0.0160831
798.067	0.0161229
798.146	0.0161893
798.224	0.0162617
798.302	0.0162572
798.380	0.0163239
798.458	0.0162566
798.536	0.0162311
798.614	0.0163770
798.692	0.0162677
798.771	0.0163575
798.849	0.0163268
798.927	0.0164851
799.005	0.0163887
799.083	0.0164934
799.161	0.0164506
799.239	0.0163069
799.317	0.0164101
799.396	0.0163937
799.474	0.0163898
799.552	0.0163142
799.630	0.0163856
799.708	0.0163664
799.786	0.0162749
799.864	0.0162315
799.942	0.0163112
800.021	0.0163897
800.099	0.0163501
800.177	0.0163596
800.255	0.0163206
800.333	0.0163332
800.411	0.0164922
800.489	0.0163270
800.567	0.0165628
800.646	0.0164429
800.724	0.0163921
800.802	0.0165442
800.880	0.0164111
800.958	0.0164463
801.036	0.0166727
801.114	0.0165816
801.192	0.0165217
801.271	0.0165294
801.349	0.0166324
801.427	0.0165703
801.505	0.0165334
801.583	0.0165027
801.661	0.0163399
801.739	0.0165139
801.817	0.0162862
801.896	0.0163036
801.974	0.0160861
802.052	0.0162931
802.130	0.0161237
802.208	0.0161906
802.286	0.0161530
802.364	0.0160231
802.442	0.0159164
802.521	0.0157639
802.599	0.0159165
802.677	0.0157589
802.755	0.0156757
802.833	0.0156946
802.911	0.0155669
802.989	0.0156577
803.067	0.0156966
803.146	0.0154696
803.224	0.0155736
803.302	0.0155610
803.380	0.0154807
803.458	0.0154241
803.536	0.0154964
803.614	0.0154691
803.692	0.0154440
803.771	0.0155527
803.849	0.0154820
803.927	0.0154860
804.005	0.0155753
804.083	0.0155014
804.161	0.0154525
804.239	0.0155994
804.317	0.0155630
804.396	0.0156154
804.474	0.0156805
804.552	0.0156388
804.630	0.0155582
804.708	0.0156162
804.786	0.0157225
804.864	0.0156598
804.942	0.0157669
805.021	0.0157266
805.099	0.0157222
805.177	0.0158425
805.255	0.0158080
805.333	0.0158025
805.411	0.0158250
805.489	0.0157449
805.567	0.0158557
805.646	0.0159400
805.724	0.0159693
805.802	0.0159932
805.880	0.0158422
805.958	0.0159695
806.036	0.0160065
806.114	0.0159977
806.192	0.0159602
806.271	0.0159969
806.349	0.0159802
806.427	0.0160292
806.505	0.0159819
806.583	0.0160310
806.661	0.0157838
806.739	0.0158855
806.817	0.0160062
806.896	0.0160654
806.974	0.0160195
807.052	0.0159991
807.130	0.0161405
807.208	0.0161787
807.286	0.0159639
807.364	0.0162491
807.442	0.0163603
807.521	0.0161794
807.599	0.0159904
807.677	0.0161773
807.755	0.0162968
807.833	0.0161640
807.911	0.0162238
807.989	0.0161891
808.067	0.0163896
808.146	0.0163496
808.224	0.0163289
808.302	0.0163412
808.380	0.0164427
808.458	0.0165668
808.536	0.0165825
808.614	0.0165781
808.692	0.0165442
808.771	0.0165871
808.849	0.0167249
808.927	0.0167187
809.005	0.0166459
809.083	0.0165874
809.161	0.0164809
809.239	0.0165819
809.317	0.0164933
809.396	0.0165253
809.474	0.0165541
809.552	0.0164694
809.630	0.0165366
809.708	0.0164939
809.786	0.0164951
809.864	0.0165377
809.942	0.0164902
810.021	0.0163889
810.099	0.0164293
810.177	0.0163307
810.255	0.0164182
810.333	0.0163424
810.411	0.0164857
810.489	0.0163811
810.567	0.0163366
810.646	0.0162965
810.724	0.0161967
810.802	0.0162923
810.880	0.0163497
810.958	0.0163371
811.036	0.0163497
811.114	0.0162218
811.192	0.0162890
811.271	0.0161111
811.349	0.0161334
811.427	0.0160277
811.505	0.0160440
811.583	0.0159926
811.661	0.0160149
811.739	0.0158979
811.817	0.0158324
811.896	0.0160565
811.974	0.0159392
812.052	0.0158305
812.130	0.0156931
812.208	0.0157655
812.286	0.0158319
812.364	0.0156506
812.442	0.0156992
812.521	0.0154457
812.599	0.0156209
812.677	0.0156119
812.755	0.0156141
812.833	0.0156715
812.911	0.0155264
812.989	0.0154234
813.067	0.0154358
813.146	0.0154632
813.224	0.0153602
813.302	0.0153846
813.380	0.0152953
813.458	0.0154131
813.536	0.0154411
813.614	0.0153615
813.692	0.0152428
813.771	0.0153415
813.849	0.0153666
813.927	0.0153646
814.005	0.0154172
814.083	0.0154640
814.161	0.0155293
814.239	0.0155470
814.317	0.0154720
814.396	0.0155744
814.474	0.0157001
814.552	0.0157671
814.630	0.0159010
814.708	0.0158968
814.786	0.0159056
814.864	0.0158978
814.942	0.0161121
815.021	0.0161713
815.099	0.0161362
815.177	0.0162168
815.255	0.0164191
815.333	0.0164604
815.411	0.0166696
815.489	0.0166213
815.567	0.0168092
815.646	0.0167695
815.724	0.0168653
815.802	0.0168407
815.880	0.0170001
815.958	0.0170604
816.036	0.0171025
816.114	0.0170477
816.192	0.0172400
816.271	0.0173093
816.349	0.0173713
816.427	0.0171731
816.505	0.0172942
816.583	0.0173917
816.661	0.0173871
816.739	0.0174934
816.817	0.0174044
816.896	0.0174190
816.974	0.0175103
817.052	0.0173611
817.130	0.0175141
817.208	0.0172884
817.286	0.0174838
817.364	0.0174562
817.442	0.0172291
817.521	0.0172688
817.599	0.0172073
817.677	0.0173016
817.755	0.0172164
817.833	0.0172820
817.911	0.0171040
817.989	0.0170781
818.067	0.0170118
818.146	0.0169271
818.224	0.0169839
818.302	0.0169028
818.380	0.0169099
818.458	0.0167046
818.536	0.0168533
818.614	0.0168913
818.692	0.0167265
818.771	0.0166451
818.849	0.0166138
818.927	0.0163880
819.005	0.0165039
819.083	0.0163983
819.161	0.0163035
819.239	0.0163669
819.317	0.0161991
819.396	0.0160824
819.474	0.0161938
819.552	0.0160745
819.630	0.0160068
819.708	0.0159905
819.786	0.0160268
819.864	0.0158432
819.942	0.0158093
820.021	0.0157680
820.099	0.0157505
820.177	0.0157681
820.255	0.0157556
820.333	0.0156367
820.411	0.0156287
820.489	0.0157277
820.567	0.0158293
820.646	0.0158333
820.724	0.0158150
820.802	0.0157817
820.880	0.0158281
820.958	0.0159132
821.036	0.0159040
821.114	0.0157677
821.192	0.0159061
821.271	0.0158821
821.349	0.0160145
821.427	0.0160283
821.505	0.0160748
821.583	0.0160799
821.661	0.0159229
821.739	0.0159832
821.817	0.0160281
821.896	0.0162125
821.974	0.0164008
822.052	0.0161097
822.130	0.0162193
822.208	0.0162665
822.286	0.0163255
822.364	0.0162791
822.442	0.0162979
822.521	0.0163462
822.599	0.0163998
822.677	0.0163930
822.755	0.0163432
822.833	0.0161760
822.911	0.0162704
822.989	0.0163539
823.067	0.0163678
823.146	0.0161521
823.224	0.0160977
823.302	0.0161459
823.380	0.0161925
823.458	0.0159005
823.536	0.0159788
823.614	0.0158051
823.692	0.0159305
823.771	0.0157838
823.849	0.0157441
823.927	0.0157867
824.005	0.0158569
824.083	0.0158136
824.161	0.0156978
824.239	0.0156784
824.317	0.0155864
824.396	0.0156755
824.474	0.0156548
824.552	0.0158636
824.630	0.0157604
824.708	0.0157351
824.786	0.0158117
824.864	0.0158146
824.942	0.0158688
825.021	0.0158544
825.099	0.0158611
825.177	0.0157419
825.255	0.0157037
825.333	0.0157537
825.411	0.0156333
825.489	0.0158114
825.567	0.0158224
825.646	0.0156855
825.724	0.0157119
825.802	0.0157103
825.880	0.0157800
825.958	0.0157116
826.036	0.0159406
826.114	0.0156509
826.192	0.0157253
826.271	0.0157503
826.349	0.0157635
826.427	0.0157141
826.505	0.0157000
826.583	0.0157613
826.661	0.0156113
826.739	0.0155346
826.817	0.0155804
826.896	0.0154160
826.974	0.0154912
827.052	0.0154139
827.130	0.0154315
827.208	0.0154288
827.286	0.0152631
827.364	0.0153778
827.442	0.0153945
827.521	0.0153886
827.599	0.0153539
827.677	0.0154320
827.755	0.0153808
827.833	0.0153152
827.911	0.0153395
827.989	0.0153334
828.067	0.0154336
828.146	0.0155270
828.224	0.0155509
828.302	0.0156180
828.380	0.0157567
828.458	0.0157253
828.536	0.0157623
828.614	0.0158958
828.692	0.0159526
828.771	0.0158775
828.849	0.0159196
828.927	0.0160358
829.005	0.0160672
829.083	0.0160094
829.161	0.0161932
829.239	0.0161800
829.317	0.0161716
829.396	0.0162356
829.474	0.0163291
829.552	0.0162899
829.630	0.0163403
829.708	0.0162728
829.786	0.0164746
829.864	0.0163846
829.942	0.0164018
830.021	0.0164565
830.099	0.0163247
830.177	0.0163660
830.255	0.0163390
830.333	0.0163254
830.411	0.0164560
830.489	0.0164822
830.567	0.0163869
830.646	0.0164288
830.724	0.0163051
830.802	0.0163230
830.880	0.0163989
830.958	0.0164595
831.036	0.0163281
831.114	0.0163314
831.192	0.0164963
831.271	0.0164167
831.349	0.0163650
831.427	0.0165039
831.505	0.0162653
831.583	0.0163858
831.661	0.0162169
831.739	0.0162399
831.817	0.0163839
831.896	0.0162999
831.974	0.0163394
832.052	0.0162746
832.130	0.0162881
832.208	0.0163476
832.286	0.0161753
832.364	0.0163338
832.442	0.0165259
832.521	0.0163184
832.599	0.0163861
832.677	0.0164993
832.755	0.0165672
832.833	0.0164269
832.911	0.0165706
832.989	0.0164566
833.067	0.0165086
833.146	0.0165876
833.224	0.0165731
833.302	0.0166183
833.380	0.0165050
833.458	0.0164722
833.536	0.0165190
833.614	0.0165685
833.692	0.0165977
833.771	0.0165649
833.849	0.0165319
833.927	0.0166387
834.005	0.0165281
834.083	0.0164708
834.161	0.0165705
834.239	0.0164849
834.317	0.0163702
834.396	0.0162775
834.474	0.0163934
834.552	0.0163644
834.630	0.0163085
834.708	0.0164191
834.786	0.0164288
834.864	0.0162038
834.942	0.0162358
835.021	0.0162981
835.099	0.0162869
835.177	0.0162314
835.255	0.0163113
835.333	0.0162051
835.411	0.0161672
835.489	0.0160511
835.567	0.0159258
835.646	0.0159818
835.724	0.0159249
835.802	0.0159223
835.880	0.0157844
835.958	0.0158201
836.036	0.0157370
836.114	0.0157472
836.192	0.0157791
836.271	0.0157803
836.349	0.0157093
836.427	0.0156866
836.505	0.0156716
836.583	0.0158281
836.661	0.0158653
836.739	0.0157829
836.817	0.0156794
836.896	0.0156276
836.974	0.0157714
837.052	0.0157854
837.130	0.0157565
837.208	0.0158884
837.286	0.0158504
837.364	0.0157961
837.442	0.0157094
837.521	0.0159569
837.599	0.0157977
837.677	0.0159872
837.755	0.0158872
837.833	0.0159225
837.911	0.0158806
837.989	0.0160091
838.067	0.0158775
838.146	0.0157906
838.224	0.0157552
838.302	0.0158143
838.380	0.0158447
838.458	0.0157420
838.536	0.0157315
838.614	0.0157355
838.692	0.0157294
838.771	0.0157063
838.849	0.0156266
838.927	0.0155640
839.005	0.0156071
839.083	0.0156296
839.161	0.0155149
839.239	0.0156371
839.317	0.0156698
839.396	0.0158129
839.474	0.0156709
839.552	0.0158392
839.630	0.0158808
839.708	0.0157555
839.786	0.0158484
839.864	0.0158355
839.942	0.0159599
840.021	0.0159104
840.099	0.0159930
840.177	0.0161387
840.255	0.0161790
840.333	0.0162102
840.411	0.0162671
840.489	0.0163054
840.567	0.0162955
840.646	0.0164743
840.724	0.0165126
840.802	0.0164534
840.880	0.0165352
840.958	0.0166463
841.036	0.0165914
841.114	0.0167751
841.192	0.0165804
841.271	0.0167382
841.349	0.0168050
841.427	0.0166875
841.505	0.0166885
841.583	0.0167270
841.661	0.0167636
841.739	0.0168835
841.817	0.0167535
841.896	0.0167617
841.974	0.0168798
842.052	0.0169141
842.130	0.0168626
842.208	0.0167974
842.286	0.0167498
842.364	0.0167097
842.442	0.0168063
842.521	0.0167313
842.599	0.0167558
842.677	0.0167834
842.755	0.0168186
842.833	0.0168583
842.911	0.0167242
842.989	0.0166998
843.067	0.0166917
843.146	0.0165966
843.224	0.0166306
843.302	0.0165208
843.380	0.0164259
843.458	0.0164516
843.536	0.0164354
843.614	0.0165185
843.692	0.0164687
843.771	0.0164963
843.849	0.0165544
843.927	0.0164781
844.005	0.0164885
844.083	0.0164642
844.161	0.0164694
844.239	0.0164752
844.317	0.0163484
844.396	0.0165133
844.474	0.0165096
844.552	0.0163181
844.630	0.0163766
844.708	0.0163229
844.786	0.0161880
844.864	0.0162438
844.942	0.0160658
845.021	0.0161803
845.099	0.0161760
845.177	0.0160387
845.255	0.0159658
845.333	0.0158671
845.411	0.0158300
845.489	0.0159556
845.567	0.0157649
845.646	0.0157866
845.724	0.0158624
845.802	0.0156712
845.880	0.0156757
845.958	0.0156703
846.036	0.0155990
846.114	0.0156712
846.192	0.0156709
846.271	0.0156432
846.349	0.0156320
846.427	0.0155165
846.505	0.0156800
846.583	0.0157278
846.661	0.0155676
846.739	0.0155721
846.817	0.0156209
846.896	0.0155192
846.974	0.0155991
847.052	0.0156139
847.130	0.0154859
847.208	0.0154179
847.286	0.0155257
847.364	0.0155062
847.442	0.0153178
847.521	0.0154393
847.599	0.0153833
847.677	0.0153466
847.755	0.0153101
847.833	0.0153752
847.911	0.0154111
847.989	0.0156117
848.067	0.0155416
848.146	0.0156301
848.224	0.0157301
848.302	0.0157108
848.380	0.0156782
848.458	0.0157791
848.536	0.0160020
848.614	0.0157173
848.692	0.0159685
848.771	0.0157713
848.849	0.0158629
848.927	0.0159405
849.005	0.0159280
849.083	0.0160045
849.161	0.0161086
849.239	0.0161285
849.317	0.0161067
849.396	0.0160780
849.474	0.0160545
849.552	0.0159771
849.630	0.0161717
849.708	0.0162905
849.786	0.0163338
849.864	0.0163442
849.942	0.0162898
850.021	0.0164014
850.099	0.0164103
850.177	0.0163931
850.255	0.0162910
850.333	0.0163314
850.411	0.0163367
850.489	0.0163580
850.567	0.0164407
850.646	0.0163114
850.724	0.0163287
850.802	0.0163428
850.880	0.0163436
850.958	0.0162635
851.036	0.0163625
851.114	0.0164223
851.192	0.0164195
851.271	0.0162460
851.349	0.0163094
851.427	0.0163836
851.505	0.0162798
851.583	0.0162120
851.661	0.0161712
851.739	0.0161622
851.817	0.0161312
851.896	0.0161507
851.974	0.0160596
852.052	0.0161381
852.130	0.0158174
852.208	0.0159988
852.286	0.0161131
852.364	0.0158862
852.442	0.0158972
852.521	0.0159932
852.599	0.0159343
852.677	0.0159490
852.755	0.0159977
852.833	0.0159276
852.911	0.0159373
852.989	0.0158989
853.067	0.0160217
853.146	0.0160436
853.224	0.0158977
853.302	0.0159702
853.380	0.0160063
853.458	0.0160249
853.536	0.0160818
853.614	0.0161240
853.692	0.0161224
853.771	0.0162940
853.849	0.0160625
853.927	0.0161453
854.005	0.0161921
854.083	0.0162982
854.161	0.0163396
854.239	0.0163019
854.317	0.0163542
854.396	0.0164002
854.474	0.0163911
854.552	0.0164325
854.630	0.0164112
854.708	0.0163735
854.786	0.0163257
854.864	0.0163634
854.942	0.0162702
855.021	0.0164249
855.099	0.0165433
855.177	0.0163771
855.255	0.0164278
855.333	0.0163392
855.411	0.0162499
855.489	0.0164730
855.567	0.0164091
855.646	0.0164606
855.724	0.0163454
855.802	0.0163494
855.880	0.0163604
855.958	0.0163350
856.036	0.0163910
856.114	0.0162013
856.192	0.0162955
856.271	0.0162931
856.349	0.0164082
856.427	0.0163818
856.505	0.0162789
856.583	0.0161372
856.661	0.0162410
856.739	0.0163337
856.817	0.0163580
856.896	0.0162086
856.974	0.0162685
857.052	0.0163377
857.130	0.0162164
857.208	0.0161472
857.286	0.0162769
857.364	0.0163005
857.442	0.0163505
857.521	0.0161948
857.599	0.0162487
857.677	0.0162627
857.755	0.0162782
857.833	0.0162283
857.911	0.0162878
857.989	0.0162684
858.067	0.0163094
858.146	0.0163076
858.224	0.0162096
858.302	0.0164654
858.380	0.0164103
858.458	0.0162724
858.536	0.0162499
858.614	0.0162241
858.692	0.0163705
858.771	0.0163000
858.849	0.0162977
858.927	0.0164230
859.005	0.0163565
859.083	0.0162072
859.161	0.0162074
859.239	0.0162610
859.317	0.0161911
859.396	0.0161320
859.474	0.0160889
859.552	0.0160860
859.630	0.0158051
859.708	0.0159872
859.786	0.0160653
859.864	0.0159431
859.942	0.0160270
860.021	0.0159629
860.099	0.0159222
860.177	0.0159473
860.255	0.0157370
860.333	0.0156612
860.411	0.0157799
860.489	0.0157988
860.567	0.0156908
860.646	0.0157285
860.724	0.0156266
860.802	0.0155328
860.880	0.0156524
860.958	0.0155615
861.036	0.0153895
861.114	0.0154171
861.192	0.0154211
861.271	0.0153555
861.349	0.0153810
861.427	0.0154970
861.505	0.0153567
861.583	0.0154211
861.661	0.0153584
861.739	0.0156342
861.817	0.0156569
861.896	0.0155415
861.974	0.0156693
862.052	0.0156702
862.130	0.0157175
862.208	0.0157903
862.286	0.0158231
862.364	0.0159223
862.442	0.0160837
862.521	0.0158408
862.599	0.0161832
862.677	0.0161269
862.755	0.0161044
862.833	0.0161449
862.911	0.0161469
862.989	0.0161878
863.067	0.0163052
863.146	0.0163515
863.224	0.0163480
863.302	0.0164582
863.380	0.0164195
863.458	0.0165251
863.536	0.0164964
863.614	0.0165582
863.692	0.0164388
863.771	0.0163566
863.849	0.0164879
863.927	0.0164941
864.005	0.0163642
864.083	0.0163605
864.161	0.0162708
864.239	0.0164888
864.317	0.0163185
864.396	0.0163572
864.474	0.0162764
864.552	0.0163648
864.630	0.0163372
864.708	0.0163168
864.786	0.0162454
864.864	0.0162302
864.942	0.0163528
865.021	0.0162013
865.099	0.0162897
865.177	0.0163238
865.255	0.0164056
865.333	0.0162704
865.411	0.0162748
865.489	0.0162912
865.567	0.0162383
865.646	0.0163021
865.724	0.0162382
865.802	0.0161871
865.880	0.0162541
865.958	0.0162680
866.036	0.0161756
866.114	0.0163891
866.192	0.0164426
866.271	0.0163000
866.349	0.0163448
866.427	0.0162560
866.505	0.0161555
866.583	0.0160315
866.661	0.0160764
866.739	0.0163612
866.817	0.0161429
866.896	0.0161773
866.974	0.0161805
867.052	0.0160483
867.130	0.0161926
867.208	0.0160684
867.286	0.0160514
867.364	0.0160246
867.442	0.0159277
867.521	0.0160362
867.599	0.0159274
867.677	0.0159108
867.755	0.0158717
867.833	0.0161352
867.911	0.0158723
867.989	0.0158250
868.067	0.0157925
868.146	0.0157822
868.224	0.0158973
868.302	0.0158007
868.380	0.0157611
868.458	0.0158326
868.536	0.0157022
868.614	0.0157027
868.692	0.0157165
868.771	0.0158566
868.849	0.0157885
868.927	0.0158234
869.005	0.0158927
869.083	0.0158074
869.161	0.0157954
869.239	0.0160622
869.317	0.0159143
869.396	0.0160317
869.474	0.0160378
869.552	0.0160826
869.630	0.0160500
869.708	0.0160292
869.786	0.0161521
869.864	0.0161845
869.942	0.0162512
