06/03/2022	14:54:05	Ver.	4.1	UNKNOWN
Optical Delay	550.020508	Delta X		0.078125	Sweeps	1	Scan Rate	0/0
Coordinates	Axis 1	NaN	Axis 2	NaN	Axis 3	NaN	Axis 4	NaN	Axis 5	NaN	Axis 6	0.000000
TX Power	0.000000	RX Power	0.000000

550.021	0.0160358
550.099	0.0155818
550.177	0.0156461
550.255	0.0157082
550.333	0.0157502
550.411	0.0157049
550.489	0.0157645
550.567	0.0159472
550.646	0.0158834
550.724	0.0158608
550.802	0.0160290
550.880	0.0161238
550.958	0.0161042
551.036	0.0161161
551.114	0.0161356
551.192	0.0162484
551.271	0.0162200
551.349	0.0160726
551.427	0.0162228
551.505	0.0162112
551.583	0.0161900
551.661	0.0162865
551.739	0.0163380
551.817	0.0162943
551.896	0.0162672
551.974	0.0162990
552.052	0.0162548
552.130	0.0164076
552.208	0.0163298
552.286	0.0164795
552.364	0.0163483
552.442	0.0163354
552.521	0.0162823
552.599	0.0162980
552.677	0.0162116
552.755	0.0161860
552.833	0.0161302
552.911	0.0160920
552.989	0.0159773
553.067	0.0159130
553.146	0.0159781
553.224	0.0157764
553.302	0.0157488
553.380	0.0155711
553.458	0.0157342
553.536	0.0155871
553.614	0.0156982
553.692	0.0155824
553.771	0.0156404
553.849	0.0157020
553.927	0.0157339
554.005	0.0156944
554.083	0.0157131
554.161	0.0158453
554.239	0.0159959
554.317	0.0160165
554.396	0.0159768
554.474	0.0159864
554.552	0.0161300
554.630	0.0161523
554.708	0.0163267
554.786	0.0163631
554.864	0.0161977
554.942	0.0163687
555.021	0.0164068
555.099	0.0165675
555.177	0.0163644
555.255	0.0163741
555.333	0.0164078
555.411	0.0163922
555.489	0.0162968
555.567	0.0162175
555.646	0.0160828
555.724	0.0161712
555.802	0.0161101
555.880	0.0161233
555.958	0.0158887
556.036	0.0157080
556.114	0.0156548
556.192	0.0156198
556.271	0.0155749
556.349	0.0154961
556.427	0.0153107
556.505	0.0153498
556.583	0.0152228
556.661	0.0151123
556.739	0.0151589
556.817	0.0148443
556.896	0.0148937
556.974	0.0147900
557.052	0.0147226
557.130	0.0146527
557.208	0.0144706
557.286	0.0145283
557.364	0.0144334
557.442	0.0143256
557.521	0.0143330
557.599	0.0141322
557.677	0.0140231
557.755	0.0140714
557.833	0.0139930
557.911	0.0139060
557.989	0.0139119
558.067	0.0138545
558.146	0.0139097
558.224	0.0140208
558.302	0.0139037
558.380	0.0138851
558.458	0.0141666
558.536	0.0140631
558.614	0.0142004
558.692	0.0143781
558.771	0.0146227
558.849	0.0147456
558.927	0.0149350
559.005	0.0150071
559.083	0.0151608
559.161	0.0154235
559.239	0.0155874
559.317	0.0156283
559.396	0.0159541
559.474	0.0160906
559.552	0.0162340
559.630	0.0162811
559.708	0.0165430
559.786	0.0166956
559.864	0.0168571
559.942	0.0167383
560.021	0.0168718
560.099	0.0168791
560.177	0.0169913
560.255	0.0170688
560.333	0.0170535
560.411	0.0169971
560.489	0.0171130
560.567	0.0172311
560.646	0.0169589
560.724	0.0170713
560.802	0.0168932
560.880	0.0169621
560.958	0.0168546
561.036	0.0167906
561.114	0.0168165
561.192	0.0166953
561.271	0.0166529
561.349	0.0166399
561.427	0.0165498
561.505	0.0165011
561.583	0.0164619
561.661	0.0164476
561.739	0.0162888
561.817	0.0162515
561.896	0.0163423
561.974	0.0161713
562.052	0.0161676
562.130	0.0160038
562.208	0.0159457
562.286	0.0160190
562.364	0.0159780
562.442	0.0160695
562.521	0.0159340
562.599	0.0158671
562.677	0.0158453
562.755	0.0157796
562.833	0.0159946
562.911	0.0160204
562.989	0.0160108
563.067	0.0160382
563.146	0.0161492
563.224	0.0160822
563.302	0.0160869
563.380	0.0163378
563.458	0.0165042
563.536	0.0165382
563.614	0.0166538
563.692	0.0166587
563.771	0.0169563
563.849	0.0169606
563.927	0.0170005
564.005	0.0171749
564.083	0.0174323
564.161	0.0176694
564.239	0.0177705
564.317	0.0178746
564.396	0.0179877
564.474	0.0181108
564.552	0.0183297
564.630	0.0184513
564.708	0.0184953
564.786	0.0186466
564.864	0.0187830
564.942	0.0189396
565.021	0.0189493
565.099	0.0191470
565.177	0.0191962
565.255	0.0193630
565.333	0.0194428
565.411	0.0194303
565.489	0.0194278
565.567	0.0194859
565.646	0.0193840
565.724	0.0194148
565.802	0.0193183
565.880	0.0192814
565.958	0.0193033
566.036	0.0191322
566.114	0.0190205
566.192	0.0188699
566.271	0.0188321
566.349	0.0186723
566.427	0.0185667
566.505	0.0184843
566.583	0.0183100
566.661	0.0180957
566.739	0.0179718
566.817	0.0179239
566.896	0.0177930
566.974	0.0178195
567.052	0.0177671
567.130	0.0175734
567.208	0.0175769
567.286	0.0173978
567.364	0.0173526
567.442	0.0172327
567.521	0.0171351
567.599	0.0169792
567.677	0.0168436
567.755	0.0167989
567.833	0.0166889
567.911	0.0165468
567.989	0.0164782
568.067	0.0166429
568.146	0.0164417
568.224	0.0163998
568.302	0.0163960
568.380	0.0163463
568.458	0.0164375
568.536	0.0164082
568.614	0.0163342
568.692	0.0162517
568.771	0.0162583
568.849	0.0164567
568.927	0.0163057
569.005	0.0163979
569.083	0.0163361
569.161	0.0164818
569.239	0.0165209
569.317	0.0164452
569.396	0.0164581
569.474	0.0165187
569.552	0.0165663
569.630	0.0166623
569.708	0.0166439
569.786	0.0166366
569.864	0.0167812
569.942	0.0167616
570.021	0.0166837
570.099	0.0167260
570.177	0.0167927
570.255	0.0168005
570.333	0.0167445
570.411	0.0166550
570.489	0.0168130
570.567	0.0165992
570.646	0.0167205
570.724	0.0166581
570.802	0.0165136
570.880	0.0164534
570.958	0.0162431
571.036	0.0162895
571.114	0.0162781
571.192	0.0159817
571.271	0.0159298
571.349	0.0158325
571.427	0.0155914
571.505	0.0156606
571.583	0.0155336
571.661	0.0155552
571.739	0.0153069
571.817	0.0153253
571.896	0.0152406
571.974	0.0151462
572.052	0.0150842
572.130	0.0148508
572.208	0.0148689
572.286	0.0149821
572.364	0.0148552
572.442	0.0147180
572.521	0.0146429
572.599	0.0148247
572.677	0.0146979
572.755	0.0146948
572.833	0.0145674
572.911	0.0145530
572.989	0.0146873
573.067	0.0147085
573.146	0.0147495
573.224	0.0146262
573.302	0.0146199
573.380	0.0147813
573.458	0.0148086
573.536	0.0148498
573.614	0.0151057
573.692	0.0149775
573.771	0.0152080
573.849	0.0151889
573.927	0.0152110
574.005	0.0152866
574.083	0.0153632
574.161	0.0155513
574.239	0.0155537
574.317	0.0156020
574.396	0.0156837
574.474	0.0156821
574.552	0.0158029
574.630	0.0158656
574.708	0.0159158
574.786	0.0159409
574.864	0.0158404
574.942	0.0161008
575.021	0.0160820
575.099	0.0160797
575.177	0.0160584
575.255	0.0162912
575.333	0.0163717
575.411	0.0163228
575.489	0.0163143
575.567	0.0162829
575.646	0.0165163
575.724	0.0164146
575.802	0.0164126
575.880	0.0165292
575.958	0.0164877
576.036	0.0164456
576.114	0.0167937
576.192	0.0168173
576.271	0.0167377
576.349	0.0167577
576.427	0.0167419
576.505	0.0168163
576.583	0.0168864
576.661	0.0170405
576.739	0.0170822
576.817	0.0170358
576.896	0.0169912
576.974	0.0171848
577.052	0.0173073
577.130	0.0173082
577.208	0.0174008
577.286	0.0174259
577.364	0.0173697
577.442	0.0175842
577.521	0.0173557
577.599	0.0174074
577.677	0.0175169
577.755	0.0174916
577.833	0.0173510
577.911	0.0174139
577.989	0.0174095
578.067	0.0174448
578.146	0.0172849
578.224	0.0172537
578.302	0.0170276
578.380	0.0170763
578.458	0.0171122
578.536	0.0170996
578.614	0.0169263
578.692	0.0169045
578.771	0.0166598
578.849	0.0165945
578.927	0.0165963
579.005	0.0165102
579.083	0.0163647
579.161	0.0162008
579.239	0.0162357
579.317	0.0161204
579.396	0.0158044
579.474	0.0157753
579.552	0.0157937
579.630	0.0157096
579.708	0.0156418
579.786	0.0156241
579.864	0.0155267
579.942	0.0154412
580.021	0.0153971
580.099	0.0153412
580.177	0.0154113
580.255	0.0151916
580.333	0.0152466
580.411	0.0151535
580.489	0.0151187
580.567	0.0151025
580.646	0.0151505
580.724	0.0152573
580.802	0.0151653
580.880	0.0151288
580.958	0.0150938
581.036	0.0150683
581.114	0.0151119
581.192	0.0151163
581.271	0.0150588
581.349	0.0152480
581.427	0.0152626
581.505	0.0150558
581.583	0.0151353
581.661	0.0150494
581.739	0.0150605
581.817	0.0151624
581.896	0.0150840
581.974	0.0153243
582.052	0.0153297
582.130	0.0150764
582.208	0.0151920
582.286	0.0152431
582.364	0.0152181
582.442	0.0152722
582.521	0.0150317
582.599	0.0152094
582.677	0.0151364
582.755	0.0150852
582.833	0.0150644
582.911	0.0151962
582.989	0.0150674
583.067	0.0150588
583.146	0.0151588
583.224	0.0152213
583.302	0.0151920
583.380	0.0152140
583.458	0.0152176
583.536	0.0152338
583.614	0.0151904
583.692	0.0152235
583.771	0.0153264
583.849	0.0152679
583.927	0.0153172
584.005	0.0152931
584.083	0.0152483
584.161	0.0154621
584.239	0.0155508
584.317	0.0154926
584.396	0.0152878
584.474	0.0156277
584.552	0.0156304
584.630	0.0155338
584.708	0.0155429
584.786	0.0155434
584.864	0.0157166
584.942	0.0158100
585.021	0.0158129
585.099	0.0159469
585.177	0.0159638
585.255	0.0161582
585.333	0.0161500
585.411	0.0161654
585.489	0.0162193
585.567	0.0162067
585.646	0.0160793
585.724	0.0162695
585.802	0.0162418
585.880	0.0163483
585.958	0.0162434
586.036	0.0164237
586.114	0.0163715
586.192	0.0163634
586.271	0.0165048
586.349	0.0163591
586.427	0.0163886
586.505	0.0166143
586.583	0.0164919
586.661	0.0165937
586.739	0.0166006
586.817	0.0166926
586.896	0.0166727
586.974	0.0168089
587.052	0.0168013
587.130	0.0168928
587.208	0.0169814
587.286	0.0170708
587.364	0.0170685
587.442	0.0170850
587.521	0.0172228
587.599	0.0173108
587.677	0.0172026
587.755	0.0173581
587.833	0.0173847
587.911	0.0173921
587.989	0.0174684
588.067	0.0175809
588.146	0.0174406
588.224	0.0174010
588.302	0.0174310
588.380	0.0175726
588.458	0.0175010
588.536	0.0174293
588.614	0.0174512
588.692	0.0174858
588.771	0.0174321
588.849	0.0174478
588.927	0.0173813
589.005	0.0172877
589.083	0.0173860
589.161	0.0174951
589.239	0.0173103
589.317	0.0173945
589.396	0.0171980
589.474	0.0172175
589.552	0.0172198
589.630	0.0173394
589.708	0.0171212
589.786	0.0170469
589.864	0.0170428
589.942	0.0170597
590.021	0.0168749
590.099	0.0169811
590.177	0.0170223
590.255	0.0170766
590.333	0.0169034
590.411	0.0169564
590.489	0.0169112
590.567	0.0167982
590.646	0.0168957
590.724	0.0167624
590.802	0.0166488
590.880	0.0168433
590.958	0.0168903
591.036	0.0170076
591.114	0.0168074
591.192	0.0167921
591.271	0.0167458
591.349	0.0167387
591.427	0.0167692
591.505	0.0166251
591.583	0.0166271
591.661	0.0166597
591.739	0.0165552
591.817	0.0166736
591.896	0.0166064
591.974	0.0164978
592.052	0.0165393
592.130	0.0165520
592.208	0.0163188
592.286	0.0164699
592.364	0.0164444
592.442	0.0162250
592.521	0.0161617
592.599	0.0163160
592.677	0.0162627
592.755	0.0162726
592.833	0.0161376
592.911	0.0162358
592.989	0.0161075
593.067	0.0159904
593.146	0.0161244
593.224	0.0159705
593.302	0.0159742
593.380	0.0160127
593.458	0.0159926
593.536	0.0162045
593.614	0.0159782
593.692	0.0158213
593.771	0.0159335
593.849	0.0158433
593.927	0.0159576
594.005	0.0159407
594.083	0.0158778
594.161	0.0158959
594.239	0.0157365
594.317	0.0157359
594.396	0.0157149
594.474	0.0157035
594.552	0.0158851
594.630	0.0157228
594.708	0.0156647
594.786	0.0156241
594.864	0.0158568
594.942	0.0156918
595.021	0.0157749
595.099	0.0157019
595.177	0.0157999
595.255	0.0158972
595.333	0.0159444
595.411	0.0159917
595.489	0.0159071
595.567	0.0160217
595.646	0.0160564
595.724	0.0160727
595.802	0.0160808
595.880	0.0162180
595.958	0.0161288
596.036	0.0161777
596.114	0.0162392
596.192	0.0162576
596.271	0.0163139
596.349	0.0162746
596.427	0.0164331
596.505	0.0165543
596.583	0.0163833
596.661	0.0163904
596.739	0.0163919
596.817	0.0165117
596.896	0.0165790
596.974	0.0165171
597.052	0.0165984
597.130	0.0164931
597.208	0.0165401
597.286	0.0165559
597.364	0.0166024
597.442	0.0166869
597.521	0.0166455
597.599	0.0165062
597.677	0.0165429
597.755	0.0166177
597.833	0.0167442
597.911	0.0165115
597.989	0.0165610
598.067	0.0164540
598.146	0.0164663
598.224	0.0164812
598.302	0.0164990
598.380	0.0164789
598.458	0.0164793
598.536	0.0164664
598.614	0.0164380
598.692	0.0163763
598.771	0.0164452
598.849	0.0165733
598.927	0.0165469
599.005	0.0165630
599.083	0.0165253
599.161	0.0166217
599.239	0.0165589
599.317	0.0165629
599.396	0.0165823
599.474	0.0166742
599.552	0.0167924
599.630	0.0166153
599.708	0.0165258
599.786	0.0167241
599.864	0.0167910
599.942	0.0168051
600.021	0.0168156
600.099	0.0168377
600.177	0.0167960
600.255	0.0168856
600.333	0.0168712
600.411	0.0169958
600.489	0.0169528
600.567	0.0167562
600.646	0.0167598
600.724	0.0168047
600.802	0.0168461
600.880	0.0170380
600.958	0.0169726
601.036	0.0168346
601.114	0.0168171
601.192	0.0169135
601.271	0.0168356
601.349	0.0168295
601.427	0.0168075
601.505	0.0168219
601.583	0.0168105
601.661	0.0168077
601.739	0.0168520
601.817	0.0166553
601.896	0.0165906
601.974	0.0166569
602.052	0.0166742
602.130	0.0168462
602.208	0.0166180
602.286	0.0164656
602.364	0.0164737
602.442	0.0164622
602.521	0.0163589
602.599	0.0164051
602.677	0.0165314
602.755	0.0162350
602.833	0.0162302
602.911	0.0161729
602.989	0.0162141
603.067	0.0162424
603.146	0.0161201
603.224	0.0159706
603.302	0.0161227
603.380	0.0160846
603.458	0.0160980
603.536	0.0160352
603.614	0.0159949
603.692	0.0160760
603.771	0.0160300
603.849	0.0159525
603.927	0.0161079
604.005	0.0160425
604.083	0.0161089
604.161	0.0161858
604.239	0.0161808
604.317	0.0160061
604.396	0.0160835
604.474	0.0161389
604.552	0.0162535
604.630	0.0160474
604.708	0.0163208
604.786	0.0162334
604.864	0.0162334
604.942	0.0161557
605.021	0.0162410
605.099	0.0162146
605.177	0.0161770
605.255	0.0162521
605.333	0.0161794
605.411	0.0160709
605.489	0.0159947
605.567	0.0159422
605.646	0.0160772
605.724	0.0160435
605.802	0.0159581
605.880	0.0159660
605.958	0.0158886
606.036	0.0160747
606.114	0.0159758
606.192	0.0160656
606.271	0.0160066
606.349	0.0159665
606.427	0.0159478
606.505	0.0160372
606.583	0.0160111
606.661	0.0160538
606.739	0.0160711
606.817	0.0159354
606.896	0.0162482
606.974	0.0161852
607.052	0.0161990
607.130	0.0162627
607.208	0.0162107
607.286	0.0161717
607.364	0.0162926
607.442	0.0162199
607.521	0.0164202
607.599	0.0163114
607.677	0.0163488
607.755	0.0163204
607.833	0.0163776
607.911	0.0164237
607.989	0.0164425
608.067	0.0163901
608.146	0.0162540
608.224	0.0162388
608.302	0.0162637
608.380	0.0162179
608.458	0.0161928
608.536	0.0161064
608.614	0.0160218
608.692	0.0160654
608.771	0.0157607
608.849	0.0159148
608.927	0.0158952
609.005	0.0158844
609.083	0.0157768
609.161	0.0156517
609.239	0.0155571
609.317	0.0154840
609.396	0.0155862
609.474	0.0154535
609.552	0.0154338
609.630	0.0152601
609.708	0.0151406
609.786	0.0151125
609.864	0.0152025
609.942	0.0151457
610.021	0.0150623
610.099	0.0149198
610.177	0.0150703
610.255	0.0149873
610.333	0.0149989
610.411	0.0151051
610.489	0.0150273
610.567	0.0149527
610.646	0.0149766
610.724	0.0150455
610.802	0.0151892
610.880	0.0150199
610.958	0.0151584
611.036	0.0152569
611.114	0.0151920
611.192	0.0152667
611.271	0.0152432
611.349	0.0153759
611.427	0.0155225
611.505	0.0154976
611.583	0.0156376
611.661	0.0155843
611.739	0.0156528
611.817	0.0157310
611.896	0.0159521
611.974	0.0159368
612.052	0.0160348
612.130	0.0159902
612.208	0.0161824
612.286	0.0162214
612.364	0.0163946
612.442	0.0164855
612.521	0.0164887
612.599	0.0166267
612.677	0.0165777
612.755	0.0165903
612.833	0.0168197
612.911	0.0166382
612.989	0.0168674
613.067	0.0168988
613.146	0.0168246
613.224	0.0167978
613.302	0.0168299
613.380	0.0169141
613.458	0.0169316
613.536	0.0170786
613.614	0.0170741
613.692	0.0170686
613.771	0.0171108
613.849	0.0170728
613.927	0.0170239
614.005	0.0170443
614.083	0.0171123
614.161	0.0171322
614.239	0.0171013
614.317	0.0170292
614.396	0.0169139
614.474	0.0169109
614.552	0.0170069
614.630	0.0169887
614.708	0.0169141
614.786	0.0168533
614.864	0.0167246
614.942	0.0168871
615.021	0.0169446
615.099	0.0168712
615.177	0.0168450
615.255	0.0167719
615.333	0.0167364
615.411	0.0166262
615.489	0.0166335
615.567	0.0167057
615.646	0.0165826
615.724	0.0165677
615.802	0.0165349
615.880	0.0164911
615.958	0.0164429
616.036	0.0165395
616.114	0.0164410
616.192	0.0163477
616.271	0.0165141
616.349	0.0162865
616.427	0.0163552
616.505	0.0163906
616.583	0.0163010
616.661	0.0163481
616.739	0.0162191
616.817	0.0162469
616.896	0.0163824
616.974	0.0163670
617.052	0.0162233
617.130	0.0162507
617.208	0.0163123
617.286	0.0162928
617.364	0.0164011
617.442	0.0162798
617.521	0.0162546
617.599	0.0163224
617.677	0.0162942
617.755	0.0163821
617.833	0.0162912
617.911	0.0163030
617.989	0.0163761
618.067	0.0163235
618.146	0.0162983
618.224	0.0162701
618.302	0.0162553
618.380	0.0162720
618.458	0.0163039
618.536	0.0163531
618.614	0.0162401
618.692	0.0162899
618.771	0.0162440
618.849	0.0163287
618.927	0.0164236
619.005	0.0163404
619.083	0.0163467
619.161	0.0163760
619.239	0.0164840
619.317	0.0165356
619.396	0.0165229
619.474	0.0164525
619.552	0.0164955
619.630	0.0165607
619.708	0.0165501
619.786	0.0166547
619.864	0.0167224
619.942	0.0167413
620.021	0.0167454
620.099	0.0167923
620.177	0.0169243
620.255	0.0166976
620.333	0.0167841
620.411	0.0168877
620.489	0.0168063
620.567	0.0166334
620.646	0.0169485
620.724	0.0168264
620.802	0.0170247
620.880	0.0169357
620.958	0.0170203
621.036	0.0169128
621.114	0.0169265
621.192	0.0169154
621.271	0.0169727
621.349	0.0171082
621.427	0.0173036
621.505	0.0169848
621.583	0.0169456
621.661	0.0171474
621.739	0.0171671
621.817	0.0172121
621.896	0.0171078
621.974	0.0170245
622.052	0.0170834
622.130	0.0170243
622.208	0.0170004
622.286	0.0170718
622.364	0.0169331
622.442	0.0171639
622.521	0.0169225
622.599	0.0169193
622.677	0.0167421
622.755	0.0168208
622.833	0.0169845
622.911	0.0169179
622.989	0.0167422
623.067	0.0168195
623.146	0.0167715
623.224	0.0167407
623.302	0.0165397
623.380	0.0166065
623.458	0.0167960
623.536	0.0166870
623.614	0.0165648
623.692	0.0168178
623.771	0.0167575
623.849	0.0167061
623.927	0.0168391
624.005	0.0168037
624.083	0.0167072
624.161	0.0168870
624.239	0.0168869
624.317	0.0167937
624.396	0.0167225
624.474	0.0168243
624.552	0.0167651
624.630	0.0167468
624.708	0.0167891
624.786	0.0166933
624.864	0.0167042
624.942	0.0166026
625.021	0.0166291
625.099	0.0166454
625.177	0.0166282
625.255	0.0165968
625.333	0.0165614
625.411	0.0164640
625.489	0.0165434
625.567	0.0165817
625.646	0.0164966
625.724	0.0165324
625.802	0.0165723
625.880	0.0165874
625.958	0.0165459
626.036	0.0164818
626.114	0.0166547
626.192	0.0165415
626.271	0.0165454
626.349	0.0166385
626.427	0.0165996
626.505	0.0166599
626.583	0.0166947
626.661	0.0166019
626.739	0.0165141
626.817	0.0164911
626.896	0.0164657
626.974	0.0166302
627.052	0.0165335
627.130	0.0164658
627.208	0.0164333
627.286	0.0166766
627.364	0.0164122
627.442	0.0165892
627.521	0.0166517
627.599	0.0164462
627.677	0.0166289
627.755	0.0165141
627.833	0.0164963
627.911	0.0165376
627.989	0.0165929
628.067	0.0166025
628.146	0.0165400
628.224	0.0164946
628.302	0.0165692
628.380	0.0165263
628.458	0.0165359
628.536	0.0164507
628.614	0.0164605
628.692	0.0164832
628.771	0.0163850
628.849	0.0162831
628.927	0.0165079
629.005	0.0164485
629.083	0.0162234
629.161	0.0162883
629.239	0.0160601
629.317	0.0160155
629.396	0.0160603
629.474	0.0159583
629.552	0.0157436
629.630	0.0156308
629.708	0.0156676
629.786	0.0152857
629.864	0.0152618
629.942	0.0152699
630.021	0.0152200
630.099	0.0149503
630.177	0.0149660
630.255	0.0149925
630.333	0.0150826
630.411	0.0150053
630.489	0.0147748
630.567	0.0147689
630.646	0.0149808
630.724	0.0149456
630.802	0.0149279
630.880	0.0149364
630.958	0.0150806
631.036	0.0151672
631.114	0.0153384
631.192	0.0154266
631.271	0.0154931
631.349	0.0156075
631.427	0.0157188
631.505	0.0158395
631.583	0.0159858
631.661	0.0162010
631.739	0.0161179
631.817	0.0163149
631.896	0.0165484
631.974	0.0166216
632.052	0.0164887
632.130	0.0166164
632.208	0.0167669
632.286	0.0166797
632.364	0.0166028
632.442	0.0167332
632.521	0.0168108
632.599	0.0167281
632.677	0.0167742
632.755	0.0167641
632.833	0.0166115
632.911	0.0165115
632.989	0.0166894
633.067	0.0167007
633.146	0.0167387
633.224	0.0165813
633.302	0.0164639
633.380	0.0164088
633.458	0.0165031
633.536	0.0164497
633.614	0.0163676
633.692	0.0165272
633.771	0.0164506
633.849	0.0162556
633.927	0.0162522
634.005	0.0162225
634.083	0.0162563
634.161	0.0163427
634.239	0.0161379
634.317	0.0160509
634.396	0.0161127
634.474	0.0160143
634.552	0.0161080
634.630	0.0160634
634.708	0.0160021
634.786	0.0160227
634.864	0.0160349
634.942	0.0161075
635.021	0.0160254
635.099	0.0161073
635.177	0.0160867
635.255	0.0160509
635.333	0.0160712
635.411	0.0161338
635.489	0.0161420
635.567	0.0161088
635.646	0.0162467
635.724	0.0162827
635.802	0.0163247
635.880	0.0165843
635.958	0.0165147
636.036	0.0166344
636.114	0.0167268
636.192	0.0167173
636.271	0.0169031
636.349	0.0167928
636.427	0.0169850
636.505	0.0170457
636.583	0.0171036
636.661	0.0169834
636.739	0.0171307
636.817	0.0171783
636.896	0.0172903
636.974	0.0170598
637.052	0.0171497
637.130	0.0171494
637.208	0.0172727
637.286	0.0170448
637.364	0.0171955
637.442	0.0172376
637.521	0.0169940
637.599	0.0170513
637.677	0.0169836
637.755	0.0169477
637.833	0.0171072
637.911	0.0168818
637.989	0.0168922
638.067	0.0169058
638.146	0.0166890
638.224	0.0166949
638.302	0.0166877
638.380	0.0167921
638.458	0.0165385
638.536	0.0165372
638.614	0.0165826
638.692	0.0166364
638.771	0.0164880
638.849	0.0163681
638.927	0.0165237
639.005	0.0163449
639.083	0.0163715
639.161	0.0163229
639.239	0.0162811
639.317	0.0164362
639.396	0.0162271
639.474	0.0163024
639.552	0.0164333
639.630	0.0162850
639.708	0.0162426
639.786	0.0162490
639.864	0.0161600
639.942	0.0161909
640.021	0.0162224
640.099	0.0161879
640.177	0.0162392
640.255	0.0159850
640.333	0.0160542
640.411	0.0159324
640.489	0.0159754
640.567	0.0160955
640.646	0.0160648
640.724	0.0160460
640.802	0.0158604
640.880	0.0160022
640.958	0.0159517
641.036	0.0160689
641.114	0.0159245
641.192	0.0160354
641.271	0.0160043
641.349	0.0160148
641.427	0.0161707
641.505	0.0162832
641.583	0.0163563
641.661	0.0163863
641.739	0.0163377
641.817	0.0165335
641.896	0.0165841
641.974	0.0165850
642.052	0.0167737
642.130	0.0168062
642.208	0.0169659
642.286	0.0169256
642.364	0.0170654
642.442	0.0171922
642.521	0.0172195
642.599	0.0172003
642.677	0.0173928
642.755	0.0174240
642.833	0.0174789
642.911	0.0175062
642.989	0.0175247
643.067	0.0176349
643.146	0.0176185
643.224	0.0177253
643.302	0.0178014
643.380	0.0177388
643.458	0.0176773
643.536	0.0177022
643.614	0.0178336
643.692	0.0178101
643.771	0.0177238
643.849	0.0176550
643.927	0.0176854
644.005	0.0176990
644.083	0.0175913
644.161	0.0175859
644.239	0.0175264
644.317	0.0174825
644.396	0.0173355
644.474	0.0173240
644.552	0.0172115
644.630	0.0171175
644.708	0.0170934
644.786	0.0169551
644.864	0.0167620
644.942	0.0166911
645.021	0.0167388
645.099	0.0166085
645.177	0.0164417
645.255	0.0162720
645.333	0.0162611
645.411	0.0162388
645.489	0.0160486
645.567	0.0162439
645.646	0.0160968
645.724	0.0159865
645.802	0.0158688
645.880	0.0159488
645.958	0.0158146
646.036	0.0159388
646.114	0.0157642
646.192	0.0158308
646.271	0.0157489
646.349	0.0157819
646.427	0.0157337
646.505	0.0157210
646.583	0.0156103
646.661	0.0156085
646.739	0.0157409
646.817	0.0157309
646.896	0.0156580
646.974	0.0157726
647.052	0.0156147
647.130	0.0156482
647.208	0.0156420
647.286	0.0156951
647.364	0.0157307
647.442	0.0157205
647.521	0.0155952
647.599	0.0157355
647.677	0.0156553
647.755	0.0156461
647.833	0.0157012
647.911	0.0158676
647.989	0.0157692
648.067	0.0157681
648.146	0.0158694
648.224	0.0159773
648.302	0.0159315
648.380	0.0158878
648.458	0.0159010
648.536	0.0158464
648.614	0.0160403
648.692	0.0159955
648.771	0.0158227
648.849	0.0160457
648.927	0.0159898
649.005	0.0159669
649.083	0.0160293
649.161	0.0159283
649.239	0.0159745
649.317	0.0159055
649.396	0.0160817
649.474	0.0160187
649.552	0.0160103
649.630	0.0162060
649.708	0.0161375
649.786	0.0161304
649.864	0.0161781
649.942	0.0159975
650.021	0.0159455
650.099	0.0161227
650.177	0.0161354
650.255	0.0161066
650.333	0.0162538
650.411	0.0162086
650.489	0.0161455
650.567	0.0161721
650.646	0.0160732
650.724	0.0160809
650.802	0.0160659
650.880	0.0162112
650.958	0.0161337
651.036	0.0161712
651.114	0.0162216
651.192	0.0161469
651.271	0.0163907
651.349	0.0163850
651.427	0.0163193
651.505	0.0165724
651.583	0.0165971
651.661	0.0165804
651.739	0.0165160
651.817	0.0165012
651.896	0.0165043
651.974	0.0164230
652.052	0.0163784
652.130	0.0164906
652.208	0.0162301
652.286	0.0162791
652.364	0.0161220
652.442	0.0161216
652.521	0.0161583
652.599	0.0162384
652.677	0.0161187
652.755	0.0162727
652.833	0.0161931
652.911	0.0160161
652.989	0.0161286
653.067	0.0159991
653.146	0.0160534
653.224	0.0161796
653.302	0.0161842
653.380	0.0159760
653.458	0.0161365
653.536	0.0161195
653.614	0.0160529
653.692	0.0161363
653.771	0.0161028
653.849	0.0161190
653.927	0.0161618
654.005	0.0160917
654.083	0.0161172
654.161	0.0159885
654.239	0.0161490
654.317	0.0160550
654.396	0.0159983
654.474	0.0160085
654.552	0.0160875
654.630	0.0160312
654.708	0.0159737
654.786	0.0159209
654.864	0.0158534
654.942	0.0158237
655.021	0.0157617
655.099	0.0157890
655.177	0.0159087
655.255	0.0157555
655.333	0.0158008
655.411	0.0157668
655.489	0.0157493
655.567	0.0156828
655.646	0.0157806
655.724	0.0156810
655.802	0.0159323
655.880	0.0158478
655.958	0.0158768
656.036	0.0159328
656.114	0.0159189
656.192	0.0159092
656.271	0.0159373
656.349	0.0160728
656.427	0.0158722
656.505	0.0159566
656.583	0.0162887
656.661	0.0160988
656.739	0.0161169
656.817	0.0162106
656.896	0.0162337
656.974	0.0162714
657.052	0.0163469
657.130	0.0162833
657.208	0.0162847
657.286	0.0162594
657.364	0.0163721
657.442	0.0163255
657.521	0.0163514
657.599	0.0164187
657.677	0.0164999
657.755	0.0163696
657.833	0.0164330
657.911	0.0165498
657.989	0.0165337
658.067	0.0164739
658.146	0.0165249
658.224	0.0166282
658.302	0.0165176
658.380	0.0166322
658.458	0.0166759
658.536	0.0167288
658.614	0.0166186
658.692	0.0167828
658.771	0.0166339
658.849	0.0165817
658.927	0.0167456
659.005	0.0166525
659.083	0.0163779
659.161	0.0165124
659.239	0.0166446
659.317	0.0164644
659.396	0.0164574
659.474	0.0163333
659.552	0.0163676
659.630	0.0164378
659.708	0.0162555
659.786	0.0163521
659.864	0.0163102
659.942	0.0162306
660.021	0.0162875
660.099	0.0162256
660.177	0.0164348
660.255	0.0164674
660.333	0.0164865
660.411	0.0165615
660.489	0.0164893
660.567	0.0165894
660.646	0.0165978
660.724	0.0165683
660.802	0.0165607
660.880	0.0167060
660.958	0.0168476
661.036	0.0167371
661.114	0.0168050
661.192	0.0168708
661.271	0.0169998
661.349	0.0169436
661.427	0.0169859
661.505	0.0169512
661.583	0.0170590
661.661	0.0169583
661.739	0.0171201
661.817	0.0171976
661.896	0.0171480
661.974	0.0170295
662.052	0.0170924
662.130	0.0171360
662.208	0.0170232
662.286	0.0171613
662.364	0.0170667
662.442	0.0170620
662.521	0.0168774
662.599	0.0170004
662.677	0.0169335
662.755	0.0169302
662.833	0.0168526
662.911	0.0167948
662.989	0.0167463
663.067	0.0168439
663.146	0.0168667
663.224	0.0167709
663.302	0.0167953
663.380	0.0166844
663.458	0.0166434
663.536	0.0167718
663.614	0.0166517
663.692	0.0166352
663.771	0.0167197
663.849	0.0166305
663.927	0.0165383
664.005	0.0165572
664.083	0.0165762
664.161	0.0164848
664.239	0.0164623
664.317	0.0164211
664.396	0.0164091
664.474	0.0162705
664.552	0.0162231
664.630	0.0162608
664.708	0.0163360
664.786	0.0160379
664.864	0.0159105
664.942	0.0160382
665.021	0.0159981
665.099	0.0159309
665.177	0.0158653
665.255	0.0158666
665.333	0.0158801
665.411	0.0158872
665.489	0.0158352
665.567	0.0159673
665.646	0.0161208
665.724	0.0159605
665.802	0.0161564
665.880	0.0162191
665.958	0.0161108
666.036	0.0160532
666.114	0.0161155
666.192	0.0162604
666.271	0.0163481
666.349	0.0162767
666.427	0.0162807
666.505	0.0163081
666.583	0.0163577
666.661	0.0164816
666.739	0.0163833
666.817	0.0164758
666.896	0.0165414
666.974	0.0164577
667.052	0.0163731
667.130	0.0164738
667.208	0.0163950
667.286	0.0164742
667.364	0.0164957
667.442	0.0163984
667.521	0.0164035
667.599	0.0163261
667.677	0.0162923
667.755	0.0162375
667.833	0.0163293
667.911	0.0164819
667.989	0.0163747
668.067	0.0165859
668.146	0.0164840
668.224	0.0163877
668.302	0.0164995
668.380	0.0164500
668.458	0.0164250
668.536	0.0163892
668.614	0.0163342
668.692	0.0163450
668.771	0.0163434
668.849	0.0162646
668.927	0.0161864
669.005	0.0162743
669.083	0.0162022
669.161	0.0162244
669.239	0.0161521
669.317	0.0160902
669.396	0.0161102
669.474	0.0159824
669.552	0.0159973
669.630	0.0159695
669.708	0.0158263
669.786	0.0159796
669.864	0.0158171
669.942	0.0158450
670.021	0.0157633
670.099	0.0158896
670.177	0.0157880
670.255	0.0157775
670.333	0.0157899
670.411	0.0156654
670.489	0.0157320
670.567	0.0157642
670.646	0.0157911
670.724	0.0157761
670.802	0.0156482
670.880	0.0158180
670.958	0.0158012
671.036	0.0158461
671.114	0.0156400
671.192	0.0158410
671.271	0.0158423
671.349	0.0159180
671.427	0.0158609
671.505	0.0158218
671.583	0.0159724
671.661	0.0160663
671.739	0.0159317
671.817	0.0158001
671.896	0.0159743
671.974	0.0160201
672.052	0.0159018
672.130	0.0160141
672.208	0.0158215
672.286	0.0160403
672.364	0.0160062
672.442	0.0159476
672.521	0.0160268
672.599	0.0159874
672.677	0.0158859
672.755	0.0159901
672.833	0.0159647
672.911	0.0159365
672.989	0.0161256
673.067	0.0159091
673.146	0.0159782
673.224	0.0159818
673.302	0.0160316
673.380	0.0159470
673.458	0.0159854
673.536	0.0161187
673.614	0.0160598
673.692	0.0161687
673.771	0.0161998
673.849	0.0161795
673.927	0.0161028
674.005	0.0163831
674.083	0.0163259
674.161	0.0163868
674.239	0.0164402
674.317	0.0163164
674.396	0.0162556
674.474	0.0163039
674.552	0.0164162
674.630	0.0164149
674.708	0.0162770
674.786	0.0163077
674.864	0.0163609
674.942	0.0163245
675.021	0.0162894
675.099	0.0162488
675.177	0.0161916
675.255	0.0163521
675.333	0.0162383
675.411	0.0163683
675.489	0.0162453
675.567	0.0159756
675.646	0.0162296
675.724	0.0161018
675.802	0.0161072
675.880	0.0161133
675.958	0.0161349
676.036	0.0162318
676.114	0.0160993
676.192	0.0160939
676.271	0.0163322
676.349	0.0161716
676.427	0.0161146
676.505	0.0162821
676.583	0.0164008
676.661	0.0163419
676.739	0.0161843
676.817	0.0162739
676.896	0.0163718
676.974	0.0164158
677.052	0.0164119
677.130	0.0164944
677.208	0.0162643
677.286	0.0162975
677.364	0.0163171
677.442	0.0163773
677.521	0.0164030
677.599	0.0164394
677.677	0.0163639
677.755	0.0164579
677.833	0.0163495
677.911	0.0164243
677.989	0.0164131
678.067	0.0163835
678.146	0.0164382
678.224	0.0164381
678.302	0.0164938
678.380	0.0165289
678.458	0.0163867
678.536	0.0163932
678.614	0.0164883
678.692	0.0165731
678.771	0.0164081
678.849	0.0165130
678.927	0.0164128
679.005	0.0163760
679.083	0.0163118
679.161	0.0164875
679.239	0.0165124
679.317	0.0164550
679.396	0.0164561
679.474	0.0164221
679.552	0.0162678
679.630	0.0162708
679.708	0.0162649
679.786	0.0163807
679.864	0.0164491
679.942	0.0161942
680.021	0.0162629
680.099	0.0163122
680.177	0.0163486
680.255	0.0161413
680.333	0.0161205
680.411	0.0160948
680.489	0.0160670
680.567	0.0161730
680.646	0.0161186
680.724	0.0161073
680.802	0.0160591
680.880	0.0162191
680.958	0.0161060
681.036	0.0160074
681.114	0.0159365
681.192	0.0159949
681.271	0.0159978
681.349	0.0161878
681.427	0.0160052
681.505	0.0159963
681.583	0.0161727
681.661	0.0160203
681.739	0.0159579
681.817	0.0159566
681.896	0.0160569
681.974	0.0161006
682.052	0.0159253
682.130	0.0161552
682.208	0.0161385
682.286	0.0161195
682.364	0.0162337
682.442	0.0161172
682.521	0.0161441
682.599	0.0162756
682.677	0.0161915
682.755	0.0161433
682.833	0.0161792
682.911	0.0164250
682.989	0.0160857
683.067	0.0162318
683.146	0.0159924
683.224	0.0162621
683.302	0.0160848
683.380	0.0161579
683.458	0.0162653
683.536	0.0161671
683.614	0.0162064
683.692	0.0161720
683.771	0.0162270
683.849	0.0162914
683.927	0.0162996
684.005	0.0163100
684.083	0.0163542
684.161	0.0163703
684.239	0.0164729
684.317	0.0163538
684.396	0.0162479
684.474	0.0165091
684.552	0.0166346
684.630	0.0165354
684.708	0.0164470
684.786	0.0164682
684.864	0.0165871
684.942	0.0166725
685.021	0.0165083
685.099	0.0165907
685.177	0.0165585
685.255	0.0166164
685.333	0.0166445
685.411	0.0165263
685.489	0.0165669
685.567	0.0165993
685.646	0.0164095
685.724	0.0165559
685.802	0.0166569
685.880	0.0165457
685.958	0.0164980
686.036	0.0166508
686.114	0.0165120
686.192	0.0165836
686.271	0.0167471
686.349	0.0164857
686.427	0.0164548
686.505	0.0164515
686.583	0.0165167
686.661	0.0164571
686.739	0.0164488
686.817	0.0165034
686.896	0.0165067
686.974	0.0164850
687.052	0.0165531
687.130	0.0165662
687.208	0.0165099
687.286	0.0166296
687.364	0.0164290
687.442	0.0165222
687.521	0.0166183
687.599	0.0164706
687.677	0.0165710
687.755	0.0165060
687.833	0.0165494
687.911	0.0165791
687.989	0.0165897
688.067	0.0164169
688.146	0.0165263
688.224	0.0166174
688.302	0.0164781
688.380	0.0165574
688.458	0.0165563
688.536	0.0165072
688.614	0.0164864
688.692	0.0165258
688.771	0.0165662
688.849	0.0165779
688.927	0.0166508
689.005	0.0166305
689.083	0.0166689
689.161	0.0167201
689.239	0.0165810
689.317	0.0166097
689.396	0.0165343
689.474	0.0166145
689.552	0.0166761
689.630	0.0166103
689.708	0.0164304
689.786	0.0163851
689.864	0.0165749
689.942	0.0165666
690.021	0.0164633
690.099	0.0165430
690.177	0.0164853
690.255	0.0163303
690.333	0.0163651
690.411	0.0163914
690.489	0.0164479
690.567	0.0164365
690.646	0.0162175
690.724	0.0162186
690.802	0.0163107
690.880	0.0161711
690.958	0.0162925
691.036	0.0163483
691.114	0.0162332
691.192	0.0161213
691.271	0.0161278
691.349	0.0162536
691.427	0.0162794
691.505	0.0160856
691.583	0.0162566
691.661	0.0162919
691.739	0.0161008
691.817	0.0161333
691.896	0.0163145
691.974	0.0161585
692.052	0.0162743
692.130	0.0161927
692.208	0.0160728
692.286	0.0160931
692.364	0.0161722
692.442	0.0161607
692.521	0.0163855
692.599	0.0161905
692.677	0.0162707
692.755	0.0163644
692.833	0.0162844
692.911	0.0162639
692.989	0.0163081
693.067	0.0162645
693.146	0.0164072
693.224	0.0162428
693.302	0.0162480
693.380	0.0162642
693.458	0.0163422
693.536	0.0162008
693.614	0.0162930
693.692	0.0163059
693.771	0.0162338
693.849	0.0161114
693.927	0.0161048
694.005	0.0161678
694.083	0.0161588
694.161	0.0163081
694.239	0.0162801
694.317	0.0161024
694.396	0.0160958
694.474	0.0161253
694.552	0.0161235
694.630	0.0160999
694.708	0.0161751
694.786	0.0161368
694.864	0.0160192
694.942	0.0160573
695.021	0.0160905
695.099	0.0161248
695.177	0.0160149
695.255	0.0161406
695.333	0.0160495
695.411	0.0161505
695.489	0.0162171
695.567	0.0162348
695.646	0.0160463
695.724	0.0160320
695.802	0.0161761
695.880	0.0162139
695.958	0.0160780
696.036	0.0161021
696.114	0.0161678
696.192	0.0161892
696.271	0.0161152
696.349	0.0160361
696.427	0.0159493
696.505	0.0161507
696.583	0.0161445
696.661	0.0160447
696.739	0.0161804
696.817	0.0161004
696.896	0.0162016
696.974	0.0160609
697.052	0.0159703
697.130	0.0159430
697.208	0.0160520
697.286	0.0161530
697.364	0.0161804
697.442	0.0161066
697.521	0.0160860
697.599	0.0161390
697.677	0.0161543
697.755	0.0160854
697.833	0.0160196
697.911	0.0161409
697.989	0.0162601
698.067	0.0162812
698.146	0.0162022
698.224	0.0162643
698.302	0.0162607
698.380	0.0164288
698.458	0.0163276
698.536	0.0163719
698.614	0.0164282
698.692	0.0165395
698.771	0.0164523
698.849	0.0165284
698.927	0.0165735
699.005	0.0164428
699.083	0.0164682
699.161	0.0166040
699.239	0.0166714
699.317	0.0165287
699.396	0.0165299
699.474	0.0165765
699.552	0.0165984
699.630	0.0166888
699.708	0.0165257
699.786	0.0165244
699.864	0.0164755
699.942	0.0165902
700.021	0.0165452
700.099	0.0166617
700.177	0.0165560
700.255	0.0165299
700.333	0.0165296
700.411	0.0164999
700.489	0.0168140
700.567	0.0165659
700.646	0.0166422
700.724	0.0169206
700.802	0.0168128
700.880	0.0166951
700.958	0.0167830
701.036	0.0168394
701.114	0.0167776
701.192	0.0169353
701.271	0.0169912
701.349	0.0167805
701.427	0.0170601
701.505	0.0170313
701.583	0.0169910
701.661	0.0168886
701.739	0.0171049
701.817	0.0171878
701.896	0.0171503
701.974	0.0171988
702.052	0.0172076
702.130	0.0171659
702.208	0.0171700
702.286	0.0171899
702.364	0.0172139
702.442	0.0171186
702.521	0.0171525
702.599	0.0171552
702.677	0.0171182
702.755	0.0171129
702.833	0.0172472
702.911	0.0171429
702.989	0.0169289
703.067	0.0170547
703.146	0.0168970
703.224	0.0168272
703.302	0.0168294
703.380	0.0168466
703.458	0.0166821
703.536	0.0165434
703.614	0.0166652
703.692	0.0166565
703.771	0.0165588
703.849	0.0164155
703.927	0.0165736
704.005	0.0164362
704.083	0.0163416
704.161	0.0164017
704.239	0.0164256
704.317	0.0163887
704.396	0.0162303
704.474	0.0162347
704.552	0.0161964
704.630	0.0161924
704.708	0.0162244
704.786	0.0162445
704.864	0.0162300
704.942	0.0163434
705.021	0.0163418
705.099	0.0163470
705.177	0.0163178
705.255	0.0162830
705.333	0.0162434
705.411	0.0164307
705.489	0.0163767
705.567	0.0163737
705.646	0.0162881
705.724	0.0163407
705.802	0.0163493
705.880	0.0165121
705.958	0.0164538
706.036	0.0164554
706.114	0.0164953
706.192	0.0164111
706.271	0.0162536
706.349	0.0161614
706.427	0.0163678
706.505	0.0163641
706.583	0.0161690
706.661	0.0162090
706.739	0.0161511
706.817	0.0161250
706.896	0.0161363
706.974	0.0160519
707.052	0.0162202
707.130	0.0161766
707.208	0.0161025
707.286	0.0160710
707.364	0.0160435
707.442	0.0160608
707.521	0.0162321
707.599	0.0163017
707.677	0.0162147
707.755	0.0162238
707.833	0.0163653
707.911	0.0162487
707.989	0.0163304
708.067	0.0163685
708.146	0.0163195
708.224	0.0164220
708.302	0.0163656
708.380	0.0163926
708.458	0.0164556
708.536	0.0164130
708.614	0.0163702
708.692	0.0162952
708.771	0.0163922
708.849	0.0164849
708.927	0.0165686
709.005	0.0165202
709.083	0.0164942
709.161	0.0165907
709.239	0.0165687
709.317	0.0165118
709.396	0.0165211
709.474	0.0164645
709.552	0.0165206
709.630	0.0165009
709.708	0.0164421
709.786	0.0165093
709.864	0.0163904
709.942	0.0164924
710.021	0.0165191
710.099	0.0164697
710.177	0.0163742
710.255	0.0165037
710.333	0.0165614
710.411	0.0164032
710.489	0.0165251
710.567	0.0165485
710.646	0.0164288
710.724	0.0165039
710.802	0.0165100
710.880	0.0165056
710.958	0.0165998
711.036	0.0165788
711.114	0.0165986
711.192	0.0165257
711.271	0.0165611
711.349	0.0166406
711.427	0.0167564
711.505	0.0166784
711.583	0.0166049
711.661	0.0165394
711.739	0.0166185
711.817	0.0166632
711.896	0.0166580
711.974	0.0166530
712.052	0.0167583
712.130	0.0165491
712.208	0.0166506
712.286	0.0167679
712.364	0.0166611
712.442	0.0166855
712.521	0.0166656
712.599	0.0166350
712.677	0.0166544
712.755	0.0167281
712.833	0.0166346
712.911	0.0165624
712.989	0.0166486
713.067	0.0167381
713.146	0.0164432
713.224	0.0165048
713.302	0.0165436
713.380	0.0163701
713.458	0.0164364
713.536	0.0163939
713.614	0.0164058
713.692	0.0163705
713.771	0.0163493
713.849	0.0162679
713.927	0.0163354
714.005	0.0164076
714.083	0.0162036
714.161	0.0162366
714.239	0.0162188
714.317	0.0162367
714.396	0.0162187
714.474	0.0162325
714.552	0.0163616
714.630	0.0162057
714.708	0.0160339
714.786	0.0161926
714.864	0.0161256
714.942	0.0161686
715.021	0.0162524
715.099	0.0163409
715.177	0.0161764
715.255	0.0162269
715.333	0.0161122
715.411	0.0160899
715.489	0.0162245
715.567	0.0161365
715.646	0.0161029
715.724	0.0160583
715.802	0.0160291
715.880	0.0161012
715.958	0.0160835
716.036	0.0162116
716.114	0.0159754
716.192	0.0160425
716.271	0.0159612
716.349	0.0160513
716.427	0.0160567
716.505	0.0159068
716.583	0.0159799
716.661	0.0159368
716.739	0.0161007
716.817	0.0159323
716.896	0.0161620
716.974	0.0158230
717.052	0.0159598
717.130	0.0160529
717.208	0.0160070
717.286	0.0158574
717.364	0.0158091
717.442	0.0159202
717.521	0.0157950
717.599	0.0159430
717.677	0.0158501
717.755	0.0157644
717.833	0.0157033
717.911	0.0156993
717.989	0.0157104
718.067	0.0156651
718.146	0.0156699
718.224	0.0157207
718.302	0.0157346
718.380	0.0157629
718.458	0.0157330
718.536	0.0155820
718.614	0.0156921
718.692	0.0157532
718.771	0.0157764
718.849	0.0156894
718.927	0.0156767
719.005	0.0157636
719.083	0.0158672
719.161	0.0156953
719.239	0.0156648
719.317	0.0157278
719.396	0.0156757
719.474	0.0158160
719.552	0.0158096
719.630	0.0158186
719.708	0.0159544
719.786	0.0159241
719.864	0.0159269
719.942	0.0159096
720.021	0.0158743
720.099	0.0158015
720.177	0.0158912
720.255	0.0160519
720.333	0.0159230
720.411	0.0160258
720.489	0.0160750
720.567	0.0162375
720.646	0.0163480
720.724	0.0161691
720.802	0.0164658
720.880	0.0164612
720.958	0.0165801
721.036	0.0165849
721.114	0.0166730
721.192	0.0166841
721.271	0.0168368
721.349	0.0168733
721.427	0.0169157
721.505	0.0168891
721.583	0.0169205
721.661	0.0169584
721.739	0.0168707
721.817	0.0168457
721.896	0.0169780
721.974	0.0170754
722.052	0.0170520
722.130	0.0170037
722.208	0.0171156
722.286	0.0168584
722.364	0.0170365
722.442	0.0170708
722.521	0.0169597
722.599	0.0169047
722.677	0.0169756
722.755	0.0171159
722.833	0.0169508
722.911	0.0170319
722.989	0.0169613
723.067	0.0166840
723.146	0.0168275
723.224	0.0168583
723.302	0.0169633
723.380	0.0167834
723.458	0.0168440
723.536	0.0169855
723.614	0.0167435
723.692	0.0168436
723.771	0.0166953
723.849	0.0167159
723.927	0.0167360
724.005	0.0165933
724.083	0.0166862
724.161	0.0164079
724.239	0.0164511
724.317	0.0164142
724.396	0.0162915
724.474	0.0161890
724.552	0.0161015
724.630	0.0163022
724.708	0.0162511
724.786	0.0162981
724.864	0.0163490
724.942	0.0163689
725.021	0.0165071
725.099	0.0165263
725.177	0.0165507
725.255	0.0167283
725.333	0.0169435
725.411	0.0170082
725.489	0.0169504
725.567	0.0170659
725.646	0.0173940
725.724	0.0174020
725.802	0.0174631
725.880	0.0174649
725.958	0.0175761
726.036	0.0175212
726.114	0.0175708
726.192	0.0175308
726.271	0.0175495
726.349	0.0173790
726.427	0.0174382
726.505	0.0173985
726.583	0.0171674
726.661	0.0171600
726.739	0.0169377
726.817	0.0168581
726.896	0.0166447
726.974	0.0165843
727.052	0.0164803
727.130	0.0162659
727.208	0.0161486
727.286	0.0161060
727.364	0.0159908
727.442	0.0160570
727.521	0.0157024
727.599	0.0157178
727.677	0.0155461
727.755	0.0155019
727.833	0.0155960
727.911	0.0155286
727.989	0.0154288
728.067	0.0154070
728.146	0.0154765
728.224	0.0155363
728.302	0.0154764
728.380	0.0156980
728.458	0.0154690
728.536	0.0156613
728.614	0.0157764
728.692	0.0156823
728.771	0.0158607
728.849	0.0160867
728.927	0.0160480
729.005	0.0159545
729.083	0.0160355
729.161	0.0161701
729.239	0.0162545
729.317	0.0162237
729.396	0.0164503
729.474	0.0165006
729.552	0.0164711
729.630	0.0164708
729.708	0.0164344
729.786	0.0167162
729.864	0.0164314
729.942	0.0166444
730.021	0.0167713
730.099	0.0166182
730.177	0.0166845
730.255	0.0168065
730.333	0.0168931
730.411	0.0169533
730.489	0.0169404
730.567	0.0168837
730.646	0.0169717
730.724	0.0169044
730.802	0.0170025
730.880	0.0170421
730.958	0.0172569
731.036	0.0170982
731.114	0.0171346
731.192	0.0171046
731.271	0.0170708
731.349	0.0170137
731.427	0.0171239
731.505	0.0170235
731.583	0.0171898
731.661	0.0170406
731.739	0.0170850
731.817	0.0170346
731.896	0.0171328
731.974	0.0170554
732.052	0.0171037
732.130	0.0169748
732.208	0.0168746
732.286	0.0169986
732.364	0.0169318
732.442	0.0168771
732.521	0.0166957
732.599	0.0167573
732.677	0.0165229
732.755	0.0166307
732.833	0.0164577
732.911	0.0163184
732.989	0.0164065
733.067	0.0163962
733.146	0.0163612
733.224	0.0162813
733.302	0.0160654
733.380	0.0160644
733.458	0.0159698
733.536	0.0161076
733.614	0.0160168
733.692	0.0159455
733.771	0.0159175
733.849	0.0160758
733.927	0.0160310
734.005	0.0159209
734.083	0.0160997
734.161	0.0158747
734.239	0.0160054
734.317	0.0162074
734.396	0.0160152
734.474	0.0160106
734.552	0.0161570
734.630	0.0161668
734.708	0.0162054
734.786	0.0161314
734.864	0.0161483
734.942	0.0163475
735.021	0.0162874
735.099	0.0163003
735.177	0.0162595
735.255	0.0162500
735.333	0.0163041
735.411	0.0162840
735.489	0.0162868
735.567	0.0163122
735.646	0.0162692
735.724	0.0163642
735.802	0.0164046
735.880	0.0164440
735.958	0.0164587
736.036	0.0165618
736.114	0.0164682
736.192	0.0163713
736.271	0.0164906
736.349	0.0163477
736.427	0.0163173
736.505	0.0165009
736.583	0.0162111
736.661	0.0160653
736.739	0.0162542
736.817	0.0161898
736.896	0.0161655
736.974	0.0160455
737.052	0.0159748
737.130	0.0158939
737.208	0.0159753
737.286	0.0157252
737.364	0.0159383
737.442	0.0160139
737.521	0.0159506
737.599	0.0159866
737.677	0.0159803
737.755	0.0160554
737.833	0.0160808
737.911	0.0160977
737.989	0.0159634
738.067	0.0161015
738.146	0.0160185
738.224	0.0159444
738.302	0.0159650
738.380	0.0159496
738.458	0.0160643
738.536	0.0162116
738.614	0.0159914
738.692	0.0160477
738.771	0.0160691
738.849	0.0158582
738.927	0.0158962
739.005	0.0159530
739.083	0.0159414
739.161	0.0158573
739.239	0.0158495
739.317	0.0159045
739.396	0.0159462
739.474	0.0158943
739.552	0.0160095
739.630	0.0158498
739.708	0.0159209
739.786	0.0161294
739.864	0.0161606
739.942	0.0161833
740.021	0.0161728
740.099	0.0161487
740.177	0.0161332
740.255	0.0162594
740.333	0.0162724
740.411	0.0163220
740.489	0.0163400
740.567	0.0163780
740.646	0.0164027
740.724	0.0162493
740.802	0.0162874
740.880	0.0163784
740.958	0.0162701
741.036	0.0161309
741.114	0.0162840
741.192	0.0160941
741.271	0.0161253
741.349	0.0161726
741.427	0.0161222
741.505	0.0161961
741.583	0.0159753
741.661	0.0161074
741.739	0.0160215
741.817	0.0160793
741.896	0.0160035
741.974	0.0160722
742.052	0.0160045
742.130	0.0162141
742.208	0.0160235
742.286	0.0161707
742.364	0.0161558
742.442	0.0164359
742.521	0.0163510
742.599	0.0163081
742.677	0.0162872
742.755	0.0163710
742.833	0.0163125
742.911	0.0163264
742.989	0.0164071
743.067	0.0164355
743.146	0.0164237
743.224	0.0164754
743.302	0.0165210
743.380	0.0164150
743.458	0.0163791
743.536	0.0165107
743.614	0.0165292
743.692	0.0165828
743.771	0.0163457
743.849	0.0164300
743.927	0.0163764
744.005	0.0161678
744.083	0.0161870
744.161	0.0161008
744.239	0.0162255
744.317	0.0162068
744.396	0.0163531
744.474	0.0164102
744.552	0.0162350
744.630	0.0162132
744.708	0.0162347
744.786	0.0163854
744.864	0.0164181
744.942	0.0163499
745.021	0.0162511
745.099	0.0163629
745.177	0.0163436
745.255	0.0163115
745.333	0.0164375
745.411	0.0163183
745.489	0.0163940
745.567	0.0163917
745.646	0.0162353
745.724	0.0161938
745.802	0.0163332
745.880	0.0163217
745.958	0.0163492
746.036	0.0162521
746.114	0.0162833
746.192	0.0162518
746.271	0.0163310
746.349	0.0164421
746.427	0.0164005
746.505	0.0162109
746.583	0.0164983
746.661	0.0165144
746.739	0.0166417
746.817	0.0165199
746.896	0.0165719
746.974	0.0166382
747.052	0.0166087
747.130	0.0167044
747.208	0.0167995
747.286	0.0167270
747.364	0.0167000
747.442	0.0167313
747.521	0.0166805
747.599	0.0167276
747.677	0.0167844
747.755	0.0168311
747.833	0.0166928
747.911	0.0167966
747.989	0.0166594
748.067	0.0166024
748.146	0.0165948
748.224	0.0165453
748.302	0.0165578
748.380	0.0163822
748.458	0.0164489
748.536	0.0162629
748.614	0.0161253
748.692	0.0161492
748.771	0.0160880
748.849	0.0159113
748.927	0.0160741
749.005	0.0160231
749.083	0.0160403
749.161	0.0157363
749.239	0.0158541
749.317	0.0158154
749.396	0.0156346
749.474	0.0156159
749.552	0.0157166
749.630	0.0158492
749.708	0.0156976
749.786	0.0156716
749.864	0.0155951
749.942	0.0158280
750.021	0.0158022
750.099	0.0159039
750.177	0.0158398
750.255	0.0158762
750.333	0.0158573
750.411	0.0160397
750.489	0.0159025
750.567	0.0159231
750.646	0.0160356
750.724	0.0160610
750.802	0.0160676
750.880	0.0160937
750.958	0.0160594
751.036	0.0161559
751.114	0.0161552
751.192	0.0160806
751.271	0.0160768
751.349	0.0161513
751.427	0.0161972
751.505	0.0160904
751.583	0.0160744
751.661	0.0162514
751.739	0.0162236
751.817	0.0161133
751.896	0.0162167
751.974	0.0162083
752.052	0.0162905
752.130	0.0162296
752.208	0.0163091
752.286	0.0162461
752.364	0.0163113
752.442	0.0161752
752.521	0.0162003
752.599	0.0163637
752.677	0.0163335
752.755	0.0164068
752.833	0.0163454
752.911	0.0162698
752.989	0.0163492
753.067	0.0164439
753.146	0.0164868
753.224	0.0164610
753.302	0.0163271
753.380	0.0164468
753.458	0.0166466
753.536	0.0165737
753.614	0.0164860
753.692	0.0164240
753.771	0.0164996
753.849	0.0165323
753.927	0.0165645
754.005	0.0164032
754.083	0.0165164
754.161	0.0165800
754.239	0.0165247
754.317	0.0165302
754.396	0.0164690
754.474	0.0164520
754.552	0.0165540
754.630	0.0166300
754.708	0.0165520
754.786	0.0165040
754.864	0.0165488
754.942	0.0164935
755.021	0.0165356
755.099	0.0165153
755.177	0.0165134
755.255	0.0164648
755.333	0.0165467
755.411	0.0165003
755.489	0.0165672
755.567	0.0165022
755.646	0.0164089
755.724	0.0164572
755.802	0.0163983
755.880	0.0163978
755.958	0.0164983
756.036	0.0164841
756.114	0.0163097
756.192	0.0164029
756.271	0.0163774
756.349	0.0163270
756.427	0.0163673
756.505	0.0162434
756.583	0.0162408
756.661	0.0162680
756.739	0.0162608
756.817	0.0163121
756.896	0.0162253
756.974	0.0162203
757.052	0.0161629
757.130	0.0161916
757.208	0.0161440
757.286	0.0162726
757.364	0.0163601
757.442	0.0162733
757.521	0.0162630
757.599	0.0162590
757.677	0.0161389
757.755	0.0162649
757.833	0.0163267
757.911	0.0164633
757.989	0.0164464
758.067	0.0163310
758.146	0.0164393
758.224	0.0164015
758.302	0.0164836
758.380	0.0165846
758.458	0.0166216
758.536	0.0166584
758.614	0.0166399
758.692	0.0166003
758.771	0.0166604
758.849	0.0166303
758.927	0.0167021
759.005	0.0165701
759.083	0.0167216
759.161	0.0167731
759.239	0.0168540
759.317	0.0168691
759.396	0.0168164
759.474	0.0168102
759.552	0.0167695
759.630	0.0169846
759.708	0.0168885
759.786	0.0166994
759.864	0.0168568
759.942	0.0169427
760.021	0.0168063
760.099	0.0166338
760.177	0.0168321
760.255	0.0167324
760.333	0.0167107
760.411	0.0166801
760.489	0.0166055
760.567	0.0167602
760.646	0.0165865
760.724	0.0166391
760.802	0.0167139
760.880	0.0167304
760.958	0.0165768
761.036	0.0165479
761.114	0.0165670
761.192	0.0165329
761.271	0.0165324
761.349	0.0164812
761.427	0.0163635
761.505	0.0164812
761.583	0.0164732
761.661	0.0164238
761.739	0.0162974
761.817	0.0162238
761.896	0.0162662
761.974	0.0163152
762.052	0.0162766
762.130	0.0163084
762.208	0.0162485
762.286	0.0163065
762.364	0.0161732
762.442	0.0162969
762.521	0.0162298
762.599	0.0162130
762.677	0.0163531
762.755	0.0161863
762.833	0.0162003
762.911	0.0161393
762.989	0.0163165
763.067	0.0163678
763.146	0.0161282
763.224	0.0162045
763.302	0.0162665
763.380	0.0164515
763.458	0.0162213
763.536	0.0162186
763.614	0.0163875
763.692	0.0162450
763.771	0.0163799
763.849	0.0165089
763.927	0.0163647
764.005	0.0163395
764.083	0.0165122
764.161	0.0163589
764.239	0.0163390
764.317	0.0165488
764.396	0.0163383
764.474	0.0163480
764.552	0.0163833
764.630	0.0163929
764.708	0.0163856
764.786	0.0163222
764.864	0.0163715
764.942	0.0165136
765.021	0.0162827
765.099	0.0162846
765.177	0.0164095
765.255	0.0161796
765.333	0.0162675
765.411	0.0163902
765.489	0.0163690
765.567	0.0162926
765.646	0.0161610
765.724	0.0163033
765.802	0.0162027
765.880	0.0161944
765.958	0.0162584
766.036	0.0163202
766.114	0.0161117
766.192	0.0162772
766.271	0.0162568
766.349	0.0163251
766.427	0.0161691
766.505	0.0161144
766.583	0.0161811
766.661	0.0161530
766.739	0.0163163
766.817	0.0162579
766.896	0.0162502
766.974	0.0162827
767.052	0.0162574
767.130	0.0163152
767.208	0.0163535
767.286	0.0163281
767.364	0.0164546
767.442	0.0164201
767.521	0.0164759
767.599	0.0165196
767.677	0.0165811
767.755	0.0166337
767.833	0.0165506
767.911	0.0165598
767.989	0.0167326
768.067	0.0166209
768.146	0.0165732
768.224	0.0167816
768.302	0.0167439
768.380	0.0167464
768.458	0.0166557
768.536	0.0167174
768.614	0.0167017
768.692	0.0167169
768.771	0.0168356
768.849	0.0167574
768.927	0.0167809
769.005	0.0167691
769.083	0.0167126
769.161	0.0168591
769.239	0.0168085
769.317	0.0166495
769.396	0.0166637
769.474	0.0168148
769.552	0.0167004
769.630	0.0166371
769.708	0.0167481
769.786	0.0166838
769.864	0.0166541
769.942	0.0165990
770.021	0.0165163
770.099	0.0166557
770.177	0.0165250
770.255	0.0166109
770.333	0.0167249
770.411	0.0164349
770.489	0.0165210
770.567	0.0164387
770.646	0.0166627
770.724	0.0165326
770.802	0.0165088
770.880	0.0162926
770.958	0.0164566
771.036	0.0164662
771.114	0.0165364
771.192	0.0164492
771.271	0.0165168
771.349	0.0164490
771.427	0.0162829
771.505	0.0163070
771.583	0.0163153
771.661	0.0162347
771.739	0.0162329
771.817	0.0161959
771.896	0.0159322
771.974	0.0160107
772.052	0.0160538
772.130	0.0160201
772.208	0.0159251
772.286	0.0158247
772.364	0.0157824
772.442	0.0157949
772.521	0.0157774
772.599	0.0158467
772.677	0.0158081
772.755	0.0156334
772.833	0.0158521
772.911	0.0158248
772.989	0.0157508
773.067	0.0158740
773.146	0.0158804
773.224	0.0159439
773.302	0.0159370
773.380	0.0159888
773.458	0.0160048
773.536	0.0159941
773.614	0.0159084
773.692	0.0160271
773.771	0.0160219
773.849	0.0160832
773.927	0.0159989
774.005	0.0159491
774.083	0.0160619
774.161	0.0160815
774.239	0.0161252
774.317	0.0161084
774.396	0.0161169
774.474	0.0160648
774.552	0.0161223
774.630	0.0161796
774.708	0.0161461
774.786	0.0161282
774.864	0.0160986
774.942	0.0161792
775.021	0.0161713
775.099	0.0159771
775.177	0.0162061
775.255	0.0162031
775.333	0.0161442
775.411	0.0160722
775.489	0.0162003
775.567	0.0161691
775.646	0.0162428
775.724	0.0160812
775.802	0.0161702
775.880	0.0161167
775.958	0.0160435
776.036	0.0161230
776.114	0.0160650
776.192	0.0160639
776.271	0.0158631
776.349	0.0159932
776.427	0.0160683
776.505	0.0161192
776.583	0.0158530
776.661	0.0158608
776.739	0.0159067
776.817	0.0158163
776.896	0.0158015
776.974	0.0159311
777.052	0.0159298
777.130	0.0157924
777.208	0.0157432
777.286	0.0158649
777.364	0.0158801
777.442	0.0157938
777.521	0.0160371
777.599	0.0159131
777.677	0.0159864
777.755	0.0159953
777.833	0.0160774
777.911	0.0160567
777.989	0.0161656
778.067	0.0162537
778.146	0.0162650
778.224	0.0163492
778.302	0.0164302
778.380	0.0164094
778.458	0.0165282
778.536	0.0163848
778.614	0.0165511
778.692	0.0165690
778.771	0.0165869
778.849	0.0166873
778.927	0.0167249
779.005	0.0167210
779.083	0.0167670
779.161	0.0167714
779.239	0.0167676
779.317	0.0168197
779.396	0.0168436
779.474	0.0168880
779.552	0.0169001
779.630	0.0169144
779.708	0.0169250
779.786	0.0168085
779.864	0.0167936
779.942	0.0167670
780.021	0.0168906
780.099	0.0169447
780.177	0.0167099
780.255	0.0168613
780.333	0.0166797
780.411	0.0169041
780.489	0.0168803
780.567	0.0167303
780.646	0.0168172
780.724	0.0168559
780.802	0.0168011
780.880	0.0166270
780.958	0.0167348
781.036	0.0168769
781.114	0.0168001
781.192	0.0167577
781.271	0.0168004
781.349	0.0167850
781.427	0.0167261
781.505	0.0167853
781.583	0.0166806
781.661	0.0167007
781.739	0.0165815
781.817	0.0165948
781.896	0.0166455
781.974	0.0166381
782.052	0.0166649
782.130	0.0166818
782.208	0.0166238
782.286	0.0166038
782.364	0.0164588
782.442	0.0164988
782.521	0.0166756
782.599	0.0166851
782.677	0.0165343
782.755	0.0164571
782.833	0.0164362
782.911	0.0165530
782.989	0.0165570
783.067	0.0164293
783.146	0.0164056
783.224	0.0164171
783.302	0.0163419
783.380	0.0164629
783.458	0.0163699
783.536	0.0162525
783.614	0.0162930
783.692	0.0161961
783.771	0.0162028
783.849	0.0162822
783.927	0.0162867
784.005	0.0161770
784.083	0.0162200
784.161	0.0162029
784.239	0.0161965
784.317	0.0162572
784.396	0.0163359
784.474	0.0163529
784.552	0.0163044
784.630	0.0162723
784.708	0.0162062
784.786	0.0162082
784.864	0.0163051
784.942	0.0163058
785.021	0.0162923
785.099	0.0163531
785.177	0.0164409
785.255	0.0164687
785.333	0.0164790
785.411	0.0164520
785.489	0.0165334
785.567	0.0165309
785.646	0.0164639
785.724	0.0165504
785.802	0.0164777
785.880	0.0165387
785.958	0.0164802
786.036	0.0164834
786.114	0.0165500
786.192	0.0166153
786.271	0.0165648
786.349	0.0163439
786.427	0.0164310
786.505	0.0165411
786.583	0.0165290
786.661	0.0164685
786.739	0.0164680
786.817	0.0164164
786.896	0.0163033
786.974	0.0164417
787.052	0.0164199
787.130	0.0163411
787.208	0.0165930
787.286	0.0165018
787.364	0.0165018
787.442	0.0164696
787.521	0.0164402
787.599	0.0163197
787.677	0.0165261
787.755	0.0164456
787.833	0.0165208
787.911	0.0164119
787.989	0.0165475
788.067	0.0164297
788.146	0.0165347
788.224	0.0165839
788.302	0.0165192
788.380	0.0164050
788.458	0.0165668
788.536	0.0166577
788.614	0.0166451
788.692	0.0165504
788.771	0.0165722
788.849	0.0166985
788.927	0.0165285
789.005	0.0165736
789.083	0.0165185
789.161	0.0165585
789.239	0.0163911
789.317	0.0166376
789.396	0.0164828
789.474	0.0165146
789.552	0.0163747
789.630	0.0164999
789.708	0.0165046
789.786	0.0164330
789.864	0.0165363
789.942	0.0163756
790.021	0.0166088
790.099	0.0164587
790.177	0.0164710
790.255	0.0164922
790.333	0.0164201
790.411	0.0166473
790.489	0.0164798
790.567	0.0163963
790.646	0.0163835
790.724	0.0164268
790.802	0.0164767
790.880	0.0164745
790.958	0.0165297
791.036	0.0164328
791.114	0.0163789
791.192	0.0166644
791.271	0.0166451
791.349	0.0164522
791.427	0.0164484
791.505	0.0164741
791.583	0.0164840
791.661	0.0165778
791.739	0.0165104
791.817	0.0163264
791.896	0.0164170
791.974	0.0165244
792.052	0.0163349
792.130	0.0162400
792.208	0.0163329
792.286	0.0164558
792.364	0.0162562
792.442	0.0162071
792.521	0.0161603
792.599	0.0162161
792.677	0.0162530
792.755	0.0161216
792.833	0.0161561
792.911	0.0162041
792.989	0.0162129
793.067	0.0161024
793.146	0.0162703
793.224	0.0161765
793.302	0.0159665
793.380	0.0161028
793.458	0.0160311
793.536	0.0160960
793.614	0.0160911
793.692	0.0160338
793.771	0.0160278
793.849	0.0160728
793.927	0.0161521
794.005	0.0160430
794.083	0.0161667
794.161	0.0162006
794.239	0.0161274
794.317	0.0161043
794.396	0.0162838
794.474	0.0163305
794.552	0.0162209
794.630	0.0162583
794.708	0.0164575
794.786	0.0164368
794.864	0.0165271
794.942	0.0164438
795.021	0.0165548
795.099	0.0166380
795.177	0.0167406
795.255	0.0165496
795.333	0.0165067
795.411	0.0166840
795.489	0.0167561
795.567	0.0167562
795.646	0.0167224
795.724	0.0167758
795.802	0.0166960
795.880	0.0166379
795.958	0.0167629
796.036	0.0167039
796.114	0.0166821
796.192	0.0168066
796.271	0.0167904
796.349	0.0168404
796.427	0.0166860
796.505	0.0166264
796.583	0.0166336
796.661	0.0167855
796.739	0.0167338
796.817	0.0167259
796.896	0.0166062
796.974	0.0165983
797.052	0.0166042
797.130	0.0165054
797.208	0.0163540
797.286	0.0165691
797.364	0.0165716
797.442	0.0164198
797.521	0.0165406
797.599	0.0164868
797.677	0.0163587
797.755	0.0164048
797.833	0.0164132
797.911	0.0166367
797.989	0.0165273
798.067	0.0164807
798.146	0.0164912
798.224	0.0165345
798.302	0.0164568
798.380	0.0164130
798.458	0.0164357
798.536	0.0164935
798.614	0.0164085
798.692	0.0164442
798.771	0.0163124
798.849	0.0162621
798.927	0.0163612
799.005	0.0163417
799.083	0.0163231
799.161	0.0162561
799.239	0.0164002
799.317	0.0161098
799.396	0.0161848
799.474	0.0162453
799.552	0.0161733
799.630	0.0162048
799.708	0.0160863
799.786	0.0159790
799.864	0.0161662
799.942	0.0161088
800.021	0.0159968
800.099	0.0159671
800.177	0.0159272
800.255	0.0158598
800.333	0.0161177
800.411	0.0158646
800.489	0.0158759
800.567	0.0159278
800.646	0.0159483
800.724	0.0158714
800.802	0.0158537
800.880	0.0159782
800.958	0.0161367
801.036	0.0160457
801.114	0.0159396
801.192	0.0159743
801.271	0.0160393
801.349	0.0161319
801.427	0.0161654
801.505	0.0161010
801.583	0.0160680
801.661	0.0160750
801.739	0.0160310
801.817	0.0162450
801.896	0.0162354
801.974	0.0160217
802.052	0.0162397
802.130	0.0160855
802.208	0.0161585
802.286	0.0162046
802.364	0.0161245
802.442	0.0161416
802.521	0.0162152
802.599	0.0160538
802.677	0.0162750
802.755	0.0161466
802.833	0.0161379
802.911	0.0161485
802.989	0.0161947
803.067	0.0161009
803.146	0.0161439
803.224	0.0160649
803.302	0.0161687
803.380	0.0161454
803.458	0.0160786
803.536	0.0162579
803.614	0.0161776
803.692	0.0161346
803.771	0.0161543
803.849	0.0162953
803.927	0.0162051
804.005	0.0162412
804.083	0.0162106
804.161	0.0162144
804.239	0.0162688
804.317	0.0161340
804.396	0.0164198
804.474	0.0162251
804.552	0.0163039
804.630	0.0163602
804.708	0.0163727
804.786	0.0163962
804.864	0.0164736
804.942	0.0164434
805.021	0.0165607
805.099	0.0166440
805.177	0.0167234
805.255	0.0165990
805.333	0.0164630
805.411	0.0165407
805.489	0.0166146
805.567	0.0166692
805.646	0.0166140
805.724	0.0167550
805.802	0.0165826
805.880	0.0166367
805.958	0.0166624
806.036	0.0166833
806.114	0.0166392
806.192	0.0164935
806.271	0.0164631
806.349	0.0165648
806.427	0.0165900
806.505	0.0164630
806.583	0.0165788
806.661	0.0165767
806.739	0.0164397
806.817	0.0162702
806.896	0.0163332
806.974	0.0164244
807.052	0.0163884
807.130	0.0164066
807.208	0.0163357
807.286	0.0162968
807.364	0.0162622
807.442	0.0163473
807.521	0.0163377
807.599	0.0163258
807.677	0.0161858
807.755	0.0162125
807.833	0.0161420
807.911	0.0163322
807.989	0.0162070
808.067	0.0161678
808.146	0.0161703
808.224	0.0161305
808.302	0.0162695
808.380	0.0160754
808.458	0.0160473
808.536	0.0161177
808.614	0.0161301
808.692	0.0161000
808.771	0.0160569
808.849	0.0160823
808.927	0.0160908
809.005	0.0160710
809.083	0.0161294
809.161	0.0161550
809.239	0.0160370
809.317	0.0159933
809.396	0.0160308
809.474	0.0160529
809.552	0.0158631
809.630	0.0159996
809.708	0.0160921
809.786	0.0158779
809.864	0.0158564
809.942	0.0159350
810.021	0.0159534
810.099	0.0160321
810.177	0.0159618
810.255	0.0159657
810.333	0.0159434
810.411	0.0158772
810.489	0.0159280
810.567	0.0159804
810.646	0.0158870
810.724	0.0159525
810.802	0.0159914
810.880	0.0160190
810.958	0.0160880
811.036	0.0158792
811.114	0.0160160
811.192	0.0161330
811.271	0.0161763
811.349	0.0161117
811.427	0.0163724
811.505	0.0163344
811.583	0.0164046
811.661	0.0164054
811.739	0.0163227
811.817	0.0165705
811.896	0.0167364
811.974	0.0168246
812.052	0.0167660
812.130	0.0168165
812.208	0.0169151
812.286	0.0169408
812.364	0.0169607
812.442	0.0170152
812.521	0.0171106
812.599	0.0170522
812.677	0.0169823
812.755	0.0171886
812.833	0.0172414
812.911	0.0171556
812.989	0.0171730
813.067	0.0172576
813.146	0.0173379
813.224	0.0171703
813.302	0.0171897
813.380	0.0171529
813.458	0.0172505
813.536	0.0173043
813.614	0.0171869
813.692	0.0172193
813.771	0.0171690
813.849	0.0172572
813.927	0.0170148
814.005	0.0169962
814.083	0.0170639
814.161	0.0169353
814.239	0.0169831
814.317	0.0169725
814.396	0.0168868
814.474	0.0169067
814.552	0.0168380
814.630	0.0169363
814.708	0.0168442
814.786	0.0168378
814.864	0.0167130
814.942	0.0166766
815.021	0.0167464
815.099	0.0167033
815.177	0.0165990
815.255	0.0165642
815.333	0.0165559
815.411	0.0166058
815.489	0.0163691
815.567	0.0164468
815.646	0.0163781
815.724	0.0161855
815.802	0.0162337
815.880	0.0163425
815.958	0.0162723
816.036	0.0161945
816.114	0.0160775
816.192	0.0160590
816.271	0.0160075
816.349	0.0159911
816.427	0.0160323
816.505	0.0160523
816.583	0.0160879
816.661	0.0160143
816.739	0.0159689
816.817	0.0160889
816.896	0.0162126
816.974	0.0161813
817.052	0.0160785
817.130	0.0160445
817.208	0.0160596
817.286	0.0162101
817.364	0.0162728
817.442	0.0162000
817.521	0.0163992
817.599	0.0164809
817.677	0.0165434
817.755	0.0164520
817.833	0.0165173
817.911	0.0164949
817.989	0.0165790
818.067	0.0165676
818.146	0.0168556
818.224	0.0167190
818.302	0.0166950
818.380	0.0166801
818.458	0.0168176
818.536	0.0167811
818.614	0.0167571
818.692	0.0169210
818.771	0.0170406
818.849	0.0167896
818.927	0.0166315
819.005	0.0167476
819.083	0.0167439
819.161	0.0166576
819.239	0.0166155
819.317	0.0166727
819.396	0.0166241
819.474	0.0167141
819.552	0.0165058
819.630	0.0164533
819.708	0.0165142
819.786	0.0164335
819.864	0.0164438
819.942	0.0163203
820.021	0.0163499
820.099	0.0162730
820.177	0.0161690
820.255	0.0161772
820.333	0.0159039
820.411	0.0157065
820.489	0.0158889
820.567	0.0158527
820.646	0.0156178
820.724	0.0157152
820.802	0.0157021
820.880	0.0156880
820.958	0.0157052
821.036	0.0154073
821.114	0.0156049
821.192	0.0155934
821.271	0.0156031
821.349	0.0156252
821.427	0.0156886
821.505	0.0157639
821.583	0.0157005
821.661	0.0157587
821.739	0.0158534
821.817	0.0159065
821.896	0.0158327
821.974	0.0157893
822.052	0.0159160
822.130	0.0160247
822.208	0.0158713
822.286	0.0158999
822.364	0.0160982
822.442	0.0159518
822.521	0.0158622
822.599	0.0158969
822.677	0.0158630
822.755	0.0159229
822.833	0.0159779
822.911	0.0159538
822.989	0.0158670
823.067	0.0158465
823.146	0.0157960
823.224	0.0157711
823.302	0.0156229
823.380	0.0155936
823.458	0.0156438
823.536	0.0156710
823.614	0.0155428
823.692	0.0155061
823.771	0.0154729
823.849	0.0154210
823.927	0.0153837
824.005	0.0154296
824.083	0.0155051
824.161	0.0155592
824.239	0.0155834
824.317	0.0155200
824.396	0.0154152
824.474	0.0155424
824.552	0.0156590
824.630	0.0156407
824.708	0.0156574
824.786	0.0158980
824.864	0.0158034
824.942	0.0158377
825.021	0.0159870
825.099	0.0158778
825.177	0.0160426
825.255	0.0160703
825.333	0.0162052
825.411	0.0161768
825.489	0.0161860
825.567	0.0163308
825.646	0.0163618
825.724	0.0163270
825.802	0.0164497
825.880	0.0163835
825.958	0.0165171
826.036	0.0163969
826.114	0.0164223
826.192	0.0166741
826.271	0.0166856
826.349	0.0166103
826.427	0.0165039
826.505	0.0165855
826.583	0.0167294
826.661	0.0166521
826.739	0.0165642
826.817	0.0166718
826.896	0.0166862
826.974	0.0164756
827.052	0.0167114
827.130	0.0166860
827.208	0.0165401
827.286	0.0165436
827.364	0.0165810
827.442	0.0164516
827.521	0.0164813
827.599	0.0165435
827.677	0.0165617
827.755	0.0165507
827.833	0.0165579
827.911	0.0164976
827.989	0.0165063
828.067	0.0164967
828.146	0.0164756
828.224	0.0165172
828.302	0.0165499
828.380	0.0164000
828.458	0.0163549
828.536	0.0163549
828.614	0.0164700
828.692	0.0163047
828.771	0.0163457
828.849	0.0164959
828.927	0.0164568
829.005	0.0163895
829.083	0.0163642
829.161	0.0164677
829.239	0.0165033
829.317	0.0165466
829.396	0.0163356
829.474	0.0165440
829.552	0.0163680
829.630	0.0162845
829.708	0.0165269
829.786	0.0164676
829.864	0.0165772
829.942	0.0164966
830.021	0.0164684
830.099	0.0164178
830.177	0.0165214
830.255	0.0165069
830.333	0.0165525
830.411	0.0165041
830.489	0.0165766
830.567	0.0166808
830.646	0.0166342
830.724	0.0167462
830.802	0.0165327
830.880	0.0164846
830.958	0.0166360
831.036	0.0165838
831.114	0.0166219
831.192	0.0167027
831.271	0.0165856
831.349	0.0165533
831.427	0.0166575
831.505	0.0166639
831.583	0.0165929
831.661	0.0166888
831.739	0.0165939
831.817	0.0164432
831.896	0.0166384
831.974	0.0165091
832.052	0.0164978
832.130	0.0166119
832.208	0.0163259
832.286	0.0164774
832.364	0.0164452
832.442	0.0165138
832.521	0.0164149
832.599	0.0163689
832.677	0.0164483
832.755	0.0164385
832.833	0.0163963
832.911	0.0163415
832.989	0.0163184
833.067	0.0162640
833.146	0.0164829
833.224	0.0163665
833.302	0.0162852
833.380	0.0161423
833.458	0.0162080
833.536	0.0163127
833.614	0.0163049
833.692	0.0162453
833.771	0.0163315
833.849	0.0162916
833.927	0.0161752
834.005	0.0162984
834.083	0.0164139
834.161	0.0163660
834.239	0.0164205
834.317	0.0162836
834.396	0.0163402
834.474	0.0163206
834.552	0.0163467
834.630	0.0164480
834.708	0.0164721
834.786	0.0163506
834.864	0.0163422
834.942	0.0162084
835.021	0.0162699
835.099	0.0161451
835.177	0.0161626
835.255	0.0161491
835.333	0.0161572
835.411	0.0161178
835.489	0.0159663
835.567	0.0160255
835.646	0.0159666
835.724	0.0158691
835.802	0.0160143
835.880	0.0159656
835.958	0.0158494
836.036	0.0159401
836.114	0.0160313
836.192	0.0159060
836.271	0.0158749
836.349	0.0159764
836.427	0.0159391
836.505	0.0161259
836.583	0.0160583
836.661	0.0161318
836.739	0.0160683
836.817	0.0162653
836.896	0.0161461
836.974	0.0161548
837.052	0.0162298
837.130	0.0162343
837.208	0.0163474
837.286	0.0163878
837.364	0.0164339
837.442	0.0164819
837.521	0.0164993
837.599	0.0165544
837.677	0.0166876
837.755	0.0164513
837.833	0.0164803
837.911	0.0167140
837.989	0.0165739
838.067	0.0166785
838.146	0.0166918
838.224	0.0167159
838.302	0.0167096
838.380	0.0167445
838.458	0.0168148
838.536	0.0167191
838.614	0.0168249
838.692	0.0168966
838.771	0.0168620
838.849	0.0169392
838.927	0.0169749
839.005	0.0169875
839.083	0.0169212
839.161	0.0170397
839.239	0.0169115
839.317	0.0170391
839.396	0.0170271
839.474	0.0168894
839.552	0.0170556
839.630	0.0170064
839.708	0.0168649
839.786	0.0168687
839.864	0.0170354
839.942	0.0170753
840.021	0.0170245
840.099	0.0169782
840.177	0.0169700
840.255	0.0169099
840.333	0.0168516
840.411	0.0168721
840.489	0.0168245
840.567	0.0168801
840.646	0.0168762
840.724	0.0168748
840.802	0.0168201
840.880	0.0166439
840.958	0.0166174
841.036	0.0166879
841.114	0.0166791
841.192	0.0166763
841.271	0.0165742
841.349	0.0165231
841.427	0.0163270
841.505	0.0164681
841.583	0.0163624
841.661	0.0163075
841.739	0.0162965
841.817	0.0161995
841.896	0.0161506
841.974	0.0162714
842.052	0.0160445
842.130	0.0160223
842.208	0.0158896
842.286	0.0159105
842.364	0.0157243
842.442	0.0158567
842.521	0.0157561
842.599	0.0158741
842.677	0.0157117
842.755	0.0156928
842.833	0.0155825
842.911	0.0156319
842.989	0.0158077
843.067	0.0156226
843.146	0.0155846
843.224	0.0156264
843.302	0.0157637
843.380	0.0156580
843.458	0.0156808
843.536	0.0157919
843.614	0.0157122
843.692	0.0157941
843.771	0.0158514
843.849	0.0156287
843.927	0.0158630
844.005	0.0158095
844.083	0.0158981
844.161	0.0159399
844.239	0.0159077
844.317	0.0159641
844.396	0.0159588
844.474	0.0161439
844.552	0.0160448
844.630	0.0159603
844.708	0.0159011
844.786	0.0159411
844.864	0.0161299
844.942	0.0161194
845.021	0.0162150
845.099	0.0160986
845.177	0.0162653
845.255	0.0163252
845.333	0.0163219
845.411	0.0161669
845.489	0.0162945
845.567	0.0163314
845.646	0.0162819
845.724	0.0164594
845.802	0.0163573
845.880	0.0163235
845.958	0.0162035
846.036	0.0161612
846.114	0.0163924
846.192	0.0162646
846.271	0.0163484
846.349	0.0162760
846.427	0.0163225
846.505	0.0165102
846.583	0.0163023
846.661	0.0163530
846.739	0.0162291
846.817	0.0163106
846.896	0.0164506
846.974	0.0164179
847.052	0.0164617
847.130	0.0162962
847.208	0.0162567
847.286	0.0162051
847.364	0.0161732
847.442	0.0163387
847.521	0.0163512
847.599	0.0162852
847.677	0.0162717
847.755	0.0161764
847.833	0.0161741
847.911	0.0162429
847.989	0.0161002
848.067	0.0161597
848.146	0.0161000
848.224	0.0160481
848.302	0.0161271
848.380	0.0161785
848.458	0.0160725
848.536	0.0159610
848.614	0.0160197
848.692	0.0160466
848.771	0.0160449
848.849	0.0159290
848.927	0.0159895
849.005	0.0158508
849.083	0.0160716
849.161	0.0160378
849.239	0.0160126
849.317	0.0160190
849.396	0.0160794
849.474	0.0161478
849.552	0.0161221
849.630	0.0161252
849.708	0.0161375
849.786	0.0161646
849.864	0.0161810
849.942	0.0162282
850.021	0.0161980
850.099	0.0162147
850.177	0.0162415
850.255	0.0162637
850.333	0.0162188
850.411	0.0164112
850.489	0.0162125
850.567	0.0163380
850.646	0.0164783
850.724	0.0164342
850.802	0.0164380
850.880	0.0163921
850.958	0.0164307
851.036	0.0164818
851.114	0.0163775
851.192	0.0165145
851.271	0.0165846
851.349	0.0166454
851.427	0.0165298
851.505	0.0167128
851.583	0.0167216
851.661	0.0166597
851.739	0.0166832
851.817	0.0166875
851.896	0.0166251
851.974	0.0166853
852.052	0.0166685
852.130	0.0167255
852.208	0.0166841
852.286	0.0166272
852.364	0.0166893
852.442	0.0167006
852.521	0.0166345
852.599	0.0166246
852.677	0.0167379
852.755	0.0167014
852.833	0.0167177
852.911	0.0166161
852.989	0.0165464
853.067	0.0165976
853.146	0.0166614
853.224	0.0166602
853.302	0.0164742
853.380	0.0164377
853.458	0.0164591
853.536	0.0164095
853.614	0.0164774
853.692	0.0165488
853.771	0.0164496
853.849	0.0162059
853.927	0.0164256
854.005	0.0163639
854.083	0.0162235
854.161	0.0162653
854.239	0.0162358
854.317	0.0162182
854.396	0.0163152
854.474	0.0161234
854.552	0.0161266
854.630	0.0162393
854.708	0.0162865
854.786	0.0162267
854.864	0.0162746
854.942	0.0162395
855.021	0.0162234
855.099	0.0164548
855.177	0.0163541
855.255	0.0163887
855.333	0.0165117
855.411	0.0164884
855.489	0.0164571
855.567	0.0165296
855.646	0.0166143
855.724	0.0163987
855.802	0.0164139
855.880	0.0165347
855.958	0.0164813
856.036	0.0165009
856.114	0.0164429
856.192	0.0165044
856.271	0.0164059
856.349	0.0165343
856.427	0.0165335
856.505	0.0163776
856.583	0.0165011
856.661	0.0164854
856.739	0.0164415
856.817	0.0164366
856.896	0.0163075
856.974	0.0163806
857.052	0.0165190
857.130	0.0164135
857.208	0.0162578
857.286	0.0164617
857.364	0.0164376
857.442	0.0163400
857.521	0.0162930
857.599	0.0164850
857.677	0.0164269
857.755	0.0164386
857.833	0.0165033
857.911	0.0165179
857.989	0.0164412
858.067	0.0165305
858.146	0.0165008
858.224	0.0164642
858.302	0.0163674
858.380	0.0166573
858.458	0.0165487
858.536	0.0165491
858.614	0.0165990
858.692	0.0165686
858.771	0.0166187
858.849	0.0166172
858.927	0.0167191
859.005	0.0165811
859.083	0.0167558
859.161	0.0168118
859.239	0.0166895
859.317	0.0167465
859.396	0.0167578
859.474	0.0167030
859.552	0.0167191
859.630	0.0168682
859.708	0.0169252
859.786	0.0169090
859.864	0.0168761
859.942	0.0167747
860.021	0.0169309
860.099	0.0168444
860.177	0.0167561
860.255	0.0166977
860.333	0.0165486
860.411	0.0167182
860.489	0.0166667
860.567	0.0165487
860.646	0.0166911
860.724	0.0165717
860.802	0.0165752
860.880	0.0165544
860.958	0.0165024
861.036	0.0164568
861.114	0.0165157
861.192	0.0165340
861.271	0.0164419
861.349	0.0164124
861.427	0.0164455
861.505	0.0162978
861.583	0.0163554
861.661	0.0163800
861.739	0.0163236
861.817	0.0164519
861.896	0.0162623
861.974	0.0163341
862.052	0.0164063
862.130	0.0161945
862.208	0.0163766
862.286	0.0162399
862.364	0.0163296
862.442	0.0163077
862.521	0.0163066
862.599	0.0164263
862.677	0.0164047
862.755	0.0162419
862.833	0.0162994
862.911	0.0163970
862.989	0.0162122
863.067	0.0162193
863.146	0.0162508
863.224	0.0160938
863.302	0.0163057
863.380	0.0163068
863.458	0.0161727
863.536	0.0160561
863.614	0.0159512
863.692	0.0160747
863.771	0.0160289
863.849	0.0160033
863.927	0.0159522
864.005	0.0159174
864.083	0.0159915
864.161	0.0158451
864.239	0.0158440
864.317	0.0157625
864.396	0.0158411
864.474	0.0158045
864.552	0.0157402
864.630	0.0157182
864.708	0.0157207
864.786	0.0157735
864.864	0.0156921
864.942	0.0157109
865.021	0.0156509
865.099	0.0157394
865.177	0.0157838
865.255	0.0157143
865.333	0.0157573
865.411	0.0157534
865.489	0.0157722
865.567	0.0157513
865.646	0.0158992
865.724	0.0159690
865.802	0.0159377
865.880	0.0160210
865.958	0.0160609
866.036	0.0160799
866.114	0.0161810
866.192	0.0161298
866.271	0.0162748
866.349	0.0164019
866.427	0.0164443
866.505	0.0163514
866.583	0.0164545
866.661	0.0165713
866.739	0.0166291
866.817	0.0166502
866.896	0.0167608
866.974	0.0168310
867.052	0.0166908
867.130	0.0169116
867.208	0.0169952
867.286	0.0168864
867.364	0.0169878
867.442	0.0170650
867.521	0.0168452
867.599	0.0170231
867.677	0.0170462
867.755	0.0170042
867.833	0.0169395
867.911	0.0170150
867.989	0.0169454
868.067	0.0169068
868.146	0.0168981
868.224	0.0168285
868.302	0.0166732
868.380	0.0166743
868.458	0.0168100
868.536	0.0166876
868.614	0.0166329
868.692	0.0165837
868.771	0.0166218
868.849	0.0165220
868.927	0.0163685
869.005	0.0163673
869.083	0.0163231
869.161	0.0163319
869.239	0.0162699
869.317	0.0162563
869.396	0.0163445
869.474	0.0161168
869.552	0.0161265
869.630	0.0161509
869.708	0.0162315
869.786	0.0160943
869.864	0.0161432
869.942	0.0161359
