06/03/2022	14:55:10	Ver.	4.1	UNKNOWN
Optical Delay	550.020508	Delta X		0.078125	Sweeps	1	Scan Rate	0/0
Coordinates	Axis 1	NaN	Axis 2	NaN	Axis 3	NaN	Axis 4	NaN	Axis 5	NaN	Axis 6	0.000000
TX Power	0.000000	RX Power	0.000000

550.021	0.0160772
550.099	0.0162890
550.177	0.0164254
550.255	0.0165878
550.333	0.0167192
550.411	0.0168192
550.489	0.0168937
550.567	0.0170042
550.646	0.0172076
550.724	0.0171653
550.802	0.0172588
550.880	0.0173100
550.958	0.0171230
551.036	0.0168477
551.114	0.0168410
551.192	0.0166795
551.271	0.0165217
551.349	0.0165364
551.427	0.0163099
551.505	0.0161414
551.583	0.0160570
551.661	0.0159660
551.739	0.0158031
551.817	0.0157044
551.896	0.0156733
551.974	0.0155097
552.052	0.0155735
552.130	0.0153764
552.208	0.0155173
552.286	0.0155424
552.364	0.0154455
552.442	0.0154659
552.521	0.0153326
552.599	0.0154687
552.677	0.0154268
552.755	0.0153766
552.833	0.0152267
552.911	0.0152708
552.989	0.0151072
553.067	0.0151129
553.146	0.0150401
553.224	0.0149952
553.302	0.0149207
553.380	0.0149238
553.458	0.0148608
553.536	0.0149110
553.614	0.0147708
553.692	0.0146468
553.771	0.0147578
553.849	0.0146983
553.927	0.0145398
554.005	0.0147192
554.083	0.0148001
554.161	0.0149364
554.239	0.0149121
554.317	0.0151844
554.396	0.0152696
554.474	0.0155665
554.552	0.0157776
554.630	0.0161049
554.708	0.0163658
554.786	0.0167348
554.864	0.0169426
554.942	0.0172664
555.021	0.0173858
555.099	0.0177283
555.177	0.0179613
555.255	0.0180695
555.333	0.0181642
555.411	0.0182014
555.489	0.0182614
555.567	0.0181675
555.646	0.0181464
555.724	0.0181145
555.802	0.0179982
555.880	0.0177245
555.958	0.0175973
556.036	0.0173759
556.114	0.0171004
556.192	0.0169701
556.271	0.0167772
556.349	0.0165089
556.427	0.0165059
556.505	0.0162991
556.583	0.0161466
556.661	0.0162783
556.739	0.0160545
556.817	0.0160352
556.896	0.0159911
556.974	0.0159907
557.052	0.0161622
557.130	0.0160119
557.208	0.0159364
557.286	0.0159634
557.364	0.0159631
557.442	0.0157939
557.521	0.0161367
557.599	0.0160629
557.677	0.0159154
557.755	0.0158299
557.833	0.0159388
557.911	0.0157905
557.989	0.0157135
558.067	0.0157487
558.146	0.0156544
558.224	0.0156879
558.302	0.0156654
558.380	0.0156487
558.458	0.0158569
558.536	0.0156922
558.614	0.0157129
558.692	0.0160271
558.771	0.0160576
558.849	0.0161443
558.927	0.0163589
559.005	0.0164924
559.083	0.0164454
559.161	0.0167135
559.239	0.0168324
559.317	0.0171016
559.396	0.0173650
559.474	0.0175916
559.552	0.0178913
559.630	0.0179034
559.708	0.0183162
559.786	0.0183575
559.864	0.0184840
559.942	0.0188845
560.021	0.0190666
560.099	0.0192004
560.177	0.0194724
560.255	0.0193957
560.333	0.0196095
560.411	0.0198672
560.489	0.0199567
560.567	0.0200410
560.646	0.0201391
560.724	0.0201694
560.802	0.0201121
560.880	0.0201456
560.958	0.0201531
561.036	0.0200959
561.114	0.0201184
561.192	0.0199191
561.271	0.0197142
561.349	0.0195311
561.427	0.0195141
561.505	0.0192682
561.583	0.0190468
561.661	0.0189713
561.739	0.0188776
561.817	0.0184885
561.896	0.0183128
561.974	0.0181473
562.052	0.0179276
562.130	0.0176065
562.208	0.0174481
562.286	0.0173608
562.364	0.0172479
562.442	0.0169969
562.521	0.0167574
562.599	0.0168287
562.677	0.0166303
562.755	0.0166843
562.833	0.0164068
562.911	0.0163890
562.989	0.0162720
563.067	0.0163979
563.146	0.0164235
563.224	0.0162498
563.302	0.0161821
563.380	0.0162121
563.458	0.0162325
563.536	0.0163292
563.614	0.0161639
563.692	0.0162763
563.771	0.0161081
563.849	0.0162528
563.927	0.0162570
564.005	0.0161892
564.083	0.0161756
564.161	0.0161828
564.239	0.0163235
564.317	0.0163641
564.396	0.0164142
564.474	0.0163132
564.552	0.0163659
564.630	0.0164668
564.708	0.0166150
564.786	0.0166401
564.864	0.0166153
564.942	0.0166444
565.021	0.0168524
565.099	0.0170642
565.177	0.0171135
565.255	0.0169788
565.333	0.0170313
565.411	0.0170220
565.489	0.0169729
565.567	0.0171532
565.646	0.0171341
565.724	0.0169427
565.802	0.0168167
565.880	0.0170013
565.958	0.0170796
566.036	0.0165775
566.114	0.0165359
566.192	0.0163802
566.271	0.0161694
566.349	0.0161398
566.427	0.0160938
566.505	0.0157456
566.583	0.0157716
566.661	0.0156290
566.739	0.0154571
566.817	0.0152451
566.896	0.0151217
566.974	0.0150774
567.052	0.0150944
567.130	0.0149528
567.208	0.0149341
567.286	0.0148972
567.364	0.0148244
567.442	0.0147039
567.521	0.0146690
567.599	0.0146295
567.677	0.0146425
567.755	0.0146753
567.833	0.0146436
567.911	0.0146322
567.989	0.0145508
568.067	0.0144798
568.146	0.0145689
568.224	0.0145358
568.302	0.0147074
568.380	0.0146239
568.458	0.0146033
568.536	0.0148186
568.614	0.0146356
568.692	0.0148628
568.771	0.0147952
568.849	0.0149924
568.927	0.0149934
569.005	0.0151656
569.083	0.0153001
569.161	0.0152528
569.239	0.0152906
569.317	0.0154620
569.396	0.0157639
569.474	0.0156999
569.552	0.0157655
569.630	0.0158865
569.708	0.0160567
569.786	0.0160996
569.864	0.0161847
569.942	0.0162989
570.021	0.0161905
570.099	0.0161707
570.177	0.0162886
570.255	0.0163972
570.333	0.0163532
570.411	0.0164397
570.489	0.0163636
570.567	0.0162769
570.646	0.0163535
570.724	0.0164845
570.802	0.0163528
570.880	0.0163373
570.958	0.0163692
571.036	0.0162462
571.114	0.0162787
571.192	0.0162444
571.271	0.0163054
571.349	0.0163479
571.427	0.0162601
571.505	0.0164272
571.583	0.0165639
571.661	0.0163642
571.739	0.0165446
571.817	0.0166171
571.896	0.0167185
571.974	0.0167422
572.052	0.0166452
572.130	0.0169090
572.208	0.0169471
572.286	0.0171058
572.364	0.0172059
572.442	0.0172803
572.521	0.0171766
572.599	0.0173834
572.677	0.0173798
572.755	0.0173704
572.833	0.0175031
572.911	0.0175461
572.989	0.0177042
573.067	0.0177022
573.146	0.0176174
573.224	0.0177159
573.302	0.0177379
573.380	0.0178316
573.458	0.0178312
573.536	0.0176719
573.614	0.0177304
573.692	0.0175819
573.771	0.0176637
573.849	0.0176901
573.927	0.0174402
574.005	0.0173662
574.083	0.0174090
574.161	0.0171800
574.239	0.0171848
574.317	0.0171275
574.396	0.0168076
574.474	0.0167890
574.552	0.0167908
574.630	0.0166981
574.708	0.0164734
574.786	0.0164875
574.864	0.0164912
574.942	0.0164598
575.021	0.0164022
575.099	0.0162708
575.177	0.0163838
575.255	0.0163361
575.333	0.0161451
575.411	0.0161158
575.489	0.0161612
575.567	0.0161939
575.646	0.0162080
575.724	0.0162461
575.802	0.0160300
575.880	0.0160792
575.958	0.0162007
576.036	0.0160782
576.114	0.0161871
576.192	0.0162960
576.271	0.0160598
576.349	0.0162803
576.427	0.0162034
576.505	0.0163498
576.583	0.0162660
576.661	0.0163864
576.739	0.0163467
576.817	0.0162948
576.896	0.0162778
576.974	0.0163038
577.052	0.0163234
577.130	0.0163773
577.208	0.0163383
577.286	0.0163001
577.364	0.0162535
577.442	0.0163434
577.521	0.0161260
577.599	0.0159036
577.677	0.0159429
577.755	0.0161263
577.833	0.0159469
577.911	0.0159594
577.989	0.0160372
578.067	0.0157735
578.146	0.0159479
578.224	0.0158485
578.302	0.0159243
578.380	0.0157700
578.458	0.0159033
578.536	0.0159992
578.614	0.0159174
578.692	0.0158022
578.771	0.0159479
578.849	0.0160470
578.927	0.0160035
579.005	0.0160696
579.083	0.0161340
579.161	0.0161413
579.239	0.0161190
579.317	0.0160378
579.396	0.0161570
579.474	0.0161845
579.552	0.0160642
579.630	0.0161647
579.708	0.0160941
579.786	0.0160983
579.864	0.0159406
579.942	0.0158087
580.021	0.0160689
580.099	0.0161264
580.177	0.0160839
580.255	0.0161948
580.333	0.0162107
580.411	0.0163047
580.489	0.0161963
580.567	0.0163148
580.646	0.0164552
580.724	0.0164159
580.802	0.0164557
580.880	0.0164751
580.958	0.0165183
581.036	0.0164617
581.114	0.0166168
581.192	0.0165865
581.271	0.0165083
581.349	0.0164619
581.427	0.0165426
581.505	0.0167242
581.583	0.0166096
581.661	0.0165049
581.739	0.0165376
581.817	0.0165612
581.896	0.0166349
581.974	0.0166740
582.052	0.0166508
582.130	0.0169151
582.208	0.0168726
582.286	0.0168967
582.364	0.0169134
582.442	0.0169865
582.521	0.0169221
582.599	0.0170480
582.677	0.0171772
582.755	0.0172202
582.833	0.0174551
582.911	0.0172899
582.989	0.0175115
583.067	0.0176199
583.146	0.0176997
583.224	0.0178323
583.302	0.0178329
583.380	0.0179233
583.458	0.0179200
583.536	0.0180001
583.614	0.0179236
583.692	0.0178014
583.771	0.0180575
583.849	0.0179633
583.927	0.0178954
584.005	0.0178913
584.083	0.0177650
584.161	0.0178295
584.239	0.0176927
584.317	0.0176638
584.396	0.0177238
584.474	0.0175832
584.552	0.0175555
584.630	0.0174869
584.708	0.0173295
584.786	0.0172962
584.864	0.0173409
584.942	0.0172320
585.021	0.0174796
585.099	0.0173277
585.177	0.0172827
585.255	0.0172385
585.333	0.0172569
585.411	0.0172019
585.489	0.0172632
585.567	0.0173627
585.646	0.0172789
585.724	0.0172617
585.802	0.0173502
585.880	0.0172921
585.958	0.0174684
586.036	0.0173804
586.114	0.0173466
586.192	0.0173981
586.271	0.0173483
586.349	0.0173808
586.427	0.0172643
586.505	0.0173934
586.583	0.0173080
586.661	0.0172878
586.739	0.0172088
586.817	0.0173512
586.896	0.0171020
586.974	0.0172671
587.052	0.0171909
587.130	0.0170831
587.208	0.0170818
587.286	0.0171219
587.364	0.0171263
587.442	0.0171297
587.521	0.0170175
587.599	0.0169508
587.677	0.0169534
587.755	0.0168575
587.833	0.0167805
587.911	0.0167795
587.989	0.0166711
588.067	0.0165797
588.146	0.0165749
588.224	0.0165284
588.302	0.0163610
588.380	0.0163717
588.458	0.0162662
588.536	0.0160860
588.614	0.0162434
588.692	0.0161841
588.771	0.0161217
588.849	0.0161703
588.927	0.0161800
589.005	0.0161412
589.083	0.0161822
589.161	0.0160340
589.239	0.0163177
589.317	0.0163280
589.396	0.0161703
589.474	0.0160136
589.552	0.0162546
589.630	0.0161186
589.708	0.0161397
589.786	0.0162572
589.864	0.0161332
589.942	0.0161643
590.021	0.0161715
590.099	0.0162008
590.177	0.0160904
590.255	0.0161292
590.333	0.0161756
590.411	0.0160612
590.489	0.0161006
590.567	0.0161947
590.646	0.0162086
590.724	0.0161624
590.802	0.0161070
590.880	0.0161993
590.958	0.0162280
591.036	0.0160404
591.114	0.0162141
591.192	0.0162991
591.271	0.0162365
591.349	0.0162003
591.427	0.0162756
591.505	0.0162827
591.583	0.0162711
591.661	0.0163198
591.739	0.0162212
591.817	0.0163330
591.896	0.0163253
591.974	0.0164492
592.052	0.0164524
592.130	0.0164822
592.208	0.0167306
592.286	0.0166679
592.364	0.0165558
592.442	0.0166490
592.521	0.0167687
592.599	0.0167316
592.677	0.0169189
592.755	0.0169051
592.833	0.0167140
592.911	0.0168262
592.989	0.0166690
593.067	0.0166975
593.146	0.0166087
593.224	0.0164153
593.302	0.0163752
593.380	0.0164415
593.458	0.0164470
593.536	0.0161594
593.614	0.0161993
593.692	0.0161649
593.771	0.0161658
593.849	0.0160027
593.927	0.0160764
594.005	0.0161082
594.083	0.0160525
594.161	0.0161433
594.239	0.0160934
594.317	0.0163227
594.396	0.0161555
594.474	0.0162425
594.552	0.0163969
594.630	0.0164201
594.708	0.0166966
594.786	0.0166953
594.864	0.0167299
594.942	0.0167776
595.021	0.0168684
595.099	0.0169599
595.177	0.0169263
595.255	0.0170914
595.333	0.0171396
595.411	0.0172557
595.489	0.0171654
595.567	0.0172159
595.646	0.0173215
595.724	0.0173260
595.802	0.0174016
595.880	0.0173553
595.958	0.0173297
596.036	0.0171716
596.114	0.0173102
596.192	0.0172889
596.271	0.0173640
596.349	0.0173496
596.427	0.0173419
596.505	0.0171545
596.583	0.0171826
596.661	0.0170393
596.739	0.0170061
596.817	0.0171450
596.896	0.0170878
596.974	0.0168931
597.052	0.0167769
597.130	0.0169221
597.208	0.0167982
597.286	0.0167419
597.364	0.0167281
597.442	0.0166996
597.521	0.0165891
597.599	0.0164899
597.677	0.0165096
597.755	0.0165192
597.833	0.0165478
597.911	0.0164558
597.989	0.0164687
598.067	0.0164610
598.146	0.0165797
598.224	0.0163702
598.302	0.0164551
598.380	0.0164043
598.458	0.0165192
598.536	0.0165771
598.614	0.0163648
598.692	0.0162523
598.771	0.0164713
598.849	0.0163914
598.927	0.0165012
599.005	0.0165486
599.083	0.0165859
599.161	0.0167487
599.239	0.0166435
599.317	0.0166621
599.396	0.0167392
599.474	0.0167142
599.552	0.0167477
599.630	0.0168657
599.708	0.0170054
599.786	0.0167516
599.864	0.0169106
599.942	0.0170225
600.021	0.0170789
600.099	0.0172112
600.177	0.0172255
600.255	0.0171613
600.333	0.0172118
600.411	0.0171497
600.489	0.0170793
600.567	0.0173302
600.646	0.0171257
600.724	0.0170938
600.802	0.0170287
600.880	0.0170986
600.958	0.0170371
601.036	0.0170850
601.114	0.0169463
601.192	0.0167836
601.271	0.0168240
601.349	0.0168428
601.427	0.0166340
601.505	0.0167126
601.583	0.0166062
601.661	0.0164850
601.739	0.0164180
601.817	0.0164330
601.896	0.0164272
601.974	0.0163035
602.052	0.0161765
602.130	0.0161377
602.208	0.0162627
602.286	0.0161356
602.364	0.0162357
602.442	0.0162022
602.521	0.0162341
602.599	0.0162859
602.677	0.0162984
602.755	0.0163656
602.833	0.0162561
602.911	0.0162833
602.989	0.0164729
603.067	0.0164029
603.146	0.0163171
603.224	0.0164453
603.302	0.0164513
603.380	0.0165019
603.458	0.0166443
603.536	0.0166345
603.614	0.0164607
603.692	0.0165673
603.771	0.0167707
603.849	0.0165788
603.927	0.0167511
604.005	0.0166488
604.083	0.0165148
604.161	0.0165591
604.239	0.0165242
604.317	0.0166042
604.396	0.0164769
604.474	0.0163254
604.552	0.0163629
604.630	0.0163473
604.708	0.0164013
604.786	0.0163934
604.864	0.0163380
604.942	0.0162444
605.021	0.0161503
605.099	0.0161330
605.177	0.0160986
605.255	0.0161966
605.333	0.0162255
605.411	0.0160587
605.489	0.0161039
605.567	0.0160530
605.646	0.0162479
605.724	0.0160472
605.802	0.0159583
605.880	0.0161094
605.958	0.0161291
606.036	0.0160328
606.114	0.0159367
606.192	0.0158839
606.271	0.0160120
606.349	0.0160435
606.427	0.0161414
606.505	0.0161079
606.583	0.0159872
606.661	0.0160330
606.739	0.0159872
606.817	0.0159673
606.896	0.0160589
606.974	0.0160930
607.052	0.0161037
607.130	0.0161544
607.208	0.0161131
607.286	0.0160410
607.364	0.0161750
607.442	0.0162433
607.521	0.0162664
607.599	0.0163196
607.677	0.0162395
607.755	0.0161523
607.833	0.0163966
607.911	0.0163271
607.989	0.0165451
608.067	0.0164707
608.146	0.0164680
608.224	0.0166058
608.302	0.0165903
608.380	0.0166587
608.458	0.0168472
608.536	0.0167506
608.614	0.0169371
608.692	0.0169685
608.771	0.0168280
608.849	0.0168820
608.927	0.0169027
609.005	0.0168925
609.083	0.0168739
609.161	0.0169404
609.239	0.0168858
609.317	0.0169272
609.396	0.0169025
609.474	0.0167744
609.552	0.0168421
609.630	0.0168429
609.708	0.0168102
609.786	0.0165845
609.864	0.0167999
609.942	0.0168768
610.021	0.0167302
610.099	0.0166283
610.177	0.0166693
610.255	0.0167242
610.333	0.0166624
610.411	0.0165786
610.489	0.0165734
610.567	0.0164376
610.646	0.0166112
610.724	0.0166458
610.802	0.0163914
610.880	0.0165784
610.958	0.0165936
611.036	0.0166132
611.114	0.0165958
611.192	0.0165200
611.271	0.0165100
611.349	0.0164928
611.427	0.0166677
611.505	0.0166531
611.583	0.0167373
611.661	0.0167336
611.739	0.0167033
611.817	0.0167173
611.896	0.0167439
611.974	0.0167728
612.052	0.0166117
612.130	0.0166240
612.208	0.0167580
612.286	0.0169177
612.364	0.0169646
612.442	0.0167196
612.521	0.0168202
612.599	0.0168425
612.677	0.0168775
612.755	0.0169022
612.833	0.0169608
612.911	0.0168971
612.989	0.0170222
613.067	0.0170413
613.146	0.0170076
613.224	0.0169160
613.302	0.0170811
613.380	0.0170806
613.458	0.0169978
613.536	0.0169492
613.614	0.0170748
613.692	0.0170102
613.771	0.0170444
613.849	0.0170774
613.927	0.0169273
614.005	0.0169121
614.083	0.0170428
614.161	0.0169522
614.239	0.0169955
614.317	0.0170111
614.396	0.0171347
614.474	0.0170526
614.552	0.0169760
614.630	0.0168620
614.708	0.0170140
614.786	0.0169492
614.864	0.0170377
614.942	0.0169172
615.021	0.0170152
615.099	0.0168298
615.177	0.0169105
615.255	0.0168963
615.333	0.0168177
615.411	0.0168555
615.489	0.0169489
615.567	0.0169309
615.646	0.0170465
615.724	0.0169864
615.802	0.0169437
615.880	0.0169047
615.958	0.0170158
616.036	0.0168694
616.114	0.0170030
616.192	0.0170105
616.271	0.0168970
616.349	0.0168684
616.427	0.0169190
616.505	0.0168298
616.583	0.0169723
616.661	0.0170463
616.739	0.0169331
616.817	0.0169180
616.896	0.0170153
616.974	0.0169583
617.052	0.0169704
617.130	0.0169689
617.208	0.0169724
617.286	0.0169640
617.364	0.0169858
617.442	0.0167729
617.521	0.0168910
617.599	0.0170332
617.677	0.0169727
617.755	0.0169833
617.833	0.0168816
617.911	0.0168517
617.989	0.0169443
618.067	0.0168960
618.146	0.0168307
618.224	0.0166237
618.302	0.0166718
618.380	0.0165910
618.458	0.0166692
618.536	0.0165506
618.614	0.0164433
618.692	0.0165145
618.771	0.0166025
618.849	0.0164503
618.927	0.0164355
619.005	0.0163168
619.083	0.0162238
619.161	0.0163392
619.239	0.0163396
619.317	0.0162358
619.396	0.0164565
619.474	0.0164263
619.552	0.0164543
619.630	0.0165757
619.708	0.0165614
619.786	0.0165936
619.864	0.0167860
619.942	0.0167262
620.021	0.0166134
620.099	0.0164714
620.177	0.0166724
620.255	0.0168320
620.333	0.0167221
620.411	0.0167089
620.489	0.0167798
620.567	0.0167315
620.646	0.0166189
620.724	0.0167400
620.802	0.0166718
620.880	0.0165139
620.958	0.0166236
621.036	0.0166994
621.114	0.0167965
621.192	0.0166258
621.271	0.0166031
621.349	0.0165734
621.427	0.0167419
621.505	0.0167149
621.583	0.0167529
621.661	0.0168073
621.739	0.0167192
621.817	0.0167363
621.896	0.0167646
621.974	0.0168178
622.052	0.0169062
622.130	0.0169155
622.208	0.0168962
622.286	0.0168332
622.364	0.0168236
622.442	0.0168191
622.521	0.0168239
622.599	0.0169276
622.677	0.0169332
622.755	0.0169783
622.833	0.0168751
622.911	0.0169398
622.989	0.0169383
623.067	0.0168681
623.146	0.0168751
623.224	0.0169437
623.302	0.0168729
623.380	0.0168080
623.458	0.0169370
623.536	0.0168365
623.614	0.0167401
623.692	0.0166655
623.771	0.0167678
623.849	0.0166260
623.927	0.0166115
624.005	0.0166591
624.083	0.0165221
624.161	0.0164869
624.239	0.0164914
624.317	0.0163872
624.396	0.0163873
624.474	0.0164280
624.552	0.0163454
624.630	0.0162054
624.708	0.0161741
624.786	0.0160847
624.864	0.0160052
624.942	0.0159957
625.021	0.0158420
625.099	0.0157735
625.177	0.0156016
625.255	0.0155417
625.333	0.0154018
625.411	0.0154661
625.489	0.0153049
625.567	0.0150751
625.646	0.0151001
625.724	0.0149718
625.802	0.0150682
625.880	0.0151395
625.958	0.0150226
626.036	0.0150303
626.114	0.0151177
626.192	0.0149728
626.271	0.0151498
626.349	0.0152692
626.427	0.0153857
626.505	0.0155015
626.583	0.0158375
626.661	0.0158105
626.739	0.0160336
626.817	0.0161602
626.896	0.0163081
626.974	0.0164618
627.052	0.0167389
627.130	0.0166608
627.208	0.0169828
627.286	0.0170522
627.364	0.0170985
627.442	0.0171612
627.521	0.0172231
627.599	0.0172966
627.677	0.0174058
627.755	0.0173245
627.833	0.0172861
627.911	0.0174525
627.989	0.0173811
628.067	0.0172558
628.146	0.0172777
628.224	0.0171320
628.302	0.0171711
628.380	0.0169832
628.458	0.0168815
628.536	0.0168661
628.614	0.0166720
628.692	0.0167295
628.771	0.0165353
628.849	0.0163961
628.927	0.0165054
629.005	0.0164060
629.083	0.0164238
629.161	0.0163845
629.239	0.0162601
629.317	0.0162374
629.396	0.0164178
629.474	0.0163556
629.552	0.0162711
629.630	0.0162971
629.708	0.0163660
629.786	0.0162961
629.864	0.0162160
629.942	0.0162447
630.021	0.0163676
630.099	0.0162841
630.177	0.0163501
630.255	0.0161955
630.333	0.0161267
630.411	0.0161506
630.489	0.0162314
630.567	0.0163650
630.646	0.0162706
630.724	0.0162430
630.802	0.0163056
630.880	0.0164516
630.958	0.0163042
631.036	0.0165147
631.114	0.0165214
631.192	0.0167194
631.271	0.0167538
631.349	0.0168717
631.427	0.0168330
631.505	0.0169303
631.583	0.0170961
631.661	0.0170966
631.739	0.0172082
631.817	0.0172087
631.896	0.0172729
631.974	0.0174945
632.052	0.0173991
632.130	0.0173092
632.208	0.0173377
632.286	0.0174582
632.364	0.0173622
632.442	0.0173026
632.521	0.0172732
632.599	0.0171136
632.677	0.0171595
632.755	0.0171445
632.833	0.0169221
632.911	0.0169902
632.989	0.0169245
633.067	0.0168509
633.146	0.0167776
633.224	0.0168156
633.302	0.0167241
633.380	0.0167116
633.458	0.0167963
633.536	0.0166413
633.614	0.0165047
633.692	0.0165823
633.771	0.0166916
633.849	0.0164051
633.927	0.0165406
634.005	0.0165762
634.083	0.0164650
634.161	0.0165766
634.239	0.0166224
634.317	0.0166134
634.396	0.0165633
634.474	0.0167133
634.552	0.0167290
634.630	0.0164955
634.708	0.0165659
634.786	0.0166842
634.864	0.0166684
634.942	0.0166634
635.021	0.0166621
635.099	0.0166441
635.177	0.0167123
635.255	0.0167362
635.333	0.0165955
635.411	0.0166036
635.489	0.0167023
635.567	0.0168002
635.646	0.0166140
635.724	0.0165462
635.802	0.0165792
635.880	0.0164867
635.958	0.0164728
636.036	0.0165671
636.114	0.0163713
636.192	0.0163986
636.271	0.0164286
636.349	0.0163128
636.427	0.0164037
636.505	0.0163014
636.583	0.0161727
636.661	0.0161796
636.739	0.0163360
636.817	0.0161482
636.896	0.0162228
636.974	0.0163454
637.052	0.0163709
637.130	0.0163740
637.208	0.0165639
637.286	0.0166170
637.364	0.0165430
637.442	0.0166313
637.521	0.0166980
637.599	0.0167187
637.677	0.0168391
637.755	0.0167159
637.833	0.0169112
637.911	0.0169662
637.989	0.0170208
638.067	0.0172852
638.146	0.0174219
638.224	0.0173992
638.302	0.0175540
638.380	0.0175108
638.458	0.0176454
638.536	0.0176167
638.614	0.0177696
638.692	0.0178480
638.771	0.0178671
638.849	0.0179037
638.927	0.0178063
639.005	0.0179048
639.083	0.0178453
639.161	0.0179885
639.239	0.0178846
639.317	0.0177422
639.396	0.0176476
639.474	0.0175954
639.552	0.0175344
639.630	0.0175224
639.708	0.0174972
639.786	0.0174124
639.864	0.0173820
639.942	0.0172430
640.021	0.0171026
640.099	0.0169244
640.177	0.0168985
640.255	0.0167807
640.333	0.0167760
640.411	0.0166257
640.489	0.0165704
640.567	0.0163890
640.646	0.0165082
640.724	0.0164346
640.802	0.0161425
640.880	0.0160432
640.958	0.0161243
641.036	0.0159595
641.114	0.0160485
641.192	0.0159499
641.271	0.0160520
641.349	0.0160648
641.427	0.0158527
641.505	0.0157813
641.583	0.0159282
641.661	0.0157993
641.739	0.0159372
641.817	0.0158225
641.896	0.0158579
641.974	0.0161272
642.052	0.0160129
642.130	0.0161029
642.208	0.0160938
642.286	0.0161500
642.364	0.0160830
642.442	0.0161514
642.521	0.0162099
642.599	0.0160406
642.677	0.0159809
642.755	0.0160419
642.833	0.0160913
642.911	0.0160877
642.989	0.0161273
643.067	0.0160038
643.146	0.0159872
643.224	0.0161250
643.302	0.0161327
643.380	0.0161695
643.458	0.0160091
643.536	0.0158638
643.614	0.0159761
643.692	0.0161753
643.771	0.0160935
643.849	0.0159496
643.927	0.0159473
644.005	0.0159832
644.083	0.0159949
644.161	0.0159688
644.239	0.0160367
644.317	0.0160276
644.396	0.0160387
644.474	0.0160390
644.552	0.0160288
644.630	0.0160433
644.708	0.0160839
644.786	0.0160464
644.864	0.0160825
644.942	0.0159687
645.021	0.0160043
645.099	0.0160686
645.177	0.0161889
645.255	0.0159892
645.333	0.0161182
645.411	0.0162331
645.489	0.0160959
645.567	0.0162482
645.646	0.0161358
645.724	0.0163631
645.802	0.0163600
645.880	0.0163303
645.958	0.0162804
646.036	0.0163454
646.114	0.0164671
646.192	0.0164114
646.271	0.0163700
646.349	0.0165049
646.427	0.0166593
646.505	0.0165337
646.583	0.0165251
646.661	0.0165645
646.739	0.0167280
646.817	0.0167709
646.896	0.0168666
646.974	0.0167509
647.052	0.0167979
647.130	0.0168272
647.208	0.0167919
647.286	0.0168461
647.364	0.0167833
647.442	0.0167809
647.521	0.0165886
647.599	0.0167291
647.677	0.0165599
647.755	0.0163579
647.833	0.0164261
647.911	0.0163046
647.989	0.0162392
648.067	0.0161788
648.146	0.0160781
648.224	0.0163100
648.302	0.0161543
648.380	0.0161259
648.458	0.0162069
648.536	0.0161237
648.614	0.0161928
648.692	0.0161388
648.771	0.0161237
648.849	0.0163027
648.927	0.0164870
649.005	0.0162861
649.083	0.0164014
649.161	0.0166678
649.239	0.0166964
649.317	0.0166567
649.396	0.0167271
649.474	0.0166534
649.552	0.0167022
649.630	0.0167059
649.708	0.0166562
649.786	0.0165041
649.864	0.0166142
649.942	0.0166127
650.021	0.0163912
650.099	0.0165059
650.177	0.0164577
650.255	0.0163618
650.333	0.0162248
650.411	0.0162273
650.489	0.0162152
650.567	0.0162112
650.646	0.0161868
650.724	0.0159992
650.802	0.0159294
650.880	0.0160062
650.958	0.0159572
651.036	0.0160336
651.114	0.0159398
651.192	0.0161489
651.271	0.0161672
651.349	0.0160530
651.427	0.0161288
651.505	0.0162099
651.583	0.0163226
651.661	0.0162397
651.739	0.0163663
651.817	0.0164404
651.896	0.0164122
651.974	0.0165506
652.052	0.0165649
652.130	0.0166387
652.208	0.0165913
652.286	0.0167563
652.364	0.0167093
652.442	0.0166352
652.521	0.0165903
652.599	0.0166827
652.677	0.0166562
652.755	0.0167506
652.833	0.0166862
652.911	0.0167735
652.989	0.0167827
653.067	0.0167219
653.146	0.0167955
653.224	0.0167462
653.302	0.0167809
653.380	0.0168342
653.458	0.0169167
653.536	0.0168374
653.614	0.0168230
653.692	0.0167355
653.771	0.0167369
653.849	0.0169102
653.927	0.0168941
654.005	0.0169754
654.083	0.0169665
654.161	0.0169409
654.239	0.0169913
654.317	0.0169145
654.396	0.0169971
654.474	0.0168202
654.552	0.0167979
654.630	0.0168552
654.708	0.0167936
654.786	0.0167085
654.864	0.0166898
654.942	0.0166356
655.021	0.0166785
655.099	0.0164803
655.177	0.0165287
655.255	0.0166267
655.333	0.0165553
655.411	0.0166840
655.489	0.0166825
655.567	0.0167543
655.646	0.0168732
655.724	0.0168192
655.802	0.0169059
655.880	0.0170276
655.958	0.0169391
656.036	0.0170029
656.114	0.0170880
656.192	0.0171794
656.271	0.0171128
656.349	0.0171838
656.427	0.0172212
656.505	0.0172537
656.583	0.0174003
656.661	0.0173406
656.739	0.0172533
656.817	0.0173084
656.896	0.0174261
656.974	0.0173847
657.052	0.0174372
657.130	0.0173937
657.208	0.0173087
657.286	0.0175048
657.364	0.0175537
657.442	0.0173711
657.521	0.0173649
657.599	0.0174777
657.677	0.0175023
657.755	0.0175684
657.833	0.0175555
657.911	0.0174200
657.989	0.0174745
658.067	0.0175002
658.146	0.0174139
658.224	0.0174374
658.302	0.0173697
658.380	0.0172377
658.458	0.0172221
658.536	0.0171183
658.614	0.0170554
658.692	0.0170263
658.771	0.0169704
658.849	0.0170197
658.927	0.0168389
659.005	0.0169406
659.083	0.0169547
659.161	0.0170209
659.239	0.0169643
659.317	0.0169635
659.396	0.0170245
659.474	0.0169700
659.552	0.0169156
659.630	0.0166505
659.708	0.0168827
659.786	0.0168759
659.864	0.0167502
659.942	0.0167565
660.021	0.0167866
660.099	0.0167610
660.177	0.0164714
660.255	0.0165305
660.333	0.0164901
660.411	0.0164075
660.489	0.0163737
660.567	0.0162622
660.646	0.0161597
660.724	0.0162018
660.802	0.0160818
660.880	0.0161120
660.958	0.0159067
661.036	0.0160705
661.114	0.0159996
661.192	0.0161157
661.271	0.0162856
661.349	0.0162215
661.427	0.0164851
661.505	0.0165752
661.583	0.0166499
661.661	0.0168087
661.739	0.0169562
661.817	0.0169604
661.896	0.0169090
661.974	0.0171703
662.052	0.0172457
662.130	0.0172633
662.208	0.0172329
662.286	0.0172146
662.364	0.0171667
662.442	0.0171687
662.521	0.0172017
662.599	0.0170335
662.677	0.0169933
662.755	0.0168725
662.833	0.0167496
662.911	0.0168353
662.989	0.0167020
663.067	0.0167602
663.146	0.0166366
663.224	0.0166571
663.302	0.0164650
663.380	0.0163653
663.458	0.0163481
663.536	0.0164724
663.614	0.0164278
663.692	0.0164680
663.771	0.0164848
663.849	0.0164249
663.927	0.0163800
664.005	0.0165040
664.083	0.0164468
664.161	0.0163099
664.239	0.0162531
664.317	0.0163139
664.396	0.0161671
664.474	0.0162020
664.552	0.0161105
664.630	0.0161037
664.708	0.0159969
664.786	0.0159491
664.864	0.0158653
664.942	0.0158228
665.021	0.0157526
665.099	0.0158149
665.177	0.0157155
665.255	0.0156983
665.333	0.0157013
665.411	0.0158481
665.489	0.0157033
665.567	0.0157764
665.646	0.0156580
665.724	0.0157037
665.802	0.0158021
665.880	0.0158101
665.958	0.0157111
666.036	0.0158125
666.114	0.0158342
666.192	0.0158067
666.271	0.0159042
666.349	0.0158595
666.427	0.0157204
666.505	0.0158088
666.583	0.0158480
666.661	0.0158274
666.739	0.0159386
666.817	0.0158610
666.896	0.0158675
666.974	0.0158058
667.052	0.0159155
667.130	0.0159285
667.208	0.0159786
667.286	0.0159331
667.364	0.0160393
667.442	0.0160976
667.521	0.0159827
667.599	0.0162322
667.677	0.0161016
667.755	0.0162434
667.833	0.0163653
667.911	0.0164698
667.989	0.0163234
668.067	0.0163392
668.146	0.0164989
668.224	0.0163568
668.302	0.0163274
668.380	0.0163171
668.458	0.0163818
668.536	0.0163274
668.614	0.0162422
668.692	0.0163203
668.771	0.0162314
668.849	0.0162164
668.927	0.0163956
669.005	0.0161939
669.083	0.0162696
669.161	0.0163914
669.239	0.0164813
669.317	0.0164587
669.396	0.0165957
669.474	0.0167207
669.552	0.0165704
669.630	0.0166947
669.708	0.0168656
669.786	0.0169675
669.864	0.0169844
669.942	0.0169453
670.021	0.0169711
670.099	0.0170129
670.177	0.0169962
670.255	0.0169394
670.333	0.0167985
670.411	0.0168044
670.489	0.0167498
670.567	0.0166090
670.646	0.0165997
670.724	0.0165019
670.802	0.0165208
670.880	0.0164882
670.958	0.0164221
671.036	0.0163743
671.114	0.0164236
671.192	0.0163519
671.271	0.0163103
671.349	0.0163976
671.427	0.0164297
671.505	0.0163596
671.583	0.0162477
671.661	0.0163184
671.739	0.0165030
671.817	0.0166000
671.896	0.0163310
671.974	0.0163839
672.052	0.0165528
672.130	0.0164864
672.208	0.0165794
672.286	0.0167268
672.364	0.0166525
672.442	0.0166878
672.521	0.0168244
672.599	0.0169296
672.677	0.0169212
672.755	0.0169189
672.833	0.0168794
672.911	0.0168652
672.989	0.0168666
673.067	0.0168182
673.146	0.0168639
673.224	0.0166698
673.302	0.0166844
673.380	0.0165900
673.458	0.0165393
673.536	0.0165175
673.614	0.0165043
673.692	0.0163695
673.771	0.0164143
673.849	0.0164420
673.927	0.0163324
674.005	0.0162901
674.083	0.0164010
674.161	0.0163684
674.239	0.0164719
674.317	0.0166039
674.396	0.0165417
674.474	0.0164513
674.552	0.0166159
674.630	0.0166954
674.708	0.0167254
674.786	0.0167030
674.864	0.0166754
674.942	0.0167976
675.021	0.0168813
675.099	0.0167651
675.177	0.0166714
675.255	0.0166906
675.333	0.0166122
675.411	0.0165232
675.489	0.0164921
675.567	0.0164140
675.646	0.0164420
675.724	0.0163909
675.802	0.0163982
675.880	0.0161391
675.958	0.0159601
676.036	0.0159466
676.114	0.0156322
676.192	0.0158858
676.271	0.0158401
676.349	0.0157346
676.427	0.0158399
676.505	0.0157000
676.583	0.0158807
676.661	0.0158677
676.739	0.0160069
676.817	0.0160959
676.896	0.0161167
676.974	0.0161044
677.052	0.0162688
677.130	0.0163533
677.208	0.0164740
677.286	0.0164249
677.364	0.0165106
677.442	0.0165369
677.521	0.0165201
677.599	0.0165063
677.677	0.0167043
677.755	0.0166747
677.833	0.0164259
677.911	0.0166211
677.989	0.0166359
678.067	0.0165736
678.146	0.0166563
678.224	0.0166409
678.302	0.0164773
678.380	0.0165537
678.458	0.0166726
678.536	0.0167207
678.614	0.0167887
678.692	0.0166966
678.771	0.0167990
678.849	0.0166592
678.927	0.0167619
679.005	0.0168401
679.083	0.0168314
679.161	0.0168439
679.239	0.0168907
679.317	0.0170062
679.396	0.0168609
679.474	0.0169833
679.552	0.0169953
679.630	0.0168385
679.708	0.0169405
679.786	0.0169775
679.864	0.0170541
679.942	0.0169558
680.021	0.0170377
680.099	0.0170663
680.177	0.0171384
680.255	0.0172617
680.333	0.0172166
680.411	0.0170977
680.489	0.0171568
680.567	0.0172852
680.646	0.0173202
680.724	0.0173359
680.802	0.0172041
680.880	0.0171671
680.958	0.0172942
681.036	0.0173869
681.114	0.0171436
681.192	0.0170414
681.271	0.0171507
681.349	0.0171833
681.427	0.0169647
681.505	0.0169680
681.583	0.0169395
681.661	0.0170279
681.739	0.0168633
681.817	0.0169370
681.896	0.0168861
681.974	0.0168520
682.052	0.0168848
682.130	0.0168864
682.208	0.0168324
682.286	0.0166683
682.364	0.0168650
682.442	0.0169149
682.521	0.0169291
682.599	0.0170673
682.677	0.0170982
682.755	0.0169455
682.833	0.0169241
682.911	0.0170519
682.989	0.0170037
683.067	0.0170438
683.146	0.0170780
683.224	0.0170045
683.302	0.0169064
683.380	0.0169964
683.458	0.0171339
683.536	0.0170104
683.614	0.0168969
683.692	0.0169727
683.771	0.0169991
683.849	0.0168401
683.927	0.0168241
684.005	0.0169180
684.083	0.0169975
684.161	0.0168563
684.239	0.0168679
684.317	0.0169189
684.396	0.0167807
684.474	0.0168104
684.552	0.0168518
684.630	0.0168822
684.708	0.0166608
684.786	0.0168581
684.864	0.0167679
684.942	0.0166373
685.021	0.0166459
685.099	0.0166368
685.177	0.0165160
685.255	0.0165061
685.333	0.0164635
685.411	0.0165916
685.489	0.0165086
685.567	0.0164314
685.646	0.0163754
685.724	0.0163172
685.802	0.0163654
685.880	0.0163741
685.958	0.0163405
686.036	0.0163483
686.114	0.0163902
686.192	0.0162389
686.271	0.0162315
686.349	0.0164267
686.427	0.0162435
686.505	0.0162511
686.583	0.0162305
686.661	0.0161749
686.739	0.0162174
686.817	0.0163536
686.896	0.0163943
686.974	0.0162734
687.052	0.0161858
687.130	0.0163197
687.208	0.0162746
687.286	0.0162218
687.364	0.0163000
687.442	0.0162810
687.521	0.0164026
687.599	0.0164470
687.677	0.0162575
687.755	0.0163494
687.833	0.0163332
687.911	0.0162218
687.989	0.0163987
688.067	0.0163381
688.146	0.0162701
688.224	0.0162292
688.302	0.0163421
688.380	0.0162905
688.458	0.0164029
688.536	0.0163209
688.614	0.0163895
688.692	0.0164495
688.771	0.0165882
688.849	0.0164159
688.927	0.0164260
689.005	0.0164558
689.083	0.0164828
689.161	0.0163960
689.239	0.0163461
689.317	0.0165084
689.396	0.0163977
689.474	0.0166869
689.552	0.0164813
689.630	0.0162704
689.708	0.0164090
689.786	0.0165242
689.864	0.0164594
689.942	0.0163984
690.021	0.0163089
690.099	0.0163115
690.177	0.0164098
690.255	0.0163825
690.333	0.0164401
690.411	0.0164667
690.489	0.0163261
690.567	0.0163814
690.646	0.0164376
690.724	0.0164632
690.802	0.0163155
690.880	0.0163299
690.958	0.0163947
691.036	0.0164311
691.114	0.0162778
691.192	0.0162771
691.271	0.0163584
691.349	0.0162363
691.427	0.0162837
691.505	0.0163676
691.583	0.0163538
691.661	0.0162908
691.739	0.0162440
691.817	0.0163048
691.896	0.0161391
691.974	0.0162009
692.052	0.0161507
692.130	0.0162480
692.208	0.0163377
692.286	0.0162939
692.364	0.0162156
692.442	0.0161932
692.521	0.0162833
692.599	0.0164597
692.677	0.0163357
692.755	0.0163096
692.833	0.0164072
692.911	0.0165199
692.989	0.0166315
693.067	0.0166853
693.146	0.0165389
693.224	0.0166431
693.302	0.0167419
693.380	0.0166741
693.458	0.0167558
693.536	0.0167883
693.614	0.0167364
693.692	0.0168152
693.771	0.0168399
693.849	0.0167792
693.927	0.0167535
694.005	0.0168450
694.083	0.0167620
694.161	0.0168307
694.239	0.0168539
694.317	0.0169203
694.396	0.0168613
694.474	0.0167402
694.552	0.0167812
694.630	0.0167988
694.708	0.0168971
694.786	0.0170038
694.864	0.0168067
694.942	0.0168871
695.021	0.0169723
695.099	0.0168246
695.177	0.0168573
695.255	0.0169984
695.333	0.0168089
695.411	0.0169439
695.489	0.0168502
695.567	0.0168275
695.646	0.0168917
695.724	0.0169102
695.802	0.0167512
695.880	0.0166988
695.958	0.0167391
696.036	0.0167915
696.114	0.0166459
696.192	0.0168195
696.271	0.0166965
696.349	0.0167027
696.427	0.0166694
696.505	0.0166012
696.583	0.0167126
696.661	0.0166316
696.739	0.0167499
696.817	0.0168602
696.896	0.0168408
696.974	0.0167728
697.052	0.0169891
697.130	0.0170984
697.208	0.0171253
697.286	0.0169389
697.364	0.0170528
697.442	0.0172304
697.521	0.0171777
697.599	0.0172118
697.677	0.0172885
697.755	0.0174187
697.833	0.0175298
697.911	0.0174536
697.989	0.0173930
698.067	0.0173611
698.146	0.0173824
698.224	0.0174587
698.302	0.0173557
698.380	0.0173549
698.458	0.0173087
698.536	0.0171556
698.614	0.0171873
698.692	0.0170639
698.771	0.0168038
698.849	0.0170681
698.927	0.0167387
699.005	0.0166378
699.083	0.0166206
699.161	0.0164016
699.239	0.0163000
699.317	0.0164137
699.396	0.0164201
699.474	0.0162908
699.552	0.0163392
699.630	0.0163825
699.708	0.0162468
699.786	0.0161523
699.864	0.0162372
699.942	0.0163760
700.021	0.0163116
700.099	0.0163828
700.177	0.0163934
700.255	0.0165338
700.333	0.0163212
700.411	0.0164294
700.489	0.0164639
700.567	0.0164069
700.646	0.0165140
700.724	0.0165041
700.802	0.0164544
700.880	0.0164468
700.958	0.0163623
701.036	0.0162700
701.114	0.0162763
701.192	0.0163055
701.271	0.0162503
701.349	0.0162754
701.427	0.0164041
701.505	0.0163288
701.583	0.0162831
701.661	0.0163692
701.739	0.0163696
701.817	0.0164368
701.896	0.0163719
701.974	0.0163496
702.052	0.0164262
702.130	0.0163191
702.208	0.0163625
702.286	0.0164764
702.364	0.0163895
702.442	0.0164963
702.521	0.0163202
702.599	0.0162429
702.677	0.0162776
702.755	0.0163608
702.833	0.0163468
702.911	0.0162846
702.989	0.0163250
703.067	0.0163501
703.146	0.0161781
703.224	0.0162772
703.302	0.0162260
703.380	0.0162388
703.458	0.0162861
703.536	0.0162896
703.614	0.0163145
703.692	0.0164174
703.771	0.0164505
703.849	0.0164252
703.927	0.0165379
704.005	0.0165764
704.083	0.0166300
704.161	0.0167019
704.239	0.0166921
704.317	0.0167017
704.396	0.0166693
704.474	0.0167439
704.552	0.0168126
704.630	0.0166238
704.708	0.0167005
704.786	0.0167812
704.864	0.0167396
704.942	0.0166622
705.021	0.0165521
705.099	0.0165401
705.177	0.0166119
705.255	0.0165531
705.333	0.0164465
705.411	0.0164676
705.489	0.0165059
705.567	0.0165104
705.646	0.0165244
705.724	0.0166608
705.802	0.0166185
705.880	0.0166624
705.958	0.0166531
706.036	0.0167295
706.114	0.0168800
706.192	0.0168037
706.271	0.0167613
706.349	0.0167236
706.427	0.0167062
706.505	0.0169025
706.583	0.0168295
706.661	0.0167111
706.739	0.0168231
706.817	0.0169624
706.896	0.0167896
706.974	0.0168794
707.052	0.0167035
707.130	0.0167176
707.208	0.0168184
707.286	0.0167814
707.364	0.0167649
707.442	0.0167640
707.521	0.0168263
707.599	0.0168460
707.677	0.0169149
707.755	0.0168244
707.833	0.0168688
707.911	0.0169283
707.989	0.0169582
708.067	0.0169040
708.146	0.0166962
708.224	0.0168050
708.302	0.0169154
708.380	0.0169703
708.458	0.0168096
708.536	0.0168272
708.614	0.0168047
708.692	0.0168375
708.771	0.0168194
708.849	0.0167526
708.927	0.0166866
709.005	0.0167548
709.083	0.0166229
709.161	0.0166465
709.239	0.0165456
709.317	0.0164841
709.396	0.0165553
709.474	0.0166685
709.552	0.0165858
709.630	0.0165066
709.708	0.0166698
709.786	0.0166129
709.864	0.0165475
709.942	0.0165554
710.021	0.0164322
710.099	0.0166437
710.177	0.0166659
710.255	0.0165225
710.333	0.0164358
710.411	0.0165631
710.489	0.0165658
710.567	0.0166322
710.646	0.0163859
710.724	0.0164589
710.802	0.0165129
710.880	0.0162736
710.958	0.0163812
711.036	0.0162405
711.114	0.0162461
711.192	0.0162798
711.271	0.0162078
711.349	0.0162415
711.427	0.0162337
711.505	0.0161066
711.583	0.0161414
711.661	0.0162825
711.739	0.0160331
711.817	0.0160649
711.896	0.0160248
711.974	0.0163309
712.052	0.0162744
712.130	0.0162213
712.208	0.0161383
712.286	0.0159933
712.364	0.0161160
712.442	0.0161487
712.521	0.0161233
712.599	0.0160464
712.677	0.0160956
712.755	0.0159811
712.833	0.0159148
712.911	0.0157896
712.989	0.0159322
713.067	0.0159856
713.146	0.0157828
713.224	0.0158842
713.302	0.0158930
713.380	0.0158356
713.458	0.0159055
713.536	0.0158283
713.614	0.0158568
713.692	0.0160511
713.771	0.0160204
713.849	0.0160378
713.927	0.0160614
714.005	0.0161070
714.083	0.0161288
714.161	0.0161636
714.239	0.0163308
714.317	0.0162930
714.396	0.0163651
714.474	0.0164288
714.552	0.0164315
714.630	0.0163618
714.708	0.0163232
714.786	0.0164580
714.864	0.0163250
714.942	0.0164841
715.021	0.0164168
715.099	0.0163600
715.177	0.0164417
715.255	0.0164481
715.333	0.0163467
715.411	0.0163753
715.489	0.0163843
715.567	0.0163996
715.646	0.0165479
715.724	0.0164923
715.802	0.0165059
715.880	0.0164918
715.958	0.0166721
716.036	0.0168366
716.114	0.0167905
716.192	0.0167995
716.271	0.0169639
716.349	0.0169271
716.427	0.0169020
716.505	0.0171400
716.583	0.0171762
716.661	0.0170112
716.739	0.0172105
716.817	0.0173598
716.896	0.0173158
716.974	0.0173662
717.052	0.0174345
717.130	0.0175019
717.208	0.0174725
717.286	0.0173966
717.364	0.0176081
717.442	0.0176144
717.521	0.0174298
717.599	0.0173823
717.677	0.0173942
717.755	0.0175365
717.833	0.0173941
717.911	0.0173705
717.989	0.0174243
718.067	0.0172572
718.146	0.0173840
718.224	0.0174328
718.302	0.0174943
718.380	0.0174885
718.458	0.0175344
718.536	0.0174699
718.614	0.0174567
718.692	0.0173970
718.771	0.0172479
718.849	0.0172884
718.927	0.0173156
719.005	0.0172636
719.083	0.0171973
719.161	0.0170641
719.239	0.0172449
719.317	0.0169585
719.396	0.0169971
719.474	0.0168664
719.552	0.0167676
719.630	0.0168761
719.708	0.0167412
719.786	0.0166293
719.864	0.0165912
719.942	0.0165963
720.021	0.0163436
720.099	0.0163912
720.177	0.0164765
720.255	0.0164732
720.333	0.0163988
720.411	0.0163306
720.489	0.0164252
720.567	0.0165499
720.646	0.0165689
720.724	0.0167966
720.802	0.0166733
720.880	0.0167741
720.958	0.0169479
721.036	0.0171962
721.114	0.0174277
721.192	0.0173930
721.271	0.0175875
721.349	0.0177657
721.427	0.0177216
721.505	0.0176749
721.583	0.0178288
721.661	0.0178633
721.739	0.0176982
721.817	0.0177198
721.896	0.0176131
721.974	0.0173441
722.052	0.0173273
722.130	0.0171331
722.208	0.0169466
722.286	0.0168346
722.364	0.0167246
722.442	0.0163963
722.521	0.0162700
722.599	0.0160326
722.677	0.0157835
722.755	0.0157293
722.833	0.0156780
722.911	0.0154024
722.989	0.0153410
723.067	0.0153353
723.146	0.0152554
723.224	0.0152934
723.302	0.0152824
723.380	0.0151678
723.458	0.0151092
723.536	0.0151588
723.614	0.0154041
723.692	0.0154554
723.771	0.0154150
723.849	0.0154876
723.927	0.0155569
724.005	0.0158156
724.083	0.0160261
724.161	0.0161743
724.239	0.0161126
724.317	0.0161423
724.396	0.0164297
724.474	0.0166241
724.552	0.0164921
724.630	0.0165308
724.708	0.0166560
724.786	0.0166392
724.864	0.0166999
724.942	0.0167275
725.021	0.0167317
725.099	0.0167477
725.177	0.0167610
725.255	0.0168211
725.333	0.0166791
725.411	0.0167071
725.489	0.0167222
725.567	0.0165923
725.646	0.0167148
725.724	0.0166417
725.802	0.0166584
725.880	0.0167181
725.958	0.0167460
726.036	0.0166177
726.114	0.0167727
726.192	0.0167804
726.271	0.0168297
726.349	0.0168597
726.427	0.0167550
726.505	0.0170226
726.583	0.0169492
726.661	0.0168105
726.739	0.0170442
726.817	0.0169542
726.896	0.0169334
726.974	0.0169732
727.052	0.0169868
727.130	0.0168894
727.208	0.0168575
727.286	0.0168353
727.364	0.0168971
727.442	0.0168971
727.521	0.0168107
727.599	0.0169035
727.677	0.0168174
727.755	0.0167149
727.833	0.0167361
727.911	0.0165659
727.989	0.0166759
728.067	0.0165501
728.146	0.0164758
728.224	0.0163857
728.302	0.0164722
728.380	0.0164455
728.458	0.0162489
728.536	0.0162444
728.614	0.0161356
728.692	0.0162199
728.771	0.0161679
728.849	0.0160898
728.927	0.0162021
729.005	0.0160005
729.083	0.0161797
729.161	0.0160750
729.239	0.0159367
729.317	0.0160914
729.396	0.0162047
729.474	0.0163026
729.552	0.0164616
729.630	0.0163293
729.708	0.0164099
729.786	0.0165409
729.864	0.0165199
729.942	0.0165268
730.021	0.0166059
730.099	0.0167460
730.177	0.0166692
730.255	0.0165476
730.333	0.0165588
730.411	0.0166604
730.489	0.0167685
730.567	0.0168227
730.646	0.0166400
730.724	0.0166764
730.802	0.0167248
730.880	0.0167564
730.958	0.0168526
731.036	0.0166139
731.114	0.0168236
731.192	0.0169492
731.271	0.0167443
731.349	0.0167914
731.427	0.0168755
731.505	0.0168941
731.583	0.0167439
731.661	0.0169568
731.739	0.0170444
731.817	0.0170096
731.896	0.0167982
731.974	0.0169593
732.052	0.0169592
732.130	0.0166914
732.208	0.0166110
732.286	0.0165294
732.364	0.0164732
732.442	0.0165266
732.521	0.0163789
732.599	0.0161898
732.677	0.0162811
732.755	0.0160845
732.833	0.0160710
732.911	0.0161581
732.989	0.0160439
733.067	0.0162497
733.146	0.0160938
733.224	0.0160775
733.302	0.0163103
733.380	0.0165337
733.458	0.0164907
733.536	0.0164863
733.614	0.0165712
733.692	0.0165766
733.771	0.0166346
733.849	0.0165937
733.927	0.0165025
734.005	0.0164190
734.083	0.0165389
734.161	0.0163727
734.239	0.0163591
734.317	0.0163060
734.396	0.0161297
734.474	0.0161745
734.552	0.0162737
734.630	0.0162456
734.708	0.0161695
734.786	0.0160063
734.864	0.0159962
734.942	0.0159246
735.021	0.0160622
735.099	0.0161414
735.177	0.0161369
735.255	0.0161635
735.333	0.0161533
735.411	0.0163055
735.489	0.0162234
735.567	0.0163425
735.646	0.0165289
735.724	0.0164803
735.802	0.0166451
735.880	0.0165999
735.958	0.0166871
736.036	0.0168142
736.114	0.0167519
736.192	0.0169852
736.271	0.0169987
736.349	0.0169701
736.427	0.0170406
736.505	0.0169872
736.583	0.0170874
736.661	0.0171285
736.739	0.0171165
736.817	0.0169533
736.896	0.0168530
736.974	0.0167012
737.052	0.0168414
737.130	0.0167835
737.208	0.0167637
737.286	0.0166246
737.364	0.0165207
737.442	0.0165403
737.521	0.0166715
737.599	0.0165160
737.677	0.0164575
737.755	0.0163902
737.833	0.0165034
737.911	0.0166354
737.989	0.0166732
738.067	0.0167667
738.146	0.0168806
738.224	0.0169160
738.302	0.0170544
738.380	0.0169872
738.458	0.0169361
738.536	0.0171185
738.614	0.0171556
738.692	0.0170770
738.771	0.0169627
738.849	0.0170382
738.927	0.0168703
739.005	0.0169618
739.083	0.0168522
739.161	0.0167233
739.239	0.0165982
739.317	0.0166012
739.396	0.0164877
739.474	0.0163664
739.552	0.0163992
739.630	0.0163709
739.708	0.0163271
739.786	0.0161191
739.864	0.0160887
739.942	0.0162229
740.021	0.0161266
740.099	0.0161441
740.177	0.0162085
740.255	0.0161845
740.333	0.0161944
740.411	0.0163435
740.489	0.0163230
740.567	0.0164063
740.646	0.0164276
740.724	0.0163330
740.802	0.0162998
740.880	0.0164632
740.958	0.0165588
741.036	0.0166038
741.114	0.0165324
741.192	0.0165467
741.271	0.0166305
741.349	0.0166927
741.427	0.0164838
741.505	0.0166229
741.583	0.0166952
741.661	0.0166487
741.739	0.0166531
741.817	0.0166499
741.896	0.0165454
741.974	0.0165918
742.052	0.0166212
742.130	0.0165731
742.208	0.0165406
742.286	0.0166089
742.364	0.0166190
742.442	0.0167024
742.521	0.0168108
742.599	0.0167870
742.677	0.0168281
742.755	0.0169715
742.833	0.0169080
742.911	0.0170926
742.989	0.0169353
743.067	0.0169454
743.146	0.0170810
743.224	0.0170927
743.302	0.0170860
743.380	0.0170972
743.458	0.0171332
743.536	0.0169743
743.614	0.0169028
743.692	0.0167980
743.771	0.0167226
743.849	0.0166244
743.927	0.0166401
744.005	0.0164301
744.083	0.0164367
744.161	0.0162446
744.239	0.0161478
744.317	0.0161702
744.396	0.0161761
744.474	0.0158833
744.552	0.0158673
744.630	0.0159014
744.708	0.0159619
744.786	0.0159439
744.864	0.0159219
744.942	0.0158368
745.021	0.0158137
745.099	0.0158703
745.177	0.0159760
745.255	0.0160230
745.333	0.0160839
745.411	0.0161983
745.489	0.0161778
745.567	0.0162609
745.646	0.0163476
745.724	0.0164207
745.802	0.0164663
745.880	0.0164182
745.958	0.0166413
746.036	0.0167052
746.114	0.0167818
746.192	0.0167702
746.271	0.0168565
746.349	0.0168857
746.427	0.0169244
746.505	0.0168707
746.583	0.0168046
746.661	0.0169548
746.739	0.0169176
746.817	0.0168662
746.896	0.0167699
746.974	0.0168382
747.052	0.0168549
747.130	0.0168416
747.208	0.0165466
747.286	0.0166086
747.364	0.0165315
747.442	0.0165913
747.521	0.0165432
747.599	0.0164596
747.677	0.0165133
747.755	0.0164340
747.833	0.0165073
747.911	0.0164598
747.989	0.0164509
748.067	0.0164735
748.146	0.0164457
748.224	0.0165887
748.302	0.0166601
748.380	0.0163943
748.458	0.0165869
748.536	0.0165349
748.614	0.0167471
748.692	0.0165416
748.771	0.0166055
748.849	0.0166686
748.927	0.0166504
749.005	0.0167113
749.083	0.0166591
749.161	0.0166533
749.239	0.0169003
749.317	0.0168648
749.396	0.0167427
749.474	0.0167237
749.552	0.0169530
749.630	0.0169424
749.708	0.0169508
749.786	0.0168851
749.864	0.0169147
749.942	0.0170116
750.021	0.0170052
750.099	0.0170573
750.177	0.0170016
750.255	0.0170338
750.333	0.0171088
750.411	0.0170531
750.489	0.0171720
750.567	0.0171234
750.646	0.0169498
750.724	0.0170652
750.802	0.0171241
750.880	0.0169974
750.958	0.0170693
751.036	0.0168179
751.114	0.0168243
751.192	0.0169370
751.271	0.0167761
751.349	0.0167493
751.427	0.0167697
751.505	0.0166245
751.583	0.0165775
751.661	0.0166672
751.739	0.0165951
751.817	0.0165792
751.896	0.0166783
751.974	0.0165827
752.052	0.0165512
752.130	0.0164894
752.208	0.0166646
752.286	0.0166080
752.364	0.0165780
752.442	0.0166006
752.521	0.0164907
752.599	0.0165728
752.677	0.0164708
752.755	0.0167207
752.833	0.0164191
752.911	0.0163018
752.989	0.0163042
753.067	0.0165476
753.146	0.0164670
753.224	0.0163513
753.302	0.0165372
753.380	0.0165549
753.458	0.0163866
753.536	0.0165086
753.614	0.0164163
753.692	0.0165149
753.771	0.0165405
753.849	0.0165820
753.927	0.0168108
754.005	0.0167765
754.083	0.0166161
754.161	0.0167373
754.239	0.0168758
754.317	0.0168643
754.396	0.0167690
754.474	0.0168334
754.552	0.0168274
754.630	0.0168308
754.708	0.0168013
754.786	0.0167492
754.864	0.0165761
754.942	0.0167221
755.021	0.0165493
755.099	0.0166360
755.177	0.0165184
755.255	0.0167231
755.333	0.0164363
755.411	0.0164389
755.489	0.0166298
755.567	0.0165869
755.646	0.0166324
755.724	0.0164845
755.802	0.0166778
755.880	0.0165253
755.958	0.0165277
756.036	0.0164176
756.114	0.0164643
756.192	0.0165387
756.271	0.0165467
756.349	0.0165366
756.427	0.0164662
756.505	0.0165968
756.583	0.0163679
756.661	0.0163956
756.739	0.0163532
756.817	0.0164803
756.896	0.0164143
756.974	0.0164301
757.052	0.0164674
757.130	0.0163484
757.208	0.0163770
757.286	0.0162757
757.364	0.0163420
757.442	0.0162275
757.521	0.0163139
757.599	0.0161898
757.677	0.0163335
757.755	0.0163621
757.833	0.0163941
757.911	0.0165008
757.989	0.0163982
758.067	0.0164548
758.146	0.0165170
758.224	0.0165580
758.302	0.0164793
758.380	0.0166328
758.458	0.0164124
758.536	0.0164987
758.614	0.0165356
758.692	0.0166422
758.771	0.0167506
758.849	0.0166261
758.927	0.0166551
759.005	0.0166421
759.083	0.0168296
759.161	0.0167262
759.239	0.0167323
759.317	0.0167888
759.396	0.0167957
759.474	0.0169997
759.552	0.0168738
759.630	0.0167628
759.708	0.0169173
759.786	0.0167724
759.864	0.0168292
759.942	0.0169135
760.021	0.0169684
760.099	0.0170100
760.177	0.0169642
760.255	0.0171313
760.333	0.0171077
760.411	0.0171769
760.489	0.0172395
760.567	0.0170550
760.646	0.0170603
760.724	0.0170618
760.802	0.0170625
760.880	0.0171222
760.958	0.0170782
761.036	0.0170648
761.114	0.0169583
761.192	0.0168456
761.271	0.0169601
761.349	0.0169437
761.427	0.0168084
761.505	0.0168509
761.583	0.0168697
761.661	0.0167289
761.739	0.0166580
761.817	0.0167764
761.896	0.0166119
761.974	0.0167413
762.052	0.0166107
762.130	0.0167190
762.208	0.0166654
762.286	0.0166244
762.364	0.0166924
762.442	0.0166003
762.521	0.0166201
762.599	0.0166899
762.677	0.0165653
762.755	0.0165858
762.833	0.0166122
762.911	0.0165906
762.989	0.0166567
763.067	0.0165920
763.146	0.0167165
763.224	0.0167303
763.302	0.0166647
763.380	0.0165311
763.458	0.0166884
763.536	0.0166171
763.614	0.0167473
763.692	0.0166531
763.771	0.0166957
763.849	0.0166152
763.927	0.0165731
764.005	0.0168235
764.083	0.0167496
764.161	0.0166822
764.239	0.0168290
764.317	0.0166855
764.396	0.0166183
764.474	0.0166228
764.552	0.0167518
764.630	0.0166525
764.708	0.0166581
764.786	0.0165176
764.864	0.0165296
764.942	0.0165044
765.021	0.0164286
765.099	0.0165466
765.177	0.0164066
765.255	0.0164469
765.333	0.0163615
765.411	0.0165062
765.489	0.0164330
765.567	0.0164110
765.646	0.0162912
765.724	0.0164034
765.802	0.0163377
765.880	0.0162946
765.958	0.0162377
766.036	0.0162610
766.114	0.0163743
766.192	0.0164140
766.271	0.0163940
766.349	0.0164898
766.427	0.0164213
766.505	0.0163657
766.583	0.0166233
766.661	0.0166084
766.739	0.0165564
766.817	0.0165124
766.896	0.0164585
766.974	0.0166512
767.052	0.0166450
767.130	0.0167197
767.208	0.0165617
767.286	0.0163641
767.364	0.0162285
767.442	0.0164447
767.521	0.0164173
767.599	0.0163048
767.677	0.0162689
767.755	0.0161073
767.833	0.0161336
767.911	0.0160574
767.989	0.0160036
768.067	0.0160871
768.146	0.0160520
768.224	0.0161671
768.302	0.0161572
768.380	0.0162247
768.458	0.0161798
768.536	0.0163547
768.614	0.0163398
768.692	0.0162624
768.771	0.0164265
768.849	0.0164011
768.927	0.0164634
769.005	0.0165113
769.083	0.0165421
769.161	0.0165652
769.239	0.0164883
769.317	0.0165610
769.396	0.0165579
769.474	0.0168024
769.552	0.0167061
769.630	0.0165231
769.708	0.0166586
769.786	0.0164207
769.864	0.0166272
769.942	0.0165814
770.021	0.0165787
770.099	0.0165842
770.177	0.0166552
770.255	0.0164948
770.333	0.0166433
770.411	0.0166157
770.489	0.0166586
770.567	0.0165393
770.646	0.0165700
770.724	0.0165707
770.802	0.0167426
770.880	0.0166311
770.958	0.0167255
771.036	0.0167739
771.114	0.0166386
771.192	0.0166562
771.271	0.0167377
771.349	0.0166645
771.427	0.0166875
771.505	0.0165948
771.583	0.0166859
771.661	0.0165793
771.739	0.0166559
771.817	0.0167371
771.896	0.0167297
771.974	0.0167720
772.052	0.0166022
772.130	0.0165757
772.208	0.0167305
772.286	0.0167505
772.364	0.0166128
772.442	0.0166747
772.521	0.0167014
772.599	0.0166667
772.677	0.0166588
772.755	0.0166985
772.833	0.0167286
772.911	0.0166271
772.989	0.0165722
773.067	0.0166124
773.146	0.0166093
773.224	0.0166244
773.302	0.0166087
773.380	0.0166026
773.458	0.0166360
773.536	0.0167606
773.614	0.0167968
773.692	0.0167534
773.771	0.0167645
773.849	0.0168828
773.927	0.0167341
774.005	0.0166407
774.083	0.0168687
774.161	0.0169709
774.239	0.0168312
774.317	0.0169178
774.396	0.0168188
774.474	0.0169788
774.552	0.0168035
774.630	0.0169444
774.708	0.0169747
774.786	0.0168357
774.864	0.0168581
774.942	0.0169038
775.021	0.0168681
775.099	0.0168812
775.177	0.0168214
775.255	0.0168839
775.333	0.0167506
775.411	0.0167725
775.489	0.0168191
775.567	0.0168384
775.646	0.0168573
775.724	0.0167195
775.802	0.0165863
775.880	0.0166366
775.958	0.0165990
776.036	0.0167004
776.114	0.0166018
776.192	0.0167773
776.271	0.0166033
776.349	0.0166392
776.427	0.0167089
776.505	0.0167579
776.583	0.0165990
776.661	0.0166223
776.739	0.0166214
776.817	0.0166368
776.896	0.0166673
776.974	0.0166766
777.052	0.0166446
777.130	0.0165038
777.208	0.0166885
777.286	0.0167671
777.364	0.0166557
777.442	0.0167072
777.521	0.0166138
777.599	0.0165944
777.677	0.0164877
777.755	0.0164492
777.833	0.0166433
777.911	0.0166402
777.989	0.0163518
778.067	0.0163956
778.146	0.0163859
778.224	0.0163384
778.302	0.0162746
778.380	0.0162978
778.458	0.0164462
778.536	0.0162636
778.614	0.0162097
778.692	0.0162700
778.771	0.0162296
778.849	0.0161507
778.927	0.0160764
779.005	0.0161458
779.083	0.0161974
779.161	0.0162206
779.239	0.0161982
779.317	0.0160855
779.396	0.0161056
779.474	0.0162088
779.552	0.0162206
779.630	0.0161988
779.708	0.0162531
779.786	0.0162267
779.864	0.0163650
779.942	0.0163406
780.021	0.0163660
780.099	0.0162515
780.177	0.0163174
780.255	0.0165151
780.333	0.0166501
780.411	0.0166647
780.489	0.0164764
780.567	0.0166589
780.646	0.0169124
780.724	0.0167068
780.802	0.0167780
780.880	0.0167362
780.958	0.0168691
781.036	0.0168504
781.114	0.0168986
781.192	0.0168965
781.271	0.0169190
781.349	0.0169332
781.427	0.0170778
781.505	0.0169899
781.583	0.0168236
781.661	0.0168153
781.739	0.0169393
781.817	0.0168948
781.896	0.0169279
781.974	0.0169743
782.052	0.0167931
782.130	0.0169276
782.208	0.0168136
782.286	0.0168291
782.364	0.0168649
782.442	0.0168403
782.521	0.0167936
782.599	0.0167662
782.677	0.0167960
782.755	0.0167725
782.833	0.0167318
782.911	0.0168002
782.989	0.0166414
783.067	0.0167136
783.146	0.0166733
783.224	0.0167503
783.302	0.0166495
783.380	0.0166401
783.458	0.0167581
783.536	0.0167870
783.614	0.0166955
783.692	0.0168387
783.771	0.0167592
783.849	0.0167036
783.927	0.0166939
784.005	0.0167345
784.083	0.0167721
784.161	0.0167880
784.239	0.0165993
784.317	0.0166474
784.396	0.0164668
784.474	0.0166514
784.552	0.0166862
784.630	0.0166177
784.708	0.0165227
784.786	0.0165395
784.864	0.0166052
784.942	0.0165782
785.021	0.0165730
785.099	0.0165876
785.177	0.0165413
785.255	0.0165281
785.333	0.0166127
785.411	0.0167097
785.489	0.0166924
785.567	0.0166363
785.646	0.0167246
785.724	0.0169108
785.802	0.0167457
785.880	0.0166644
785.958	0.0168706
786.036	0.0167030
786.114	0.0167167
786.192	0.0167393
786.271	0.0165981
786.349	0.0167850
786.427	0.0166092
786.505	0.0166888
786.583	0.0165983
786.661	0.0165879
786.739	0.0165897
786.817	0.0165677
786.896	0.0166740
786.974	0.0162857
787.052	0.0163980
787.130	0.0164585
787.208	0.0164545
787.286	0.0163233
787.364	0.0163986
787.442	0.0162008
787.521	0.0163301
787.599	0.0163403
787.677	0.0163653
787.755	0.0162750
787.833	0.0163644
787.911	0.0162009
787.989	0.0163181
788.067	0.0163601
788.146	0.0164262
788.224	0.0162289
788.302	0.0163923
788.380	0.0162136
788.458	0.0163879
788.536	0.0162211
788.614	0.0160904
788.692	0.0162400
788.771	0.0162226
788.849	0.0162468
788.927	0.0163369
789.005	0.0163753
789.083	0.0161700
789.161	0.0162543
789.239	0.0162572
789.317	0.0162772
789.396	0.0163116
789.474	0.0164323
789.552	0.0161826
789.630	0.0163760
789.708	0.0164261
789.786	0.0163677
789.864	0.0163090
789.942	0.0163165
790.021	0.0164567
790.099	0.0164771
790.177	0.0164448
790.255	0.0166132
790.333	0.0166216
790.411	0.0166508
790.489	0.0167254
790.567	0.0166806
790.646	0.0166876
790.724	0.0167020
790.802	0.0166925
790.880	0.0167655
790.958	0.0169604
791.036	0.0169784
791.114	0.0169841
791.192	0.0168195
791.271	0.0168240
791.349	0.0170212
791.427	0.0168980
791.505	0.0170040
791.583	0.0169941
791.661	0.0170010
791.739	0.0171056
791.817	0.0169923
791.896	0.0170217
791.974	0.0170100
792.052	0.0170332
792.130	0.0169981
792.208	0.0168017
792.286	0.0169833
792.364	0.0168925
792.442	0.0169414
792.521	0.0169484
792.599	0.0168937
792.677	0.0167704
792.755	0.0166781
792.833	0.0167062
792.911	0.0167224
792.989	0.0165845
793.067	0.0166485
793.146	0.0165893
793.224	0.0165878
793.302	0.0166374
793.380	0.0165988
793.458	0.0166466
793.536	0.0164939
793.614	0.0166607
793.692	0.0166914
793.771	0.0166859
793.849	0.0166430
793.927	0.0168597
794.005	0.0168044
794.083	0.0167005
794.161	0.0168037
794.239	0.0167839
794.317	0.0167259
794.396	0.0167830
794.474	0.0167973
794.552	0.0168837
794.630	0.0167359
794.708	0.0167440
794.786	0.0166840
794.864	0.0166621
794.942	0.0165850
795.021	0.0165747
795.099	0.0164983
795.177	0.0164887
795.255	0.0163905
795.333	0.0164206
795.411	0.0163992
795.489	0.0163903
795.567	0.0164552
795.646	0.0162317
795.724	0.0162657
795.802	0.0162189
795.880	0.0162742
795.958	0.0161640
796.036	0.0163505
796.114	0.0163334
796.192	0.0160119
796.271	0.0161372
796.349	0.0161707
796.427	0.0162843
796.505	0.0162112
796.583	0.0161474
796.661	0.0161015
796.739	0.0161127
796.817	0.0162852
796.896	0.0162296
796.974	0.0162669
797.052	0.0161651
797.130	0.0163924
797.208	0.0162798
797.286	0.0161112
797.364	0.0162769
797.442	0.0162694
797.521	0.0162398
797.599	0.0162508
797.677	0.0161032
797.755	0.0160811
797.833	0.0160760
797.911	0.0161394
797.989	0.0161107
798.067	0.0159621
798.146	0.0160928
798.224	0.0161494
798.302	0.0160495
798.380	0.0161653
798.458	0.0161278
798.536	0.0161842
798.614	0.0161719
798.692	0.0161475
798.771	0.0161787
798.849	0.0162175
798.927	0.0160960
799.005	0.0161885
799.083	0.0163258
799.161	0.0162744
799.239	0.0161452
799.317	0.0162310
799.396	0.0161396
799.474	0.0162531
799.552	0.0162971
799.630	0.0161121
799.708	0.0162589
799.786	0.0161865
799.864	0.0162548
799.942	0.0163872
800.021	0.0161945
800.099	0.0163446
800.177	0.0163206
800.255	0.0162959
800.333	0.0163699
800.411	0.0163718
800.489	0.0162928
800.567	0.0163223
800.646	0.0163673
800.724	0.0164771
800.802	0.0163676
800.880	0.0163570
800.958	0.0164837
801.036	0.0165167
801.114	0.0165691
801.192	0.0165424
801.271	0.0165443
801.349	0.0165936
801.427	0.0166982
801.505	0.0165889
801.583	0.0165795
801.661	0.0164438
801.739	0.0165424
801.817	0.0165893
801.896	0.0163795
801.974	0.0163585
802.052	0.0164133
802.130	0.0164447
802.208	0.0163136
802.286	0.0164207
802.364	0.0165465
802.442	0.0164233
802.521	0.0165218
802.599	0.0165837
802.677	0.0165771
802.755	0.0165717
802.833	0.0165773
802.911	0.0165396
802.989	0.0165813
803.067	0.0166381
803.146	0.0165104
803.224	0.0166571
803.302	0.0165849
803.380	0.0163770
803.458	0.0166072
803.536	0.0164845
803.614	0.0164568
803.692	0.0165658
803.771	0.0165446
803.849	0.0165549
803.927	0.0165965
804.005	0.0165204
804.083	0.0165322
804.161	0.0165707
804.239	0.0164867
804.317	0.0166209
804.396	0.0166258
804.474	0.0165298
804.552	0.0166310
804.630	0.0166647
804.708	0.0166395
804.786	0.0166411
804.864	0.0165527
804.942	0.0165639
805.021	0.0166155
805.099	0.0165348
805.177	0.0163869
805.255	0.0164274
805.333	0.0163998
805.411	0.0164574
805.489	0.0163328
805.567	0.0163261
805.646	0.0163266
805.724	0.0160423
805.802	0.0161707
805.880	0.0162035
805.958	0.0161175
806.036	0.0161189
806.114	0.0161994
806.192	0.0161823
806.271	0.0159676
806.349	0.0160995
806.427	0.0161931
806.505	0.0162247
806.583	0.0162924
806.661	0.0162213
806.739	0.0163000
806.817	0.0162442
806.896	0.0163110
806.974	0.0165177
807.052	0.0164570
807.130	0.0164644
807.208	0.0166277
807.286	0.0166518
807.364	0.0167797
807.442	0.0166602
807.521	0.0167854
807.599	0.0167841
807.677	0.0167135
807.755	0.0167696
807.833	0.0167392
807.911	0.0166743
807.989	0.0167723
808.067	0.0168067
808.146	0.0168301
808.224	0.0167599
808.302	0.0169001
808.380	0.0167346
808.458	0.0168992
808.536	0.0168490
808.614	0.0168468
808.692	0.0168356
808.771	0.0169627
808.849	0.0169260
808.927	0.0169592
809.005	0.0168071
809.083	0.0169501
809.161	0.0169994
809.239	0.0168796
809.317	0.0168687
809.396	0.0168205
809.474	0.0168113
809.552	0.0167935
809.630	0.0169212
809.708	0.0169367
809.786	0.0168452
809.864	0.0168662
809.942	0.0169569
810.021	0.0169078
810.099	0.0169716
810.177	0.0170573
810.255	0.0169691
810.333	0.0169609
810.411	0.0168916
810.489	0.0170212
810.567	0.0170374
810.646	0.0170410
810.724	0.0169051
810.802	0.0169481
810.880	0.0169733
810.958	0.0169334
811.036	0.0169180
811.114	0.0169315
811.192	0.0169295
811.271	0.0169861
811.349	0.0167944
811.427	0.0169509
811.505	0.0168288
811.583	0.0167204
811.661	0.0166424
811.739	0.0167230
811.817	0.0167498
811.896	0.0165252
811.974	0.0164892
812.052	0.0164728
812.130	0.0165824
812.208	0.0166779
812.286	0.0165211
812.364	0.0164783
812.442	0.0165123
812.521	0.0165469
812.599	0.0166121
812.677	0.0165141
812.755	0.0167654
812.833	0.0167901
812.911	0.0167418
812.989	0.0167052
813.067	0.0166897
813.146	0.0170541
813.224	0.0169610
813.302	0.0169788
813.380	0.0170057
813.458	0.0171095
813.536	0.0170380
813.614	0.0169911
813.692	0.0171801
813.771	0.0170659
813.849	0.0170291
813.927	0.0170136
814.005	0.0169869
814.083	0.0171716
814.161	0.0171133
814.239	0.0168890
814.317	0.0169837
814.396	0.0169849
814.474	0.0168941
814.552	0.0169810
814.630	0.0170785
814.708	0.0169157
814.786	0.0169611
814.864	0.0170878
814.942	0.0169741
815.021	0.0168756
815.099	0.0167816
815.177	0.0168452
815.255	0.0166463
815.333	0.0165141
815.411	0.0165916
815.489	0.0164725
815.567	0.0164630
815.646	0.0164212
815.724	0.0162723
815.802	0.0162437
815.880	0.0161110
815.958	0.0160959
816.036	0.0159766
816.114	0.0159688
816.192	0.0158973
816.271	0.0159358
816.349	0.0158705
816.427	0.0157607
816.505	0.0157888
816.583	0.0157042
816.661	0.0157706
816.739	0.0157800
816.817	0.0157283
816.896	0.0158562
816.974	0.0159355
817.052	0.0158818
817.130	0.0158488
817.208	0.0158860
817.286	0.0161098
817.364	0.0160791
817.442	0.0162124
817.521	0.0162543
817.599	0.0163058
817.677	0.0163864
817.755	0.0163718
817.833	0.0164377
817.911	0.0163474
817.989	0.0163610
818.067	0.0164635
818.146	0.0164791
818.224	0.0164236
818.302	0.0162041
818.380	0.0162669
818.458	0.0162186
818.536	0.0162737
818.614	0.0162792
818.692	0.0161278
818.771	0.0160535
818.849	0.0159428
818.927	0.0159698
819.005	0.0158597
819.083	0.0156834
819.161	0.0157123
819.239	0.0156746
819.317	0.0158007
819.396	0.0156802
819.474	0.0156905
819.552	0.0156405
819.630	0.0156920
819.708	0.0157558
819.786	0.0156190
819.864	0.0156680
819.942	0.0156806
820.021	0.0159069
820.099	0.0159113
820.177	0.0159422
820.255	0.0161511
820.333	0.0161359
820.411	0.0162737
820.489	0.0161742
820.567	0.0162878
820.646	0.0164600
820.724	0.0165134
820.802	0.0165669
820.880	0.0166260
820.958	0.0167960
821.036	0.0167780
821.114	0.0168370
821.192	0.0169253
821.271	0.0170242
821.349	0.0171604
821.427	0.0170138
821.505	0.0168840
821.583	0.0169922
821.661	0.0169810
821.739	0.0169759
821.817	0.0170174
821.896	0.0170084
821.974	0.0171027
822.052	0.0170102
822.130	0.0169530
822.208	0.0168364
822.286	0.0167832
822.364	0.0168514
822.442	0.0169678
822.521	0.0170131
822.599	0.0169228
822.677	0.0167484
822.755	0.0168375
822.833	0.0169673
822.911	0.0167476
822.989	0.0167148
823.067	0.0167079
823.146	0.0168411
823.224	0.0166885
823.302	0.0165693
823.380	0.0164114
823.458	0.0165073
823.536	0.0165334
823.614	0.0165005
823.692	0.0165407
823.771	0.0164977
823.849	0.0166228
823.927	0.0165421
824.005	0.0165107
824.083	0.0164935
824.161	0.0166141
824.239	0.0166607
824.317	0.0167326
824.396	0.0167498
824.474	0.0167616
824.552	0.0168042
824.630	0.0167747
824.708	0.0168945
824.786	0.0170438
824.864	0.0169099
824.942	0.0169124
825.021	0.0170092
825.099	0.0169655
825.177	0.0170374
825.255	0.0169031
825.333	0.0170705
825.411	0.0170798
825.489	0.0170953
825.567	0.0170107
825.646	0.0170816
825.724	0.0171412
825.802	0.0171430
825.880	0.0171275
825.958	0.0171243
826.036	0.0171932
826.114	0.0172643
826.192	0.0170550
826.271	0.0170661
826.349	0.0173431
826.427	0.0172537
826.505	0.0173872
826.583	0.0173603
826.661	0.0172871
826.739	0.0173348
826.817	0.0172787
826.896	0.0173138
826.974	0.0172343
827.052	0.0171650
827.130	0.0170419
827.208	0.0171302
827.286	0.0171251
827.364	0.0171481
827.442	0.0168172
827.521	0.0168573
827.599	0.0168903
827.677	0.0167645
827.755	0.0168336
827.833	0.0167088
827.911	0.0165446
827.989	0.0167067
828.067	0.0165810
828.146	0.0164134
828.224	0.0165331
828.302	0.0163571
828.380	0.0163272
828.458	0.0162370
828.536	0.0162267
828.614	0.0165068
828.692	0.0164301
828.771	0.0163319
828.849	0.0162459
828.927	0.0161723
829.005	0.0162464
829.083	0.0163235
829.161	0.0162984
829.239	0.0162701
829.317	0.0162241
829.396	0.0162838
829.474	0.0163198
829.552	0.0163612
829.630	0.0163088
829.708	0.0163402
829.786	0.0161986
829.864	0.0163065
829.942	0.0164365
830.021	0.0162294
830.099	0.0164750
830.177	0.0163210
830.255	0.0162516
830.333	0.0164441
830.411	0.0164027
830.489	0.0165214
830.567	0.0163142
830.646	0.0164464
830.724	0.0164073
830.802	0.0164916
830.880	0.0165153
830.958	0.0165478
831.036	0.0165528
831.114	0.0164653
831.192	0.0164178
831.271	0.0163035
831.349	0.0163047
831.427	0.0163974
831.505	0.0163174
831.583	0.0163696
831.661	0.0163994
831.739	0.0164137
831.817	0.0162899
831.896	0.0162511
831.974	0.0164083
832.052	0.0164008
832.130	0.0165374
832.208	0.0165757
832.286	0.0165134
832.364	0.0165102
832.442	0.0167625
832.521	0.0165400
832.599	0.0167220
832.677	0.0167286
832.755	0.0166772
832.833	0.0168118
832.911	0.0167537
832.989	0.0166261
833.067	0.0167324
833.146	0.0167326
833.224	0.0167771
833.302	0.0167332
833.380	0.0168572
833.458	0.0168719
833.536	0.0166899
833.614	0.0167949
833.692	0.0167996
833.771	0.0168006
833.849	0.0169347
833.927	0.0169193
834.005	0.0169570
834.083	0.0169463
834.161	0.0169992
834.239	0.0169099
834.317	0.0169694
834.396	0.0169302
834.474	0.0168616
834.552	0.0170470
834.630	0.0170490
834.708	0.0171284
834.786	0.0171403
834.864	0.0171538
834.942	0.0171709
835.021	0.0171470
835.099	0.0171152
835.177	0.0170769
835.255	0.0170507
835.333	0.0171050
835.411	0.0171161
835.489	0.0172251
835.567	0.0171326
835.646	0.0171644
835.724	0.0172614
835.802	0.0171652
835.880	0.0170378
835.958	0.0169977
836.036	0.0171049
836.114	0.0170300
836.192	0.0170070
836.271	0.0171111
836.349	0.0169968
836.427	0.0169299
836.505	0.0168488
836.583	0.0168645
836.661	0.0168604
836.739	0.0167593
836.817	0.0167578
836.896	0.0167640
836.974	0.0166748
837.052	0.0167316
837.130	0.0166714
837.208	0.0167150
837.286	0.0167576
837.364	0.0165981
837.442	0.0166801
837.521	0.0166100
837.599	0.0165306
837.677	0.0164145
837.755	0.0163976
837.833	0.0164999
837.911	0.0163710
837.989	0.0164902
838.067	0.0164669
838.146	0.0162967
838.224	0.0163194
838.302	0.0163182
838.380	0.0163564
838.458	0.0164158
838.536	0.0163438
838.614	0.0164565
838.692	0.0164296
838.771	0.0164159
838.849	0.0164559
838.927	0.0166650
839.005	0.0165289
839.083	0.0165768
839.161	0.0165710
839.239	0.0166660
839.317	0.0167310
839.396	0.0166625
839.474	0.0167074
839.552	0.0165982
839.630	0.0166881
839.708	0.0167068
839.786	0.0165942
839.864	0.0167354
839.942	0.0166471
840.021	0.0166640
840.099	0.0165862
840.177	0.0164343
840.255	0.0165240
840.333	0.0165427
840.411	0.0165678
840.489	0.0165401
840.567	0.0165803
840.646	0.0163911
840.724	0.0165565
840.802	0.0164341
840.880	0.0163392
840.958	0.0163092
841.036	0.0163140
841.114	0.0162090
841.192	0.0162707
841.271	0.0161569
841.349	0.0161251
841.427	0.0162620
841.505	0.0162173
841.583	0.0161320
841.661	0.0161981
841.739	0.0161415
841.817	0.0161724
841.896	0.0161978
841.974	0.0162533
842.052	0.0161288
842.130	0.0162066
842.208	0.0163093
842.286	0.0162061
842.364	0.0161845
842.442	0.0163068
842.521	0.0164042
842.599	0.0164365
842.677	0.0165203
842.755	0.0165257
842.833	0.0165146
842.911	0.0166153
842.989	0.0166109
843.067	0.0165553
843.146	0.0165325
843.224	0.0166061
843.302	0.0166045
843.380	0.0167960
843.458	0.0168281
843.536	0.0167461
843.614	0.0167025
843.692	0.0167548
843.771	0.0166772
843.849	0.0166757
843.927	0.0166561
844.005	0.0166395
844.083	0.0165788
844.161	0.0166526
844.239	0.0166123
844.317	0.0164449
844.396	0.0165170
844.474	0.0165235
844.552	0.0165466
844.630	0.0164798
844.708	0.0165012
844.786	0.0164735
844.864	0.0166020
844.942	0.0164945
845.021	0.0166658
845.099	0.0166158
845.177	0.0165807
845.255	0.0166379
845.333	0.0166304
845.411	0.0167117
845.489	0.0166592
845.567	0.0165723
845.646	0.0166607
845.724	0.0165893
845.802	0.0166675
845.880	0.0166319
845.958	0.0166908
846.036	0.0167038
846.114	0.0167471
846.192	0.0168423
846.271	0.0165880
846.349	0.0166623
846.427	0.0168120
846.505	0.0168539
846.583	0.0168800
846.661	0.0169041
846.739	0.0167848
846.817	0.0168341
846.896	0.0169427
846.974	0.0170755
847.052	0.0170419
847.130	0.0170534
847.208	0.0171014
847.286	0.0171162
847.364	0.0171320
847.442	0.0171213
847.521	0.0172090
847.599	0.0173136
847.677	0.0171481
847.755	0.0172396
847.833	0.0172964
847.911	0.0172303
847.989	0.0172187
848.067	0.0173164
848.146	0.0173322
848.224	0.0172137
848.302	0.0171919
848.380	0.0172603
848.458	0.0173689
848.536	0.0172370
848.614	0.0173427
848.692	0.0171969
848.771	0.0172858
848.849	0.0173602
848.927	0.0172350
849.005	0.0171133
849.083	0.0170844
849.161	0.0170410
849.239	0.0169253
849.317	0.0169079
849.396	0.0169452
849.474	0.0168447
849.552	0.0167608
849.630	0.0166960
849.708	0.0167268
849.786	0.0166470
849.864	0.0166413
849.942	0.0166153
850.021	0.0166730
850.099	0.0166265
850.177	0.0165591
850.255	0.0165515
850.333	0.0166693
850.411	0.0164827
850.489	0.0164561
850.567	0.0166974
850.646	0.0167830
850.724	0.0167191
850.802	0.0170422
850.880	0.0169757
850.958	0.0170005
851.036	0.0170130
851.114	0.0170786
851.192	0.0172555
851.271	0.0171621
851.349	0.0171378
851.427	0.0172937
851.505	0.0172793
851.583	0.0173106
851.661	0.0172843
851.739	0.0171880
851.817	0.0171471
851.896	0.0170451
851.974	0.0170421
852.052	0.0170097
852.130	0.0170007
852.208	0.0168655
852.286	0.0168916
852.364	0.0167757
852.442	0.0166010
852.521	0.0168145
852.599	0.0167302
852.677	0.0166808
852.755	0.0166513
852.833	0.0165581
852.911	0.0165984
852.989	0.0166396
853.067	0.0167188
853.146	0.0166795
853.224	0.0165838
853.302	0.0165546
853.380	0.0165752
853.458	0.0166102
853.536	0.0166740
853.614	0.0166920
853.692	0.0166251
853.771	0.0165949
853.849	0.0165961
853.927	0.0164298
854.005	0.0164983
854.083	0.0164967
854.161	0.0164866
854.239	0.0164946
854.317	0.0164437
854.396	0.0164330
854.474	0.0165167
854.552	0.0165204
854.630	0.0163515
854.708	0.0164178
854.786	0.0164269
854.864	0.0166204
854.942	0.0164359
855.021	0.0165199
855.099	0.0166139
855.177	0.0165347
855.255	0.0165694
855.333	0.0166376
855.411	0.0167227
855.489	0.0166584
855.567	0.0167062
855.646	0.0166431
855.724	0.0167540
855.802	0.0166439
855.880	0.0166332
855.958	0.0166064
856.036	0.0166828
856.114	0.0165009
856.192	0.0164985
856.271	0.0164112
856.349	0.0163992
856.427	0.0163300
856.505	0.0161735
856.583	0.0162383
856.661	0.0162614
856.739	0.0162717
856.817	0.0162480
856.896	0.0164556
856.974	0.0162914
857.052	0.0164017
857.130	0.0165074
857.208	0.0165096
857.286	0.0164274
857.364	0.0165357
857.442	0.0165757
857.521	0.0165543
857.599	0.0165464
857.677	0.0165936
857.755	0.0166403
857.833	0.0167312
857.911	0.0166361
857.989	0.0166061
858.067	0.0167128
858.146	0.0165609
858.224	0.0166187
858.302	0.0164963
858.380	0.0164841
858.458	0.0165952
858.536	0.0165299
858.614	0.0165391
858.692	0.0165445
858.771	0.0165110
858.849	0.0166046
858.927	0.0164989
859.005	0.0165181
859.083	0.0165133
859.161	0.0164107
859.239	0.0163628
859.317	0.0165363
859.396	0.0166016
859.474	0.0164136
859.552	0.0165018
859.630	0.0165375
859.708	0.0164887
859.786	0.0164585
859.864	0.0165179
859.942	0.0165592
860.021	0.0165111
860.099	0.0164491
860.177	0.0165483
860.255	0.0165418
860.333	0.0166463
860.411	0.0165405
860.489	0.0166948
860.567	0.0166767
860.646	0.0165458
860.724	0.0166854
860.802	0.0166577
860.880	0.0165274
860.958	0.0165813
861.036	0.0165715
861.114	0.0166967
861.192	0.0165832
861.271	0.0166359
861.349	0.0165834
861.427	0.0166051
861.505	0.0166209
861.583	0.0166488
861.661	0.0168366
861.739	0.0165688
861.817	0.0167020
861.896	0.0166751
861.974	0.0168365
862.052	0.0169032
862.130	0.0168282
862.208	0.0168565
862.286	0.0168354
862.364	0.0168443
862.442	0.0169264
862.521	0.0168681
862.599	0.0167925
862.677	0.0168228
862.755	0.0167437
862.833	0.0168678
862.911	0.0167924
862.989	0.0168095
863.067	0.0168060
863.146	0.0168375
863.224	0.0167896
863.302	0.0169343
863.380	0.0168246
863.458	0.0166373
863.536	0.0167701
863.614	0.0167388
863.692	0.0165784
863.771	0.0166097
863.849	0.0167071
863.927	0.0167181
864.005	0.0164772
864.083	0.0164356
864.161	0.0165782
864.239	0.0164027
864.317	0.0163937
864.396	0.0163174
864.474	0.0161681
864.552	0.0162044
864.630	0.0162820
864.708	0.0163291
864.786	0.0161813
864.864	0.0161304
864.942	0.0161417
865.021	0.0162189
865.099	0.0162010
865.177	0.0161763
865.255	0.0162469
865.333	0.0162360
865.411	0.0162875
865.489	0.0163226
865.567	0.0163272
865.646	0.0161733
865.724	0.0162757
865.802	0.0164468
865.880	0.0164214
865.958	0.0163058
866.036	0.0163801
866.114	0.0164456
866.192	0.0164578
866.271	0.0165280
866.349	0.0165319
866.427	0.0166562
866.505	0.0166443
866.583	0.0165783
866.661	0.0167637
866.739	0.0168040
866.817	0.0168185
866.896	0.0169721
866.974	0.0167226
867.052	0.0168293
867.130	0.0165845
867.208	0.0167516
867.286	0.0165723
867.364	0.0165346
867.442	0.0165421
867.521	0.0164734
867.599	0.0164404
867.677	0.0162921
867.755	0.0162984
867.833	0.0161549
867.911	0.0162137
867.989	0.0161189
868.067	0.0160449
868.146	0.0161026
868.224	0.0160822
868.302	0.0162537
868.380	0.0162643
868.458	0.0163715
868.536	0.0162740
868.614	0.0165653
868.692	0.0165920
868.771	0.0165611
868.849	0.0168131
868.927	0.0167427
869.005	0.0168140
869.083	0.0169491
869.161	0.0169585
869.239	0.0169621
869.317	0.0169028
869.396	0.0171278
869.474	0.0171714
869.552	0.0169775
869.630	0.0170155
869.708	0.0170347
869.786	0.0169106
869.864	0.0169952
869.942	0.0168860
