06/03/2022	14:55:25	Ver.	4.1	UNKNOWN
Optical Delay	550.020508	Delta X		0.078125	Sweeps	1	Scan Rate	0/0
Coordinates	Axis 1	NaN	Axis 2	NaN	Axis 3	NaN	Axis 4	NaN	Axis 5	NaN	Axis 6	0.000000
TX Power	0.000000	RX Power	0.000000

550.021	0.0156821
550.099	0.0170874
550.177	0.0171137
550.255	0.0171072
550.333	0.0170659
550.411	0.0170199
550.489	0.0168617
550.567	0.0166872
550.646	0.0165787
550.724	0.0164436
550.802	0.0161998
550.880	0.0160993
550.958	0.0158818
551.036	0.0156652
551.114	0.0155251
551.192	0.0154084
551.271	0.0153359
551.349	0.0152922
551.427	0.0152663
551.505	0.0152097
551.583	0.0151288
551.661	0.0152214
551.739	0.0152494
551.817	0.0151961
551.896	0.0153004
551.974	0.0152253
552.052	0.0151128
552.130	0.0151479
552.208	0.0150959
552.286	0.0150047
552.364	0.0149500
552.442	0.0148435
552.521	0.0148052
552.599	0.0147070
552.677	0.0144749
552.755	0.0146359
552.833	0.0144122
552.911	0.0143084
552.989	0.0142488
553.067	0.0143121
553.146	0.0143002
553.224	0.0141644
553.302	0.0141575
553.380	0.0142551
553.458	0.0142532
553.536	0.0142720
553.614	0.0142512
553.692	0.0144869
553.771	0.0146805
553.849	0.0147027
553.927	0.0150373
554.005	0.0153242
554.083	0.0155144
554.161	0.0157977
554.239	0.0160146
554.317	0.0163307
554.396	0.0165937
554.474	0.0168944
554.552	0.0171088
554.630	0.0173540
554.708	0.0173992
554.786	0.0174948
554.864	0.0173787
554.942	0.0173606
555.021	0.0174444
555.099	0.0174239
555.177	0.0172126
555.255	0.0170984
555.333	0.0170089
555.411	0.0168504
555.489	0.0166814
555.567	0.0164552
555.646	0.0163570
555.724	0.0161164
555.802	0.0159906
555.880	0.0158434
555.958	0.0156819
556.036	0.0156236
556.114	0.0155399
556.192	0.0155062
556.271	0.0155314
556.349	0.0154897
556.427	0.0156853
556.505	0.0156496
556.583	0.0156499
556.661	0.0156042
556.739	0.0157307
556.817	0.0157088
556.896	0.0156800
556.974	0.0157362
557.052	0.0156618
557.130	0.0156721
557.208	0.0156397
557.286	0.0154892
557.364	0.0155533
557.442	0.0152448
557.521	0.0152969
557.599	0.0152383
557.677	0.0152380
557.755	0.0150822
557.833	0.0152840
557.911	0.0152203
557.989	0.0154148
558.067	0.0154172
558.146	0.0154288
558.224	0.0157065
558.302	0.0159157
558.380	0.0161414
558.458	0.0163557
558.536	0.0166859
558.614	0.0168900
558.692	0.0169580
558.771	0.0171978
558.849	0.0174287
558.927	0.0176264
559.005	0.0177565
559.083	0.0179442
559.161	0.0181973
559.239	0.0183982
559.317	0.0185599
559.396	0.0187325
559.474	0.0188640
559.552	0.0190577
559.630	0.0192001
559.708	0.0193509
559.786	0.0194842
559.864	0.0196312
559.942	0.0197021
560.021	0.0197680
560.099	0.0198686
560.177	0.0197057
560.255	0.0197712
560.333	0.0197560
560.411	0.0196942
560.489	0.0195599
560.567	0.0193860
560.646	0.0192932
560.724	0.0190944
560.802	0.0190656
560.880	0.0188318
560.958	0.0185287
561.036	0.0184187
561.114	0.0180111
561.192	0.0179695
561.271	0.0175974
561.349	0.0175679
561.427	0.0173447
561.505	0.0172842
561.583	0.0170489
561.661	0.0167773
561.739	0.0166360
561.817	0.0165390
561.896	0.0165431
561.974	0.0162064
562.052	0.0161286
562.130	0.0159947
562.208	0.0159009
562.286	0.0158989
562.364	0.0157426
562.442	0.0157774
562.521	0.0157567
562.599	0.0156239
562.677	0.0154803
562.755	0.0156026
562.833	0.0156297
562.911	0.0156326
562.989	0.0154879
563.067	0.0155164
563.146	0.0155386
563.224	0.0155827
563.302	0.0156103
563.380	0.0155046
563.458	0.0155128
563.536	0.0155634
563.614	0.0156480
563.692	0.0155442
563.771	0.0156559
563.849	0.0157392
563.927	0.0157477
564.005	0.0157995
564.083	0.0160405
564.161	0.0160448
564.239	0.0161231
564.317	0.0160839
564.396	0.0162570
564.474	0.0162740
564.552	0.0161748
564.630	0.0162402
564.708	0.0161354
564.786	0.0162317
564.864	0.0162151
564.942	0.0160349
565.021	0.0162144
565.099	0.0161975
565.177	0.0159930
565.255	0.0159193
565.333	0.0158894
565.411	0.0157846
565.489	0.0157824
565.567	0.0156881
565.646	0.0155145
565.724	0.0154612
565.802	0.0153250
565.880	0.0154055
565.958	0.0151057
566.036	0.0149387
566.114	0.0149647
566.192	0.0146972
566.271	0.0148440
566.349	0.0148578
566.427	0.0147393
566.505	0.0145840
566.583	0.0145426
566.661	0.0146707
566.739	0.0145400
566.817	0.0145721
566.896	0.0143978
566.974	0.0144937
567.052	0.0145792
567.130	0.0143735
567.208	0.0143926
567.286	0.0143646
567.364	0.0144009
567.442	0.0143011
567.521	0.0144310
567.599	0.0143497
567.677	0.0143920
567.755	0.0143804
567.833	0.0144630
567.911	0.0144758
567.989	0.0146429
568.067	0.0145049
568.146	0.0146729
568.224	0.0147005
568.302	0.0147628
568.380	0.0148812
568.458	0.0151286
568.536	0.0151485
568.614	0.0152615
568.692	0.0153284
568.771	0.0154622
568.849	0.0156241
568.927	0.0157956
569.005	0.0158958
569.083	0.0160690
569.161	0.0162083
569.239	0.0162099
569.317	0.0162313
569.396	0.0163433
569.474	0.0163899
569.552	0.0162870
569.630	0.0163441
569.708	0.0162324
569.786	0.0162401
569.864	0.0164780
569.942	0.0164433
570.021	0.0164803
570.099	0.0164153
570.177	0.0162311
570.255	0.0162943
570.333	0.0163464
570.411	0.0161607
570.489	0.0160397
570.567	0.0159043
570.646	0.0158795
570.724	0.0159555
570.802	0.0160813
570.880	0.0160474
570.958	0.0159789
571.036	0.0160229
571.114	0.0159961
571.192	0.0161089
571.271	0.0161816
571.349	0.0162709
571.427	0.0162157
571.505	0.0163544
571.583	0.0164698
571.661	0.0166599
571.739	0.0166128
571.817	0.0166379
571.896	0.0169384
571.974	0.0168299
572.052	0.0169804
572.130	0.0171134
572.208	0.0172840
572.286	0.0171136
572.364	0.0173398
572.442	0.0173135
572.521	0.0171728
572.599	0.0172450
572.677	0.0172862
572.755	0.0173683
572.833	0.0172644
572.911	0.0172921
572.989	0.0171022
573.067	0.0172151
573.146	0.0170083
573.224	0.0169911
573.302	0.0169730
573.380	0.0169937
573.458	0.0166391
573.536	0.0166402
573.614	0.0167381
573.692	0.0166074
573.771	0.0164722
573.849	0.0163147
573.927	0.0164661
574.005	0.0162968
574.083	0.0162463
574.161	0.0161957
574.239	0.0160703
574.317	0.0158769
574.396	0.0159182
574.474	0.0158437
574.552	0.0156796
574.630	0.0156729
574.708	0.0156680
574.786	0.0155589
574.864	0.0155223
574.942	0.0155360
575.021	0.0155363
575.099	0.0154928
575.177	0.0155785
575.255	0.0155721
575.333	0.0155062
575.411	0.0154733
575.489	0.0155267
575.567	0.0156854
575.646	0.0155640
575.724	0.0157700
575.802	0.0158540
575.880	0.0157096
575.958	0.0156322
576.036	0.0159146
576.114	0.0157735
576.192	0.0157624
576.271	0.0159952
576.349	0.0158075
576.427	0.0156993
576.505	0.0157476
576.583	0.0156156
576.661	0.0156714
576.739	0.0157240
576.817	0.0156734
576.896	0.0156618
576.974	0.0156389
577.052	0.0155553
577.130	0.0155021
577.208	0.0155180
577.286	0.0155956
577.364	0.0155521
577.442	0.0156335
577.521	0.0154991
577.599	0.0155473
577.677	0.0155858
577.755	0.0155162
577.833	0.0155787
577.911	0.0157162
577.989	0.0157903
578.067	0.0158308
578.146	0.0156763
578.224	0.0158515
578.302	0.0156989
578.380	0.0156954
578.458	0.0158565
578.536	0.0159297
578.614	0.0159195
578.692	0.0158613
578.771	0.0158099
578.849	0.0157130
578.927	0.0158486
579.005	0.0158014
579.083	0.0157453
579.161	0.0156529
579.239	0.0156569
579.317	0.0156763
579.396	0.0155229
579.474	0.0156468
579.552	0.0156793
579.630	0.0155936
579.708	0.0156516
579.786	0.0158284
579.864	0.0158300
579.942	0.0160883
580.021	0.0159793
580.099	0.0161090
580.177	0.0162914
580.255	0.0162139
580.333	0.0163618
580.411	0.0165293
580.489	0.0166653
580.567	0.0167255
580.646	0.0165080
580.724	0.0166121
580.802	0.0167727
580.880	0.0167786
580.958	0.0168583
581.036	0.0167968
581.114	0.0167839
581.192	0.0168036
581.271	0.0167629
581.349	0.0167352
581.427	0.0166148
581.505	0.0166609
581.583	0.0166853
581.661	0.0166604
581.739	0.0166539
581.817	0.0166521
581.896	0.0165810
581.974	0.0167324
582.052	0.0168065
582.130	0.0167094
582.208	0.0168771
582.286	0.0168590
582.364	0.0170868
582.442	0.0170541
582.521	0.0171438
582.599	0.0170834
582.677	0.0171711
582.755	0.0173705
582.833	0.0172707
582.911	0.0172398
582.989	0.0173545
583.067	0.0173695
583.146	0.0175167
583.224	0.0174728
583.302	0.0174550
583.380	0.0173864
583.458	0.0174725
583.536	0.0172541
583.614	0.0173781
583.692	0.0173483
583.771	0.0171526
583.849	0.0171883
583.927	0.0171476
584.005	0.0170863
584.083	0.0169891
584.161	0.0170821
584.239	0.0170432
584.317	0.0169331
584.396	0.0169186
584.474	0.0168517
584.552	0.0168080
584.630	0.0168208
584.708	0.0167685
584.786	0.0167265
584.864	0.0167619
584.942	0.0167523
585.021	0.0168012
585.099	0.0167511
585.177	0.0165619
585.255	0.0165837
585.333	0.0167316
585.411	0.0167624
585.489	0.0166915
585.567	0.0165183
585.646	0.0165468
585.724	0.0167238
585.802	0.0165758
585.880	0.0166602
585.958	0.0167680
586.036	0.0166349
586.114	0.0165917
586.192	0.0167527
586.271	0.0165088
586.349	0.0166390
586.427	0.0168034
586.505	0.0165790
586.583	0.0165410
586.661	0.0164965
586.739	0.0166735
586.817	0.0166655
586.896	0.0165051
586.974	0.0163567
587.052	0.0164234
587.130	0.0163363
587.208	0.0162400
587.286	0.0161314
587.364	0.0159313
587.442	0.0159522
587.521	0.0158914
587.599	0.0157132
587.677	0.0157180
587.755	0.0156016
587.833	0.0155489
587.911	0.0155898
587.989	0.0154665
588.067	0.0155873
588.146	0.0155575
588.224	0.0154411
588.302	0.0154154
588.380	0.0154592
588.458	0.0154660
588.536	0.0154843
588.614	0.0154766
588.692	0.0155033
588.771	0.0155833
588.849	0.0154403
588.927	0.0154993
589.005	0.0154183
589.083	0.0154834
589.161	0.0154718
589.239	0.0154636
589.317	0.0155785
589.396	0.0156210
589.474	0.0156007
589.552	0.0156551
589.630	0.0155231
589.708	0.0154709
589.786	0.0154330
589.864	0.0155403
589.942	0.0154668
590.021	0.0154736
590.099	0.0156657
590.177	0.0155654
590.255	0.0155643
590.333	0.0156382
590.411	0.0156453
590.489	0.0156331
590.567	0.0155692
590.646	0.0156820
590.724	0.0158056
590.802	0.0157242
590.880	0.0158217
590.958	0.0158772
591.036	0.0157918
591.114	0.0160482
591.192	0.0160183
591.271	0.0159918
591.349	0.0160672
591.427	0.0160757
591.505	0.0162104
591.583	0.0163738
591.661	0.0162885
591.739	0.0163472
591.817	0.0165683
591.896	0.0165407
591.974	0.0165577
592.052	0.0166571
592.130	0.0167843
592.208	0.0166708
592.286	0.0167585
592.364	0.0168263
592.442	0.0166358
592.521	0.0167558
592.599	0.0164836
592.677	0.0165147
592.755	0.0163909
592.833	0.0162768
592.911	0.0161813
592.989	0.0163000
593.067	0.0161676
593.146	0.0160645
593.224	0.0160448
593.302	0.0160471
593.380	0.0160445
593.458	0.0160591
593.536	0.0161527
593.614	0.0161758
593.692	0.0161571
593.771	0.0161852
593.849	0.0160788
593.927	0.0162155
594.005	0.0161018
594.083	0.0162083
594.161	0.0164441
594.239	0.0164801
594.317	0.0165774
594.396	0.0165692
594.474	0.0167136
594.552	0.0168222
594.630	0.0169482
594.708	0.0169681
594.786	0.0169228
594.864	0.0170094
594.942	0.0172488
595.021	0.0171141
595.099	0.0170148
595.177	0.0168851
595.255	0.0169391
595.333	0.0170065
595.411	0.0170329
595.489	0.0169740
595.567	0.0169003
595.646	0.0167350
595.724	0.0168111
595.802	0.0168273
595.880	0.0166988
595.958	0.0165996
596.036	0.0165620
596.114	0.0164571
596.192	0.0165855
596.271	0.0163993
596.349	0.0163551
596.427	0.0163198
596.505	0.0161226
596.583	0.0161858
596.661	0.0159867
596.739	0.0160779
596.817	0.0158739
596.896	0.0159388
596.974	0.0159851
597.052	0.0159090
597.130	0.0159126
597.208	0.0157972
597.286	0.0157121
597.364	0.0158711
597.442	0.0159212
597.521	0.0158106
597.599	0.0157339
597.677	0.0156506
597.755	0.0157977
597.833	0.0157917
597.911	0.0157560
597.989	0.0158036
598.067	0.0157874
598.146	0.0156599
598.224	0.0158533
598.302	0.0155450
598.380	0.0155700
598.458	0.0156787
598.536	0.0157751
598.614	0.0157673
598.692	0.0158976
598.771	0.0159266
598.849	0.0159914
598.927	0.0161646
599.005	0.0161827
599.083	0.0162974
599.161	0.0163799
599.239	0.0164122
599.317	0.0164632
599.396	0.0164121
599.474	0.0164827
599.552	0.0164686
599.630	0.0166103
599.708	0.0165854
599.786	0.0164966
599.864	0.0164510
599.942	0.0166714
600.021	0.0168321
600.099	0.0165146
600.177	0.0164953
600.255	0.0166787
600.333	0.0164695
600.411	0.0165987
600.489	0.0165714
600.567	0.0163670
600.646	0.0164516
600.724	0.0164439
600.802	0.0164761
600.880	0.0162183
600.958	0.0162049
601.036	0.0163342
601.114	0.0161271
601.192	0.0159536
601.271	0.0160057
601.349	0.0161770
601.427	0.0159647
601.505	0.0159354
601.583	0.0160297
601.661	0.0161594
601.739	0.0161749
601.817	0.0160640
601.896	0.0160013
601.974	0.0162018
602.052	0.0161984
602.130	0.0161214
602.208	0.0161730
602.286	0.0161845
602.364	0.0162931
602.442	0.0163824
602.521	0.0163711
602.599	0.0162898
602.677	0.0164592
602.755	0.0165454
602.833	0.0166411
602.911	0.0164873
602.989	0.0165691
603.067	0.0166096
603.146	0.0167525
603.224	0.0165076
603.302	0.0164663
603.380	0.0165833
603.458	0.0165247
603.536	0.0164133
603.614	0.0164490
603.692	0.0163094
603.771	0.0163745
603.849	0.0162885
603.927	0.0160946
604.005	0.0161793
604.083	0.0161505
604.161	0.0161160
604.239	0.0161823
604.317	0.0160706
604.396	0.0159856
604.474	0.0159348
604.552	0.0159086
604.630	0.0159364
604.708	0.0159923
604.786	0.0159173
604.864	0.0158943
604.942	0.0159431
605.021	0.0159311
605.099	0.0158340
605.177	0.0157733
605.255	0.0157665
605.333	0.0158861
605.411	0.0158910
605.489	0.0157066
605.567	0.0157848
605.646	0.0156973
605.724	0.0156083
605.802	0.0154849
605.880	0.0154945
605.958	0.0156137
606.036	0.0155402
606.114	0.0155001
606.192	0.0155334
606.271	0.0156580
606.349	0.0156445
606.427	0.0154714
606.505	0.0153622
606.583	0.0154118
606.661	0.0154092
606.739	0.0153897
606.817	0.0154787
606.896	0.0154013
606.974	0.0154591
607.052	0.0154536
607.130	0.0155041
607.208	0.0154118
607.286	0.0156561
607.364	0.0156784
607.442	0.0157002
607.521	0.0157189
607.599	0.0158419
607.677	0.0159274
607.755	0.0158462
607.833	0.0160281
607.911	0.0159935
607.989	0.0160870
608.067	0.0159415
608.146	0.0161016
608.224	0.0161799
608.302	0.0160789
608.380	0.0161153
608.458	0.0162527
608.536	0.0160332
608.614	0.0160262
608.692	0.0161517
608.771	0.0161959
608.849	0.0162629
608.927	0.0162264
609.005	0.0162232
609.083	0.0161362
609.161	0.0161717
609.239	0.0161748
609.317	0.0163672
609.396	0.0164635
609.474	0.0163813
609.552	0.0162972
609.630	0.0163714
609.708	0.0164176
609.786	0.0164713
609.864	0.0164385
609.942	0.0163276
610.021	0.0162311
610.099	0.0164029
610.177	0.0163810
610.255	0.0163598
610.333	0.0163748
610.411	0.0163581
610.489	0.0163480
610.567	0.0163934
610.646	0.0163627
610.724	0.0162619
610.802	0.0163393
610.880	0.0163588
610.958	0.0162295
611.036	0.0163267
611.114	0.0163614
611.192	0.0164639
611.271	0.0163807
611.349	0.0164619
611.427	0.0164828
611.505	0.0164324
611.583	0.0163611
611.661	0.0164336
611.739	0.0165933
611.817	0.0164803
611.896	0.0165363
611.974	0.0165241
612.052	0.0164237
612.130	0.0164969
612.208	0.0165222
612.286	0.0163879
612.364	0.0164471
612.442	0.0165736
612.521	0.0165292
612.599	0.0166576
612.677	0.0165049
612.755	0.0165789
612.833	0.0165926
612.911	0.0164939
612.989	0.0166164
613.067	0.0166330
613.146	0.0164169
613.224	0.0165778
613.302	0.0164997
613.380	0.0166493
613.458	0.0165395
613.536	0.0165767
613.614	0.0165001
613.692	0.0166791
613.771	0.0165386
613.849	0.0165900
613.927	0.0165678
614.005	0.0167033
614.083	0.0165521
614.161	0.0163574
614.239	0.0164759
614.317	0.0165228
614.396	0.0164265
614.474	0.0163988
614.552	0.0164903
614.630	0.0163216
614.708	0.0163515
614.786	0.0163161
614.864	0.0163061
614.942	0.0162008
615.021	0.0163010
615.099	0.0163383
615.177	0.0163742
615.255	0.0162706
615.333	0.0162511
615.411	0.0163536
615.489	0.0163819
615.567	0.0164765
615.646	0.0162844
615.724	0.0163993
615.802	0.0164729
615.880	0.0163847
615.958	0.0163409
616.036	0.0163528
616.114	0.0164338
616.192	0.0164594
616.271	0.0163993
616.349	0.0163023
616.427	0.0162643
616.505	0.0164063
616.583	0.0163509
616.661	0.0164129
616.739	0.0163944
616.817	0.0163731
616.896	0.0162436
616.974	0.0162724
617.052	0.0162309
617.130	0.0161620
617.208	0.0162138
617.286	0.0162969
617.364	0.0160958
617.442	0.0160780
617.521	0.0160160
617.599	0.0161591
617.677	0.0160201
617.755	0.0160512
617.833	0.0159066
617.911	0.0158760
617.989	0.0159713
618.067	0.0157771
618.146	0.0157200
618.224	0.0156693
618.302	0.0157299
618.380	0.0157941
618.458	0.0158201
618.536	0.0157233
618.614	0.0157532
618.692	0.0158174
618.771	0.0160307
618.849	0.0159968
618.927	0.0160259
619.005	0.0159545
619.083	0.0160794
619.161	0.0160813
619.239	0.0160163
619.317	0.0162386
619.396	0.0163239
619.474	0.0163354
619.552	0.0162966
619.630	0.0161997
619.708	0.0164012
619.786	0.0164023
619.864	0.0163396
619.942	0.0163961
620.021	0.0165747
620.099	0.0164220
620.177	0.0163327
620.255	0.0164279
620.333	0.0163371
620.411	0.0163146
620.489	0.0163183
620.567	0.0163244
620.646	0.0162718
620.724	0.0164259
620.802	0.0164237
620.880	0.0164739
620.958	0.0163934
621.036	0.0163935
621.114	0.0164174
621.192	0.0164043
621.271	0.0166263
621.349	0.0164143
621.427	0.0165686
621.505	0.0166822
621.583	0.0167496
621.661	0.0167009
621.739	0.0166465
621.817	0.0165515
621.896	0.0167198
621.974	0.0165752
622.052	0.0165252
622.130	0.0166886
622.208	0.0167088
622.286	0.0165736
622.364	0.0165440
622.442	0.0165552
622.521	0.0164118
622.599	0.0164818
622.677	0.0164468
622.755	0.0164327
622.833	0.0163076
622.911	0.0163632
622.989	0.0163920
623.067	0.0162775
623.146	0.0164429
623.224	0.0162822
623.302	0.0161962
623.380	0.0162816
623.458	0.0162897
623.536	0.0161788
623.614	0.0162065
623.692	0.0161584
623.771	0.0161558
623.849	0.0160175
623.927	0.0159885
624.005	0.0158398
624.083	0.0159664
624.161	0.0159658
624.239	0.0157047
624.317	0.0158006
624.396	0.0155905
624.474	0.0153991
624.552	0.0152721
624.630	0.0152649
624.708	0.0151420
624.786	0.0151480
624.864	0.0150002
624.942	0.0148520
625.021	0.0146616
625.099	0.0147402
625.177	0.0147675
625.255	0.0146789
625.333	0.0145883
625.411	0.0147581
625.489	0.0147722
625.567	0.0147562
625.646	0.0148892
625.724	0.0148342
625.802	0.0149258
625.880	0.0149373
625.958	0.0151886
626.036	0.0155054
626.114	0.0155176
626.192	0.0156586
626.271	0.0158334
626.349	0.0159844
626.427	0.0163541
626.505	0.0164806
626.583	0.0166312
626.661	0.0167107
626.739	0.0167847
626.817	0.0169715
626.896	0.0168980
626.974	0.0169630
627.052	0.0170063
627.130	0.0170592
627.208	0.0169531
627.286	0.0169630
627.364	0.0169337
627.442	0.0167592
627.521	0.0165723
627.599	0.0164729
627.677	0.0163852
627.755	0.0161261
627.833	0.0161751
627.911	0.0161189
627.989	0.0160602
628.067	0.0160741
628.146	0.0159445
628.224	0.0158019
628.302	0.0158114
628.380	0.0160184
628.458	0.0158039
628.536	0.0157788
628.614	0.0157937
628.692	0.0156829
628.771	0.0157431
628.849	0.0157531
628.927	0.0158351
629.005	0.0158625
629.083	0.0156960
629.161	0.0158686
629.239	0.0157544
629.317	0.0157634
629.396	0.0157063
629.474	0.0155260
629.552	0.0156593
629.630	0.0156613
629.708	0.0157330
629.786	0.0157269
629.864	0.0156299
629.942	0.0157817
630.021	0.0158277
630.099	0.0158354
630.177	0.0159811
630.255	0.0159271
630.333	0.0158722
630.411	0.0160628
630.489	0.0160423
630.567	0.0162205
630.646	0.0162331
630.724	0.0162835
630.802	0.0162643
630.880	0.0165163
630.958	0.0166616
631.036	0.0167271
631.114	0.0167415
631.192	0.0168297
631.271	0.0168401
631.349	0.0170578
631.427	0.0169270
631.505	0.0170426
631.583	0.0173070
631.661	0.0170975
631.739	0.0170492
631.817	0.0170694
631.896	0.0170695
631.974	0.0169324
632.052	0.0168888
632.130	0.0167627
632.208	0.0167358
632.286	0.0167355
632.364	0.0165620
632.442	0.0165157
632.521	0.0163268
632.599	0.0164555
632.677	0.0163898
632.755	0.0165020
632.833	0.0163529
632.911	0.0163464
632.989	0.0161951
633.067	0.0162157
633.146	0.0164687
633.224	0.0163369
633.302	0.0163809
633.380	0.0164021
633.458	0.0162893
633.536	0.0162829
633.614	0.0163448
633.692	0.0162045
633.771	0.0162511
633.849	0.0163543
633.927	0.0162781
634.005	0.0163685
634.083	0.0163986
634.161	0.0163363
634.239	0.0162663
634.317	0.0163981
634.396	0.0163728
634.474	0.0163564
634.552	0.0164803
634.630	0.0163220
634.708	0.0164400
634.786	0.0164314
634.864	0.0163162
634.942	0.0164655
635.021	0.0164468
635.099	0.0163404
635.177	0.0163255
635.255	0.0163320
635.333	0.0161849
635.411	0.0162866
635.489	0.0161266
635.567	0.0159477
635.646	0.0160216
635.724	0.0159055
635.802	0.0157039
635.880	0.0157715
635.958	0.0156882
636.036	0.0156252
636.114	0.0156977
636.192	0.0157288
636.271	0.0156700
636.349	0.0156757
636.427	0.0157610
636.505	0.0156619
636.583	0.0157979
636.661	0.0159916
636.739	0.0160326
636.817	0.0160770
636.896	0.0160880
636.974	0.0162870
637.052	0.0164318
637.130	0.0164578
637.208	0.0164819
637.286	0.0166640
637.364	0.0166253
637.442	0.0169527
637.521	0.0169048
637.599	0.0168325
637.677	0.0170627
637.755	0.0170928
637.833	0.0171837
637.911	0.0170730
637.989	0.0172063
638.067	0.0172228
638.146	0.0173273
638.224	0.0172566
638.302	0.0171812
638.380	0.0174225
638.458	0.0174410
638.536	0.0173261
638.614	0.0171647
638.692	0.0172126
638.771	0.0171169
638.849	0.0170792
638.927	0.0170918
639.005	0.0169699
639.083	0.0169922
639.161	0.0168193
639.239	0.0168432
639.317	0.0165688
639.396	0.0167770
639.474	0.0164752
639.552	0.0164306
639.630	0.0163428
639.708	0.0162221
639.786	0.0161812
639.864	0.0161790
639.942	0.0160707
640.021	0.0160362
640.099	0.0158964
640.177	0.0157041
640.255	0.0158033
640.333	0.0155407
640.411	0.0156177
640.489	0.0155402
640.567	0.0154534
640.646	0.0154890
640.724	0.0154848
640.802	0.0153042
640.880	0.0154073
640.958	0.0153815
641.036	0.0152589
641.114	0.0153094
641.192	0.0154182
641.271	0.0153600
641.349	0.0153832
641.427	0.0152975
641.505	0.0153271
641.583	0.0154127
641.661	0.0154712
641.739	0.0154700
641.817	0.0155507
641.896	0.0155661
641.974	0.0154887
642.052	0.0154980
642.130	0.0155798
642.208	0.0155596
642.286	0.0154726
642.364	0.0154922
642.442	0.0155552
642.521	0.0155617
642.599	0.0155366
642.677	0.0155163
642.755	0.0155084
642.833	0.0155221
642.911	0.0154678
642.989	0.0155364
643.067	0.0156128
643.146	0.0155436
643.224	0.0154899
643.302	0.0156125
643.380	0.0157309
643.458	0.0156557
643.536	0.0156194
643.614	0.0156406
643.692	0.0156221
643.771	0.0156467
643.849	0.0155937
643.927	0.0156007
644.005	0.0155920
644.083	0.0156095
644.161	0.0157527
644.239	0.0158231
644.317	0.0156719
644.396	0.0158807
644.474	0.0157758
644.552	0.0158089
644.630	0.0159274
644.708	0.0159969
644.786	0.0159628
644.864	0.0159417
644.942	0.0160075
645.021	0.0160542
645.099	0.0159905
645.177	0.0161328
645.255	0.0160757
645.333	0.0160752
645.411	0.0160835
645.489	0.0161144
645.567	0.0161287
645.646	0.0163295
645.724	0.0161100
645.802	0.0163659
645.880	0.0164048
645.958	0.0163274
646.036	0.0163046
646.114	0.0162404
646.192	0.0164269
646.271	0.0165152
646.349	0.0164588
646.427	0.0165453
646.505	0.0163692
646.583	0.0164716
646.661	0.0165935
646.739	0.0165213
646.817	0.0165652
646.896	0.0164884
646.974	0.0164052
647.052	0.0163418
647.130	0.0163334
647.208	0.0162910
647.286	0.0161813
647.364	0.0160758
647.442	0.0159393
647.521	0.0160393
647.599	0.0159174
647.677	0.0157800
647.755	0.0158046
647.833	0.0157909
647.911	0.0156627
647.989	0.0157606
648.067	0.0157126
648.146	0.0157501
648.224	0.0158424
648.302	0.0158443
648.380	0.0160477
648.458	0.0161143
648.536	0.0161523
648.614	0.0162379
648.692	0.0162465
648.771	0.0165325
648.849	0.0163277
648.927	0.0163362
649.005	0.0164027
649.083	0.0163725
649.161	0.0163842
649.239	0.0161687
649.317	0.0162778
649.396	0.0160837
649.474	0.0158985
649.552	0.0159294
649.630	0.0159765
649.708	0.0157182
649.786	0.0155579
649.864	0.0157004
649.942	0.0157232
650.021	0.0155388
650.099	0.0156297
650.177	0.0155986
650.255	0.0156585
650.333	0.0157346
650.411	0.0157170
650.489	0.0157111
650.567	0.0157313
650.646	0.0158074
650.724	0.0159835
650.802	0.0159357
650.880	0.0159387
650.958	0.0160011
651.036	0.0162172
651.114	0.0162078
651.192	0.0161127
651.271	0.0164294
651.349	0.0165604
651.427	0.0162259
651.505	0.0163589
651.583	0.0164762
651.661	0.0164136
651.739	0.0162901
651.817	0.0163535
651.896	0.0164771
651.974	0.0163309
652.052	0.0162374
652.130	0.0163155
652.208	0.0162788
652.286	0.0160987
652.364	0.0162042
652.442	0.0162086
652.521	0.0161259
652.599	0.0161929
652.677	0.0161216
652.755	0.0162085
652.833	0.0163617
652.911	0.0164379
652.989	0.0163086
653.067	0.0163931
653.146	0.0165622
653.224	0.0166163
653.302	0.0166483
653.380	0.0165762
653.458	0.0166713
653.536	0.0167944
653.614	0.0168037
653.692	0.0166272
653.771	0.0167022
653.849	0.0167404
653.927	0.0166273
654.005	0.0163771
654.083	0.0165357
654.161	0.0165877
654.239	0.0163022
654.317	0.0163578
654.396	0.0163033
654.474	0.0163267
654.552	0.0163074
654.630	0.0162482
654.708	0.0162975
654.786	0.0163806
654.864	0.0164568
654.942	0.0163828
655.021	0.0164728
655.099	0.0165085
655.177	0.0166566
655.255	0.0165910
655.333	0.0165492
655.411	0.0166563
655.489	0.0167152
655.567	0.0166848
655.646	0.0166718
655.724	0.0168066
655.802	0.0166895
655.880	0.0167799
655.958	0.0169116
656.036	0.0168422
656.114	0.0167527
656.192	0.0167492
656.271	0.0168768
656.349	0.0167490
656.427	0.0168816
656.505	0.0169386
656.583	0.0169260
656.661	0.0168492
656.739	0.0170366
656.817	0.0170601
656.896	0.0171229
656.974	0.0171536
657.052	0.0169575
657.130	0.0170969
657.208	0.0170633
657.286	0.0170548
657.364	0.0169654
657.442	0.0168795
657.521	0.0170116
657.599	0.0169003
657.677	0.0167950
657.755	0.0166365
657.833	0.0166919
657.911	0.0166277
657.989	0.0163888
658.067	0.0166932
658.146	0.0166708
658.224	0.0165904
658.302	0.0165676
658.380	0.0164795
658.458	0.0165184
658.536	0.0165897
658.614	0.0166422
658.692	0.0166514
658.771	0.0166905
658.849	0.0165278
658.927	0.0166458
659.005	0.0166698
659.083	0.0165638
659.161	0.0164829
659.239	0.0165183
659.317	0.0164455
659.396	0.0163279
659.474	0.0163445
659.552	0.0161867
659.630	0.0161846
659.708	0.0159770
659.786	0.0158624
659.864	0.0159406
659.942	0.0157983
660.021	0.0157191
660.099	0.0155839
660.177	0.0155177
660.255	0.0155646
660.333	0.0155397
660.411	0.0156052
660.489	0.0156638
660.567	0.0156921
660.646	0.0156616
660.724	0.0157260
660.802	0.0160866
660.880	0.0160893
660.958	0.0163332
661.036	0.0165756
661.114	0.0165302
661.192	0.0165778
661.271	0.0166819
661.349	0.0166409
661.427	0.0166786
661.505	0.0169501
661.583	0.0167468
661.661	0.0167292
661.739	0.0167337
661.817	0.0165685
661.896	0.0166947
661.974	0.0165639
662.052	0.0164670
662.130	0.0164294
662.208	0.0163937
662.286	0.0164388
662.364	0.0163235
662.442	0.0161901
662.521	0.0162601
662.599	0.0161407
662.677	0.0159669
662.755	0.0159982
662.833	0.0160835
662.911	0.0159290
662.989	0.0158893
663.067	0.0158690
663.146	0.0158239
663.224	0.0158820
663.302	0.0157879
663.380	0.0157130
663.458	0.0157549
663.536	0.0157310
663.614	0.0156742
663.692	0.0155943
663.771	0.0156843
663.849	0.0155611
663.927	0.0154566
664.005	0.0154818
664.083	0.0153828
664.161	0.0153291
664.239	0.0152744
664.317	0.0153020
664.396	0.0153095
664.474	0.0152188
664.552	0.0151196
664.630	0.0152686
664.708	0.0153182
664.786	0.0152212
664.864	0.0152880
664.942	0.0152591
665.021	0.0152972
665.099	0.0154181
665.177	0.0153732
665.255	0.0154102
665.333	0.0153455
665.411	0.0154468
665.489	0.0153802
665.567	0.0153687
665.646	0.0155603
665.724	0.0154319
665.802	0.0153316
665.880	0.0153469
665.958	0.0154725
666.036	0.0154375
666.114	0.0154106
666.192	0.0154721
666.271	0.0153442
666.349	0.0153822
666.427	0.0156409
666.505	0.0155382
666.583	0.0154632
666.661	0.0154996
666.739	0.0156323
666.817	0.0157382
666.896	0.0157052
666.974	0.0157292
667.052	0.0157714
667.130	0.0159027
667.208	0.0158488
667.286	0.0157755
667.364	0.0159129
667.442	0.0158950
667.521	0.0159353
667.599	0.0160320
667.677	0.0161151
667.755	0.0160063
667.833	0.0158388
667.911	0.0158612
667.989	0.0159728
668.067	0.0159417
668.146	0.0159139
668.224	0.0158427
668.302	0.0160038
668.380	0.0161042
668.458	0.0163078
668.536	0.0164230
668.614	0.0163544
668.692	0.0164691
668.771	0.0163113
668.849	0.0165736
668.927	0.0164919
669.005	0.0165328
669.083	0.0165421
669.161	0.0166930
669.239	0.0165726
669.317	0.0164850
669.396	0.0165136
669.474	0.0164277
669.552	0.0163643
669.630	0.0162659
669.708	0.0162877
669.786	0.0163376
669.864	0.0161555
669.942	0.0161572
670.021	0.0160582
670.099	0.0158080
670.177	0.0159093
670.255	0.0159580
670.333	0.0159058
670.411	0.0157732
670.489	0.0159190
670.567	0.0156973
670.646	0.0158878
670.724	0.0157226
670.802	0.0156898
670.880	0.0158019
670.958	0.0156938
671.036	0.0159201
671.114	0.0159933
671.192	0.0159522
671.271	0.0159222
671.349	0.0159775
671.427	0.0160847
671.505	0.0162842
671.583	0.0164120
671.661	0.0164859
671.739	0.0164663
671.817	0.0163479
671.896	0.0163359
671.974	0.0163343
672.052	0.0163456
672.130	0.0162851
672.208	0.0163213
672.286	0.0162157
672.364	0.0160952
672.442	0.0161373
672.521	0.0161124
672.599	0.0160542
672.677	0.0158865
672.755	0.0158008
672.833	0.0159251
672.911	0.0159506
672.989	0.0160188
673.067	0.0159438
673.146	0.0159458
673.224	0.0160812
673.302	0.0160234
673.380	0.0161159
673.458	0.0161241
673.536	0.0163810
673.614	0.0164855
673.692	0.0164478
673.771	0.0164850
673.849	0.0167646
673.927	0.0167606
674.005	0.0167113
674.083	0.0167185
674.161	0.0167764
674.239	0.0166811
674.317	0.0165127
674.396	0.0163921
674.474	0.0163887
674.552	0.0163036
674.630	0.0160720
674.708	0.0159646
674.786	0.0157595
674.864	0.0156738
674.942	0.0155623
675.021	0.0155411
675.099	0.0153157
675.177	0.0154358
675.255	0.0153127
675.333	0.0152234
675.411	0.0154076
675.489	0.0155260
675.567	0.0153577
675.646	0.0155055
675.724	0.0157417
675.802	0.0159113
675.880	0.0158778
675.958	0.0160329
676.036	0.0160159
676.114	0.0162222
676.192	0.0162550
676.271	0.0161638
676.349	0.0161880
676.427	0.0162337
676.505	0.0162428
676.583	0.0163249
676.661	0.0163001
676.739	0.0163881
676.817	0.0163367
676.896	0.0162762
676.974	0.0162261
677.052	0.0164124
677.130	0.0164500
677.208	0.0163525
677.286	0.0163423
677.364	0.0162807
677.442	0.0163577
677.521	0.0164119
677.599	0.0163214
677.677	0.0163499
677.755	0.0161735
677.833	0.0164492
677.911	0.0164386
677.989	0.0163727
678.067	0.0163765
678.146	0.0164445
678.224	0.0163953
678.302	0.0163961
678.380	0.0164178
678.458	0.0162343
678.536	0.0162615
678.614	0.0163472
678.692	0.0163247
678.771	0.0161476
678.849	0.0163436
678.927	0.0162068
679.005	0.0162650
679.083	0.0163154
679.161	0.0163300
679.239	0.0164040
679.317	0.0165005
679.396	0.0164474
679.474	0.0165347
679.552	0.0166850
679.630	0.0167463
679.708	0.0167192
679.786	0.0168222
679.864	0.0168361
679.942	0.0169563
680.021	0.0167630
680.099	0.0168625
680.177	0.0168073
680.255	0.0168806
680.333	0.0166684
680.411	0.0166332
680.489	0.0167371
680.567	0.0165816
680.646	0.0164959
680.724	0.0166560
680.802	0.0164078
680.880	0.0164716
680.958	0.0163785
681.036	0.0162830
681.114	0.0163728
681.192	0.0163451
681.271	0.0164207
681.349	0.0162844
681.427	0.0163752
681.505	0.0164591
681.583	0.0163738
681.661	0.0165022
681.739	0.0163093
681.817	0.0164405
681.896	0.0164965
681.974	0.0164427
682.052	0.0165051
682.130	0.0163997
682.208	0.0164595
682.286	0.0165187
682.364	0.0163792
682.442	0.0165303
682.521	0.0164937
682.599	0.0164020
682.677	0.0163300
682.755	0.0164622
682.833	0.0164957
682.911	0.0164957
682.989	0.0164530
683.067	0.0162713
683.146	0.0164590
683.224	0.0164651
683.302	0.0163471
683.380	0.0163145
683.458	0.0163734
683.536	0.0162737
683.614	0.0164188
683.692	0.0161417
683.771	0.0162690
683.849	0.0162607
683.927	0.0162682
684.005	0.0161229
684.083	0.0162363
684.161	0.0161774
684.239	0.0161529
684.317	0.0160742
684.396	0.0160998
684.474	0.0160927
684.552	0.0161549
684.630	0.0162403
684.708	0.0161617
684.786	0.0161578
684.864	0.0160710
684.942	0.0161989
685.021	0.0161034
685.099	0.0160210
685.177	0.0159747
685.255	0.0158735
685.333	0.0160485
685.411	0.0160999
685.489	0.0159862
685.567	0.0159686
685.646	0.0159243
685.724	0.0159737
685.802	0.0161562
685.880	0.0159695
685.958	0.0159373
686.036	0.0158730
686.114	0.0158008
686.192	0.0160769
686.271	0.0157925
686.349	0.0159646
686.427	0.0159060
686.505	0.0157816
686.583	0.0158432
686.661	0.0158345
686.739	0.0158777
686.817	0.0158979
686.896	0.0157805
686.974	0.0157371
687.052	0.0156747
687.130	0.0156870
687.208	0.0156831
687.286	0.0156727
687.364	0.0157032
687.442	0.0156602
687.521	0.0157884
687.599	0.0157491
687.677	0.0158235
687.755	0.0157265
687.833	0.0157301
687.911	0.0157537
687.989	0.0156848
688.067	0.0157423
688.146	0.0156914
688.224	0.0157449
688.302	0.0157548
688.380	0.0156996
688.458	0.0158540
688.536	0.0157892
688.614	0.0157368
688.692	0.0158476
688.771	0.0159200
688.849	0.0160090
688.927	0.0160386
689.005	0.0160486
689.083	0.0159956
689.161	0.0160536
689.239	0.0159846
689.317	0.0160294
689.396	0.0161729
689.474	0.0161192
689.552	0.0161273
689.630	0.0159419
689.708	0.0159309
689.786	0.0159908
689.864	0.0158669
689.942	0.0158689
690.021	0.0157614
690.099	0.0157549
690.177	0.0156176
690.255	0.0156043
690.333	0.0156882
690.411	0.0158537
690.489	0.0156979
690.567	0.0157095
690.646	0.0157448
690.724	0.0156481
690.802	0.0156190
690.880	0.0157897
690.958	0.0158253
691.036	0.0157745
691.114	0.0156970
691.192	0.0156618
691.271	0.0157330
691.349	0.0155429
691.427	0.0157236
691.505	0.0158147
691.583	0.0156871
691.661	0.0157714
691.739	0.0159064
691.817	0.0157678
691.896	0.0157157
691.974	0.0159283
692.052	0.0159341
692.130	0.0160284
692.208	0.0161027
692.286	0.0161115
692.364	0.0162498
692.442	0.0160710
692.521	0.0163134
692.599	0.0162442
692.677	0.0163418
692.755	0.0163090
692.833	0.0162805
692.911	0.0162518
692.989	0.0163300
693.067	0.0162637
693.146	0.0161913
693.224	0.0163265
693.302	0.0163501
693.380	0.0163302
693.458	0.0162582
693.536	0.0162798
693.614	0.0164005
693.692	0.0164733
693.771	0.0163306
693.849	0.0163879
693.927	0.0164912
694.005	0.0163531
694.083	0.0165143
694.161	0.0166424
694.239	0.0165470
694.317	0.0167064
694.396	0.0166764
694.474	0.0167486
694.552	0.0165940
694.630	0.0167062
694.708	0.0165813
694.786	0.0164685
694.864	0.0165456
694.942	0.0166660
695.021	0.0165043
695.099	0.0165026
695.177	0.0163595
695.255	0.0164531
695.333	0.0163560
695.411	0.0163441
695.489	0.0165113
695.567	0.0164716
695.646	0.0164809
695.724	0.0164346
695.802	0.0163744
695.880	0.0163701
695.958	0.0164507
696.036	0.0165652
696.114	0.0165869
696.192	0.0167261
696.271	0.0166700
696.349	0.0168919
696.427	0.0169032
696.505	0.0168600
696.583	0.0168745
696.661	0.0169306
696.739	0.0170992
696.817	0.0172182
696.896	0.0171378
696.974	0.0171102
697.052	0.0172026
697.130	0.0171504
697.208	0.0172210
697.286	0.0172318
697.364	0.0172595
697.442	0.0172429
697.521	0.0171805
697.599	0.0169888
697.677	0.0169907
697.755	0.0170621
697.833	0.0169656
697.911	0.0166621
697.989	0.0165833
698.067	0.0166261
698.146	0.0163583
698.224	0.0161414
698.302	0.0161930
698.380	0.0160464
698.458	0.0160007
698.536	0.0158061
698.614	0.0158583
698.692	0.0158710
698.771	0.0156954
698.849	0.0157646
698.927	0.0157382
699.005	0.0158478
699.083	0.0158086
699.161	0.0158098
699.239	0.0158700
699.317	0.0158358
699.396	0.0159908
699.474	0.0159469
699.552	0.0158227
699.630	0.0159283
699.708	0.0160251
699.786	0.0160787
699.864	0.0160894
699.942	0.0158345
700.021	0.0157850
700.099	0.0158030
700.177	0.0159190
700.255	0.0157573
700.333	0.0157991
700.411	0.0155123
700.489	0.0156110
700.567	0.0157134
700.646	0.0153606
700.724	0.0154263
700.802	0.0154195
700.880	0.0153809
700.958	0.0154395
701.036	0.0156320
701.114	0.0155988
701.192	0.0155467
701.271	0.0157043
701.349	0.0158323
701.427	0.0157341
701.505	0.0159179
701.583	0.0161274
701.661	0.0160160
701.739	0.0159293
701.817	0.0159505
701.896	0.0159760
701.974	0.0158707
702.052	0.0157901
702.130	0.0157565
702.208	0.0156081
702.286	0.0158040
702.364	0.0157448
702.442	0.0155685
702.521	0.0156450
702.599	0.0156949
702.677	0.0157448
702.755	0.0156904
702.833	0.0158186
702.911	0.0157455
702.989	0.0158788
703.067	0.0159494
703.146	0.0159655
703.224	0.0160969
703.302	0.0161330
703.380	0.0160840
703.458	0.0161457
703.536	0.0162344
703.614	0.0163959
703.692	0.0162852
703.771	0.0164524
703.849	0.0163563
703.927	0.0164547
704.005	0.0165196
704.083	0.0166342
704.161	0.0165332
704.239	0.0165485
704.317	0.0165891
704.396	0.0165534
704.474	0.0164848
704.552	0.0165157
704.630	0.0165157
704.708	0.0165708
704.786	0.0165759
704.864	0.0165094
704.942	0.0165895
705.021	0.0165305
705.099	0.0165144
705.177	0.0166163
705.255	0.0165493
705.333	0.0165659
705.411	0.0164489
705.489	0.0165055
705.567	0.0165937
705.646	0.0166457
705.724	0.0164356
705.802	0.0165681
705.880	0.0164365
705.958	0.0164178
706.036	0.0163817
706.114	0.0163934
706.192	0.0164436
706.271	0.0164639
706.349	0.0163372
706.427	0.0162155
706.505	0.0164297
706.583	0.0163649
706.661	0.0163725
706.739	0.0163547
706.817	0.0164298
706.896	0.0164543
706.974	0.0164127
707.052	0.0165205
707.130	0.0166211
707.208	0.0165580
707.286	0.0165512
707.364	0.0165942
707.442	0.0166749
707.521	0.0165873
707.599	0.0166527
707.677	0.0166148
707.755	0.0166154
707.833	0.0164309
707.911	0.0163686
707.989	0.0163413
708.067	0.0163307
708.146	0.0163026
708.224	0.0163151
708.302	0.0161563
708.380	0.0161538
708.458	0.0160877
708.536	0.0161731
708.614	0.0158969
708.692	0.0159785
708.771	0.0160414
708.849	0.0159700
708.927	0.0159934
709.005	0.0157503
709.083	0.0158276
709.161	0.0158418
709.239	0.0158183
709.317	0.0157986
709.396	0.0158243
709.474	0.0156947
709.552	0.0156514
709.630	0.0156927
709.708	0.0156089
709.786	0.0156110
709.864	0.0155704
709.942	0.0156560
710.021	0.0154403
710.099	0.0154106
710.177	0.0156073
710.255	0.0155070
710.333	0.0154393
710.411	0.0154828
710.489	0.0155795
710.567	0.0153250
710.646	0.0154385
710.724	0.0155462
710.802	0.0154793
710.880	0.0154655
710.958	0.0156006
711.036	0.0155917
711.114	0.0155408
711.192	0.0156734
711.271	0.0157565
711.349	0.0156780
711.427	0.0157819
711.505	0.0156020
711.583	0.0156783
711.661	0.0156935
711.739	0.0157333
711.817	0.0156840
711.896	0.0157392
711.974	0.0155954
712.052	0.0155223
712.130	0.0155749
712.208	0.0155351
712.286	0.0155538
712.364	0.0155280
712.442	0.0153690
712.521	0.0153905
712.599	0.0153260
712.677	0.0155587
712.755	0.0154586
712.833	0.0154339
712.911	0.0156653
712.989	0.0155160
713.067	0.0157104
713.146	0.0156853
713.224	0.0157528
713.302	0.0158049
713.380	0.0157729
713.458	0.0159652
713.536	0.0161237
713.614	0.0160844
713.692	0.0160452
713.771	0.0161667
713.849	0.0163390
713.927	0.0162930
714.005	0.0163271
714.083	0.0161550
714.161	0.0162637
714.239	0.0163147
714.317	0.0163410
714.396	0.0162434
714.474	0.0162491
714.552	0.0162711
714.630	0.0162432
714.708	0.0163560
714.786	0.0163832
714.864	0.0164388
714.942	0.0163411
715.021	0.0163988
715.099	0.0163601
715.177	0.0164592
715.255	0.0165662
715.333	0.0163607
715.411	0.0166139
715.489	0.0165317
715.567	0.0167382
715.646	0.0167705
715.724	0.0167726
715.802	0.0167287
715.880	0.0169984
715.958	0.0169685
716.036	0.0170345
716.114	0.0170737
716.192	0.0170440
716.271	0.0171196
716.349	0.0173100
716.427	0.0171280
716.505	0.0172108
716.583	0.0171743
716.661	0.0173489
716.739	0.0173473
716.817	0.0171938
716.896	0.0172178
716.974	0.0171733
717.052	0.0171929
717.130	0.0171294
717.208	0.0170552
717.286	0.0169485
717.364	0.0170006
717.442	0.0170377
717.521	0.0170473
717.599	0.0169897
717.677	0.0169692
717.755	0.0169975
717.833	0.0169762
717.911	0.0168862
717.989	0.0169439
718.067	0.0168830
718.146	0.0169576
718.224	0.0167554
718.302	0.0166839
718.380	0.0167165
718.458	0.0166930
718.536	0.0166898
718.614	0.0164357
718.692	0.0164528
718.771	0.0164835
718.849	0.0164417
718.927	0.0162045
719.005	0.0163306
719.083	0.0162976
719.161	0.0160672
719.239	0.0159015
719.317	0.0159438
719.396	0.0158327
719.474	0.0158761
719.552	0.0158365
719.630	0.0157600
719.708	0.0157970
719.786	0.0158025
719.864	0.0159339
719.942	0.0160045
720.021	0.0159868
720.099	0.0162394
720.177	0.0163730
720.255	0.0164716
720.333	0.0167928
720.411	0.0167554
720.489	0.0169346
720.567	0.0172007
720.646	0.0173536
720.724	0.0173274
720.802	0.0174174
720.880	0.0174528
720.958	0.0175373
721.036	0.0174175
721.114	0.0174142
721.192	0.0172677
721.271	0.0170834
721.349	0.0171412
721.427	0.0167728
721.505	0.0168158
721.583	0.0166202
721.661	0.0163927
721.739	0.0160604
721.817	0.0160737
721.896	0.0158139
721.974	0.0157011
722.052	0.0154293
722.130	0.0153350
722.208	0.0152019
722.286	0.0151461
722.364	0.0149777
722.442	0.0150166
722.521	0.0149955
722.599	0.0149973
722.677	0.0150185
722.755	0.0148904
722.833	0.0148914
722.911	0.0151461
722.989	0.0151180
723.067	0.0152333
723.146	0.0152204
723.224	0.0152429
723.302	0.0154888
723.380	0.0155030
723.458	0.0156771
723.536	0.0158332
723.614	0.0159304
723.692	0.0160217
723.771	0.0161501
723.849	0.0162894
723.927	0.0161813
724.005	0.0162111
724.083	0.0164869
724.161	0.0165063
724.239	0.0164670
724.317	0.0164253
724.396	0.0165219
724.474	0.0164866
724.552	0.0163862
724.630	0.0164265
724.708	0.0163865
724.786	0.0162436
724.864	0.0164049
724.942	0.0162415
725.021	0.0162792
725.099	0.0163477
725.177	0.0162198
725.255	0.0163015
725.333	0.0162645
725.411	0.0163646
725.489	0.0164539
725.567	0.0164495
725.646	0.0164367
725.724	0.0164071
725.802	0.0164581
725.880	0.0166988
725.958	0.0165388
726.036	0.0165979
726.114	0.0165686
726.192	0.0166245
726.271	0.0164885
726.349	0.0165239
726.427	0.0164186
726.505	0.0164779
726.583	0.0164109
726.661	0.0164697
726.739	0.0164102
726.817	0.0164266
726.896	0.0164396
726.974	0.0161819
727.052	0.0161697
727.130	0.0161084
727.208	0.0162746
727.286	0.0161819
727.364	0.0159911
727.442	0.0160340
727.521	0.0159653
727.599	0.0159814
727.677	0.0159714
727.755	0.0159085
727.833	0.0156690
727.911	0.0158046
727.989	0.0158295
728.067	0.0156359
728.146	0.0155960
728.224	0.0157407
728.302	0.0157277
728.380	0.0158334
728.458	0.0157213
728.536	0.0157178
728.614	0.0157836
728.692	0.0158814
728.771	0.0160544
728.849	0.0160724
728.927	0.0162012
729.005	0.0162352
729.083	0.0162333
729.161	0.0163821
729.239	0.0164462
729.317	0.0165983
729.396	0.0165295
729.474	0.0165575
729.552	0.0165929
729.630	0.0165712
729.708	0.0165467
729.786	0.0164800
729.864	0.0165034
729.942	0.0164806
730.021	0.0165849
730.099	0.0165752
730.177	0.0165295
730.255	0.0163411
730.333	0.0162978
730.411	0.0163261
730.489	0.0164289
730.567	0.0164164
730.646	0.0163468
730.724	0.0163744
730.802	0.0163940
730.880	0.0164396
730.958	0.0164742
731.036	0.0163605
731.114	0.0164044
731.192	0.0166801
731.271	0.0165440
731.349	0.0165134
731.427	0.0164098
731.505	0.0162310
731.583	0.0162633
731.661	0.0160725
731.739	0.0159955
731.817	0.0159661
731.896	0.0158199
731.974	0.0157217
732.052	0.0156824
732.130	0.0156026
732.208	0.0155534
732.286	0.0154845
732.364	0.0155972
732.442	0.0156021
732.521	0.0156683
732.599	0.0157718
732.677	0.0160069
732.755	0.0158200
732.833	0.0159527
732.911	0.0161227
732.989	0.0160817
733.067	0.0160466
733.146	0.0161665
733.224	0.0162461
733.302	0.0161414
733.380	0.0161593
733.458	0.0160312
733.536	0.0160445
733.614	0.0161121
733.692	0.0159946
733.771	0.0158501
733.849	0.0158749
733.927	0.0157529
734.005	0.0158153
734.083	0.0157520
734.161	0.0157969
734.239	0.0157150
734.317	0.0157706
734.396	0.0158628
734.474	0.0160649
734.552	0.0159286
734.630	0.0159184
734.708	0.0160249
734.786	0.0161720
734.864	0.0161605
734.942	0.0162905
735.021	0.0162486
735.099	0.0164146
735.177	0.0165208
735.255	0.0163511
735.333	0.0165691
735.411	0.0165452
735.489	0.0167912
735.567	0.0168604
735.646	0.0167867
735.724	0.0166055
735.802	0.0167318
735.880	0.0169242
735.958	0.0167580
736.036	0.0167521
736.114	0.0167821
736.192	0.0166543
736.271	0.0166885
736.349	0.0165976
736.427	0.0165866
736.505	0.0164872
736.583	0.0164530
736.661	0.0163200
736.739	0.0163125
736.817	0.0162125
736.896	0.0161717
736.974	0.0161964
737.052	0.0162681
737.130	0.0162207
737.208	0.0161861
737.286	0.0164105
737.364	0.0164761
737.442	0.0164586
737.521	0.0164394
737.599	0.0165498
737.677	0.0168151
737.755	0.0168217
737.833	0.0167640
737.911	0.0167413
737.989	0.0166360
738.067	0.0165930
738.146	0.0167866
738.224	0.0166515
738.302	0.0165440
738.380	0.0165752
738.458	0.0164273
738.536	0.0163169
738.614	0.0160682
738.692	0.0161702
738.771	0.0160655
738.849	0.0158548
738.927	0.0157685
739.005	0.0159602
739.083	0.0157929
739.161	0.0157045
739.239	0.0157173
739.317	0.0156348
739.396	0.0157600
739.474	0.0157433
739.552	0.0156437
739.630	0.0155661
739.708	0.0158308
739.786	0.0157766
739.864	0.0158020
739.942	0.0158025
740.021	0.0158526
740.099	0.0159680
740.177	0.0159389
740.255	0.0160875
740.333	0.0159336
740.411	0.0159758
740.489	0.0162144
740.567	0.0161000
740.646	0.0161148
740.724	0.0160467
740.802	0.0162032
740.880	0.0162485
740.958	0.0161682
741.036	0.0160941
741.114	0.0162104
741.192	0.0162502
741.271	0.0161991
741.349	0.0162691
741.427	0.0162476
741.505	0.0163173
741.583	0.0163296
741.661	0.0161893
741.739	0.0163240
741.817	0.0163406
741.896	0.0163737
741.974	0.0164755
742.052	0.0165163
742.130	0.0165321
742.208	0.0166086
742.286	0.0165317
742.364	0.0166206
742.442	0.0166203
742.521	0.0165760
742.599	0.0167140
742.677	0.0166544
742.755	0.0165195
742.833	0.0164900
742.911	0.0165523
742.989	0.0164622
743.067	0.0162794
743.146	0.0161852
743.224	0.0161337
743.302	0.0160925
743.380	0.0158593
743.458	0.0160308
743.536	0.0159069
743.614	0.0155865
743.692	0.0156467
743.771	0.0155865
743.849	0.0155566
743.927	0.0153668
744.005	0.0152715
744.083	0.0154301
744.161	0.0154325
744.239	0.0153587
744.317	0.0154513
744.396	0.0155122
744.474	0.0155058
744.552	0.0154597
744.630	0.0156098
744.708	0.0157718
744.786	0.0157999
744.864	0.0159135
744.942	0.0159177
745.021	0.0159262
745.099	0.0160847
745.177	0.0161633
745.255	0.0163076
745.333	0.0163696
745.411	0.0162989
745.489	0.0165528
745.567	0.0165447
745.646	0.0166091
745.724	0.0164651
745.802	0.0167091
745.880	0.0166992
745.958	0.0165806
746.036	0.0166448
746.114	0.0166200
746.192	0.0165361
746.271	0.0164413
746.349	0.0163712
746.427	0.0164182
746.505	0.0163886
746.583	0.0164640
746.661	0.0162833
746.739	0.0162861
746.817	0.0161332
746.896	0.0163446
746.974	0.0161976
747.052	0.0161643
747.130	0.0162478
747.208	0.0164211
747.286	0.0161730
747.364	0.0162841
747.442	0.0163087
747.521	0.0162852
747.599	0.0163004
747.677	0.0161739
747.755	0.0161901
747.833	0.0162576
747.911	0.0162638
747.989	0.0162301
748.067	0.0162770
748.146	0.0164029
748.224	0.0164610
748.302	0.0162724
748.380	0.0163645
748.458	0.0162704
748.536	0.0164026
748.614	0.0165289
748.692	0.0164486
748.771	0.0165487
748.849	0.0166254
748.927	0.0166479
749.005	0.0167545
749.083	0.0167053
749.161	0.0166665
749.239	0.0167506
749.317	0.0167313
749.396	0.0165810
749.474	0.0166543
749.552	0.0167064
749.630	0.0166019
749.708	0.0167162
749.786	0.0166155
749.864	0.0167385
749.942	0.0166841
750.021	0.0165748
750.099	0.0167561
750.177	0.0165645
750.255	0.0165887
750.333	0.0165656
750.411	0.0165108
750.489	0.0163578
750.567	0.0163355
750.646	0.0162953
750.724	0.0160739
750.802	0.0161331
750.880	0.0160188
750.958	0.0158782
751.036	0.0160477
751.114	0.0158086
751.192	0.0158620
751.271	0.0158362
751.349	0.0158141
751.427	0.0159031
751.505	0.0158243
751.583	0.0159698
751.661	0.0161512
751.739	0.0159235
751.817	0.0160278
751.896	0.0160733
751.974	0.0160494
752.052	0.0160690
752.130	0.0159315
752.208	0.0159561
752.286	0.0159991
752.364	0.0159296
752.442	0.0158519
752.521	0.0158818
752.599	0.0158066
752.677	0.0157996
752.755	0.0157839
752.833	0.0158155
752.911	0.0158939
752.989	0.0159760
753.067	0.0159956
753.146	0.0159981
753.224	0.0160168
753.302	0.0161066
753.380	0.0162750
753.458	0.0162653
753.536	0.0161539
753.614	0.0161315
753.692	0.0160436
753.771	0.0159370
753.849	0.0161639
753.927	0.0161127
754.005	0.0159550
754.083	0.0160600
754.161	0.0160896
754.239	0.0159554
754.317	0.0159401
754.396	0.0159640
754.474	0.0159957
754.552	0.0158996
754.630	0.0159749
754.708	0.0160148
754.786	0.0159507
754.864	0.0160214
754.942	0.0160905
755.021	0.0160578
755.099	0.0162080
755.177	0.0160098
755.255	0.0159648
755.333	0.0159673
755.411	0.0161262
755.489	0.0161243
755.567	0.0160862
755.646	0.0161465
755.724	0.0161061
755.802	0.0159406
755.880	0.0160736
755.958	0.0159549
756.036	0.0159500
756.114	0.0160180
756.192	0.0159624
756.271	0.0159896
756.349	0.0161327
756.427	0.0159824
756.505	0.0160422
756.583	0.0161513
756.661	0.0160722
756.739	0.0160207
756.817	0.0161703
756.896	0.0160321
756.974	0.0161425
757.052	0.0161905
757.130	0.0162497
757.208	0.0163580
757.286	0.0162880
757.364	0.0163238
757.442	0.0165340
757.521	0.0165709
757.599	0.0164416
757.677	0.0165582
757.755	0.0164754
757.833	0.0164848
757.911	0.0164473
757.989	0.0166242
758.067	0.0165869
758.146	0.0165610
758.224	0.0165124
758.302	0.0164873
758.380	0.0165982
758.458	0.0166265
758.536	0.0166675
758.614	0.0166047
758.692	0.0166331
758.771	0.0167319
758.849	0.0165991
758.927	0.0167140
759.005	0.0166452
759.083	0.0166915
759.161	0.0167974
759.239	0.0166511
759.317	0.0169140
759.396	0.0169290
759.474	0.0168340
759.552	0.0168333
759.630	0.0168897
759.708	0.0168018
759.786	0.0168321
759.864	0.0169247
759.942	0.0167462
760.021	0.0167651
760.099	0.0166609
760.177	0.0167038
760.255	0.0167148
760.333	0.0165632
760.411	0.0165121
760.489	0.0163722
760.567	0.0164378
760.646	0.0161544
760.724	0.0162067
760.802	0.0162671
760.880	0.0162655
760.958	0.0161398
761.036	0.0160619
761.114	0.0161498
761.192	0.0160462
761.271	0.0160218
761.349	0.0159698
761.427	0.0158353
761.505	0.0159552
761.583	0.0160049
761.661	0.0159084
761.739	0.0158968
761.817	0.0159425
761.896	0.0159700
761.974	0.0159399
762.052	0.0159179
762.130	0.0159250
762.208	0.0160775
762.286	0.0160069
762.364	0.0158934
762.442	0.0160245
762.521	0.0161502
762.599	0.0160931
762.677	0.0160564
762.755	0.0160936
762.833	0.0160915
762.911	0.0161472
762.989	0.0161446
763.067	0.0161167
763.146	0.0161862
763.224	0.0163552
763.302	0.0162064
763.380	0.0161354
763.458	0.0163715
763.536	0.0161525
763.614	0.0160824
763.692	0.0161545
763.771	0.0160998
763.849	0.0162316
763.927	0.0162293
764.005	0.0161133
764.083	0.0161561
764.161	0.0162081
764.239	0.0160715
764.317	0.0161050
764.396	0.0158989
764.474	0.0159917
764.552	0.0160062
764.630	0.0159951
764.708	0.0160456
764.786	0.0159352
764.864	0.0160309
764.942	0.0159089
765.021	0.0159383
765.099	0.0159760
765.177	0.0158099
765.255	0.0158936
765.333	0.0159429
765.411	0.0160946
765.489	0.0160775
765.567	0.0159741
765.646	0.0160246
765.724	0.0159707
765.802	0.0160716
765.880	0.0161981
765.958	0.0161092
766.036	0.0162000
766.114	0.0161689
766.192	0.0161458
766.271	0.0161011
766.349	0.0161134
766.427	0.0161126
766.505	0.0160973
766.583	0.0159919
766.661	0.0159252
766.739	0.0159021
766.817	0.0159023
766.896	0.0157851
766.974	0.0158180
767.052	0.0156360
767.130	0.0157763
767.208	0.0159516
767.286	0.0156609
767.364	0.0155980
767.442	0.0156779
767.521	0.0158776
767.599	0.0157884
767.677	0.0156196
767.755	0.0157536
767.833	0.0157434
767.911	0.0158528
767.989	0.0157896
768.067	0.0158380
768.146	0.0159705
768.224	0.0159112
768.302	0.0160471
768.380	0.0160654
768.458	0.0162005
768.536	0.0161449
768.614	0.0163837
768.692	0.0163046
768.771	0.0161911
768.849	0.0164541
768.927	0.0163714
769.005	0.0162086
769.083	0.0164651
769.161	0.0164642
769.239	0.0163886
769.317	0.0163357
769.396	0.0163502
769.474	0.0163733
769.552	0.0163765
769.630	0.0164571
769.708	0.0164146
769.786	0.0165112
769.864	0.0164858
769.942	0.0165368
770.021	0.0163813
770.099	0.0164311
770.177	0.0164357
770.255	0.0164449
770.333	0.0165441
770.411	0.0163162
770.489	0.0161611
770.567	0.0163027
770.646	0.0163434
770.724	0.0162408
770.802	0.0162659
770.880	0.0162563
770.958	0.0161802
771.036	0.0160978
771.114	0.0162009
771.192	0.0160410
771.271	0.0160028
771.349	0.0161446
771.427	0.0160428
771.505	0.0158870
771.583	0.0159732
771.661	0.0160131
771.739	0.0160130
771.817	0.0159136
771.896	0.0159560
771.974	0.0160552
772.052	0.0159701
772.130	0.0159624
772.208	0.0159834
772.286	0.0160558
772.364	0.0161104
772.442	0.0159107
772.521	0.0160921
772.599	0.0160394
772.677	0.0159949
772.755	0.0160655
772.833	0.0160008
772.911	0.0159972
772.989	0.0159240
773.067	0.0161600
773.146	0.0162376
773.224	0.0161946
773.302	0.0162412
773.380	0.0163815
773.458	0.0162368
773.536	0.0162851
773.614	0.0163734
773.692	0.0164639
773.771	0.0164574
773.849	0.0163676
773.927	0.0164275
774.005	0.0164394
774.083	0.0163515
774.161	0.0164126
774.239	0.0165736
774.317	0.0163838
774.396	0.0164132
774.474	0.0163401
774.552	0.0163283
774.630	0.0163671
774.708	0.0164320
774.786	0.0163516
774.864	0.0161972
774.942	0.0164577
775.021	0.0163229
775.099	0.0162650
775.177	0.0162511
775.255	0.0164137
775.333	0.0162459
775.411	0.0162515
775.489	0.0164571
775.567	0.0161736
775.646	0.0162653
775.724	0.0161900
775.802	0.0160867
775.880	0.0161273
775.958	0.0161195
776.036	0.0158973
776.114	0.0161282
776.192	0.0161802
776.271	0.0160984
776.349	0.0159145
776.427	0.0159818
776.505	0.0160448
776.583	0.0160423
776.661	0.0160011
776.739	0.0161068
776.817	0.0159457
776.896	0.0159483
776.974	0.0159914
777.052	0.0160652
777.130	0.0160514
777.208	0.0160209
777.286	0.0161171
777.364	0.0161171
777.442	0.0159707
777.521	0.0159540
777.599	0.0160018
777.677	0.0158888
777.755	0.0160249
777.833	0.0159532
777.911	0.0158593
777.989	0.0158664
778.067	0.0158442
778.146	0.0157277
778.224	0.0157213
778.302	0.0157127
778.380	0.0157483
778.458	0.0156444
778.536	0.0156980
778.614	0.0156174
778.692	0.0156479
778.771	0.0157599
778.849	0.0157288
778.927	0.0157357
779.005	0.0155558
779.083	0.0157088
779.161	0.0157676
779.239	0.0158187
779.317	0.0157071
779.396	0.0157809
779.474	0.0158385
779.552	0.0160067
779.630	0.0159193
779.708	0.0161160
779.786	0.0161256
779.864	0.0162937
779.942	0.0163233
780.021	0.0164343
780.099	0.0165021
780.177	0.0164588
780.255	0.0166117
780.333	0.0165225
780.411	0.0167596
780.489	0.0165987
780.567	0.0166077
780.646	0.0168377
780.724	0.0168287
780.802	0.0167130
780.880	0.0168644
780.958	0.0167348
781.036	0.0166676
781.114	0.0165210
781.192	0.0166124
781.271	0.0165599
781.349	0.0166128
781.427	0.0164018
781.505	0.0164530
781.583	0.0163190
781.661	0.0164412
781.739	0.0163640
781.817	0.0164130
781.896	0.0165123
781.974	0.0163901
782.052	0.0164520
782.130	0.0164622
782.208	0.0163770
782.286	0.0165706
782.364	0.0164864
782.442	0.0165161
782.521	0.0165051
782.599	0.0163907
782.677	0.0164899
782.755	0.0163869
782.833	0.0163969
782.911	0.0164590
782.989	0.0163251
783.067	0.0164279
783.146	0.0161837
783.224	0.0163696
783.302	0.0162539
783.380	0.0163484
783.458	0.0163060
783.536	0.0162251
783.614	0.0162521
783.692	0.0160610
783.771	0.0162292
783.849	0.0161300
783.927	0.0162125
784.005	0.0162084
784.083	0.0161626
784.161	0.0162257
784.239	0.0161179
784.317	0.0162404
784.396	0.0160293
784.474	0.0161712
784.552	0.0162669
784.630	0.0161983
784.708	0.0162263
784.786	0.0162717
784.864	0.0162177
784.942	0.0161861
785.021	0.0162447
785.099	0.0162780
785.177	0.0162045
785.255	0.0161737
785.333	0.0160807
785.411	0.0162160
785.489	0.0160507
785.567	0.0159149
785.646	0.0160399
785.724	0.0158965
785.802	0.0160394
785.880	0.0158672
785.958	0.0157940
786.036	0.0157172
786.114	0.0157805
786.192	0.0157845
786.271	0.0157314
786.349	0.0156937
786.427	0.0159431
786.505	0.0160163
786.583	0.0159098
786.661	0.0158214
786.739	0.0159046
786.817	0.0158302
786.896	0.0158309
786.974	0.0159310
787.052	0.0158372
787.130	0.0157710
787.208	0.0157978
787.286	0.0158511
787.364	0.0158529
787.442	0.0158312
787.521	0.0159138
787.599	0.0157218
787.677	0.0158205
787.755	0.0158013
787.833	0.0156601
787.911	0.0157653
787.989	0.0158725
788.067	0.0157011
788.146	0.0156599
788.224	0.0158755
788.302	0.0158879
788.380	0.0155755
788.458	0.0158117
788.536	0.0156657
788.614	0.0157513
788.692	0.0158904
788.771	0.0158127
788.849	0.0159525
788.927	0.0159309
789.005	0.0156907
789.083	0.0159741
789.161	0.0159558
789.239	0.0159853
789.317	0.0159567
789.396	0.0160017
789.474	0.0161981
789.552	0.0161752
789.630	0.0161042
789.708	0.0161916
789.786	0.0161855
789.864	0.0162422
789.942	0.0163510
790.021	0.0164080
790.099	0.0163909
790.177	0.0164330
790.255	0.0164392
790.333	0.0164823
790.411	0.0164762
790.489	0.0164301
790.567	0.0165115
790.646	0.0166468
790.724	0.0166821
790.802	0.0166943
790.880	0.0167319
790.958	0.0167182
791.036	0.0167533
791.114	0.0168396
791.192	0.0168098
791.271	0.0167139
791.349	0.0167037
791.427	0.0167360
791.505	0.0166775
791.583	0.0168087
791.661	0.0166393
791.739	0.0164576
791.817	0.0165805
791.896	0.0164502
791.974	0.0164843
792.052	0.0162981
792.130	0.0163972
792.208	0.0161980
792.286	0.0162500
792.364	0.0161106
792.442	0.0162685
792.521	0.0163101
792.599	0.0162673
792.677	0.0161146
792.755	0.0162504
792.833	0.0161630
792.911	0.0161618
792.989	0.0160005
793.067	0.0161623
793.146	0.0162080
793.224	0.0161002
793.302	0.0159290
793.380	0.0159673
793.458	0.0160417
793.536	0.0160258
793.614	0.0160635
793.692	0.0159940
793.771	0.0158646
793.849	0.0160126
793.927	0.0160155
794.005	0.0158158
794.083	0.0158926
794.161	0.0159608
794.239	0.0160730
794.317	0.0160136
794.396	0.0160276
794.474	0.0158855
794.552	0.0158881
794.630	0.0159854
794.708	0.0157363
794.786	0.0157646
794.864	0.0157269
794.942	0.0156565
795.021	0.0155757
795.099	0.0155649
795.177	0.0155444
795.255	0.0154277
795.333	0.0154105
795.411	0.0153636
795.489	0.0154532
795.567	0.0155352
795.646	0.0154124
795.724	0.0154253
795.802	0.0154430
795.880	0.0155703
795.958	0.0155854
796.036	0.0156994
796.114	0.0156716
796.192	0.0156158
796.271	0.0156973
796.349	0.0157863
796.427	0.0157880
796.505	0.0158535
796.583	0.0158600
796.661	0.0157399
796.739	0.0157206
796.817	0.0157349
796.896	0.0157546
796.974	0.0155891
797.052	0.0156202
797.130	0.0156713
797.208	0.0156494
797.286	0.0156749
797.364	0.0157642
797.442	0.0157365
797.521	0.0157220
797.599	0.0156764
797.677	0.0158504
797.755	0.0158657
797.833	0.0159832
797.911	0.0160303
797.989	0.0159622
798.067	0.0160336
798.146	0.0161322
798.224	0.0160947
798.302	0.0160075
798.380	0.0161114
798.458	0.0161106
798.536	0.0160862
798.614	0.0162007
798.692	0.0162069
798.771	0.0161163
798.849	0.0162210
798.927	0.0159671
799.005	0.0159629
799.083	0.0160580
799.161	0.0159128
799.239	0.0160060
799.317	0.0161244
799.396	0.0159629
799.474	0.0159145
799.552	0.0160410
799.630	0.0161251
799.708	0.0161748
799.786	0.0162292
799.864	0.0161687
799.942	0.0161934
800.021	0.0162055
800.099	0.0161576
800.177	0.0162010
800.255	0.0161339
800.333	0.0163737
800.411	0.0162404
800.489	0.0161842
800.567	0.0161750
800.646	0.0162180
800.724	0.0163610
800.802	0.0161766
800.880	0.0162240
800.958	0.0161042
801.036	0.0160557
801.114	0.0160789
801.192	0.0161524
801.271	0.0161582
801.349	0.0161008
801.427	0.0161658
801.505	0.0162674
801.583	0.0161636
801.661	0.0161349
801.739	0.0161723
801.817	0.0161321
801.896	0.0162191
801.974	0.0160887
802.052	0.0163696
802.130	0.0162302
802.208	0.0161454
802.286	0.0163699
802.364	0.0162371
802.442	0.0162064
802.521	0.0161356
802.599	0.0162071
802.677	0.0162509
802.755	0.0161504
802.833	0.0162315
802.911	0.0162281
802.989	0.0161828
803.067	0.0162122
803.146	0.0162293
803.224	0.0162601
803.302	0.0162260
803.380	0.0161932
803.458	0.0162854
803.536	0.0161829
803.614	0.0162599
803.692	0.0162119
803.771	0.0162715
803.849	0.0161825
803.927	0.0161710
804.005	0.0161019
804.083	0.0162005
804.161	0.0161366
804.239	0.0161364
804.317	0.0161468
804.396	0.0161408
804.474	0.0159863
804.552	0.0158655
804.630	0.0157802
804.708	0.0156973
804.786	0.0157407
804.864	0.0156337
804.942	0.0157429
805.021	0.0156654
805.099	0.0157449
805.177	0.0156712
805.255	0.0156536
805.333	0.0156466
805.411	0.0157124
805.489	0.0156174
805.567	0.0156638
805.646	0.0158183
805.724	0.0157479
805.802	0.0157838
805.880	0.0158580
805.958	0.0159061
806.036	0.0157785
806.114	0.0158713
806.192	0.0157944
806.271	0.0160049
806.349	0.0160107
806.427	0.0157600
806.505	0.0158604
806.583	0.0158717
806.661	0.0159154
806.739	0.0159411
806.817	0.0158559
806.896	0.0160983
806.974	0.0159446
807.052	0.0161395
807.130	0.0162298
807.208	0.0161876
807.286	0.0162114
807.364	0.0162196
807.442	0.0163283
807.521	0.0163165
807.599	0.0163277
807.677	0.0162488
807.755	0.0164374
807.833	0.0164748
807.911	0.0164748
807.989	0.0164577
808.067	0.0165830
808.146	0.0165523
808.224	0.0166081
808.302	0.0165792
808.380	0.0167565
808.458	0.0165542
808.536	0.0165611
808.614	0.0167297
808.692	0.0166717
808.771	0.0166985
808.849	0.0166491
808.927	0.0165896
809.005	0.0166660
809.083	0.0166127
809.161	0.0164973
809.239	0.0166393
809.317	0.0167905
809.396	0.0165781
809.474	0.0165804
809.552	0.0166911
809.630	0.0166515
809.708	0.0166403
809.786	0.0167345
809.864	0.0166542
809.942	0.0166953
810.021	0.0166096
810.099	0.0166933
810.177	0.0167909
810.255	0.0167096
810.333	0.0168021
810.411	0.0166721
810.489	0.0166969
810.567	0.0167181
810.646	0.0166355
810.724	0.0166029
810.802	0.0165112
810.880	0.0163908
810.958	0.0162973
811.036	0.0161738
811.114	0.0162852
811.192	0.0161684
811.271	0.0160055
811.349	0.0157234
811.427	0.0160291
811.505	0.0159914
811.583	0.0159156
811.661	0.0159811
811.739	0.0158650
811.817	0.0157671
811.896	0.0158318
811.974	0.0159277
812.052	0.0158636
812.130	0.0159035
812.208	0.0159692
812.286	0.0160187
812.364	0.0160709
812.442	0.0159274
812.521	0.0161234
812.599	0.0161652
812.677	0.0162025
812.755	0.0161239
812.833	0.0162418
812.911	0.0162399
812.989	0.0162180
813.067	0.0162422
813.146	0.0162270
813.224	0.0162826
813.302	0.0164376
813.380	0.0163327
813.458	0.0163907
813.536	0.0163158
813.614	0.0163905
813.692	0.0163556
813.771	0.0165069
813.849	0.0165373
813.927	0.0164128
814.005	0.0162803
814.083	0.0164803
814.161	0.0164515
814.239	0.0163540
814.317	0.0162603
814.396	0.0162900
814.474	0.0161914
814.552	0.0161161
814.630	0.0162813
814.708	0.0160210
814.786	0.0158268
814.864	0.0159787
814.942	0.0158356
815.021	0.0158163
815.099	0.0156727
815.177	0.0155399
815.255	0.0156462
815.333	0.0155177
815.411	0.0153408
815.489	0.0152625
815.567	0.0152275
815.646	0.0151768
815.724	0.0153088
815.802	0.0151165
815.880	0.0151702
815.958	0.0150568
816.036	0.0152462
816.114	0.0151755
816.192	0.0150998
816.271	0.0150711
816.349	0.0152742
816.427	0.0153856
816.505	0.0154659
816.583	0.0154210
816.661	0.0156503
816.739	0.0156739
816.817	0.0157229
816.896	0.0157799
816.974	0.0158558
817.052	0.0161271
817.130	0.0160703
817.208	0.0161456
817.286	0.0161992
817.364	0.0161212
817.442	0.0162691
817.521	0.0162000
817.599	0.0161381
817.677	0.0161610
817.755	0.0161501
817.833	0.0159682
817.911	0.0159393
817.989	0.0160395
818.067	0.0158321
818.146	0.0158244
818.224	0.0156960
818.302	0.0156223
818.380	0.0156566
818.458	0.0155945
818.536	0.0156991
818.614	0.0155679
818.692	0.0155294
818.771	0.0155100
818.849	0.0155837
818.927	0.0156281
819.005	0.0155619
819.083	0.0156022
819.161	0.0155717
819.239	0.0156754
819.317	0.0158027
819.396	0.0157487
819.474	0.0157446
819.552	0.0159496
819.630	0.0159723
819.708	0.0160426
819.786	0.0161385
819.864	0.0161781
819.942	0.0163273
820.021	0.0164693
820.099	0.0165395
820.177	0.0165255
820.255	0.0165553
820.333	0.0167818
820.411	0.0168368
820.489	0.0169676
820.567	0.0168678
820.646	0.0170007
820.724	0.0168784
820.802	0.0169182
820.880	0.0168618
820.958	0.0167747
821.036	0.0169458
821.114	0.0167989
821.192	0.0167167
821.271	0.0167812
821.349	0.0167790
821.427	0.0167258
821.505	0.0166522
821.583	0.0165987
821.661	0.0166241
821.739	0.0166624
821.817	0.0167296
821.896	0.0165660
821.974	0.0165398
822.052	0.0165228
822.130	0.0165882
822.208	0.0165649
822.286	0.0164849
822.364	0.0163847
822.442	0.0163952
822.521	0.0163634
822.599	0.0163565
822.677	0.0163458
822.755	0.0163896
822.833	0.0161854
822.911	0.0161082
822.989	0.0161366
823.067	0.0160098
823.146	0.0161744
823.224	0.0161661
823.302	0.0162119
823.380	0.0162083
823.458	0.0162006
823.536	0.0163332
823.614	0.0162228
823.692	0.0163284
823.771	0.0164657
823.849	0.0166497
823.927	0.0165858
824.005	0.0165247
824.083	0.0166496
824.161	0.0165334
824.239	0.0165652
824.317	0.0166209
824.396	0.0164986
824.474	0.0165353
824.552	0.0165650
824.630	0.0166240
824.708	0.0166292
824.786	0.0166600
824.864	0.0166717
824.942	0.0165151
825.021	0.0166278
825.099	0.0166288
825.177	0.0167422
825.255	0.0166870
825.333	0.0167088
825.411	0.0167693
825.489	0.0167069
825.567	0.0167675
825.646	0.0168165
825.724	0.0168459
825.802	0.0167970
825.880	0.0167282
825.958	0.0166943
826.036	0.0167798
826.114	0.0167311
826.192	0.0166750
826.271	0.0168422
826.349	0.0166513
826.427	0.0166262
826.505	0.0166203
826.583	0.0166974
826.661	0.0164339
826.739	0.0163821
826.817	0.0164340
826.896	0.0163824
826.974	0.0163715
827.052	0.0162400
827.130	0.0162684
827.208	0.0160466
827.286	0.0160777
827.364	0.0160808
827.442	0.0159134
827.521	0.0159576
827.599	0.0157952
827.677	0.0158091
827.755	0.0158860
827.833	0.0157310
827.911	0.0157369
827.989	0.0157983
828.067	0.0157646
828.146	0.0156407
828.224	0.0156760
828.302	0.0158839
828.380	0.0156511
828.458	0.0158644
828.536	0.0157823
828.614	0.0158572
828.692	0.0157178
828.771	0.0158776
828.849	0.0159074
828.927	0.0159229
829.005	0.0158994
829.083	0.0159077
829.161	0.0158396
829.239	0.0160338
829.317	0.0159455
829.396	0.0160438
829.474	0.0159812
829.552	0.0159050
829.630	0.0159376
829.708	0.0159039
829.786	0.0161254
829.864	0.0159804
829.942	0.0158704
830.021	0.0158880
830.099	0.0159131
830.177	0.0160173
830.255	0.0160584
830.333	0.0161224
830.411	0.0160477
830.489	0.0161480
830.567	0.0159947
830.646	0.0160569
830.724	0.0160801
830.802	0.0160880
830.880	0.0160117
830.958	0.0161044
831.036	0.0160154
831.114	0.0158662
831.192	0.0160004
831.271	0.0160166
831.349	0.0159539
831.427	0.0159232
831.505	0.0159621
831.583	0.0160345
831.661	0.0160706
831.739	0.0160990
831.817	0.0161566
831.896	0.0161069
831.974	0.0163079
832.052	0.0164176
832.130	0.0163587
832.208	0.0164299
832.286	0.0164495
832.364	0.0164870
832.442	0.0165694
832.521	0.0165147
832.599	0.0165976
832.677	0.0166094
832.755	0.0166428
832.833	0.0166639
832.911	0.0166932
832.989	0.0165970
833.067	0.0164175
833.146	0.0167077
833.224	0.0167831
833.302	0.0166018
833.380	0.0165806
833.458	0.0165775
833.536	0.0166392
833.614	0.0166208
833.692	0.0165356
833.771	0.0164104
833.849	0.0165861
833.927	0.0165406
834.005	0.0167234
834.083	0.0165533
834.161	0.0165986
834.239	0.0167154
834.317	0.0166924
834.396	0.0166532
834.474	0.0165692
834.552	0.0166792
834.630	0.0168829
834.708	0.0168472
834.786	0.0167609
834.864	0.0166731
834.942	0.0166756
835.021	0.0166289
835.099	0.0166346
835.177	0.0166727
835.255	0.0164479
835.333	0.0165611
835.411	0.0166433
835.489	0.0165129
835.567	0.0165919
835.646	0.0164494
835.724	0.0165466
835.802	0.0166022
835.880	0.0165867
835.958	0.0164799
836.036	0.0165678
836.114	0.0164552
836.192	0.0165712
836.271	0.0165565
836.349	0.0163308
836.427	0.0163448
836.505	0.0164565
836.583	0.0164880
836.661	0.0162032
836.739	0.0163445
836.817	0.0162340
836.896	0.0161037
836.974	0.0160300
837.052	0.0160188
837.130	0.0160379
837.208	0.0159391
837.286	0.0160311
837.364	0.0159148
837.442	0.0157667
837.521	0.0160309
837.599	0.0161079
837.677	0.0159077
837.755	0.0159172
837.833	0.0159795
837.911	0.0161127
837.989	0.0159163
838.067	0.0161040
838.146	0.0162360
838.224	0.0162827
838.302	0.0162582
838.380	0.0162587
838.458	0.0163165
838.536	0.0162489
838.614	0.0163210
838.692	0.0162500
838.771	0.0163644
838.849	0.0162617
838.927	0.0161707
839.005	0.0161989
839.083	0.0161300
839.161	0.0159547
839.239	0.0160858
839.317	0.0160015
839.396	0.0159885
839.474	0.0159972
839.552	0.0159930
839.630	0.0159626
839.708	0.0159506
839.786	0.0159146
839.864	0.0158853
839.942	0.0159279
840.021	0.0158382
840.099	0.0158007
840.177	0.0157774
840.255	0.0157034
840.333	0.0158366
840.411	0.0158108
840.489	0.0157657
840.567	0.0159014
840.646	0.0157429
840.724	0.0158308
840.802	0.0157634
840.880	0.0158620
840.958	0.0158707
841.036	0.0159669
841.114	0.0158606
841.192	0.0158790
841.271	0.0159737
841.349	0.0160725
841.427	0.0160997
841.505	0.0161149
841.583	0.0161800
841.661	0.0161541
841.739	0.0162243
841.817	0.0163060
841.896	0.0162872
841.974	0.0162711
842.052	0.0162973
842.130	0.0164593
842.208	0.0163713
842.286	0.0164581
842.364	0.0164605
842.442	0.0163281
842.521	0.0165711
842.599	0.0166875
842.677	0.0165575
842.755	0.0165780
842.833	0.0165836
842.911	0.0165905
842.989	0.0165716
843.067	0.0164653
843.146	0.0165595
843.224	0.0165184
843.302	0.0161818
843.380	0.0163142
843.458	0.0162447
843.536	0.0162811
843.614	0.0163228
843.692	0.0162727
843.771	0.0162199
843.849	0.0161198
843.927	0.0161809
844.005	0.0160532
844.083	0.0162403
844.161	0.0161209
844.239	0.0162016
844.317	0.0161056
844.396	0.0161292
844.474	0.0162244
844.552	0.0163364
844.630	0.0161797
844.708	0.0163424
844.786	0.0162972
844.864	0.0162484
844.942	0.0163210
845.021	0.0162353
845.099	0.0162676
845.177	0.0163300
845.255	0.0161707
845.333	0.0164382
845.411	0.0162769
845.489	0.0162468
845.567	0.0162232
845.646	0.0163074
845.724	0.0162179
845.802	0.0162736
845.880	0.0163194
845.958	0.0163434
846.036	0.0162783
846.114	0.0163199
846.192	0.0165376
846.271	0.0164195
846.349	0.0164912
846.427	0.0166521
846.505	0.0166718
846.583	0.0165997
846.661	0.0166139
846.739	0.0168088
846.817	0.0168337
846.896	0.0167260
846.974	0.0168517
847.052	0.0167443
847.130	0.0167149
847.208	0.0169542
847.286	0.0168661
847.364	0.0167642
847.442	0.0166564
847.521	0.0166293
847.599	0.0166886
847.677	0.0166689
847.755	0.0166007
847.833	0.0166563
847.911	0.0164858
847.989	0.0165767
848.067	0.0166507
848.146	0.0165881
848.224	0.0165536
848.302	0.0164790
848.380	0.0164017
848.458	0.0163130
848.536	0.0163789
848.614	0.0164349
848.692	0.0163190
848.771	0.0161982
848.849	0.0163207
848.927	0.0161375
849.005	0.0161289
849.083	0.0161739
849.161	0.0160969
849.239	0.0161331
849.317	0.0161368
849.396	0.0160835
849.474	0.0161588
849.552	0.0161523
849.630	0.0161711
849.708	0.0160263
849.786	0.0161445
849.864	0.0161897
849.942	0.0163031
850.021	0.0161807
850.099	0.0162717
850.177	0.0163243
850.255	0.0164144
850.333	0.0165334
850.411	0.0165951
850.489	0.0167242
850.567	0.0167953
850.646	0.0168569
850.724	0.0168297
850.802	0.0168192
850.880	0.0167238
850.958	0.0166793
851.036	0.0167334
851.114	0.0166806
851.192	0.0166507
851.271	0.0165821
851.349	0.0165416
851.427	0.0163633
851.505	0.0163722
851.583	0.0163220
851.661	0.0161188
851.739	0.0160719
851.817	0.0160255
851.896	0.0161513
851.974	0.0160057
852.052	0.0159910
852.130	0.0159892
852.208	0.0159285
852.286	0.0158727
852.364	0.0158652
852.442	0.0159866
852.521	0.0158193
852.599	0.0158440
852.677	0.0160005
852.755	0.0159843
852.833	0.0159027
852.911	0.0158392
852.989	0.0158863
853.067	0.0159605
853.146	0.0157841
853.224	0.0158318
853.302	0.0158868
853.380	0.0157297
853.458	0.0157456
853.536	0.0158659
853.614	0.0157361
853.692	0.0157912
853.771	0.0157905
853.849	0.0158521
853.927	0.0157896
854.005	0.0156597
854.083	0.0156922
854.161	0.0157491
854.239	0.0158973
854.317	0.0160421
854.396	0.0159982
854.474	0.0159163
854.552	0.0160332
854.630	0.0162410
854.708	0.0161838
854.786	0.0161280
854.864	0.0161945
854.942	0.0161153
855.021	0.0162467
855.099	0.0162075
855.177	0.0161697
855.255	0.0161670
855.333	0.0162271
855.411	0.0162038
855.489	0.0161060
855.567	0.0159795
855.646	0.0161074
855.724	0.0161383
855.802	0.0159142
855.880	0.0159193
855.958	0.0159670
856.036	0.0159778
856.114	0.0159247
856.192	0.0158937
856.271	0.0160390
856.349	0.0159848
856.427	0.0159251
856.505	0.0161068
856.583	0.0162037
856.661	0.0162977
856.739	0.0161884
856.817	0.0162420
856.896	0.0163653
856.974	0.0165131
857.052	0.0165101
857.130	0.0165737
857.208	0.0166064
857.286	0.0165563
857.364	0.0166373
857.442	0.0166197
857.521	0.0165475
857.599	0.0164956
857.677	0.0163945
857.755	0.0163642
857.833	0.0162482
857.911	0.0162940
857.989	0.0164599
858.067	0.0164452
858.146	0.0163672
858.224	0.0163298
858.302	0.0161739
858.380	0.0162782
858.458	0.0162386
858.536	0.0161941
858.614	0.0161691
858.692	0.0162959
858.771	0.0163009
858.849	0.0163784
858.927	0.0163145
859.005	0.0163936
859.083	0.0162156
859.161	0.0163090
859.239	0.0162632
859.317	0.0163348
859.396	0.0164011
859.474	0.0162874
859.552	0.0162163
859.630	0.0163703
859.708	0.0163625
859.786	0.0163901
859.864	0.0162437
859.942	0.0161310
860.021	0.0162147
860.099	0.0163057
860.177	0.0161665
860.255	0.0161068
860.333	0.0161848
860.411	0.0161716
860.489	0.0159765
860.567	0.0162413
860.646	0.0161320
860.724	0.0159705
860.802	0.0160653
860.880	0.0160713
860.958	0.0160859
861.036	0.0161134
861.114	0.0160459
861.192	0.0160979
861.271	0.0162743
861.349	0.0162817
861.427	0.0164379
861.505	0.0165221
861.583	0.0163876
861.661	0.0165903
861.739	0.0164293
861.817	0.0164748
861.896	0.0166357
861.974	0.0164956
862.052	0.0164951
862.130	0.0165854
862.208	0.0164385
862.286	0.0166046
862.364	0.0165441
862.442	0.0164805
862.521	0.0163943
862.599	0.0163888
862.677	0.0163454
862.755	0.0163044
862.833	0.0162428
862.911	0.0162816
862.989	0.0161426
863.067	0.0162201
863.146	0.0160210
863.224	0.0159997
863.302	0.0161265
863.380	0.0160211
863.458	0.0161763
863.536	0.0159881
863.614	0.0160996
863.692	0.0159699
863.771	0.0159486
863.849	0.0157746
863.927	0.0157744
864.005	0.0158742
864.083	0.0157809
864.161	0.0159079
864.239	0.0157228
864.317	0.0156140
864.396	0.0155901
864.474	0.0156596
864.552	0.0157072
864.630	0.0156435
864.708	0.0156841
864.786	0.0157039
864.864	0.0157212
864.942	0.0157222
865.021	0.0158171
865.099	0.0157897
865.177	0.0157581
865.255	0.0158645
865.333	0.0157800
865.411	0.0159216
865.489	0.0159399
865.567	0.0160200
865.646	0.0162315
865.724	0.0161803
865.802	0.0161446
865.880	0.0161578
865.958	0.0164392
866.036	0.0164439
866.114	0.0163797
866.192	0.0164936
866.271	0.0165555
866.349	0.0165433
866.427	0.0164826
866.505	0.0162993
866.583	0.0164483
866.661	0.0162522
866.739	0.0160753
866.817	0.0160420
866.896	0.0161089
866.974	0.0158411
867.052	0.0158218
867.130	0.0157124
867.208	0.0156852
867.286	0.0156049
867.364	0.0155243
867.442	0.0155355
867.521	0.0156824
867.599	0.0157410
867.677	0.0157473
867.755	0.0158273
867.833	0.0159299
867.911	0.0160792
867.989	0.0162020
868.067	0.0163192
868.146	0.0163961
868.224	0.0163118
868.302	0.0163502
868.380	0.0164920
868.458	0.0163120
868.536	0.0164458
868.614	0.0166702
868.692	0.0164857
868.771	0.0165279
868.849	0.0164577
868.927	0.0164519
869.005	0.0164599
869.083	0.0165598
869.161	0.0164019
869.239	0.0162556
869.317	0.0162611
869.396	0.0163681
869.474	0.0164984
869.552	0.0163077
869.630	0.0162157
869.708	0.0163144
869.786	0.0162335
869.864	0.0162594
869.942	0.0163608
