06/03/2022	14:55:50	Ver.	4.1	UNKNOWN
Optical Delay	550.020508	Delta X		0.078125	Sweeps	1	Scan Rate	0/0
Coordinates	Axis 1	NaN	Axis 2	NaN	Axis 3	NaN	Axis 4	NaN	Axis 5	NaN	Axis 6	0.000000
TX Power	0.000000	RX Power	0.000000

550.021	0.0162563
550.099	0.0156020
550.177	0.0153624
550.255	0.0153103
550.333	0.0153202
550.411	0.0149847
550.489	0.0149992
550.567	0.0146895
550.646	0.0147126
550.724	0.0145744
550.802	0.0144833
550.880	0.0144486
550.958	0.0143385
551.036	0.0141115
551.114	0.0140814
551.192	0.0140867
551.271	0.0141200
551.349	0.0141271
551.427	0.0141299
551.505	0.0141412
551.583	0.0143275
551.661	0.0145144
551.739	0.0146043
551.817	0.0148734
551.896	0.0151713
551.974	0.0152740
552.052	0.0154423
552.130	0.0157578
552.208	0.0162180
552.286	0.0164076
552.364	0.0164256
552.442	0.0166353
552.521	0.0168615
552.599	0.0169884
552.677	0.0171268
552.755	0.0172787
552.833	0.0172344
552.911	0.0171767
552.989	0.0170884
553.067	0.0170876
553.146	0.0168714
553.224	0.0168446
553.302	0.0167059
553.380	0.0167815
553.458	0.0165549
553.536	0.0164642
553.614	0.0163615
553.692	0.0163103
553.771	0.0163150
553.849	0.0162186
553.927	0.0160384
554.005	0.0160541
554.083	0.0161530
554.161	0.0160992
554.239	0.0161710
554.317	0.0161417
554.396	0.0161002
554.474	0.0162173
554.552	0.0163226
554.630	0.0162896
554.708	0.0162113
554.786	0.0163471
554.864	0.0161798
554.942	0.0163460
555.021	0.0162336
555.099	0.0160510
555.177	0.0161316
555.255	0.0162362
555.333	0.0159571
555.411	0.0159835
555.489	0.0159368
555.567	0.0158784
555.646	0.0158456
555.724	0.0158880
555.802	0.0159354
555.880	0.0158487
555.958	0.0159694
556.036	0.0161703
556.114	0.0162761
556.192	0.0163267
556.271	0.0165823
556.349	0.0166018
556.427	0.0168567
556.505	0.0171017
556.583	0.0171397
556.661	0.0171966
556.739	0.0174586
556.817	0.0175717
556.896	0.0175205
556.974	0.0176999
557.052	0.0179590
557.130	0.0179159
557.208	0.0180438
557.286	0.0181734
557.364	0.0182497
557.442	0.0183567
557.521	0.0183836
557.599	0.0185586
557.677	0.0187026
557.755	0.0188451
557.833	0.0188548
557.911	0.0189268
557.989	0.0191015
558.067	0.0190340
558.146	0.0189918
558.224	0.0191891
558.302	0.0189828
558.380	0.0188794
558.458	0.0188345
558.536	0.0188078
558.614	0.0185800
558.692	0.0183627
558.771	0.0182792
558.849	0.0182683
558.927	0.0181198
559.005	0.0180302
559.083	0.0177378
559.161	0.0175424
559.239	0.0174380
559.317	0.0172421
559.396	0.0173165
559.474	0.0168394
559.552	0.0166231
559.630	0.0166742
559.708	0.0163187
559.786	0.0161804
559.864	0.0160858
559.942	0.0159737
560.021	0.0158879
560.099	0.0156389
560.177	0.0157565
560.255	0.0155434
560.333	0.0155219
560.411	0.0153971
560.489	0.0152827
560.567	0.0153744
560.646	0.0153855
560.724	0.0153411
560.802	0.0152581
560.880	0.0153025
560.958	0.0154250
561.036	0.0153492
561.114	0.0151870
561.192	0.0151179
561.271	0.0151394
561.349	0.0151626
561.427	0.0151268
561.505	0.0150903
561.583	0.0149787
561.661	0.0149750
561.739	0.0151086
561.817	0.0151367
561.896	0.0150402
561.974	0.0151942
562.052	0.0151949
562.130	0.0152827
562.208	0.0154311
562.286	0.0155102
562.364	0.0154454
562.442	0.0154479
562.521	0.0155514
562.599	0.0157121
562.677	0.0158605
562.755	0.0157962
562.833	0.0159378
562.911	0.0159554
562.989	0.0160514
563.067	0.0160678
563.146	0.0160701
563.224	0.0161909
563.302	0.0160553
563.380	0.0160305
563.458	0.0160089
563.536	0.0158700
563.614	0.0157998
563.692	0.0159135
563.771	0.0160170
563.849	0.0159225
563.927	0.0157605
564.005	0.0157069
564.083	0.0157143
564.161	0.0157280
564.239	0.0154562
564.317	0.0154489
564.396	0.0153686
564.474	0.0152759
564.552	0.0152945
564.630	0.0153464
564.708	0.0154097
564.786	0.0152381
564.864	0.0151953
564.942	0.0152192
565.021	0.0150918
565.099	0.0152257
565.177	0.0150713
565.255	0.0149978
565.333	0.0149841
565.411	0.0149030
565.489	0.0149747
565.567	0.0150948
565.646	0.0149197
565.724	0.0150045
565.802	0.0150394
565.880	0.0150220
565.958	0.0148612
566.036	0.0150364
566.114	0.0150689
566.192	0.0152229
566.271	0.0152357
566.349	0.0152362
566.427	0.0154079
566.505	0.0154580
566.583	0.0155164
566.661	0.0154817
566.739	0.0156548
566.817	0.0157887
566.896	0.0159013
566.974	0.0158862
567.052	0.0159827
567.130	0.0160223
567.208	0.0161131
567.286	0.0158885
567.364	0.0161272
567.442	0.0160424
567.521	0.0161090
567.599	0.0162050
567.677	0.0159231
567.755	0.0159416
567.833	0.0157991
567.911	0.0158794
567.989	0.0158374
568.067	0.0158851
568.146	0.0156763
568.224	0.0156888
568.302	0.0157698
568.380	0.0157176
568.458	0.0156409
568.536	0.0156631
568.614	0.0156429
568.692	0.0157359
568.771	0.0156586
568.849	0.0158501
568.927	0.0159383
569.005	0.0158842
569.083	0.0159000
569.161	0.0160988
569.239	0.0161727
569.317	0.0162585
569.396	0.0164283
569.474	0.0164823
569.552	0.0164870
569.630	0.0166381
569.708	0.0168871
569.786	0.0166893
569.864	0.0168399
569.942	0.0170285
570.021	0.0169505
570.099	0.0171069
570.177	0.0171412
570.255	0.0171862
570.333	0.0172529
570.411	0.0171931
570.489	0.0172627
570.567	0.0171772
570.646	0.0172176
570.724	0.0172176
570.802	0.0171694
570.880	0.0170592
570.958	0.0169702
571.036	0.0170221
571.114	0.0169352
571.192	0.0166037
571.271	0.0166229
571.349	0.0165358
571.427	0.0164329
571.505	0.0161720
571.583	0.0160768
571.661	0.0161479
571.739	0.0160838
571.817	0.0160705
571.896	0.0159793
571.974	0.0159393
572.052	0.0159565
572.130	0.0160389
572.208	0.0158318
572.286	0.0158817
572.364	0.0159486
572.442	0.0159345
572.521	0.0159413
572.599	0.0159640
572.677	0.0158164
572.755	0.0156982
572.833	0.0158032
572.911	0.0157861
572.989	0.0158405
573.067	0.0156673
573.146	0.0155960
573.224	0.0155410
573.302	0.0155955
573.380	0.0157774
573.458	0.0157131
573.536	0.0156912
573.614	0.0157032
573.692	0.0157841
573.771	0.0158526
573.849	0.0159639
573.927	0.0160380
574.005	0.0159272
574.083	0.0160850
574.161	0.0162004
574.239	0.0161975
574.317	0.0164651
574.396	0.0164539
574.474	0.0164874
574.552	0.0164878
574.630	0.0163908
574.708	0.0164767
574.786	0.0164864
574.864	0.0164404
574.942	0.0163595
575.021	0.0162379
575.099	0.0164505
575.177	0.0162181
575.255	0.0162806
575.333	0.0162945
575.411	0.0162317
575.489	0.0161466
575.567	0.0160699
575.646	0.0160287
575.724	0.0160081
575.802	0.0161789
575.880	0.0158936
575.958	0.0157558
576.036	0.0157182
576.114	0.0156728
576.192	0.0154982
576.271	0.0155007
576.349	0.0154037
576.427	0.0154716
576.505	0.0154797
576.583	0.0154078
576.661	0.0153928
576.739	0.0155241
576.817	0.0155194
576.896	0.0156251
576.974	0.0154978
577.052	0.0156345
577.130	0.0157904
577.208	0.0158524
577.286	0.0159689
577.364	0.0160231
577.442	0.0163473
577.521	0.0164185
577.599	0.0166043
577.677	0.0167069
577.755	0.0168822
577.833	0.0170195
577.911	0.0169568
577.989	0.0169408
578.067	0.0170550
578.146	0.0170420
578.224	0.0171759
578.302	0.0171275
578.380	0.0169792
578.458	0.0169010
578.536	0.0167960
578.614	0.0168000
578.692	0.0166724
578.771	0.0167007
578.849	0.0167946
578.927	0.0165684
579.005	0.0164199
579.083	0.0164066
579.161	0.0164310
579.239	0.0162959
579.317	0.0163387
579.396	0.0162350
579.474	0.0163327
579.552	0.0161958
579.630	0.0162813
579.708	0.0163696
579.786	0.0163290
579.864	0.0164064
579.942	0.0164619
580.021	0.0162740
580.099	0.0164331
580.177	0.0166401
580.255	0.0165936
580.333	0.0165300
580.411	0.0166866
580.489	0.0167892
580.567	0.0167271
580.646	0.0168813
580.724	0.0169901
580.802	0.0169911
580.880	0.0170084
580.958	0.0171832
581.036	0.0171876
581.114	0.0172351
581.192	0.0171810
581.271	0.0171808
581.349	0.0171248
581.427	0.0169559
581.505	0.0170174
581.583	0.0169549
581.661	0.0168237
581.739	0.0167727
581.817	0.0167790
581.896	0.0167020
581.974	0.0167729
582.052	0.0167393
582.130	0.0166499
582.208	0.0166798
582.286	0.0166090
582.364	0.0166383
582.442	0.0166920
582.521	0.0167312
582.599	0.0167121
582.677	0.0166946
582.755	0.0166892
582.833	0.0167238
582.911	0.0167228
582.989	0.0167616
583.067	0.0167516
583.146	0.0166360
583.224	0.0166998
583.302	0.0165904
583.380	0.0165898
583.458	0.0167301
583.536	0.0166333
583.614	0.0164410
583.692	0.0165457
583.771	0.0165720
583.849	0.0165565
583.927	0.0164103
584.005	0.0165227
584.083	0.0164866
584.161	0.0163440
584.239	0.0163011
584.317	0.0163611
584.396	0.0163745
584.474	0.0163326
584.552	0.0164487
584.630	0.0162517
584.708	0.0161679
584.786	0.0161720
584.864	0.0162406
584.942	0.0161722
585.021	0.0161573
585.099	0.0160490
585.177	0.0161322
585.255	0.0161231
585.333	0.0159208
585.411	0.0159302
585.489	0.0159446
585.567	0.0158530
585.646	0.0158953
585.724	0.0157433
585.802	0.0157951
585.880	0.0157210
585.958	0.0156693
586.036	0.0156197
586.114	0.0155526
586.192	0.0154397
586.271	0.0154682
586.349	0.0155471
586.427	0.0154228
586.505	0.0154425
586.583	0.0156237
586.661	0.0155682
586.739	0.0154399
586.817	0.0154541
586.896	0.0154546
586.974	0.0155550
587.052	0.0155138
587.130	0.0156252
587.208	0.0156102
587.286	0.0156108
587.364	0.0155630
587.442	0.0156104
587.521	0.0156559
587.599	0.0155550
587.677	0.0156718
587.755	0.0156220
587.833	0.0156310
587.911	0.0154645
587.989	0.0155576
588.067	0.0156876
588.146	0.0156380
588.224	0.0156892
588.302	0.0154397
588.380	0.0156406
588.458	0.0156798
588.536	0.0156544
588.614	0.0157724
588.692	0.0158698
588.771	0.0157973
588.849	0.0158447
588.927	0.0159606
589.005	0.0158810
589.083	0.0158947
589.161	0.0158028
589.239	0.0161330
589.317	0.0162109
589.396	0.0161893
589.474	0.0161623
589.552	0.0161954
589.630	0.0161836
589.708	0.0163626
589.786	0.0165118
589.864	0.0165784
589.942	0.0165356
590.021	0.0166744
590.099	0.0165989
590.177	0.0165742
590.255	0.0166727
590.333	0.0165726
590.411	0.0164217
590.489	0.0163477
590.567	0.0163655
590.646	0.0162810
590.724	0.0162187
590.802	0.0158688
590.880	0.0159833
590.958	0.0158809
591.036	0.0157865
591.114	0.0159073
591.192	0.0157475
591.271	0.0157082
591.349	0.0157764
591.427	0.0157563
591.505	0.0157522
591.583	0.0157334
591.661	0.0158007
591.739	0.0159582
591.817	0.0160186
591.896	0.0160487
591.974	0.0160411
592.052	0.0161753
592.130	0.0162965
592.208	0.0163444
592.286	0.0163470
592.364	0.0165760
592.442	0.0165992
592.521	0.0166860
592.599	0.0167107
592.677	0.0167328
592.755	0.0168044
592.833	0.0169238
592.911	0.0168868
592.989	0.0168198
593.067	0.0167856
593.146	0.0167193
593.224	0.0166943
593.302	0.0166808
593.380	0.0166326
593.458	0.0166313
593.536	0.0164750
593.614	0.0165496
593.692	0.0165134
593.771	0.0163934
593.849	0.0164485
593.927	0.0164492
594.005	0.0162085
594.083	0.0164111
594.161	0.0163492
594.239	0.0162276
594.317	0.0162433
594.396	0.0161921
594.474	0.0161497
594.552	0.0161722
594.630	0.0160616
594.708	0.0159081
594.786	0.0159579
594.864	0.0157344
594.942	0.0160028
595.021	0.0159179
595.099	0.0157088
595.177	0.0156936
595.255	0.0158839
595.333	0.0157916
595.411	0.0157276
595.489	0.0157756
595.567	0.0158775
595.646	0.0157653
595.724	0.0156552
595.802	0.0158087
595.880	0.0158652
595.958	0.0157447
596.036	0.0157684
596.114	0.0156587
596.192	0.0155994
596.271	0.0155808
596.349	0.0156255
596.427	0.0157583
596.505	0.0156628
596.583	0.0155844
596.661	0.0157135
596.739	0.0157388
596.817	0.0159048
596.896	0.0159059
596.974	0.0161182
597.052	0.0160918
597.130	0.0162062
597.208	0.0163320
597.286	0.0163518
597.364	0.0164953
597.442	0.0164703
597.521	0.0167111
597.599	0.0165827
597.677	0.0166354
597.755	0.0167178
597.833	0.0165868
597.911	0.0167922
597.989	0.0167180
598.067	0.0167281
598.146	0.0167516
598.224	0.0166457
598.302	0.0168073
598.380	0.0168116
598.458	0.0167103
598.536	0.0167684
598.614	0.0167467
598.692	0.0167637
598.771	0.0167936
598.849	0.0167080
598.927	0.0166276
599.005	0.0165633
599.083	0.0166193
599.161	0.0166544
599.239	0.0166074
599.317	0.0166287
599.396	0.0166296
599.474	0.0166141
599.552	0.0164572
599.630	0.0163842
599.708	0.0164554
599.786	0.0164010
599.864	0.0162981
599.942	0.0163429
600.021	0.0162670
600.099	0.0163137
600.177	0.0163087
600.255	0.0162024
600.333	0.0161958
600.411	0.0161745
600.489	0.0162492
600.567	0.0163261
600.646	0.0161782
600.724	0.0162263
600.802	0.0162540
600.880	0.0163184
600.958	0.0163791
601.036	0.0162891
601.114	0.0163087
601.192	0.0164089
601.271	0.0164035
601.349	0.0163766
601.427	0.0163400
601.505	0.0163934
601.583	0.0163198
601.661	0.0163295
601.739	0.0163884
601.817	0.0162440
601.896	0.0163733
601.974	0.0162573
602.052	0.0164430
602.130	0.0163003
602.208	0.0162786
602.286	0.0162429
602.364	0.0162163
602.442	0.0163580
602.521	0.0161797
602.599	0.0162431
602.677	0.0160858
602.755	0.0160669
602.833	0.0159970
602.911	0.0159377
602.989	0.0158789
603.067	0.0157578
603.146	0.0157085
603.224	0.0156611
603.302	0.0154686
603.380	0.0153482
603.458	0.0153867
603.536	0.0153778
603.614	0.0151269
603.692	0.0151704
603.771	0.0150811
603.849	0.0151076
603.927	0.0149561
604.005	0.0150565
604.083	0.0150037
604.161	0.0148998
604.239	0.0148748
604.317	0.0150141
604.396	0.0147553
604.474	0.0148849
604.552	0.0146807
604.630	0.0147625
604.708	0.0147864
604.786	0.0147937
604.864	0.0147203
604.942	0.0148502
605.021	0.0148241
605.099	0.0148005
605.177	0.0149879
605.255	0.0149876
605.333	0.0148921
605.411	0.0150053
605.489	0.0152406
605.567	0.0152687
605.646	0.0153836
605.724	0.0153999
605.802	0.0156555
605.880	0.0157452
605.958	0.0157052
606.036	0.0159136
606.114	0.0160188
606.192	0.0160065
606.271	0.0162293
606.349	0.0162635
606.427	0.0162606
606.505	0.0163013
606.583	0.0162598
606.661	0.0164600
606.739	0.0165268
606.817	0.0164637
606.896	0.0164156
606.974	0.0166380
607.052	0.0165571
607.130	0.0166013
607.208	0.0166824
607.286	0.0166354
607.364	0.0166978
607.442	0.0166752
607.521	0.0166635
607.599	0.0167303
607.677	0.0168922
607.755	0.0167323
607.833	0.0165643
607.911	0.0166714
607.989	0.0166414
608.067	0.0166246
608.146	0.0165351
608.224	0.0165485
608.302	0.0163722
608.380	0.0163448
608.458	0.0164964
608.536	0.0164892
608.614	0.0163306
608.692	0.0162920
608.771	0.0162776
608.849	0.0164109
608.927	0.0163806
609.005	0.0163148
609.083	0.0162398
609.161	0.0163278
609.239	0.0162665
609.317	0.0163169
609.396	0.0163042
609.474	0.0163667
609.552	0.0162642
609.630	0.0162133
609.708	0.0161591
609.786	0.0162391
609.864	0.0163137
609.942	0.0162658
610.021	0.0161626
610.099	0.0162851
610.177	0.0162071
610.255	0.0162977
610.333	0.0164290
610.411	0.0164361
610.489	0.0163129
610.567	0.0163301
610.646	0.0162524
610.724	0.0163606
610.802	0.0164298
610.880	0.0165717
610.958	0.0165366
611.036	0.0166262
611.114	0.0164777
611.192	0.0164291
611.271	0.0163809
611.349	0.0163754
611.427	0.0164625
611.505	0.0164791
611.583	0.0163723
611.661	0.0163496
611.739	0.0163951
611.817	0.0162065
611.896	0.0161480
611.974	0.0162173
612.052	0.0163277
612.130	0.0163380
612.208	0.0164011
612.286	0.0162822
612.364	0.0163139
612.442	0.0162089
612.521	0.0162879
612.599	0.0162984
612.677	0.0161651
612.755	0.0162233
612.833	0.0162698
612.911	0.0162095
612.989	0.0161561
613.067	0.0161498
613.146	0.0162699
613.224	0.0160857
613.302	0.0160819
613.380	0.0160993
613.458	0.0161097
613.536	0.0160143
613.614	0.0160899
613.692	0.0160258
613.771	0.0159988
613.849	0.0161097
613.927	0.0159779
614.005	0.0160571
614.083	0.0160769
614.161	0.0159725
614.239	0.0159180
614.317	0.0159812
614.396	0.0160851
614.474	0.0160035
614.552	0.0160538
614.630	0.0159382
614.708	0.0161324
614.786	0.0161623
614.864	0.0162065
614.942	0.0160794
615.021	0.0158786
615.099	0.0159980
615.177	0.0161057
615.255	0.0160146
615.333	0.0158936
615.411	0.0159474
615.489	0.0159660
615.567	0.0158176
615.646	0.0158695
615.724	0.0158707
615.802	0.0158933
615.880	0.0159280
615.958	0.0160296
616.036	0.0159959
616.114	0.0159756
616.192	0.0158793
616.271	0.0160329
616.349	0.0159377
616.427	0.0161002
616.505	0.0162141
616.583	0.0161131
616.661	0.0160980
616.739	0.0161506
616.817	0.0161986
616.896	0.0160146
616.974	0.0161592
617.052	0.0161005
617.130	0.0160044
617.208	0.0160107
617.286	0.0159755
617.364	0.0160923
617.442	0.0162108
617.521	0.0161354
617.599	0.0161825
617.677	0.0162206
617.755	0.0164535
617.833	0.0163586
617.911	0.0165049
617.989	0.0165942
618.067	0.0163221
618.146	0.0165215
618.224	0.0165121
618.302	0.0164363
618.380	0.0165140
618.458	0.0164755
618.536	0.0163159
618.614	0.0163594
618.692	0.0162505
618.771	0.0163892
618.849	0.0164672
618.927	0.0163779
619.005	0.0162799
619.083	0.0162394
619.161	0.0162969
619.239	0.0163697
619.317	0.0164791
619.396	0.0164156
619.474	0.0162966
619.552	0.0163594
619.630	0.0163714
619.708	0.0164177
619.786	0.0165127
619.864	0.0164644
619.942	0.0163737
620.021	0.0164908
620.099	0.0163725
620.177	0.0164336
620.255	0.0165259
620.333	0.0164364
620.411	0.0162576
620.489	0.0163165
620.567	0.0162300
620.646	0.0161057
620.724	0.0161580
620.802	0.0161994
620.880	0.0159926
620.958	0.0161208
621.036	0.0162308
621.114	0.0160832
621.192	0.0162019
621.271	0.0161839
621.349	0.0161314
621.427	0.0162011
621.505	0.0160519
621.583	0.0162552
621.661	0.0160770
621.739	0.0160382
621.817	0.0157874
621.896	0.0159254
621.974	0.0160318
622.052	0.0158427
622.130	0.0158069
622.208	0.0158473
622.286	0.0156824
622.364	0.0155035
622.442	0.0154697
622.521	0.0155118
622.599	0.0152013
622.677	0.0152461
622.755	0.0153293
622.833	0.0152456
622.911	0.0151959
622.989	0.0151499
623.067	0.0151450
623.146	0.0153340
623.224	0.0154227
623.302	0.0154236
623.380	0.0154700
623.458	0.0156538
623.536	0.0156764
623.614	0.0157582
623.692	0.0157700
623.771	0.0158640
623.849	0.0158318
623.927	0.0158217
624.005	0.0159066
624.083	0.0158562
624.161	0.0159201
624.239	0.0160442
624.317	0.0160996
624.396	0.0161399
624.474	0.0161119
624.552	0.0161268
624.630	0.0163898
624.708	0.0163745
624.786	0.0163438
624.864	0.0163445
624.942	0.0164210
625.021	0.0164571
625.099	0.0165228
625.177	0.0165800
625.255	0.0164812
625.333	0.0165606
625.411	0.0164825
625.489	0.0163322
625.567	0.0163538
625.646	0.0163002
625.724	0.0160592
625.802	0.0161881
625.880	0.0159240
625.958	0.0157799
626.036	0.0157880
626.114	0.0157994
626.192	0.0155913
626.271	0.0156600
626.349	0.0156814
626.427	0.0155466
626.505	0.0154860
626.583	0.0156863
626.661	0.0155077
626.739	0.0155597
626.817	0.0155602
626.896	0.0155434
626.974	0.0154516
627.052	0.0154790
627.130	0.0155007
627.208	0.0155331
627.286	0.0155208
627.364	0.0157230
627.442	0.0155256
627.521	0.0154166
627.599	0.0156902
627.677	0.0156977
627.755	0.0158187
627.833	0.0158684
627.911	0.0159649
627.989	0.0158663
628.067	0.0159169
628.146	0.0160773
628.224	0.0160271
628.302	0.0161532
628.380	0.0160790
628.458	0.0161726
628.536	0.0163143
628.614	0.0163235
628.692	0.0164219
628.771	0.0164060
628.849	0.0163821
628.927	0.0167507
629.005	0.0167406
629.083	0.0165985
629.161	0.0168105
629.239	0.0167494
629.317	0.0169221
629.396	0.0168933
629.474	0.0168633
629.552	0.0169727
629.630	0.0169429
629.708	0.0169458
629.786	0.0170591
629.864	0.0170956
629.942	0.0169430
630.021	0.0168427
630.099	0.0170107
630.177	0.0167261
630.255	0.0169334
630.333	0.0167131
630.411	0.0167291
630.489	0.0167665
630.567	0.0167051
630.646	0.0167544
630.724	0.0167016
630.802	0.0166763
630.880	0.0166734
630.958	0.0166457
631.036	0.0166730
631.114	0.0165965
631.192	0.0166536
631.271	0.0165413
631.349	0.0167113
631.427	0.0166592
631.505	0.0165984
631.583	0.0166186
631.661	0.0166224
631.739	0.0165339
631.817	0.0166162
631.896	0.0165253
631.974	0.0165767
632.052	0.0164309
632.130	0.0163653
632.208	0.0164516
632.286	0.0163629
632.364	0.0162276
632.442	0.0162251
632.521	0.0161337
632.599	0.0163059
632.677	0.0161494
632.755	0.0161674
632.833	0.0162183
632.911	0.0160048
632.989	0.0159587
633.067	0.0159228
633.146	0.0160641
633.224	0.0159567
633.302	0.0159266
633.380	0.0159883
633.458	0.0159253
633.536	0.0159686
633.614	0.0160078
633.692	0.0161254
633.771	0.0161256
633.849	0.0160928
633.927	0.0161114
634.005	0.0161505
634.083	0.0161024
634.161	0.0161943
634.239	0.0161758
634.317	0.0160273
634.396	0.0161105
634.474	0.0161199
634.552	0.0162302
634.630	0.0161069
634.708	0.0160813
634.786	0.0160557
634.864	0.0162400
634.942	0.0162452
635.021	0.0162522
635.099	0.0162827
635.177	0.0164604
635.255	0.0164552
635.333	0.0164020
635.411	0.0164001
635.489	0.0165444
635.567	0.0166110
635.646	0.0165585
635.724	0.0166891
635.802	0.0168753
635.880	0.0169450
635.958	0.0168089
636.036	0.0168977
636.114	0.0170100
636.192	0.0169680
636.271	0.0169942
636.349	0.0168121
636.427	0.0168606
636.505	0.0169297
636.583	0.0165538
636.661	0.0167043
636.739	0.0166709
636.817	0.0165922
636.896	0.0165316
636.974	0.0164612
637.052	0.0164022
637.130	0.0164433
637.208	0.0163225
637.286	0.0162832
637.364	0.0162280
637.442	0.0161288
637.521	0.0161342
637.599	0.0161511
637.677	0.0159904
637.755	0.0160229
637.833	0.0159384
637.911	0.0158125
637.989	0.0157542
638.067	0.0157391
638.146	0.0156862
638.224	0.0155893
638.302	0.0155164
638.380	0.0154438
638.458	0.0154187
638.536	0.0154346
638.614	0.0152626
638.692	0.0151566
638.771	0.0154013
638.849	0.0151707
638.927	0.0151073
639.005	0.0151461
639.083	0.0151824
639.161	0.0151052
639.239	0.0151191
639.317	0.0152647
639.396	0.0151611
639.474	0.0152225
639.552	0.0152436
639.630	0.0153481
639.708	0.0153188
639.786	0.0152810
639.864	0.0153410
639.942	0.0153616
640.021	0.0153797
640.099	0.0155132
640.177	0.0155373
640.255	0.0154998
640.333	0.0155801
640.411	0.0155204
640.489	0.0156976
640.567	0.0158448
640.646	0.0158229
640.724	0.0158841
640.802	0.0158946
640.880	0.0159837
640.958	0.0159023
641.036	0.0159039
641.114	0.0160900
641.192	0.0161597
641.271	0.0160085
641.349	0.0160895
641.427	0.0161787
641.505	0.0160195
641.583	0.0160317
641.661	0.0159343
641.739	0.0160358
641.817	0.0159499
641.896	0.0158623
641.974	0.0158743
642.052	0.0158831
642.130	0.0158812
642.208	0.0158260
642.286	0.0158732
642.364	0.0157408
642.442	0.0159064
642.521	0.0158640
642.599	0.0158038
642.677	0.0158537
642.755	0.0159348
642.833	0.0159650
642.911	0.0159584
642.989	0.0159526
643.067	0.0159864
643.146	0.0161015
643.224	0.0160038
643.302	0.0161778
643.380	0.0160852
643.458	0.0161766
643.536	0.0162241
643.614	0.0163073
643.692	0.0163255
643.771	0.0163807
643.849	0.0163601
643.927	0.0165735
644.005	0.0165401
644.083	0.0166080
644.161	0.0163553
644.239	0.0165381
644.317	0.0166055
644.396	0.0167377
644.474	0.0166163
644.552	0.0165119
644.630	0.0164271
644.708	0.0164359
644.786	0.0165222
644.864	0.0164496
644.942	0.0164151
645.021	0.0163379
645.099	0.0161958
645.177	0.0162319
645.255	0.0161067
645.333	0.0160287
645.411	0.0160740
645.489	0.0160046
645.567	0.0157642
645.646	0.0158350
645.724	0.0158132
645.802	0.0157648
645.880	0.0157864
645.958	0.0160618
646.036	0.0159103
646.114	0.0160831
646.192	0.0160253
646.271	0.0160989
646.349	0.0162464
646.427	0.0163496
646.505	0.0164709
646.583	0.0164478
646.661	0.0164278
646.739	0.0164981
646.817	0.0165134
646.896	0.0164162
646.974	0.0163242
647.052	0.0161642
647.130	0.0162234
647.208	0.0161207
647.286	0.0160905
647.364	0.0158952
647.442	0.0158190
647.521	0.0157069
647.599	0.0159225
647.677	0.0158344
647.755	0.0157624
647.833	0.0159125
647.911	0.0157934
647.989	0.0158411
648.067	0.0158205
648.146	0.0160499
648.224	0.0160771
648.302	0.0160046
648.380	0.0162013
648.458	0.0162012
648.536	0.0163075
648.614	0.0161797
648.692	0.0162171
648.771	0.0163247
648.849	0.0163783
648.927	0.0163684
649.005	0.0163044
649.083	0.0162814
649.161	0.0162033
649.239	0.0162599
649.317	0.0163714
649.396	0.0163862
649.474	0.0162403
649.552	0.0163274
649.630	0.0162798
649.708	0.0162373
649.786	0.0162285
649.864	0.0163702
649.942	0.0163438
650.021	0.0164115
650.099	0.0163136
650.177	0.0162735
650.255	0.0165231
650.333	0.0165009
650.411	0.0164458
650.489	0.0165598
650.567	0.0165339
650.646	0.0166946
650.724	0.0164747
650.802	0.0166920
650.880	0.0165804
650.958	0.0165591
651.036	0.0166891
651.114	0.0167687
651.192	0.0167253
651.271	0.0167653
651.349	0.0166084
651.427	0.0165603
651.505	0.0167016
651.583	0.0166818
651.661	0.0165608
651.739	0.0165607
651.817	0.0164978
651.896	0.0163390
651.974	0.0161676
652.052	0.0161773
652.130	0.0159990
652.208	0.0160219
652.286	0.0160004
652.364	0.0158939
652.442	0.0158625
652.521	0.0159149
652.599	0.0158512
652.677	0.0157588
652.755	0.0156862
652.833	0.0157538
652.911	0.0157912
652.989	0.0156981
653.067	0.0159450
653.146	0.0159848
653.224	0.0158660
653.302	0.0161010
653.380	0.0159230
653.458	0.0160804
653.536	0.0160899
653.614	0.0160925
653.692	0.0162370
653.771	0.0163166
653.849	0.0164297
653.927	0.0164184
654.005	0.0164931
654.083	0.0164172
654.161	0.0165400
654.239	0.0166206
654.317	0.0165663
654.396	0.0166602
654.474	0.0166698
654.552	0.0167199
654.630	0.0167252
654.708	0.0167177
654.786	0.0169810
654.864	0.0168181
654.942	0.0168825
655.021	0.0168885
655.099	0.0171121
655.177	0.0170689
655.255	0.0169500
655.333	0.0170444
655.411	0.0170931
655.489	0.0170142
655.567	0.0170781
655.646	0.0168719
655.724	0.0169685
655.802	0.0169516
655.880	0.0169196
655.958	0.0166206
656.036	0.0167641
656.114	0.0168897
656.192	0.0166624
656.271	0.0166243
656.349	0.0164508
656.427	0.0165959
656.505	0.0165887
656.583	0.0165186
656.661	0.0165050
656.739	0.0165164
656.817	0.0164962
656.896	0.0165869
656.974	0.0166142
657.052	0.0164684
657.130	0.0164124
657.208	0.0165227
657.286	0.0164882
657.364	0.0162647
657.442	0.0162630
657.521	0.0162991
657.599	0.0161099
657.677	0.0159869
657.755	0.0161236
657.833	0.0160965
657.911	0.0159834
657.989	0.0157331
658.067	0.0157970
658.146	0.0157761
658.224	0.0158007
658.302	0.0157404
658.380	0.0158820
658.458	0.0159469
658.536	0.0161102
658.614	0.0162283
658.692	0.0160072
658.771	0.0163616
658.849	0.0163187
658.927	0.0165088
659.005	0.0167985
659.083	0.0168655
659.161	0.0169193
659.239	0.0168609
659.317	0.0169944
659.396	0.0169905
659.474	0.0168242
659.552	0.0166702
659.630	0.0166982
659.708	0.0166650
659.786	0.0164977
659.864	0.0163631
659.942	0.0162885
660.021	0.0162220
660.099	0.0160030
660.177	0.0159194
660.255	0.0158636
660.333	0.0158826
660.411	0.0158546
660.489	0.0156472
660.567	0.0154639
660.646	0.0154999
660.724	0.0156324
660.802	0.0157033
660.880	0.0153484
660.958	0.0153374
661.036	0.0152156
661.114	0.0152153
661.192	0.0152808
661.271	0.0152784
661.349	0.0151352
661.427	0.0151415
661.505	0.0150648
661.583	0.0149701
661.661	0.0149675
661.739	0.0150486
661.817	0.0148837
661.896	0.0150777
661.974	0.0149950
662.052	0.0151569
662.130	0.0150243
662.208	0.0150829
662.286	0.0149317
662.364	0.0149755
662.442	0.0150620
662.521	0.0150311
662.599	0.0149733
662.677	0.0150592
662.755	0.0151662
662.833	0.0152659
662.911	0.0153758
662.989	0.0152848
663.067	0.0152146
663.146	0.0153582
663.224	0.0156018
663.302	0.0156129
663.380	0.0156743
663.458	0.0157422
663.536	0.0156977
663.614	0.0157768
663.692	0.0157419
663.771	0.0158085
663.849	0.0158170
663.927	0.0156008
664.005	0.0157433
664.083	0.0156307
664.161	0.0156682
664.239	0.0156168
664.317	0.0154762
664.396	0.0156582
664.474	0.0154346
664.552	0.0154311
664.630	0.0156573
664.708	0.0157739
664.786	0.0158653
664.864	0.0159647
664.942	0.0159470
665.021	0.0161413
665.099	0.0162656
665.177	0.0164177
665.255	0.0164982
665.333	0.0166695
665.411	0.0166856
665.489	0.0166011
665.567	0.0166222
665.646	0.0165910
665.724	0.0166762
665.802	0.0164314
665.880	0.0164635
665.958	0.0163744
666.036	0.0162483
666.114	0.0162515
666.192	0.0160758
666.271	0.0161868
666.349	0.0160983
666.427	0.0160451
666.505	0.0161358
666.583	0.0161502
666.661	0.0160339
666.739	0.0160667
666.817	0.0161652
666.896	0.0161039
666.974	0.0161552
667.052	0.0162276
667.130	0.0160342
667.208	0.0161823
667.286	0.0162093
667.364	0.0162783
667.442	0.0163752
667.521	0.0162626
667.599	0.0162684
667.677	0.0163205
667.755	0.0164128
667.833	0.0163822
667.911	0.0163676
667.989	0.0162582
668.067	0.0163737
668.146	0.0163390
668.224	0.0162690
668.302	0.0162156
668.380	0.0161517
668.458	0.0161527
668.536	0.0159710
668.614	0.0159119
668.692	0.0158334
668.771	0.0158825
668.849	0.0157607
668.927	0.0155565
669.005	0.0157166
669.083	0.0155718
669.161	0.0155545
669.239	0.0155174
669.317	0.0154954
669.396	0.0155605
669.474	0.0155515
669.552	0.0156474
669.630	0.0157838
669.708	0.0157648
669.786	0.0158505
669.864	0.0161238
669.942	0.0161461
670.021	0.0163956
670.099	0.0166016
670.177	0.0166360
670.255	0.0169215
670.333	0.0169711
670.411	0.0169389
670.489	0.0170575
670.567	0.0168382
670.646	0.0169136
670.724	0.0167217
670.802	0.0165553
670.880	0.0164345
670.958	0.0162640
671.036	0.0160899
671.114	0.0160119
671.192	0.0157427
671.271	0.0155815
671.349	0.0155853
671.427	0.0155578
671.505	0.0154687
671.583	0.0154000
671.661	0.0154988
671.739	0.0154625
671.817	0.0156075
671.896	0.0157193
671.974	0.0158553
672.052	0.0159206
672.130	0.0160773
672.208	0.0162176
672.286	0.0163536
672.364	0.0165863
672.442	0.0165958
672.521	0.0165423
672.599	0.0166109
672.677	0.0166584
672.755	0.0167113
672.833	0.0166358
672.911	0.0165398
672.989	0.0164593
673.067	0.0164044
673.146	0.0163384
673.224	0.0162418
673.302	0.0163097
673.380	0.0161388
673.458	0.0159489
673.536	0.0159106
673.614	0.0158448
673.692	0.0156203
673.771	0.0157249
673.849	0.0158352
673.927	0.0156738
674.005	0.0157822
674.083	0.0158129
674.161	0.0158240
674.239	0.0159184
674.317	0.0159750
674.396	0.0159415
674.474	0.0161326
674.552	0.0162238
674.630	0.0162130
674.708	0.0162449
674.786	0.0163295
674.864	0.0164237
674.942	0.0163374
675.021	0.0162453
675.099	0.0163734
675.177	0.0164673
675.255	0.0163984
675.333	0.0163398
675.411	0.0164414
675.489	0.0163667
675.567	0.0162865
675.646	0.0163819
675.724	0.0163551
675.802	0.0161491
675.880	0.0162239
675.958	0.0164262
676.036	0.0164093
676.114	0.0165137
676.192	0.0163018
676.271	0.0163209
676.349	0.0164526
676.427	0.0164808
676.505	0.0164424
676.583	0.0163611
676.661	0.0164708
676.739	0.0161861
676.817	0.0162880
676.896	0.0164027
676.974	0.0163920
677.052	0.0164288
677.130	0.0162920
677.208	0.0163197
677.286	0.0162759
677.364	0.0162732
677.442	0.0164651
677.521	0.0164481
677.599	0.0165168
677.677	0.0163190
677.755	0.0163549
677.833	0.0164275
677.911	0.0163518
677.989	0.0162700
678.067	0.0163737
678.146	0.0164462
678.224	0.0163618
678.302	0.0163739
678.380	0.0162534
678.458	0.0163220
678.536	0.0161625
678.614	0.0162079
678.692	0.0161751
678.771	0.0160894
678.849	0.0161931
678.927	0.0159670
679.005	0.0160282
679.083	0.0160371
679.161	0.0159801
679.239	0.0160390
679.317	0.0161227
679.396	0.0159525
679.474	0.0159845
679.552	0.0159679
679.630	0.0160646
679.708	0.0159574
679.786	0.0160728
679.864	0.0160224
679.942	0.0159705
680.021	0.0161298
680.099	0.0159059
680.177	0.0159921
680.255	0.0159391
680.333	0.0159200
680.411	0.0158210
680.489	0.0157769
680.567	0.0158720
680.646	0.0158562
680.724	0.0159823
680.802	0.0160567
680.880	0.0158958
680.958	0.0159210
681.036	0.0158503
681.114	0.0159850
681.192	0.0160626
681.271	0.0159959
681.349	0.0160176
681.427	0.0160188
681.505	0.0161655
681.583	0.0161381
681.661	0.0161057
681.739	0.0160294
681.817	0.0162132
681.896	0.0162512
681.974	0.0160551
682.052	0.0161089
682.130	0.0161092
682.208	0.0160806
682.286	0.0159461
682.364	0.0159617
682.442	0.0161395
682.521	0.0162108
682.599	0.0159254
682.677	0.0159618
682.755	0.0161103
682.833	0.0162520
682.911	0.0160582
682.989	0.0161105
683.067	0.0161926
683.146	0.0161919
683.224	0.0161498
683.302	0.0160979
683.380	0.0161430
683.458	0.0161768
683.536	0.0163116
683.614	0.0161169
683.692	0.0160426
683.771	0.0161681
683.849	0.0159022
683.927	0.0160279
684.005	0.0159349
684.083	0.0158926
684.161	0.0159031
684.239	0.0157269
684.317	0.0157625
684.396	0.0156799
684.474	0.0157222
684.552	0.0156826
684.630	0.0155583
684.708	0.0156285
684.786	0.0155914
684.864	0.0155266
684.942	0.0155875
685.021	0.0154704
685.099	0.0155541
685.177	0.0155655
685.255	0.0156249
685.333	0.0157329
685.411	0.0156180
685.489	0.0157800
685.567	0.0157476
685.646	0.0158415
685.724	0.0158152
685.802	0.0159449
685.880	0.0159827
685.958	0.0161308
686.036	0.0159721
686.114	0.0158332
686.192	0.0157389
686.271	0.0158685
686.349	0.0159460
686.427	0.0160295
686.505	0.0159814
686.583	0.0159716
686.661	0.0159682
686.739	0.0158804
686.817	0.0159607
686.896	0.0159776
686.974	0.0158422
687.052	0.0159605
687.130	0.0160171
687.208	0.0158680
687.286	0.0158494
687.364	0.0159370
687.442	0.0159081
687.521	0.0157084
687.599	0.0159508
687.677	0.0158826
687.755	0.0158356
687.833	0.0158842
687.911	0.0156870
687.989	0.0157855
688.067	0.0156988
688.146	0.0157572
688.224	0.0157996
688.302	0.0157611
688.380	0.0157530
688.458	0.0158363
688.536	0.0157145
688.614	0.0159619
688.692	0.0158887
688.771	0.0158785
688.849	0.0159889
688.927	0.0160371
689.005	0.0159244
689.083	0.0161191
689.161	0.0159171
689.239	0.0159853
689.317	0.0160191
689.396	0.0159382
689.474	0.0159959
689.552	0.0160035
689.630	0.0159340
689.708	0.0160066
689.786	0.0161718
689.864	0.0159990
689.942	0.0160262
690.021	0.0160445
690.099	0.0162009
690.177	0.0160886
690.255	0.0162967
690.333	0.0163165
690.411	0.0164050
690.489	0.0162907
690.567	0.0165308
690.646	0.0164001
690.724	0.0164293
690.802	0.0165745
690.880	0.0165946
690.958	0.0165569
691.036	0.0164520
691.114	0.0166094
691.192	0.0166057
691.271	0.0165195
691.349	0.0165028
691.427	0.0164928
691.505	0.0163993
691.583	0.0163998
691.661	0.0164223
691.739	0.0163443
691.817	0.0164153
691.896	0.0165136
691.974	0.0165368
692.052	0.0164537
692.130	0.0163505
692.208	0.0165701
692.286	0.0165746
692.364	0.0166297
692.442	0.0167148
692.521	0.0165607
692.599	0.0166120
692.677	0.0165678
692.755	0.0165414
692.833	0.0165524
692.911	0.0165013
692.989	0.0166558
693.067	0.0166759
693.146	0.0165530
693.224	0.0165965
693.302	0.0164844
693.380	0.0166236
693.458	0.0165379
693.536	0.0166142
693.614	0.0165730
693.692	0.0165143
693.771	0.0166332
693.849	0.0165884
693.927	0.0165807
694.005	0.0165012
694.083	0.0165946
694.161	0.0165134
694.239	0.0166285
694.317	0.0165378
694.396	0.0166129
694.474	0.0165083
694.552	0.0166920
694.630	0.0167463
694.708	0.0167724
694.786	0.0167543
694.864	0.0167021
694.942	0.0166518
695.021	0.0167542
695.099	0.0166287
695.177	0.0166033
695.255	0.0168894
695.333	0.0167027
695.411	0.0168061
695.489	0.0167654
695.567	0.0167451
695.646	0.0167213
695.724	0.0166199
695.802	0.0165582
695.880	0.0166628
695.958	0.0165252
696.036	0.0165856
696.114	0.0163251
696.192	0.0163593
696.271	0.0162322
696.349	0.0162006
696.427	0.0162179
696.505	0.0160437
696.583	0.0160097
696.661	0.0160220
696.739	0.0159047
696.817	0.0157880
696.896	0.0158326
696.974	0.0156947
697.052	0.0156535
697.130	0.0156909
697.208	0.0156342
697.286	0.0156472
697.364	0.0155345
697.442	0.0152857
697.521	0.0155103
697.599	0.0154536
697.677	0.0154691
697.755	0.0155253
697.833	0.0153881
697.911	0.0153549
697.989	0.0154298
698.067	0.0155910
698.146	0.0153396
698.224	0.0154877
698.302	0.0154767
698.380	0.0154710
698.458	0.0153511
698.536	0.0155343
698.614	0.0155758
698.692	0.0156322
698.771	0.0156744
698.849	0.0156230
698.927	0.0157575
699.005	0.0159342
699.083	0.0159184
699.161	0.0159813
699.239	0.0159327
699.317	0.0159772
699.396	0.0160429
699.474	0.0160771
699.552	0.0160940
699.630	0.0161014
699.708	0.0157769
699.786	0.0160078
699.864	0.0159199
699.942	0.0158450
700.021	0.0156979
700.099	0.0157143
700.177	0.0157961
700.255	0.0158162
700.333	0.0156167
700.411	0.0156785
700.489	0.0155752
700.567	0.0157338
700.646	0.0158873
700.724	0.0158030
700.802	0.0158115
700.880	0.0159364
700.958	0.0160345
701.036	0.0161245
701.114	0.0161813
701.192	0.0162381
701.271	0.0163755
701.349	0.0163303
701.427	0.0165543
701.505	0.0165503
701.583	0.0166407
701.661	0.0167242
701.739	0.0167046
701.817	0.0168880
701.896	0.0167120
701.974	0.0165885
702.052	0.0166615
702.130	0.0164539
702.208	0.0165968
702.286	0.0164663
702.364	0.0164153
702.442	0.0162152
702.521	0.0162217
702.599	0.0161500
702.677	0.0160938
702.755	0.0161049
702.833	0.0159519
702.911	0.0161385
702.989	0.0159363
703.067	0.0160188
703.146	0.0161958
703.224	0.0160899
703.302	0.0161416
703.380	0.0162099
703.458	0.0162437
703.536	0.0163390
703.614	0.0163892
703.692	0.0163719
703.771	0.0164587
703.849	0.0166086
703.927	0.0165621
704.005	0.0165000
704.083	0.0164494
704.161	0.0164749
704.239	0.0165094
704.317	0.0163377
704.396	0.0164257
704.474	0.0164468
704.552	0.0162966
704.630	0.0163313
704.708	0.0161923
704.786	0.0162164
704.864	0.0161118
704.942	0.0161768
705.021	0.0160210
705.099	0.0161575
705.177	0.0161996
705.255	0.0159977
705.333	0.0160612
705.411	0.0161516
705.489	0.0159579
705.567	0.0161031
705.646	0.0160019
705.724	0.0160975
705.802	0.0158760
705.880	0.0158991
705.958	0.0159575
706.036	0.0156738
706.114	0.0155949
706.192	0.0156645
706.271	0.0156693
706.349	0.0154610
706.427	0.0153995
706.505	0.0154344
706.583	0.0152293
706.661	0.0153596
706.739	0.0153057
706.817	0.0152378
706.896	0.0152615
706.974	0.0153388
707.052	0.0153846
707.130	0.0154549
707.208	0.0154279
707.286	0.0155392
707.364	0.0155148
707.442	0.0156191
707.521	0.0155663
707.599	0.0157372
707.677	0.0156613
707.755	0.0158584
707.833	0.0158486
707.911	0.0158809
707.989	0.0157164
708.067	0.0157535
708.146	0.0159325
708.224	0.0158184
708.302	0.0157204
708.380	0.0158621
708.458	0.0157059
708.536	0.0157858
708.614	0.0158654
708.692	0.0157610
708.771	0.0155589
708.849	0.0156561
708.927	0.0156628
709.005	0.0157355
709.083	0.0158048
709.161	0.0158864
709.239	0.0157063
709.317	0.0156953
709.396	0.0157391
709.474	0.0157339
709.552	0.0157909
709.630	0.0157637
709.708	0.0159058
709.786	0.0158694
709.864	0.0158859
709.942	0.0157916
710.021	0.0158557
710.099	0.0158506
710.177	0.0158585
710.255	0.0159214
710.333	0.0158587
710.411	0.0157642
710.489	0.0159270
710.567	0.0158407
710.646	0.0159665
710.724	0.0158633
710.802	0.0159157
710.880	0.0160064
710.958	0.0159198
711.036	0.0160162
711.114	0.0162466
711.192	0.0161653
711.271	0.0162382
711.349	0.0161459
711.427	0.0163275
711.505	0.0165350
711.583	0.0166328
711.661	0.0165215
711.739	0.0166174
711.817	0.0165447
711.896	0.0166216
711.974	0.0165850
712.052	0.0166340
712.130	0.0165170
712.208	0.0165865
712.286	0.0167139
712.364	0.0166550
712.442	0.0166023
712.521	0.0166962
712.599	0.0167297
712.677	0.0166062
712.755	0.0168125
712.833	0.0165860
712.911	0.0167389
712.989	0.0167365
713.067	0.0166290
713.146	0.0165835
713.224	0.0164796
713.302	0.0164656
713.380	0.0164021
713.458	0.0164574
713.536	0.0163352
713.614	0.0163766
713.692	0.0164588
713.771	0.0165993
713.849	0.0165220
713.927	0.0165024
714.005	0.0166557
714.083	0.0169439
714.161	0.0168342
714.239	0.0168983
714.317	0.0168847
714.396	0.0168991
714.474	0.0170406
714.552	0.0169064
714.630	0.0170681
714.708	0.0169615
714.786	0.0169748
714.864	0.0169804
714.942	0.0169798
715.021	0.0169452
715.099	0.0167748
715.177	0.0167994
715.255	0.0168769
715.333	0.0169511
715.411	0.0168912
715.489	0.0167926
715.567	0.0167210
715.646	0.0167552
715.724	0.0167379
715.802	0.0166901
715.880	0.0166208
715.958	0.0167193
716.036	0.0167696
716.114	0.0165432
716.192	0.0166541
716.271	0.0165765
716.349	0.0165494
716.427	0.0166068
716.505	0.0166092
716.583	0.0165083
716.661	0.0164484
716.739	0.0164324
716.817	0.0165217
716.896	0.0164018
716.974	0.0164457
717.052	0.0164123
717.130	0.0164345
717.208	0.0163239
717.286	0.0161771
717.364	0.0162572
717.442	0.0162498
717.521	0.0160687
717.599	0.0161840
717.677	0.0159182
717.755	0.0160745
717.833	0.0161297
717.911	0.0161993
717.989	0.0161614
718.067	0.0162303
718.146	0.0162413
718.224	0.0162333
718.302	0.0164083
718.380	0.0163789
718.458	0.0164833
718.536	0.0165774
718.614	0.0165784
718.692	0.0165656
718.771	0.0166077
718.849	0.0166885
718.927	0.0167635
719.005	0.0168279
719.083	0.0167667
719.161	0.0166613
719.239	0.0165382
719.317	0.0164850
719.396	0.0163715
719.474	0.0164159
719.552	0.0161332
719.630	0.0161060
719.708	0.0160795
719.786	0.0159090
719.864	0.0157438
719.942	0.0156255
720.021	0.0155860
720.099	0.0156487
720.177	0.0155516
720.255	0.0153416
720.333	0.0155000
720.411	0.0155406
720.489	0.0154898
720.567	0.0153787
720.646	0.0155338
720.724	0.0156080
720.802	0.0156030
720.880	0.0157724
720.958	0.0155399
721.036	0.0156091
721.114	0.0158659
721.192	0.0158450
721.271	0.0158324
721.349	0.0157890
721.427	0.0158546
721.505	0.0160368
721.583	0.0160698
721.661	0.0160822
721.739	0.0161992
721.817	0.0161816
721.896	0.0160815
721.974	0.0163758
722.052	0.0163474
722.130	0.0163020
722.208	0.0164104
722.286	0.0164684
722.364	0.0164835
722.442	0.0166273
722.521	0.0165083
722.599	0.0165298
722.677	0.0164553
722.755	0.0163993
722.833	0.0163739
722.911	0.0163750
722.989	0.0164127
723.067	0.0161948
723.146	0.0163116
723.224	0.0160982
723.302	0.0161095
723.380	0.0160360
723.458	0.0161990
723.536	0.0159718
723.614	0.0159453
723.692	0.0159383
723.771	0.0159630
723.849	0.0160619
723.927	0.0159544
724.005	0.0159984
724.083	0.0158977
724.161	0.0158794
724.239	0.0160287
724.317	0.0160256
724.396	0.0160341
724.474	0.0161929
724.552	0.0161295
724.630	0.0161805
724.708	0.0161954
724.786	0.0163266
724.864	0.0163744
724.942	0.0164523
725.021	0.0163400
725.099	0.0163570
725.177	0.0163979
725.255	0.0164596
725.333	0.0163941
725.411	0.0165484
725.489	0.0165482
725.567	0.0163703
725.646	0.0163647
725.724	0.0163612
725.802	0.0162218
725.880	0.0160715
725.958	0.0161108
726.036	0.0159682
726.114	0.0159651
726.192	0.0159169
726.271	0.0158399
726.349	0.0157631
726.427	0.0157075
726.505	0.0157424
726.583	0.0157535
726.661	0.0158177
726.739	0.0158609
726.817	0.0158698
726.896	0.0159232
726.974	0.0159605
727.052	0.0161813
727.130	0.0160742
727.208	0.0160252
727.286	0.0163131
727.364	0.0163014
727.442	0.0163592
727.521	0.0162467
727.599	0.0163574
727.677	0.0164071
727.755	0.0162294
727.833	0.0161494
727.911	0.0162334
727.989	0.0160497
728.067	0.0161836
728.146	0.0160211
728.224	0.0159972
728.302	0.0160589
728.380	0.0159294
728.458	0.0159494
728.536	0.0158670
728.614	0.0159415
728.692	0.0160218
728.771	0.0158823
728.849	0.0158394
728.927	0.0157882
729.005	0.0157778
729.083	0.0158717
729.161	0.0157505
729.239	0.0157535
729.317	0.0157883
729.396	0.0157245
729.474	0.0156973
729.552	0.0155506
729.630	0.0156812
729.708	0.0156075
729.786	0.0157385
729.864	0.0156867
729.942	0.0156215
730.021	0.0156423
730.099	0.0156368
730.177	0.0155806
730.255	0.0157996
730.333	0.0159220
730.411	0.0158961
730.489	0.0160876
730.567	0.0162129
730.646	0.0162505
730.724	0.0163995
730.802	0.0164245
730.880	0.0164227
730.958	0.0164005
731.036	0.0165470
731.114	0.0165470
731.192	0.0165249
731.271	0.0164314
731.349	0.0165591
731.427	0.0164388
731.505	0.0162822
731.583	0.0162550
731.661	0.0161183
731.739	0.0160698
731.817	0.0160353
731.896	0.0160573
731.974	0.0159135
732.052	0.0157458
732.130	0.0159798
732.208	0.0158507
732.286	0.0158945
732.364	0.0160005
732.442	0.0160125
732.521	0.0160972
732.599	0.0161578
732.677	0.0161857
732.755	0.0162158
732.833	0.0163118
732.911	0.0164111
732.989	0.0163406
733.067	0.0163777
733.146	0.0163695
733.224	0.0163927
733.302	0.0166629
733.380	0.0166309
733.458	0.0166338
733.536	0.0168066
733.614	0.0166672
733.692	0.0167540
733.771	0.0167969
733.849	0.0167809
733.927	0.0168256
734.005	0.0168784
734.083	0.0168116
734.161	0.0168397
734.239	0.0168578
734.317	0.0167404
734.396	0.0165797
734.474	0.0166081
734.552	0.0165774
734.630	0.0164742
734.708	0.0163477
734.786	0.0163192
734.864	0.0164428
734.942	0.0163055
735.021	0.0163563
735.099	0.0163654
735.177	0.0161192
735.255	0.0162798
735.333	0.0162614
735.411	0.0163287
735.489	0.0163091
735.567	0.0163718
735.646	0.0162055
735.724	0.0162240
735.802	0.0163647
735.880	0.0162258
735.958	0.0161829
736.036	0.0163679
736.114	0.0163874
736.192	0.0163356
736.271	0.0163740
736.349	0.0162303
736.427	0.0162611
736.505	0.0161976
736.583	0.0160808
736.661	0.0159455
736.739	0.0160107
736.817	0.0160527
736.896	0.0161292
736.974	0.0160025
737.052	0.0159843
737.130	0.0160368
737.208	0.0160168
737.286	0.0159757
737.364	0.0160719
737.442	0.0159586
737.521	0.0160275
737.599	0.0160376
737.677	0.0159968
737.755	0.0160651
737.833	0.0162150
737.911	0.0162315
737.989	0.0160868
738.067	0.0162580
738.146	0.0161790
738.224	0.0162997
738.302	0.0162296
738.380	0.0161890
738.458	0.0162814
738.536	0.0162578
738.614	0.0161971
738.692	0.0162432
738.771	0.0162516
738.849	0.0161345
738.927	0.0162661
739.005	0.0161876
739.083	0.0161296
739.161	0.0160963
739.239	0.0160635
739.317	0.0160968
739.396	0.0161253
739.474	0.0160021
739.552	0.0159808
739.630	0.0159448
739.708	0.0160618
739.786	0.0159940
739.864	0.0160285
739.942	0.0160484
740.021	0.0162570
740.099	0.0161734
740.177	0.0162367
740.255	0.0163113
740.333	0.0162508
740.411	0.0162355
740.489	0.0162389
740.567	0.0163581
740.646	0.0162347
740.724	0.0162122
740.802	0.0161873
740.880	0.0160783
740.958	0.0161285
741.036	0.0159204
741.114	0.0157188
741.192	0.0157684
741.271	0.0157771
741.349	0.0156799
741.427	0.0155802
741.505	0.0155142
741.583	0.0153568
741.661	0.0153921
741.739	0.0154910
741.817	0.0154678
741.896	0.0155372
741.974	0.0153897
742.052	0.0154517
742.130	0.0154105
742.208	0.0155913
742.286	0.0155949
742.364	0.0158007
742.442	0.0156176
742.521	0.0157801
742.599	0.0159829
742.677	0.0160184
742.755	0.0161310
742.833	0.0161521
742.911	0.0161667
742.989	0.0161126
743.067	0.0162891
743.146	0.0164419
743.224	0.0164945
743.302	0.0165791
743.380	0.0165315
743.458	0.0165091
743.536	0.0166109
743.614	0.0167711
743.692	0.0167692
743.771	0.0167938
743.849	0.0167877
743.927	0.0166528
744.005	0.0166779
744.083	0.0166840
744.161	0.0166307
744.239	0.0166017
744.317	0.0164329
744.396	0.0164349
744.474	0.0164920
744.552	0.0164617
744.630	0.0167052
744.708	0.0163773
744.786	0.0163205
744.864	0.0162399
744.942	0.0163396
745.021	0.0163990
745.099	0.0164514
745.177	0.0164014
745.255	0.0163345
745.333	0.0162865
745.411	0.0163154
745.489	0.0164133
745.567	0.0163245
745.646	0.0162688
745.724	0.0163281
745.802	0.0163451
745.880	0.0164568
745.958	0.0165491
746.036	0.0164227
746.114	0.0164168
746.192	0.0165973
746.271	0.0166168
746.349	0.0165701
746.427	0.0165132
746.505	0.0167104
746.583	0.0168153
746.661	0.0166003
746.739	0.0167717
746.817	0.0166577
746.896	0.0166384
746.974	0.0166357
747.052	0.0167597
747.130	0.0165653
747.208	0.0163902
747.286	0.0163720
747.364	0.0164797
747.442	0.0164230
747.521	0.0162063
747.599	0.0163152
747.677	0.0162187
747.755	0.0161332
747.833	0.0161843
747.911	0.0161984
747.989	0.0162418
748.067	0.0159740
748.146	0.0160898
748.224	0.0160619
748.302	0.0158785
748.380	0.0159158
748.458	0.0159532
748.536	0.0158893
748.614	0.0158227
748.692	0.0158014
748.771	0.0157432
748.849	0.0157524
748.927	0.0156837
749.005	0.0156413
749.083	0.0157967
749.161	0.0158202
749.239	0.0157793
749.317	0.0158599
749.396	0.0158495
749.474	0.0159261
749.552	0.0159239
749.630	0.0159193
749.708	0.0159244
749.786	0.0158225
749.864	0.0159849
749.942	0.0157837
750.021	0.0156290
750.099	0.0156445
750.177	0.0157188
750.255	0.0155437
750.333	0.0153531
750.411	0.0154546
750.489	0.0153572
750.567	0.0153639
750.646	0.0152972
750.724	0.0153801
750.802	0.0153077
750.880	0.0153796
750.958	0.0155244
751.036	0.0154845
751.114	0.0156777
751.192	0.0156369
751.271	0.0156496
751.349	0.0157805
751.427	0.0158939
751.505	0.0157815
751.583	0.0158952
751.661	0.0158704
751.739	0.0159729
751.817	0.0159747
751.896	0.0159711
751.974	0.0161002
752.052	0.0159577
752.130	0.0160142
752.208	0.0160191
752.286	0.0159691
752.364	0.0159792
752.442	0.0159173
752.521	0.0159685
752.599	0.0159998
752.677	0.0160822
752.755	0.0161297
752.833	0.0161490
752.911	0.0162580
752.989	0.0161887
753.067	0.0162716
753.146	0.0164158
753.224	0.0164381
753.302	0.0165115
753.380	0.0164928
753.458	0.0164419
753.536	0.0166017
753.614	0.0166354
753.692	0.0165527
753.771	0.0165818
753.849	0.0166550
753.927	0.0165792
754.005	0.0166397
754.083	0.0165869
754.161	0.0166185
754.239	0.0165953
754.317	0.0164340
754.396	0.0164225
754.474	0.0166555
754.552	0.0164763
754.630	0.0165199
754.708	0.0164511
754.786	0.0163201
754.864	0.0164034
754.942	0.0164672
755.021	0.0164285
755.099	0.0164092
755.177	0.0164536
755.255	0.0163897
755.333	0.0165253
755.411	0.0163476
755.489	0.0163712
755.567	0.0164744
755.646	0.0164645
755.724	0.0163840
755.802	0.0163360
755.880	0.0164302
755.958	0.0164944
756.036	0.0165820
756.114	0.0163786
756.192	0.0164224
756.271	0.0162798
756.349	0.0164179
756.427	0.0163564
756.505	0.0163889
756.583	0.0162603
756.661	0.0164368
756.739	0.0162535
756.817	0.0163695
756.896	0.0164326
756.974	0.0164430
757.052	0.0163077
757.130	0.0163582
757.208	0.0163430
757.286	0.0162585
757.364	0.0162407
757.442	0.0163566
757.521	0.0162482
757.599	0.0163948
757.677	0.0163290
757.755	0.0163259
757.833	0.0163519
757.911	0.0164949
757.989	0.0163430
758.067	0.0162194
758.146	0.0162592
758.224	0.0161549
758.302	0.0161281
758.380	0.0160804
758.458	0.0159418
758.536	0.0161469
758.614	0.0159190
758.692	0.0160313
758.771	0.0159259
758.849	0.0160250
758.927	0.0159857
759.005	0.0161021
759.083	0.0160514
759.161	0.0159746
759.239	0.0158033
759.317	0.0158743
759.396	0.0158370
759.474	0.0158763
759.552	0.0158105
759.630	0.0157095
759.708	0.0156982
759.786	0.0157012
759.864	0.0157768
759.942	0.0158054
760.021	0.0157088
760.099	0.0157534
760.177	0.0157587
760.255	0.0156211
760.333	0.0157866
760.411	0.0158679
760.489	0.0159172
760.567	0.0159266
760.646	0.0158430
760.724	0.0159486
760.802	0.0159784
760.880	0.0160499
760.958	0.0161618
761.036	0.0160390
761.114	0.0160313
761.192	0.0162215
761.271	0.0162266
761.349	0.0163352
761.427	0.0163426
761.505	0.0162718
761.583	0.0164021
761.661	0.0165269
761.739	0.0165111
761.817	0.0166360
761.896	0.0165099
761.974	0.0166017
762.052	0.0165029
762.130	0.0167274
762.208	0.0166505
762.286	0.0165736
762.364	0.0164864
762.442	0.0163988
762.521	0.0162917
762.599	0.0164336
762.677	0.0162593
762.755	0.0161309
762.833	0.0160837
762.911	0.0160412
762.989	0.0159589
763.067	0.0159116
763.146	0.0158797
763.224	0.0158543
763.302	0.0158839
763.380	0.0159204
763.458	0.0158528
763.536	0.0158777
763.614	0.0160054
763.692	0.0160064
763.771	0.0158247
763.849	0.0158731
763.927	0.0159389
764.005	0.0161150
764.083	0.0160593
764.161	0.0159341
764.239	0.0160104
764.317	0.0159810
764.396	0.0159358
764.474	0.0157684
764.552	0.0158183
764.630	0.0159367
764.708	0.0157995
764.786	0.0158253
764.864	0.0157330
764.942	0.0157147
765.021	0.0158394
765.099	0.0158217
765.177	0.0158402
765.255	0.0159303
765.333	0.0160300
765.411	0.0160441
765.489	0.0159785
765.567	0.0159715
765.646	0.0163483
765.724	0.0162771
765.802	0.0162399
765.880	0.0162877
765.958	0.0163582
766.036	0.0163629
766.114	0.0163712
766.192	0.0165556
766.271	0.0165820
766.349	0.0165943
766.427	0.0166669
766.505	0.0166149
766.583	0.0166209
766.661	0.0166653
766.739	0.0166506
766.817	0.0165771
766.896	0.0166453
766.974	0.0166356
767.052	0.0166457
767.130	0.0166089
767.208	0.0164635
767.286	0.0164826
767.364	0.0165407
767.442	0.0164116
767.521	0.0163878
767.599	0.0163467
767.677	0.0164424
767.755	0.0165488
767.833	0.0165324
767.911	0.0162926
767.989	0.0163858
768.067	0.0164431
768.146	0.0162482
768.224	0.0161303
768.302	0.0162881
768.380	0.0161006
768.458	0.0160953
768.536	0.0159538
768.614	0.0158568
768.692	0.0159141
768.771	0.0157342
768.849	0.0155896
768.927	0.0155698
769.005	0.0155178
769.083	0.0156065
769.161	0.0154561
769.239	0.0153382
769.317	0.0154453
769.396	0.0155246
769.474	0.0155038
769.552	0.0153625
769.630	0.0153825
769.708	0.0153714
769.786	0.0155170
769.864	0.0154997
769.942	0.0154104
770.021	0.0154901
770.099	0.0155762
770.177	0.0155751
770.255	0.0154802
770.333	0.0155021
770.411	0.0156330
770.489	0.0155141
770.567	0.0154853
770.646	0.0154774
770.724	0.0154653
770.802	0.0154626
770.880	0.0155980
770.958	0.0157927
771.036	0.0156594
771.114	0.0156339
771.192	0.0159071
771.271	0.0158559
771.349	0.0159345
771.427	0.0161282
771.505	0.0161423
771.583	0.0161715
771.661	0.0161020
771.739	0.0162698
771.817	0.0163825
771.896	0.0162363
771.974	0.0163519
772.052	0.0163337
772.130	0.0162750
772.208	0.0164452
772.286	0.0163700
772.364	0.0162326
772.442	0.0163228
772.521	0.0163603
772.599	0.0162836
772.677	0.0161436
772.755	0.0161246
772.833	0.0161391
772.911	0.0161610
772.989	0.0162086
773.067	0.0161347
773.146	0.0160566
773.224	0.0159578
773.302	0.0160175
773.380	0.0160835
773.458	0.0160907
773.536	0.0160946
773.614	0.0162164
773.692	0.0162161
773.771	0.0162363
773.849	0.0162332
773.927	0.0162753
774.005	0.0161951
774.083	0.0163454
774.161	0.0163057
774.239	0.0162817
774.317	0.0163425
774.396	0.0161752
774.474	0.0163647
774.552	0.0162951
774.630	0.0161379
774.708	0.0161053
774.786	0.0160948
774.864	0.0161299
774.942	0.0160738
775.021	0.0159453
775.099	0.0157915
775.177	0.0160508
775.255	0.0161983
775.333	0.0159870
775.411	0.0158894
775.489	0.0159315
775.567	0.0159621
775.646	0.0159041
775.724	0.0159757
775.802	0.0160320
775.880	0.0160578
775.958	0.0159261
776.036	0.0161475
776.114	0.0161616
776.192	0.0161234
776.271	0.0162208
776.349	0.0160701
776.427	0.0161012
776.505	0.0161621
776.583	0.0162054
776.661	0.0161987
776.739	0.0161618
776.817	0.0162628
776.896	0.0163174
776.974	0.0162183
777.052	0.0162735
777.130	0.0163335
777.208	0.0162164
777.286	0.0162885
777.364	0.0163313
777.442	0.0161715
777.521	0.0162191
777.599	0.0163226
777.677	0.0162917
777.755	0.0163635
777.833	0.0164270
777.911	0.0163734
777.989	0.0162707
778.067	0.0163789
778.146	0.0164527
778.224	0.0163339
778.302	0.0163358
778.380	0.0163330
778.458	0.0164106
778.536	0.0163820
778.614	0.0163995
778.692	0.0163069
778.771	0.0162603
778.849	0.0162936
778.927	0.0161386
779.005	0.0161231
779.083	0.0162601
779.161	0.0161913
779.239	0.0160848
779.317	0.0159373
779.396	0.0161111
779.474	0.0160006
779.552	0.0160902
779.630	0.0159579
779.708	0.0159921
779.786	0.0160266
779.864	0.0159209
779.942	0.0158945
780.021	0.0158601
780.099	0.0158090
780.177	0.0158765
780.255	0.0158382
780.333	0.0158372
780.411	0.0158327
780.489	0.0158804
780.567	0.0158134
780.646	0.0157465
780.724	0.0159337
780.802	0.0159391
780.880	0.0158223
780.958	0.0158357
781.036	0.0159755
781.114	0.0161005
781.192	0.0160333
781.271	0.0159399
781.349	0.0160643
781.427	0.0160472
781.505	0.0158554
781.583	0.0160038
781.661	0.0159072
781.739	0.0159983
781.817	0.0160450
781.896	0.0158649
781.974	0.0158993
782.052	0.0159077
782.130	0.0156985
782.208	0.0157294
782.286	0.0157394
782.364	0.0158107
782.442	0.0158342
782.521	0.0157789
782.599	0.0159215
782.677	0.0158849
782.755	0.0159386
782.833	0.0159861
782.911	0.0159811
782.989	0.0160587
783.067	0.0160937
783.146	0.0162094
783.224	0.0162428
783.302	0.0161880
783.380	0.0161553
783.458	0.0161176
783.536	0.0162154
783.614	0.0162241
783.692	0.0162107
783.771	0.0163844
783.849	0.0162440
783.927	0.0163239
784.005	0.0162509
784.083	0.0161686
784.161	0.0161088
784.239	0.0161083
784.317	0.0162971
784.396	0.0162630
784.474	0.0161853
784.552	0.0162176
784.630	0.0162305
784.708	0.0163126
784.786	0.0161649
784.864	0.0163597
784.942	0.0162728
785.021	0.0162299
785.099	0.0161358
785.177	0.0161799
785.255	0.0163708
785.333	0.0162925
785.411	0.0163456
785.489	0.0163297
785.567	0.0162440
785.646	0.0161864
785.724	0.0162563
785.802	0.0161686
785.880	0.0163766
785.958	0.0162817
786.036	0.0162806
786.114	0.0163285
786.192	0.0162541
786.271	0.0162173
786.349	0.0163400
786.427	0.0162817
786.505	0.0162326
786.583	0.0162652
786.661	0.0161021
786.739	0.0160882
786.817	0.0161126
786.896	0.0161859
786.974	0.0160423
787.052	0.0161272
787.130	0.0160793
787.208	0.0160943
787.286	0.0162363
787.364	0.0160924
787.442	0.0161948
787.521	0.0162312
787.599	0.0163428
787.677	0.0163203
787.755	0.0163327
787.833	0.0164317
787.911	0.0163302
787.989	0.0163501
788.067	0.0161526
788.146	0.0162803
788.224	0.0163553
788.302	0.0162836
788.380	0.0163145
788.458	0.0163283
788.536	0.0163379
788.614	0.0163558
788.692	0.0163202
788.771	0.0162800
788.849	0.0163021
788.927	0.0163493
789.005	0.0162223
789.083	0.0163933
789.161	0.0162395
789.239	0.0162316
789.317	0.0162611
789.396	0.0161358
789.474	0.0161705
789.552	0.0161575
789.630	0.0159523
789.708	0.0158674
789.786	0.0158078
789.864	0.0157224
789.942	0.0157095
790.021	0.0157926
790.099	0.0156267
790.177	0.0154978
790.255	0.0156080
790.333	0.0155910
790.411	0.0155655
790.489	0.0155690
790.567	0.0156605
790.646	0.0155663
790.724	0.0154823
790.802	0.0157235
790.880	0.0156734
790.958	0.0157694
791.036	0.0157173
791.114	0.0157625
791.192	0.0157545
791.271	0.0158646
791.349	0.0159525
791.427	0.0156953
791.505	0.0159811
791.583	0.0159477
791.661	0.0158354
791.739	0.0159954
791.817	0.0160310
791.896	0.0158327
791.974	0.0159054
792.052	0.0160340
792.130	0.0160446
792.208	0.0159138
792.286	0.0159624
792.364	0.0159823
792.442	0.0159238
792.521	0.0159353
792.599	0.0158157
792.677	0.0158301
792.755	0.0157458
792.833	0.0157358
792.911	0.0155402
792.989	0.0154125
793.067	0.0154671
793.146	0.0152839
793.224	0.0152497
793.302	0.0152058
793.380	0.0150863
793.458	0.0153152
793.536	0.0151663
793.614	0.0151940
793.692	0.0152203
793.771	0.0152750
793.849	0.0153586
793.927	0.0152739
794.005	0.0153893
794.083	0.0154907
794.161	0.0154296
794.239	0.0156034
794.317	0.0157271
794.396	0.0157733
794.474	0.0159232
794.552	0.0159389
794.630	0.0160786
794.708	0.0159784
794.786	0.0160147
794.864	0.0161433
794.942	0.0162470
795.021	0.0161634
795.099	0.0160049
795.177	0.0161034
795.255	0.0161414
795.333	0.0161637
795.411	0.0161412
795.489	0.0162693
795.567	0.0162508
795.646	0.0163363
795.724	0.0163058
795.802	0.0162394
795.880	0.0161967
795.958	0.0161543
796.036	0.0161878
796.114	0.0162539
796.192	0.0162867
796.271	0.0163729
796.349	0.0162293
796.427	0.0161927
796.505	0.0163059
796.583	0.0162817
796.661	0.0163784
796.739	0.0161706
796.817	0.0162502
796.896	0.0162968
796.974	0.0162260
797.052	0.0161185
797.130	0.0162007
797.208	0.0161860
797.286	0.0159158
797.364	0.0160194
797.442	0.0161613
797.521	0.0160416
797.599	0.0160644
797.677	0.0160827
797.755	0.0161286
797.833	0.0163051
797.911	0.0162781
797.989	0.0163409
798.067	0.0163137
798.146	0.0163586
798.224	0.0164595
798.302	0.0164931
798.380	0.0164864
798.458	0.0164821
798.536	0.0166047
798.614	0.0164652
798.692	0.0163718
798.771	0.0164483
798.849	0.0164719
798.927	0.0164466
799.005	0.0164044
799.083	0.0164780
799.161	0.0165121
799.239	0.0164088
799.317	0.0164315
799.396	0.0165063
799.474	0.0164383
799.552	0.0165492
799.630	0.0164545
799.708	0.0165218
799.786	0.0164259
799.864	0.0165585
799.942	0.0165377
800.021	0.0164729
800.099	0.0166124
800.177	0.0165231
800.255	0.0164634
800.333	0.0164294
800.411	0.0165213
800.489	0.0163348
800.567	0.0164069
800.646	0.0163578
800.724	0.0163273
800.802	0.0162797
800.880	0.0162975
800.958	0.0161344
801.036	0.0161066
801.114	0.0159506
801.192	0.0159078
801.271	0.0160793
801.349	0.0158796
801.427	0.0157353
801.505	0.0157685
801.583	0.0159058
801.661	0.0157900
801.739	0.0156731
801.817	0.0157066
801.896	0.0156244
801.974	0.0157816
802.052	0.0157999
802.130	0.0158231
802.208	0.0157788
802.286	0.0156247
802.364	0.0156420
802.442	0.0156481
802.521	0.0158282
802.599	0.0156630
802.677	0.0155167
802.755	0.0157590
802.833	0.0155964
802.911	0.0154256
802.989	0.0156141
803.067	0.0153936
803.146	0.0154871
803.224	0.0154265
803.302	0.0154733
803.380	0.0154398
803.458	0.0153304
803.536	0.0154188
803.614	0.0155099
803.692	0.0155051
803.771	0.0154912
803.849	0.0155414
803.927	0.0155497
804.005	0.0156548
804.083	0.0157321
804.161	0.0156693
804.239	0.0156239
804.317	0.0156997
804.396	0.0156803
804.474	0.0157291
804.552	0.0157606
804.630	0.0157351
804.708	0.0157338
804.786	0.0158163
804.864	0.0158224
804.942	0.0159425
805.021	0.0159150
805.099	0.0160086
805.177	0.0160463
805.255	0.0160372
805.333	0.0159895
805.411	0.0161288
805.489	0.0160613
805.567	0.0161444
805.646	0.0161853
805.724	0.0163419
805.802	0.0163066
805.880	0.0161978
805.958	0.0162844
806.036	0.0162238
806.114	0.0163464
806.192	0.0164856
806.271	0.0164208
806.349	0.0163519
806.427	0.0165598
806.505	0.0163989
806.583	0.0164710
806.661	0.0165490
806.739	0.0166363
806.817	0.0165387
806.896	0.0166628
806.974	0.0168042
807.052	0.0165912
807.130	0.0166637
807.208	0.0167358
807.286	0.0167060
807.364	0.0167616
807.442	0.0168615
807.521	0.0167585
807.599	0.0166592
807.677	0.0168312
807.755	0.0166383
807.833	0.0165765
807.911	0.0166980
807.989	0.0165303
808.067	0.0165925
808.146	0.0166833
808.224	0.0165193
808.302	0.0164188
808.380	0.0165431
808.458	0.0165343
808.536	0.0164468
808.614	0.0162796
808.692	0.0163860
808.771	0.0161705
808.849	0.0162031
808.927	0.0160567
809.005	0.0160867
809.083	0.0160513
809.161	0.0160110
809.239	0.0159730
809.317	0.0159792
809.396	0.0158755
809.474	0.0159216
809.552	0.0157067
809.630	0.0159524
809.708	0.0158374
809.786	0.0157776
809.864	0.0158253
809.942	0.0159543
810.021	0.0159668
810.099	0.0161528
810.177	0.0162298
810.255	0.0161034
810.333	0.0161137
810.411	0.0160586
810.489	0.0161885
810.567	0.0162140
810.646	0.0162749
810.724	0.0164046
810.802	0.0162919
810.880	0.0162981
810.958	0.0163029
811.036	0.0162331
811.114	0.0164529
811.192	0.0164268
811.271	0.0164500
811.349	0.0162402
811.427	0.0162724
811.505	0.0164941
811.583	0.0162727
811.661	0.0163131
811.739	0.0164031
811.817	0.0162241
811.896	0.0161740
811.974	0.0162313
812.052	0.0161525
812.130	0.0162701
812.208	0.0160648
812.286	0.0160416
812.364	0.0160855
812.442	0.0159564
812.521	0.0158377
812.599	0.0157977
812.677	0.0157251
812.755	0.0156664
812.833	0.0155978
812.911	0.0157092
812.989	0.0157632
813.067	0.0157036
813.146	0.0157669
813.224	0.0156413
813.302	0.0157062
813.380	0.0157166
813.458	0.0156084
813.536	0.0157845
813.614	0.0157225
813.692	0.0157600
813.771	0.0157018
813.849	0.0157336
813.927	0.0157526
814.005	0.0156856
814.083	0.0157174
814.161	0.0158157
814.239	0.0157606
814.317	0.0156690
814.396	0.0157314
814.474	0.0158534
814.552	0.0158282
814.630	0.0158347
814.708	0.0158964
814.786	0.0160448
814.864	0.0161556
814.942	0.0159803
815.021	0.0162542
815.099	0.0162733
815.177	0.0163163
815.255	0.0163843
815.333	0.0163496
815.411	0.0163822
815.489	0.0162061
815.567	0.0161292
815.646	0.0162586
815.724	0.0160886
815.802	0.0160046
815.880	0.0161184
815.958	0.0159628
816.036	0.0158933
816.114	0.0159271
816.192	0.0159693
816.271	0.0160368
816.349	0.0158392
816.427	0.0158389
816.505	0.0158637
816.583	0.0159219
816.661	0.0158891
816.739	0.0156728
816.817	0.0157475
816.896	0.0159116
816.974	0.0158524
817.052	0.0156588
817.130	0.0158446
817.208	0.0159171
817.286	0.0160046
817.364	0.0158490
817.442	0.0159013
817.521	0.0160079
817.599	0.0161274
817.677	0.0160787
817.755	0.0161986
817.833	0.0162827
817.911	0.0163432
817.989	0.0164633
818.067	0.0163898
818.146	0.0164984
818.224	0.0166628
818.302	0.0166681
818.380	0.0167785
818.458	0.0168697
818.536	0.0168795
818.614	0.0168983
818.692	0.0169494
818.771	0.0170833
818.849	0.0168907
818.927	0.0170683
819.005	0.0170066
819.083	0.0170348
819.161	0.0168745
819.239	0.0169414
819.317	0.0170033
819.396	0.0170241
819.474	0.0170209
819.552	0.0170008
819.630	0.0171115
819.708	0.0171204
819.786	0.0170588
819.864	0.0171220
819.942	0.0170970
820.021	0.0170700
820.099	0.0169791
820.177	0.0169727
820.255	0.0168970
820.333	0.0168868
820.411	0.0168496
820.489	0.0168528
820.567	0.0165103
820.646	0.0163704
820.724	0.0165350
820.802	0.0163943
820.880	0.0164594
820.958	0.0164130
821.036	0.0161664
821.114	0.0161932
821.192	0.0162218
821.271	0.0161658
821.349	0.0163399
821.427	0.0160957
821.505	0.0158720
821.583	0.0162286
821.661	0.0161509
821.739	0.0161777
821.817	0.0162612
821.896	0.0161028
821.974	0.0160744
822.052	0.0161659
822.130	0.0161378
822.208	0.0161343
822.286	0.0160373
822.364	0.0161597
822.442	0.0161071
822.521	0.0161082
822.599	0.0162230
822.677	0.0161913
822.755	0.0162099
822.833	0.0161387
822.911	0.0162060
822.989	0.0162182
823.067	0.0161054
823.146	0.0163258
823.224	0.0162382
823.302	0.0161897
823.380	0.0162708
823.458	0.0164519
823.536	0.0163123
823.614	0.0162948
823.692	0.0162759
823.771	0.0161991
823.849	0.0162953
823.927	0.0163285
824.005	0.0162244
824.083	0.0161514
824.161	0.0162598
824.239	0.0162328
824.317	0.0162280
824.396	0.0160209
824.474	0.0162189
824.552	0.0161060
824.630	0.0161979
824.708	0.0160046
824.786	0.0160975
824.864	0.0161879
824.942	0.0160928
825.021	0.0160371
825.099	0.0161763
825.177	0.0159132
825.255	0.0160382
825.333	0.0159516
825.411	0.0159562
825.489	0.0159378
825.567	0.0159103
825.646	0.0159327
825.724	0.0159660
825.802	0.0157911
825.880	0.0157021
825.958	0.0157999
826.036	0.0157383
826.114	0.0155505
826.192	0.0156853
826.271	0.0158078
826.349	0.0158505
826.427	0.0157723
826.505	0.0157919
826.583	0.0158389
826.661	0.0157526
826.739	0.0158650
826.817	0.0159684
826.896	0.0161124
826.974	0.0161281
827.052	0.0161135
827.130	0.0161981
827.208	0.0160889
827.286	0.0161699
827.364	0.0161832
827.442	0.0161333
827.521	0.0161500
827.599	0.0161852
827.677	0.0162670
827.755	0.0162030
827.833	0.0162983
827.911	0.0163751
827.989	0.0161319
828.067	0.0162925
828.146	0.0163865
828.224	0.0163410
828.302	0.0161407
828.380	0.0163107
828.458	0.0162980
828.536	0.0163350
828.614	0.0162746
828.692	0.0161327
828.771	0.0161337
828.849	0.0161579
828.927	0.0162183
829.005	0.0161740
829.083	0.0160213
829.161	0.0162543
829.239	0.0160484
829.317	0.0161264
829.396	0.0162403
829.474	0.0162231
829.552	0.0162859
829.630	0.0162638
829.708	0.0163224
829.786	0.0163080
829.864	0.0163760
829.942	0.0162935
830.021	0.0162971
830.099	0.0163863
830.177	0.0164365
830.255	0.0163725
830.333	0.0164025
830.411	0.0165489
830.489	0.0164564
830.567	0.0165208
830.646	0.0166075
830.724	0.0165519
830.802	0.0166448
830.880	0.0166010
830.958	0.0165446
831.036	0.0165444
831.114	0.0167511
831.192	0.0166255
831.271	0.0165398
831.349	0.0166649
831.427	0.0165063
831.505	0.0163828
831.583	0.0164561
831.661	0.0164985
831.739	0.0163754
831.817	0.0163039
831.896	0.0161759
831.974	0.0162547
832.052	0.0162923
832.130	0.0163010
832.208	0.0162486
832.286	0.0162238
832.364	0.0161374
832.442	0.0161470
832.521	0.0163535
832.599	0.0162971
832.677	0.0163383
832.755	0.0166024
832.833	0.0164830
832.911	0.0165504
832.989	0.0165207
833.067	0.0164821
833.146	0.0167460
833.224	0.0167131
833.302	0.0166992
833.380	0.0166616
833.458	0.0165665
833.536	0.0165047
833.614	0.0165769
833.692	0.0163863
833.771	0.0162532
833.849	0.0163187
833.927	0.0163420
834.005	0.0161742
834.083	0.0161726
834.161	0.0162854
834.239	0.0162538
834.317	0.0161561
834.396	0.0161633
834.474	0.0161208
834.552	0.0161680
834.630	0.0162048
834.708	0.0163216
834.786	0.0163412
834.864	0.0162145
834.942	0.0160806
835.021	0.0162025
835.099	0.0161631
835.177	0.0161169
835.255	0.0161191
835.333	0.0160849
835.411	0.0160490
835.489	0.0160723
835.567	0.0160495
835.646	0.0161848
835.724	0.0160874
835.802	0.0160069
835.880	0.0160886
835.958	0.0159263
836.036	0.0161060
836.114	0.0160875
836.192	0.0161005
836.271	0.0160468
836.349	0.0160537
836.427	0.0160777
836.505	0.0161284
836.583	0.0159707
836.661	0.0160098
836.739	0.0161171
836.817	0.0160633
836.896	0.0159152
836.974	0.0159995
837.052	0.0158950
837.130	0.0159980
837.208	0.0160252
837.286	0.0159823
837.364	0.0160258
837.442	0.0160777
837.521	0.0160089
837.599	0.0162566
837.677	0.0162229
837.755	0.0160782
837.833	0.0161127
837.911	0.0161209
837.989	0.0161885
838.067	0.0160876
838.146	0.0162720
838.224	0.0162162
838.302	0.0160067
838.380	0.0161468
838.458	0.0161346
838.536	0.0159825
838.614	0.0161201
838.692	0.0161086
838.771	0.0159670
838.849	0.0158121
838.927	0.0158424
839.005	0.0159609
839.083	0.0160020
839.161	0.0159812
839.239	0.0160426
839.317	0.0160436
839.396	0.0161008
839.474	0.0160513
839.552	0.0162004
839.630	0.0160987
839.708	0.0161237
839.786	0.0162320
839.864	0.0162452
839.942	0.0161965
840.021	0.0162242
840.099	0.0161859
840.177	0.0162363
840.255	0.0162196
840.333	0.0162264
840.411	0.0162289
840.489	0.0162611
840.567	0.0162513
840.646	0.0163641
840.724	0.0160986
840.802	0.0162684
840.880	0.0163338
840.958	0.0161618
841.036	0.0163235
841.114	0.0162074
841.192	0.0162205
841.271	0.0163329
841.349	0.0162353
841.427	0.0161926
841.505	0.0161029
841.583	0.0162563
841.661	0.0162655
841.739	0.0161917
841.817	0.0161562
841.896	0.0162064
841.974	0.0161852
842.052	0.0161156
842.130	0.0160194
842.208	0.0161266
842.286	0.0162126
842.364	0.0161269
842.442	0.0163487
842.521	0.0162863
842.599	0.0161829
842.677	0.0162280
842.755	0.0161723
842.833	0.0161554
842.911	0.0162367
842.989	0.0163019
843.067	0.0164350
843.146	0.0163570
843.224	0.0163769
843.302	0.0162731
843.380	0.0162083
843.458	0.0162222
843.536	0.0164168
843.614	0.0164092
843.692	0.0163761
843.771	0.0163741
843.849	0.0163663
843.927	0.0163441
844.005	0.0163699
844.083	0.0164930
844.161	0.0164149
844.239	0.0163924
844.317	0.0164519
844.396	0.0163021
844.474	0.0163293
844.552	0.0164109
844.630	0.0162696
844.708	0.0165235
844.786	0.0164645
844.864	0.0163599
844.942	0.0163593
845.021	0.0163500
845.099	0.0163214
845.177	0.0163734
845.255	0.0163990
845.333	0.0164301
845.411	0.0164141
845.489	0.0164562
845.567	0.0162200
845.646	0.0163443
845.724	0.0164640
845.802	0.0164899
845.880	0.0163689
845.958	0.0163725
846.036	0.0163839
846.114	0.0162614
846.192	0.0163403
846.271	0.0163948
846.349	0.0163882
846.427	0.0163522
846.505	0.0163162
846.583	0.0164572
846.661	0.0163940
846.739	0.0163493
846.817	0.0163584
846.896	0.0162894
846.974	0.0163099
847.052	0.0163850
847.130	0.0163022
847.208	0.0161409
847.286	0.0161401
847.364	0.0160734
847.442	0.0161591
847.521	0.0160806
847.599	0.0161167
847.677	0.0161618
847.755	0.0162266
847.833	0.0160428
847.911	0.0160543
847.989	0.0163432
848.067	0.0160816
848.146	0.0162933
848.224	0.0161746
848.302	0.0162637
848.380	0.0162788
848.458	0.0163828
848.536	0.0162389
848.614	0.0163177
848.692	0.0163319
848.771	0.0163492
848.849	0.0162978
848.927	0.0161826
849.005	0.0162595
849.083	0.0161645
849.161	0.0160834
849.239	0.0160484
849.317	0.0160027
849.396	0.0159292
849.474	0.0158448
849.552	0.0160535
849.630	0.0160893
849.708	0.0159830
849.786	0.0159856
849.864	0.0159321
849.942	0.0159270
850.021	0.0159322
850.099	0.0159751
850.177	0.0160999
850.255	0.0158939
850.333	0.0159261
850.411	0.0159149
850.489	0.0158160
850.567	0.0159419
850.646	0.0159660
850.724	0.0158982
850.802	0.0158826
850.880	0.0159745
850.958	0.0158541
851.036	0.0158734
851.114	0.0159448
851.192	0.0159464
851.271	0.0158871
851.349	0.0158763
851.427	0.0157668
851.505	0.0158224
851.583	0.0157047
851.661	0.0157627
851.739	0.0157535
851.817	0.0157504
851.896	0.0158154
851.974	0.0157864
852.052	0.0157568
852.130	0.0158300
852.208	0.0158568
852.286	0.0158994
852.364	0.0159464
852.442	0.0160558
852.521	0.0161201
852.599	0.0161985
852.677	0.0160579
852.755	0.0161152
852.833	0.0161977
852.911	0.0163418
852.989	0.0162286
853.067	0.0162782
853.146	0.0163473
853.224	0.0163638
853.302	0.0161954
853.380	0.0162092
853.458	0.0164112
853.536	0.0162458
853.614	0.0162576
853.692	0.0163369
853.771	0.0161597
853.849	0.0162655
853.927	0.0161471
854.005	0.0162206
854.083	0.0162933
854.161	0.0161803
854.239	0.0162479
854.317	0.0161491
854.396	0.0163553
854.474	0.0163360
854.552	0.0164286
854.630	0.0165284
854.708	0.0163749
854.786	0.0165794
854.864	0.0165833
854.942	0.0165398
855.021	0.0164743
855.099	0.0165533
855.177	0.0166319
855.255	0.0165174
855.333	0.0167888
855.411	0.0167125
855.489	0.0167046
855.567	0.0164677
855.646	0.0166794
855.724	0.0164828
855.802	0.0164928
855.880	0.0165552
855.958	0.0165611
856.036	0.0163911
856.114	0.0164886
856.192	0.0164085
856.271	0.0162933
856.349	0.0162399
856.427	0.0160935
856.505	0.0161541
856.583	0.0161557
856.661	0.0159417
856.739	0.0160199
856.817	0.0158080
856.896	0.0157588
856.974	0.0158128
857.052	0.0157642
857.130	0.0157352
857.208	0.0157702
857.286	0.0157439
857.364	0.0156863
857.442	0.0157305
857.521	0.0158192
857.599	0.0158572
857.677	0.0157471
857.755	0.0157182
857.833	0.0157666
857.911	0.0158459
857.989	0.0159407
858.067	0.0159017
858.146	0.0160236
858.224	0.0158125
858.302	0.0160513
858.380	0.0161434
858.458	0.0160996
858.536	0.0161372
858.614	0.0161458
858.692	0.0161846
858.771	0.0161258
858.849	0.0161800
858.927	0.0162824
859.005	0.0162878
859.083	0.0162868
859.161	0.0163160
859.239	0.0163717
859.317	0.0162458
859.396	0.0162892
859.474	0.0162661
859.552	0.0161675
859.630	0.0164178
859.708	0.0164789
859.786	0.0163239
859.864	0.0162460
859.942	0.0162240
860.021	0.0163034
860.099	0.0162590
860.177	0.0162050
860.255	0.0161225
860.333	0.0160851
860.411	0.0161521
860.489	0.0161149
860.567	0.0159895
860.646	0.0159933
860.724	0.0159953
860.802	0.0159215
860.880	0.0158710
860.958	0.0158756
861.036	0.0159641
861.114	0.0157850
861.192	0.0158867
861.271	0.0158929
861.349	0.0159495
861.427	0.0157252
861.505	0.0159225
861.583	0.0158737
861.661	0.0159174
861.739	0.0159052
861.817	0.0159235
861.896	0.0159254
861.974	0.0158305
862.052	0.0158684
862.130	0.0158768
862.208	0.0158978
862.286	0.0159208
862.364	0.0160320
862.442	0.0161905
862.521	0.0161761
862.599	0.0161918
862.677	0.0162286
862.755	0.0164568
862.833	0.0162795
862.911	0.0162214
862.989	0.0163098
863.067	0.0163307
863.146	0.0162560
863.224	0.0161178
863.302	0.0160871
863.380	0.0162054
863.458	0.0160918
863.536	0.0160184
863.614	0.0160900
863.692	0.0160410
863.771	0.0162297
863.849	0.0162747
863.927	0.0163793
864.005	0.0162869
864.083	0.0162459
864.161	0.0161491
864.239	0.0164257
864.317	0.0164048
864.396	0.0162969
864.474	0.0164029
864.552	0.0163908
864.630	0.0161597
864.708	0.0160938
864.786	0.0160952
864.864	0.0161459
864.942	0.0159581
865.021	0.0158787
865.099	0.0159747
865.177	0.0158491
865.255	0.0157945
865.333	0.0158115
865.411	0.0158636
865.489	0.0157770
865.567	0.0158000
865.646	0.0159133
865.724	0.0160426
865.802	0.0159718
865.880	0.0161008
865.958	0.0161800
866.036	0.0162305
866.114	0.0161598
866.192	0.0161889
866.271	0.0162829
866.349	0.0161922
866.427	0.0161345
866.505	0.0161559
866.583	0.0160199
866.661	0.0159941
866.739	0.0159739
866.817	0.0159782
866.896	0.0158658
866.974	0.0158885
867.052	0.0158738
867.130	0.0157643
867.208	0.0157072
867.286	0.0156996
867.364	0.0157580
867.442	0.0156626
867.521	0.0156905
867.599	0.0157617
867.677	0.0156584
867.755	0.0156290
867.833	0.0156583
867.911	0.0157077
867.989	0.0157999
868.067	0.0155932
868.146	0.0156754
868.224	0.0156249
868.302	0.0156918
868.380	0.0155546
868.458	0.0155626
868.536	0.0155835
868.614	0.0156355
868.692	0.0155537
868.771	0.0155429
868.849	0.0155044
868.927	0.0155524
869.005	0.0157528
869.083	0.0156644
869.161	0.0155694
869.239	0.0155878
869.317	0.0156876
869.396	0.0158244
869.474	0.0156657
869.552	0.0156465
869.630	0.0156334
869.708	0.0158344
869.786	0.0159300
869.864	0.0158743
869.942	0.0159751
