06/03/2022	13:56:39	Ver.	4.1	UNKNOWN
Optical Delay	599.988409	Delta X		0.078125	Sweeps	1	Scan Rate	0/0
Coordinates	Axis 1	NaN	Axis 2	NaN	Axis 3	NaN	Axis 4	NaN	Axis 5	NaN	Axis 6	0.000000
TX Power	0.000000	RX Power	0.000000

599.988	0.0168771
600.067	0.0168719
600.145	0.0168344
600.223	0.0168948
600.301	0.0168572
600.379	0.0170235
600.457	0.0169776
600.535	0.0169033
600.613	0.0168256
600.692	0.0168869
600.770	0.0167905
600.848	0.0168705
600.926	0.0167388
601.004	0.0168822
601.082	0.0168683
601.160	0.0169732
601.238	0.0169375
601.317	0.0168718
601.395	0.0170571
601.473	0.0169151
601.551	0.0169872
601.629	0.0169849
601.707	0.0168490
601.785	0.0170865
601.863	0.0170090
601.942	0.0168298
602.020	0.0170044
602.098	0.0168373
602.176	0.0168920
602.254	0.0167673
602.332	0.0169571
602.410	0.0169189
602.488	0.0168007
602.567	0.0169287
602.645	0.0168308
602.723	0.0167522
602.801	0.0167618
602.879	0.0169266
602.957	0.0169255
603.035	0.0169525
603.113	0.0168387
603.192	0.0168340
603.270	0.0170412
603.348	0.0168430
603.426	0.0168967
603.504	0.0169271
603.582	0.0170315
603.660	0.0170081
603.738	0.0168082
603.817	0.0168772
603.895	0.0170451
603.973	0.0168725
604.051	0.0168475
604.129	0.0169170
604.207	0.0168616
604.285	0.0168730
604.363	0.0167989
604.442	0.0169389
604.520	0.0170850
604.598	0.0169722
604.676	0.0167779
604.754	0.0168266
604.832	0.0169334
604.910	0.0170465
604.988	0.0169281
605.067	0.0168668
605.145	0.0169018
605.223	0.0169427
605.301	0.0167902
605.379	0.0169862
605.457	0.0169783
605.535	0.0168713
605.613	0.0168575
605.692	0.0168828
605.770	0.0168288
605.848	0.0168008
605.926	0.0168874
606.004	0.0169736
606.082	0.0169480
606.160	0.0168307
606.238	0.0168299
606.317	0.0168946
606.395	0.0169480
606.473	0.0169421
606.551	0.0168259
606.629	0.0167747
606.707	0.0169597
606.785	0.0170029
606.863	0.0169395
606.942	0.0170193
607.020	0.0168591
607.098	0.0168134
607.176	0.0168378
607.254	0.0167711
607.332	0.0169030
607.410	0.0168980
607.488	0.0170423
607.567	0.0169836
607.645	0.0170024
607.723	0.0168103
607.801	0.0169798
607.879	0.0167847
607.957	0.0167963
608.035	0.0169572
608.113	0.0169149
608.192	0.0168508
608.270	0.0170135
608.348	0.0169058
608.426	0.0169219
608.504	0.0168672
608.582	0.0168768
608.660	0.0169418
608.738	0.0170248
608.817	0.0168939
608.895	0.0169929
608.973	0.0169193
609.051	0.0169730
609.129	0.0169405
609.207	0.0170129
609.285	0.0169012
609.363	0.0169025
609.442	0.0170261
609.520	0.0168896
609.598	0.0167982
609.676	0.0169664
609.754	0.0168349
609.832	0.0169141
609.910	0.0168368
609.988	0.0168142
610.067	0.0169598
610.145	0.0170014
610.223	0.0168052
610.301	0.0168006
610.379	0.0168000
610.457	0.0169669
610.535	0.0168896
610.613	0.0168646
610.692	0.0170276
610.770	0.0168480
610.848	0.0169820
610.926	0.0168683
611.004	0.0170905
611.082	0.0170696
611.160	0.0170219
611.238	0.0170238
611.317	0.0169306
611.395	0.0168723
611.473	0.0168744
611.551	0.0168404
611.629	0.0169872
611.707	0.0169750
611.785	0.0169131
611.863	0.0169176
611.942	0.0168021
612.020	0.0168814
612.098	0.0168745
612.176	0.0169622
612.254	0.0168314
612.332	0.0168301
612.410	0.0168752
612.488	0.0169314
612.567	0.0169766
612.645	0.0169662
612.723	0.0168913
612.801	0.0169801
612.879	0.0169888
612.957	0.0168929
613.035	0.0169051
613.113	0.0169734
613.192	0.0168969
613.270	0.0169876
613.348	0.0168597
613.426	0.0168102
613.504	0.0168643
613.582	0.0169098
613.660	0.0169868
613.738	0.0169315
613.817	0.0167815
613.895	0.0168510
613.973	0.0169222
614.051	0.0168150
614.129	0.0168181
614.207	0.0167395
614.285	0.0168726
614.363	0.0168806
614.442	0.0169772
614.520	0.0169406
614.598	0.0169312
614.676	0.0167992
614.754	0.0168751
614.832	0.0168874
614.910	0.0168688
614.988	0.0169741
615.067	0.0170443
615.145	0.0169241
615.223	0.0170133
615.301	0.0169993
615.379	0.0169021
615.457	0.0170113
615.535	0.0168976
615.613	0.0169050
615.692	0.0168686
615.770	0.0169822
615.848	0.0167464
615.926	0.0168993
616.004	0.0168673
616.082	0.0167827
616.160	0.0169431
616.238	0.0169763
616.317	0.0168768
616.395	0.0169595
616.473	0.0169585
616.551	0.0168740
616.629	0.0170266
616.707	0.0167957
616.785	0.0168524
616.863	0.0169499
616.942	0.0169461
617.020	0.0169893
617.098	0.0169363
617.176	0.0168844
617.254	0.0168990
617.332	0.0169365
617.410	0.0168990
617.488	0.0169553
617.567	0.0169549
617.645	0.0169346
617.723	0.0169417
617.801	0.0168251
617.879	0.0169033
617.957	0.0168388
618.035	0.0168895
618.113	0.0167825
618.192	0.0168169
618.270	0.0167856
618.348	0.0167853
618.426	0.0168356
618.504	0.0168839
618.582	0.0170181
618.660	0.0169145
618.738	0.0168684
618.817	0.0168272
618.895	0.0168039
618.973	0.0168283
619.051	0.0168193
619.129	0.0169142
619.207	0.0170235
619.285	0.0168421
619.363	0.0168335
619.442	0.0169124
619.520	0.0169088
619.598	0.0169702
619.676	0.0167405
619.754	0.0168801
619.832	0.0169157
619.910	0.0167711
619.988	0.0169241
620.067	0.0169842
620.145	0.0169122
620.223	0.0168944
620.301	0.0167435
620.379	0.0168131
620.457	0.0167274
620.535	0.0169283
620.613	0.0169993
620.692	0.0169312
620.770	0.0168999
620.848	0.0169474
620.926	0.0169625
621.004	0.0168765
621.082	0.0169256
621.160	0.0168793
621.238	0.0167959
621.317	0.0167857
621.395	0.0167410
621.473	0.0169720
621.551	0.0169046
621.629	0.0169402
621.707	0.0170489
621.785	0.0170412
621.863	0.0169173
621.942	0.0168771
622.020	0.0168645
622.098	0.0168907
622.176	0.0169019
622.254	0.0169648
622.332	0.0169257
622.410	0.0169386
622.488	0.0168714
622.567	0.0168298
622.645	0.0167368
622.723	0.0169841
622.801	0.0169586
622.879	0.0168944
622.957	0.0168388
623.035	0.0169296
623.113	0.0168453
623.192	0.0168595
623.270	0.0168828
623.348	0.0168843
623.426	0.0168304
623.504	0.0168774
623.582	0.0167659
623.660	0.0169096
623.738	0.0168534
623.817	0.0168011
623.895	0.0169365
623.973	0.0168868
624.051	0.0167570
624.129	0.0168289
624.207	0.0168464
624.285	0.0168304
624.363	0.0168494
624.442	0.0169334
624.520	0.0170548
624.598	0.0168610
624.676	0.0167899
624.754	0.0169473
624.832	0.0169262
624.910	0.0168452
624.988	0.0168214
625.067	0.0169052
625.145	0.0170612
625.223	0.0169823
625.301	0.0168690
625.379	0.0168822
625.457	0.0169764
625.535	0.0169689
625.613	0.0169349
625.692	0.0169083
625.770	0.0168965
625.848	0.0168700
625.926	0.0168896
626.004	0.0168858
626.082	0.0169941
626.160	0.0169149
626.238	0.0169290
626.317	0.0168051
626.395	0.0168757
626.473	0.0168800
626.551	0.0168232
626.629	0.0169197
626.707	0.0168286
626.785	0.0166903
626.863	0.0169353
626.942	0.0168742
627.020	0.0169605
627.098	0.0169099
627.176	0.0168487
627.254	0.0167736
627.332	0.0168258
627.410	0.0168713
627.488	0.0169652
627.567	0.0168494
627.645	0.0168057
627.723	0.0169618
627.801	0.0169611
627.879	0.0170087
627.957	0.0169508
628.035	0.0168849
628.113	0.0168733
628.192	0.0170348
628.270	0.0168581
628.348	0.0169019
628.426	0.0169263
628.504	0.0168402
628.582	0.0167326
628.660	0.0168832
628.738	0.0168691
628.817	0.0167484
628.895	0.0168495
628.973	0.0169267
629.051	0.0168382
629.129	0.0168433
629.207	0.0168819
629.285	0.0167554
629.363	0.0167963
629.442	0.0169920
629.520	0.0169309
629.598	0.0168325
629.676	0.0168574
629.754	0.0168681
629.832	0.0168271
629.910	0.0169202
629.988	0.0169367
630.067	0.0168600
630.145	0.0168086
630.223	0.0168572
630.301	0.0169032
630.379	0.0167746
630.457	0.0168117
630.535	0.0167985
630.613	0.0169093
630.692	0.0168538
630.770	0.0168687
630.848	0.0169453
630.926	0.0169456
631.004	0.0168207
631.082	0.0169789
631.160	0.0168460
631.238	0.0169157
631.317	0.0168994
631.395	0.0168552
631.473	0.0168564
631.551	0.0169904
631.629	0.0167935
631.707	0.0169735
631.785	0.0170524
631.863	0.0169496
631.942	0.0169108
632.020	0.0169524
632.098	0.0168231
632.176	0.0168864
632.254	0.0169208
632.332	0.0169128
632.410	0.0168864
632.488	0.0168039
632.567	0.0169363
632.645	0.0168965
632.723	0.0169026
632.801	0.0168932
632.879	0.0168234
632.957	0.0168552
633.035	0.0168484
633.113	0.0168502
633.192	0.0168721
633.270	0.0169439
633.348	0.0169321
633.426	0.0168952
633.504	0.0167850
633.582	0.0169797
633.660	0.0169035
633.738	0.0169037
633.817	0.0168393
633.895	0.0168994
633.973	0.0169402
634.051	0.0169569
634.129	0.0168658
634.207	0.0167696
634.285	0.0168654
634.363	0.0169993
634.442	0.0169234
634.520	0.0168404
634.598	0.0167856
634.676	0.0168524
634.754	0.0169447
634.832	0.0169798
634.910	0.0167763
634.988	0.0169990
635.067	0.0169183
635.145	0.0168428
635.223	0.0168549
635.301	0.0168463
635.379	0.0168794
635.457	0.0169797
635.535	0.0168322
635.613	0.0168419
635.692	0.0170222
635.770	0.0169766
635.848	0.0169356
635.926	0.0169131
636.004	0.0169318
636.082	0.0168744
636.160	0.0168552
636.238	0.0168233
636.317	0.0168984
636.395	0.0169687
636.473	0.0168907
636.551	0.0170153
636.629	0.0169977
636.707	0.0168525
636.785	0.0168550
636.863	0.0168127
636.942	0.0169425
637.020	0.0169631
637.098	0.0170374
637.176	0.0168398
637.254	0.0167046
637.332	0.0168707
637.410	0.0168772
637.488	0.0168549
637.567	0.0168588
637.645	0.0168202
637.723	0.0169067
637.801	0.0167095
637.879	0.0168345
637.957	0.0169968
638.035	0.0169157
638.113	0.0168950
638.192	0.0168082
638.270	0.0169602
638.348	0.0170215
638.426	0.0168655
638.504	0.0167882
638.582	0.0168847
638.660	0.0168188
638.738	0.0169162
638.817	0.0169459
638.895	0.0168956
638.973	0.0167928
639.051	0.0169743
639.129	0.0169666
639.207	0.0169223
639.285	0.0169217
639.363	0.0168508
639.442	0.0169708
639.520	0.0168545
639.598	0.0169130
639.676	0.0168304
639.754	0.0168703
639.832	0.0168400
639.910	0.0170432
639.988	0.0170160
640.067	0.0168790
640.145	0.0167637
640.223	0.0167856
640.301	0.0169349
640.379	0.0167803
640.457	0.0168994
640.535	0.0169452
640.613	0.0169235
640.692	0.0169119
640.770	0.0169493
640.848	0.0170139
640.926	0.0169570
641.004	0.0168366
641.082	0.0168300
641.160	0.0168669
641.238	0.0168930
641.317	0.0169020
641.395	0.0168616
641.473	0.0169392
641.551	0.0168980
641.629	0.0168563
641.707	0.0168003
641.785	0.0167914
641.863	0.0169515
641.942	0.0169399
642.020	0.0168341
642.098	0.0170145
642.176	0.0169743
642.254	0.0168925
642.332	0.0169161
642.410	0.0169443
642.488	0.0167918
642.567	0.0168839
642.645	0.0169189
642.723	0.0168185
642.801	0.0168203
642.879	0.0168866
642.957	0.0169947
643.035	0.0168755
643.113	0.0167742
643.192	0.0169379
643.270	0.0169793
643.348	0.0169035
643.426	0.0168095
643.504	0.0169133
643.582	0.0170539
643.660	0.0167691
643.738	0.0167714
643.817	0.0169122
643.895	0.0168502
643.973	0.0168127
644.051	0.0168668
644.129	0.0168278
644.207	0.0170335
644.285	0.0168022
644.363	0.0167525
644.442	0.0169042
644.520	0.0167615
644.598	0.0168190
644.676	0.0168616
644.754	0.0166916
644.832	0.0167770
644.910	0.0168086
644.988	0.0167851
645.067	0.0170477
645.145	0.0169654
645.223	0.0169334
645.301	0.0168542
645.379	0.0167554
645.457	0.0168510
645.535	0.0169063
645.613	0.0167673
645.692	0.0167334
645.770	0.0167540
645.848	0.0168896
645.926	0.0169321
646.004	0.0168967
646.082	0.0169391
646.160	0.0168703
646.238	0.0167780
646.317	0.0168468
646.395	0.0167908
646.473	0.0168092
646.551	0.0169176
646.629	0.0169213
646.707	0.0168098
646.785	0.0168717
646.863	0.0170490
646.942	0.0169607
647.020	0.0168867
647.098	0.0169720
647.176	0.0167729
647.254	0.0168376
647.332	0.0168190
647.410	0.0168898
647.488	0.0170007
647.567	0.0168182
647.645	0.0169609
647.723	0.0169025
647.801	0.0168037
647.879	0.0169388
647.957	0.0168504
648.035	0.0167146
648.113	0.0170079
648.192	0.0170065
648.270	0.0169522
648.348	0.0168343
648.426	0.0168987
648.504	0.0168913
648.582	0.0170142
648.660	0.0168147
648.738	0.0169095
648.817	0.0167999
648.895	0.0168761
648.973	0.0167777
649.051	0.0168911
649.129	0.0169323
649.207	0.0168735
649.285	0.0169239
649.363	0.0168664
649.442	0.0169678
649.520	0.0168847
649.598	0.0169175
649.676	0.0169133
649.754	0.0168746
649.832	0.0168443
649.910	0.0168790
649.988	0.0168476
650.067	0.0169784
650.145	0.0170842
650.223	0.0169102
650.301	0.0168813
650.379	0.0170008
650.457	0.0168365
650.535	0.0168902
650.613	0.0168967
650.692	0.0168204
650.770	0.0169321
650.848	0.0169073
650.926	0.0169624
651.004	0.0168390
651.082	0.0169116
651.160	0.0169959
651.238	0.0168620
651.317	0.0168576
651.395	0.0169551
651.473	0.0169048
651.551	0.0167213
651.629	0.0168459
651.707	0.0170070
651.785	0.0169526
651.863	0.0168761
651.942	0.0169812
652.020	0.0169648
652.098	0.0170135
652.176	0.0168819
652.254	0.0168554
652.332	0.0169056
652.410	0.0168983
652.488	0.0169884
652.567	0.0168663
652.645	0.0169167
652.723	0.0168620
652.801	0.0167487
652.879	0.0169305
652.957	0.0169402
653.035	0.0168324
653.113	0.0169009
653.192	0.0169748
653.270	0.0168057
653.348	0.0168909
653.426	0.0169157
653.504	0.0169242
653.582	0.0168476
653.660	0.0168472
653.738	0.0168450
653.817	0.0169120
653.895	0.0168573
653.973	0.0170080
654.051	0.0170289
654.129	0.0168704
654.207	0.0168550
654.285	0.0170742
654.363	0.0169247
654.442	0.0167976
654.520	0.0168683
654.598	0.0169196
654.676	0.0169425
654.754	0.0167982
654.832	0.0169032
654.910	0.0167820
654.988	0.0167082
655.067	0.0169026
655.145	0.0170231
655.223	0.0169401
655.301	0.0169363
655.379	0.0169948
655.457	0.0169608
655.535	0.0168069
655.613	0.0168410
655.692	0.0171152
655.770	0.0168747
655.848	0.0169739
655.926	0.0169988
656.004	0.0169859
656.082	0.0168039
656.160	0.0167908
656.238	0.0168420
656.317	0.0168754
656.395	0.0169221
656.473	0.0169747
656.551	0.0169762
656.629	0.0169657
656.707	0.0170937
656.785	0.0169572
656.863	0.0168825
656.942	0.0168352
657.020	0.0170374
657.098	0.0169556
657.176	0.0169580
657.254	0.0168924
657.332	0.0170000
657.410	0.0168298
657.488	0.0169563
657.567	0.0167387
657.645	0.0168799
657.723	0.0169756
657.801	0.0169072
657.879	0.0168265
657.957	0.0170177
658.035	0.0168565
658.113	0.0168541
658.192	0.0168549
658.270	0.0168078
658.348	0.0167976
658.426	0.0168337
658.504	0.0169463
658.582	0.0169360
658.660	0.0169407
658.738	0.0168375
658.817	0.0169301
658.895	0.0168839
658.973	0.0168462
659.051	0.0169387
659.129	0.0169521
659.207	0.0170125
659.285	0.0169931
659.363	0.0169171
659.442	0.0168945
659.520	0.0168708
659.598	0.0168217
659.676	0.0169220
659.754	0.0169777
659.832	0.0169600
659.910	0.0169736
659.988	0.0168481
660.067	0.0168987
660.145	0.0168851
660.223	0.0168343
660.301	0.0168658
660.379	0.0168937
660.457	0.0169962
660.535	0.0170197
660.613	0.0168319
660.692	0.0167418
660.770	0.0168884
660.848	0.0169047
660.926	0.0167422
661.004	0.0167862
661.082	0.0169524
661.160	0.0169424
661.238	0.0169544
661.317	0.0169590
661.395	0.0168071
661.473	0.0168288
661.551	0.0169540
661.629	0.0168369
661.707	0.0168555
661.785	0.0169763
661.863	0.0170661
661.942	0.0168115
662.020	0.0169874
662.098	0.0169371
662.176	0.0168089
662.254	0.0170270
662.332	0.0169627
662.410	0.0168684
662.488	0.0168389
662.567	0.0167967
662.645	0.0168707
662.723	0.0169730
662.801	0.0168652
662.879	0.0168200
662.957	0.0169496
663.035	0.0167645
663.113	0.0167545
663.192	0.0168085
663.270	0.0169826
663.348	0.0169549
663.426	0.0169240
663.504	0.0168812
663.582	0.0169750
663.660	0.0169386
663.738	0.0168338
663.817	0.0169051
663.895	0.0168263
663.973	0.0170521
664.051	0.0169743
664.129	0.0169524
664.207	0.0169748
664.285	0.0168575
664.363	0.0169308
664.442	0.0169255
664.520	0.0169743
664.598	0.0167481
664.676	0.0169192
664.754	0.0169441
664.832	0.0169896
664.910	0.0168414
664.988	0.0169437
665.067	0.0169060
665.145	0.0168310
665.223	0.0168499
665.301	0.0169283
665.379	0.0170511
665.457	0.0168879
665.535	0.0168827
665.613	0.0169305
665.692	0.0167678
665.770	0.0169124
665.848	0.0168942
665.926	0.0169245
666.004	0.0168661
666.082	0.0169317
666.160	0.0168169
666.238	0.0167622
666.317	0.0168677
666.395	0.0168819
666.473	0.0168903
666.551	0.0168259
666.629	0.0168069
666.707	0.0169070
666.785	0.0168318
666.863	0.0167971
666.942	0.0168734
667.020	0.0168616
667.098	0.0168509
667.176	0.0169893
667.254	0.0168210
667.332	0.0169814
667.410	0.0170389
667.488	0.0167342
667.567	0.0167940
667.645	0.0169287
667.723	0.0168037
667.801	0.0169798
667.879	0.0169032
667.957	0.0168928
668.035	0.0168156
668.113	0.0168301
668.192	0.0167184
668.270	0.0168449
668.348	0.0168412
668.426	0.0169314
668.504	0.0167849
668.582	0.0168135
668.660	0.0168713
668.738	0.0167963
668.817	0.0168304
668.895	0.0168743
668.973	0.0167606
669.051	0.0169991
669.129	0.0168481
669.207	0.0167762
669.285	0.0169128
669.363	0.0167973
669.442	0.0167445
669.520	0.0168268
669.598	0.0168984
669.676	0.0169142
669.754	0.0167886
669.832	0.0168585
669.910	0.0169430
669.988	0.0168271
670.067	0.0168539
670.145	0.0168683
670.223	0.0169154
670.301	0.0169132
670.379	0.0168797
670.457	0.0168210
670.535	0.0168487
670.613	0.0168855
670.692	0.0167484
670.770	0.0169080
670.848	0.0168998
670.926	0.0168717
671.004	0.0168839
671.082	0.0168536
671.160	0.0168529
671.238	0.0169370
671.317	0.0168145
671.395	0.0167727
671.473	0.0167896
671.551	0.0170308
671.629	0.0168689
671.707	0.0169093
671.785	0.0168900
671.863	0.0168460
671.942	0.0168005
672.020	0.0169300
672.098	0.0168961
672.176	0.0168946
672.254	0.0168567
672.332	0.0168684
672.410	0.0168810
672.488	0.0169722
672.567	0.0170007
672.645	0.0167775
672.723	0.0168654
672.801	0.0168467
672.879	0.0169107
672.957	0.0169302
673.035	0.0169072
673.113	0.0170341
673.192	0.0169950
673.270	0.0170314
673.348	0.0169817
673.426	0.0169394
673.504	0.0169585
673.582	0.0170246
673.660	0.0170611
673.738	0.0169841
673.817	0.0168887
673.895	0.0170305
673.973	0.0169508
674.051	0.0169933
674.129	0.0168686
674.207	0.0169482
674.285	0.0169136
674.363	0.0169713
674.442	0.0169373
674.520	0.0170405
674.598	0.0170184
674.676	0.0169818
674.754	0.0169867
674.832	0.0170035
674.910	0.0170100
674.988	0.0168519
675.067	0.0169144
675.145	0.0169506
675.223	0.0170178
675.301	0.0169997
675.379	0.0170214
675.457	0.0170509
675.535	0.0169618
675.613	0.0170544
675.692	0.0170175
675.770	0.0170458
675.848	0.0168582
675.926	0.0170815
676.004	0.0171193
676.082	0.0170940
676.160	0.0171054
676.238	0.0170243
676.317	0.0170136
676.395	0.0169682
676.473	0.0169758
676.551	0.0169164
676.629	0.0170822
676.707	0.0169191
676.785	0.0170387
676.863	0.0169978
676.942	0.0170744
677.020	0.0170215
677.098	0.0171343
677.176	0.0168431
677.254	0.0170148
677.332	0.0169598
677.410	0.0169764
677.488	0.0170335
677.567	0.0170154
677.645	0.0168623
677.723	0.0169485
677.801	0.0168568
677.879	0.0169593
677.957	0.0169437
678.035	0.0170226
678.113	0.0170534
678.192	0.0169183
678.270	0.0169804
678.348	0.0170037
678.426	0.0169723
678.504	0.0170913
678.582	0.0169430
678.660	0.0169324
678.738	0.0169743
678.817	0.0169735
678.895	0.0170502
678.973	0.0169897
679.051	0.0170324
679.129	0.0169786
679.207	0.0168557
679.285	0.0168861
679.363	0.0168987
679.442	0.0168262
679.520	0.0169210
679.598	0.0169156
679.676	0.0168182
679.754	0.0169545
679.832	0.0168448
679.910	0.0169388
679.988	0.0168652
680.067	0.0169409
680.145	0.0168599
680.223	0.0169328
680.301	0.0169144
680.379	0.0168053
680.457	0.0168855
680.535	0.0169211
680.613	0.0168470
680.692	0.0168697
680.770	0.0169941
680.848	0.0168378
680.926	0.0168629
681.004	0.0167773
681.082	0.0167561
681.160	0.0167543
681.238	0.0168717
681.317	0.0169784
681.395	0.0167460
681.473	0.0167987
681.551	0.0167884
681.629	0.0168227
681.707	0.0169521
681.785	0.0168569
681.863	0.0168793
681.942	0.0167763
682.020	0.0168233
682.098	0.0168208
682.176	0.0168338
682.254	0.0168823
682.332	0.0169405
682.410	0.0168934
682.488	0.0167003
682.567	0.0166639
682.645	0.0167833
682.723	0.0168985
682.801	0.0168318
682.879	0.0168537
682.957	0.0169039
683.035	0.0168607
683.113	0.0168732
683.192	0.0168263
683.270	0.0167673
683.348	0.0167670
683.426	0.0168967
683.504	0.0168983
683.582	0.0167684
683.660	0.0167619
683.738	0.0169551
683.817	0.0169434
683.895	0.0168340
683.973	0.0168800
684.051	0.0167773
684.129	0.0168659
684.207	0.0170168
684.285	0.0168470
684.363	0.0169452
684.442	0.0169829
684.520	0.0169704
684.598	0.0169772
684.676	0.0169798
684.754	0.0169501
684.832	0.0170059
684.910	0.0168274
684.988	0.0170028
685.067	0.0168339
685.145	0.0168423
685.223	0.0167944
685.301	0.0166930
685.379	0.0167940
685.457	0.0168128
685.535	0.0168931
685.613	0.0168005
685.692	0.0167664
685.770	0.0167927
685.848	0.0166760
685.926	0.0168227
686.004	0.0168496
686.082	0.0168872
686.160	0.0171780
686.238	0.0169945
686.317	0.0171269
686.395	0.0172254
686.473	0.0171198
686.551	0.0171795
686.629	0.0172373
686.707	0.0172404
686.785	0.0172936
686.863	0.0171474
686.942	0.0171723
687.020	0.0172363
687.098	0.0168986
687.176	0.0166477
687.254	0.0165277
687.332	0.0162355
687.410	0.0157572
687.488	0.0154611
687.567	0.0151342
687.645	0.0148976
687.723	0.0148929
687.801	0.0149198
687.879	0.0151251
687.957	0.0157300
688.035	0.0165888
688.113	0.0176472
688.192	0.0188100
688.270	0.0199251
688.348	0.0208946
688.426	0.0214069
688.504	0.0219060
688.582	0.0218504
688.660	0.0214648
688.738	0.0207689
688.817	0.0196796
688.895	0.0182884
688.973	0.0168253
689.051	0.0153659
689.129	0.0138464
689.207	0.0126088
689.285	0.0117171
689.363	0.0107842
689.442	0.0105421
689.520	0.0103490
689.598	0.0106653
689.676	0.0113085
689.754	0.0123487
689.832	0.0136043
689.910	0.0150847
689.988	0.0168855
690.067	0.0187742
690.145	0.0207556
690.223	0.0225886
690.301	0.0239103
690.379	0.0249822
690.457	0.0257005
690.535	0.0257126
690.613	0.0251849
690.692	0.0240091
690.770	0.0224237
690.848	0.0204361
690.926	0.0183109
691.004	0.0159187
691.082	0.0137197
691.160	0.0119951
691.238	0.0103191
691.317	0.00933006
691.395	0.00862053
691.473	0.00849098
691.551	0.00892105
691.629	0.00953140
691.707	0.0106079
691.785	0.0119769
691.863	0.0136577
691.942	0.0153106
692.020	0.0169284
692.098	0.0187455
692.176	0.0205292
692.254	0.0218353
692.332	0.0228863
692.410	0.0237195
692.488	0.0241659
692.567	0.0241356
692.645	0.0236709
692.723	0.0229876
692.801	0.0219037
692.879	0.0205106
692.957	0.0189395
693.035	0.0174013
693.113	0.0158157
693.192	0.0144614
693.270	0.0130415
693.348	0.0122756
693.426	0.0117168
693.504	0.0114870
693.582	0.0114643
693.660	0.0117003
693.738	0.0123013
693.817	0.0131303
693.895	0.0139580
693.973	0.0148698
694.051	0.0160745
694.129	0.0172009
694.207	0.0180344
694.285	0.0187828
694.363	0.0195554
694.442	0.0200271
694.520	0.0203485
694.598	0.0204002
694.676	0.0201931
694.754	0.0198569
694.832	0.0191893
694.910	0.0186735
694.988	0.0178620
695.067	0.0169897
695.145	0.0163544
695.223	0.0156926
695.301	0.0153226
695.379	0.0148460
695.457	0.0145232
695.535	0.0144714
695.613	0.0144730
695.692	0.0147791
695.770	0.0151389
695.848	0.0155541
695.926	0.0160001
696.004	0.0165217
696.082	0.0170627
696.160	0.0175768
696.238	0.0181883
696.317	0.0186132
696.395	0.0190736
696.473	0.0191930
696.551	0.0195400
696.629	0.0198219
696.707	0.0195715
696.785	0.0195929
696.863	0.0190697
696.942	0.0187466
697.020	0.0181933
697.098	0.0177021
697.176	0.0171846
697.254	0.0164539
697.332	0.0159523
697.410	0.0152258
697.488	0.0147594
697.567	0.0142048
697.645	0.0139084
697.723	0.0137231
697.801	0.0138251
697.879	0.0138132
697.957	0.0141878
698.035	0.0147014
698.113	0.0150436
698.192	0.0154205
698.270	0.0159382
698.348	0.0165768
698.426	0.0171738
698.504	0.0176070
698.582	0.0180066
698.660	0.0183661
698.738	0.0184876
698.817	0.0186181
698.895	0.0187638
698.973	0.0185019
699.051	0.0184914
699.129	0.0185688
699.207	0.0183371
699.285	0.0180739
699.363	0.0179273
699.442	0.0179124
699.520	0.0173900
699.598	0.0172352
699.676	0.0171666
699.754	0.0170346
699.832	0.0167822
699.910	0.0167189
699.988	0.0167696
700.067	0.0168516
700.145	0.0166335
700.223	0.0167133
700.301	0.0167289
700.379	0.0164982
700.457	0.0165884
700.535	0.0166956
700.613	0.0165739
700.692	0.0165411
700.770	0.0165162
700.848	0.0163760
700.926	0.0163723
701.004	0.0163881
701.082	0.0163448
701.160	0.0162340
701.238	0.0164394
701.317	0.0163513
701.395	0.0164027
701.473	0.0163539
701.551	0.0165072
701.629	0.0165825
701.707	0.0167220
701.785	0.0167797
701.863	0.0167328
701.942	0.0169522
702.020	0.0169234
702.098	0.0169070
702.176	0.0171175
702.254	0.0171413
702.332	0.0170338
702.410	0.0171513
702.488	0.0171651
702.567	0.0172784
702.645	0.0172721
702.723	0.0173517
702.801	0.0172617
702.879	0.0172792
702.957	0.0172784
703.035	0.0172767
703.113	0.0175074
703.192	0.0176328
703.270	0.0175499
703.348	0.0174785
703.426	0.0174973
703.504	0.0174792
703.582	0.0174064
703.660	0.0173708
703.738	0.0173477
703.817	0.0173149
703.895	0.0172210
703.973	0.0171669
704.051	0.0171609
704.129	0.0172926
704.207	0.0174513
704.285	0.0171625
704.363	0.0171775
704.442	0.0170360
704.520	0.0168228
704.598	0.0168240
704.676	0.0164663
704.754	0.0164478
704.832	0.0160594
704.910	0.0160883
704.988	0.0160030
705.067	0.0160918
705.145	0.0160058
705.223	0.0160746
705.301	0.0162495
705.379	0.0162691
705.457	0.0165038
705.535	0.0164921
705.613	0.0166654
705.692	0.0169049
705.770	0.0169347
705.848	0.0167810
705.926	0.0167937
706.004	0.0167275
706.082	0.0166990
706.160	0.0166187
706.238	0.0163539
706.317	0.0164301
706.395	0.0162531
706.473	0.0161245
706.551	0.0162450
706.629	0.0161310
706.707	0.0161603
706.785	0.0163768
706.863	0.0166557
706.942	0.0166458
707.020	0.0168724
707.098	0.0173629
707.176	0.0176794
707.254	0.0178685
707.332	0.0180566
707.410	0.0184235
707.488	0.0184476
707.567	0.0184626
707.645	0.0185236
707.723	0.0183878
707.801	0.0182940
707.879	0.0180598
707.957	0.0177890
708.035	0.0174434
708.113	0.0171915
708.192	0.0169712
708.270	0.0167255
708.348	0.0163528
708.426	0.0163926
708.504	0.0163282
708.582	0.0161768
708.660	0.0162997
708.738	0.0163457
708.817	0.0164793
708.895	0.0166916
708.973	0.0168840
709.051	0.0171135
709.129	0.0171702
709.207	0.0173938
709.285	0.0173705
709.363	0.0171928
709.442	0.0171757
709.520	0.0171106
709.598	0.0169843
709.676	0.0167139
709.754	0.0164867
709.832	0.0162115
709.910	0.0160677
709.988	0.0159899
710.067	0.0157173
710.145	0.0157020
710.223	0.0156618
710.301	0.0156705
710.379	0.0155978
710.457	0.0157917
710.535	0.0159577
710.613	0.0160227
710.692	0.0162467
710.770	0.0163109
710.848	0.0167525
710.926	0.0168771
711.004	0.0169424
711.082	0.0170129
711.160	0.0171944
711.238	0.0170794
711.317	0.0169032
711.395	0.0169357
711.473	0.0169653
711.551	0.0169937
711.629	0.0167448
711.707	0.0168044
711.785	0.0168426
711.863	0.0167750
711.942	0.0169110
712.020	0.0169214
712.098	0.0167766
712.176	0.0170198
712.254	0.0171540
712.332	0.0172921
712.410	0.0173819
712.488	0.0175066
712.567	0.0175721
712.645	0.0176528
712.723	0.0177190
712.801	0.0177583
712.879	0.0176954
712.957	0.0177892
713.035	0.0177301
713.113	0.0176463
713.192	0.0175338
713.270	0.0175053
713.348	0.0174825
713.426	0.0173733
713.504	0.0172001
713.582	0.0171069
713.660	0.0170402
713.738	0.0169099
713.817	0.0167578
713.895	0.0167966
713.973	0.0169322
714.051	0.0168536
714.129	0.0169194
714.207	0.0169829
714.285	0.0169604
714.363	0.0170352
714.442	0.0171421
714.520	0.0171770
714.598	0.0171024
714.676	0.0170850
714.754	0.0169178
714.832	0.0168110
714.910	0.0168084
714.988	0.0166283
715.067	0.0164629
715.145	0.0164246
715.223	0.0164819
715.301	0.0162922
715.379	0.0161910
715.457	0.0160207
715.535	0.0160498
715.613	0.0159029
715.692	0.0160548
715.770	0.0159979
715.848	0.0161560
715.926	0.0163374
716.004	0.0162753
716.082	0.0165171
716.160	0.0165285
716.238	0.0168480
716.317	0.0170439
716.395	0.0171600
716.473	0.0173805
716.551	0.0174339
716.629	0.0174978
716.707	0.0174779
716.785	0.0175161
716.863	0.0174891
716.942	0.0173277
717.020	0.0173177
717.098	0.0171127
717.176	0.0170824
717.254	0.0168353
717.332	0.0169785
717.410	0.0166595
717.488	0.0168594
717.567	0.0168141
717.645	0.0168008
717.723	0.0168704
717.801	0.0169749
717.879	0.0172874
717.957	0.0174675
718.035	0.0175405
718.113	0.0175896
718.192	0.0176413
718.270	0.0177571
718.348	0.0179549
718.426	0.0178003
718.504	0.0177655
718.582	0.0175771
718.660	0.0174017
718.738	0.0172285
718.817	0.0169419
718.895	0.0166377
718.973	0.0165352
719.051	0.0161511
719.129	0.0160775
719.207	0.0160051
719.285	0.0159953
719.363	0.0160276
719.442	0.0159777
719.520	0.0162228
719.598	0.0163846
719.676	0.0163992
719.754	0.0164725
719.832	0.0168024
719.910	0.0168784
719.988	0.0169599
720.067	0.0171152
720.145	0.0171766
720.223	0.0173598
720.301	0.0172478
720.379	0.0170932
720.457	0.0169704
720.535	0.0169549
720.613	0.0168965
720.692	0.0167741
720.770	0.0166014
720.848	0.0165699
720.926	0.0164517
721.004	0.0165446
721.082	0.0164180
721.160	0.0163858
721.238	0.0165663
721.317	0.0166936
721.395	0.0166618
721.473	0.0166689
721.551	0.0169445
721.629	0.0170928
721.707	0.0172270
721.785	0.0172926
721.863	0.0173389
721.942	0.0173332
722.020	0.0175564
722.098	0.0175681
722.176	0.0175099
722.254	0.0175140
722.332	0.0173882
722.410	0.0172662
722.488	0.0171922
722.567	0.0170826
722.645	0.0169801
722.723	0.0169155
722.801	0.0167535
722.879	0.0166319
722.957	0.0167065
723.035	0.0166356
723.113	0.0165234
723.192	0.0165866
723.270	0.0168285
723.348	0.0168021
723.426	0.0169341
723.504	0.0171042
723.582	0.0171220
723.660	0.0172797
723.738	0.0171706
723.817	0.0171201
723.895	0.0171388
723.973	0.0170535
724.051	0.0169984
724.129	0.0168938
724.207	0.0166930
724.285	0.0167072
724.363	0.0166188
724.442	0.0165211
724.520	0.0163168
724.598	0.0162232
724.676	0.0162010
724.754	0.0160979
724.832	0.0161501
724.910	0.0161040
724.988	0.0161442
725.067	0.0164350
725.145	0.0164777
725.223	0.0163517
725.301	0.0165943
725.379	0.0167357
725.457	0.0169447
725.535	0.0170346
725.613	0.0169317
725.692	0.0170969
725.770	0.0171450
725.848	0.0172079
725.926	0.0169355
726.004	0.0169701
726.082	0.0169006
726.160	0.0169854
726.238	0.0169437
726.317	0.0168206
726.395	0.0167294
726.473	0.0168203
726.551	0.0167832
726.629	0.0168459
726.707	0.0168456
726.785	0.0169387
726.863	0.0169347
726.942	0.0171490
727.020	0.0173257
727.098	0.0175440
727.176	0.0175643
727.254	0.0174693
727.332	0.0175052
727.410	0.0176643
727.488	0.0175883
727.567	0.0174986
727.645	0.0173870
727.723	0.0172588
727.801	0.0173026
727.879	0.0172240
727.957	0.0169694
728.035	0.0170911
728.113	0.0168850
728.192	0.0168153
728.270	0.0167905
728.348	0.0168532
728.426	0.0168069
728.504	0.0167825
728.582	0.0167984
728.660	0.0169045
728.738	0.0168839
728.817	0.0168627
728.895	0.0169834
728.973	0.0170579
729.051	0.0171227
729.129	0.0170718
729.207	0.0170987
729.285	0.0170582
729.363	0.0171150
729.442	0.0170660
729.520	0.0170322
729.598	0.0168977
729.676	0.0167472
729.754	0.0166557
729.832	0.0167236
729.910	0.0165303
729.988	0.0164918
730.067	0.0165386
730.145	0.0165298
730.223	0.0165221
730.301	0.0166042
730.379	0.0166232
730.457	0.0167049
730.535	0.0166811
730.613	0.0167765
730.692	0.0169351
730.770	0.0168487
730.848	0.0169523
730.926	0.0170789
731.004	0.0171067
731.082	0.0171834
731.160	0.0171049
731.238	0.0170277
731.317	0.0170982
731.395	0.0168221
731.473	0.0168723
731.551	0.0167305
731.629	0.0166319
731.707	0.0165687
731.785	0.0165352
731.863	0.0165526
731.942	0.0166950
732.020	0.0166168
732.098	0.0166859
732.176	0.0167151
732.254	0.0167828
732.332	0.0167543
732.410	0.0167720
732.488	0.0168250
732.567	0.0169805
732.645	0.0169411
732.723	0.0170581
732.801	0.0171238
732.879	0.0170789
732.957	0.0171902
733.035	0.0170631
733.113	0.0171307
733.192	0.0170371
733.270	0.0169016
733.348	0.0169639
733.426	0.0168903
733.504	0.0168274
733.582	0.0168558
733.660	0.0166924
733.738	0.0166225
733.817	0.0167004
733.895	0.0165633
733.973	0.0166209
734.051	0.0165672
734.129	0.0167246
734.207	0.0167879
734.285	0.0167330
734.363	0.0170636
734.442	0.0171823
734.520	0.0170500
734.598	0.0171227
734.676	0.0170140
734.754	0.0172880
734.832	0.0172260
734.910	0.0171499
734.988	0.0171349
735.067	0.0170163
735.145	0.0169819
735.223	0.0169819
735.301	0.0168517
735.379	0.0168979
735.457	0.0169317
735.535	0.0168991
735.613	0.0167651
735.692	0.0168142
735.770	0.0167523
735.848	0.0169839
735.926	0.0168509
736.004	0.0168055
736.082	0.0168502
736.160	0.0168301
736.238	0.0167956
736.317	0.0168383
736.395	0.0167873
736.473	0.0168898
736.551	0.0166631
736.629	0.0167355
736.707	0.0169540
736.785	0.0166585
736.863	0.0166971
736.942	0.0167087
737.020	0.0165886
737.098	0.0167100
737.176	0.0167855
737.254	0.0166417
737.332	0.0166277
737.410	0.0167835
737.488	0.0166880
737.567	0.0166393
737.645	0.0166945
737.723	0.0167612
737.801	0.0167124
737.879	0.0167825
737.957	0.0167851
738.035	0.0167842
738.113	0.0166505
738.192	0.0166980
738.270	0.0169198
738.348	0.0167003
738.426	0.0167915
738.504	0.0167531
738.582	0.0167035
738.660	0.0167010
738.738	0.0167599
738.817	0.0167130
738.895	0.0166517
738.973	0.0168305
739.051	0.0168983
739.129	0.0167731
739.207	0.0169541
739.285	0.0168578
739.363	0.0170038
739.442	0.0170443
739.520	0.0170024
739.598	0.0169334
739.676	0.0170036
739.754	0.0171652
739.832	0.0172575
739.910	0.0170874
739.988	0.0170466
740.067	0.0171899
740.145	0.0172642
740.223	0.0170849
740.301	0.0170710
740.379	0.0170918
740.457	0.0170048
740.535	0.0169100
740.613	0.0168429
740.692	0.0167586
740.770	0.0167588
740.848	0.0168192
740.926	0.0166947
741.004	0.0166994
741.082	0.0166634
741.160	0.0166439
741.238	0.0167410
741.317	0.0167593
741.395	0.0168458
741.473	0.0167892
741.551	0.0168109
741.629	0.0168942
741.707	0.0168501
741.785	0.0168968
741.863	0.0169016
741.942	0.0168419
742.020	0.0168954
742.098	0.0168606
742.176	0.0168723
742.254	0.0167941
742.332	0.0167519
742.410	0.0167619
742.488	0.0167664
742.567	0.0166269
742.645	0.0168156
742.723	0.0169700
742.801	0.0167786
742.879	0.0168976
742.957	0.0169468
743.035	0.0170652
743.113	0.0170161
743.192	0.0171358
743.270	0.0171557
743.348	0.0171176
743.426	0.0171888
743.504	0.0172175
743.582	0.0171368
743.660	0.0171134
743.738	0.0170285
743.817	0.0168909
743.895	0.0172282
743.973	0.0168667
744.051	0.0167629
744.129	0.0166540
744.207	0.0166066
744.285	0.0166588
744.363	0.0165349
744.442	0.0165304
744.520	0.0166710
744.598	0.0165792
744.676	0.0166242
744.754	0.0166686
744.832	0.0167828
744.910	0.0168688
744.988	0.0168784
745.067	0.0170744
745.145	0.0171818
745.223	0.0170457
745.301	0.0172141
745.379	0.0172229
745.457	0.0173100
745.535	0.0172810
745.613	0.0172295
745.692	0.0171132
745.770	0.0169853
745.848	0.0169334
745.926	0.0169008
746.004	0.0169354
746.082	0.0168583
746.160	0.0167945
746.238	0.0166877
746.317	0.0167163
746.395	0.0167866
746.473	0.0166844
746.551	0.0167490
746.629	0.0165022
746.707	0.0166698
746.785	0.0168556
746.863	0.0167532
746.942	0.0167999
747.020	0.0168694
747.098	0.0168177
747.176	0.0168926
747.254	0.0168376
747.332	0.0169119
747.410	0.0169698
747.488	0.0170362
747.567	0.0169998
747.645	0.0169291
747.723	0.0169075
747.801	0.0168027
747.879	0.0167841
747.957	0.0167963
748.035	0.0167475
748.113	0.0167850
748.192	0.0165892
748.270	0.0166137
748.348	0.0167861
748.426	0.0167692
748.504	0.0168552
748.582	0.0166618
748.660	0.0167507
748.738	0.0168839
748.817	0.0168597
748.895	0.0168858
748.973	0.0170071
749.051	0.0169820
749.129	0.0170496
749.207	0.0169647
749.285	0.0171146
749.363	0.0170070
749.442	0.0169569
749.520	0.0168504
749.598	0.0170114
749.676	0.0171178
749.754	0.0170306
749.832	0.0168828
749.910	0.0169541
749.988	0.0169227
750.067	0.0169001
750.145	0.0168871
750.223	0.0169398
750.301	0.0169004
750.379	0.0168955
750.457	0.0170919
750.535	0.0168757
750.613	0.0168836
750.692	0.0169949
750.770	0.0170913
750.848	0.0170023
750.926	0.0168665
751.004	0.0170077
751.082	0.0170183
751.160	0.0169787
751.238	0.0169544
751.317	0.0169028
751.395	0.0168863
751.473	0.0168999
751.551	0.0169748
751.629	0.0169090
751.707	0.0168945
751.785	0.0168229
751.863	0.0169305
751.942	0.0168486
752.020	0.0166843
752.098	0.0169343
752.176	0.0169504
752.254	0.0168378
752.332	0.0169688
752.410	0.0168784
752.488	0.0169145
752.567	0.0168373
752.645	0.0169621
752.723	0.0169139
752.801	0.0169244
752.879	0.0169899
752.957	0.0168481
753.035	0.0168230
753.113	0.0169622
753.192	0.0169142
753.270	0.0169608
753.348	0.0169436
753.426	0.0169466
753.504	0.0169521
753.582	0.0168664
753.660	0.0169555
753.738	0.0169616
753.817	0.0169081
753.895	0.0169714
753.973	0.0167940
754.051	0.0168709
754.129	0.0168520
754.207	0.0171147
754.285	0.0169849
754.363	0.0169302
754.442	0.0168723
754.520	0.0168887
754.598	0.0167882
754.676	0.0168674
754.754	0.0168787
754.832	0.0166433
754.910	0.0168255
754.988	0.0167879
755.067	0.0166846
755.145	0.0165730
755.223	0.0166568
755.301	0.0167195
755.379	0.0168548
755.457	0.0168930
755.535	0.0166282
755.613	0.0167318
755.692	0.0169331
755.770	0.0167424
755.848	0.0168992
755.926	0.0169337
756.004	0.0169631
756.082	0.0169380
756.160	0.0169540
756.238	0.0170444
756.317	0.0170222
756.395	0.0170248
756.473	0.0169893
756.551	0.0170039
756.629	0.0170022
756.707	0.0170277
756.785	0.0169022
756.863	0.0168740
756.942	0.0169831
757.020	0.0168811
757.098	0.0167798
757.176	0.0167886
757.254	0.0167422
757.332	0.0168288
757.410	0.0169746
757.488	0.0168319
757.567	0.0168491
757.645	0.0169697
757.723	0.0169350
757.801	0.0170347
757.879	0.0170882
757.957	0.0169585
758.035	0.0169994
758.113	0.0169234
758.192	0.0170527
758.270	0.0170065
758.348	0.0170061
758.426	0.0168772
758.504	0.0168402
758.582	0.0169495
758.660	0.0169344
758.738	0.0167883
758.817	0.0167290
758.895	0.0168236
758.973	0.0167536
759.051	0.0168938
759.129	0.0168188
759.207	0.0168430
759.285	0.0167251
759.363	0.0169897
759.442	0.0168082
759.520	0.0168037
759.598	0.0168462
759.676	0.0167959
759.754	0.0168433
759.832	0.0166997
759.910	0.0169605
759.988	0.0169841
760.067	0.0169006
760.145	0.0167219
760.223	0.0167339
760.301	0.0167228
760.379	0.0168360
760.457	0.0168005
760.535	0.0168069
760.613	0.0167655
760.692	0.0167697
760.770	0.0166719
760.848	0.0167424
760.926	0.0169344
761.004	0.0167684
761.082	0.0168569
761.160	0.0168549
761.238	0.0169367
761.317	0.0170112
761.395	0.0169208
761.473	0.0168918
761.551	0.0168642
761.629	0.0169559
761.707	0.0168434
761.785	0.0169614
761.863	0.0169445
761.942	0.0168216
762.020	0.0168235
762.098	0.0169230
762.176	0.0169518
762.254	0.0168552
762.332	0.0169295
762.410	0.0170381
762.488	0.0169155
762.567	0.0168099
762.645	0.0167940
762.723	0.0168590
762.801	0.0168317
762.879	0.0168913
762.957	0.0168897
763.035	0.0168880
763.113	0.0169106
763.192	0.0169624
763.270	0.0167944
763.348	0.0168182
763.426	0.0168774
763.504	0.0169074
763.582	0.0168562
763.660	0.0169695
763.738	0.0170323
763.817	0.0168593
763.895	0.0169428
763.973	0.0169202
764.051	0.0169885
764.129	0.0168840
764.207	0.0167283
764.285	0.0169024
764.363	0.0169088
764.442	0.0168176
764.520	0.0168459
764.598	0.0169974
764.676	0.0169044
764.754	0.0169570
764.832	0.0168263
764.910	0.0167731
764.988	0.0169630
765.067	0.0170148
765.145	0.0170103
765.223	0.0168894
765.301	0.0168431
765.379	0.0169077
765.457	0.0169389
765.535	0.0169514
765.613	0.0167928
765.692	0.0168491
765.770	0.0168991
765.848	0.0169395
765.926	0.0167717
766.004	0.0167972
766.082	0.0170359
766.160	0.0169376
766.238	0.0169650
766.317	0.0168069
766.395	0.0170964
766.473	0.0170432
766.551	0.0170003
766.629	0.0168140
766.707	0.0168581
766.785	0.0169747
766.863	0.0168468
766.942	0.0167084
767.020	0.0167397
767.098	0.0166526
767.176	0.0166927
767.254	0.0166335
767.332	0.0166483
767.410	0.0166794
767.488	0.0166952
767.567	0.0166915
767.645	0.0169099
767.723	0.0168336
767.801	0.0168524
767.879	0.0169621
767.957	0.0169924
768.035	0.0170322
768.113	0.0169891
768.192	0.0170862
768.270	0.0168161
768.348	0.0168512
768.426	0.0170405
768.504	0.0167596
768.582	0.0168550
768.660	0.0168521
768.738	0.0168184
768.817	0.0169283
768.895	0.0168858
768.973	0.0168254
769.051	0.0166273
769.129	0.0167867
769.207	0.0167360
769.285	0.0168489
769.363	0.0166393
769.442	0.0167548
769.520	0.0168701
769.598	0.0166846
769.676	0.0168741
769.754	0.0169807
769.832	0.0170052
769.910	0.0168496
769.988	0.0170202
770.067	0.0168930
770.145	0.0168470
770.223	0.0169799
770.301	0.0169337
770.379	0.0169629
770.457	0.0168967
770.535	0.0168816
770.613	0.0169260
770.692	0.0169633
770.770	0.0170187
770.848	0.0168224
770.926	0.0168385
771.004	0.0168402
771.082	0.0166698
771.160	0.0167375
771.238	0.0168813
771.317	0.0168340
771.395	0.0169177
771.473	0.0168915
771.551	0.0167617
771.629	0.0167247
771.707	0.0168073
771.785	0.0168855
771.863	0.0168374
771.942	0.0169836
772.020	0.0168788
772.098	0.0168531
772.176	0.0168809
772.254	0.0169474
772.332	0.0169133
772.410	0.0169598
772.488	0.0169941
772.567	0.0168746
772.645	0.0170013
772.723	0.0167989
772.801	0.0168887
772.879	0.0170257
772.957	0.0169272
773.035	0.0169116
773.113	0.0169019
773.192	0.0168124
773.270	0.0168060
773.348	0.0169107
773.426	0.0168741
773.504	0.0168578
773.582	0.0168745
773.660	0.0169241
773.738	0.0168816
773.817	0.0168530
773.895	0.0169347
773.973	0.0169594
774.051	0.0168369
774.129	0.0168736
774.207	0.0168345
774.285	0.0170523
774.363	0.0169356
774.442	0.0170550
774.520	0.0168355
774.598	0.0169723
774.676	0.0168441
774.754	0.0168343
774.832	0.0169616
774.910	0.0169661
774.988	0.0169199
775.067	0.0169561
775.145	0.0169589
775.223	0.0169167
775.301	0.0168613
775.379	0.0167857
775.457	0.0168940
775.535	0.0168082
775.613	0.0167179
775.692	0.0167440
775.770	0.0168655
775.848	0.0168105
775.926	0.0168812
776.004	0.0166878
776.082	0.0168643
776.160	0.0168328
776.238	0.0168872
776.317	0.0169853
776.395	0.0167117
776.473	0.0168356
776.551	0.0169637
776.629	0.0168621
776.707	0.0170588
776.785	0.0169266
776.863	0.0169977
776.942	0.0170124
777.020	0.0169312
777.098	0.0168878
777.176	0.0168635
777.254	0.0168464
777.332	0.0169820
777.410	0.0167517
777.488	0.0170186
777.567	0.0169987
777.645	0.0168112
777.723	0.0170464
777.801	0.0168842
777.879	0.0168452
777.957	0.0170213
778.035	0.0168800
778.113	0.0168892
778.192	0.0169395
778.270	0.0168665
778.348	0.0168283
778.426	0.0168247
778.504	0.0167950
778.582	0.0167935
778.660	0.0169773
778.738	0.0169105
778.817	0.0170287
778.895	0.0169308
778.973	0.0168362
779.051	0.0169026
779.129	0.0170322
779.207	0.0169462
779.285	0.0170381
779.363	0.0170940
779.442	0.0169777
779.520	0.0170020
779.598	0.0169494
779.676	0.0169685
779.754	0.0169566
779.832	0.0169823
779.910	0.0168319
779.988	0.0169256
780.067	0.0169949
780.145	0.0168430
780.223	0.0168228
780.301	0.0168926
780.379	0.0168731
780.457	0.0167924
780.535	0.0167667
780.613	0.0169111
780.692	0.0168088
780.770	0.0169505
780.848	0.0168384
780.926	0.0168438
781.004	0.0170272
781.082	0.0170802
781.160	0.0169210
781.238	0.0169870
781.317	0.0170902
781.395	0.0170085
781.473	0.0170410
781.551	0.0169740
781.629	0.0169415
781.707	0.0170885
781.785	0.0170108
781.863	0.0170222
781.942	0.0169375
782.020	0.0167896
782.098	0.0169269
782.176	0.0170984
782.254	0.0169346
782.332	0.0170583
782.410	0.0168926
782.488	0.0168361
782.567	0.0168758
782.645	0.0169716
782.723	0.0169301
782.801	0.0168774
782.879	0.0169551
782.957	0.0169570
783.035	0.0168153
783.113	0.0169092
783.192	0.0169141
783.270	0.0169255
783.348	0.0169492
783.426	0.0168479
783.504	0.0168427
783.582	0.0169481
783.660	0.0169524
783.738	0.0169250
783.817	0.0170435
783.895	0.0170258
783.973	0.0171156
784.051	0.0170660
784.129	0.0170753
784.207	0.0171281
784.285	0.0171816
784.363	0.0170231
784.442	0.0170372
784.520	0.0170561
784.598	0.0170473
784.676	0.0168652
784.754	0.0169709
784.832	0.0169820
784.910	0.0169067
784.988	0.0166715
785.067	0.0166769
785.145	0.0166969
785.223	0.0167431
785.301	0.0166802
785.379	0.0166351
785.457	0.0167697
785.535	0.0167535
785.613	0.0167761
785.692	0.0167056
785.770	0.0169530
785.848	0.0169304
785.926	0.0169861
786.004	0.0170651
786.082	0.0171009
786.160	0.0170614
786.238	0.0172343
786.317	0.0171715
786.395	0.0172236
786.473	0.0171568
786.551	0.0171082
786.629	0.0170789
786.707	0.0170110
786.785	0.0169386
786.863	0.0170117
786.942	0.0168976
787.020	0.0167708
787.098	0.0167451
787.176	0.0166720
787.254	0.0168126
787.332	0.0166513
787.410	0.0166203
787.488	0.0166061
787.567	0.0166254
787.645	0.0167031
787.723	0.0166887
787.801	0.0164937
787.879	0.0167908
787.957	0.0170495
788.035	0.0169637
788.113	0.0169868
788.192	0.0170802
788.270	0.0170238
788.348	0.0170880
788.426	0.0173579
788.504	0.0172489
788.582	0.0172974
788.660	0.0172239
788.738	0.0172570
788.817	0.0172563
788.895	0.0170351
788.973	0.0171144
789.051	0.0170470
789.129	0.0168401
789.207	0.0167352
789.285	0.0169024
789.363	0.0166466
789.442	0.0167659
789.520	0.0165560
789.598	0.0164394
789.676	0.0165682
789.754	0.0165571
789.832	0.0166458
789.910	0.0167787
789.988	0.0167470
790.067	0.0167191
790.145	0.0167759
790.223	0.0170374
790.301	0.0170879
790.379	0.0169946
790.457	0.0170295
790.535	0.0170496
790.613	0.0172095
790.692	0.0170576
790.770	0.0171868
790.848	0.0169827
790.926	0.0169728
791.004	0.0168483
791.082	0.0168487
791.160	0.0168809
791.238	0.0168357
791.317	0.0167268
791.395	0.0167635
791.473	0.0165759
791.551	0.0167145
791.629	0.0166023
791.707	0.0166216
791.785	0.0166334
791.863	0.0165425
791.942	0.0165955
792.020	0.0165384
792.098	0.0165289
792.176	0.0167689
792.254	0.0167436
792.332	0.0168292
792.410	0.0167584
792.488	0.0169742
792.567	0.0168126
792.645	0.0169392
792.723	0.0170747
792.801	0.0170173
792.879	0.0170716
792.957	0.0169215
793.035	0.0171270
793.113	0.0172530
793.192	0.0171877
793.270	0.0169719
793.348	0.0169568
793.426	0.0169963
793.504	0.0169579
793.582	0.0168903
793.660	0.0168862
793.738	0.0167979
793.817	0.0167314
793.895	0.0166742
793.973	0.0168200
794.051	0.0166411
794.129	0.0167982
794.207	0.0167583
794.285	0.0168932
794.363	0.0168063
794.442	0.0168885
794.520	0.0169176
794.598	0.0168571
794.676	0.0169227
794.754	0.0167760
794.832	0.0169521
794.910	0.0168975
794.988	0.0169730
795.067	0.0169626
795.145	0.0171597
795.223	0.0171062
795.301	0.0170010
795.379	0.0170503
795.457	0.0170573
795.535	0.0168996
795.613	0.0169204
795.692	0.0169656
795.770	0.0168924
795.848	0.0168365
795.926	0.0168304
796.004	0.0168761
796.082	0.0167935
796.160	0.0168351
796.238	0.0167506
796.317	0.0168427
796.395	0.0166636
796.473	0.0167117
796.551	0.0166930
796.629	0.0168559
796.707	0.0167747
796.785	0.0168083
796.863	0.0168761
796.942	0.0169878
797.020	0.0169704
797.098	0.0169950
797.176	0.0169942
797.254	0.0168817
797.332	0.0170569
797.410	0.0171211
797.488	0.0170365
797.567	0.0170830
797.645	0.0170744
797.723	0.0169958
797.801	0.0168784
797.879	0.0168589
797.957	0.0170430
798.035	0.0169731
798.113	0.0168937
798.192	0.0169718
798.270	0.0168767
798.348	0.0168553
798.426	0.0167722
798.504	0.0167455
798.582	0.0167272
798.660	0.0166907
798.738	0.0167133
798.817	0.0167675
798.895	0.0167339
798.973	0.0168942
799.051	0.0168658
799.129	0.0169946
799.207	0.0169001
799.285	0.0168263
799.363	0.0169046
799.442	0.0169410
799.520	0.0168930
799.598	0.0168107
799.676	0.0167719
799.754	0.0169720
799.832	0.0168407
799.910	0.0168630
799.988	0.0168183
800.067	0.0167167
800.145	0.0168162
800.223	0.0169120
800.301	0.0167823
800.379	0.0166917
800.457	0.0168050
800.535	0.0168378
800.613	0.0168118
800.692	0.0169024
800.770	0.0167442
800.848	0.0168908
800.926	0.0168418
801.004	0.0168625
801.082	0.0169421
801.160	0.0170319
801.238	0.0169408
801.317	0.0169229
801.395	0.0170482
801.473	0.0169445
801.551	0.0169994
801.629	0.0169520
801.707	0.0168925
801.785	0.0170278
801.863	0.0169034
801.942	0.0167788
802.020	0.0169132
802.098	0.0168430
802.176	0.0167187
802.254	0.0168285
802.332	0.0168345
802.410	0.0166978
802.488	0.0168793
802.567	0.0168759
802.645	0.0167841
802.723	0.0167845
802.801	0.0166853
802.879	0.0168056
802.957	0.0167792
803.035	0.0167699
803.113	0.0168863
803.192	0.0170312
803.270	0.0169105
803.348	0.0167889
803.426	0.0168240
803.504	0.0169778
803.582	0.0170242
803.660	0.0170184
803.738	0.0170596
803.817	0.0169448
803.895	0.0168965
803.973	0.0168874
804.051	0.0170090
804.129	0.0170267
804.207	0.0168592
804.285	0.0167620
804.363	0.0168328
804.442	0.0168660
804.520	0.0167730
804.598	0.0167522
804.676	0.0169047
804.754	0.0168630
804.832	0.0168628
804.910	0.0169530
804.988	0.0168663
805.067	0.0168932
805.145	0.0169351
805.223	0.0169054
805.301	0.0167933
805.379	0.0167995
805.457	0.0171070
805.535	0.0169242
805.613	0.0170086
805.692	0.0170390
805.770	0.0170351
805.848	0.0169941
805.926	0.0170378
806.004	0.0169183
806.082	0.0169158
806.160	0.0170489
806.238	0.0169164
806.317	0.0167541
806.395	0.0167744
806.473	0.0169420
806.551	0.0167292
806.629	0.0167680
806.707	0.0167844
806.785	0.0168594
806.863	0.0168523
806.942	0.0167533
807.020	0.0166615
807.098	0.0167567
807.176	0.0169682
807.254	0.0169204
807.332	0.0169388
807.410	0.0169726
807.488	0.0169110
807.567	0.0169761
807.645	0.0170148
807.723	0.0170718
807.801	0.0170692
807.879	0.0172241
807.957	0.0169194
808.035	0.0167762
808.113	0.0169676
808.192	0.0169051
808.270	0.0168967
808.348	0.0168993
808.426	0.0168273
808.504	0.0167745
808.582	0.0166794
808.660	0.0168147
808.738	0.0168027
808.817	0.0167805
808.895	0.0169016
808.973	0.0168555
809.051	0.0169312
809.129	0.0170689
809.207	0.0169942
809.285	0.0171042
809.363	0.0170814
809.442	0.0172394
809.520	0.0172195
809.598	0.0172411
809.676	0.0173663
809.754	0.0171081
809.832	0.0170699
809.910	0.0172153
809.988	0.0170337
810.067	0.0170947
810.145	0.0168653
810.223	0.0169511
810.301	0.0168838
810.379	0.0167995
810.457	0.0167028
810.535	0.0168287
810.613	0.0168303
810.692	0.0168262
810.770	0.0168530
810.848	0.0168291
810.926	0.0168034
811.004	0.0168955
811.082	0.0169584
811.160	0.0168875
811.238	0.0167918
811.317	0.0170622
811.395	0.0168261
811.473	0.0166821
811.551	0.0168056
811.629	0.0167690
811.707	0.0167071
811.785	0.0167474
811.863	0.0167476
811.942	0.0166685
812.020	0.0166418
812.098	0.0166894
812.176	0.0167503
812.254	0.0167067
812.332	0.0167862
812.410	0.0168137
812.488	0.0166765
812.567	0.0167078
812.645	0.0167447
812.723	0.0168627
812.801	0.0169408
812.879	0.0168861
812.957	0.0168582
813.035	0.0170284
813.113	0.0170713
813.192	0.0171016
813.270	0.0170652
813.348	0.0170828
813.426	0.0173158
813.504	0.0170967
813.582	0.0172459
813.660	0.0170992
813.738	0.0170988
813.817	0.0168982
813.895	0.0169164
813.973	0.0170081
814.051	0.0168766
814.129	0.0170290
814.207	0.0167807
814.285	0.0167619
814.363	0.0169453
814.442	0.0168136
814.520	0.0167699
814.598	0.0167504
814.676	0.0167978
814.754	0.0169251
814.832	0.0167275
814.910	0.0168385
814.988	0.0169536
815.067	0.0169122
815.145	0.0168143
815.223	0.0169646
815.301	0.0170515
815.379	0.0169747
815.457	0.0169463
815.535	0.0169901
815.613	0.0169404
815.692	0.0168022
815.770	0.0167255
815.848	0.0168333
815.926	0.0168424
816.004	0.0168008
816.082	0.0167425
816.160	0.0167843
816.238	0.0167262
816.317	0.0167786
816.395	0.0166297
816.473	0.0165656
816.551	0.0164952
816.629	0.0165370
816.707	0.0167071
816.785	0.0167471
816.863	0.0165869
816.942	0.0167986
817.020	0.0167369
817.098	0.0168253
817.176	0.0168709
817.254	0.0170071
817.332	0.0168211
817.410	0.0169303
817.488	0.0169425
817.567	0.0170757
817.645	0.0171371
817.723	0.0169132
817.801	0.0169377
817.879	0.0169700
817.957	0.0167719
818.035	0.0168920
818.113	0.0169510
818.192	0.0169261
818.270	0.0167531
818.348	0.0165995
818.426	0.0168196
818.504	0.0168777
818.582	0.0167046
818.660	0.0167109
818.738	0.0166479
818.817	0.0167009
818.895	0.0167138
818.973	0.0167679
819.051	0.0168023
819.129	0.0168380
819.207	0.0169290
819.285	0.0169665
819.363	0.0169636
819.442	0.0169659
819.520	0.0170110
819.598	0.0169316
819.676	0.0168716
819.754	0.0169300
819.832	0.0169512
819.910	0.0168803
819.988	0.0168472
820.067	0.0169449
820.145	0.0168497
820.223	0.0167529
820.301	0.0168262
820.379	0.0168250
820.457	0.0168720
820.535	0.0168726
820.613	0.0168947
820.692	0.0168122
820.770	0.0168085
820.848	0.0169066
820.926	0.0168723
821.004	0.0168147
821.082	0.0168296
821.160	0.0168139
821.238	0.0169431
821.317	0.0168863
821.395	0.0167667
821.473	0.0168814
821.551	0.0167990
821.629	0.0168282
821.707	0.0169247
821.785	0.0167274
821.863	0.0168301
821.942	0.0169578
822.020	0.0170388
822.098	0.0169097
822.176	0.0169286
822.254	0.0169965
822.332	0.0169353
822.410	0.0169765
822.488	0.0169714
822.567	0.0170905
822.645	0.0169984
822.723	0.0169975
822.801	0.0170378
822.879	0.0169529
822.957	0.0169254
823.035	0.0168654
823.113	0.0168247
823.192	0.0168011
823.270	0.0167635
823.348	0.0167017
823.426	0.0166928
823.504	0.0165240
823.582	0.0167265
823.660	0.0167272
823.738	0.0167242
823.817	0.0167862
823.895	0.0167625
823.973	0.0168777
824.051	0.0167496
824.129	0.0167991
824.207	0.0169079
824.285	0.0168177
824.363	0.0170019
824.442	0.0168720
824.520	0.0169099
824.598	0.0170259
824.676	0.0169790
824.754	0.0169942
824.832	0.0170861
824.910	0.0170483
824.988	0.0168446
825.067	0.0169286
825.145	0.0169650
825.223	0.0169283
825.301	0.0168889
825.379	0.0168696
825.457	0.0169182
825.535	0.0167789
825.613	0.0167919
825.692	0.0169094
825.770	0.0169609
825.848	0.0170352
825.926	0.0169283
826.004	0.0168172
826.082	0.0168923
826.160	0.0169225
826.238	0.0170838
826.317	0.0170310
826.395	0.0169769
826.473	0.0169235
826.551	0.0168475
826.629	0.0169021
826.707	0.0169868
826.785	0.0168715
826.863	0.0169501
826.942	0.0170250
827.020	0.0167588
827.098	0.0168784
827.176	0.0168551
827.254	0.0168209
827.332	0.0167684
827.410	0.0168564
827.488	0.0167799
827.567	0.0167728
827.645	0.0169005
827.723	0.0168828
827.801	0.0168440
827.879	0.0167355
827.957	0.0168931
828.035	0.0167699
828.113	0.0168586
828.192	0.0168945
828.270	0.0168614
828.348	0.0168451
828.426	0.0168344
828.504	0.0169278
828.582	0.0168993
828.660	0.0168234
828.738	0.0169122
828.817	0.0168240
828.895	0.0169431
828.973	0.0168520
829.051	0.0169253
829.129	0.0169604
829.207	0.0169046
829.285	0.0168369
829.363	0.0170066
829.442	0.0169499
829.520	0.0169681
829.598	0.0169074
829.676	0.0168229
829.754	0.0166598
829.832	0.0168679
829.910	0.0169514
829.988	0.0168241
830.067	0.0170260
830.145	0.0170301
830.223	0.0168604
830.301	0.0169674
830.379	0.0169019
830.457	0.0170738
830.535	0.0170326
830.613	0.0168279
830.692	0.0169641
830.770	0.0168718
830.848	0.0167999
830.926	0.0169431
831.004	0.0170070
831.082	0.0169050
831.160	0.0170721
831.238	0.0169994
831.317	0.0169579
831.395	0.0169543
831.473	0.0167750
831.551	0.0169373
831.629	0.0170853
831.707	0.0169551
831.785	0.0169229
831.863	0.0168998
831.942	0.0169654
832.020	0.0170370
832.098	0.0169685
832.176	0.0169408
832.254	0.0168050
832.332	0.0168929
832.410	0.0169215
832.488	0.0168777
832.567	0.0168018
832.645	0.0167551
832.723	0.0167857
832.801	0.0168078
832.879	0.0168839
832.957	0.0167836
833.035	0.0167860
833.113	0.0166483
833.192	0.0167497
833.270	0.0167603
833.348	0.0168681
833.426	0.0168874
833.504	0.0169559
833.582	0.0169106
833.660	0.0169080
833.738	0.0169356
833.817	0.0169577
833.895	0.0169816
833.973	0.0170086
834.051	0.0170012
834.129	0.0170794
834.207	0.0171075
834.285	0.0171172
834.363	0.0170762
834.442	0.0168948
834.520	0.0171088
834.598	0.0170007
834.676	0.0169183
834.754	0.0168715
834.832	0.0169146
834.910	0.0168952
834.988	0.0168407
835.067	0.0169413
835.145	0.0169332
835.223	0.0168600
835.301	0.0167908
835.379	0.0168409
835.457	0.0168641
835.535	0.0168638
835.613	0.0167683
835.692	0.0168491
835.770	0.0167323
835.848	0.0168035
835.926	0.0168503
836.004	0.0169641
836.082	0.0168993
836.160	0.0169621
836.238	0.0169193
836.317	0.0169175
836.395	0.0169058
836.473	0.0171021
836.551	0.0170251
836.629	0.0169975
836.707	0.0168523
836.785	0.0170758
836.863	0.0170078
836.942	0.0169353
837.020	0.0169812
837.098	0.0170056
837.176	0.0169997
837.254	0.0170899
837.332	0.0169430
837.410	0.0171010
837.488	0.0170373
837.567	0.0168815
837.645	0.0168893
837.723	0.0168993
837.801	0.0169889
837.879	0.0169607
837.957	0.0169463
838.035	0.0169745
838.113	0.0168439
838.192	0.0168143
838.270	0.0169025
838.348	0.0168567
838.426	0.0168820
838.504	0.0168844
838.582	0.0167886
838.660	0.0169934
838.738	0.0168295
838.817	0.0168312
838.895	0.0170201
838.973	0.0168768
839.051	0.0167886
839.129	0.0169022
839.207	0.0168854
839.285	0.0168076
839.363	0.0169115
839.442	0.0168531
839.520	0.0168761
839.598	0.0168347
839.676	0.0168406
839.754	0.0166929
839.832	0.0169159
839.910	0.0169499
839.988	0.0166772
840.067	0.0166851
840.145	0.0167469
840.223	0.0168454
840.301	0.0167013
840.379	0.0168116
840.457	0.0167275
840.535	0.0168947
840.613	0.0167899
840.692	0.0167643
840.770	0.0168343
840.848	0.0167667
840.926	0.0168848
841.004	0.0168811
841.082	0.0168823
841.160	0.0168204
841.238	0.0168341
841.317	0.0168444
841.395	0.0167979
841.473	0.0168342
841.551	0.0169560
841.629	0.0168981
841.707	0.0167212
841.785	0.0168993
841.863	0.0169987
841.942	0.0168611
842.020	0.0168192
842.098	0.0167983
842.176	0.0168585
842.254	0.0168365
842.332	0.0167966
842.410	0.0168327
842.488	0.0168978
842.567	0.0168601
842.645	0.0169321
842.723	0.0169607
842.801	0.0168520
842.879	0.0169108
842.957	0.0169775
843.035	0.0169275
843.113	0.0169134
843.192	0.0167641
843.270	0.0170134
843.348	0.0169620
843.426	0.0168761
843.504	0.0168768
843.582	0.0168077
843.660	0.0169483
843.738	0.0169202
843.817	0.0169971
843.895	0.0168992
843.973	0.0170176
844.051	0.0169073
844.129	0.0170982
844.207	0.0170138
844.285	0.0167317
844.363	0.0168424
844.442	0.0168304
844.520	0.0168445
844.598	0.0169727
844.676	0.0168884
844.754	0.0169504
844.832	0.0169071
844.910	0.0169267
844.988	0.0170679
845.067	0.0168819
845.145	0.0169084
845.223	0.0170744
845.301	0.0169536
845.379	0.0169054
845.457	0.0169775
845.535	0.0171535
845.613	0.0168910
845.692	0.0168394
845.770	0.0169466
845.848	0.0169062
845.926	0.0168588
846.004	0.0170053
846.082	0.0167834
846.160	0.0168594
846.238	0.0168645
846.317	0.0168919
846.395	0.0169491
846.473	0.0170537
846.551	0.0168761
846.629	0.0169016
846.707	0.0167063
846.785	0.0169700
846.863	0.0169605
846.942	0.0167098
847.020	0.0168850
847.098	0.0169056
847.176	0.0167603
847.254	0.0168619
847.332	0.0167700
847.410	0.0166520
847.488	0.0166990
847.567	0.0167170
847.645	0.0166993
847.723	0.0167925
847.801	0.0167287
847.879	0.0167287
847.957	0.0168578
848.035	0.0168338
848.113	0.0167319
848.192	0.0169108
848.270	0.0170076
848.348	0.0169492
848.426	0.0169696
848.504	0.0169319
848.582	0.0168659
848.660	0.0169680
848.738	0.0169616
848.817	0.0168758
848.895	0.0168857
848.973	0.0169112
849.051	0.0169146
849.129	0.0167213
849.207	0.0168506
849.285	0.0167920
849.363	0.0167334
849.442	0.0167927
849.520	0.0168695
849.598	0.0167893
849.676	0.0166682
849.754	0.0168123
849.832	0.0169178
849.910	0.0170316
849.988	0.0169047
850.067	0.0171412
850.145	0.0171912
850.223	0.0172733
850.301	0.0172211
850.379	0.0172635
850.457	0.0172979
850.535	0.0171690
850.613	0.0170452
850.692	0.0169332
850.770	0.0171225
850.848	0.0169923
850.926	0.0169644
851.004	0.0168699
851.082	0.0168390
851.160	0.0167479
851.238	0.0166783
851.317	0.0167242
851.395	0.0166893
851.473	0.0167078
851.551	0.0166057
851.629	0.0166846
851.707	0.0166390
851.785	0.0167388
851.863	0.0168310
851.942	0.0168731
852.020	0.0168962
852.098	0.0169390
852.176	0.0170101
852.254	0.0171117
852.332	0.0171147
852.410	0.0171640
852.488	0.0170384
852.567	0.0170260
852.645	0.0170512
852.723	0.0172234
852.801	0.0170165
852.879	0.0168933
852.957	0.0169193
853.035	0.0168841
853.113	0.0169702
853.192	0.0169299
853.270	0.0168939
853.348	0.0168111
853.426	0.0167146
853.504	0.0167135
853.582	0.0166990
853.660	0.0168056
853.738	0.0167484
853.817	0.0168559
853.895	0.0167761
853.973	0.0170042
854.051	0.0168556
854.129	0.0169399
854.207	0.0170194
854.285	0.0170292
854.363	0.0169295
854.442	0.0168555
854.520	0.0169736
854.598	0.0169557
854.676	0.0169115
854.754	0.0170461
854.832	0.0170225
854.910	0.0168310
854.988	0.0168029
855.067	0.0168585
855.145	0.0169559
855.223	0.0167783
855.301	0.0167935
855.379	0.0169511
855.457	0.0168488
855.535	0.0168681
855.613	0.0169323
855.692	0.0167770
855.770	0.0168074
855.848	0.0169321
855.926	0.0168166
856.004	0.0168964
856.082	0.0168960
856.160	0.0168718
856.238	0.0170355
856.317	0.0169345
856.395	0.0169363
856.473	0.0169379
856.551	0.0169747
856.629	0.0168879
856.707	0.0170171
856.785	0.0170315
856.863	0.0169296
856.942	0.0169736
857.020	0.0171098
857.098	0.0168511
857.176	0.0169563
857.254	0.0168855
857.332	0.0168858
857.410	0.0168613
857.488	0.0168766
857.567	0.0169118
857.645	0.0168829
857.723	0.0167399
857.801	0.0167328
857.879	0.0169169
857.957	0.0168180
858.035	0.0167876
858.113	0.0168004
858.192	0.0168714
858.270	0.0168423
858.348	0.0167151
858.426	0.0169144
858.504	0.0171232
858.582	0.0170567
858.660	0.0169260
858.738	0.0170895
858.817	0.0170314
858.895	0.0170486
858.973	0.0170522
859.051	0.0170767
859.129	0.0171160
859.207	0.0169962
859.285	0.0171038
859.363	0.0169940
859.442	0.0168826
859.520	0.0169404
859.598	0.0168719
859.676	0.0169534
859.754	0.0169677
859.832	0.0167563
859.910	0.0167349
859.988	0.0168224
860.067	0.0168021
860.145	0.0168096
860.223	0.0168451
860.301	0.0167805
860.379	0.0168540
860.457	0.0169456
860.535	0.0167287
860.613	0.0168326
860.692	0.0169509
860.770	0.0169894
860.848	0.0169631
860.926	0.0168696
861.004	0.0170271
861.082	0.0170628
861.160	0.0168479
861.238	0.0169612
861.317	0.0171111
861.395	0.0171105
861.473	0.0170737
861.551	0.0169170
861.629	0.0170118
861.707	0.0168199
861.785	0.0170490
861.863	0.0168172
861.942	0.0168684
862.020	0.0169517
862.098	0.0168163
862.176	0.0168626
862.254	0.0169390
862.332	0.0168359
862.410	0.0168111
862.488	0.0168221
862.567	0.0167924
862.645	0.0169547
862.723	0.0169598
862.801	0.0168523
862.879	0.0167999
862.957	0.0167622
863.035	0.0168338
863.113	0.0169421
863.192	0.0170153
863.270	0.0169981
863.348	0.0168776
863.426	0.0169070
863.504	0.0169595
863.582	0.0168624
863.660	0.0169919
863.738	0.0167998
863.817	0.0169942
863.895	0.0169174
863.973	0.0170699
864.051	0.0167319
864.129	0.0167156
864.207	0.0168073
864.285	0.0168041
864.363	0.0168301
864.442	0.0167483
864.520	0.0168398
864.598	0.0167982
864.676	0.0168069
864.754	0.0168632
864.832	0.0169023
864.910	0.0169662
864.988	0.0169576
865.067	0.0169527
865.145	0.0169401
865.223	0.0170370
865.301	0.0170093
865.379	0.0169574
865.457	0.0170135
865.535	0.0170075
865.613	0.0169947
865.692	0.0170737
865.770	0.0169453
865.848	0.0170818
865.926	0.0169393
866.004	0.0168585
866.082	0.0168839
866.160	0.0168397
866.238	0.0168591
866.317	0.0168397
866.395	0.0167561
866.473	0.0168706
866.551	0.0166640
866.629	0.0168074
866.707	0.0168077
866.785	0.0168314
866.863	0.0167969
866.942	0.0168481
867.020	0.0168194
867.098	0.0168986
867.176	0.0168873
867.254	0.0168680
867.332	0.0167207
867.410	0.0168623
867.488	0.0168185
867.567	0.0167898
867.645	0.0168507
867.723	0.0166709
867.801	0.0167501
867.879	0.0168773
867.957	0.0167406
868.035	0.0168468
868.113	0.0169140
868.192	0.0167603
868.270	0.0168585
868.348	0.0168362
868.426	0.0168311
868.504	0.0166399
868.582	0.0169341
868.660	0.0166727
868.738	0.0167804
868.817	0.0168044
868.895	0.0167395
868.973	0.0166898
869.051	0.0167629
869.129	0.0168004
869.207	0.0168950
869.285	0.0169616
869.363	0.0167815
869.442	0.0167751
869.520	0.0169429
869.598	0.0168975
869.676	0.0167410
869.754	0.0169447
869.832	0.0169578
869.910	0.0169539
869.988	0.0168387
870.067	0.0169744
870.145	0.0169730
870.223	0.0168449
870.301	0.0168861
870.379	0.0168756
870.457	0.0169260
870.535	0.0168161
870.613	0.0168153
870.692	0.0168802
870.770	0.0169862
870.848	0.0168385
870.926	0.0168407
871.004	0.0169382
871.082	0.0170262
871.160	0.0169579
871.238	0.0169475
871.317	0.0169841
871.395	0.0169913
871.473	0.0169834
871.551	0.0169497
871.629	0.0169595
871.707	0.0170609
871.785	0.0169312
871.863	0.0168572
871.942	0.0169064
872.020	0.0170213
872.098	0.0167569
872.176	0.0168574
872.254	0.0167852
872.332	0.0168635
872.410	0.0168069
872.488	0.0168726
872.567	0.0168044
872.645	0.0167889
872.723	0.0168673
872.801	0.0169977
872.879	0.0170442
872.957	0.0169884
873.035	0.0170531
873.113	0.0168761
873.192	0.0168036
873.270	0.0169861
873.348	0.0169120
873.426	0.0168401
873.504	0.0169389
873.582	0.0168980
873.660	0.0168288
873.738	0.0169156
873.817	0.0168452
873.895	0.0168198
873.973	0.0168687
874.051	0.0169624
874.129	0.0170445
874.207	0.0168440
874.285	0.0167616
874.363	0.0168373
874.442	0.0169383
874.520	0.0169650
874.598	0.0170106
874.676	0.0170084
874.754	0.0169775
874.832	0.0169727
874.910	0.0168978
874.988	0.0167625
875.067	0.0169156
875.145	0.0169708
875.223	0.0169137
875.301	0.0167899
875.379	0.0168251
875.457	0.0169662
875.535	0.0168404
875.613	0.0167291
875.692	0.0167960
875.770	0.0168176
875.848	0.0168632
875.926	0.0169691
876.004	0.0169312
876.082	0.0168196
876.160	0.0168344
876.238	0.0168650
876.317	0.0168349
876.395	0.0169051
876.473	0.0168238
876.551	0.0168160
876.629	0.0168930
876.707	0.0167286
876.785	0.0167799
876.863	0.0168628
876.942	0.0168153
877.020	0.0167700
877.098	0.0166856
877.176	0.0167874
877.254	0.0167959
877.332	0.0168934
877.410	0.0168473
877.488	0.0168148
877.567	0.0169019
877.645	0.0168761
877.723	0.0170181
877.801	0.0170038
877.879	0.0170280
877.957	0.0168880
878.035	0.0168631
878.113	0.0170056
878.192	0.0169474
878.270	0.0169450
878.348	0.0169275
878.426	0.0168609
878.504	0.0168478
878.582	0.0167722
878.660	0.0168262
878.738	0.0168667
878.817	0.0168596
878.895	0.0168421
878.973	0.0167194
879.051	0.0168018
879.129	0.0168043
879.207	0.0166827
879.285	0.0166561
879.363	0.0166618
879.442	0.0166614
879.520	0.0168068
879.598	0.0168008
879.676	0.0170179
879.754	0.0168774
879.832	0.0170856
879.910	0.0171384
879.988	0.0171451
880.067	0.0171936
880.145	0.0172034
880.223	0.0170632
880.301	0.0170515
880.379	0.0170191
880.457	0.0168353
880.535	0.0168473
880.613	0.0167056
880.692	0.0167026
880.770	0.0165943
880.848	0.0164989
880.926	0.0163447
881.004	0.0165009
881.082	0.0165123
881.160	0.0165272
881.238	0.0165896
881.317	0.0167538
881.395	0.0168106
881.473	0.0169595
881.551	0.0170454
881.629	0.0170564
881.707	0.0171478
881.785	0.0172133
881.863	0.0172662
881.942	0.0173592
882.020	0.0173183
882.098	0.0172220
882.176	0.0171387
882.254	0.0170900
882.332	0.0169587
882.410	0.0168345
882.488	0.0167478
882.567	0.0166348
882.645	0.0163620
882.723	0.0162292
882.801	0.0161436
882.879	0.0160920
882.957	0.0160292
883.035	0.0160744
883.113	0.0163570
883.192	0.0164316
883.270	0.0167490
883.348	0.0169755
883.426	0.0170346
883.504	0.0172727
883.582	0.0175728
883.660	0.0175784
883.738	0.0176749
883.817	0.0177124
883.895	0.0175870
883.973	0.0176900
884.051	0.0174502
884.129	0.0173852
884.207	0.0173032
884.285	0.0170928
884.363	0.0169403
884.442	0.0166103
884.520	0.0167133
884.598	0.0165755
884.676	0.0163124
884.754	0.0162864
884.832	0.0162628
884.910	0.0161187
884.988	0.0161629
885.067	0.0163656
885.145	0.0164603
885.223	0.0164052
885.301	0.0166928
885.379	0.0168220
885.457	0.0169529
885.535	0.0171226
885.613	0.0173627
885.692	0.0173972
885.770	0.0173923
885.848	0.0173904
885.926	0.0173292
886.004	0.0172971
886.082	0.0171732
886.160	0.0173114
886.238	0.0170786
886.317	0.0170626
886.395	0.0169518
886.473	0.0168571
886.551	0.0167601
886.629	0.0165963
886.707	0.0165086
886.785	0.0165244
886.863	0.0164476
886.942	0.0164108
887.020	0.0165205
887.098	0.0164919
887.176	0.0164218
887.254	0.0164054
887.332	0.0165455
887.410	0.0165405
887.488	0.0167476
887.567	0.0168167
887.645	0.0169086
887.723	0.0169408
887.801	0.0170197
887.879	0.0170175
887.957	0.0171548
888.035	0.0170588
888.113	0.0171361
888.192	0.0172137
888.270	0.0171945
888.348	0.0170914
888.426	0.0171055
888.504	0.0170671
888.582	0.0172233
888.660	0.0170597
888.738	0.0170480
888.817	0.0169585
888.895	0.0168175
888.973	0.0169050
889.051	0.0168649
889.129	0.0168383
889.207	0.0168582
889.285	0.0166568
889.363	0.0168687
889.442	0.0168045
889.520	0.0167522
889.598	0.0167500
889.676	0.0167728
889.754	0.0168773
889.832	0.0167342
889.910	0.0166797
889.988	0.0166994
890.067	0.0168210
890.145	0.0167392
890.223	0.0166464
890.301	0.0166877
890.379	0.0167661
890.457	0.0169449
890.535	0.0166648
890.613	0.0167274
890.692	0.0168566
890.770	0.0167466
890.848	0.0167253
890.926	0.0167225
891.004	0.0168098
891.082	0.0167968
891.160	0.0168738
891.238	0.0169539
891.317	0.0170877
891.395	0.0168120
891.473	0.0169152
891.551	0.0170007
891.629	0.0171148
891.707	0.0170181
891.785	0.0172260
891.863	0.0169532
891.942	0.0169518
892.020	0.0170493
892.098	0.0168697
892.176	0.0168906
892.254	0.0170052
892.332	0.0169604
892.410	0.0168691
892.488	0.0168509
892.567	0.0169491
892.645	0.0168153
892.723	0.0167072
892.801	0.0167837
892.879	0.0167664
892.957	0.0167669
893.035	0.0167292
893.113	0.0168751
893.192	0.0168155
893.270	0.0169587
893.348	0.0168739
893.426	0.0167535
893.504	0.0168902
893.582	0.0168225
893.660	0.0168875
893.738	0.0168076
893.817	0.0169624
893.895	0.0168275
893.973	0.0167220
894.051	0.0168082
894.129	0.0166743
894.207	0.0166767
894.285	0.0168314
894.363	0.0167754
894.442	0.0167879
894.520	0.0167556
894.598	0.0168136
894.676	0.0168501
894.754	0.0168806
894.832	0.0169057
894.910	0.0169170
894.988	0.0169778
895.067	0.0168334
895.145	0.0168916
895.223	0.0169844
895.301	0.0170215
895.379	0.0170248
895.457	0.0168323
895.535	0.0169514
895.613	0.0169567
895.692	0.0168916
895.770	0.0169742
895.848	0.0169788
895.926	0.0170271
896.004	0.0169854
896.082	0.0168806
896.160	0.0170043
896.238	0.0168032
896.317	0.0168188
896.395	0.0168495
896.473	0.0167550
896.551	0.0168981
896.629	0.0168535
896.707	0.0168407
896.785	0.0168004
896.863	0.0167359
896.942	0.0167455
897.020	0.0169637
897.098	0.0169868
897.176	0.0169063
897.254	0.0170483
897.332	0.0170339
897.410	0.0168858
897.488	0.0169020
897.567	0.0168306
897.645	0.0168778
897.723	0.0168963
897.801	0.0168182
897.879	0.0167480
897.957	0.0167506
898.035	0.0167122
898.113	0.0166504
898.192	0.0166658
898.270	0.0166664
898.348	0.0166207
898.426	0.0167196
898.504	0.0167244
898.582	0.0168246
898.660	0.0166600
898.738	0.0166271
898.817	0.0169738
898.895	0.0169225
898.973	0.0169333
899.051	0.0169779
899.129	0.0168930
899.207	0.0169771
899.285	0.0169454
899.363	0.0169019
899.442	0.0169343
899.520	0.0168896
899.598	0.0169112
899.676	0.0170272
899.754	0.0168880
899.832	0.0168179
899.910	0.0167020
899.988	0.0168485
900.067	0.0168561
900.145	0.0168729
900.223	0.0168419
900.301	0.0168956
900.379	0.0169377
900.457	0.0169698
900.535	0.0169765
900.613	0.0168861
900.692	0.0169393
900.770	0.0170638
900.848	0.0167609
900.926	0.0169743
901.004	0.0167231
901.082	0.0167687
901.160	0.0169107
901.238	0.0167946
901.317	0.0166090
901.395	0.0166101
901.473	0.0168677
901.551	0.0166921
901.629	0.0166461
901.707	0.0167854
901.785	0.0166400
901.863	0.0168214
901.942	0.0168108
902.020	0.0167739
902.098	0.0167149
902.176	0.0167811
902.254	0.0169633
902.332	0.0168597
902.410	0.0167953
902.488	0.0169953
902.567	0.0169128
902.645	0.0168387
902.723	0.0168198
902.801	0.0167225
902.879	0.0168765
902.957	0.0167577
903.035	0.0167749
903.113	0.0168420
903.192	0.0168504
903.270	0.0168810
903.348	0.0169347
903.426	0.0167714
903.504	0.0168031
903.582	0.0167972
903.660	0.0166965
903.738	0.0167229
903.817	0.0167572
903.895	0.0169788
903.973	0.0168402
904.051	0.0168089
904.129	0.0169563
904.207	0.0170564
904.285	0.0171832
904.363	0.0171302
904.442	0.0170169
904.520	0.0170859
904.598	0.0170981
904.676	0.0169864
904.754	0.0171573
904.832	0.0170605
904.910	0.0170023
904.988	0.0169315
905.067	0.0169682
905.145	0.0169247
905.223	0.0170024
905.301	0.0168637
905.379	0.0168269
905.457	0.0167659
905.535	0.0168938
905.613	0.0167860
905.692	0.0167136
905.770	0.0168006
905.848	0.0166788
905.926	0.0167158
906.004	0.0168765
906.082	0.0167543
906.160	0.0167683
906.238	0.0168872
906.317	0.0168237
906.395	0.0169128
906.473	0.0168750
906.551	0.0168195
906.629	0.0169166
906.707	0.0168938
906.785	0.0169076
906.863	0.0170538
906.942	0.0170332
907.020	0.0170535
907.098	0.0168624
907.176	0.0168897
907.254	0.0169556
907.332	0.0170415
907.410	0.0169669
907.488	0.0168581
907.567	0.0168276
907.645	0.0169382
907.723	0.0169430
907.801	0.0169550
907.879	0.0169385
907.957	0.0169314
908.035	0.0168333
908.113	0.0169548
908.192	0.0169302
908.270	0.0169088
908.348	0.0168929
908.426	0.0167199
908.504	0.0168555
908.582	0.0168738
908.660	0.0170087
908.738	0.0169710
908.817	0.0168764
908.895	0.0167644
908.973	0.0169122
909.051	0.0168827
909.129	0.0169746
909.207	0.0169347
909.285	0.0169781
909.363	0.0169628
909.442	0.0169513
909.520	0.0168970
909.598	0.0170242
909.676	0.0169579
909.754	0.0170881
909.832	0.0169481
909.910	0.0171220
909.988	0.0171512
910.067	0.0170360
910.145	0.0168612
910.223	0.0169001
910.301	0.0169120
910.379	0.0168520
910.457	0.0169131
910.535	0.0168259
910.613	0.0167217
910.692	0.0167595
910.770	0.0167690
910.848	0.0168095
910.926	0.0168550
911.004	0.0168296
911.082	0.0169128
911.160	0.0169066
911.238	0.0168974
911.317	0.0170870
911.395	0.0169149
911.473	0.0169213
911.551	0.0170244
911.629	0.0169410
911.707	0.0170394
911.785	0.0170725
911.863	0.0170440
911.942	0.0170773
912.020	0.0168579
912.098	0.0168125
912.176	0.0168779
912.254	0.0168758
912.332	0.0168108
912.410	0.0169418
912.488	0.0169155
912.567	0.0168618
912.645	0.0167181
912.723	0.0167879
912.801	0.0168275
912.879	0.0167973
912.957	0.0167626
913.035	0.0168158
913.113	0.0169306
913.192	0.0169332
913.270	0.0169351
913.348	0.0169075
913.426	0.0168755
913.504	0.0168369
913.582	0.0168565
913.660	0.0168665
913.738	0.0168903
913.817	0.0167529
913.895	0.0169122
913.973	0.0168930
914.051	0.0170275
914.129	0.0169807
914.207	0.0169728
914.285	0.0169828
914.363	0.0169733
914.442	0.0171197
914.520	0.0170628
914.598	0.0170508
914.676	0.0170771
914.754	0.0169030
914.832	0.0169713
914.910	0.0170584
914.988	0.0169518
915.067	0.0169472
915.145	0.0168918
915.223	0.0168470
915.301	0.0169340
915.379	0.0166821
915.457	0.0168620
915.535	0.0168153
915.613	0.0168363
915.692	0.0168363
915.770	0.0167863
915.848	0.0166205
915.926	0.0168555
916.004	0.0166109
916.082	0.0167656
916.160	0.0168037
916.238	0.0168026
916.317	0.0168356
916.395	0.0170295
916.473	0.0170827
916.551	0.0169891
916.629	0.0167555
916.707	0.0170641
916.785	0.0169789
916.863	0.0169369
916.942	0.0168531
917.020	0.0169183
917.098	0.0169387
917.176	0.0168867
917.254	0.0169945
917.332	0.0168433
917.410	0.0167432
917.488	0.0167713
917.567	0.0167848
917.645	0.0168496
917.723	0.0167171
917.801	0.0168665
917.879	0.0166194
917.957	0.0166283
918.035	0.0167055
918.113	0.0165817
918.192	0.0168086
918.270	0.0168715
918.348	0.0167151
918.426	0.0167715
918.504	0.0168403
918.582	0.0168457
918.660	0.0169086
918.738	0.0169183
918.817	0.0167847
918.895	0.0169288
918.973	0.0172173
919.051	0.0169533
919.129	0.0169860
919.207	0.0169002
919.285	0.0169598
919.363	0.0170254
919.442	0.0170098
919.520	0.0169675
919.598	0.0169840
919.676	0.0169222
919.754	0.0169138
919.832	0.0168503
919.910	0.0169363
