06/03/2022	13:59:20	Ver.	4.1	UNKNOWN
Optical Delay	599.981738	Delta X		0.078125	Sweeps	1	Scan Rate	0/0
Coordinates	Axis 1	NaN	Axis 2	NaN	Axis 3	NaN	Axis 4	NaN	Axis 5	NaN	Axis 6	0.000000
TX Power	0.000000	RX Power	0.000000

599.982	0.0165472
600.060	0.0166080
600.138	0.0164218
600.216	0.0166187
600.294	0.0166060
600.372	0.0165793
600.450	0.0165481
600.529	0.0165284
600.607	0.0165073
600.685	0.0165821
600.763	0.0165581
600.841	0.0167258
600.919	0.0166006
600.997	0.0165674
601.075	0.0167596
601.154	0.0165788
601.232	0.0166344
601.310	0.0166117
601.388	0.0165850
601.466	0.0165661
601.544	0.0165384
601.622	0.0165560
601.700	0.0165225
601.779	0.0166936
601.857	0.0165662
601.935	0.0166933
602.013	0.0166219
602.091	0.0165405
602.169	0.0165727
602.247	0.0165186
602.325	0.0165916
602.404	0.0165025
602.482	0.0164889
602.560	0.0165723
602.638	0.0166103
602.716	0.0165704
602.794	0.0165089
602.872	0.0165955
602.950	0.0167242
603.029	0.0166398
603.107	0.0165892
603.185	0.0166461
603.263	0.0165869
603.341	0.0166787
603.419	0.0166204
603.497	0.0165933
603.575	0.0165566
603.654	0.0166116
603.732	0.0166190
603.810	0.0164949
603.888	0.0167126
603.966	0.0166222
604.044	0.0166053
604.122	0.0165934
604.200	0.0166546
604.279	0.0166660
604.357	0.0165740
604.435	0.0164310
604.513	0.0166193
604.591	0.0167040
604.669	0.0165842
604.747	0.0166229
604.825	0.0167159
604.904	0.0164227
604.982	0.0166019
605.060	0.0165632
605.138	0.0165472
605.216	0.0164791
605.294	0.0165878
605.372	0.0166626
605.450	0.0166578
605.529	0.0164325
605.607	0.0165585
605.685	0.0166071
605.763	0.0166166
605.841	0.0165804
605.919	0.0166405
605.997	0.0167000
606.075	0.0165503
606.154	0.0166077
606.232	0.0166344
606.310	0.0166670
606.388	0.0166072
606.466	0.0166888
606.544	0.0165830
606.622	0.0164695
606.700	0.0165488
606.779	0.0166353
606.857	0.0166193
606.935	0.0166417
607.013	0.0166694
607.091	0.0166150
607.169	0.0166122
607.247	0.0165489
607.325	0.0166795
607.404	0.0166279
607.482	0.0165038
607.560	0.0165802
607.638	0.0165839
607.716	0.0166584
607.794	0.0166167
607.872	0.0166539
607.950	0.0166540
608.029	0.0164646
608.107	0.0165083
608.185	0.0165778
608.263	0.0167535
608.341	0.0166949
608.419	0.0165226
608.497	0.0165427
608.575	0.0166525
608.654	0.0166948
608.732	0.0166822
608.810	0.0164490
608.888	0.0166835
608.966	0.0165122
609.044	0.0165266
609.122	0.0167220
609.200	0.0165762
609.279	0.0164986
609.357	0.0165173
609.435	0.0166016
609.513	0.0165668
609.591	0.0166759
609.669	0.0166309
609.747	0.0165459
609.825	0.0165403
609.904	0.0165900
609.982	0.0166011
610.060	0.0165733
610.138	0.0166435
610.216	0.0166068
610.294	0.0166672
610.372	0.0166399
610.450	0.0164975
610.529	0.0166148
610.607	0.0165779
610.685	0.0165568
610.763	0.0166505
610.841	0.0166490
610.919	0.0167137
610.997	0.0166497
611.075	0.0166298
611.154	0.0165435
611.232	0.0165584
611.310	0.0165437
611.388	0.0166759
611.466	0.0166912
611.544	0.0164397
611.622	0.0165094
611.700	0.0165137
611.779	0.0165977
611.857	0.0165592
611.935	0.0166217
612.013	0.0164471
612.091	0.0165521
612.169	0.0165908
612.247	0.0165874
612.325	0.0164576
612.404	0.0165351
612.482	0.0165488
612.560	0.0166296
612.638	0.0165311
612.716	0.0165838
612.794	0.0165532
612.872	0.0166586
612.950	0.0166540
613.029	0.0165524
613.107	0.0166627
613.185	0.0165175
613.263	0.0165279
613.341	0.0166611
613.419	0.0167259
613.497	0.0166816
613.575	0.0166312
613.654	0.0166801
613.732	0.0165965
613.810	0.0168238
613.888	0.0165827
613.966	0.0165904
614.044	0.0167279
614.122	0.0166854
614.200	0.0165871
614.279	0.0165129
614.357	0.0166257
614.435	0.0165664
614.513	0.0165624
614.591	0.0165961
614.669	0.0166753
614.747	0.0164875
614.825	0.0165404
614.904	0.0165532
614.982	0.0165421
615.060	0.0164873
615.138	0.0166322
615.216	0.0164877
615.294	0.0164997
615.372	0.0165334
615.450	0.0165113
615.529	0.0165761
615.607	0.0166188
615.685	0.0166716
615.763	0.0164865
615.841	0.0164594
615.919	0.0164603
615.997	0.0165576
616.075	0.0165909
616.154	0.0166461
616.232	0.0165219
616.310	0.0167329
616.388	0.0165894
616.466	0.0166267
616.544	0.0166721
616.622	0.0165852
616.700	0.0166077
616.779	0.0166016
616.857	0.0166798
616.935	0.0166354
617.013	0.0167003
617.091	0.0167112
617.169	0.0165736
617.247	0.0166934
617.325	0.0165446
617.404	0.0166273
617.482	0.0166695
617.560	0.0165823
617.638	0.0166203
617.716	0.0165900
617.794	0.0166920
617.872	0.0165313
617.950	0.0164482
618.029	0.0165614
618.107	0.0165110
618.185	0.0165291
618.263	0.0167018
618.341	0.0166251
618.419	0.0166676
618.497	0.0166485
618.575	0.0165269
618.654	0.0166383
618.732	0.0166146
618.810	0.0166502
618.888	0.0166424
618.966	0.0166266
619.044	0.0166241
619.122	0.0166139
619.200	0.0166859
619.279	0.0165337
619.357	0.0167117
619.435	0.0163951
619.513	0.0166213
619.591	0.0166137
619.669	0.0164523
619.747	0.0165476
619.825	0.0165667
619.904	0.0165102
619.982	0.0166224
620.060	0.0165872
620.138	0.0165369
620.216	0.0167240
620.294	0.0166867
620.372	0.0165372
620.450	0.0165611
620.529	0.0167061
620.607	0.0165454
620.685	0.0165832
620.763	0.0166455
620.841	0.0164489
620.919	0.0165222
620.997	0.0165643
621.075	0.0164902
621.154	0.0166915
621.232	0.0166410
621.310	0.0166296
621.388	0.0166162
621.466	0.0165360
621.544	0.0165145
621.622	0.0165453
621.700	0.0166615
621.779	0.0167469
621.857	0.0166463
621.935	0.0167307
622.013	0.0167981
622.091	0.0166175
622.169	0.0164629
622.247	0.0166067
622.325	0.0166099
622.404	0.0166844
622.482	0.0164478
622.560	0.0165922
622.638	0.0165107
622.716	0.0164787
622.794	0.0165737
622.872	0.0165838
622.950	0.0165933
623.029	0.0165981
623.107	0.0164587
623.185	0.0165477
623.263	0.0167090
623.341	0.0165216
623.419	0.0165392
623.497	0.0166681
623.575	0.0164990
623.654	0.0165321
623.732	0.0165578
623.810	0.0164987
623.888	0.0165688
623.966	0.0164864
624.044	0.0167081
624.122	0.0165226
624.200	0.0166319
624.279	0.0165485
624.357	0.0166859
624.435	0.0167398
624.513	0.0165965
624.591	0.0164957
624.669	0.0165897
624.747	0.0166748
624.825	0.0166076
624.904	0.0166092
624.982	0.0166289
625.060	0.0167197
625.138	0.0164135
625.216	0.0166765
625.294	0.0166293
625.372	0.0166006
625.450	0.0166403
625.529	0.0166655
625.607	0.0166695
625.685	0.0166277
625.763	0.0166092
625.841	0.0166624
625.919	0.0165627
625.997	0.0165978
626.075	0.0167175
626.154	0.0165643
626.232	0.0164864
626.310	0.0164640
626.388	0.0166842
626.466	0.0166416
626.544	0.0166216
626.622	0.0165704
626.700	0.0166145
626.779	0.0165980
626.857	0.0166124
626.935	0.0166801
627.013	0.0165817
627.091	0.0166354
627.169	0.0166367
627.247	0.0166540
627.325	0.0166043
627.404	0.0165341
627.482	0.0167040
627.560	0.0166546
627.638	0.0165794
627.716	0.0166442
627.794	0.0166304
627.872	0.0165525
627.950	0.0165134
628.029	0.0167095
628.107	0.0166732
628.185	0.0166869
628.263	0.0165409
628.341	0.0167083
628.419	0.0167845
628.497	0.0167215
628.575	0.0166428
628.654	0.0165662
628.732	0.0165485
628.810	0.0166407
628.888	0.0166273
628.966	0.0167480
629.044	0.0165517
629.122	0.0166171
629.200	0.0166545
629.279	0.0167252
629.357	0.0164420
629.435	0.0165219
629.513	0.0165340
629.591	0.0166383
629.669	0.0164809
629.747	0.0166702
629.825	0.0165717
629.904	0.0166614
629.982	0.0166936
630.060	0.0166198
630.138	0.0165831
630.216	0.0166836
630.294	0.0166993
630.372	0.0165839
630.450	0.0166844
630.529	0.0165333
630.607	0.0165859
630.685	0.0166750
630.763	0.0166753
630.841	0.0166474
630.919	0.0166704
630.997	0.0166778
631.075	0.0165114
631.154	0.0166571
631.232	0.0166203
631.310	0.0165888
631.388	0.0165568
631.466	0.0165472
631.544	0.0165553
631.622	0.0166423
631.700	0.0166502
631.779	0.0166560
631.857	0.0166328
631.935	0.0164269
632.013	0.0165323
632.091	0.0166174
632.169	0.0166940
632.247	0.0166305
632.325	0.0166031
632.404	0.0166706
632.482	0.0166576
632.560	0.0165561
632.638	0.0165648
632.716	0.0164388
632.794	0.0165969
632.872	0.0167099
632.950	0.0166696
633.029	0.0166239
633.107	0.0166203
633.185	0.0166212
633.263	0.0165303
633.341	0.0166824
633.419	0.0165457
633.497	0.0165547
633.575	0.0166904
633.654	0.0167500
633.732	0.0165753
633.810	0.0165845
633.888	0.0166915
633.966	0.0166678
634.044	0.0167081
634.122	0.0167145
634.200	0.0166728
634.279	0.0165363
634.357	0.0166278
634.435	0.0165714
634.513	0.0165934
634.591	0.0165562
634.669	0.0166217
634.747	0.0165710
634.825	0.0163664
634.904	0.0167163
634.982	0.0166259
635.060	0.0166354
635.138	0.0166366
635.216	0.0165369
635.294	0.0166113
635.372	0.0166602
635.450	0.0165619
635.529	0.0165556
635.607	0.0167265
635.685	0.0164355
635.763	0.0165662
635.841	0.0165182
635.919	0.0167007
635.997	0.0167252
636.075	0.0167281
636.154	0.0165913
636.232	0.0165247
636.310	0.0166709
636.388	0.0164693
636.466	0.0167871
636.544	0.0167816
636.622	0.0166797
636.700	0.0165719
636.779	0.0165745
636.857	0.0165362
636.935	0.0167357
637.013	0.0167133
637.091	0.0165202
637.169	0.0166024
637.247	0.0165377
637.325	0.0166010
637.404	0.0167478
637.482	0.0166499
637.560	0.0165650
637.638	0.0165923
637.716	0.0165597
637.794	0.0166574
637.872	0.0166267
637.950	0.0166264
638.029	0.0166418
638.107	0.0166052
638.185	0.0166217
638.263	0.0165588
638.341	0.0165764
638.419	0.0165891
638.497	0.0166044
638.575	0.0166401
638.654	0.0165250
638.732	0.0166792
638.810	0.0165858
638.888	0.0167180
638.966	0.0168027
639.044	0.0165915
639.122	0.0166786
639.200	0.0166064
639.279	0.0166255
639.357	0.0166991
639.435	0.0166209
639.513	0.0166322
639.591	0.0166389
639.669	0.0167417
639.747	0.0166144
639.825	0.0166898
639.904	0.0165195
639.982	0.0167181
640.060	0.0165760
640.138	0.0165624
640.216	0.0166585
640.294	0.0167060
640.372	0.0166462
640.450	0.0165976
640.529	0.0166801
640.607	0.0165858
640.685	0.0166182
640.763	0.0165849
640.841	0.0166386
640.919	0.0166634
640.997	0.0167119
641.075	0.0166480
641.154	0.0166436
641.232	0.0167044
641.310	0.0165521
641.388	0.0165376
641.466	0.0166328
641.544	0.0166756
641.622	0.0167016
641.700	0.0166400
641.779	0.0167056
641.857	0.0165593
641.935	0.0166266
642.013	0.0167600
642.091	0.0166983
642.169	0.0166582
642.247	0.0164969
642.325	0.0166397
642.404	0.0166333
642.482	0.0166039
642.560	0.0166252
642.638	0.0166374
642.716	0.0166101
642.794	0.0167475
642.872	0.0166432
642.950	0.0165655
643.029	0.0165892
643.107	0.0166889
643.185	0.0166720
643.263	0.0166018
643.341	0.0165476
643.419	0.0166929
643.497	0.0166978
643.575	0.0167297
643.654	0.0166588
643.732	0.0166454
643.810	0.0166544
643.888	0.0166048
643.966	0.0166473
644.044	0.0166930
644.122	0.0166629
644.200	0.0166579
644.279	0.0165219
644.357	0.0165314
644.435	0.0165876
644.513	0.0167131
644.591	0.0166493
644.669	0.0166452
644.747	0.0166305
644.825	0.0165435
644.904	0.0166099
644.982	0.0165422
645.060	0.0165331
645.138	0.0166607
645.216	0.0166798
645.294	0.0167327
645.372	0.0167299
645.450	0.0166576
645.529	0.0166811
645.607	0.0167838
645.685	0.0168153
645.763	0.0166616
645.841	0.0165094
645.919	0.0165701
645.997	0.0166871
646.075	0.0167474
646.154	0.0166195
646.232	0.0167391
646.310	0.0165522
646.388	0.0165524
646.466	0.0164899
646.544	0.0165250
646.622	0.0165858
646.700	0.0166254
646.779	0.0164644
646.857	0.0166588
646.935	0.0165805
647.013	0.0166674
647.091	0.0167000
647.169	0.0166353
647.247	0.0167110
647.325	0.0167200
647.404	0.0165630
647.482	0.0165708
647.560	0.0165352
647.638	0.0166770
647.716	0.0166784
647.794	0.0164957
647.872	0.0166535
647.950	0.0165605
648.029	0.0167700
648.107	0.0167178
648.185	0.0165602
648.263	0.0165414
648.341	0.0166750
648.419	0.0166155
648.497	0.0166149
648.575	0.0166350
648.654	0.0166650
648.732	0.0165848
648.810	0.0165420
648.888	0.0166576
648.966	0.0167294
649.044	0.0165627
649.122	0.0165298
649.200	0.0166456
649.279	0.0165907
649.357	0.0165716
649.435	0.0165629
649.513	0.0166249
649.591	0.0166015
649.669	0.0167481
649.747	0.0167345
649.825	0.0166027
649.904	0.0165070
649.982	0.0165929
650.060	0.0166344
650.138	0.0165401
650.216	0.0165871
650.294	0.0165202
650.372	0.0165066
650.450	0.0165472
650.529	0.0165665
650.607	0.0165658
650.685	0.0166612
650.763	0.0166378
650.841	0.0166914
650.919	0.0166134
650.997	0.0164846
651.075	0.0165837
651.154	0.0166886
651.232	0.0165328
651.310	0.0164610
651.388	0.0166831
651.466	0.0166452
651.544	0.0165174
651.622	0.0165943
651.700	0.0165522
651.779	0.0165922
651.857	0.0167600
651.935	0.0166129
652.013	0.0165322
652.091	0.0165758
652.169	0.0165646
652.247	0.0166748
652.325	0.0166740
652.404	0.0165171
652.482	0.0165424
652.560	0.0165778
652.638	0.0165120
652.716	0.0165644
652.794	0.0166659
652.872	0.0165912
652.950	0.0165396
653.029	0.0166319
653.107	0.0166251
653.185	0.0165746
653.263	0.0165981
653.341	0.0167100
653.419	0.0166245
653.497	0.0165125
653.575	0.0165221
653.654	0.0166389
653.732	0.0166162
653.810	0.0165969
653.888	0.0166680
653.966	0.0166361
654.044	0.0165630
654.122	0.0165646
654.200	0.0166331
654.279	0.0165534
654.357	0.0165814
654.435	0.0167020
654.513	0.0167663
654.591	0.0167616
654.669	0.0165652
654.747	0.0166297
654.825	0.0164704
654.904	0.0166731
654.982	0.0166515
655.060	0.0166940
655.138	0.0165145
655.216	0.0165910
655.294	0.0165926
655.372	0.0166438
655.450	0.0166735
655.529	0.0166033
655.607	0.0166283
655.685	0.0165845
655.763	0.0165112
655.841	0.0166301
655.919	0.0165417
655.997	0.0166014
656.075	0.0166704
656.154	0.0166210
656.232	0.0166774
656.310	0.0167080
656.388	0.0165441
656.466	0.0165618
656.544	0.0166901
656.622	0.0165778
656.700	0.0167233
656.779	0.0167126
656.857	0.0166611
656.935	0.0165910
657.013	0.0166113
657.091	0.0165579
657.169	0.0165421
657.247	0.0166062
657.325	0.0166459
657.404	0.0166146
657.482	0.0164465
657.560	0.0166039
657.638	0.0166499
657.716	0.0166060
657.794	0.0165427
657.872	0.0164943
657.950	0.0166209
658.029	0.0167487
658.107	0.0166553
658.185	0.0165750
658.263	0.0166287
658.341	0.0165800
658.419	0.0166177
658.497	0.0166602
658.575	0.0166994
658.654	0.0165735
658.732	0.0166163
658.810	0.0165110
658.888	0.0164107
658.966	0.0166208
659.044	0.0166507
659.122	0.0165605
659.200	0.0166033
659.279	0.0165193
659.357	0.0166000
659.435	0.0165733
659.513	0.0165816
659.591	0.0165530
659.669	0.0166084
659.747	0.0166796
659.825	0.0165294
659.904	0.0167056
659.982	0.0166724
660.060	0.0166296
660.138	0.0165883
660.216	0.0166400
660.294	0.0166029
660.372	0.0165003
660.450	0.0165845
660.529	0.0166364
660.607	0.0165892
660.685	0.0165939
660.763	0.0167510
660.841	0.0166599
660.919	0.0165978
660.997	0.0165670
661.075	0.0165267
661.154	0.0165475
661.232	0.0165379
661.310	0.0165965
661.388	0.0165790
661.466	0.0165764
661.544	0.0166080
661.622	0.0165144
661.700	0.0166960
661.779	0.0166786
661.857	0.0165579
661.935	0.0165018
662.013	0.0165975
662.091	0.0167285
662.169	0.0165768
662.247	0.0165988
662.325	0.0167189
662.404	0.0165180
662.482	0.0166417
662.560	0.0167103
662.638	0.0167011
662.716	0.0165794
662.794	0.0165961
662.872	0.0165729
662.950	0.0165057
663.029	0.0165652
663.107	0.0166576
663.185	0.0166659
663.263	0.0167203
663.341	0.0165310
663.419	0.0165552
663.497	0.0165649
663.575	0.0164694
663.654	0.0163773
663.732	0.0166803
663.810	0.0165720
663.888	0.0165206
663.966	0.0164983
664.044	0.0166544
664.122	0.0165877
664.200	0.0166813
664.279	0.0165902
664.357	0.0165648
664.435	0.0165320
664.513	0.0165668
664.591	0.0166217
664.669	0.0167471
664.747	0.0166742
664.825	0.0166288
664.904	0.0163727
664.982	0.0163601
665.060	0.0166963
665.138	0.0165083
665.216	0.0165576
665.294	0.0164247
665.372	0.0165322
665.450	0.0165779
665.529	0.0166647
665.607	0.0165492
665.685	0.0164920
665.763	0.0166203
665.841	0.0165064
665.919	0.0165650
665.997	0.0166830
666.075	0.0166623
666.154	0.0165501
666.232	0.0165315
666.310	0.0165043
666.388	0.0165718
666.466	0.0166188
666.544	0.0165787
666.622	0.0165858
666.700	0.0165077
666.779	0.0166611
666.857	0.0165738
666.935	0.0165977
667.013	0.0166235
667.091	0.0166123
667.169	0.0165777
667.247	0.0166891
667.325	0.0165495
667.404	0.0166437
667.482	0.0166461
667.560	0.0166187
667.638	0.0165011
667.716	0.0166274
667.794	0.0166164
667.872	0.0166425
667.950	0.0167436
668.029	0.0165714
668.107	0.0164771
668.185	0.0167146
668.263	0.0165217
668.341	0.0165636
668.419	0.0167335
668.497	0.0165952
668.575	0.0167027
668.654	0.0166500
668.732	0.0165687
668.810	0.0166846
668.888	0.0166122
668.966	0.0165203
669.044	0.0165991
669.122	0.0166679
669.200	0.0165302
669.279	0.0165900
669.357	0.0166207
669.435	0.0166504
669.513	0.0165954
669.591	0.0166635
669.669	0.0166254
669.747	0.0166123
669.825	0.0166413
669.904	0.0167773
669.982	0.0166201
670.060	0.0166562
670.138	0.0166376
670.216	0.0166288
670.294	0.0168734
670.372	0.0166951
670.450	0.0165734
670.529	0.0166066
670.607	0.0165824
670.685	0.0166743
670.763	0.0166479
670.841	0.0165781
670.919	0.0166199
670.997	0.0165702
671.075	0.0166203
671.154	0.0166718
671.232	0.0166361
671.310	0.0165858
671.388	0.0165679
671.466	0.0166651
671.544	0.0167118
671.622	0.0165487
671.700	0.0167059
671.779	0.0166357
671.857	0.0166062
671.935	0.0165784
672.013	0.0168034
672.091	0.0165397
672.169	0.0167216
672.247	0.0167213
672.325	0.0165896
672.404	0.0165178
672.482	0.0166061
672.560	0.0167779
672.638	0.0165952
672.716	0.0165723
672.794	0.0167094
672.872	0.0166821
672.950	0.0165688
673.029	0.0164684
673.107	0.0165560
673.185	0.0167358
673.263	0.0166395
673.341	0.0164922
673.419	0.0166530
673.497	0.0166201
673.575	0.0166484
673.654	0.0166976
673.732	0.0165685
673.810	0.0164706
673.888	0.0166330
673.966	0.0165337
674.044	0.0165926
674.122	0.0166787
674.200	0.0166278
674.279	0.0165183
674.357	0.0165711
674.435	0.0166146
674.513	0.0165816
674.591	0.0165167
674.669	0.0166450
674.747	0.0163184
674.825	0.0166342
674.904	0.0166232
674.982	0.0166211
675.060	0.0165825
675.138	0.0167335
675.216	0.0166655
675.294	0.0166290
675.372	0.0165839
675.450	0.0166103
675.529	0.0165923
675.607	0.0166959
675.685	0.0166579
675.763	0.0165341
675.841	0.0165464
675.919	0.0166608
675.997	0.0166100
676.075	0.0165961
676.154	0.0165155
676.232	0.0165250
676.310	0.0167203
676.388	0.0165998
676.466	0.0165840
676.544	0.0165969
676.622	0.0168731
676.700	0.0167286
676.779	0.0165195
676.857	0.0166109
676.935	0.0165556
677.013	0.0165788
677.091	0.0165322
677.169	0.0166748
677.247	0.0165862
677.325	0.0165488
677.404	0.0165730
677.482	0.0165974
677.560	0.0166581
677.638	0.0165720
677.716	0.0164689
677.794	0.0165434
677.872	0.0166925
677.950	0.0165805
678.029	0.0167457
678.107	0.0165894
678.185	0.0166100
678.263	0.0166306
678.341	0.0165169
678.419	0.0165770
678.497	0.0167036
678.575	0.0165938
678.654	0.0166148
678.732	0.0166708
678.810	0.0165794
678.888	0.0166328
678.966	0.0167107
679.044	0.0167046
679.122	0.0165721
679.200	0.0166190
679.279	0.0166467
679.357	0.0165117
679.435	0.0166890
679.513	0.0166182
679.591	0.0166271
679.669	0.0165930
679.747	0.0166205
679.825	0.0165865
679.904	0.0166712
679.982	0.0166603
680.060	0.0166882
680.138	0.0166221
680.216	0.0165503
680.294	0.0165928
680.372	0.0164171
680.450	0.0165523
680.529	0.0166759
680.607	0.0166419
680.685	0.0164689
680.763	0.0164864
680.841	0.0165044
680.919	0.0164661
680.997	0.0166432
681.075	0.0167488
681.154	0.0165929
681.232	0.0165528
681.310	0.0167583
681.388	0.0167391
681.466	0.0168463
681.544	0.0166737
681.622	0.0167680
681.700	0.0168147
681.779	0.0168654
681.857	0.0168849
681.935	0.0167304
682.013	0.0165747
682.091	0.0166911
682.169	0.0166303
682.247	0.0167085
682.325	0.0164490
682.404	0.0165816
682.482	0.0165357
682.560	0.0163651
682.638	0.0163931
682.716	0.0163842
682.794	0.0164159
682.872	0.0164137
682.950	0.0164841
683.029	0.0163361
683.107	0.0161617
683.185	0.0164038
683.263	0.0165189
683.341	0.0163019
683.419	0.0165968
683.497	0.0164023
683.575	0.0164438
683.654	0.0166822
683.732	0.0168119
683.810	0.0166659
683.888	0.0168018
683.966	0.0166914
684.044	0.0169099
684.122	0.0170399
684.200	0.0171042
684.279	0.0171618
684.357	0.0172275
684.435	0.0170494
684.513	0.0171344
684.591	0.0170336
684.669	0.0168004
684.747	0.0167658
684.825	0.0166526
684.904	0.0166613
684.982	0.0167616
685.060	0.0166994
685.138	0.0168723
685.216	0.0170330
685.294	0.0171642
685.372	0.0170198
685.450	0.0171816
685.529	0.0170353
685.607	0.0167046
685.685	0.0163966
685.763	0.0156935
685.841	0.0152700
685.919	0.0148263
685.997	0.0145531
686.075	0.0142847
686.154	0.0142240
686.232	0.0142178
686.310	0.0143393
686.388	0.0146433
686.466	0.0153059
686.544	0.0155865
686.622	0.0161347
686.700	0.0165192
686.779	0.0169122
686.857	0.0172876
686.935	0.0176045
687.013	0.0177794
687.091	0.0181089
687.169	0.0182130
687.247	0.0185281
687.325	0.0188665
687.404	0.0192912
687.482	0.0196117
687.560	0.0199956
687.638	0.0203702
687.716	0.0204847
687.794	0.0206283
687.872	0.0204918
687.950	0.0202847
688.029	0.0196146
688.107	0.0185133
688.185	0.0174883
688.263	0.0160613
688.341	0.0147021
688.419	0.0132254
688.497	0.0120942
688.575	0.0112711
688.654	0.0105015
688.732	0.0100171
688.810	0.0100356
688.888	0.0102540
688.966	0.0105707
689.044	0.0112577
689.122	0.0119026
689.200	0.0126716
689.279	0.0135657
689.357	0.0145309
689.435	0.0154481
689.513	0.0162466
689.591	0.0171196
689.669	0.0179410
689.747	0.0188755
689.825	0.0193939
689.904	0.0202343
689.982	0.0209705
690.060	0.0215872
690.138	0.0220505
690.216	0.0223012
690.294	0.0226879
690.372	0.0228091
690.450	0.0228242
690.529	0.0226743
690.607	0.0224843
690.685	0.0220434
690.763	0.0213396
690.841	0.0205073
690.919	0.0193021
690.997	0.0181529
691.075	0.0164906
691.154	0.0150623
691.232	0.0134647
691.310	0.0120705
691.388	0.0107481
691.466	0.00948593
691.544	0.00855392
691.622	0.00789986
691.700	0.00755249
691.779	0.00779190
691.857	0.00832184
691.935	0.00895668
692.013	0.0101480
692.091	0.0113922
692.169	0.0127205
692.247	0.0140479
692.325	0.0153035
692.404	0.0167159
692.482	0.0179351
692.560	0.0190519
692.638	0.0200552
692.716	0.0210441
692.794	0.0218265
692.872	0.0228035
692.950	0.0234159
693.029	0.0241856
693.107	0.0244801
693.185	0.0247618
693.263	0.0248285
693.341	0.0248396
693.419	0.0242296
693.497	0.0235352
693.575	0.0224707
693.654	0.0211826
693.732	0.0197084
693.810	0.0181880
693.888	0.0163966
693.966	0.0147180
694.044	0.0131033
694.122	0.0114713
694.200	0.0102199
694.279	0.00912636
694.357	0.00820503
694.435	0.00771523
694.513	0.00770546
694.591	0.00775261
694.669	0.00802521
694.747	0.00868713
694.825	0.00951965
694.904	0.0106062
694.982	0.0117566
695.060	0.0133612
695.138	0.0146858
695.216	0.0161311
695.294	0.0175674
695.372	0.0189263
695.450	0.0200918
695.529	0.0209615
695.607	0.0218316
695.685	0.0227193
695.763	0.0231319
695.841	0.0234170
695.919	0.0236509
695.997	0.0236281
696.075	0.0232539
696.154	0.0228593
696.232	0.0222366
696.310	0.0214103
696.388	0.0206719
696.466	0.0195987
696.544	0.0186087
696.622	0.0176215
696.700	0.0165939
696.779	0.0156010
696.857	0.0145353
696.935	0.0134711
697.013	0.0125286
697.091	0.0118871
697.169	0.0113416
697.247	0.0108141
697.325	0.0105476
697.404	0.0107303
697.482	0.0110957
697.560	0.0116315
697.638	0.0122813
697.716	0.0130817
697.794	0.0138934
697.872	0.0151193
697.950	0.0160944
698.029	0.0171781
698.107	0.0181576
698.185	0.0190892
698.263	0.0197865
698.341	0.0203310
698.419	0.0205331
698.497	0.0209370
698.575	0.0209924
698.654	0.0208395
698.732	0.0206609
698.810	0.0204790
698.888	0.0200047
698.966	0.0193976
699.044	0.0185621
699.122	0.0180064
699.200	0.0174629
699.279	0.0166503
699.357	0.0158636
699.435	0.0152709
699.513	0.0147111
699.591	0.0139915
699.669	0.0134074
699.747	0.0132129
699.825	0.0130296
699.904	0.0125428
699.982	0.0125048
700.060	0.0126839
700.138	0.0128957
700.216	0.0131049
700.294	0.0137233
700.372	0.0141320
700.450	0.0146575
700.529	0.0152100
700.607	0.0158753
700.685	0.0164673
700.763	0.0171722
700.841	0.0178428
700.919	0.0182986
700.997	0.0191508
701.075	0.0197853
701.154	0.0201855
701.232	0.0205222
701.310	0.0208160
701.388	0.0211440
701.466	0.0212677
701.544	0.0211473
701.622	0.0209225
701.700	0.0207710
701.779	0.0201546
701.857	0.0194967
701.935	0.0189742
702.013	0.0181593
702.091	0.0176701
702.169	0.0170215
702.247	0.0161845
702.325	0.0154628
702.404	0.0149097
702.482	0.0143047
702.560	0.0137345
702.638	0.0133281
702.716	0.0128870
702.794	0.0126672
702.872	0.0125116
702.950	0.0125052
703.029	0.0126172
703.107	0.0124633
703.185	0.0124828
703.263	0.0128614
703.341	0.0129037
703.419	0.0131252
703.497	0.0137891
703.575	0.0142841
703.654	0.0148543
703.732	0.0156837
703.810	0.0165327
703.888	0.0171905
703.966	0.0178088
704.044	0.0184115
704.122	0.0191769
704.200	0.0196928
704.279	0.0200687
704.357	0.0204903
704.435	0.0206714
704.513	0.0206966
704.591	0.0207223
704.669	0.0205235
704.747	0.0204019
704.825	0.0201919
704.904	0.0196135
704.982	0.0189995
705.060	0.0184432
705.138	0.0177171
705.216	0.0172406
705.294	0.0166688
705.372	0.0161595
705.450	0.0157877
705.529	0.0153419
705.607	0.0151741
705.685	0.0150707
705.763	0.0150709
705.841	0.0149397
705.919	0.0148235
705.997	0.0150183
706.075	0.0149471
706.154	0.0151093
706.232	0.0151077
706.310	0.0153453
706.388	0.0154456
706.466	0.0155108
706.544	0.0156046
706.622	0.0157301
706.700	0.0158653
706.779	0.0158962
706.857	0.0159138
706.935	0.0162324
707.013	0.0161549
707.091	0.0163602
707.169	0.0163609
707.247	0.0165101
707.325	0.0169338
707.404	0.0169584
707.482	0.0170187
707.560	0.0170758
707.638	0.0171155
707.716	0.0169105
707.794	0.0170797
707.872	0.0169702
707.950	0.0168362
708.029	0.0167070
708.107	0.0166858
708.185	0.0166692
708.263	0.0166057
708.341	0.0165547
708.419	0.0165148
708.497	0.0164568
708.575	0.0164137
708.654	0.0162849
708.732	0.0163629
708.810	0.0164622
708.888	0.0165800
708.966	0.0165427
709.044	0.0167448
709.122	0.0167980
709.200	0.0168137
709.279	0.0169537
709.357	0.0169065
709.435	0.0169717
709.513	0.0170174
709.591	0.0171805
709.669	0.0171281
709.747	0.0172121
709.825	0.0172047
709.904	0.0170480
709.982	0.0172840
710.060	0.0170672
710.138	0.0169742
710.216	0.0170202
710.294	0.0167854
710.372	0.0166135
710.450	0.0165707
710.529	0.0164458
710.607	0.0164198
710.685	0.0164925
710.763	0.0164632
710.841	0.0165435
710.919	0.0164510
710.997	0.0166094
711.075	0.0166000
711.154	0.0166248
711.232	0.0166518
711.310	0.0166468
711.388	0.0167410
711.466	0.0167665
711.544	0.0166874
711.622	0.0167020
711.700	0.0165767
711.779	0.0166043
711.857	0.0164508
711.935	0.0162434
712.013	0.0162855
712.091	0.0162530
712.169	0.0161277
712.247	0.0161408
712.325	0.0159231
712.404	0.0160964
712.482	0.0160281
712.560	0.0158565
712.638	0.0160396
712.716	0.0158035
712.794	0.0158325
712.872	0.0158925
712.950	0.0159206
713.029	0.0158492
713.107	0.0158508
713.185	0.0157127
713.263	0.0157008
713.341	0.0157728
713.419	0.0158428
713.497	0.0160126
713.575	0.0162289
713.654	0.0162029
713.732	0.0163638
713.810	0.0164905
713.888	0.0166893
713.966	0.0169192
714.044	0.0171421
714.122	0.0172020
714.200	0.0172867
714.279	0.0172888
714.357	0.0174149
714.435	0.0174418
714.513	0.0175351
714.591	0.0173334
714.669	0.0173244
714.747	0.0174160
714.825	0.0172060
714.904	0.0171876
714.982	0.0170634
715.060	0.0170098
715.138	0.0169122
715.216	0.0168959
715.294	0.0168890
715.372	0.0168222
715.450	0.0167761
715.529	0.0167551
715.607	0.0165823
715.685	0.0163725
715.763	0.0164780
715.841	0.0163956
715.919	0.0163206
715.997	0.0163616
716.075	0.0163123
716.154	0.0163760
716.232	0.0165206
716.310	0.0163548
716.388	0.0165676
716.466	0.0166873
716.544	0.0168220
716.622	0.0169552
716.700	0.0168710
716.779	0.0169806
716.857	0.0169406
716.935	0.0169660
717.013	0.0168154
717.091	0.0167916
717.169	0.0167918
717.247	0.0166361
717.325	0.0164010
717.404	0.0162855
717.482	0.0161491
717.560	0.0159477
717.638	0.0157278
717.716	0.0157791
717.794	0.0155763
717.872	0.0155521
717.950	0.0153976
718.029	0.0154945
718.107	0.0155499
718.185	0.0156260
718.263	0.0156815
718.341	0.0157466
718.419	0.0157796
718.497	0.0160295
718.575	0.0161744
718.654	0.0162541
718.732	0.0165501
718.810	0.0165859
718.888	0.0167505
718.966	0.0169494
719.044	0.0170392
719.122	0.0169161
719.200	0.0171801
719.279	0.0171512
719.357	0.0171413
719.435	0.0171361
719.513	0.0170744
719.591	0.0170532
719.669	0.0170476
719.747	0.0169598
719.825	0.0169226
719.904	0.0168114
719.982	0.0168761
720.060	0.0168192
720.138	0.0167028
720.216	0.0167754
720.294	0.0168076
720.372	0.0170470
720.450	0.0169807
720.529	0.0171358
720.607	0.0171912
720.685	0.0172437
720.763	0.0173502
720.841	0.0174149
720.919	0.0171445
720.997	0.0171551
721.075	0.0171181
721.154	0.0171192
721.232	0.0169626
721.310	0.0168564
721.388	0.0167146
721.466	0.0164918
721.544	0.0164852
721.622	0.0164699
721.700	0.0164316
721.779	0.0162984
721.857	0.0161126
721.935	0.0160722
722.013	0.0158525
722.091	0.0159943
722.169	0.0159455
722.247	0.0157906
722.325	0.0159023
722.404	0.0158479
722.482	0.0158730
722.560	0.0158795
722.638	0.0159271
722.716	0.0160132
722.794	0.0160020
722.872	0.0160784
722.950	0.0162856
723.029	0.0162277
723.107	0.0163332
723.185	0.0165772
723.263	0.0165454
723.341	0.0165573
723.419	0.0166625
723.497	0.0166730
723.575	0.0166908
723.654	0.0167467
723.732	0.0168298
723.810	0.0168085
723.888	0.0170248
723.966	0.0170725
724.044	0.0170650
724.122	0.0172590
724.200	0.0172807
724.279	0.0172746
724.357	0.0172579
724.435	0.0174086
724.513	0.0173587
724.591	0.0172301
724.669	0.0172689
724.747	0.0172346
724.825	0.0171636
724.904	0.0171778
724.982	0.0169669
725.060	0.0167452
725.138	0.0167449
725.216	0.0165089
725.294	0.0164064
725.372	0.0163203
725.450	0.0162328
725.529	0.0161717
725.607	0.0162170
725.685	0.0161996
725.763	0.0161865
725.841	0.0161867
725.919	0.0163289
725.997	0.0163895
726.075	0.0163175
726.154	0.0164221
726.232	0.0165540
726.310	0.0167702
726.388	0.0166702
726.466	0.0165957
726.544	0.0166349
726.622	0.0167023
726.700	0.0168121
726.779	0.0168102
726.857	0.0168848
726.935	0.0166775
727.013	0.0165897
727.091	0.0166949
727.169	0.0164838
727.247	0.0163787
727.325	0.0163753
727.404	0.0163668
727.482	0.0162982
727.560	0.0163101
727.638	0.0163059
727.716	0.0163352
727.794	0.0164635
727.872	0.0163828
727.950	0.0163073
728.029	0.0164288
728.107	0.0164791
728.185	0.0165057
728.263	0.0167060
728.341	0.0166906
728.419	0.0167629
728.497	0.0167679
728.575	0.0168712
728.654	0.0168670
728.732	0.0168968
728.810	0.0167015
728.888	0.0167949
728.966	0.0168818
729.044	0.0169129
729.122	0.0169247
729.200	0.0168459
729.279	0.0168216
729.357	0.0167876
729.435	0.0166076
729.513	0.0169187
729.591	0.0168170
729.669	0.0166972
729.747	0.0165701
729.825	0.0167372
729.904	0.0165639
729.982	0.0166923
730.060	0.0166199
730.138	0.0164756
730.216	0.0165604
730.294	0.0165851
730.372	0.0165260
730.450	0.0164026
730.529	0.0164016
730.607	0.0164909
730.685	0.0164738
730.763	0.0164919
730.841	0.0165720
730.919	0.0163829
730.997	0.0164894
731.075	0.0163557
731.154	0.0166123
731.232	0.0166251
731.310	0.0165884
731.388	0.0166859
731.466	0.0166087
731.544	0.0165815
731.622	0.0165942
731.700	0.0164636
731.779	0.0164745
731.857	0.0163873
731.935	0.0164320
732.013	0.0163632
732.091	0.0163905
732.169	0.0163386
732.247	0.0165124
732.325	0.0164597
732.404	0.0165359
732.482	0.0167070
732.560	0.0166856
732.638	0.0164556
732.716	0.0167110
732.794	0.0166444
732.872	0.0166721
732.950	0.0166840
733.029	0.0168362
733.107	0.0166829
733.185	0.0166443
733.263	0.0167756
733.341	0.0167987
733.419	0.0167746
733.497	0.0166593
733.575	0.0167847
733.654	0.0166893
733.732	0.0166974
733.810	0.0167198
733.888	0.0166394
733.966	0.0166352
734.044	0.0164984
734.122	0.0165278
734.200	0.0163974
734.279	0.0162923
734.357	0.0163634
734.435	0.0162124
734.513	0.0161625
734.591	0.0161674
734.669	0.0160149
734.747	0.0160703
734.825	0.0159442
734.904	0.0160240
734.982	0.0161396
735.060	0.0161935
735.138	0.0161649
735.216	0.0163116
735.294	0.0163667
735.372	0.0165125
735.450	0.0165112
735.529	0.0165258
735.607	0.0168188
735.685	0.0167489
735.763	0.0167874
735.841	0.0169437
735.919	0.0168083
735.997	0.0169286
736.075	0.0169911
736.154	0.0169342
736.232	0.0171316
736.310	0.0170586
736.388	0.0169700
736.466	0.0168193
736.544	0.0169160
736.622	0.0169249
736.700	0.0168858
736.779	0.0168006
736.857	0.0168742
736.935	0.0168194
737.013	0.0167700
737.091	0.0168202
737.169	0.0168086
737.247	0.0166656
737.325	0.0167280
737.404	0.0164888
737.482	0.0166718
737.560	0.0167169
737.638	0.0166550
737.716	0.0165823
737.794	0.0166965
737.872	0.0166878
737.950	0.0164795
738.029	0.0165495
738.107	0.0163726
738.185	0.0165556
738.263	0.0165411
738.341	0.0165011
738.419	0.0164514
738.497	0.0163071
738.575	0.0163036
738.654	0.0161938
738.732	0.0165353
738.810	0.0163185
738.888	0.0164714
738.966	0.0164521
739.044	0.0165334
739.122	0.0164819
739.200	0.0165221
739.279	0.0165961
739.357	0.0165096
739.435	0.0165774
739.513	0.0166070
739.591	0.0166106
739.669	0.0165482
739.747	0.0166069
739.825	0.0165500
739.904	0.0165922
739.982	0.0167033
740.060	0.0165913
740.138	0.0165871
740.216	0.0165132
740.294	0.0166346
740.372	0.0165083
740.450	0.0164550
740.529	0.0164617
740.607	0.0164294
740.685	0.0163986
740.763	0.0163646
740.841	0.0161633
740.919	0.0162483
740.997	0.0164136
741.075	0.0162034
741.154	0.0162744
741.232	0.0162011
741.310	0.0163058
741.388	0.0162466
741.466	0.0163416
741.544	0.0163202
741.622	0.0165154
741.700	0.0165334
741.779	0.0167612
741.857	0.0167838
741.935	0.0167634
742.013	0.0170175
742.091	0.0169926
742.169	0.0170302
742.247	0.0168304
742.325	0.0168931
742.404	0.0169319
742.482	0.0169376
742.560	0.0167683
742.638	0.0168983
742.716	0.0168410
742.794	0.0168654
742.872	0.0167226
742.950	0.0168048
743.029	0.0166893
743.107	0.0166501
743.185	0.0167181
743.263	0.0166754
743.341	0.0165555
743.419	0.0163667
743.497	0.0164211
743.575	0.0163563
743.654	0.0163152
743.732	0.0162820
743.810	0.0162151
743.888	0.0162588
743.966	0.0161771
744.044	0.0163400
744.122	0.0163763
744.200	0.0163501
744.279	0.0165537
744.357	0.0164602
744.435	0.0166043
744.513	0.0165699
744.591	0.0166714
744.669	0.0166669
744.747	0.0166954
744.825	0.0168373
744.904	0.0167952
744.982	0.0167764
745.060	0.0167480
745.138	0.0169392
745.216	0.0168468
745.294	0.0169052
745.372	0.0166314
745.450	0.0167857
745.529	0.0166743
745.607	0.0167083
745.685	0.0166154
745.763	0.0166267
745.841	0.0167490
745.919	0.0166722
745.997	0.0165790
746.075	0.0165632
746.154	0.0165560
746.232	0.0164586
746.310	0.0164695
746.388	0.0164450
746.466	0.0162125
746.544	0.0162226
746.622	0.0163841
746.700	0.0164127
746.779	0.0164024
746.857	0.0162827
746.935	0.0163023
747.013	0.0163080
747.091	0.0163128
747.169	0.0164852
747.247	0.0164855
747.325	0.0164835
747.404	0.0165376
747.482	0.0166057
747.560	0.0166784
747.638	0.0167885
747.716	0.0167812
747.794	0.0166868
747.872	0.0167904
747.950	0.0167831
748.029	0.0169478
748.107	0.0168918
748.185	0.0168367
748.263	0.0168993
748.341	0.0167261
748.419	0.0168355
748.497	0.0168508
748.575	0.0166507
748.654	0.0165910
748.732	0.0166191
748.810	0.0164301
748.888	0.0165470
748.966	0.0162509
749.044	0.0163184
749.122	0.0162621
749.200	0.0161855
749.279	0.0163023
749.357	0.0162912
749.435	0.0163676
749.513	0.0163839
749.591	0.0163064
749.669	0.0163069
749.747	0.0164291
749.825	0.0166235
749.904	0.0166529
749.982	0.0167112
750.060	0.0168316
750.138	0.0168510
750.216	0.0170852
750.294	0.0170288
750.372	0.0170037
750.450	0.0169495
750.529	0.0169101
750.607	0.0167862
750.685	0.0168409
750.763	0.0169295
750.841	0.0168107
750.919	0.0167716
750.997	0.0167018
751.075	0.0167707
751.154	0.0167150
751.232	0.0165469
751.310	0.0166120
751.388	0.0165903
751.466	0.0164394
751.544	0.0163769
751.622	0.0162970
751.700	0.0163599
751.779	0.0162677
751.857	0.0163119
751.935	0.0163332
752.013	0.0164676
752.091	0.0163655
752.169	0.0163837
752.247	0.0165559
752.325	0.0165067
752.404	0.0166064
752.482	0.0165451
752.560	0.0165681
752.638	0.0166454
752.716	0.0166762
752.794	0.0167818
752.872	0.0168622
752.950	0.0168721
753.029	0.0167832
753.107	0.0168896
753.185	0.0169459
753.263	0.0170061
753.341	0.0169022
753.419	0.0168214
753.497	0.0167935
753.575	0.0168111
753.654	0.0167201
753.732	0.0168021
753.810	0.0166070
753.888	0.0165407
753.966	0.0167355
754.044	0.0166831
754.122	0.0165400
754.200	0.0164376
754.279	0.0164574
754.357	0.0164057
754.435	0.0163224
754.513	0.0164600
754.591	0.0164378
754.669	0.0163168
754.747	0.0163969
754.825	0.0164922
754.904	0.0164902
754.982	0.0165684
755.060	0.0164751
755.138	0.0164797
755.216	0.0164500
755.294	0.0166058
755.372	0.0165158
755.450	0.0166262
755.529	0.0167480
755.607	0.0165722
755.685	0.0165705
755.763	0.0168494
755.841	0.0167888
755.919	0.0166752
755.997	0.0167419
756.075	0.0167805
756.154	0.0168312
756.232	0.0166860
756.310	0.0167190
756.388	0.0166463
756.466	0.0166413
756.544	0.0165656
756.622	0.0166451
756.700	0.0166812
756.779	0.0165786
756.857	0.0165093
756.935	0.0165578
757.013	0.0165485
757.091	0.0165568
757.169	0.0164241
757.247	0.0164730
757.325	0.0164748
757.404	0.0163728
757.482	0.0163571
757.560	0.0164713
757.638	0.0164055
757.716	0.0164072
757.794	0.0166002
757.872	0.0163668
757.950	0.0164407
758.029	0.0165050
758.107	0.0165754
758.185	0.0166352
758.263	0.0166279
758.341	0.0167998
758.419	0.0167312
758.497	0.0167666
758.575	0.0168488
758.654	0.0168932
758.732	0.0169421
758.810	0.0167790
758.888	0.0170024
758.966	0.0168891
759.044	0.0167417
759.122	0.0168719
759.200	0.0169279
759.279	0.0168118
759.357	0.0168211
759.435	0.0167138
759.513	0.0166162
759.591	0.0167899
759.669	0.0165749
759.747	0.0166319
759.825	0.0164066
759.904	0.0164104
759.982	0.0163891
760.060	0.0163938
760.138	0.0163182
760.216	0.0162804
760.294	0.0162427
760.372	0.0163604
760.450	0.0163120
760.529	0.0163570
760.607	0.0164365
760.685	0.0164049
760.763	0.0163740
760.841	0.0164570
760.919	0.0164658
760.997	0.0165250
761.075	0.0166084
761.154	0.0166943
761.232	0.0166055
761.310	0.0166654
761.388	0.0166862
761.466	0.0168539
761.544	0.0168418
761.622	0.0166974
761.700	0.0166891
761.779	0.0167996
761.857	0.0167695
761.935	0.0166315
762.013	0.0165588
762.091	0.0166299
762.169	0.0165628
762.247	0.0166663
762.325	0.0165991
762.404	0.0164973
762.482	0.0165900
762.560	0.0165181
762.638	0.0164121
762.716	0.0164807
762.794	0.0164645
762.872	0.0163615
762.950	0.0164454
763.029	0.0164059
763.107	0.0164233
763.185	0.0164283
763.263	0.0165031
763.341	0.0164133
763.419	0.0163615
763.497	0.0163687
763.575	0.0163443
763.654	0.0164101
763.732	0.0162908
763.810	0.0163755
763.888	0.0163379
763.966	0.0164256
764.044	0.0164954
764.122	0.0164539
764.200	0.0164324
764.279	0.0167021
764.357	0.0166375
764.435	0.0166196
764.513	0.0165034
764.591	0.0165704
764.669	0.0167750
764.747	0.0168201
764.825	0.0168336
764.904	0.0166581
764.982	0.0167683
765.060	0.0169180
765.138	0.0169551
765.216	0.0169036
765.294	0.0168858
765.372	0.0169570
765.450	0.0168584
765.529	0.0166915
765.607	0.0168094
765.685	0.0167902
765.763	0.0167004
765.841	0.0166911
765.919	0.0165346
765.997	0.0165036
766.075	0.0163626
766.154	0.0163345
766.232	0.0162723
766.310	0.0161684
766.388	0.0161569
766.466	0.0162222
766.544	0.0162303
766.622	0.0162251
766.700	0.0160989
766.779	0.0161641
766.857	0.0162362
766.935	0.0163793
767.013	0.0164150
767.091	0.0164335
767.169	0.0165080
767.247	0.0165534
767.325	0.0166157
767.404	0.0165591
767.482	0.0167219
767.560	0.0167770
767.638	0.0168797
767.716	0.0168201
767.794	0.0166254
767.872	0.0166785
767.950	0.0168825
768.029	0.0167603
768.107	0.0167679
768.185	0.0167488
768.263	0.0168485
768.341	0.0167618
768.419	0.0168243
768.497	0.0167081
768.575	0.0167046
768.654	0.0166905
768.732	0.0166505
768.810	0.0166454
768.888	0.0164948
768.966	0.0166476
769.044	0.0165192
769.122	0.0164814
769.200	0.0165507
769.279	0.0164301
769.357	0.0164658
769.435	0.0164955
769.513	0.0164715
769.591	0.0163825
769.669	0.0165661
769.747	0.0163557
769.825	0.0164660
769.904	0.0164759
769.982	0.0165176
770.060	0.0165450
770.138	0.0165833
770.216	0.0165336
770.294	0.0164957
770.372	0.0167352
770.450	0.0167014
770.529	0.0166158
770.607	0.0166855
770.685	0.0166453
770.763	0.0165955
770.841	0.0167010
770.919	0.0166882
770.997	0.0167370
771.075	0.0167587
771.154	0.0168843
771.232	0.0167406
771.310	0.0168151
771.388	0.0167287
771.466	0.0166871
771.544	0.0165741
771.622	0.0166662
771.700	0.0165588
771.779	0.0165461
771.857	0.0164078
771.935	0.0163165
772.013	0.0163290
772.091	0.0163013
772.169	0.0163633
772.247	0.0162742
772.325	0.0162133
772.404	0.0163477
772.482	0.0162388
772.560	0.0162141
772.638	0.0163531
772.716	0.0165103
772.794	0.0163010
772.872	0.0164509
772.950	0.0164893
773.029	0.0164591
773.107	0.0165977
773.185	0.0166273
773.263	0.0166709
773.341	0.0168344
773.419	0.0168750
773.497	0.0167764
773.575	0.0167645
773.654	0.0170271
773.732	0.0168651
773.810	0.0170641
773.888	0.0169320
773.966	0.0168892
774.044	0.0168825
774.122	0.0169118
774.200	0.0169335
774.279	0.0168108
774.357	0.0166100
774.435	0.0166001
774.513	0.0165777
774.591	0.0165553
774.669	0.0166680
774.747	0.0163775
774.825	0.0165437
774.904	0.0163199
774.982	0.0163388
775.060	0.0164465
775.138	0.0163624
775.216	0.0164691
775.294	0.0164871
775.372	0.0164896
775.450	0.0164204
775.529	0.0163710
775.607	0.0163603
775.685	0.0164052
775.763	0.0165598
775.841	0.0165322
775.919	0.0167142
775.997	0.0166434
776.075	0.0166154
776.154	0.0165969
776.232	0.0166611
776.310	0.0168027
776.388	0.0167873
776.466	0.0168570
776.544	0.0167835
776.622	0.0168816
776.700	0.0169433
776.779	0.0169157
776.857	0.0167957
776.935	0.0168446
777.013	0.0168566
777.091	0.0168552
777.169	0.0168872
777.247	0.0165790
777.325	0.0165795
777.404	0.0166785
777.482	0.0166398
777.560	0.0164677
777.638	0.0163300
777.716	0.0164706
777.794	0.0163995
777.872	0.0163907
777.950	0.0162389
778.029	0.0162973
778.107	0.0162427
778.185	0.0162233
778.263	0.0161791
778.341	0.0163432
778.419	0.0163123
778.497	0.0163042
778.575	0.0163237
778.654	0.0164469
778.732	0.0163750
778.810	0.0165276
778.888	0.0166292
778.966	0.0167153
779.044	0.0165663
779.122	0.0166698
779.200	0.0167793
779.279	0.0168085
779.357	0.0167360
779.435	0.0167283
779.513	0.0166940
779.591	0.0167993
779.669	0.0168373
779.747	0.0167167
779.825	0.0167658
779.904	0.0168675
779.982	0.0169076
780.060	0.0167435
780.138	0.0166727
780.216	0.0166235
780.294	0.0168249
780.372	0.0166910
780.450	0.0166020
780.529	0.0165710
780.607	0.0166267
780.685	0.0165926
780.763	0.0164966
780.841	0.0165080
780.919	0.0163919
780.997	0.0164010
781.075	0.0164774
781.154	0.0165456
781.232	0.0164097
781.310	0.0163426
781.388	0.0165363
781.466	0.0165051
781.544	0.0166460
781.622	0.0165214
781.700	0.0166137
781.779	0.0166200
781.857	0.0166263
781.935	0.0166978
782.013	0.0166653
782.091	0.0165128
782.169	0.0167644
782.247	0.0166814
782.325	0.0167458
782.404	0.0166486
782.482	0.0165576
782.560	0.0167596
782.638	0.0167585
782.716	0.0167362
782.794	0.0166771
782.872	0.0167306
782.950	0.0165180
783.029	0.0166702
783.107	0.0165371
783.185	0.0166164
783.263	0.0165614
783.341	0.0165279
783.419	0.0164737
783.497	0.0165037
783.575	0.0164861
783.654	0.0166138
783.732	0.0166681
783.810	0.0165324
783.888	0.0165131
783.966	0.0166312
784.044	0.0165922
784.122	0.0165158
784.200	0.0165132
784.279	0.0165392
784.357	0.0164317
784.435	0.0164226
784.513	0.0163351
784.591	0.0163195
784.669	0.0163501
784.747	0.0163239
784.825	0.0162717
784.904	0.0162611
784.982	0.0163351
785.060	0.0162715
785.138	0.0162079
785.216	0.0163390
785.294	0.0164720
785.372	0.0164357
785.450	0.0166524
785.529	0.0166308
785.607	0.0167448
785.685	0.0167513
785.763	0.0168275
785.841	0.0169164
785.919	0.0170276
785.997	0.0168144
786.075	0.0170009
786.154	0.0168947
786.232	0.0169417
786.310	0.0168085
786.388	0.0168377
786.466	0.0170797
786.544	0.0167725
786.622	0.0167652
786.700	0.0167239
786.779	0.0165354
786.857	0.0165158
786.935	0.0164684
787.013	0.0164252
787.091	0.0164471
787.169	0.0162890
787.247	0.0162417
787.325	0.0161665
787.404	0.0160007
787.482	0.0162112
787.560	0.0161131
787.638	0.0161774
787.716	0.0160599
787.794	0.0161405
787.872	0.0161973
787.950	0.0161555
788.029	0.0162533
788.107	0.0162621
788.185	0.0161666
788.263	0.0162368
788.341	0.0165250
788.419	0.0165063
788.497	0.0166341
788.575	0.0166014
788.654	0.0167137
788.732	0.0168567
788.810	0.0166582
788.888	0.0168336
788.966	0.0168856
789.044	0.0169534
789.122	0.0167970
789.200	0.0169080
789.279	0.0168310
789.357	0.0167974
789.435	0.0167416
789.513	0.0168002
789.591	0.0167782
789.669	0.0167126
789.747	0.0167751
789.825	0.0167860
789.904	0.0167059
789.982	0.0166527
790.060	0.0166762
790.138	0.0166500
790.216	0.0166763
790.294	0.0165103
790.372	0.0164399
790.450	0.0163728
790.529	0.0163964
790.607	0.0164812
790.685	0.0163233
790.763	0.0162777
790.841	0.0162467
790.919	0.0162307
790.997	0.0163569
791.075	0.0163828
791.154	0.0164244
791.232	0.0165330
791.310	0.0166805
791.388	0.0166151
791.466	0.0166783
791.544	0.0168131
791.622	0.0168638
791.700	0.0168790
791.779	0.0168610
791.857	0.0167027
791.935	0.0168011
792.013	0.0169005
792.091	0.0167270
792.169	0.0166803
792.247	0.0166592
792.325	0.0166516
792.404	0.0167416
792.482	0.0165110
792.560	0.0164856
792.638	0.0165339
792.716	0.0165710
792.794	0.0164243
792.872	0.0164010
792.950	0.0164203
793.029	0.0164182
793.107	0.0163953
793.185	0.0163300
793.263	0.0162550
793.341	0.0162028
793.419	0.0163746
793.497	0.0162705
793.575	0.0163155
793.654	0.0162344
793.732	0.0162312
793.810	0.0162807
793.888	0.0164671
793.966	0.0164783
794.044	0.0165228
794.122	0.0166357
794.200	0.0167355
794.279	0.0167501
794.357	0.0168436
794.435	0.0166998
794.513	0.0166928
794.591	0.0168819
794.669	0.0168445
794.747	0.0167628
794.825	0.0169459
794.904	0.0167615
794.982	0.0169446
795.060	0.0168286
795.138	0.0167941
795.216	0.0169156
795.294	0.0166645
795.372	0.0167036
795.450	0.0166118
795.529	0.0164860
795.607	0.0165359
795.685	0.0165388
795.763	0.0164250
795.841	0.0164825
795.919	0.0163110
795.997	0.0163206
796.075	0.0161600
796.154	0.0163285
796.232	0.0163628
796.310	0.0162554
796.388	0.0163033
796.466	0.0161977
796.544	0.0162499
796.622	0.0163825
796.700	0.0162211
796.779	0.0163709
796.857	0.0163808
796.935	0.0163584
797.013	0.0165369
797.091	0.0165894
797.169	0.0165600
797.247	0.0166445
797.325	0.0167104
797.404	0.0167233
797.482	0.0167070
797.560	0.0169028
797.638	0.0168035
797.716	0.0169883
797.794	0.0167698
797.872	0.0168063
797.950	0.0168919
798.029	0.0168037
798.107	0.0168727
798.185	0.0165935
798.263	0.0166250
798.341	0.0167628
798.419	0.0167466
798.497	0.0166544
798.575	0.0167860
798.654	0.0167352
798.732	0.0165604
798.810	0.0166615
798.888	0.0164826
798.966	0.0163934
799.044	0.0165504
799.122	0.0165909
799.200	0.0165098
799.279	0.0164638
799.357	0.0164693
799.435	0.0163441
799.513	0.0162407
799.591	0.0162234
799.669	0.0163233
799.747	0.0163067
799.825	0.0161887
799.904	0.0164100
799.982	0.0164346
800.060	0.0165184
800.138	0.0164475
800.216	0.0164412
800.294	0.0165596
800.372	0.0167121
800.450	0.0165763
800.529	0.0166552
800.607	0.0166666
800.685	0.0167121
800.763	0.0166373
800.841	0.0166824
800.919	0.0167905
800.997	0.0167548
801.075	0.0166039
801.154	0.0169334
801.232	0.0167535
801.310	0.0168918
801.388	0.0168211
801.466	0.0166699
801.544	0.0168643
801.622	0.0166879
801.700	0.0166872
801.779	0.0167408
801.857	0.0166318
801.935	0.0166748
802.013	0.0166991
802.091	0.0166602
802.169	0.0165955
802.247	0.0165043
802.325	0.0165692
802.404	0.0164585
802.482	0.0165741
802.560	0.0165517
802.638	0.0165111
802.716	0.0164781
802.794	0.0163893
802.872	0.0166193
802.950	0.0165719
803.029	0.0165334
803.107	0.0164992
803.185	0.0164394
803.263	0.0165434
803.341	0.0165815
803.419	0.0165964
803.497	0.0164485
803.575	0.0164643
803.654	0.0166149
803.732	0.0164797
803.810	0.0164439
803.888	0.0164519
803.966	0.0164597
804.044	0.0164916
804.122	0.0164504
804.200	0.0164750
804.279	0.0165326
804.357	0.0164912
804.435	0.0165671
804.513	0.0166396
804.591	0.0167056
804.669	0.0165858
804.747	0.0166593
804.825	0.0166916
804.904	0.0164439
804.982	0.0165665
805.060	0.0165573
805.138	0.0167184
805.216	0.0167527
805.294	0.0166441
805.372	0.0166461
805.450	0.0167902
805.529	0.0167587
805.607	0.0167658
805.685	0.0168604
805.763	0.0166845
805.841	0.0167827
805.919	0.0166347
805.997	0.0167280
806.075	0.0168154
806.154	0.0165727
806.232	0.0166246
806.310	0.0167233
806.388	0.0166833
806.466	0.0165595
806.544	0.0165988
806.622	0.0165832
806.700	0.0165028
806.779	0.0166907
806.857	0.0165904
806.935	0.0165363
807.013	0.0164998
807.091	0.0164462
807.169	0.0164223
807.247	0.0163934
807.325	0.0163554
807.404	0.0164274
807.482	0.0164529
807.560	0.0165121
807.638	0.0163903
807.716	0.0164721
807.794	0.0164760
807.872	0.0165253
807.950	0.0165797
808.029	0.0165404
808.107	0.0167144
808.185	0.0166334
808.263	0.0167316
808.341	0.0168147
808.419	0.0167971
808.497	0.0167675
808.575	0.0168739
808.654	0.0166921
808.732	0.0166062
808.810	0.0166251
808.888	0.0164973
808.966	0.0165778
809.044	0.0163578
809.122	0.0164195
809.200	0.0162026
809.279	0.0162527
809.357	0.0163308
809.435	0.0163155
809.513	0.0161330
809.591	0.0161270
809.669	0.0162815
809.747	0.0162733
809.825	0.0162430
809.904	0.0161284
809.982	0.0161508
810.060	0.0162827
810.138	0.0163983
810.216	0.0163345
810.294	0.0164015
810.372	0.0164761
810.450	0.0164495
810.529	0.0165347
810.607	0.0166521
810.685	0.0166422
810.763	0.0168278
810.841	0.0167610
810.919	0.0169011
810.997	0.0168388
811.075	0.0168494
811.154	0.0169888
811.232	0.0169971
811.310	0.0169527
811.388	0.0168952
811.466	0.0168488
811.544	0.0168552
811.622	0.0168498
811.700	0.0166536
811.779	0.0165723
811.857	0.0164512
811.935	0.0165746
812.013	0.0164909
812.091	0.0165630
812.169	0.0163552
812.247	0.0163551
812.325	0.0164224
812.404	0.0164266
812.482	0.0164397
812.560	0.0162699
812.638	0.0163448
812.716	0.0162637
812.794	0.0163949
812.872	0.0163786
812.950	0.0165103
813.029	0.0164732
813.107	0.0163605
813.185	0.0164221
813.263	0.0166029
813.341	0.0165288
813.419	0.0164978
813.497	0.0164292
813.575	0.0165051
813.654	0.0165737
813.732	0.0165949
813.810	0.0166231
813.888	0.0165427
813.966	0.0164690
814.044	0.0166792
814.122	0.0167292
814.200	0.0166441
814.279	0.0166802
814.357	0.0167879
814.435	0.0166254
814.513	0.0166165
814.591	0.0167488
814.669	0.0167174
814.747	0.0167337
814.825	0.0167139
814.904	0.0166443
814.982	0.0167196
815.060	0.0166423
815.138	0.0167616
815.216	0.0165877
815.294	0.0165438
815.372	0.0165733
815.450	0.0165374
815.529	0.0164819
815.607	0.0165601
815.685	0.0164959
815.763	0.0164843
815.841	0.0164164
815.919	0.0163401
815.997	0.0164205
816.075	0.0164089
816.154	0.0164830
816.232	0.0165915
816.310	0.0164948
816.388	0.0165228
816.466	0.0166969
816.544	0.0165551
816.622	0.0165094
816.700	0.0165816
816.779	0.0166360
816.857	0.0166753
816.935	0.0167079
817.013	0.0166156
817.091	0.0166800
817.169	0.0167274
817.247	0.0165482
817.325	0.0166107
817.404	0.0164545
817.482	0.0165394
817.560	0.0166016
817.638	0.0165450
817.716	0.0165370
817.794	0.0166763
817.872	0.0165400
817.950	0.0165286
818.029	0.0164571
818.107	0.0165556
818.185	0.0164304
818.263	0.0166324
818.341	0.0165424
818.419	0.0164677
818.497	0.0164095
818.575	0.0165672
818.654	0.0165330
818.732	0.0163850
818.810	0.0165588
818.888	0.0164371
818.966	0.0165260
819.044	0.0165455
819.122	0.0165225
819.200	0.0164595
819.279	0.0165351
819.357	0.0166414
819.435	0.0166970
819.513	0.0165550
819.591	0.0167012
819.669	0.0167336
819.747	0.0166489
819.825	0.0167196
819.904	0.0166407
819.982	0.0166565
820.060	0.0167637
820.138	0.0167548
820.216	0.0167165
820.294	0.0166096
820.372	0.0167486
820.450	0.0165643
820.529	0.0164764
820.607	0.0165848
820.685	0.0164255
820.763	0.0165314
820.841	0.0164452
820.919	0.0164079
820.997	0.0163407
821.075	0.0164022
821.154	0.0163762
821.232	0.0165437
821.310	0.0161646
821.388	0.0164598
821.466	0.0165982
821.544	0.0164040
821.622	0.0165402
821.700	0.0164564
821.779	0.0164607
821.857	0.0165462
821.935	0.0166523
822.013	0.0167560
822.091	0.0168333
822.169	0.0167795
822.247	0.0168771
822.325	0.0168623
822.404	0.0169522
822.482	0.0169609
822.560	0.0171017
822.638	0.0169102
822.716	0.0170853
822.794	0.0171999
822.872	0.0168945
822.950	0.0168107
823.029	0.0169964
823.107	0.0168560
823.185	0.0169324
823.263	0.0168398
823.341	0.0168055
823.419	0.0167077
823.497	0.0166317
823.575	0.0165418
823.654	0.0165392
823.732	0.0164287
823.810	0.0165716
823.888	0.0164444
823.966	0.0164465
824.044	0.0164967
824.122	0.0163809
824.200	0.0164171
824.279	0.0163734
824.357	0.0163213
824.435	0.0163661
824.513	0.0164307
824.591	0.0164357
824.669	0.0164595
824.747	0.0165290
824.825	0.0164631
824.904	0.0165414
824.982	0.0165994
825.060	0.0166952
825.138	0.0167676
825.216	0.0166178
825.294	0.0167020
825.372	0.0168520
825.450	0.0167579
825.529	0.0168331
825.607	0.0168343
825.685	0.0167899
825.763	0.0168057
825.841	0.0167867
825.919	0.0168173
825.997	0.0166847
826.075	0.0166969
826.154	0.0167204
826.232	0.0167743
826.310	0.0166551
826.388	0.0165795
826.466	0.0164280
826.544	0.0166248
826.622	0.0165899
826.700	0.0165067
826.779	0.0164697
826.857	0.0164585
826.935	0.0164564
827.013	0.0165433
827.091	0.0166382
827.169	0.0166228
827.247	0.0166137
827.325	0.0164742
827.404	0.0164637
827.482	0.0165950
827.560	0.0164688
827.638	0.0163781
827.716	0.0164554
827.794	0.0164577
827.872	0.0166571
827.950	0.0164312
828.029	0.0165891
828.107	0.0165475
828.185	0.0165816
828.263	0.0166351
828.341	0.0166012
828.419	0.0166628
828.497	0.0167095
828.575	0.0167123
828.654	0.0167527
828.732	0.0169284
828.810	0.0168375
828.888	0.0167725
828.966	0.0169168
829.044	0.0167139
829.122	0.0167513
829.200	0.0167788
829.279	0.0166676
829.357	0.0167294
829.435	0.0164707
829.513	0.0164870
829.591	0.0165527
829.669	0.0166215
829.747	0.0164993
829.825	0.0165307
829.904	0.0164583
829.982	0.0165002
830.060	0.0166612
830.138	0.0163674
830.216	0.0165202
830.294	0.0166025
830.372	0.0167024
830.450	0.0166489
830.529	0.0165987
830.607	0.0167144
830.685	0.0165141
830.763	0.0167598
830.841	0.0167561
830.919	0.0167420
830.997	0.0166860
831.075	0.0167471
831.154	0.0167743
831.232	0.0167736
831.310	0.0167434
831.388	0.0167994
831.466	0.0167952
831.544	0.0167426
831.622	0.0167996
831.700	0.0167021
831.779	0.0168312
831.857	0.0167358
831.935	0.0167392
832.013	0.0165719
832.091	0.0168326
832.169	0.0167219
832.247	0.0167336
832.325	0.0165713
832.404	0.0165883
832.482	0.0166624
832.560	0.0165637
832.638	0.0165239
832.716	0.0164391
832.794	0.0165233
832.872	0.0164053
832.950	0.0164678
833.029	0.0165006
833.107	0.0164355
833.185	0.0162989
833.263	0.0165186
833.341	0.0164371
833.419	0.0164797
833.497	0.0165163
833.575	0.0164794
833.654	0.0165329
833.732	0.0166225
833.810	0.0165904
833.888	0.0166657
833.966	0.0167544
834.044	0.0166991
834.122	0.0166280
834.200	0.0168036
834.279	0.0167121
834.357	0.0166850
834.435	0.0167776
834.513	0.0166991
834.591	0.0167125
834.669	0.0166341
834.747	0.0166309
834.825	0.0167291
834.904	0.0165749
834.982	0.0165102
835.060	0.0165946
835.138	0.0164275
835.216	0.0165112
835.294	0.0165486
835.372	0.0164447
835.450	0.0164959
835.529	0.0164692
835.607	0.0164664
835.685	0.0165873
835.763	0.0165532
835.841	0.0164596
835.919	0.0165060
835.997	0.0166248
836.075	0.0165015
836.154	0.0164977
836.232	0.0165687
836.310	0.0165064
836.388	0.0165935
836.466	0.0165008
836.544	0.0165784
836.622	0.0166574
836.700	0.0166859
836.779	0.0168809
836.857	0.0167995
836.935	0.0167639
837.013	0.0168008
837.091	0.0167403
837.169	0.0167579
837.247	0.0166673
837.325	0.0167767
837.404	0.0165789
837.482	0.0166256
837.560	0.0166139
837.638	0.0165580
837.716	0.0164394
837.794	0.0165847
837.872	0.0165670
837.950	0.0166714
838.029	0.0165069
838.107	0.0163490
838.185	0.0164681
838.263	0.0165545
838.341	0.0164577
838.419	0.0165226
838.497	0.0165674
838.575	0.0165157
838.654	0.0165181
838.732	0.0167950
838.810	0.0165637
838.888	0.0165942
838.966	0.0167528
839.044	0.0167436
839.122	0.0166128
839.200	0.0166034
839.279	0.0166537
839.357	0.0166448
839.435	0.0166013
839.513	0.0165943
839.591	0.0167151
839.669	0.0165205
839.747	0.0166099
839.825	0.0165894
839.904	0.0166920
839.982	0.0164350
840.060	0.0164970
840.138	0.0165404
840.216	0.0165179
840.294	0.0164288
840.372	0.0163876
840.450	0.0164618
840.529	0.0165279
840.607	0.0164201
840.685	0.0165035
840.763	0.0165179
840.841	0.0164062
840.919	0.0163410
840.997	0.0166187
841.075	0.0165689
841.154	0.0164055
841.232	0.0165099
841.310	0.0166394
841.388	0.0165159
841.466	0.0165899
841.544	0.0165941
841.622	0.0165928
841.700	0.0165813
841.779	0.0165783
841.857	0.0165360
841.935	0.0166807
842.013	0.0166417
842.091	0.0167158
842.169	0.0167627
842.247	0.0165205
842.325	0.0165810
842.404	0.0165175
842.482	0.0166598
842.560	0.0164959
842.638	0.0165264
842.716	0.0165034
842.794	0.0166534
842.872	0.0165370
842.950	0.0165095
843.029	0.0163946
843.107	0.0165631
843.185	0.0165273
843.263	0.0165316
843.341	0.0166685
843.419	0.0165191
843.497	0.0165002
843.575	0.0166194
843.654	0.0165752
843.732	0.0166451
843.810	0.0166893
843.888	0.0166792
843.966	0.0167777
844.044	0.0168134
844.122	0.0166911
844.200	0.0167811
844.279	0.0168954
844.357	0.0167434
844.435	0.0166508
844.513	0.0167197
844.591	0.0167240
844.669	0.0166273
844.747	0.0166338
844.825	0.0165211
844.904	0.0166442
844.982	0.0164252
845.060	0.0165451
845.138	0.0164776
845.216	0.0164259
845.294	0.0164493
845.372	0.0165359
845.450	0.0163876
845.529	0.0164614
845.607	0.0165105
845.685	0.0164958
845.763	0.0165365
845.841	0.0165858
845.919	0.0165226
845.997	0.0164909
846.075	0.0165035
846.154	0.0165682
846.232	0.0167607
846.310	0.0168092
846.388	0.0165698
846.466	0.0167028
846.544	0.0166835
846.622	0.0165970
846.700	0.0165667
846.779	0.0167179
846.857	0.0167648
846.935	0.0167310
847.013	0.0166960
847.091	0.0167893
847.169	0.0166788
847.247	0.0167832
847.325	0.0169244
847.404	0.0167414
847.482	0.0168222
847.560	0.0167816
847.638	0.0167910
847.716	0.0168166
847.794	0.0167612
847.872	0.0167708
847.950	0.0168298
848.029	0.0166466
848.107	0.0165845
848.185	0.0165548
848.263	0.0165719
848.341	0.0164545
848.419	0.0165260
848.497	0.0164274
848.575	0.0164878
848.654	0.0163853
848.732	0.0163069
848.810	0.0164037
848.888	0.0163170
848.966	0.0163091
849.044	0.0164101
849.122	0.0165430
849.200	0.0165486
849.279	0.0165669
849.357	0.0166081
849.435	0.0167273
849.513	0.0167294
849.591	0.0167953
849.669	0.0168286
849.747	0.0168891
849.825	0.0170062
849.904	0.0168162
849.982	0.0168781
850.060	0.0169576
850.138	0.0169642
850.216	0.0168405
850.294	0.0168404
850.372	0.0169358
850.450	0.0168285
850.529	0.0167487
850.607	0.0167117
850.685	0.0167052
850.763	0.0166363
850.841	0.0165197
850.919	0.0163905
850.997	0.0163692
851.075	0.0162163
851.154	0.0162241
851.232	0.0161315
851.310	0.0163235
851.388	0.0164255
851.466	0.0163916
851.544	0.0163740
851.622	0.0164175
851.700	0.0164208
851.779	0.0165737
851.857	0.0166210
851.935	0.0166618
852.013	0.0168188
852.091	0.0166918
852.169	0.0168864
852.247	0.0169482
852.325	0.0169696
852.404	0.0169357
852.482	0.0168656
852.560	0.0169071
852.638	0.0168676
852.716	0.0168973
852.794	0.0169922
852.872	0.0168777
852.950	0.0167989
853.029	0.0167415
853.107	0.0166956
853.185	0.0166650
853.263	0.0166228
853.341	0.0165685
853.419	0.0164699
853.497	0.0163377
853.575	0.0163604
853.654	0.0164092
853.732	0.0162581
853.810	0.0163471
853.888	0.0163692
853.966	0.0163750
854.044	0.0164719
854.122	0.0163969
854.200	0.0165043
854.279	0.0165108
854.357	0.0166309
854.435	0.0166168
854.513	0.0166239
854.591	0.0166087
854.669	0.0169088
854.747	0.0167847
854.825	0.0167461
854.904	0.0167609
854.982	0.0168675
855.060	0.0169157
855.138	0.0166933
855.216	0.0168390
855.294	0.0168959
855.372	0.0168549
855.450	0.0169050
855.529	0.0167621
855.607	0.0166592
855.685	0.0167324
855.763	0.0167001
855.841	0.0166278
855.919	0.0166413
855.997	0.0166321
856.075	0.0165657
856.154	0.0165912
856.232	0.0165330
856.310	0.0165276
856.388	0.0166193
856.466	0.0165907
856.544	0.0165694
856.622	0.0165535
856.700	0.0165588
856.779	0.0166058
856.857	0.0166785
856.935	0.0166930
857.013	0.0165378
857.091	0.0164271
857.169	0.0167243
857.247	0.0168294
857.325	0.0165634
857.404	0.0166489
857.482	0.0166224
857.560	0.0165522
857.638	0.0165372
857.716	0.0166492
857.794	0.0166075
857.872	0.0167225
857.950	0.0167606
858.029	0.0167303
858.107	0.0166333
858.185	0.0167664
858.263	0.0168361
858.341	0.0167969
858.419	0.0165343
858.497	0.0166788
858.575	0.0167657
858.654	0.0166529
858.732	0.0167126
858.810	0.0166953
858.888	0.0166907
858.966	0.0166196
859.044	0.0167171
859.122	0.0166595
859.200	0.0164999
859.279	0.0166676
859.357	0.0165697
859.435	0.0164732
859.513	0.0165946
859.591	0.0165104
859.669	0.0164291
859.747	0.0163731
859.825	0.0165806
859.904	0.0164566
859.982	0.0165108
860.060	0.0165081
860.138	0.0165178
860.216	0.0164776
860.294	0.0164997
860.372	0.0164490
860.450	0.0165809
860.529	0.0164562
860.607	0.0166183
860.685	0.0165009
860.763	0.0166924
860.841	0.0165633
860.919	0.0165375
860.997	0.0165343
861.075	0.0167145
861.154	0.0166521
861.232	0.0167758
861.310	0.0166316
861.388	0.0166470
861.466	0.0167869
861.544	0.0166217
861.622	0.0166435
861.700	0.0166411
861.779	0.0165944
861.857	0.0167902
861.935	0.0167062
862.013	0.0165349
862.091	0.0165553
862.169	0.0165574
862.247	0.0166375
862.325	0.0166859
862.404	0.0165504
862.482	0.0165690
862.560	0.0164447
862.638	0.0164969
862.716	0.0165553
862.794	0.0163591
862.872	0.0164930
862.950	0.0164690
863.029	0.0164896
863.107	0.0164183
863.185	0.0165334
863.263	0.0165553
863.341	0.0163586
863.419	0.0164928
863.497	0.0165062
863.575	0.0166595
863.654	0.0166540
863.732	0.0165866
863.810	0.0167419
863.888	0.0165823
863.966	0.0166028
864.044	0.0166315
864.122	0.0167278
864.200	0.0166927
864.279	0.0166109
864.357	0.0166645
864.435	0.0167395
864.513	0.0165823
864.591	0.0165779
864.669	0.0166785
864.747	0.0166254
864.825	0.0167235
864.904	0.0166023
864.982	0.0164993
865.060	0.0166129
865.138	0.0167014
865.216	0.0166308
865.294	0.0163967
865.372	0.0165532
865.450	0.0165027
865.529	0.0166061
865.607	0.0163841
865.685	0.0162920
865.763	0.0165312
865.841	0.0164594
865.919	0.0165359
865.997	0.0163050
866.075	0.0164277
866.154	0.0164865
866.232	0.0164622
866.310	0.0165047
866.388	0.0163044
866.466	0.0164435
866.544	0.0165054
866.622	0.0164407
866.700	0.0164967
866.779	0.0165114
866.857	0.0165330
866.935	0.0166007
867.013	0.0165974
867.091	0.0166933
867.169	0.0166164
867.247	0.0166953
867.325	0.0167298
867.404	0.0167573
867.482	0.0167323
867.560	0.0166747
867.638	0.0165960
867.716	0.0167690
867.794	0.0168533
867.872	0.0166141
867.950	0.0167041
868.029	0.0166502
868.107	0.0166190
868.185	0.0166531
868.263	0.0166087
868.341	0.0165062
868.419	0.0166160
868.497	0.0164327
868.575	0.0164059
868.654	0.0164453
868.732	0.0165122
868.810	0.0165015
868.888	0.0165005
868.966	0.0164687
869.044	0.0164433
869.122	0.0164801
869.200	0.0166080
869.279	0.0165676
869.357	0.0164154
869.435	0.0166216
869.513	0.0166082
869.591	0.0166754
869.669	0.0165689
869.747	0.0165134
869.825	0.0166334
869.904	0.0166888
869.982	0.0166518
870.060	0.0166243
870.138	0.0166245
870.216	0.0166735
870.294	0.0166128
870.372	0.0166550
870.450	0.0165062
870.529	0.0168697
870.607	0.0167503
870.685	0.0165106
870.763	0.0165115
870.841	0.0165594
870.919	0.0165784
870.997	0.0166753
871.075	0.0166606
871.154	0.0165547
871.232	0.0166238
871.310	0.0164099
871.388	0.0164338
871.466	0.0164957
871.544	0.0164952
871.622	0.0165755
871.700	0.0164975
871.779	0.0165649
871.857	0.0165186
871.935	0.0165768
872.013	0.0167802
872.091	0.0165251
872.169	0.0166008
872.247	0.0164683
872.325	0.0165794
872.404	0.0166634
872.482	0.0165375
872.560	0.0167154
872.638	0.0166528
872.716	0.0167434
872.794	0.0166824
872.872	0.0165595
872.950	0.0166813
873.029	0.0165008
873.107	0.0166238
873.185	0.0165944
873.263	0.0165965
873.341	0.0164403
873.419	0.0164617
873.497	0.0164127
873.575	0.0164950
873.654	0.0165192
873.732	0.0165881
873.810	0.0163442
873.888	0.0163766
873.966	0.0165396
874.044	0.0164232
874.122	0.0164637
874.200	0.0164425
874.279	0.0164217
874.357	0.0164228
874.435	0.0163426
874.513	0.0164271
874.591	0.0164591
874.669	0.0163795
874.747	0.0165163
874.825	0.0164577
874.904	0.0164420
874.982	0.0163969
875.060	0.0165068
875.138	0.0165128
875.216	0.0165537
875.294	0.0165324
875.372	0.0166084
875.450	0.0166300
875.529	0.0165795
875.607	0.0166867
875.685	0.0168230
875.763	0.0166792
875.841	0.0165518
875.919	0.0168544
875.997	0.0167464
876.075	0.0167265
876.154	0.0167157
876.232	0.0167938
876.310	0.0166862
876.388	0.0165331
876.466	0.0165763
876.544	0.0165741
876.622	0.0165863
876.700	0.0165572
876.779	0.0167757
876.857	0.0164280
876.935	0.0165899
877.013	0.0164624
877.091	0.0165740
877.169	0.0165531
877.247	0.0164585
877.325	0.0164679
877.404	0.0165796
877.482	0.0164199
877.560	0.0163877
877.638	0.0165181
877.716	0.0164907
877.794	0.0163837
877.872	0.0163428
877.950	0.0163866
878.029	0.0165006
878.107	0.0165681
878.185	0.0165710
878.263	0.0166245
878.341	0.0166155
878.419	0.0165739
878.497	0.0166673
878.575	0.0167443
878.654	0.0166003
878.732	0.0165955
878.810	0.0166438
878.888	0.0166312
878.966	0.0164985
879.044	0.0164805
879.122	0.0165952
879.200	0.0164851
879.279	0.0165576
879.357	0.0166689
879.435	0.0166059
879.513	0.0167544
879.591	0.0167327
879.669	0.0167752
879.747	0.0166734
879.825	0.0167236
879.904	0.0167640
879.982	0.0166594
880.060	0.0165961
880.138	0.0165527
880.216	0.0164585
880.294	0.0164314
880.372	0.0164612
880.450	0.0164386
880.529	0.0165441
880.607	0.0166821
880.685	0.0166830
880.763	0.0169264
880.841	0.0168580
880.919	0.0170164
880.997	0.0169293
881.075	0.0168018
881.154	0.0167002
881.232	0.0166035
881.310	0.0164845
881.388	0.0164841
881.466	0.0163378
881.544	0.0161675
881.622	0.0160802
881.700	0.0160410
881.779	0.0161214
881.857	0.0160058
881.935	0.0161405
882.013	0.0162662
882.091	0.0162228
882.169	0.0163022
882.247	0.0164377
882.325	0.0166956
882.404	0.0166625
882.482	0.0167007
882.560	0.0168420
882.638	0.0168690
882.716	0.0168739
882.794	0.0167886
882.872	0.0168501
882.950	0.0169315
883.029	0.0166742
883.107	0.0166383
883.185	0.0167021
883.263	0.0166621
883.341	0.0165662
883.419	0.0165667
883.497	0.0165871
883.575	0.0165910
883.654	0.0165814
883.732	0.0166907
883.810	0.0166199
883.888	0.0166578
883.966	0.0164855
884.044	0.0166658
884.122	0.0164938
884.200	0.0165005
884.279	0.0163066
884.357	0.0162380
884.435	0.0162514
884.513	0.0161575
884.591	0.0162035
884.669	0.0161833
884.747	0.0160382
884.825	0.0162792
884.904	0.0163234
884.982	0.0166644
885.060	0.0166401
885.138	0.0169495
885.216	0.0169624
885.294	0.0171521
885.372	0.0172061
885.450	0.0171301
885.529	0.0170602
885.607	0.0169158
885.685	0.0169591
885.763	0.0167889
885.841	0.0165784
885.919	0.0164585
885.997	0.0163968
886.075	0.0162408
886.154	0.0162141
886.232	0.0161720
886.310	0.0162041
886.388	0.0161314
886.466	0.0162032
886.544	0.0163459
886.622	0.0163824
886.700	0.0164793
886.779	0.0165559
886.857	0.0167172
886.935	0.0167557
887.013	0.0169066
887.091	0.0169341
887.169	0.0168391
887.247	0.0169097
887.325	0.0169567
887.404	0.0168894
887.482	0.0165731
887.560	0.0165288
887.638	0.0166803
887.716	0.0166650
887.794	0.0166845
887.872	0.0166337
887.950	0.0165283
888.029	0.0164919
888.107	0.0164745
888.185	0.0163265
888.263	0.0163390
888.341	0.0161651
888.419	0.0162417
888.497	0.0161564
888.575	0.0163094
888.654	0.0160880
888.732	0.0161788
888.810	0.0161896
888.888	0.0162168
888.966	0.0163242
889.044	0.0163158
889.122	0.0164048
889.200	0.0165883
889.279	0.0165157
889.357	0.0166713
889.435	0.0168337
889.513	0.0169280
889.591	0.0169165
889.669	0.0169357
889.747	0.0169047
889.825	0.0169783
889.904	0.0170451
889.982	0.0167328
890.060	0.0169739
890.138	0.0169523
890.216	0.0166751
890.294	0.0166858
890.372	0.0165852
890.450	0.0166372
890.529	0.0164258
890.607	0.0163965
890.685	0.0163378
890.763	0.0162127
890.841	0.0161934
890.919	0.0161419
890.997	0.0161680
891.075	0.0161651
891.154	0.0160586
891.232	0.0162243
891.310	0.0162140
891.388	0.0162138
891.466	0.0161708
891.544	0.0162219
891.622	0.0163007
891.700	0.0162628
891.779	0.0163990
891.857	0.0165672
891.935	0.0164774
892.013	0.0167436
892.091	0.0165398
892.169	0.0166451
892.247	0.0168497
892.325	0.0168591
892.404	0.0168948
892.482	0.0169328
892.560	0.0170791
892.638	0.0169476
892.716	0.0169984
892.794	0.0169991
892.872	0.0168443
892.950	0.0169318
893.029	0.0167732
893.107	0.0168557
893.185	0.0166442
893.263	0.0166428
893.341	0.0165766
893.419	0.0166362
893.497	0.0164626
893.575	0.0164659
893.654	0.0164023
893.732	0.0162686
893.810	0.0163004
893.888	0.0161807
893.966	0.0161447
894.044	0.0160909
894.122	0.0161552
894.200	0.0163278
894.279	0.0162692
894.357	0.0163319
894.435	0.0163793
894.513	0.0162967
894.591	0.0163332
894.669	0.0164479
894.747	0.0166376
894.825	0.0166743
894.904	0.0166048
894.982	0.0165829
895.060	0.0166794
895.138	0.0167647
895.216	0.0167651
895.294	0.0167087
895.372	0.0167683
895.450	0.0167480
895.529	0.0167378
895.607	0.0167146
895.685	0.0168316
895.763	0.0167092
895.841	0.0166108
895.919	0.0166483
895.997	0.0167217
896.075	0.0165739
896.154	0.0165279
896.232	0.0165503
896.310	0.0166122
896.388	0.0164014
896.466	0.0164719
896.544	0.0164828
896.622	0.0163218
896.700	0.0163148
896.779	0.0162189
896.857	0.0161146
896.935	0.0163167
897.013	0.0162658
897.091	0.0163673
897.169	0.0163348
897.247	0.0163586
897.325	0.0162966
897.404	0.0165217
897.482	0.0167021
897.560	0.0166958
897.638	0.0166697
897.716	0.0167182
897.794	0.0170564
897.872	0.0169072
897.950	0.0168420
898.029	0.0170643
898.107	0.0169302
898.185	0.0169827
898.263	0.0168835
898.341	0.0169382
898.419	0.0168862
898.497	0.0168833
898.575	0.0167716
898.654	0.0167913
898.732	0.0167040
898.810	0.0166528
898.888	0.0167068
898.966	0.0165893
899.044	0.0166936
899.122	0.0165144
899.200	0.0164266
899.279	0.0164687
899.357	0.0163425
899.435	0.0164377
899.513	0.0163664
899.591	0.0163823
899.669	0.0163646
899.747	0.0163455
899.825	0.0161779
899.904	0.0162444
899.982	0.0163314
900.060	0.0164259
900.138	0.0164925
900.216	0.0163854
900.294	0.0165710
900.372	0.0167831
900.450	0.0166570
900.529	0.0166824
900.607	0.0167528
900.685	0.0168947
900.763	0.0170004
900.841	0.0168168
900.919	0.0168471
900.997	0.0168257
901.075	0.0167575
901.154	0.0168292
901.232	0.0166856
901.310	0.0167613
901.388	0.0168726
901.466	0.0166153
901.544	0.0165009
901.622	0.0166130
901.700	0.0164183
901.779	0.0166916
901.857	0.0164806
901.935	0.0165420
902.013	0.0166335
902.091	0.0166493
902.169	0.0166976
902.247	0.0167192
902.325	0.0166045
902.404	0.0166815
902.482	0.0166248
902.560	0.0166876
902.638	0.0166762
902.716	0.0166888
902.794	0.0166178
902.872	0.0166852
902.950	0.0167847
903.029	0.0167754
903.107	0.0167261
903.185	0.0167075
903.263	0.0166458
903.341	0.0166724
903.419	0.0166430
903.497	0.0165084
903.575	0.0166353
903.654	0.0166330
903.732	0.0165176
903.810	0.0164186
903.888	0.0164071
903.966	0.0164394
904.044	0.0165056
904.122	0.0164497
904.200	0.0166122
904.279	0.0167310
904.357	0.0165226
904.435	0.0165395
904.513	0.0168279
904.591	0.0166968
904.669	0.0166187
904.747	0.0166353
904.825	0.0165866
904.904	0.0166843
904.982	0.0166853
905.060	0.0166328
905.138	0.0165711
905.216	0.0166151
905.294	0.0168063
905.372	0.0165879
905.450	0.0165739
905.529	0.0165952
905.607	0.0168046
905.685	0.0166863
905.763	0.0167085
905.841	0.0167571
905.919	0.0167663
905.997	0.0166489
906.075	0.0166074
906.154	0.0167045
906.232	0.0167122
906.310	0.0165498
906.388	0.0164892
906.466	0.0165835
906.544	0.0165726
906.622	0.0165371
906.700	0.0164666
906.779	0.0164474
906.857	0.0165597
906.935	0.0164794
907.013	0.0166426
907.091	0.0165370
907.169	0.0165239
907.247	0.0164618
907.325	0.0164702
907.404	0.0164916
907.482	0.0166432
907.560	0.0166025
907.638	0.0164697
907.716	0.0165646
907.794	0.0166314
907.872	0.0165466
907.950	0.0165292
908.029	0.0165810
908.107	0.0165325
908.185	0.0165131
908.263	0.0165782
908.341	0.0165540
908.419	0.0165780
908.497	0.0166235
908.575	0.0165705
908.654	0.0165467
908.732	0.0164846
908.810	0.0165321
908.888	0.0163392
908.966	0.0165441
909.044	0.0165951
909.122	0.0165891
909.200	0.0165734
909.279	0.0164816
909.357	0.0166443
909.435	0.0165640
909.513	0.0165734
909.591	0.0166804
909.669	0.0166579
909.747	0.0165185
909.825	0.0166302
909.904	0.0165829
909.982	0.0167167
910.060	0.0164885
910.138	0.0164581
910.216	0.0165098
910.294	0.0165135
910.372	0.0165017
910.450	0.0164854
910.529	0.0165372
910.607	0.0164262
910.685	0.0166312
910.763	0.0164603
910.841	0.0164362
910.919	0.0163477
910.997	0.0164057
911.075	0.0166280
911.154	0.0165537
911.232	0.0165015
911.310	0.0165025
911.388	0.0164102
911.466	0.0165689
911.544	0.0165267
911.622	0.0166742
911.700	0.0165685
911.779	0.0165607
911.857	0.0167322
911.935	0.0166965
912.013	0.0166554
912.091	0.0166184
912.169	0.0167002
912.247	0.0166959
912.325	0.0166763
912.404	0.0166792
912.482	0.0166162
912.560	0.0166084
912.638	0.0166895
912.716	0.0165645
912.794	0.0165561
912.872	0.0165344
912.950	0.0164759
913.029	0.0165807
913.107	0.0164845
913.185	0.0164751
913.263	0.0165329
913.341	0.0164983
913.419	0.0164282
913.497	0.0164313
913.575	0.0164720
913.654	0.0164818
913.732	0.0165197
913.810	0.0163855
913.888	0.0166695
913.966	0.0164503
914.044	0.0164394
914.122	0.0165710
914.200	0.0165487
914.279	0.0164949
914.357	0.0164747
914.435	0.0164602
914.513	0.0165186
914.591	0.0165335
914.669	0.0165852
914.747	0.0163785
914.825	0.0166022
914.904	0.0165603
914.982	0.0165500
915.060	0.0164780
915.138	0.0165836
915.216	0.0165527
915.294	0.0165081
915.372	0.0165509
915.450	0.0164897
915.529	0.0165331
915.607	0.0166572
915.685	0.0165702
915.763	0.0166387
915.841	0.0165480
915.919	0.0166776
915.997	0.0167917
916.075	0.0165691
916.154	0.0168682
916.232	0.0167215
916.310	0.0167599
916.388	0.0167504
916.466	0.0166734
916.544	0.0166159
916.622	0.0166766
916.700	0.0168113
916.779	0.0167266
916.857	0.0167076
916.935	0.0166077
917.013	0.0166348
917.091	0.0165186
917.169	0.0166335
917.247	0.0165869
917.325	0.0165057
917.404	0.0164190
917.482	0.0164741
917.560	0.0165277
917.638	0.0165040
917.716	0.0165838
917.794	0.0165737
917.872	0.0165141
917.950	0.0165060
918.029	0.0166351
918.107	0.0166154
918.185	0.0165489
918.263	0.0165967
918.341	0.0165754
918.419	0.0165882
918.497	0.0166049
918.575	0.0165331
918.654	0.0166804
918.732	0.0166824
918.810	0.0165558
918.888	0.0166960
918.966	0.0166624
919.044	0.0166394
919.122	0.0166672
919.200	0.0165311
919.279	0.0165960
919.357	0.0166666
919.435	0.0165321
919.513	0.0166415
919.591	0.0165141
919.669	0.0164465
919.747	0.0164789
919.825	0.0165461
919.904	0.0166527
