06/03/2022	13:59:40	Ver.	4.1	UNKNOWN
Optical Delay	599.981738	Delta X		0.078125	Sweeps	1	Scan Rate	0/0
Coordinates	Axis 1	NaN	Axis 2	NaN	Axis 3	NaN	Axis 4	NaN	Axis 5	NaN	Axis 6	0.000000
TX Power	0.000000	RX Power	0.000000

599.982	0.0167950
600.060	0.0166860
600.138	0.0168289
600.216	0.0168018
600.294	0.0167433
600.372	0.0167871
600.450	0.0168011
600.529	0.0169137
600.607	0.0168674
600.685	0.0167757
600.763	0.0167319
600.841	0.0167257
600.919	0.0168497
600.997	0.0167484
601.075	0.0167459
601.154	0.0167826
601.232	0.0167580
601.310	0.0168602
601.388	0.0167876
601.466	0.0169006
601.544	0.0167804
601.622	0.0167763
601.700	0.0168725
601.779	0.0168428
601.857	0.0168369
601.935	0.0167361
602.013	0.0168251
602.091	0.0167535
602.169	0.0167183
602.247	0.0167896
602.325	0.0168324
602.404	0.0169656
602.482	0.0168969
602.560	0.0167671
602.638	0.0167563
602.716	0.0167270
602.794	0.0167181
602.872	0.0167987
602.950	0.0168784
603.029	0.0167071
603.107	0.0165967
603.185	0.0168101
603.263	0.0168543
603.341	0.0167247
603.419	0.0167752
603.497	0.0168345
603.575	0.0167293
603.654	0.0167860
603.732	0.0167713
603.810	0.0168927
603.888	0.0167987
603.966	0.0169391
604.044	0.0168151
604.122	0.0168506
604.200	0.0167605
604.279	0.0167850
604.357	0.0167066
604.435	0.0167263
604.513	0.0167205
604.591	0.0168256
604.669	0.0167400
604.747	0.0167446
604.825	0.0167166
604.904	0.0169460
604.982	0.0168617
605.060	0.0168443
605.138	0.0167982
605.216	0.0168007
605.294	0.0167772
605.372	0.0167017
605.450	0.0167474
605.529	0.0169186
605.607	0.0169227
605.685	0.0168921
605.763	0.0167630
605.841	0.0168807
605.919	0.0167020
605.997	0.0166753
606.075	0.0168015
606.154	0.0166896
606.232	0.0167299
606.310	0.0169081
606.388	0.0166564
606.466	0.0167256
606.544	0.0167235
606.622	0.0167921
606.700	0.0166718
606.779	0.0166782
606.857	0.0167004
606.935	0.0168316
607.013	0.0167153
607.091	0.0168012
607.169	0.0168218
607.247	0.0168906
607.325	0.0167436
607.404	0.0167988
607.482	0.0168012
607.560	0.0168344
607.638	0.0168063
607.716	0.0169013
607.794	0.0168664
607.872	0.0167429
607.950	0.0168353
608.029	0.0167991
608.107	0.0168321
608.185	0.0168375
608.263	0.0166758
608.341	0.0169749
608.419	0.0167895
608.497	0.0167364
608.575	0.0168215
608.654	0.0166768
608.732	0.0167558
608.810	0.0168304
608.888	0.0168052
608.966	0.0166993
609.044	0.0167117
609.122	0.0167284
609.200	0.0167988
609.279	0.0166338
609.357	0.0167929
609.435	0.0167113
609.513	0.0167333
609.591	0.0168575
609.669	0.0167631
609.747	0.0168723
609.825	0.0167731
609.904	0.0167803
609.982	0.0168763
610.060	0.0167773
610.138	0.0167911
610.216	0.0168958
610.294	0.0168060
610.372	0.0167314
610.450	0.0167928
610.529	0.0167543
610.607	0.0168549
610.685	0.0168040
610.763	0.0167764
610.841	0.0167961
610.919	0.0168287
610.997	0.0167825
611.075	0.0166835
611.154	0.0168464
611.232	0.0168101
611.310	0.0167200
611.388	0.0168752
611.466	0.0167777
611.544	0.0168298
611.622	0.0166824
611.700	0.0166698
611.779	0.0168400
611.857	0.0166315
611.935	0.0168292
612.013	0.0166733
612.091	0.0167872
612.169	0.0168133
612.247	0.0167027
612.325	0.0167959
612.404	0.0169476
612.482	0.0168181
612.560	0.0167220
612.638	0.0166566
612.716	0.0167306
612.794	0.0169123
612.872	0.0169598
612.950	0.0168446
613.029	0.0169843
613.107	0.0168570
613.185	0.0168063
613.263	0.0168589
613.341	0.0167227
613.419	0.0166846
613.497	0.0169479
613.575	0.0169154
613.654	0.0168786
613.732	0.0169154
613.810	0.0168896
613.888	0.0166934
613.966	0.0167754
614.044	0.0168951
614.122	0.0167813
614.200	0.0167615
614.279	0.0167232
614.357	0.0168881
614.435	0.0167954
614.513	0.0167967
614.591	0.0169212
614.669	0.0167871
614.747	0.0167394
614.825	0.0167493
614.904	0.0166998
614.982	0.0167751
615.060	0.0167814
615.138	0.0167348
615.216	0.0168990
615.294	0.0167633
615.372	0.0167889
615.450	0.0167435
615.529	0.0167625
615.607	0.0168265
615.685	0.0168522
615.763	0.0168307
615.841	0.0169016
615.919	0.0167678
615.997	0.0167197
616.075	0.0168496
616.154	0.0167657
616.232	0.0168566
616.310	0.0168150
616.388	0.0169054
616.466	0.0169605
616.544	0.0168114
616.622	0.0169070
616.700	0.0168050
616.779	0.0167886
616.857	0.0166213
616.935	0.0167801
617.013	0.0168997
617.091	0.0167607
617.169	0.0168124
617.247	0.0168527
617.325	0.0167429
617.404	0.0167390
617.482	0.0167642
617.560	0.0168025
617.638	0.0167732
617.716	0.0167917
617.794	0.0167316
617.872	0.0167486
617.950	0.0168409
618.029	0.0167412
618.107	0.0167630
618.185	0.0166498
618.263	0.0167472
618.341	0.0167908
618.419	0.0169092
618.497	0.0168439
618.575	0.0168860
618.654	0.0166766
618.732	0.0168105
618.810	0.0168475
618.888	0.0168254
618.966	0.0166499
619.044	0.0168317
619.122	0.0168968
619.200	0.0168457
619.279	0.0168030
619.357	0.0167244
619.435	0.0168108
619.513	0.0167885
619.591	0.0167984
619.669	0.0168185
619.747	0.0168899
619.825	0.0168635
619.904	0.0168260
619.982	0.0168662
620.060	0.0168566
620.138	0.0167233
620.216	0.0168052
620.294	0.0167478
620.372	0.0167941
620.450	0.0168171
620.529	0.0169479
620.607	0.0167230
620.685	0.0167397
620.763	0.0166263
620.841	0.0167294
620.919	0.0168233
620.997	0.0166369
621.075	0.0166937
621.154	0.0167992
621.232	0.0167686
621.310	0.0166905
621.388	0.0167656
621.466	0.0169319
621.544	0.0169237
621.622	0.0167241
621.700	0.0168304
621.779	0.0167245
621.857	0.0168913
621.935	0.0168600
622.013	0.0167545
622.091	0.0168150
622.169	0.0168079
622.247	0.0169275
622.325	0.0168265
622.404	0.0168233
622.482	0.0168604
622.560	0.0167586
622.638	0.0167411
622.716	0.0168015
622.794	0.0168398
622.872	0.0166014
622.950	0.0167591
623.029	0.0167571
623.107	0.0166257
623.185	0.0167635
623.263	0.0168027
623.341	0.0168082
623.419	0.0168206
623.497	0.0167969
623.575	0.0167142
623.654	0.0168190
623.732	0.0168053
623.810	0.0168637
623.888	0.0167625
623.966	0.0167387
624.044	0.0168600
624.122	0.0167472
624.200	0.0168312
624.279	0.0167292
624.357	0.0167451
624.435	0.0167022
624.513	0.0168059
624.591	0.0167244
624.669	0.0167673
624.747	0.0168021
624.825	0.0168490
624.904	0.0168447
624.982	0.0168301
625.060	0.0167583
625.138	0.0167566
625.216	0.0167535
625.294	0.0166822
625.372	0.0169837
625.450	0.0168425
625.529	0.0167226
625.607	0.0166775
625.685	0.0168389
625.763	0.0167278
625.841	0.0166912
625.919	0.0167274
625.997	0.0166643
626.075	0.0169329
626.154	0.0167764
626.232	0.0168440
626.310	0.0167441
626.388	0.0167868
626.466	0.0166009
626.544	0.0167387
626.622	0.0166817
626.700	0.0167564
626.779	0.0168297
626.857	0.0167966
626.935	0.0167908
627.013	0.0165871
627.091	0.0166985
627.169	0.0168284
627.247	0.0168425
627.325	0.0167841
627.404	0.0169217
627.482	0.0168058
627.560	0.0168298
627.638	0.0168902
627.716	0.0168547
627.794	0.0169511
627.872	0.0168655
627.950	0.0168148
628.029	0.0168206
628.107	0.0169062
628.185	0.0168037
628.263	0.0168131
628.341	0.0168698
628.419	0.0168085
628.497	0.0168643
628.575	0.0168104
628.654	0.0167666
628.732	0.0168262
628.810	0.0168263
628.888	0.0166946
628.966	0.0167692
629.044	0.0168454
629.122	0.0168301
629.200	0.0167689
629.279	0.0167561
629.357	0.0167594
629.435	0.0169100
629.513	0.0167612
629.591	0.0167877
629.669	0.0168221
629.747	0.0169115
629.825	0.0167384
629.904	0.0168085
629.982	0.0166463
630.060	0.0166579
630.138	0.0167236
630.216	0.0168565
630.294	0.0167548
630.372	0.0167419
630.450	0.0167320
630.529	0.0167863
630.607	0.0169283
630.685	0.0167969
630.763	0.0166608
630.841	0.0167777
630.919	0.0168156
630.997	0.0167915
631.075	0.0167066
631.154	0.0167052
631.232	0.0168606
631.310	0.0168278
631.388	0.0167680
631.466	0.0167590
631.544	0.0167454
631.622	0.0168956
631.700	0.0168306
631.779	0.0167311
631.857	0.0166770
631.935	0.0167793
632.013	0.0169151
632.091	0.0166775
632.169	0.0166543
632.247	0.0167957
632.325	0.0167768
632.404	0.0167990
632.482	0.0168698
632.560	0.0169440
632.638	0.0167005
632.716	0.0167937
632.794	0.0168896
632.872	0.0169005
632.950	0.0167506
633.029	0.0165988
633.107	0.0167719
633.185	0.0166673
633.263	0.0168459
633.341	0.0169053
633.419	0.0166664
633.497	0.0167412
633.575	0.0167346
633.654	0.0167937
633.732	0.0167362
633.810	0.0168252
633.888	0.0168094
633.966	0.0167323
634.044	0.0166907
634.122	0.0166819
634.200	0.0169397
634.279	0.0166513
634.357	0.0167126
634.435	0.0167603
634.513	0.0168020
634.591	0.0167239
634.669	0.0167353
634.747	0.0169125
634.825	0.0168282
634.904	0.0167360
634.982	0.0167415
635.060	0.0168054
635.138	0.0167593
635.216	0.0169417
635.294	0.0167884
635.372	0.0167033
635.450	0.0168430
635.529	0.0168145
635.607	0.0167947
635.685	0.0168716
635.763	0.0168702
635.841	0.0167183
635.919	0.0168227
635.997	0.0168379
636.075	0.0168037
636.154	0.0167488
636.232	0.0168017
636.310	0.0167435
636.388	0.0169772
636.466	0.0167548
636.544	0.0167847
636.622	0.0167628
636.700	0.0167966
636.779	0.0168713
636.857	0.0168089
636.935	0.0167986
637.013	0.0167975
637.091	0.0167678
637.169	0.0168182
637.247	0.0167986
637.325	0.0166843
637.404	0.0168350
637.482	0.0167850
637.560	0.0167286
637.638	0.0167337
637.716	0.0167031
637.794	0.0167708
637.872	0.0167747
637.950	0.0167201
638.029	0.0167989
638.107	0.0168409
638.185	0.0168770
638.263	0.0168079
638.341	0.0167933
638.419	0.0167544
638.497	0.0169050
638.575	0.0168161
638.654	0.0167549
638.732	0.0166337
638.810	0.0167846
638.888	0.0168362
638.966	0.0167530
639.044	0.0167438
639.122	0.0168533
639.200	0.0168337
639.279	0.0167781
639.357	0.0167985
639.435	0.0167535
639.513	0.0167658
639.591	0.0168280
639.669	0.0168299
639.747	0.0166996
639.825	0.0166859
639.904	0.0168060
639.982	0.0167426
640.060	0.0168520
640.138	0.0169482
640.216	0.0167890
640.294	0.0166845
640.372	0.0168537
640.450	0.0168444
640.529	0.0169093
640.607	0.0167252
640.685	0.0167480
640.763	0.0169180
640.841	0.0168499
640.919	0.0167878
640.997	0.0166863
641.075	0.0167599
641.154	0.0167762
641.232	0.0167500
641.310	0.0167406
641.388	0.0167703
641.466	0.0168196
641.544	0.0167950
641.622	0.0167829
641.700	0.0166634
641.779	0.0166683
641.857	0.0167596
641.935	0.0167686
642.013	0.0167229
642.091	0.0168642
642.169	0.0168661
642.247	0.0167439
642.325	0.0168237
642.404	0.0168186
642.482	0.0167265
642.560	0.0168626
642.638	0.0169015
642.716	0.0166653
642.794	0.0168018
642.872	0.0166743
642.950	0.0167550
643.029	0.0169028
643.107	0.0167398
643.185	0.0168726
643.263	0.0169011
643.341	0.0168301
643.419	0.0168686
643.497	0.0168253
643.575	0.0166827
643.654	0.0167314
643.732	0.0167371
643.810	0.0168028
643.888	0.0168375
643.966	0.0166787
644.044	0.0168994
644.122	0.0168398
644.200	0.0168311
644.279	0.0167315
644.357	0.0167419
644.435	0.0168015
644.513	0.0168247
644.591	0.0167962
644.669	0.0168403
644.747	0.0169086
644.825	0.0167014
644.904	0.0169208
644.982	0.0167299
645.060	0.0167441
645.138	0.0167351
645.216	0.0168238
645.294	0.0168839
645.372	0.0166708
645.450	0.0167010
645.529	0.0167852
645.607	0.0167265
645.685	0.0168648
645.763	0.0166942
645.841	0.0167300
645.919	0.0168447
645.997	0.0168393
646.075	0.0167746
646.154	0.0168963
646.232	0.0167744
646.310	0.0168134
646.388	0.0168810
646.466	0.0167767
646.544	0.0167216
646.622	0.0168505
646.700	0.0168024
646.779	0.0169210
646.857	0.0169027
646.935	0.0167384
647.013	0.0168748
647.091	0.0168488
647.169	0.0167539
647.247	0.0168099
647.325	0.0167698
647.404	0.0167501
647.482	0.0168716
647.560	0.0168494
647.638	0.0167468
647.716	0.0166798
647.794	0.0168888
647.872	0.0168596
647.950	0.0167361
648.029	0.0168451
648.107	0.0168445
648.185	0.0167444
648.263	0.0167769
648.341	0.0167937
648.419	0.0168172
648.497	0.0168034
648.575	0.0166894
648.654	0.0167323
648.732	0.0166843
648.810	0.0167431
648.888	0.0168420
648.966	0.0169035
649.044	0.0167164
649.122	0.0167715
649.200	0.0168070
649.279	0.0168359
649.357	0.0167556
649.435	0.0167014
649.513	0.0168286
649.591	0.0167750
649.669	0.0169183
649.747	0.0167922
649.825	0.0167503
649.904	0.0167406
649.982	0.0167003
650.060	0.0168187
650.138	0.0167861
650.216	0.0167581
650.294	0.0168182
650.372	0.0168866
650.450	0.0167989
650.529	0.0168387
650.607	0.0167970
650.685	0.0166536
650.763	0.0167902
650.841	0.0168670
650.919	0.0167443
650.997	0.0168042
651.075	0.0168933
651.154	0.0167292
651.232	0.0167599
651.310	0.0167948
651.388	0.0167144
651.466	0.0167490
651.544	0.0167781
651.622	0.0168587
651.700	0.0168697
651.779	0.0168149
651.857	0.0168029
651.935	0.0168044
652.013	0.0167374
652.091	0.0168047
652.169	0.0167557
652.247	0.0167706
652.325	0.0166576
652.404	0.0169125
652.482	0.0168447
652.560	0.0168122
652.638	0.0167633
652.716	0.0167604
652.794	0.0169267
652.872	0.0168346
652.950	0.0167133
653.029	0.0167859
653.107	0.0168364
653.185	0.0167176
653.263	0.0167162
653.341	0.0168581
653.419	0.0167802
653.497	0.0167693
653.575	0.0168561
653.654	0.0168046
653.732	0.0167113
653.810	0.0167986
653.888	0.0168430
653.966	0.0168106
654.044	0.0168230
654.122	0.0168104
654.200	0.0167668
654.279	0.0166864
654.357	0.0168421
654.435	0.0167319
654.513	0.0167928
654.591	0.0168695
654.669	0.0168719
654.747	0.0167516
654.825	0.0168221
654.904	0.0167662
654.982	0.0167126
655.060	0.0168559
655.138	0.0168448
655.216	0.0168610
655.294	0.0168491
655.372	0.0166468
655.450	0.0166988
655.529	0.0168320
655.607	0.0168227
655.685	0.0167889
655.763	0.0167559
655.841	0.0167999
655.919	0.0168781
655.997	0.0169050
656.075	0.0167626
656.154	0.0168052
656.232	0.0168568
656.310	0.0167898
656.388	0.0167159
656.466	0.0167640
656.544	0.0167847
656.622	0.0166664
656.700	0.0167877
656.779	0.0167292
656.857	0.0167111
656.935	0.0167394
657.013	0.0167797
657.091	0.0167120
657.169	0.0167590
657.247	0.0168341
657.325	0.0168484
657.404	0.0168176
657.482	0.0168420
657.560	0.0166729
657.638	0.0167980
657.716	0.0168265
657.794	0.0167481
657.872	0.0167515
657.950	0.0169322
658.029	0.0168927
658.107	0.0165662
658.185	0.0165927
658.263	0.0167103
658.341	0.0167860
658.419	0.0167492
658.497	0.0169250
658.575	0.0167592
658.654	0.0166579
658.732	0.0166695
658.810	0.0168800
658.888	0.0168736
658.966	0.0168508
659.044	0.0165601
659.122	0.0167902
659.200	0.0167828
659.279	0.0167464
659.357	0.0168438
659.435	0.0168047
659.513	0.0167215
659.591	0.0166987
659.669	0.0168307
659.747	0.0167404
659.825	0.0166691
659.904	0.0167400
659.982	0.0167538
660.060	0.0169090
660.138	0.0167439
660.216	0.0166803
660.294	0.0166833
660.372	0.0166496
660.450	0.0167352
660.529	0.0168230
660.607	0.0167367
660.685	0.0167273
660.763	0.0168137
660.841	0.0168451
660.919	0.0167337
660.997	0.0166708
661.075	0.0167684
661.154	0.0167029
661.232	0.0168244
661.310	0.0168723
661.388	0.0167283
661.466	0.0167339
661.544	0.0168153
661.622	0.0169043
661.700	0.0167327
661.779	0.0168465
661.857	0.0167207
661.935	0.0168645
662.013	0.0168681
662.091	0.0168964
662.169	0.0167439
662.247	0.0166629
662.325	0.0168922
662.404	0.0165888
662.482	0.0169103
662.560	0.0167239
662.638	0.0167613
662.716	0.0167776
662.794	0.0169566
662.872	0.0168512
662.950	0.0166904
663.029	0.0167083
663.107	0.0168797
663.185	0.0167713
663.263	0.0167769
663.341	0.0169545
663.419	0.0169547
663.497	0.0169231
663.575	0.0168189
663.654	0.0168526
663.732	0.0168335
663.810	0.0168067
663.888	0.0167932
663.966	0.0167411
664.044	0.0168001
664.122	0.0167999
664.200	0.0167572
664.279	0.0167065
664.357	0.0167713
664.435	0.0168957
664.513	0.0168346
664.591	0.0167746
664.669	0.0168436
664.747	0.0168399
664.825	0.0166810
664.904	0.0167359
664.982	0.0168914
665.060	0.0168000
665.138	0.0168555
665.216	0.0168548
665.294	0.0168736
665.372	0.0168579
665.450	0.0168069
665.529	0.0167442
665.607	0.0168560
665.685	0.0168027
665.763	0.0168075
665.841	0.0167820
665.919	0.0167133
665.997	0.0168234
666.075	0.0168729
666.154	0.0167707
666.232	0.0168822
666.310	0.0168781
666.388	0.0168394
666.466	0.0168144
666.544	0.0168582
666.622	0.0168690
666.700	0.0168198
666.779	0.0167795
666.857	0.0167847
666.935	0.0167920
667.013	0.0168304
667.091	0.0169028
667.169	0.0170225
667.247	0.0168613
667.325	0.0168952
667.404	0.0168553
667.482	0.0169076
667.560	0.0168835
667.638	0.0167983
667.716	0.0168204
667.794	0.0168683
667.872	0.0168970
667.950	0.0168003
668.029	0.0168710
668.107	0.0167451
668.185	0.0169073
668.263	0.0168890
668.341	0.0169324
668.419	0.0169469
668.497	0.0169710
668.575	0.0168377
668.654	0.0167922
668.732	0.0168337
668.810	0.0168111
668.888	0.0168325
668.966	0.0169556
669.044	0.0168295
669.122	0.0168014
669.200	0.0170005
669.279	0.0169740
669.357	0.0167433
669.435	0.0167909
669.513	0.0168373
669.591	0.0170181
669.669	0.0170182
669.747	0.0169093
669.825	0.0167593
669.904	0.0168884
669.982	0.0170100
670.060	0.0169060
670.138	0.0168049
670.216	0.0168316
670.294	0.0167731
670.372	0.0167879
670.450	0.0168643
670.529	0.0167522
670.607	0.0168529
670.685	0.0168668
670.763	0.0170156
670.841	0.0168152
670.919	0.0169040
670.997	0.0169331
671.075	0.0167572
671.154	0.0166750
671.232	0.0167671
671.310	0.0167136
671.388	0.0168130
671.466	0.0169389
671.544	0.0167277
671.622	0.0167859
671.700	0.0168413
671.779	0.0167328
671.857	0.0167686
671.935	0.0167617
672.013	0.0168150
672.091	0.0167435
672.169	0.0167911
672.247	0.0168746
672.325	0.0168583
672.404	0.0168268
672.482	0.0167656
672.560	0.0167217
672.638	0.0167416
672.716	0.0167293
672.794	0.0167660
672.872	0.0168163
672.950	0.0167120
673.029	0.0166862
673.107	0.0167793
673.185	0.0167731
673.263	0.0167723
673.341	0.0166595
673.419	0.0167767
673.497	0.0167525
673.575	0.0168139
673.654	0.0169121
673.732	0.0168230
673.810	0.0167282
673.888	0.0167569
673.966	0.0167968
674.044	0.0168088
674.122	0.0166355
674.200	0.0167460
674.279	0.0167159
674.357	0.0168234
674.435	0.0167631
674.513	0.0168732
674.591	0.0168284
674.669	0.0168543
674.747	0.0167407
674.825	0.0167822
674.904	0.0168626
674.982	0.0168166
675.060	0.0168375
675.138	0.0169036
675.216	0.0167427
675.294	0.0167044
675.372	0.0167194
675.450	0.0168144
675.529	0.0167381
675.607	0.0167403
675.685	0.0167090
675.763	0.0168402
675.841	0.0168266
675.919	0.0167189
675.997	0.0169018
676.075	0.0167796
676.154	0.0167224
676.232	0.0168411
676.310	0.0168835
676.388	0.0167788
676.466	0.0167873
676.544	0.0168685
676.622	0.0167493
676.700	0.0167527
676.779	0.0167889
676.857	0.0167371
676.935	0.0166243
677.013	0.0169850
677.091	0.0168031
677.169	0.0167747
677.247	0.0166938
677.325	0.0167970
677.404	0.0168311
677.482	0.0167189
677.560	0.0167448
677.638	0.0168289
677.716	0.0168242
677.794	0.0168885
677.872	0.0167923
677.950	0.0167685
678.029	0.0166658
678.107	0.0166974
678.185	0.0168645
678.263	0.0169096
678.341	0.0167053
678.419	0.0166904
678.497	0.0167700
678.575	0.0167744
678.654	0.0168910
678.732	0.0168501
678.810	0.0166870
678.888	0.0166788
678.966	0.0168845
679.044	0.0167262
679.122	0.0168496
679.200	0.0168748
679.279	0.0167935
679.357	0.0169079
679.435	0.0167480
679.513	0.0167355
679.591	0.0168860
679.669	0.0168157
679.747	0.0168124
679.825	0.0167148
679.904	0.0167176
679.982	0.0166792
680.060	0.0168562
680.138	0.0168018
680.216	0.0167479
680.294	0.0167567
680.372	0.0168681
680.450	0.0168516
680.529	0.0167470
680.607	0.0168625
680.685	0.0169098
680.763	0.0168839
680.841	0.0169439
680.919	0.0169318
680.997	0.0170399
681.075	0.0169745
681.154	0.0170306
681.232	0.0170177
681.310	0.0168937
681.388	0.0167869
681.466	0.0168266
681.544	0.0168598
681.622	0.0167361
681.700	0.0166383
681.779	0.0167448
681.857	0.0166764
681.935	0.0165806
682.013	0.0165921
682.091	0.0164938
682.169	0.0166833
682.247	0.0166426
682.325	0.0166476
682.404	0.0165862
682.482	0.0165503
682.560	0.0167012
682.638	0.0166453
682.716	0.0167717
682.794	0.0166884
682.872	0.0168285
682.950	0.0169649
683.029	0.0170336
683.107	0.0170441
683.185	0.0169831
683.263	0.0170890
683.341	0.0171497
683.419	0.0173874
683.497	0.0171503
683.575	0.0171783
683.654	0.0172833
683.732	0.0175069
683.810	0.0174010
683.888	0.0172696
683.966	0.0172085
684.044	0.0169525
684.122	0.0168390
684.200	0.0166492
684.279	0.0165175
684.357	0.0164629
684.435	0.0162698
684.513	0.0163062
684.591	0.0165781
684.669	0.0166890
684.747	0.0166499
684.825	0.0166922
684.904	0.0168418
684.982	0.0168848
685.060	0.0166790
685.138	0.0163979
685.216	0.0160902
685.294	0.0158578
685.372	0.0156155
685.450	0.0153746
685.529	0.0150995
685.607	0.0152430
685.685	0.0152724
685.763	0.0154259
685.841	0.0158104
685.919	0.0161696
685.997	0.0164886
686.075	0.0167899
686.154	0.0171212
686.232	0.0173490
686.310	0.0174389
686.388	0.0175626
686.466	0.0176640
686.544	0.0177557
686.622	0.0180910
686.700	0.0183954
686.779	0.0185225
686.857	0.0189426
686.935	0.0193996
687.013	0.0197322
687.091	0.0199591
687.169	0.0202878
687.247	0.0204128
687.325	0.0201292
687.404	0.0199370
687.482	0.0191456
687.560	0.0184167
687.638	0.0171665
687.716	0.0160968
687.794	0.0149820
687.872	0.0137709
687.950	0.0125748
688.029	0.0118938
688.107	0.0111827
688.185	0.0107236
688.263	0.0105206
688.341	0.0108477
688.419	0.0111295
688.497	0.0115040
688.575	0.0122950
688.654	0.0130027
688.732	0.0137916
688.810	0.0147108
688.888	0.0156989
688.966	0.0165888
689.044	0.0174214
689.122	0.0183755
689.200	0.0191441
689.279	0.0198457
689.357	0.0206228
689.435	0.0211321
689.513	0.0215933
689.591	0.0221108
689.669	0.0223534
689.747	0.0226132
689.825	0.0228751
689.904	0.0228082
689.982	0.0226079
690.060	0.0222550
690.138	0.0220644
690.216	0.0214897
690.294	0.0206026
690.372	0.0195383
690.450	0.0184241
690.529	0.0170216
690.607	0.0157754
690.685	0.0144866
690.763	0.0132503
690.841	0.0119396
690.919	0.0107641
690.997	0.00988235
691.075	0.00923317
691.154	0.00866493
691.232	0.00854759
691.310	0.00879326
691.388	0.00910408
691.466	0.00993561
691.544	0.0107559
691.622	0.0117492
691.700	0.0129728
691.779	0.0141599
691.857	0.0153950
691.935	0.0165704
692.013	0.0177101
692.091	0.0186264
692.169	0.0197444
692.247	0.0206538
692.325	0.0215717
692.404	0.0224573
692.482	0.0230730
692.560	0.0236771
692.638	0.0241908
692.716	0.0246590
692.794	0.0246571
692.872	0.0245564
692.950	0.0245139
693.029	0.0239882
693.107	0.0234768
693.185	0.0226420
693.263	0.0214281
693.341	0.0203813
693.419	0.0190136
693.497	0.0173101
693.575	0.0157451
693.654	0.0141242
693.732	0.0123644
693.810	0.0108770
693.888	0.00946518
693.966	0.00807220
694.044	0.00722534
694.122	0.00637314
694.200	0.00617935
694.279	0.00619270
694.357	0.00668221
694.435	0.00762566
694.513	0.00884003
694.591	0.0102641
694.669	0.0119487
694.747	0.0140054
694.825	0.0160342
694.904	0.0178536
694.982	0.0195901
695.060	0.0212901
695.138	0.0227680
695.216	0.0238754
695.294	0.0247067
695.372	0.0253680
695.450	0.0258016
695.529	0.0259892
695.607	0.0256701
695.685	0.0251908
695.763	0.0244868
695.841	0.0236320
695.919	0.0227056
695.997	0.0215694
696.075	0.0202945
696.154	0.0190154
696.232	0.0177635
696.310	0.0162733
696.388	0.0152684
696.466	0.0140572
696.544	0.0129777
696.622	0.0119770
696.700	0.0112383
696.779	0.0105370
696.857	0.0103648
696.935	0.0102592
697.013	0.0101838
697.091	0.0107252
697.169	0.0111229
697.247	0.0118775
697.325	0.0126715
697.404	0.0137026
697.482	0.0147723
697.560	0.0156327
697.638	0.0167021
697.716	0.0176983
697.794	0.0182825
697.872	0.0188845
697.950	0.0196422
698.029	0.0200298
698.107	0.0202872
698.185	0.0204143
698.263	0.0205243
698.341	0.0205392
698.419	0.0203922
698.497	0.0201200
698.575	0.0197923
698.654	0.0194617
698.732	0.0190471
698.810	0.0184153
698.888	0.0178469
698.966	0.0174549
699.044	0.0167841
699.122	0.0162271
699.200	0.0157552
699.279	0.0153764
699.357	0.0150094
699.435	0.0144962
699.513	0.0141842
699.591	0.0139005
699.669	0.0137865
699.747	0.0136658
699.825	0.0137788
699.904	0.0138691
699.982	0.0139040
700.060	0.0139748
700.138	0.0142923
700.216	0.0146045
700.294	0.0150680
700.372	0.0157253
700.450	0.0162729
700.529	0.0168445
700.607	0.0176601
700.685	0.0184401
700.763	0.0192603
700.841	0.0199146
700.919	0.0203042
700.997	0.0208184
701.075	0.0211299
701.154	0.0211668
701.232	0.0213213
701.310	0.0211952
701.388	0.0210196
701.466	0.0205640
701.544	0.0201263
701.622	0.0195112
701.700	0.0188934
701.779	0.0183028
701.857	0.0175528
701.935	0.0171104
702.013	0.0163029
702.091	0.0155801
702.169	0.0149579
702.247	0.0145831
702.325	0.0140267
702.404	0.0135290
702.482	0.0131915
702.560	0.0128143
702.638	0.0127320
702.716	0.0124060
702.794	0.0123021
702.872	0.0122573
702.950	0.0122103
703.029	0.0125701
703.107	0.0127885
703.185	0.0131155
703.263	0.0137228
703.341	0.0144456
703.419	0.0151350
703.497	0.0159876
703.575	0.0170180
703.654	0.0176356
703.732	0.0184897
703.810	0.0194397
703.888	0.0203051
703.966	0.0208515
704.044	0.0212544
704.122	0.0217963
704.200	0.0218698
704.279	0.0218991
704.357	0.0215061
704.435	0.0212092
704.513	0.0208839
704.591	0.0202186
704.669	0.0194891
704.747	0.0189307
704.825	0.0182157
704.904	0.0176659
704.982	0.0170943
705.060	0.0165673
705.138	0.0161522
705.216	0.0158844
705.294	0.0154748
705.372	0.0154301
705.450	0.0151065
705.529	0.0150245
705.607	0.0150057
705.685	0.0147344
705.763	0.0148295
705.841	0.0147430
705.919	0.0148070
705.997	0.0146796
706.075	0.0145656
706.154	0.0148933
706.232	0.0148253
706.310	0.0148636
706.388	0.0150163
706.466	0.0151706
706.544	0.0153317
706.622	0.0155551
706.700	0.0158076
706.779	0.0161279
706.857	0.0164165
706.935	0.0167760
707.013	0.0170264
707.091	0.0173534
707.169	0.0174261
707.247	0.0176897
707.325	0.0178729
707.404	0.0178867
707.482	0.0177903
707.560	0.0178625
707.638	0.0176862
707.716	0.0176084
707.794	0.0176331
707.872	0.0173014
707.950	0.0172251
708.029	0.0170795
708.107	0.0170557
708.185	0.0169256
708.263	0.0168448
708.341	0.0168886
708.419	0.0168307
708.497	0.0169566
708.575	0.0170527
708.654	0.0170892
708.732	0.0172035
708.810	0.0171170
708.888	0.0172328
708.966	0.0171696
709.044	0.0171538
709.122	0.0170973
709.200	0.0169086
709.279	0.0168922
709.357	0.0167731
709.435	0.0165831
709.513	0.0164162
709.591	0.0162169
709.669	0.0161179
709.747	0.0161557
709.825	0.0161915
709.904	0.0160902
709.982	0.0162542
710.060	0.0161427
710.138	0.0165129
710.216	0.0166645
710.294	0.0168406
710.372	0.0170821
710.450	0.0173496
710.529	0.0174249
710.607	0.0177077
710.685	0.0177565
710.763	0.0177925
710.841	0.0176941
710.919	0.0175809
710.997	0.0174327
711.075	0.0172659
711.154	0.0171091
711.232	0.0168554
711.310	0.0165937
711.388	0.0164845
711.466	0.0164453
711.544	0.0162843
711.622	0.0161271
711.700	0.0162490
711.779	0.0160931
711.857	0.0160798
711.935	0.0161213
712.013	0.0161515
712.091	0.0161111
712.169	0.0161407
712.247	0.0159885
712.325	0.0160504
712.404	0.0161076
712.482	0.0159100
712.560	0.0158544
712.638	0.0158141
712.716	0.0156837
712.794	0.0156473
712.872	0.0156120
712.950	0.0156736
713.029	0.0156097
713.107	0.0156309
713.185	0.0159337
713.263	0.0159773
713.341	0.0161751
713.419	0.0165396
713.497	0.0166985
713.575	0.0170767
713.654	0.0175284
713.732	0.0176826
713.810	0.0179243
713.888	0.0180508
713.966	0.0181255
714.044	0.0181171
714.122	0.0183331
714.200	0.0182703
714.279	0.0182262
714.357	0.0182513
714.435	0.0180758
714.513	0.0180309
714.591	0.0177930
714.669	0.0177647
714.747	0.0174668
714.825	0.0173206
714.904	0.0171833
714.982	0.0170287
715.060	0.0168657
715.138	0.0166589
715.216	0.0165503
715.294	0.0164208
715.372	0.0162966
715.450	0.0163849
715.529	0.0161693
715.607	0.0162362
715.685	0.0164114
715.763	0.0164487
715.841	0.0163397
715.919	0.0164381
715.997	0.0165495
716.075	0.0166228
716.154	0.0166648
716.232	0.0167268
716.310	0.0169247
716.388	0.0167508
716.466	0.0168922
716.544	0.0168401
716.622	0.0168526
716.700	0.0166165
716.779	0.0166907
716.857	0.0165260
716.935	0.0166341
717.013	0.0163576
717.091	0.0162589
717.169	0.0161717
717.247	0.0161629
717.325	0.0161772
717.404	0.0159046
717.482	0.0159669
717.560	0.0159968
717.638	0.0160057
717.716	0.0158780
717.794	0.0160242
717.872	0.0161876
717.950	0.0162590
718.029	0.0163285
718.107	0.0165430
718.185	0.0166866
718.263	0.0165943
718.341	0.0168141
718.419	0.0169047
718.497	0.0171443
718.575	0.0172827
718.654	0.0172011
718.732	0.0172257
718.810	0.0173360
718.888	0.0172267
718.966	0.0172303
719.044	0.0173445
719.122	0.0173489
719.200	0.0171368
719.279	0.0171204
719.357	0.0171592
719.435	0.0171713
719.513	0.0172353
719.591	0.0171438
719.669	0.0173327
719.747	0.0172810
719.825	0.0174494
719.904	0.0173160
719.982	0.0172731
720.060	0.0173246
720.138	0.0172808
720.216	0.0171441
720.294	0.0170876
720.372	0.0171452
720.450	0.0169466
720.529	0.0168331
720.607	0.0169106
720.685	0.0168257
720.763	0.0168065
720.841	0.0165633
720.919	0.0167425
720.997	0.0167573
721.075	0.0167188
721.154	0.0165654
721.232	0.0165611
721.310	0.0166438
721.388	0.0166480
721.466	0.0166088
721.544	0.0165185
721.622	0.0163749
721.700	0.0163441
721.779	0.0162646
721.857	0.0162685
721.935	0.0161208
722.013	0.0161613
722.091	0.0160213
722.169	0.0160388
722.247	0.0160944
722.325	0.0160805
722.404	0.0162202
722.482	0.0163194
722.560	0.0164719
722.638	0.0165494
722.716	0.0168465
722.794	0.0167574
722.872	0.0168502
722.950	0.0168558
723.029	0.0170819
723.107	0.0171260
723.185	0.0171523
723.263	0.0171633
723.341	0.0172028
723.419	0.0172211
723.497	0.0171762
723.575	0.0173110
723.654	0.0171801
723.732	0.0170216
723.810	0.0171688
723.888	0.0173149
723.966	0.0172728
724.044	0.0171383
724.122	0.0172881
724.200	0.0171696
724.279	0.0170731
724.357	0.0171537
724.435	0.0171869
724.513	0.0172349
724.591	0.0171673
724.669	0.0168934
724.747	0.0170087
724.825	0.0169350
724.904	0.0168959
724.982	0.0167568
725.060	0.0166391
725.138	0.0163529
725.216	0.0163306
725.294	0.0165392
725.372	0.0164086
725.450	0.0163495
725.529	0.0163482
725.607	0.0162823
725.685	0.0164159
725.763	0.0163741
725.841	0.0165082
725.919	0.0166639
725.997	0.0168357
726.075	0.0167621
726.154	0.0169733
726.232	0.0169595
726.310	0.0170972
726.388	0.0170438
726.466	0.0170041
726.544	0.0170501
726.622	0.0169556
726.700	0.0168849
726.779	0.0169946
726.857	0.0167944
726.935	0.0167233
727.013	0.0166368
727.091	0.0165005
727.169	0.0164538
727.247	0.0165883
727.325	0.0163715
727.404	0.0164730
727.482	0.0164754
727.560	0.0162563
727.638	0.0163328
727.716	0.0163968
727.794	0.0164438
727.872	0.0165313
727.950	0.0164257
728.029	0.0165881
728.107	0.0164829
728.185	0.0165981
728.263	0.0166917
728.341	0.0167491
728.419	0.0168047
728.497	0.0167857
728.575	0.0170232
728.654	0.0170155
728.732	0.0169648
728.810	0.0171562
728.888	0.0171772
728.966	0.0170731
729.044	0.0171251
729.122	0.0171781
729.200	0.0171398
729.279	0.0170760
729.357	0.0171209
729.435	0.0169691
729.513	0.0168918
729.591	0.0169691
729.669	0.0169588
729.747	0.0168965
729.825	0.0170100
729.904	0.0168956
729.982	0.0168448
730.060	0.0168327
730.138	0.0168313
730.216	0.0167608
730.294	0.0168378
730.372	0.0168788
730.450	0.0168929
730.529	0.0168132
730.607	0.0169119
730.685	0.0167571
730.763	0.0168084
730.841	0.0167934
730.919	0.0168975
730.997	0.0167193
731.075	0.0167370
731.154	0.0167649
731.232	0.0166284
731.310	0.0165739
731.388	0.0165294
731.466	0.0166695
731.544	0.0164874
731.622	0.0162357
731.700	0.0165386
731.779	0.0165379
731.857	0.0165857
731.935	0.0164850
732.013	0.0164787
732.091	0.0165875
732.169	0.0165857
732.247	0.0166326
732.325	0.0166151
732.404	0.0167737
732.482	0.0169592
732.560	0.0170667
732.638	0.0169639
732.716	0.0169132
732.794	0.0169426
732.872	0.0170876
732.950	0.0170023
733.029	0.0170244
733.107	0.0170972
733.185	0.0169708
733.263	0.0170078
733.341	0.0169997
733.419	0.0170798
733.497	0.0169030
733.575	0.0168977
733.654	0.0166785
733.732	0.0167463
733.810	0.0165932
733.888	0.0166448
733.966	0.0165726
734.044	0.0164999
734.122	0.0164003
734.200	0.0162891
734.279	0.0163946
734.357	0.0163029
734.435	0.0164892
734.513	0.0164418
734.591	0.0164913
734.669	0.0165703
734.747	0.0165170
734.825	0.0167676
734.904	0.0167743
734.982	0.0166238
735.060	0.0166209
735.138	0.0167046
735.216	0.0168340
735.294	0.0168568
735.372	0.0170597
735.450	0.0168542
735.529	0.0171323
735.607	0.0170759
735.685	0.0170948
735.763	0.0171703
735.841	0.0171583
735.919	0.0173040
735.997	0.0172466
736.075	0.0171568
736.154	0.0172812
736.232	0.0171566
736.310	0.0171124
736.388	0.0171609
736.466	0.0171825
736.544	0.0171489
736.622	0.0170924
736.700	0.0170013
736.779	0.0169173
736.857	0.0169357
736.935	0.0168603
737.013	0.0167476
737.091	0.0167196
737.169	0.0167709
737.247	0.0168788
737.325	0.0168731
737.404	0.0168525
737.482	0.0167958
737.560	0.0166344
737.638	0.0167396
737.716	0.0166962
737.794	0.0167164
737.872	0.0166186
737.950	0.0166000
738.029	0.0165981
738.107	0.0165318
738.185	0.0166307
738.263	0.0167365
738.341	0.0166190
738.419	0.0166448
738.497	0.0167300
738.575	0.0167087
738.654	0.0167660
738.732	0.0166631
738.810	0.0168370
738.888	0.0168212
738.966	0.0168085
739.044	0.0168118
739.122	0.0168987
739.200	0.0167821
739.279	0.0168195
739.357	0.0168591
739.435	0.0167043
739.513	0.0167990
739.591	0.0167110
739.669	0.0165750
739.747	0.0165875
739.825	0.0165145
739.904	0.0165000
739.982	0.0164867
740.060	0.0165154
740.138	0.0165881
740.216	0.0164740
740.294	0.0164628
740.372	0.0163488
740.450	0.0165337
740.529	0.0164722
740.607	0.0166499
740.685	0.0166090
740.763	0.0165429
740.841	0.0166951
740.919	0.0166313
740.997	0.0167440
741.075	0.0167498
741.154	0.0168512
741.232	0.0169901
741.310	0.0170415
741.388	0.0170879
741.466	0.0171104
741.544	0.0170116
741.622	0.0170911
741.700	0.0171417
741.779	0.0172155
741.857	0.0172108
741.935	0.0170785
742.013	0.0171677
742.091	0.0171292
742.169	0.0171908
742.247	0.0170724
742.325	0.0169822
742.404	0.0168813
742.482	0.0169434
742.560	0.0170655
742.638	0.0167945
742.716	0.0168893
742.794	0.0169344
742.872	0.0166964
742.950	0.0167177
743.029	0.0166815
743.107	0.0165632
743.185	0.0166266
743.263	0.0165364
743.341	0.0165712
743.419	0.0166036
743.497	0.0165482
743.575	0.0166389
743.654	0.0166632
743.732	0.0167058
743.810	0.0166050
743.888	0.0165995
743.966	0.0166133
744.044	0.0167243
744.122	0.0168169
744.200	0.0167588
744.279	0.0167448
744.357	0.0167197
744.435	0.0169226
744.513	0.0167648
744.591	0.0169965
744.669	0.0170391
744.747	0.0170697
744.825	0.0171018
744.904	0.0170945
744.982	0.0170029
745.060	0.0170772
745.138	0.0172153
745.216	0.0170985
745.294	0.0170075
745.372	0.0169889
745.450	0.0169659
745.529	0.0169214
745.607	0.0170584
745.685	0.0168103
745.763	0.0167325
745.841	0.0168231
745.919	0.0165665
745.997	0.0163940
746.075	0.0166034
746.154	0.0164973
746.232	0.0164536
746.310	0.0164866
746.388	0.0165267
746.466	0.0165079
746.544	0.0164837
746.622	0.0164565
746.700	0.0165050
746.779	0.0166869
746.857	0.0165633
746.935	0.0165030
747.013	0.0165691
747.091	0.0165958
747.169	0.0167042
747.247	0.0168735
747.325	0.0169403
747.404	0.0171037
747.482	0.0171347
747.560	0.0170083
747.638	0.0171876
747.716	0.0170358
747.794	0.0169230
747.872	0.0171282
747.950	0.0171146
748.029	0.0171058
748.107	0.0170408
748.185	0.0169238
748.263	0.0169574
748.341	0.0168350
748.419	0.0168960
748.497	0.0167654
748.575	0.0164444
748.654	0.0165711
748.732	0.0165626
748.810	0.0165553
748.888	0.0165142
748.966	0.0164432
749.044	0.0165456
749.122	0.0165797
749.200	0.0166035
749.279	0.0167150
749.357	0.0166676
749.435	0.0167748
749.513	0.0169067
749.591	0.0169679
749.669	0.0171082
749.747	0.0171669
749.825	0.0170878
749.904	0.0171914
749.982	0.0173345
750.060	0.0171960
750.138	0.0171526
750.216	0.0171500
750.294	0.0171803
750.372	0.0171725
750.450	0.0169977
750.529	0.0168512
750.607	0.0168691
750.685	0.0169231
750.763	0.0169210
750.841	0.0167432
750.919	0.0166558
750.997	0.0166228
751.075	0.0166351
751.154	0.0165582
751.232	0.0166236
751.310	0.0164381
751.388	0.0165032
751.466	0.0165491
751.544	0.0164802
751.622	0.0165235
751.700	0.0166111
751.779	0.0165672
751.857	0.0165998
751.935	0.0166695
752.013	0.0166662
752.091	0.0167484
752.169	0.0168100
752.247	0.0169642
752.325	0.0169791
752.404	0.0170573
752.482	0.0171882
752.560	0.0170481
752.638	0.0171474
752.716	0.0172629
752.794	0.0173438
752.872	0.0170748
752.950	0.0170861
753.029	0.0171852
753.107	0.0170493
753.185	0.0169989
753.263	0.0169836
753.341	0.0169539
753.419	0.0169407
753.497	0.0167692
753.575	0.0168330
753.654	0.0166660
753.732	0.0166649
753.810	0.0165487
753.888	0.0167066
753.966	0.0165807
754.044	0.0166039
754.122	0.0166222
754.200	0.0166739
754.279	0.0166064
754.357	0.0166096
754.435	0.0167478
754.513	0.0165424
754.591	0.0166563
754.669	0.0167712
754.747	0.0166604
754.825	0.0166642
754.904	0.0168140
754.982	0.0168447
755.060	0.0169092
755.138	0.0167498
755.216	0.0168587
755.294	0.0169798
755.372	0.0168388
755.450	0.0169319
755.529	0.0169315
755.607	0.0167804
755.685	0.0168345
755.763	0.0168276
755.841	0.0167328
755.919	0.0168894
755.997	0.0168063
756.075	0.0167902
756.154	0.0170385
756.232	0.0170023
756.310	0.0167932
756.388	0.0168108
756.466	0.0167570
756.544	0.0167122
756.622	0.0166511
756.700	0.0167290
756.779	0.0166885
756.857	0.0166451
756.935	0.0165627
757.013	0.0166644
757.091	0.0166551
757.169	0.0166560
757.247	0.0166759
757.325	0.0166047
757.404	0.0166115
757.482	0.0166244
757.560	0.0166230
757.638	0.0168237
757.716	0.0168410
757.794	0.0168761
757.872	0.0170560
757.950	0.0170002
758.029	0.0168527
758.107	0.0169684
758.185	0.0169624
758.263	0.0171157
758.341	0.0170551
758.419	0.0170331
758.497	0.0170425
758.575	0.0169995
758.654	0.0169357
758.732	0.0169016
758.810	0.0169100
758.888	0.0168211
758.966	0.0167407
759.044	0.0167055
759.122	0.0166663
759.200	0.0167627
759.279	0.0167779
759.357	0.0166428
759.435	0.0166520
759.513	0.0165482
759.591	0.0164728
759.669	0.0164262
759.747	0.0164489
759.825	0.0165072
759.904	0.0164636
759.982	0.0165134
760.060	0.0165823
760.138	0.0165367
760.216	0.0164864
760.294	0.0166424
760.372	0.0166162
760.450	0.0168320
760.529	0.0167862
760.607	0.0167887
760.685	0.0169101
760.763	0.0167996
760.841	0.0168182
760.919	0.0168968
760.997	0.0169199
761.075	0.0169594
761.154	0.0169042
761.232	0.0169848
761.310	0.0169460
761.388	0.0169260
761.466	0.0168906
761.544	0.0169010
761.622	0.0168093
761.700	0.0169279
761.779	0.0169272
761.857	0.0169757
761.935	0.0167169
762.013	0.0167607
762.091	0.0167157
762.169	0.0168070
762.247	0.0166824
762.325	0.0166896
762.404	0.0165592
762.482	0.0165769
762.560	0.0167542
762.638	0.0166670
762.716	0.0167572
762.794	0.0166604
762.872	0.0165619
762.950	0.0166460
763.029	0.0165263
763.107	0.0165022
763.185	0.0166019
763.263	0.0165131
763.341	0.0164130
763.419	0.0164498
763.497	0.0165983
763.575	0.0164611
763.654	0.0165700
763.732	0.0165826
763.810	0.0166068
763.888	0.0166209
763.966	0.0166884
764.044	0.0167907
764.122	0.0169421
764.200	0.0169283
764.279	0.0169965
764.357	0.0170989
764.435	0.0170287
764.513	0.0171163
764.591	0.0174164
764.669	0.0173235
764.747	0.0171642
764.825	0.0173183
764.904	0.0171780
764.982	0.0171799
765.060	0.0171134
765.138	0.0170213
765.216	0.0168576
765.294	0.0169585
765.372	0.0167486
765.450	0.0167092
765.529	0.0167345
765.607	0.0165594
765.685	0.0164942
765.763	0.0164804
765.841	0.0163908
765.919	0.0163427
765.997	0.0164097
766.075	0.0163802
766.154	0.0165137
766.232	0.0163017
766.310	0.0165331
766.388	0.0166027
766.466	0.0165806
766.544	0.0167110
766.622	0.0168391
766.700	0.0168288
766.779	0.0167690
766.857	0.0169250
766.935	0.0169625
767.013	0.0168845
767.091	0.0168922
767.169	0.0169911
767.247	0.0171625
767.325	0.0171241
767.404	0.0170683
767.482	0.0169776
767.560	0.0169976
767.638	0.0170960
767.716	0.0169087
767.794	0.0170687
767.872	0.0170467
767.950	0.0169112
768.029	0.0169534
768.107	0.0169647
768.185	0.0171100
768.263	0.0168658
768.341	0.0169243
768.419	0.0168370
768.497	0.0166794
768.575	0.0166417
768.654	0.0167229
768.732	0.0167182
768.810	0.0166265
768.888	0.0165012
768.966	0.0167772
769.044	0.0165308
769.122	0.0165239
769.200	0.0166064
769.279	0.0167383
769.357	0.0168080
769.435	0.0165700
769.513	0.0166505
769.591	0.0166512
769.669	0.0167097
769.747	0.0168024
769.825	0.0166567
769.904	0.0167120
769.982	0.0168877
770.060	0.0168678
770.138	0.0168916
770.216	0.0169244
770.294	0.0168533
770.372	0.0170061
770.450	0.0170193
770.529	0.0170349
770.607	0.0169742
770.685	0.0170033
770.763	0.0170815
770.841	0.0169984
770.919	0.0170862
770.997	0.0170353
771.075	0.0169539
771.154	0.0169212
771.232	0.0168991
771.310	0.0168435
771.388	0.0166182
771.466	0.0167435
771.544	0.0164286
771.622	0.0165359
771.700	0.0165984
771.779	0.0164589
771.857	0.0162820
771.935	0.0162849
772.013	0.0163306
772.091	0.0162685
772.169	0.0164497
772.247	0.0164992
772.325	0.0165100
772.404	0.0165469
772.482	0.0166986
772.560	0.0167266
772.638	0.0168088
772.716	0.0169284
772.794	0.0168630
772.872	0.0169751
772.950	0.0171408
773.029	0.0170676
773.107	0.0171780
773.185	0.0172920
773.263	0.0172100
773.341	0.0171616
773.419	0.0172664
773.497	0.0170924
773.575	0.0173003
773.654	0.0171304
773.732	0.0170293
773.810	0.0169837
773.888	0.0170506
773.966	0.0169324
774.044	0.0168254
774.122	0.0167266
774.200	0.0166961
774.279	0.0166781
774.357	0.0165910
774.435	0.0166933
774.513	0.0166531
774.591	0.0165200
774.669	0.0165617
774.747	0.0165453
774.825	0.0165974
774.904	0.0166521
774.982	0.0164648
775.060	0.0165927
775.138	0.0166224
775.216	0.0166333
775.294	0.0168829
775.372	0.0166276
775.450	0.0166943
775.529	0.0168780
775.607	0.0169275
775.685	0.0169814
775.763	0.0170812
775.841	0.0170300
775.919	0.0169341
775.997	0.0172060
776.075	0.0171749
776.154	0.0171011
776.232	0.0169633
776.310	0.0172513
776.388	0.0170967
776.466	0.0170952
776.544	0.0171302
776.622	0.0170924
776.700	0.0170548
776.779	0.0168665
776.857	0.0169071
776.935	0.0168761
777.013	0.0169587
777.091	0.0167735
777.169	0.0167795
777.247	0.0166928
777.325	0.0165560
777.404	0.0166450
777.482	0.0164970
777.560	0.0164022
777.638	0.0165253
777.716	0.0164262
777.794	0.0164014
777.872	0.0164277
777.950	0.0164797
778.029	0.0164919
778.107	0.0165314
778.185	0.0165936
778.263	0.0166344
778.341	0.0166835
778.419	0.0166838
778.497	0.0167672
778.575	0.0168320
778.654	0.0167997
778.732	0.0168364
778.810	0.0169386
778.888	0.0169328
778.966	0.0169924
779.044	0.0170210
779.122	0.0171124
779.200	0.0171687
779.279	0.0169669
779.357	0.0170663
779.435	0.0170908
779.513	0.0171421
779.591	0.0171257
779.669	0.0169208
779.747	0.0170126
779.825	0.0170508
779.904	0.0169841
779.982	0.0168605
780.060	0.0168089
780.138	0.0167140
780.216	0.0166618
780.294	0.0166313
780.372	0.0166843
780.450	0.0165907
780.529	0.0166017
780.607	0.0165173
780.685	0.0166409
780.763	0.0165616
780.841	0.0165209
780.919	0.0164216
780.997	0.0165527
781.075	0.0166506
781.154	0.0166866
781.232	0.0166318
781.310	0.0166557
781.388	0.0167063
781.466	0.0166541
781.544	0.0166412
781.622	0.0168468
781.700	0.0168944
781.779	0.0168904
781.857	0.0169727
781.935	0.0169711
782.013	0.0170517
782.091	0.0169726
782.169	0.0169465
782.247	0.0169858
782.325	0.0170681
782.404	0.0171115
782.482	0.0169135
782.560	0.0169373
782.638	0.0168712
782.716	0.0169058
782.794	0.0168944
782.872	0.0168668
782.950	0.0168440
783.029	0.0168315
783.107	0.0168858
783.185	0.0167606
783.263	0.0166999
783.341	0.0167883
783.419	0.0169125
783.497	0.0166273
783.575	0.0166994
783.654	0.0166296
783.732	0.0165992
783.810	0.0165165
783.888	0.0164096
783.966	0.0163986
784.044	0.0163475
784.122	0.0164014
784.200	0.0163880
784.279	0.0162928
784.357	0.0161113
784.435	0.0163120
784.513	0.0164902
784.591	0.0164624
784.669	0.0165718
784.747	0.0167919
784.825	0.0168296
784.904	0.0168375
784.982	0.0167918
785.060	0.0171118
785.138	0.0170494
785.216	0.0170703
785.294	0.0170721
785.372	0.0170912
785.450	0.0171464
785.529	0.0172874
785.607	0.0171538
785.685	0.0171590
785.763	0.0172513
785.841	0.0171544
785.919	0.0171185
785.997	0.0170824
786.075	0.0170943
786.154	0.0167765
786.232	0.0168275
786.310	0.0166450
786.388	0.0167473
786.466	0.0166518
786.544	0.0165150
786.622	0.0163203
786.700	0.0164010
786.779	0.0165044
786.857	0.0163486
786.935	0.0163689
787.013	0.0162001
787.091	0.0163535
787.169	0.0162312
787.247	0.0162436
787.325	0.0162922
787.404	0.0162101
787.482	0.0163270
787.560	0.0163604
787.638	0.0163267
787.716	0.0165618
787.794	0.0165234
787.872	0.0165928
787.950	0.0168623
788.029	0.0167941
788.107	0.0167960
788.185	0.0170156
788.263	0.0170176
788.341	0.0170787
788.419	0.0170728
788.497	0.0170144
788.575	0.0172981
788.654	0.0171604
788.732	0.0170808
788.810	0.0171640
788.888	0.0170315
788.966	0.0169939
789.044	0.0170762
789.122	0.0171546
789.200	0.0169556
789.279	0.0170930
789.357	0.0171648
789.435	0.0170634
789.513	0.0169016
789.591	0.0168964
789.669	0.0169099
789.747	0.0168623
789.825	0.0167828
789.904	0.0166947
789.982	0.0165878
790.060	0.0166061
790.138	0.0166037
790.216	0.0164875
790.294	0.0164160
790.372	0.0164576
790.450	0.0163840
790.529	0.0165385
790.607	0.0166125
790.685	0.0165488
790.763	0.0166497
790.841	0.0167380
790.919	0.0167753
790.997	0.0168068
791.075	0.0170245
791.154	0.0170042
791.232	0.0169213
791.310	0.0169569
791.388	0.0171213
791.466	0.0171321
791.544	0.0169354
791.622	0.0169275
791.700	0.0170106
791.779	0.0168967
791.857	0.0169920
791.935	0.0169193
792.013	0.0169300
792.091	0.0169046
792.169	0.0168666
792.247	0.0168784
792.325	0.0167330
792.404	0.0167712
792.482	0.0168787
792.560	0.0168357
792.638	0.0168399
792.716	0.0165153
792.794	0.0166054
792.872	0.0165849
792.950	0.0165877
793.029	0.0165057
793.107	0.0165036
793.185	0.0165519
793.263	0.0163463
793.341	0.0164568
793.419	0.0165195
793.497	0.0163290
793.575	0.0166541
793.654	0.0165512
793.732	0.0167750
793.810	0.0167606
793.888	0.0167504
793.966	0.0168303
794.044	0.0170264
794.122	0.0169681
794.200	0.0170214
794.279	0.0169998
794.357	0.0170948
794.435	0.0170511
794.513	0.0168307
794.591	0.0168501
794.669	0.0168645
794.747	0.0168974
794.825	0.0171104
794.904	0.0169232
794.982	0.0169051
795.060	0.0168501
795.138	0.0169415
795.216	0.0168590
795.294	0.0168520
795.372	0.0166930
795.450	0.0166164
795.529	0.0168348
795.607	0.0167242
795.685	0.0166891
795.763	0.0166180
795.841	0.0165779
795.919	0.0163660
795.997	0.0164217
796.075	0.0164464
796.154	0.0163722
796.232	0.0166085
796.310	0.0165007
796.388	0.0165508
796.466	0.0167194
796.544	0.0167402
796.622	0.0166852
796.700	0.0167995
796.779	0.0167648
796.857	0.0169208
796.935	0.0169926
797.013	0.0169255
797.091	0.0169563
797.169	0.0170712
797.247	0.0170104
797.325	0.0170532
797.404	0.0169877
797.482	0.0170493
797.560	0.0170293
797.638	0.0170087
797.716	0.0170742
797.794	0.0170909
797.872	0.0169566
797.950	0.0169376
798.029	0.0170386
798.107	0.0170087
798.185	0.0170835
798.263	0.0170567
798.341	0.0169064
798.419	0.0169121
798.497	0.0168378
798.575	0.0167416
798.654	0.0166545
798.732	0.0167587
798.810	0.0165543
798.888	0.0164751
798.966	0.0165350
799.044	0.0164317
799.122	0.0164478
799.200	0.0163704
799.279	0.0165076
799.357	0.0164220
799.435	0.0163976
799.513	0.0163524
799.591	0.0165325
799.669	0.0165527
799.747	0.0166048
799.825	0.0167390
799.904	0.0166991
799.982	0.0166685
800.060	0.0167917
800.138	0.0167691
800.216	0.0167797
800.294	0.0169244
800.372	0.0169936
800.450	0.0169792
800.529	0.0169166
800.607	0.0170502
800.685	0.0170193
800.763	0.0170613
800.841	0.0169962
800.919	0.0169521
800.997	0.0169976
801.075	0.0169962
801.154	0.0170386
801.232	0.0169163
801.310	0.0169016
801.388	0.0169228
801.466	0.0170031
801.544	0.0169787
801.622	0.0169827
801.700	0.0167673
801.779	0.0169078
801.857	0.0168642
801.935	0.0168819
802.013	0.0168354
802.091	0.0168343
802.169	0.0169215
802.247	0.0167541
802.325	0.0167494
802.404	0.0167763
802.482	0.0168380
802.560	0.0167456
802.638	0.0168317
802.716	0.0167627
802.794	0.0166837
802.872	0.0166936
802.950	0.0166363
803.029	0.0166325
803.107	0.0166535
803.185	0.0167056
803.263	0.0165969
803.341	0.0165592
803.419	0.0165721
803.497	0.0166990
803.575	0.0166607
803.654	0.0167066
803.732	0.0166208
803.810	0.0167915
803.888	0.0166754
803.966	0.0167697
804.044	0.0167024
804.122	0.0169062
804.200	0.0168448
804.279	0.0168751
804.357	0.0169206
804.435	0.0168711
804.513	0.0169108
804.591	0.0167918
804.669	0.0169606
804.747	0.0168214
804.825	0.0168279
804.904	0.0170426
804.982	0.0169685
805.060	0.0168958
805.138	0.0169015
805.216	0.0169283
805.294	0.0170090
805.372	0.0168884
805.450	0.0168884
805.529	0.0169624
805.607	0.0167999
805.685	0.0167510
805.763	0.0167104
805.841	0.0167284
805.919	0.0167754
805.997	0.0166570
806.075	0.0166111
806.154	0.0166812
806.232	0.0165833
806.310	0.0166887
806.388	0.0166144
806.466	0.0166007
806.544	0.0167022
806.622	0.0166378
806.700	0.0165586
806.779	0.0167725
806.857	0.0166343
806.935	0.0167703
807.013	0.0167786
807.091	0.0166040
807.169	0.0167218
807.247	0.0168464
807.325	0.0167658
807.404	0.0167672
807.482	0.0168560
807.560	0.0168849
807.638	0.0170076
807.716	0.0169799
807.794	0.0168465
807.872	0.0168573
807.950	0.0168407
808.029	0.0169853
808.107	0.0167818
808.185	0.0166655
808.263	0.0169226
808.341	0.0168542
808.419	0.0167192
808.497	0.0167873
808.575	0.0165725
808.654	0.0166276
808.732	0.0165018
808.810	0.0165253
808.888	0.0165701
808.966	0.0164731
809.044	0.0163253
809.122	0.0164284
809.200	0.0165260
809.279	0.0163386
809.357	0.0165276
809.435	0.0164347
809.513	0.0163779
809.591	0.0164368
809.669	0.0165189
809.747	0.0164899
809.825	0.0164458
809.904	0.0166592
809.982	0.0166635
810.060	0.0165970
810.138	0.0167437
810.216	0.0168913
810.294	0.0169429
810.372	0.0169990
810.450	0.0169555
810.529	0.0171168
810.607	0.0172243
810.685	0.0172095
810.763	0.0171693
810.841	0.0172292
810.919	0.0171667
810.997	0.0170771
811.075	0.0171314
811.154	0.0169981
811.232	0.0169562
811.310	0.0169244
811.388	0.0168700
811.466	0.0166531
811.544	0.0168124
811.622	0.0166186
811.700	0.0166735
811.779	0.0167482
811.857	0.0165703
811.935	0.0165517
812.013	0.0165884
812.091	0.0165597
812.169	0.0166910
812.247	0.0166112
812.325	0.0165930
812.404	0.0166034
812.482	0.0164690
812.560	0.0165604
812.638	0.0166180
812.716	0.0164231
812.794	0.0166335
812.872	0.0165976
812.950	0.0165837
813.029	0.0167660
813.107	0.0168065
813.185	0.0168417
813.263	0.0167888
813.341	0.0167435
813.419	0.0167453
813.497	0.0169229
813.575	0.0168262
813.654	0.0168707
813.732	0.0168601
813.810	0.0168929
813.888	0.0169935
813.966	0.0169444
814.044	0.0169603
814.122	0.0169594
814.200	0.0169390
814.279	0.0170596
814.357	0.0169598
814.435	0.0169680
814.513	0.0169708
814.591	0.0170024
814.669	0.0168974
814.747	0.0168180
814.825	0.0168834
814.904	0.0168719
814.982	0.0167796
815.060	0.0167660
815.138	0.0166656
815.216	0.0166637
815.294	0.0167838
815.372	0.0166743
815.450	0.0168661
815.529	0.0167556
815.607	0.0166997
815.685	0.0166917
815.763	0.0168365
815.841	0.0167576
815.919	0.0168761
815.997	0.0167809
816.075	0.0167762
816.154	0.0167735
816.232	0.0168915
816.310	0.0169318
816.388	0.0168801
816.466	0.0168523
816.544	0.0168319
816.622	0.0169011
816.700	0.0168593
816.779	0.0169599
816.857	0.0167939
816.935	0.0167068
817.013	0.0166074
817.091	0.0168336
817.169	0.0166715
817.247	0.0167175
817.325	0.0165756
817.404	0.0167503
817.482	0.0167146
817.560	0.0166432
817.638	0.0166195
817.716	0.0166405
817.794	0.0166936
817.872	0.0166594
817.950	0.0166901
818.029	0.0166235
818.107	0.0166000
818.185	0.0166155
818.263	0.0166871
818.341	0.0167671
818.419	0.0166593
818.497	0.0167390
818.575	0.0167146
818.654	0.0167402
818.732	0.0167094
818.810	0.0168876
818.888	0.0169153
818.966	0.0168166
819.044	0.0168391
819.122	0.0170351
819.200	0.0169384
819.279	0.0170840
819.357	0.0170502
819.435	0.0169342
819.513	0.0168987
819.591	0.0168736
819.669	0.0170036
819.747	0.0169404
819.825	0.0169410
819.904	0.0167177
819.982	0.0167381
820.060	0.0168712
820.138	0.0167740
820.216	0.0166721
820.294	0.0167137
820.372	0.0165702
820.450	0.0166486
820.529	0.0166174
820.607	0.0165533
820.685	0.0166573
820.763	0.0165665
820.841	0.0165258
820.919	0.0166441
820.997	0.0167138
821.075	0.0167294
821.154	0.0167739
821.232	0.0167403
821.310	0.0168011
821.388	0.0167943
821.466	0.0167888
821.544	0.0168035
821.622	0.0169006
821.700	0.0169674
821.779	0.0170226
821.857	0.0170692
821.935	0.0171446
822.013	0.0173085
822.091	0.0170008
822.169	0.0171254
822.247	0.0171376
822.325	0.0172240
822.404	0.0170845
822.482	0.0170100
822.560	0.0171223
822.638	0.0171629
822.716	0.0169273
822.794	0.0168970
822.872	0.0168797
822.950	0.0168068
823.029	0.0169781
823.107	0.0168061
823.185	0.0168625
823.263	0.0167469
823.341	0.0166576
823.419	0.0167455
823.497	0.0166510
823.575	0.0166425
823.654	0.0165879
823.732	0.0166666
823.810	0.0166089
823.888	0.0165325
823.966	0.0164336
824.044	0.0165588
824.122	0.0166620
824.200	0.0165878
824.279	0.0166694
824.357	0.0165576
824.435	0.0165608
824.513	0.0168501
824.591	0.0169930
824.669	0.0167732
824.747	0.0168087
824.825	0.0169106
824.904	0.0168978
824.982	0.0169602
825.060	0.0169408
825.138	0.0170422
825.216	0.0169374
825.294	0.0169812
825.372	0.0169140
825.450	0.0169488
825.529	0.0170183
825.607	0.0169013
825.685	0.0167684
825.763	0.0167947
825.841	0.0169206
825.919	0.0168729
825.997	0.0168931
826.075	0.0168530
826.154	0.0169249
826.232	0.0167496
826.310	0.0168504
826.388	0.0167938
826.466	0.0167058
826.544	0.0166967
826.622	0.0167289
826.700	0.0169532
826.779	0.0166518
826.857	0.0165984
826.935	0.0165678
827.013	0.0166666
827.091	0.0166450
827.169	0.0168580
827.247	0.0167935
827.325	0.0167130
827.404	0.0168704
827.482	0.0167319
827.560	0.0168108
827.638	0.0167604
827.716	0.0168149
827.794	0.0167889
827.872	0.0169056
827.950	0.0169075
828.029	0.0169271
828.107	0.0170590
828.185	0.0169218
828.263	0.0169147
828.341	0.0169227
828.419	0.0169199
828.497	0.0167858
828.575	0.0168629
828.654	0.0168024
828.732	0.0168952
828.810	0.0168086
828.888	0.0168246
828.966	0.0167803
829.044	0.0168384
829.122	0.0168053
829.200	0.0165941
829.279	0.0168804
829.357	0.0169137
829.435	0.0166650
829.513	0.0166508
829.591	0.0167076
829.669	0.0166348
829.747	0.0166364
829.825	0.0168401
829.904	0.0166943
829.982	0.0167609
830.060	0.0167053
830.138	0.0168377
830.216	0.0168750
830.294	0.0167098
830.372	0.0168516
830.450	0.0168031
830.529	0.0169005
830.607	0.0169040
830.685	0.0169079
830.763	0.0170763
830.841	0.0169830
830.919	0.0168342
830.997	0.0170213
831.075	0.0170423
831.154	0.0171648
831.232	0.0170668
831.310	0.0170667
831.388	0.0170025
831.466	0.0169884
831.544	0.0169261
831.622	0.0168618
831.700	0.0168449
831.779	0.0169297
831.857	0.0168945
831.935	0.0168258
832.013	0.0166496
832.091	0.0166602
832.169	0.0166030
832.247	0.0167111
832.325	0.0166554
832.404	0.0166570
832.482	0.0164859
832.560	0.0165633
832.638	0.0168057
832.716	0.0167747
832.794	0.0166402
832.872	0.0165902
832.950	0.0166914
833.029	0.0167548
833.107	0.0167499
833.185	0.0166808
833.263	0.0167788
833.341	0.0169552
833.419	0.0168291
833.497	0.0170101
833.575	0.0167838
833.654	0.0168902
833.732	0.0169588
833.810	0.0169878
833.888	0.0168497
833.966	0.0170396
834.044	0.0168520
834.122	0.0169151
834.200	0.0169956
834.279	0.0168983
834.357	0.0169881
834.435	0.0169447
834.513	0.0168599
834.591	0.0168462
834.669	0.0167860
834.747	0.0168542
834.825	0.0168138
834.904	0.0167605
834.982	0.0167500
835.060	0.0167257
835.138	0.0167203
835.216	0.0167920
835.294	0.0168562
835.372	0.0167534
835.450	0.0167606
835.529	0.0167233
835.607	0.0168520
835.685	0.0169647
835.763	0.0167730
835.841	0.0167750
835.919	0.0168421
835.997	0.0168140
836.075	0.0168286
836.154	0.0169501
836.232	0.0168856
836.310	0.0169691
836.388	0.0169071
836.466	0.0168516
836.544	0.0168689
836.622	0.0169237
836.700	0.0169492
836.779	0.0169519
836.857	0.0169880
836.935	0.0168552
837.013	0.0169036
837.091	0.0168825
837.169	0.0169102
837.247	0.0168435
837.325	0.0167670
837.404	0.0169008
837.482	0.0167594
837.560	0.0167858
837.638	0.0167896
837.716	0.0167292
837.794	0.0168168
837.872	0.0169106
837.950	0.0167429
838.029	0.0166404
838.107	0.0167962
838.185	0.0168832
838.263	0.0167312
838.341	0.0168401
838.419	0.0168319
838.497	0.0167562
838.575	0.0168493
838.654	0.0169160
838.732	0.0168487
838.810	0.0169444
838.888	0.0167993
838.966	0.0169081
839.044	0.0167786
839.122	0.0168340
839.200	0.0167756
839.279	0.0167906
839.357	0.0168951
839.435	0.0166726
839.513	0.0167735
839.591	0.0168279
839.669	0.0168205
839.747	0.0167746
839.825	0.0167460
839.904	0.0167517
839.982	0.0167161
840.060	0.0167087
840.138	0.0167627
840.216	0.0168602
840.294	0.0167306
840.372	0.0168578
840.450	0.0167439
840.529	0.0167252
840.607	0.0167228
840.685	0.0168303
840.763	0.0167307
840.841	0.0167445
840.919	0.0167735
840.997	0.0169365
841.075	0.0168782
841.154	0.0168051
841.232	0.0166878
841.310	0.0169215
841.388	0.0169740
841.466	0.0168562
841.544	0.0168929
841.622	0.0167978
841.700	0.0166920
841.779	0.0168027
841.857	0.0169601
841.935	0.0169198
842.013	0.0167545
842.091	0.0168560
842.169	0.0166891
842.247	0.0167918
842.325	0.0169387
842.404	0.0169044
842.482	0.0168255
842.560	0.0167737
842.638	0.0167508
842.716	0.0168689
842.794	0.0168756
842.872	0.0169859
842.950	0.0169286
843.029	0.0169037
843.107	0.0168619
843.185	0.0167918
843.263	0.0169051
843.341	0.0169550
843.419	0.0168958
843.497	0.0168997
843.575	0.0169852
843.654	0.0170051
843.732	0.0168925
843.810	0.0169719
843.888	0.0168727
843.966	0.0168970
844.044	0.0168572
844.122	0.0169001
844.200	0.0169038
844.279	0.0167411
844.357	0.0168191
844.435	0.0168063
844.513	0.0168202
844.591	0.0167689
844.669	0.0168244
844.747	0.0166685
844.825	0.0166713
844.904	0.0168279
844.982	0.0168382
845.060	0.0168414
845.138	0.0168259
845.216	0.0168959
845.294	0.0169305
845.372	0.0168576
845.450	0.0168772
845.529	0.0169398
845.607	0.0168338
845.685	0.0168495
845.763	0.0171516
845.841	0.0169649
845.919	0.0168739
845.997	0.0168942
846.075	0.0169349
846.154	0.0168617
846.232	0.0170210
846.310	0.0167693
846.388	0.0170789
846.466	0.0169818
846.544	0.0169444
846.622	0.0169959
846.700	0.0169876
846.779	0.0169926
846.857	0.0170643
846.935	0.0170518
847.013	0.0169502
847.091	0.0170373
847.169	0.0169859
847.247	0.0169579
847.325	0.0169355
847.404	0.0169957
847.482	0.0168862
847.560	0.0169016
847.638	0.0169292
847.716	0.0168307
847.794	0.0167434
847.872	0.0168890
847.950	0.0167573
848.029	0.0167529
848.107	0.0167109
848.185	0.0167310
848.263	0.0166431
848.341	0.0166492
848.419	0.0166104
848.497	0.0166483
848.575	0.0166879
848.654	0.0168081
848.732	0.0166056
848.810	0.0166484
848.888	0.0168124
848.966	0.0168623
849.044	0.0169759
849.122	0.0169016
849.200	0.0170064
849.279	0.0170120
849.357	0.0170156
849.435	0.0170423
849.513	0.0171786
849.591	0.0170868
849.669	0.0171543
849.747	0.0171606
849.825	0.0170286
849.904	0.0170079
849.982	0.0169242
850.060	0.0169417
850.138	0.0167918
850.216	0.0168634
850.294	0.0168602
850.372	0.0166153
850.450	0.0166049
850.529	0.0166956
850.607	0.0165415
850.685	0.0164978
850.763	0.0165663
850.841	0.0165696
850.919	0.0166993
850.997	0.0164780
851.075	0.0165986
851.154	0.0167959
851.232	0.0166731
851.310	0.0167535
851.388	0.0168292
851.466	0.0168664
851.544	0.0169182
851.622	0.0170845
851.700	0.0171053
851.779	0.0169251
851.857	0.0169702
851.935	0.0171498
852.013	0.0171263
852.091	0.0171224
852.169	0.0172418
852.247	0.0171438
852.325	0.0170403
852.404	0.0169745
852.482	0.0171703
852.560	0.0170203
852.638	0.0169400
852.716	0.0170475
852.794	0.0168978
852.872	0.0169046
852.950	0.0167403
853.029	0.0164561
853.107	0.0166986
853.185	0.0168011
853.263	0.0167325
853.341	0.0166713
853.419	0.0164830
853.497	0.0165431
853.575	0.0166835
853.654	0.0165529
853.732	0.0165630
853.810	0.0165012
853.888	0.0166651
853.966	0.0166751
854.044	0.0166169
854.122	0.0165948
854.200	0.0167554
854.279	0.0168325
854.357	0.0167796
854.435	0.0167895
854.513	0.0169872
854.591	0.0170087
854.669	0.0168603
854.747	0.0168305
854.825	0.0169975
854.904	0.0169045
854.982	0.0170115
855.060	0.0169235
855.138	0.0169964
855.216	0.0169288
855.294	0.0170349
855.372	0.0169024
855.450	0.0169854
855.529	0.0169144
855.607	0.0169998
855.685	0.0168303
855.763	0.0167278
855.841	0.0167412
855.919	0.0167847
855.997	0.0167190
856.075	0.0166807
856.154	0.0168443
856.232	0.0168341
856.310	0.0166776
856.388	0.0166242
856.466	0.0166843
856.544	0.0166372
856.622	0.0167784
856.700	0.0165903
856.779	0.0166898
856.857	0.0167326
856.935	0.0167012
857.013	0.0168453
857.091	0.0169056
857.169	0.0168280
857.247	0.0168751
857.325	0.0168443
857.404	0.0169270
857.482	0.0167736
857.560	0.0167839
857.638	0.0168530
857.716	0.0168755
857.794	0.0169894
857.872	0.0169453
857.950	0.0168799
858.029	0.0168745
858.107	0.0169281
858.185	0.0168789
858.263	0.0167761
858.341	0.0169188
858.419	0.0169366
858.497	0.0168450
858.575	0.0168612
858.654	0.0168491
858.732	0.0167003
858.810	0.0168253
858.888	0.0167758
858.966	0.0168364
859.044	0.0167752
859.122	0.0167643
859.200	0.0167888
859.279	0.0167281
859.357	0.0167178
859.435	0.0166711
859.513	0.0167410
859.591	0.0166645
859.669	0.0167936
859.747	0.0167260
859.825	0.0166165
859.904	0.0166541
859.982	0.0167563
860.060	0.0167340
860.138	0.0168610
860.216	0.0166956
860.294	0.0168472
860.372	0.0167537
860.450	0.0168816
860.529	0.0169307
860.607	0.0168532
860.685	0.0168376
860.763	0.0169796
860.841	0.0168863
860.919	0.0170021
860.997	0.0168303
861.075	0.0169573
861.154	0.0167801
861.232	0.0169382
861.310	0.0170311
861.388	0.0167405
861.466	0.0168348
861.544	0.0168908
861.622	0.0168756
861.700	0.0168509
861.779	0.0166518
861.857	0.0168159
861.935	0.0167056
862.013	0.0166938
862.091	0.0167409
862.169	0.0167208
862.247	0.0167721
862.325	0.0167950
862.404	0.0167643
862.482	0.0168226
862.560	0.0166048
862.638	0.0166513
862.716	0.0167276
862.794	0.0167329
862.872	0.0167558
862.950	0.0168568
863.029	0.0168625
863.107	0.0167093
863.185	0.0168858
863.263	0.0168441
863.341	0.0167382
863.419	0.0167797
863.497	0.0167835
863.575	0.0167787
863.654	0.0167773
863.732	0.0168688
863.810	0.0169093
863.888	0.0168633
863.966	0.0167825
864.044	0.0169035
864.122	0.0167448
864.200	0.0168378
864.279	0.0168288
864.357	0.0168460
864.435	0.0168414
864.513	0.0168172
864.591	0.0167938
864.669	0.0167733
864.747	0.0166734
864.825	0.0166943
864.904	0.0168272
864.982	0.0167155
865.060	0.0167393
865.138	0.0167121
865.216	0.0167023
865.294	0.0166813
865.372	0.0165923
865.450	0.0165703
865.529	0.0165616
865.607	0.0165585
865.685	0.0166782
865.763	0.0166876
865.841	0.0165991
865.919	0.0167766
865.997	0.0167121
866.075	0.0166613
866.154	0.0166942
866.232	0.0167707
866.310	0.0167679
866.388	0.0168805
866.466	0.0167490
866.544	0.0168466
866.622	0.0168964
866.700	0.0168202
866.779	0.0170148
866.857	0.0169653
866.935	0.0169707
867.013	0.0169392
867.091	0.0170293
867.169	0.0169996
867.247	0.0169563
867.325	0.0169335
867.404	0.0169672
867.482	0.0169193
867.560	0.0167154
867.638	0.0169830
867.716	0.0168833
867.794	0.0166707
867.872	0.0167659
867.950	0.0167662
868.029	0.0166421
868.107	0.0166519
868.185	0.0167432
868.263	0.0167896
868.341	0.0166139
868.419	0.0167165
868.497	0.0167350
868.575	0.0167710
868.654	0.0166302
868.732	0.0166783
868.810	0.0167052
868.888	0.0167253
868.966	0.0167404
869.044	0.0167722
869.122	0.0169276
869.200	0.0169144
869.279	0.0169418
869.357	0.0167726
869.435	0.0168267
869.513	0.0169183
869.591	0.0169587
869.669	0.0170125
869.747	0.0169504
869.825	0.0168624
869.904	0.0170056
869.982	0.0169370
870.060	0.0169049
870.138	0.0169381
870.216	0.0169304
870.294	0.0168242
870.372	0.0168405
870.450	0.0167629
870.529	0.0169294
870.607	0.0169138
870.685	0.0167512
870.763	0.0167672
870.841	0.0168548
870.919	0.0168683
870.997	0.0167396
871.075	0.0167015
871.154	0.0167094
871.232	0.0168334
871.310	0.0169247
871.388	0.0168847
871.466	0.0167554
871.544	0.0167860
871.622	0.0168812
871.700	0.0168331
871.779	0.0167432
871.857	0.0168317
871.935	0.0167821
872.013	0.0167731
872.091	0.0167608
872.169	0.0167263
872.247	0.0167097
872.325	0.0167388
872.404	0.0168597
872.482	0.0169585
872.560	0.0168961
872.638	0.0166895
872.716	0.0167764
872.794	0.0167349
872.872	0.0167376
872.950	0.0167009
873.029	0.0167693
873.107	0.0168504
873.185	0.0167451
873.263	0.0167913
873.341	0.0166772
873.419	0.0167516
873.497	0.0168462
873.575	0.0168705
873.654	0.0167513
873.732	0.0165498
873.810	0.0166868
873.888	0.0166375
873.966	0.0165470
874.044	0.0167384
874.122	0.0166918
874.200	0.0166341
874.279	0.0167043
874.357	0.0165778
874.435	0.0166724
874.513	0.0167571
874.591	0.0166924
874.669	0.0166903
874.747	0.0167980
874.825	0.0168797
874.904	0.0168244
874.982	0.0166808
875.060	0.0167342
875.138	0.0169025
875.216	0.0168053
875.294	0.0169573
875.372	0.0168919
875.450	0.0168334
875.529	0.0168291
875.607	0.0169528
875.685	0.0169444
875.763	0.0169598
875.841	0.0169175
875.919	0.0168512
875.997	0.0168984
876.075	0.0167153
876.154	0.0167492
876.232	0.0168176
876.310	0.0168017
876.388	0.0168967
876.466	0.0168246
876.544	0.0168735
876.622	0.0168559
876.700	0.0168915
876.779	0.0168798
876.857	0.0167202
876.935	0.0167417
877.013	0.0167495
877.091	0.0167010
877.169	0.0166806
877.247	0.0164503
877.325	0.0165991
877.404	0.0166109
877.482	0.0167693
877.560	0.0166642
877.638	0.0166354
877.716	0.0167910
877.794	0.0168097
877.872	0.0168585
877.950	0.0168946
878.029	0.0168246
878.107	0.0168909
878.185	0.0167660
878.263	0.0168230
878.341	0.0166862
878.419	0.0167056
878.497	0.0169323
878.575	0.0168521
878.654	0.0167789
878.732	0.0168350
878.810	0.0170691
878.888	0.0169426
878.966	0.0171329
879.044	0.0170597
879.122	0.0171016
879.200	0.0170615
879.279	0.0169276
879.357	0.0168596
879.435	0.0169276
879.513	0.0168387
879.591	0.0166339
879.669	0.0165763
879.747	0.0166677
879.825	0.0166750
879.904	0.0167248
879.982	0.0166031
880.060	0.0167902
880.138	0.0169147
880.216	0.0169350
880.294	0.0168776
880.372	0.0169955
880.450	0.0169350
880.529	0.0169552
880.607	0.0168043
880.685	0.0167284
880.763	0.0165935
880.841	0.0165221
880.919	0.0164527
880.997	0.0163885
881.075	0.0162129
881.154	0.0162219
881.232	0.0162826
881.310	0.0164962
881.388	0.0164452
881.466	0.0164358
881.544	0.0166334
881.622	0.0166715
881.700	0.0167907
881.779	0.0168649
881.857	0.0169389
881.935	0.0170167
882.013	0.0170284
882.091	0.0170968
882.169	0.0171368
882.247	0.0171349
882.325	0.0170493
882.404	0.0171507
882.482	0.0170489
882.560	0.0169936
882.638	0.0169963
882.716	0.0166630
882.794	0.0167113
882.872	0.0168212
882.950	0.0167044
883.029	0.0168361
883.107	0.0167258
883.185	0.0167642
883.263	0.0168296
883.341	0.0167773
883.419	0.0168183
883.497	0.0167714
883.575	0.0166604
883.654	0.0166411
883.732	0.0165191
883.810	0.0165739
883.888	0.0164558
883.966	0.0162241
884.044	0.0163636
884.122	0.0163110
884.200	0.0164007
884.279	0.0164939
884.357	0.0167229
884.435	0.0166821
884.513	0.0168398
884.591	0.0171446
884.669	0.0171118
884.747	0.0171371
884.825	0.0173786
884.904	0.0174706
884.982	0.0173713
885.060	0.0174479
885.138	0.0173940
885.216	0.0172124
885.294	0.0171146
885.372	0.0170527
885.450	0.0169622
885.529	0.0166574
885.607	0.0162946
885.685	0.0163715
885.763	0.0162232
885.841	0.0160979
885.919	0.0162640
885.997	0.0162985
886.075	0.0162659
886.154	0.0164047
886.232	0.0165565
886.310	0.0165700
886.388	0.0167612
886.466	0.0169643
886.544	0.0169360
886.622	0.0172578
886.700	0.0170981
886.779	0.0171835
886.857	0.0172298
886.935	0.0172299
887.013	0.0171720
887.091	0.0171069
887.169	0.0169602
887.247	0.0168311
887.325	0.0168877
887.404	0.0166521
887.482	0.0167616
887.560	0.0165852
887.638	0.0166955
887.716	0.0165569
887.794	0.0166341
887.872	0.0165962
887.950	0.0166104
888.029	0.0164619
888.107	0.0164505
888.185	0.0164859
888.263	0.0163506
888.341	0.0165575
888.419	0.0164686
888.497	0.0164651
888.575	0.0165157
888.654	0.0168894
888.732	0.0166388
888.810	0.0165931
888.888	0.0166811
888.966	0.0167732
889.044	0.0168567
889.122	0.0170325
889.200	0.0171199
889.279	0.0170386
889.357	0.0171790
889.435	0.0173119
889.513	0.0170993
889.591	0.0171383
889.669	0.0169189
889.747	0.0168964
889.825	0.0168259
889.904	0.0166327
889.982	0.0167206
890.060	0.0167313
890.138	0.0165157
890.216	0.0165437
890.294	0.0165427
890.372	0.0167775
890.450	0.0165984
890.529	0.0167570
890.607	0.0166752
890.685	0.0166073
890.763	0.0165927
890.841	0.0165530
890.919	0.0167181
890.997	0.0165965
891.075	0.0165607
891.154	0.0164720
891.232	0.0165820
891.310	0.0166214
891.388	0.0165646
891.466	0.0166338
891.544	0.0166359
891.622	0.0165469
891.700	0.0166518
891.779	0.0168007
891.857	0.0168002
891.935	0.0166759
892.013	0.0168458
892.091	0.0169566
892.169	0.0169748
892.247	0.0169093
892.325	0.0170159
892.404	0.0170556
892.482	0.0171337
892.560	0.0171937
892.638	0.0169021
892.716	0.0170418
892.794	0.0170937
892.872	0.0169774
892.950	0.0168772
893.029	0.0168810
893.107	0.0168201
893.185	0.0168706
893.263	0.0167358
893.341	0.0165567
893.419	0.0165065
893.497	0.0165044
893.575	0.0165723
893.654	0.0164478
893.732	0.0165232
893.810	0.0164618
893.888	0.0164513
893.966	0.0165162
894.044	0.0163803
894.122	0.0165499
894.200	0.0166003
894.279	0.0165282
894.357	0.0166611
894.435	0.0166458
894.513	0.0167365
894.591	0.0166778
894.669	0.0167477
894.747	0.0166745
894.825	0.0168816
894.904	0.0167965
894.982	0.0167709
895.060	0.0167536
895.138	0.0168982
895.216	0.0167965
895.294	0.0170194
895.372	0.0169321
895.450	0.0168098
895.529	0.0168182
895.607	0.0169373
895.685	0.0168689
895.763	0.0168922
895.841	0.0167795
895.919	0.0168612
895.997	0.0168393
896.075	0.0167997
896.154	0.0167197
896.232	0.0167184
896.310	0.0167184
896.388	0.0166225
896.466	0.0165446
896.544	0.0165376
896.622	0.0166236
896.700	0.0165465
896.779	0.0166119
896.857	0.0166413
896.935	0.0165541
897.013	0.0167029
897.091	0.0168462
897.169	0.0168520
897.247	0.0169370
897.325	0.0169820
897.404	0.0170355
897.482	0.0172720
897.560	0.0172430
897.638	0.0171473
897.716	0.0171373
897.794	0.0170646
897.872	0.0171918
897.950	0.0170666
898.029	0.0172011
898.107	0.0170154
898.185	0.0167817
898.263	0.0169062
898.341	0.0169997
898.419	0.0168728
898.497	0.0167988
898.575	0.0168964
898.654	0.0169016
898.732	0.0168123
898.810	0.0167928
898.888	0.0166324
898.966	0.0167068
899.044	0.0165666
899.122	0.0164788
899.200	0.0166012
899.279	0.0166428
899.357	0.0166038
899.435	0.0166526
899.513	0.0165177
899.591	0.0166581
899.669	0.0165759
899.747	0.0166864
899.825	0.0167664
899.904	0.0166686
899.982	0.0168078
900.060	0.0167007
900.138	0.0167765
900.216	0.0168785
900.294	0.0169418
900.372	0.0170202
900.450	0.0169596
900.529	0.0171413
900.607	0.0170985
900.685	0.0169749
900.763	0.0170868
900.841	0.0169698
900.919	0.0168245
900.997	0.0168493
901.075	0.0168867
901.154	0.0168001
901.232	0.0167349
901.310	0.0166370
901.388	0.0167124
901.466	0.0168350
901.544	0.0167763
901.622	0.0167906
901.700	0.0166762
901.779	0.0166805
901.857	0.0167727
901.935	0.0167673
902.013	0.0168693
902.091	0.0169341
902.169	0.0170310
902.247	0.0169996
902.325	0.0170905
902.404	0.0169724
902.482	0.0169537
902.560	0.0168359
902.638	0.0169894
902.716	0.0170116
902.794	0.0169950
902.872	0.0167401
902.950	0.0166153
903.029	0.0167200
903.107	0.0167568
903.185	0.0166104
903.263	0.0168643
903.341	0.0165710
903.419	0.0165832
903.497	0.0166280
903.575	0.0167117
903.654	0.0168214
903.732	0.0168166
903.810	0.0168137
903.888	0.0169259
903.966	0.0169778
904.044	0.0168602
904.122	0.0168771
904.200	0.0170392
904.279	0.0168808
904.357	0.0168739
904.435	0.0168685
904.513	0.0168005
904.591	0.0167635
904.669	0.0167991
904.747	0.0166522
904.825	0.0167459
904.904	0.0165575
904.982	0.0166319
905.060	0.0166886
905.138	0.0165746
905.216	0.0166325
905.294	0.0167625
905.372	0.0168020
905.450	0.0168797
905.529	0.0169489
905.607	0.0169173
905.685	0.0168792
905.763	0.0170241
905.841	0.0169016
905.919	0.0168694
905.997	0.0169792
906.075	0.0169437
906.154	0.0168343
906.232	0.0168320
906.310	0.0168300
906.388	0.0168668
906.466	0.0168820
906.544	0.0167902
906.622	0.0168954
906.700	0.0167397
906.779	0.0168634
906.857	0.0167311
906.935	0.0167724
907.013	0.0168028
907.091	0.0167413
907.169	0.0167136
907.247	0.0168391
907.325	0.0166538
907.404	0.0166793
907.482	0.0166520
907.560	0.0166922
907.638	0.0166792
907.716	0.0168237
907.794	0.0166885
907.872	0.0167833
907.950	0.0167619
908.029	0.0166941
908.107	0.0166962
908.185	0.0167634
908.263	0.0167458
908.341	0.0167108
908.419	0.0167403
908.497	0.0169033
908.575	0.0168469
908.654	0.0168835
908.732	0.0169202
908.810	0.0169232
908.888	0.0167921
908.966	0.0168452
909.044	0.0170081
909.122	0.0169444
909.200	0.0169645
909.279	0.0168575
909.357	0.0168620
909.435	0.0169054
909.513	0.0167838
909.591	0.0168081
909.669	0.0168130
909.747	0.0167930
909.825	0.0168444
909.904	0.0168389
909.982	0.0167027
910.060	0.0167487
910.138	0.0166781
910.216	0.0166815
910.294	0.0166125
910.372	0.0165406
910.450	0.0166186
910.529	0.0167313
910.607	0.0166514
910.685	0.0166441
910.763	0.0166587
910.841	0.0167649
910.919	0.0166090
910.997	0.0167484
911.075	0.0167604
911.154	0.0167170
911.232	0.0167474
911.310	0.0166755
911.388	0.0167259
911.466	0.0167643
911.544	0.0168800
911.622	0.0168933
911.700	0.0169678
911.779	0.0169817
911.857	0.0168731
911.935	0.0168270
912.013	0.0169707
912.091	0.0169128
912.169	0.0168378
912.247	0.0167835
912.325	0.0167990
912.404	0.0168654
912.482	0.0167485
912.560	0.0168745
912.638	0.0169651
912.716	0.0168584
912.794	0.0168445
912.872	0.0167501
912.950	0.0168417
913.029	0.0168269
913.107	0.0167384
913.185	0.0167796
913.263	0.0168843
913.341	0.0167729
913.419	0.0167533
913.497	0.0169061
913.575	0.0167490
913.654	0.0165936
913.732	0.0167674
913.810	0.0168803
913.888	0.0166955
913.966	0.0166814
914.044	0.0168253
914.122	0.0168350
914.200	0.0169207
914.279	0.0167677
914.357	0.0167107
914.435	0.0168589
914.513	0.0167568
914.591	0.0168085
914.669	0.0166273
914.747	0.0166953
914.825	0.0168014
914.904	0.0168478
914.982	0.0167878
915.060	0.0168513
915.138	0.0168476
915.216	0.0167773
915.294	0.0167300
915.372	0.0168574
915.450	0.0169571
915.529	0.0169807
915.607	0.0169831
915.685	0.0170487
915.763	0.0169355
915.841	0.0169559
915.919	0.0170773
915.997	0.0170420
916.075	0.0169778
916.154	0.0169263
916.232	0.0170142
916.310	0.0169636
916.388	0.0168228
916.466	0.0169308
916.544	0.0169111
916.622	0.0169307
916.700	0.0168333
916.779	0.0167657
916.857	0.0166639
916.935	0.0167524
917.013	0.0168186
917.091	0.0167519
917.169	0.0166594
917.247	0.0166078
917.325	0.0165570
917.404	0.0165800
917.482	0.0167057
917.560	0.0167397
917.638	0.0167870
917.716	0.0167639
917.794	0.0168081
917.872	0.0167424
917.950	0.0168826
918.029	0.0168942
918.107	0.0169573
918.185	0.0169601
918.263	0.0170566
918.341	0.0169227
918.419	0.0170067
918.497	0.0169050
918.575	0.0167997
918.654	0.0168224
918.732	0.0168774
918.810	0.0169027
918.888	0.0167896
918.966	0.0168202
919.044	0.0167435
919.122	0.0168787
919.200	0.0167794
919.279	0.0168256
919.357	0.0168011
919.435	0.0166914
919.513	0.0168753
919.591	0.0167397
919.669	0.0167400
919.747	0.0168683
919.825	0.0166875
919.904	0.0167738
