06/03/2022	14:00:10	Ver.	4.1	UNKNOWN
Optical Delay	599.981738	Delta X		0.078125	Sweeps	1	Scan Rate	0/0
Coordinates	Axis 1	NaN	Axis 2	NaN	Axis 3	NaN	Axis 4	NaN	Axis 5	NaN	Axis 6	0.000000
TX Power	0.000000	RX Power	0.000000

599.982	0.0172125
600.060	0.0172005
600.138	0.0171329
600.216	0.0173265
600.294	0.0173309
600.372	0.0170954
600.450	0.0172733
600.529	0.0172190
600.607	0.0172517
600.685	0.0172004
600.763	0.0171749
600.841	0.0171815
600.919	0.0170819
600.997	0.0171667
601.075	0.0171622
601.154	0.0171780
601.232	0.0170531
601.310	0.0171629
601.388	0.0171503
601.466	0.0172007
601.544	0.0172667
601.622	0.0171336
601.700	0.0172229
601.779	0.0171135
601.857	0.0171866
601.935	0.0172034
602.013	0.0171448
602.091	0.0172089
602.169	0.0171478
602.247	0.0171423
602.325	0.0171775
602.404	0.0172236
602.482	0.0171929
602.560	0.0171280
602.638	0.0172439
602.716	0.0172065
602.794	0.0172871
602.872	0.0171873
602.950	0.0170542
603.029	0.0172256
603.107	0.0172523
603.185	0.0171716
603.263	0.0171835
603.341	0.0172546
603.419	0.0172649
603.497	0.0171198
603.575	0.0170647
603.654	0.0172539
603.732	0.0173510
603.810	0.0173489
603.888	0.0171589
603.966	0.0172190
604.044	0.0172213
604.122	0.0172188
604.200	0.0172165
604.279	0.0171326
604.357	0.0171128
604.435	0.0171681
604.513	0.0172213
604.591	0.0172023
604.669	0.0172208
604.747	0.0173787
604.825	0.0171857
604.904	0.0171267
604.982	0.0173067
605.060	0.0172754
605.138	0.0171458
605.216	0.0170541
605.294	0.0172552
605.372	0.0172772
605.450	0.0171922
605.529	0.0171420
605.607	0.0172631
605.685	0.0172172
605.763	0.0171771
605.841	0.0171504
605.919	0.0172103
605.997	0.0171676
606.075	0.0171100
606.154	0.0171873
606.232	0.0172592
606.310	0.0172726
606.388	0.0171866
606.466	0.0171341
606.544	0.0172784
606.622	0.0172867
606.700	0.0172782
606.779	0.0170708
606.857	0.0170979
606.935	0.0171989
607.013	0.0172728
607.091	0.0173553
607.169	0.0172503
607.247	0.0172051
607.325	0.0172220
607.404	0.0172453
607.482	0.0171091
607.560	0.0171623
607.638	0.0171952
607.716	0.0171743
607.794	0.0172868
607.872	0.0172344
607.950	0.0170332
608.029	0.0172524
608.107	0.0172062
608.185	0.0172915
608.263	0.0171289
608.341	0.0171912
608.419	0.0172147
608.497	0.0170832
608.575	0.0171904
608.654	0.0171883
608.732	0.0171654
608.810	0.0171851
608.888	0.0171904
608.966	0.0172793
609.044	0.0172155
609.122	0.0172892
609.200	0.0171851
609.279	0.0171628
609.357	0.0172514
609.435	0.0173918
609.513	0.0172668
609.591	0.0171564
609.669	0.0172931
609.747	0.0172201
609.825	0.0172881
609.904	0.0172460
609.982	0.0172697
610.060	0.0173853
610.138	0.0172264
610.216	0.0172497
610.294	0.0172886
610.372	0.0172036
610.450	0.0172577
610.529	0.0173331
610.607	0.0171879
610.685	0.0171059
610.763	0.0171461
610.841	0.0171003
610.919	0.0171127
610.997	0.0173088
611.075	0.0171239
611.154	0.0172459
611.232	0.0171649
611.310	0.0171397
611.388	0.0171537
611.466	0.0171921
611.544	0.0170789
611.622	0.0170551
611.700	0.0172359
611.779	0.0173136
611.857	0.0172176
611.935	0.0171800
612.013	0.0171554
612.091	0.0171253
612.169	0.0173309
612.247	0.0172105
612.325	0.0171361
612.404	0.0172869
612.482	0.0172144
612.560	0.0172638
612.638	0.0172421
612.716	0.0172073
612.794	0.0174007
612.872	0.0172385
612.950	0.0172101
613.029	0.0172411
613.107	0.0170766
613.185	0.0173524
613.263	0.0174119
613.341	0.0172650
613.419	0.0172251
613.497	0.0172923
613.575	0.0171741
613.654	0.0172177
613.732	0.0172778
613.810	0.0173739
613.888	0.0172150
613.966	0.0173725
614.044	0.0172874
614.122	0.0172224
614.200	0.0171926
614.279	0.0171571
614.357	0.0171375
614.435	0.0171148
614.513	0.0170895
614.591	0.0171333
614.669	0.0172121
614.747	0.0171844
614.825	0.0172810
614.904	0.0172437
614.982	0.0171236
615.060	0.0172666
615.138	0.0172404
615.216	0.0173447
615.294	0.0172725
615.372	0.0172948
615.450	0.0172448
615.529	0.0172280
615.607	0.0172768
615.685	0.0172767
615.763	0.0171852
615.841	0.0172578
615.919	0.0172444
615.997	0.0172220
616.075	0.0173491
616.154	0.0171693
616.232	0.0172603
616.310	0.0172870
616.388	0.0172602
616.466	0.0172391
616.544	0.0173293
616.622	0.0172464
616.700	0.0172714
616.779	0.0171960
616.857	0.0172691
616.935	0.0171517
617.013	0.0172380
617.091	0.0171941
617.169	0.0172289
617.247	0.0171289
617.325	0.0170860
617.404	0.0172845
617.482	0.0171831
617.560	0.0170668
617.638	0.0172166
617.716	0.0173152
617.794	0.0172710
617.872	0.0172210
617.950	0.0170924
618.029	0.0172637
618.107	0.0173853
618.185	0.0173244
618.263	0.0171892
618.341	0.0171839
618.419	0.0172913
618.497	0.0172784
618.575	0.0172140
618.654	0.0173567
618.732	0.0171693
618.810	0.0172784
618.888	0.0173270
618.966	0.0171560
619.044	0.0172547
619.122	0.0172632
619.200	0.0172594
619.279	0.0173116
619.357	0.0171429
619.435	0.0171370
619.513	0.0171973
619.591	0.0172614
619.669	0.0173347
619.747	0.0171881
619.825	0.0171191
619.904	0.0172621
619.982	0.0172141
620.060	0.0172932
620.138	0.0171993
620.216	0.0172477
620.294	0.0172451
620.372	0.0171380
620.450	0.0171380
620.529	0.0172185
620.607	0.0172691
620.685	0.0172169
620.763	0.0170873
620.841	0.0170547
620.919	0.0171039
620.997	0.0172485
621.075	0.0172297
621.154	0.0172269
621.232	0.0171748
621.310	0.0171603
621.388	0.0171176
621.466	0.0173164
621.544	0.0171116
621.622	0.0171726
621.700	0.0172719
621.779	0.0171845
621.857	0.0172293
621.935	0.0171590
622.013	0.0171723
622.091	0.0172795
622.169	0.0172782
622.247	0.0170155
622.325	0.0172240
622.404	0.0171769
622.482	0.0172254
622.560	0.0171462
622.638	0.0171170
622.716	0.0171557
622.794	0.0172301
622.872	0.0172858
622.950	0.0170711
623.029	0.0171712
623.107	0.0172491
623.185	0.0170961
623.263	0.0170922
623.341	0.0173270
623.419	0.0171687
623.497	0.0171456
623.575	0.0172126
623.654	0.0171969
623.732	0.0171609
623.810	0.0172059
623.888	0.0173348
623.966	0.0170926
624.044	0.0171426
624.122	0.0172372
624.200	0.0171333
624.279	0.0172398
624.357	0.0171967
624.435	0.0171865
624.513	0.0171976
624.591	0.0173208
624.669	0.0171568
624.747	0.0171268
624.825	0.0172898
624.904	0.0174258
624.982	0.0172813
625.060	0.0171194
625.138	0.0171489
625.216	0.0173071
625.294	0.0172155
625.372	0.0172003
625.450	0.0172657
625.529	0.0173206
625.607	0.0172912
625.685	0.0172658
625.763	0.0172852
625.841	0.0172509
625.919	0.0172240
625.997	0.0171612
626.075	0.0171055
626.154	0.0172453
626.232	0.0171453
626.310	0.0171600
626.388	0.0171764
626.466	0.0171928
626.544	0.0170772
626.622	0.0171843
626.700	0.0172675
626.779	0.0171403
626.857	0.0171864
626.935	0.0173067
627.013	0.0172224
627.091	0.0172059
627.169	0.0172385
627.247	0.0172240
627.325	0.0170668
627.404	0.0173518
627.482	0.0173169
627.560	0.0172022
627.638	0.0172556
627.716	0.0171536
627.794	0.0172643
627.872	0.0172015
627.950	0.0172548
628.029	0.0172697
628.107	0.0172549
628.185	0.0170972
628.263	0.0172368
628.341	0.0172059
628.419	0.0172633
628.497	0.0172254
628.575	0.0171461
628.654	0.0172482
628.732	0.0173256
628.810	0.0171936
628.888	0.0172327
628.966	0.0172179
629.044	0.0172928
629.122	0.0171734
629.200	0.0171559
629.279	0.0172973
629.357	0.0172514
629.435	0.0172916
629.513	0.0171845
629.591	0.0171661
629.669	0.0171581
629.747	0.0172348
629.825	0.0173324
629.904	0.0173712
629.982	0.0170533
630.060	0.0171190
630.138	0.0171642
630.216	0.0170605
630.294	0.0170760
630.372	0.0171166
630.450	0.0170808
630.529	0.0172381
630.607	0.0172044
630.685	0.0171546
630.763	0.0172919
630.841	0.0174277
630.919	0.0172557
630.997	0.0172044
631.075	0.0172148
631.154	0.0170498
631.232	0.0171574
631.310	0.0171010
631.388	0.0172000
631.466	0.0172378
631.544	0.0171936
631.622	0.0173481
631.700	0.0171140
631.779	0.0170251
631.857	0.0172529
631.935	0.0172865
632.013	0.0172073
632.091	0.0171971
632.169	0.0172919
632.247	0.0173404
632.325	0.0172686
632.404	0.0173150
632.482	0.0171070
632.560	0.0172220
632.638	0.0172246
632.716	0.0171389
632.794	0.0171947
632.872	0.0172746
632.950	0.0171436
633.029	0.0171391
633.107	0.0172194
633.185	0.0172466
633.263	0.0172812
633.341	0.0172707
633.419	0.0174262
633.497	0.0172047
633.575	0.0170798
633.654	0.0171008
633.732	0.0172543
633.810	0.0171515
633.888	0.0172519
633.966	0.0173155
634.044	0.0169727
634.122	0.0172330
634.200	0.0173125
634.279	0.0171365
634.357	0.0172218
634.435	0.0172443
634.513	0.0172008
634.591	0.0171169
634.669	0.0172511
634.747	0.0172196
634.825	0.0173009
634.904	0.0172298
634.982	0.0171886
635.060	0.0171947
635.138	0.0173335
635.216	0.0171570
635.294	0.0172429
635.372	0.0172630
635.450	0.0172488
635.529	0.0171799
635.607	0.0170641
635.685	0.0172190
635.763	0.0171461
635.841	0.0171310
635.919	0.0172625
635.997	0.0172240
636.075	0.0173781
636.154	0.0173661
636.232	0.0172387
636.310	0.0171993
636.388	0.0171268
636.466	0.0171520
636.544	0.0173221
636.622	0.0173454
636.700	0.0172678
636.779	0.0172169
636.857	0.0171024
636.935	0.0172552
637.013	0.0172088
637.091	0.0171169
637.169	0.0172158
637.247	0.0171945
637.325	0.0173285
637.404	0.0172560
637.482	0.0172990
637.560	0.0172285
637.638	0.0171754
637.716	0.0172196
637.794	0.0171171
637.872	0.0171876
637.950	0.0171552
638.029	0.0171647
638.107	0.0171952
638.185	0.0173059
638.263	0.0171875
638.341	0.0171670
638.419	0.0172925
638.497	0.0172360
638.575	0.0171693
638.654	0.0173290
638.732	0.0171536
638.810	0.0171611
638.888	0.0171819
638.966	0.0172947
639.044	0.0170998
639.122	0.0172173
639.200	0.0172151
639.279	0.0171408
639.357	0.0171684
639.435	0.0172691
639.513	0.0173223
639.591	0.0172318
639.669	0.0172997
639.747	0.0173269
639.825	0.0171394
639.904	0.0171317
639.982	0.0171935
640.060	0.0173320
640.138	0.0172771
640.216	0.0172294
640.294	0.0171277
640.372	0.0170971
640.450	0.0171606
640.529	0.0171834
640.607	0.0171043
640.685	0.0172121
640.763	0.0170799
640.841	0.0171879
640.919	0.0172282
640.997	0.0173483
641.075	0.0171915
641.154	0.0171522
641.232	0.0171564
641.310	0.0172000
641.388	0.0171353
641.466	0.0171635
641.544	0.0172301
641.622	0.0171510
641.700	0.0171368
641.779	0.0172384
641.857	0.0172794
641.935	0.0173051
642.013	0.0171565
642.091	0.0171918
642.169	0.0171147
642.247	0.0173045
642.325	0.0171867
642.404	0.0171902
642.482	0.0171262
642.560	0.0171672
642.638	0.0171160
642.716	0.0171780
642.794	0.0173431
642.872	0.0171314
642.950	0.0171967
643.029	0.0172855
643.107	0.0171394
643.185	0.0171677
643.263	0.0171900
643.341	0.0170995
643.419	0.0171181
643.497	0.0172533
643.575	0.0172292
643.654	0.0172637
643.732	0.0171856
643.810	0.0173247
643.888	0.0172377
643.966	0.0172307
644.044	0.0172011
644.122	0.0171249
644.200	0.0171101
644.279	0.0172509
644.357	0.0172263
644.435	0.0171809
644.513	0.0173318
644.591	0.0172259
644.669	0.0171039
644.747	0.0171754
644.825	0.0172810
644.904	0.0171991
644.982	0.0172102
645.060	0.0171811
645.138	0.0172578
645.216	0.0171986
645.294	0.0172437
645.372	0.0173057
645.450	0.0171104
645.529	0.0172238
645.607	0.0172512
645.685	0.0172539
645.763	0.0172229
645.841	0.0171287
645.919	0.0171733
645.997	0.0170824
646.075	0.0171719
646.154	0.0171210
646.232	0.0171762
646.310	0.0171735
646.388	0.0172157
646.466	0.0173029
646.544	0.0173096
646.622	0.0172238
646.700	0.0172513
646.779	0.0173660
646.857	0.0172163
646.935	0.0171571
647.013	0.0172185
647.091	0.0172999
647.169	0.0171441
647.247	0.0172942
647.325	0.0173100
647.404	0.0172765
647.482	0.0172404
647.560	0.0172536
647.638	0.0172889
647.716	0.0172765
647.794	0.0170695
647.872	0.0172580
647.950	0.0172539
648.029	0.0171960
648.107	0.0170280
648.185	0.0171436
648.263	0.0171960
648.341	0.0172223
648.419	0.0170705
648.497	0.0172266
648.575	0.0172830
648.654	0.0173459
648.732	0.0171505
648.810	0.0170967
648.888	0.0171989
648.966	0.0173705
649.044	0.0172839
649.122	0.0171870
649.200	0.0171558
649.279	0.0172106
649.357	0.0171725
649.435	0.0171531
649.513	0.0172932
649.591	0.0172684
649.669	0.0171996
649.747	0.0172680
649.825	0.0172250
649.904	0.0171389
649.982	0.0173049
650.060	0.0171581
650.138	0.0171741
650.216	0.0172405
650.294	0.0171425
650.372	0.0172946
650.450	0.0171184
650.529	0.0172137
650.607	0.0171558
650.685	0.0171449
650.763	0.0173145
650.841	0.0173631
650.919	0.0172029
650.997	0.0173156
651.075	0.0171576
651.154	0.0171648
651.232	0.0172087
651.310	0.0171994
651.388	0.0171516
651.466	0.0172202
651.544	0.0173117
651.622	0.0171664
651.700	0.0172252
651.779	0.0173219
651.857	0.0171899
651.935	0.0171133
652.013	0.0172383
652.091	0.0171102
652.169	0.0171901
652.247	0.0171516
652.325	0.0170577
652.404	0.0172455
652.482	0.0171930
652.560	0.0171778
652.638	0.0171759
652.716	0.0170821
652.794	0.0172157
652.872	0.0172670
652.950	0.0172548
653.029	0.0172127
653.107	0.0170662
653.185	0.0171805
653.263	0.0171246
653.341	0.0171603
653.419	0.0171392
653.497	0.0172456
653.575	0.0171899
653.654	0.0171971
653.732	0.0172475
653.810	0.0171823
653.888	0.0171604
653.966	0.0171883
654.044	0.0172265
654.122	0.0172122
654.200	0.0171404
654.279	0.0172274
654.357	0.0172652
654.435	0.0171368
654.513	0.0171776
654.591	0.0171748
654.669	0.0172861
654.747	0.0172193
654.825	0.0172120
654.904	0.0172808
654.982	0.0172278
655.060	0.0171515
655.138	0.0171624
655.216	0.0171458
655.294	0.0171441
655.372	0.0171722
655.450	0.0171953
655.529	0.0170811
655.607	0.0171310
655.685	0.0173138
655.763	0.0172610
655.841	0.0171965
655.919	0.0171935
655.997	0.0172489
656.075	0.0172056
656.154	0.0172729
656.232	0.0173014
656.310	0.0171974
656.388	0.0172195
656.466	0.0171819
656.544	0.0172335
656.622	0.0172211
656.700	0.0171435
656.779	0.0172334
656.857	0.0172380
656.935	0.0170809
657.013	0.0172595
657.091	0.0172840
657.169	0.0172266
657.247	0.0172170
657.325	0.0171619
657.404	0.0171173
657.482	0.0170985
657.560	0.0172760
657.638	0.0171851
657.716	0.0171575
657.794	0.0171797
657.872	0.0172255
657.950	0.0171569
658.029	0.0171955
658.107	0.0172104
658.185	0.0171453
658.263	0.0171390
658.341	0.0171906
658.419	0.0172458
658.497	0.0172305
658.575	0.0171501
658.654	0.0173208
658.732	0.0172646
658.810	0.0172518
658.888	0.0172746
658.966	0.0172722
659.044	0.0172711
659.122	0.0171083
659.200	0.0172255
659.279	0.0171567
659.357	0.0172388
659.435	0.0172032
659.513	0.0171880
659.591	0.0170899
659.669	0.0172497
659.747	0.0172833
659.825	0.0172327
659.904	0.0171374
659.982	0.0171822
660.060	0.0172781
660.138	0.0172579
660.216	0.0171834
660.294	0.0172131
660.372	0.0170953
660.450	0.0171181
660.529	0.0172295
660.607	0.0172861
660.685	0.0172308
660.763	0.0170461
660.841	0.0171883
660.919	0.0171517
660.997	0.0171532
661.075	0.0171061
661.154	0.0171751
661.232	0.0172307
661.310	0.0171808
661.388	0.0172751
661.466	0.0171372
661.544	0.0171139
661.622	0.0171790
661.700	0.0172877
661.779	0.0172664
661.857	0.0170074
661.935	0.0173178
662.013	0.0172473
662.091	0.0171709
662.169	0.0171958
662.247	0.0172136
662.325	0.0172147
662.404	0.0172133
662.482	0.0172182
662.560	0.0173209
662.638	0.0171861
662.716	0.0171586
662.794	0.0171464
662.872	0.0170969
662.950	0.0172228
663.029	0.0172404
663.107	0.0173119
663.185	0.0173003
663.263	0.0172776
663.341	0.0172618
663.419	0.0172546
663.497	0.0172211
663.575	0.0172981
663.654	0.0172485
663.732	0.0171868
663.810	0.0171736
663.888	0.0172290
663.966	0.0171265
664.044	0.0172718
664.122	0.0174203
664.200	0.0171191
664.279	0.0172705
664.357	0.0172627
664.435	0.0173667
664.513	0.0172199
664.591	0.0173102
664.669	0.0172207
664.747	0.0172911
664.825	0.0172935
664.904	0.0173061
664.982	0.0172986
665.060	0.0173260
665.138	0.0173057
665.216	0.0172391
665.294	0.0171456
665.372	0.0173589
665.450	0.0173193
665.529	0.0172913
665.607	0.0172282
665.685	0.0170968
665.763	0.0173158
665.841	0.0173692
665.919	0.0171462
665.997	0.0171524
666.075	0.0173029
666.154	0.0173341
666.232	0.0172450
666.310	0.0172494
666.388	0.0172312
666.466	0.0171992
666.544	0.0173465
666.622	0.0172558
666.700	0.0171703
666.779	0.0172762
666.857	0.0173288
666.935	0.0171922
667.013	0.0172060
667.091	0.0173605
667.169	0.0171545
667.247	0.0172247
667.325	0.0173009
667.404	0.0173474
667.482	0.0173249
667.560	0.0172836
667.638	0.0171918
667.716	0.0173076
667.794	0.0173335
667.872	0.0172340
667.950	0.0173425
668.029	0.0172431
668.107	0.0172153
668.185	0.0173348
668.263	0.0172143
668.341	0.0172456
668.419	0.0171104
668.497	0.0171518
668.575	0.0173211
668.654	0.0173647
668.732	0.0172153
668.810	0.0171443
668.888	0.0171049
668.966	0.0173623
669.044	0.0172773
669.122	0.0172356
669.200	0.0173444
669.279	0.0173678
669.357	0.0171847
669.435	0.0171574
669.513	0.0173222
669.591	0.0171967
669.669	0.0171689
669.747	0.0172942
669.825	0.0172073
669.904	0.0171459
669.982	0.0173291
670.060	0.0172330
670.138	0.0171616
670.216	0.0173138
670.294	0.0171666
670.372	0.0171497
670.450	0.0172480
670.529	0.0171921
670.607	0.0172714
670.685	0.0173703
670.763	0.0173318
670.841	0.0171737
670.919	0.0173831
670.997	0.0172452
671.075	0.0173344
671.154	0.0172643
671.232	0.0172363
671.310	0.0171063
671.388	0.0172301
671.466	0.0171931
671.544	0.0172397
671.622	0.0173073
671.700	0.0172649
671.779	0.0173231
671.857	0.0172328
671.935	0.0173100
672.013	0.0171867
672.091	0.0171297
672.169	0.0172966
672.247	0.0170830
672.325	0.0172160
672.404	0.0171706
672.482	0.0171610
672.560	0.0172440
672.638	0.0171834
672.716	0.0171730
672.794	0.0171904
672.872	0.0171365
672.950	0.0172218
673.029	0.0171853
673.107	0.0171801
673.185	0.0170770
673.263	0.0172012
673.341	0.0172301
673.419	0.0171603
673.497	0.0172966
673.575	0.0172070
673.654	0.0172174
673.732	0.0172085
673.810	0.0172594
673.888	0.0171903
673.966	0.0170947
674.044	0.0171275
674.122	0.0172196
674.200	0.0172167
674.279	0.0172651
674.357	0.0171539
674.435	0.0171147
674.513	0.0171905
674.591	0.0171444
674.669	0.0171658
674.747	0.0173331
674.825	0.0172829
674.904	0.0171432
674.982	0.0171124
675.060	0.0171928
675.138	0.0171858
675.216	0.0171243
675.294	0.0172472
675.372	0.0171657
675.450	0.0172421
675.529	0.0171082
675.607	0.0172457
675.685	0.0172559
675.763	0.0171766
675.841	0.0170924
675.919	0.0172069
675.997	0.0171919
676.075	0.0170882
676.154	0.0171888
676.232	0.0170208
676.310	0.0170467
676.388	0.0172264
676.466	0.0170966
676.544	0.0172075
676.622	0.0172873
676.700	0.0171725
676.779	0.0171120
676.857	0.0172850
676.935	0.0171629
677.013	0.0172814
677.091	0.0172164
677.169	0.0171349
677.247	0.0170718
677.325	0.0172800
677.404	0.0171310
677.482	0.0172768
677.560	0.0172926
677.638	0.0173089
677.716	0.0172002
677.794	0.0172371
677.872	0.0171758
677.950	0.0171362
678.029	0.0172830
678.107	0.0172754
678.185	0.0172309
678.263	0.0172630
678.341	0.0173428
678.419	0.0172299
678.497	0.0172546
678.575	0.0170503
678.654	0.0171243
678.732	0.0170795
678.810	0.0172765
678.888	0.0172267
678.966	0.0170579
679.044	0.0171668
679.122	0.0171926
679.200	0.0172090
679.279	0.0171922
679.357	0.0172230
679.435	0.0173900
679.513	0.0172668
679.591	0.0173717
679.669	0.0173932
679.747	0.0174552
679.825	0.0173486
679.904	0.0172717
679.982	0.0172562
680.060	0.0173445
680.138	0.0172535
680.216	0.0171355
680.294	0.0172076
680.372	0.0171999
680.450	0.0170403
680.529	0.0170676
680.607	0.0170664
680.685	0.0169695
680.763	0.0168999
680.841	0.0169299
680.919	0.0170685
680.997	0.0171280
681.075	0.0168960
681.154	0.0171384
681.232	0.0172585
681.310	0.0173250
681.388	0.0172425
681.466	0.0173349
681.544	0.0173506
681.622	0.0172778
681.700	0.0173183
681.779	0.0172565
681.857	0.0172671
681.935	0.0171652
682.013	0.0172943
682.091	0.0172339
682.169	0.0173459
682.247	0.0172348
682.325	0.0172090
682.404	0.0172973
682.482	0.0173029
682.560	0.0172961
682.638	0.0172012
682.716	0.0173366
682.794	0.0174599
682.872	0.0174093
682.950	0.0174619
683.029	0.0173956
683.107	0.0174776
683.185	0.0173405
683.263	0.0170852
683.341	0.0169897
683.419	0.0168924
683.497	0.0166762
683.575	0.0161752
683.654	0.0162096
683.732	0.0161741
683.810	0.0159768
683.888	0.0160789
683.966	0.0165601
684.044	0.0167312
684.122	0.0170364
684.200	0.0172446
684.279	0.0176377
684.357	0.0178664
684.435	0.0177888
684.513	0.0177100
684.591	0.0176550
684.669	0.0173987
684.747	0.0168724
684.825	0.0168054
684.904	0.0166367
684.982	0.0165293
685.060	0.0166946
685.138	0.0165845
685.216	0.0167463
685.294	0.0170525
685.372	0.0172668
685.450	0.0173988
685.529	0.0176226
685.607	0.0177425
685.685	0.0177126
685.763	0.0178036
685.841	0.0179093
685.919	0.0180956
685.997	0.0182562
686.075	0.0184735
686.154	0.0186291
686.232	0.0190624
686.310	0.0194846
686.388	0.0197539
686.466	0.0197568
686.544	0.0197989
686.622	0.0197266
686.700	0.0192509
686.779	0.0188229
686.857	0.0180225
686.935	0.0167953
687.013	0.0156996
687.091	0.0148508
687.169	0.0136838
687.247	0.0127542
687.325	0.0123004
687.404	0.0119878
687.482	0.0118940
687.560	0.0120686
687.638	0.0126116
687.716	0.0132899
687.794	0.0139850
687.872	0.0146711
687.950	0.0153941
688.029	0.0161266
688.107	0.0166306
688.185	0.0168858
688.263	0.0173094
688.341	0.0177332
688.419	0.0181741
688.497	0.0187226
688.575	0.0192139
688.654	0.0198855
688.732	0.0203462
688.810	0.0208888
688.888	0.0213617
688.966	0.0217777
689.044	0.0224583
689.122	0.0226888
689.200	0.0227470
689.279	0.0227444
689.357	0.0224146
689.435	0.0220391
689.513	0.0215906
689.591	0.0208141
689.669	0.0202438
689.747	0.0195695
689.825	0.0184765
689.904	0.0174905
689.982	0.0165057
690.060	0.0151192
690.138	0.0139224
690.216	0.0127424
690.294	0.0116459
690.372	0.0105962
690.450	0.00980988
690.529	0.00944717
690.607	0.00921356
690.685	0.00957970
690.763	0.0100760
690.841	0.0108353
690.919	0.0118713
690.997	0.0128569
691.075	0.0138007
691.154	0.0149775
691.232	0.0161185
691.310	0.0169603
691.388	0.0178628
691.466	0.0187022
691.544	0.0194245
691.622	0.0201400
691.700	0.0205943
691.779	0.0211488
691.857	0.0218388
691.935	0.0221533
692.013	0.0225059
692.091	0.0228397
692.169	0.0230176
692.247	0.0230956
692.325	0.0231647
692.404	0.0232030
692.482	0.0231142
692.560	0.0230072
692.638	0.0229140
692.716	0.0224934
692.794	0.0221204
692.872	0.0215158
692.950	0.0205495
693.029	0.0195022
693.107	0.0182851
693.185	0.0168604
693.263	0.0151501
693.341	0.0135289
693.419	0.0117654
693.497	0.00992897
693.575	0.00831551
693.654	0.00709053
693.732	0.00633087
693.810	0.00594475
693.888	0.00594498
693.966	0.00666245
694.044	0.00746933
694.122	0.00874985
694.200	0.0104305
694.279	0.0122134
694.357	0.0143140
694.435	0.0160132
694.513	0.0179637
694.591	0.0196449
694.669	0.0212784
694.747	0.0228299
694.825	0.0238784
694.904	0.0248087
694.982	0.0255050
695.060	0.0259680
695.138	0.0262704
695.216	0.0262138
695.294	0.0261119
695.372	0.0257948
695.450	0.0254543
695.529	0.0246813
695.607	0.0239449
695.685	0.0229881
695.763	0.0220028
695.841	0.0207208
695.919	0.0193250
695.997	0.0179585
696.075	0.0166105
696.154	0.0152159
696.232	0.0136875
696.310	0.0126907
696.388	0.0115245
696.466	0.0105596
696.544	0.0100522
696.622	0.00942131
696.700	0.00916199
696.779	0.00927147
696.857	0.00952980
696.935	0.0101697
697.013	0.0107716
697.091	0.0118323
697.169	0.0128020
697.247	0.0139532
697.325	0.0150039
697.404	0.0160076
697.482	0.0170982
697.560	0.0180599
697.638	0.0188620
697.716	0.0196599
697.794	0.0200810
697.872	0.0205814
697.950	0.0209641
698.029	0.0208953
698.107	0.0209171
698.185	0.0210617
698.263	0.0210347
698.341	0.0208315
698.419	0.0204988
698.497	0.0204588
698.575	0.0202769
698.654	0.0200809
698.732	0.0198733
698.810	0.0196988
698.888	0.0193079
698.966	0.0188358
699.044	0.0184531
699.122	0.0178976
699.200	0.0173475
699.279	0.0167855
699.357	0.0160442
699.435	0.0154957
699.513	0.0150929
699.591	0.0144521
699.669	0.0139034
699.747	0.0135777
699.825	0.0134911
699.904	0.0134071
699.982	0.0137062
700.060	0.0143414
700.138	0.0146840
700.216	0.0152563
700.294	0.0160157
700.372	0.0167052
700.450	0.0174414
700.529	0.0181491
700.607	0.0186593
700.685	0.0192036
700.763	0.0196278
700.841	0.0199245
700.919	0.0200888
700.997	0.0201543
701.075	0.0203894
701.154	0.0201995
701.232	0.0200878
701.310	0.0199364
701.388	0.0197158
701.466	0.0192812
701.544	0.0188345
701.622	0.0184016
701.700	0.0180368
701.779	0.0174076
701.857	0.0167975
701.935	0.0163734
702.013	0.0158015
702.091	0.0153857
702.169	0.0148672
702.247	0.0144590
702.325	0.0141994
702.404	0.0140633
702.482	0.0137219
702.560	0.0138333
702.638	0.0138579
702.716	0.0140738
702.794	0.0140784
702.872	0.0144412
702.950	0.0146517
703.029	0.0152001
703.107	0.0156764
703.185	0.0164961
703.263	0.0170464
703.341	0.0176579
703.419	0.0181885
703.497	0.0187940
703.575	0.0193601
703.654	0.0196133
703.732	0.0201467
703.810	0.0203732
703.888	0.0202728
703.966	0.0205159
704.044	0.0203985
704.122	0.0203935
704.200	0.0203500
704.279	0.0200526
704.357	0.0199148
704.435	0.0197415
704.513	0.0193037
704.591	0.0190297
704.669	0.0187616
704.747	0.0183620
704.825	0.0179424
704.904	0.0175887
704.982	0.0174419
705.060	0.0170872
705.138	0.0166071
705.216	0.0162402
705.294	0.0159729
705.372	0.0155277
705.450	0.0153055
705.529	0.0149810
705.607	0.0147722
705.685	0.0145641
705.763	0.0143970
705.841	0.0145930
705.919	0.0146419
705.997	0.0146744
706.075	0.0148962
706.154	0.0151050
706.232	0.0155006
706.310	0.0158181
706.388	0.0160509
706.466	0.0163566
706.544	0.0167022
706.622	0.0168436
706.700	0.0170719
706.779	0.0174826
706.857	0.0175151
706.935	0.0176342
707.013	0.0178652
707.091	0.0178474
707.169	0.0180920
707.247	0.0179704
707.325	0.0181216
707.404	0.0181869
707.482	0.0181754
707.560	0.0182902
707.638	0.0182555
707.716	0.0183643
707.794	0.0184668
707.872	0.0185792
707.950	0.0185558
708.029	0.0185365
708.107	0.0184933
708.185	0.0183845
708.263	0.0183304
708.341	0.0181396
708.419	0.0179638
708.497	0.0177328
708.575	0.0176590
708.654	0.0173090
708.732	0.0170915
708.810	0.0170218
708.888	0.0166604
708.966	0.0162514
709.044	0.0160882
709.122	0.0160704
709.200	0.0158362
709.279	0.0157649
709.357	0.0159665
709.435	0.0160713
709.513	0.0162189
709.591	0.0163616
709.669	0.0166214
709.747	0.0168552
709.825	0.0170775
709.904	0.0171249
709.982	0.0172681
710.060	0.0173354
710.138	0.0175400
710.216	0.0174917
710.294	0.0176208
710.372	0.0176613
710.450	0.0176533
710.529	0.0175049
710.607	0.0174895
710.685	0.0174609
710.763	0.0175388
710.841	0.0176524
710.919	0.0174873
710.997	0.0175031
711.075	0.0175295
711.154	0.0173869
711.232	0.0174770
711.310	0.0175340
711.388	0.0173033
711.466	0.0171925
711.544	0.0172902
711.622	0.0173022
711.700	0.0172758
711.779	0.0171358
711.857	0.0168939
711.935	0.0168568
712.013	0.0166535
712.091	0.0164484
712.169	0.0164323
712.247	0.0163412
712.325	0.0161624
712.404	0.0161304
712.482	0.0158141
712.560	0.0158921
712.638	0.0160496
712.716	0.0160601
712.794	0.0160555
712.872	0.0163062
712.950	0.0165681
713.029	0.0167012
713.107	0.0169054
713.185	0.0171741
713.263	0.0173161
713.341	0.0176051
713.419	0.0177428
713.497	0.0178154
713.575	0.0181396
713.654	0.0183462
713.732	0.0184440
713.810	0.0185798
713.888	0.0186565
713.966	0.0186996
714.044	0.0187657
714.122	0.0184779
714.200	0.0184664
714.279	0.0184042
714.357	0.0180799
714.435	0.0180807
714.513	0.0177824
714.591	0.0175989
714.669	0.0173660
714.747	0.0173503
714.825	0.0172598
714.904	0.0173420
714.982	0.0171356
715.060	0.0169881
715.138	0.0170743
715.216	0.0170929
715.294	0.0170700
715.372	0.0169992
715.450	0.0169353
715.529	0.0169923
715.607	0.0169070
715.685	0.0168526
715.763	0.0167767
715.841	0.0167739
715.919	0.0167213
715.997	0.0165916
716.075	0.0166267
716.154	0.0166710
716.232	0.0166326
716.310	0.0166122
716.388	0.0166498
716.466	0.0165426
716.544	0.0164507
716.622	0.0166267
716.700	0.0167115
716.779	0.0166293
716.857	0.0165228
716.935	0.0166091
717.013	0.0166127
717.091	0.0165371
717.169	0.0166058
717.247	0.0166273
717.325	0.0165330
717.404	0.0165926
717.482	0.0168549
717.560	0.0169198
717.638	0.0170963
717.716	0.0172594
717.794	0.0173562
717.872	0.0175244
717.950	0.0177033
718.029	0.0177200
718.107	0.0178299
718.185	0.0179216
718.263	0.0180337
718.341	0.0180939
718.419	0.0180164
718.497	0.0180135
718.575	0.0179523
718.654	0.0181335
718.732	0.0181384
718.810	0.0180412
718.888	0.0181657
718.966	0.0182161
719.044	0.0182510
719.122	0.0181797
719.200	0.0180787
719.279	0.0180587
719.357	0.0180020
719.435	0.0178738
719.513	0.0176999
719.591	0.0176583
719.669	0.0176067
719.747	0.0174009
719.825	0.0172389
719.904	0.0170271
719.982	0.0169393
720.060	0.0168408
720.138	0.0167368
720.216	0.0166820
720.294	0.0166640
720.372	0.0166928
720.450	0.0165923
720.529	0.0166344
720.607	0.0166461
720.685	0.0169391
720.763	0.0167116
720.841	0.0167682
720.919	0.0167915
720.997	0.0168589
721.075	0.0169194
721.154	0.0170033
721.232	0.0169265
721.310	0.0168736
721.388	0.0168018
721.466	0.0166373
721.544	0.0167752
721.622	0.0166999
721.700	0.0168032
721.779	0.0167179
721.857	0.0166192
721.935	0.0166615
722.013	0.0168422
722.091	0.0168038
722.169	0.0168022
722.247	0.0168713
722.325	0.0170404
722.404	0.0171815
722.482	0.0175262
722.560	0.0175841
722.638	0.0177757
722.716	0.0177108
722.794	0.0178608
722.872	0.0180147
722.950	0.0181152
723.029	0.0181587
723.107	0.0181863
723.185	0.0181640
723.263	0.0180029
723.341	0.0179795
723.419	0.0178847
723.497	0.0177061
723.575	0.0176279
723.654	0.0173601
723.732	0.0173663
723.810	0.0173440
723.888	0.0172888
723.966	0.0173266
724.044	0.0172562
724.122	0.0169935
724.200	0.0170184
724.279	0.0170224
724.357	0.0168829
724.435	0.0168726
724.513	0.0167206
724.591	0.0167260
724.669	0.0167610
724.747	0.0165421
724.825	0.0165534
724.904	0.0165954
724.982	0.0167109
725.060	0.0166361
725.138	0.0166651
725.216	0.0169191
725.294	0.0169904
725.372	0.0170080
725.450	0.0173767
725.529	0.0174454
725.607	0.0175797
725.685	0.0175581
725.763	0.0175166
725.841	0.0176633
725.919	0.0177930
725.997	0.0176588
726.075	0.0176829
726.154	0.0177224
726.232	0.0175356
726.310	0.0175468
726.388	0.0175298
726.466	0.0174351
726.544	0.0175330
726.622	0.0173867
726.700	0.0173129
726.779	0.0172855
726.857	0.0175141
726.935	0.0173106
727.013	0.0173194
727.091	0.0174250
727.169	0.0171795
727.247	0.0171819
727.325	0.0171480
727.404	0.0170951
727.482	0.0169357
727.560	0.0167390
727.638	0.0169553
727.716	0.0167996
727.794	0.0166142
727.872	0.0166525
727.950	0.0168089
728.029	0.0167213
728.107	0.0166380
728.185	0.0168461
728.263	0.0169674
728.341	0.0168058
728.419	0.0169324
728.497	0.0170018
728.575	0.0170267
728.654	0.0169089
728.732	0.0171346
728.810	0.0171833
728.888	0.0171981
728.966	0.0174274
729.044	0.0173936
729.122	0.0174223
729.200	0.0174442
729.279	0.0175073
729.357	0.0175031
729.435	0.0175213
729.513	0.0175127
729.591	0.0174979
729.669	0.0177867
729.747	0.0177659
729.825	0.0177104
729.904	0.0177670
729.982	0.0177074
730.060	0.0177429
730.138	0.0177506
730.216	0.0175688
730.294	0.0176033
730.372	0.0175656
730.450	0.0174642
730.529	0.0174095
730.607	0.0173180
730.685	0.0172852
730.763	0.0170322
730.841	0.0169631
730.919	0.0169518
730.997	0.0169386
731.075	0.0169819
731.154	0.0169322
731.232	0.0168277
731.310	0.0168344
731.388	0.0170254
731.466	0.0169869
731.544	0.0169134
731.622	0.0170022
731.700	0.0170371
731.779	0.0170338
731.857	0.0170870
731.935	0.0172169
732.013	0.0172139
732.091	0.0171019
732.169	0.0172028
732.247	0.0171811
732.325	0.0172468
732.404	0.0170815
732.482	0.0171986
732.560	0.0171791
732.638	0.0169119
732.716	0.0171257
732.794	0.0169876
732.872	0.0169671
732.950	0.0169881
733.029	0.0170058
733.107	0.0169305
733.185	0.0169294
733.263	0.0169741
733.341	0.0170775
733.419	0.0172250
733.497	0.0173623
733.575	0.0174514
733.654	0.0176087
733.732	0.0175414
733.810	0.0177299
733.888	0.0177587
733.966	0.0175724
734.044	0.0176399
734.122	0.0178024
734.200	0.0175977
734.279	0.0174037
734.357	0.0173521
734.435	0.0174593
734.513	0.0173030
734.591	0.0170790
734.669	0.0172275
734.747	0.0170538
734.825	0.0169269
734.904	0.0169920
734.982	0.0170566
735.060	0.0170196
735.138	0.0172107
735.216	0.0171521
735.294	0.0172131
735.372	0.0172742
735.450	0.0172374
735.529	0.0174376
735.607	0.0175064
735.685	0.0172880
735.763	0.0172905
735.841	0.0173801
735.919	0.0173183
735.997	0.0172992
736.075	0.0173262
736.154	0.0172897
736.232	0.0171034
736.310	0.0171743
736.388	0.0171461
736.466	0.0171631
736.544	0.0171165
736.622	0.0170793
736.700	0.0170866
736.779	0.0169840
736.857	0.0170004
736.935	0.0169178
737.013	0.0169347
737.091	0.0169797
737.169	0.0169600
737.247	0.0167681
737.325	0.0169806
737.404	0.0170390
737.482	0.0171559
737.560	0.0171399
737.638	0.0172138
737.716	0.0172929
737.794	0.0173418
737.872	0.0174457
737.950	0.0173905
738.029	0.0174410
738.107	0.0174618
738.185	0.0173965
738.263	0.0174731
738.341	0.0174210
738.419	0.0173530
738.497	0.0176371
738.575	0.0175618
738.654	0.0174364
738.732	0.0173423
738.810	0.0174000
738.888	0.0172189
738.966	0.0172111
739.044	0.0171059
739.122	0.0170954
739.200	0.0170613
739.279	0.0168930
739.357	0.0168999
739.435	0.0168153
739.513	0.0168037
739.591	0.0166676
739.669	0.0166360
739.747	0.0167164
739.825	0.0167435
739.904	0.0166620
739.982	0.0166180
740.060	0.0168354
740.138	0.0167722
740.216	0.0167847
740.294	0.0169506
740.372	0.0170464
740.450	0.0172527
740.529	0.0173308
740.607	0.0173116
740.685	0.0173471
740.763	0.0174501
740.841	0.0174129
740.919	0.0174420
740.997	0.0176633
741.075	0.0176663
741.154	0.0174805
741.232	0.0175554
741.310	0.0175300
741.388	0.0174982
741.466	0.0175638
741.544	0.0174593
741.622	0.0173638
741.700	0.0174519
741.779	0.0173978
741.857	0.0173865
741.935	0.0173717
742.013	0.0173081
742.091	0.0172504
742.169	0.0174431
742.247	0.0173161
742.325	0.0173614
742.404	0.0172976
742.482	0.0172684
742.560	0.0171687
742.638	0.0173618
742.716	0.0172934
742.794	0.0171896
742.872	0.0172557
742.950	0.0172863
743.029	0.0172515
743.107	0.0171754
743.185	0.0171039
743.263	0.0170222
743.341	0.0170391
743.419	0.0169825
743.497	0.0169737
743.575	0.0169817
743.654	0.0169182
743.732	0.0168003
743.810	0.0168847
743.888	0.0169397
743.966	0.0170545
744.044	0.0170744
744.122	0.0171732
744.200	0.0172903
744.279	0.0173188
744.357	0.0171835
744.435	0.0173808
744.513	0.0175357
744.591	0.0173663
744.669	0.0175587
744.747	0.0176739
744.825	0.0175914
744.904	0.0175225
744.982	0.0174420
745.060	0.0174061
745.138	0.0173627
745.216	0.0174820
745.294	0.0174019
745.372	0.0173373
745.450	0.0173506
745.529	0.0171986
745.607	0.0170461
745.685	0.0171053
745.763	0.0171494
745.841	0.0170404
745.919	0.0170309
745.997	0.0169694
746.075	0.0169614
746.154	0.0169902
746.232	0.0170174
746.310	0.0169742
746.388	0.0167651
746.466	0.0171126
746.544	0.0170950
746.622	0.0170954
746.700	0.0170789
746.779	0.0171786
746.857	0.0171144
746.935	0.0173724
747.013	0.0173099
747.091	0.0174519
747.169	0.0172952
747.247	0.0172485
747.325	0.0173920
747.404	0.0173855
747.482	0.0174330
747.560	0.0173991
747.638	0.0174036
747.716	0.0173591
747.794	0.0174278
747.872	0.0172919
747.950	0.0173394
748.029	0.0172718
748.107	0.0172016
748.185	0.0172769
748.263	0.0173492
748.341	0.0172640
748.419	0.0173404
748.497	0.0172647
748.575	0.0173263
748.654	0.0173170
748.732	0.0171501
748.810	0.0172965
748.888	0.0173504
748.966	0.0172397
749.044	0.0172339
749.122	0.0174064
749.200	0.0173043
749.279	0.0173535
749.357	0.0174390
749.435	0.0173850
749.513	0.0173566
749.591	0.0172279
749.669	0.0173527
749.747	0.0173164
749.825	0.0172814
749.904	0.0172438
749.982	0.0172945
750.060	0.0172385
750.138	0.0172348
750.216	0.0173189
750.294	0.0170401
750.372	0.0170432
750.450	0.0171837
750.529	0.0170712
750.607	0.0171688
750.685	0.0170488
750.763	0.0170826
750.841	0.0170891
750.919	0.0170269
750.997	0.0169836
751.075	0.0169394
751.154	0.0170675
751.232	0.0170257
751.310	0.0170196
751.388	0.0169823
751.466	0.0169912
751.544	0.0170056
751.622	0.0171380
751.700	0.0170893
751.779	0.0171986
751.857	0.0172508
751.935	0.0172753
752.013	0.0172535
752.091	0.0171490
752.169	0.0174191
752.247	0.0174393
752.325	0.0174740
752.404	0.0174375
752.482	0.0174361
752.560	0.0174049
752.638	0.0174287
752.716	0.0174019
752.794	0.0173919
752.872	0.0171446
752.950	0.0172491
753.029	0.0172625
753.107	0.0172784
753.185	0.0172661
753.263	0.0172222
753.341	0.0172177
753.419	0.0171416
753.497	0.0170529
753.575	0.0170926
753.654	0.0169727
753.732	0.0170059
753.810	0.0169165
753.888	0.0170478
753.966	0.0168881
754.044	0.0170130
754.122	0.0167842
754.200	0.0168285
754.279	0.0168786
754.357	0.0169041
754.435	0.0170609
754.513	0.0170603
754.591	0.0171243
754.669	0.0173579
754.747	0.0172336
754.825	0.0171539
754.904	0.0172083
754.982	0.0175095
755.060	0.0174996
755.138	0.0175298
755.216	0.0175369
755.294	0.0176051
755.372	0.0175343
755.450	0.0176112
755.529	0.0174824
755.607	0.0172924
755.685	0.0174412
755.763	0.0173172
755.841	0.0173888
755.919	0.0172717
755.997	0.0172101
756.075	0.0171142
756.154	0.0170454
756.232	0.0171037
756.310	0.0170961
756.388	0.0171703
756.466	0.0171027
756.544	0.0169393
756.622	0.0170069
756.700	0.0169574
756.779	0.0170457
756.857	0.0170158
756.935	0.0169624
757.013	0.0171884
757.091	0.0171597
757.169	0.0171899
757.247	0.0171821
757.325	0.0173846
757.404	0.0172644
757.482	0.0174020
757.560	0.0173965
757.638	0.0173459
757.716	0.0173900
757.794	0.0174216
757.872	0.0172785
757.950	0.0173225
758.029	0.0174145
758.107	0.0172218
758.185	0.0172846
758.263	0.0173901
758.341	0.0172895
758.419	0.0172468
758.497	0.0172414
758.575	0.0172628
758.654	0.0172266
758.732	0.0172002
758.810	0.0171329
758.888	0.0169374
758.966	0.0170322
759.044	0.0170046
759.122	0.0170177
759.200	0.0170266
759.279	0.0171243
759.357	0.0171544
759.435	0.0169707
759.513	0.0169443
759.591	0.0170055
759.669	0.0171491
759.747	0.0171395
759.825	0.0170482
759.904	0.0172122
759.982	0.0170985
760.060	0.0172114
760.138	0.0173381
760.216	0.0174014
760.294	0.0174361
760.372	0.0175211
760.450	0.0173752
760.529	0.0175413
760.607	0.0175990
760.685	0.0174712
760.763	0.0175101
760.841	0.0173302
760.919	0.0174905
760.997	0.0173334
761.075	0.0174017
761.154	0.0174226
761.232	0.0174162
761.310	0.0173213
761.388	0.0173289
761.466	0.0173767
761.544	0.0173447
761.622	0.0174455
761.700	0.0173766
761.779	0.0172915
761.857	0.0173282
761.935	0.0173037
762.013	0.0172581
762.091	0.0172375
762.169	0.0171786
762.247	0.0172044
762.325	0.0171632
762.404	0.0170550
762.482	0.0169872
762.560	0.0169527
762.638	0.0169403
762.716	0.0168443
762.794	0.0168956
762.872	0.0170210
762.950	0.0169114
763.029	0.0169353
763.107	0.0169540
763.185	0.0169554
763.263	0.0171256
763.341	0.0170270
763.419	0.0171025
763.497	0.0172192
763.575	0.0173208
763.654	0.0174589
763.732	0.0176083
763.810	0.0175890
763.888	0.0176815
763.966	0.0177396
764.044	0.0177338
764.122	0.0176678
764.200	0.0177751
764.279	0.0177016
764.357	0.0177287
764.435	0.0175745
764.513	0.0175269
764.591	0.0175532
764.669	0.0175097
764.747	0.0174457
764.825	0.0173765
764.904	0.0171475
764.982	0.0170901
765.060	0.0170988
765.138	0.0168716
765.216	0.0169189
765.294	0.0168752
765.372	0.0169189
765.450	0.0170361
765.529	0.0169733
765.607	0.0169356
765.685	0.0170924
765.763	0.0172182
765.841	0.0171284
765.919	0.0171378
765.997	0.0171861
766.075	0.0173959
766.154	0.0173825
766.232	0.0174953
766.310	0.0173887
766.388	0.0173418
766.466	0.0173217
766.544	0.0173484
766.622	0.0173197
766.700	0.0171412
766.779	0.0172787
766.857	0.0173038
766.935	0.0173051
767.013	0.0173798
767.091	0.0175057
767.169	0.0174266
767.247	0.0173008
767.325	0.0173676
767.404	0.0175716
767.482	0.0174139
767.560	0.0174618
767.638	0.0174977
767.716	0.0174032
767.794	0.0172804
767.872	0.0173842
767.950	0.0172327
768.029	0.0173457
768.107	0.0172552
768.185	0.0170724
768.263	0.0172434
768.341	0.0172485
768.419	0.0171305
768.497	0.0171375
768.575	0.0171429
768.654	0.0169948
768.732	0.0169614
768.810	0.0169865
768.888	0.0169973
768.966	0.0170332
769.044	0.0169833
769.122	0.0170441
769.200	0.0170106
769.279	0.0169533
769.357	0.0169632
769.435	0.0171121
769.513	0.0170511
769.591	0.0172578
769.669	0.0172495
769.747	0.0172059
769.825	0.0172279
769.904	0.0172926
769.982	0.0174152
770.060	0.0175148
770.138	0.0173709
770.216	0.0174793
770.294	0.0175404
770.372	0.0173239
770.450	0.0173637
770.529	0.0173349
770.607	0.0172763
770.685	0.0171808
770.763	0.0171989
770.841	0.0172093
770.919	0.0170210
770.997	0.0171388
771.075	0.0170473
771.154	0.0169872
771.232	0.0167767
771.310	0.0166732
771.388	0.0167589
771.466	0.0168574
771.544	0.0168818
771.622	0.0167959
771.700	0.0168337
771.779	0.0168818
771.857	0.0170893
771.935	0.0169288
772.013	0.0170926
772.091	0.0172167
772.169	0.0171805
772.247	0.0174467
772.325	0.0176743
772.404	0.0175798
772.482	0.0175222
772.560	0.0176105
772.638	0.0177571
772.716	0.0175763
772.794	0.0175714
772.872	0.0174673
772.950	0.0174575
773.029	0.0174870
773.107	0.0174574
773.185	0.0175882
773.263	0.0174764
773.341	0.0173899
773.419	0.0172904
773.497	0.0174222
773.575	0.0173203
773.654	0.0171385
773.732	0.0171901
773.810	0.0172366
773.888	0.0169471
773.966	0.0168640
774.044	0.0169103
774.122	0.0169370
774.200	0.0169901
774.279	0.0168881
774.357	0.0169205
774.435	0.0168438
774.513	0.0169095
774.591	0.0168649
774.669	0.0167199
774.747	0.0169612
774.825	0.0170485
774.904	0.0169820
774.982	0.0171036
775.060	0.0170081
775.138	0.0171276
775.216	0.0172645
775.294	0.0173660
775.372	0.0174491
775.450	0.0175093
775.529	0.0175002
775.607	0.0174937
775.685	0.0175139
775.763	0.0174827
775.841	0.0175337
775.919	0.0175585
775.997	0.0176899
776.075	0.0173808
776.154	0.0173682
776.232	0.0174555
776.310	0.0172779
776.388	0.0172470
776.466	0.0170633
776.544	0.0171527
776.622	0.0171029
776.700	0.0171072
776.779	0.0169154
776.857	0.0168793
776.935	0.0168314
777.013	0.0168886
777.091	0.0168504
777.169	0.0168842
777.247	0.0167945
777.325	0.0168475
777.404	0.0169602
777.482	0.0168269
777.560	0.0168272
777.638	0.0169309
777.716	0.0168943
777.794	0.0169760
777.872	0.0171436
777.950	0.0170969
778.029	0.0170770
778.107	0.0171707
778.185	0.0171941
778.263	0.0174026
778.341	0.0175150
778.419	0.0173027
778.497	0.0175021
778.575	0.0175344
778.654	0.0175586
778.732	0.0174539
778.810	0.0174746
778.888	0.0175091
778.966	0.0176031
779.044	0.0175367
779.122	0.0174587
779.200	0.0174784
779.279	0.0173773
779.357	0.0173905
779.435	0.0171931
779.513	0.0173629
779.591	0.0172505
779.669	0.0172831
779.747	0.0171326
779.825	0.0170869
779.904	0.0170638
779.982	0.0170274
780.060	0.0169801
780.138	0.0169511
780.216	0.0170109
780.294	0.0168930
780.372	0.0170368
780.450	0.0170145
780.529	0.0168600
780.607	0.0170330
780.685	0.0169687
780.763	0.0169170
780.841	0.0169138
780.919	0.0169329
780.997	0.0170279
781.075	0.0170332
781.154	0.0171244
781.232	0.0171487
781.310	0.0173407
781.388	0.0174316
781.466	0.0174152
781.544	0.0174709
781.622	0.0174008
781.700	0.0175006
781.779	0.0175163
781.857	0.0174728
781.935	0.0175429
782.013	0.0173709
782.091	0.0174463
782.169	0.0174213
782.247	0.0173827
782.325	0.0174301
782.404	0.0174037
782.482	0.0173547
782.560	0.0173952
782.638	0.0173878
782.716	0.0171557
782.794	0.0170562
782.872	0.0171541
782.950	0.0170773
783.029	0.0170042
783.107	0.0167413
783.185	0.0168881
783.263	0.0169386
783.341	0.0167445
783.419	0.0167016
783.497	0.0166937
783.575	0.0167751
783.654	0.0168834
783.732	0.0169295
783.810	0.0170184
783.888	0.0170402
783.966	0.0170815
784.044	0.0171041
784.122	0.0172141
784.200	0.0172813
784.279	0.0172523
784.357	0.0174194
784.435	0.0174478
784.513	0.0175662
784.591	0.0174234
784.669	0.0175797
784.747	0.0175795
784.825	0.0176547
784.904	0.0175713
784.982	0.0175341
785.060	0.0176592
785.138	0.0175785
785.216	0.0176027
785.294	0.0177213
785.372	0.0175103
785.450	0.0173653
785.529	0.0173751
785.607	0.0173170
785.685	0.0173856
785.763	0.0172128
785.841	0.0172301
785.919	0.0172613
785.997	0.0170529
786.075	0.0170816
786.154	0.0169151
786.232	0.0168467
786.310	0.0167140
786.388	0.0167628
786.466	0.0167264
786.544	0.0166479
786.622	0.0166253
786.700	0.0166846
786.779	0.0166683
786.857	0.0167672
786.935	0.0166519
787.013	0.0167539
787.091	0.0167925
787.169	0.0168691
787.247	0.0169896
787.325	0.0171036
787.404	0.0171762
787.482	0.0173153
787.560	0.0173038
787.638	0.0173108
787.716	0.0176243
787.794	0.0175806
787.872	0.0175850
787.950	0.0175082
788.029	0.0176476
788.107	0.0176814
788.185	0.0175493
788.263	0.0176444
788.341	0.0175354
788.419	0.0176499
788.497	0.0175185
788.575	0.0175481
788.654	0.0176677
788.732	0.0175445
788.810	0.0175857
788.888	0.0175638
788.966	0.0175358
789.044	0.0174300
789.122	0.0175148
789.200	0.0172772
789.279	0.0171394
789.357	0.0172796
789.435	0.0170796
789.513	0.0171049
789.591	0.0171696
789.669	0.0169762
789.747	0.0167692
789.825	0.0167822
789.904	0.0169173
789.982	0.0166701
790.060	0.0167037
790.138	0.0167746
790.216	0.0169291
790.294	0.0169527
790.372	0.0169184
790.450	0.0169965
790.529	0.0171829
790.607	0.0171178
790.685	0.0171156
790.763	0.0171336
790.841	0.0171602
790.919	0.0172993
790.997	0.0173429
791.075	0.0174879
791.154	0.0175622
791.232	0.0175168
791.310	0.0174078
791.388	0.0176658
791.466	0.0174596
791.544	0.0174381
791.622	0.0174545
791.700	0.0175124
791.779	0.0174012
791.857	0.0174606
791.935	0.0173605
792.013	0.0173000
792.091	0.0173674
792.169	0.0171806
792.247	0.0172819
792.325	0.0171878
792.404	0.0171701
792.482	0.0170230
792.560	0.0171011
792.638	0.0170848
792.716	0.0171615
792.794	0.0168892
792.872	0.0170201
792.950	0.0168943
793.029	0.0169182
793.107	0.0169646
793.185	0.0167290
793.263	0.0169417
793.341	0.0169346
793.419	0.0169509
793.497	0.0170428
793.575	0.0169652
793.654	0.0168665
793.732	0.0170538
793.810	0.0172621
793.888	0.0170728
793.966	0.0172565
794.044	0.0172906
794.122	0.0172817
794.200	0.0174619
794.279	0.0174373
794.357	0.0173520
794.435	0.0173341
794.513	0.0174164
794.591	0.0175136
794.669	0.0175253
794.747	0.0174461
794.825	0.0174801
794.904	0.0173312
794.982	0.0173326
795.060	0.0173447
795.138	0.0173422
795.216	0.0171452
795.294	0.0170837
795.372	0.0171660
795.450	0.0171227
795.529	0.0170923
795.607	0.0170300
795.685	0.0170436
795.763	0.0169997
795.841	0.0170544
795.919	0.0170368
795.997	0.0169944
796.075	0.0170284
796.154	0.0170979
796.232	0.0171418
796.310	0.0171471
796.388	0.0171433
796.466	0.0171731
796.544	0.0171374
796.622	0.0171754
796.700	0.0173260
796.779	0.0172900
796.857	0.0173684
796.935	0.0173624
797.013	0.0172366
797.091	0.0174268
797.169	0.0173308
797.247	0.0173965
797.325	0.0174670
797.404	0.0174693
797.482	0.0173753
797.560	0.0174799
797.638	0.0175083
797.716	0.0174609
797.794	0.0174653
797.872	0.0173387
797.950	0.0173100
798.029	0.0173240
798.107	0.0172598
798.185	0.0171282
798.263	0.0171605
798.341	0.0171310
798.419	0.0169910
798.497	0.0170325
798.575	0.0171992
798.654	0.0170123
798.732	0.0169427
798.810	0.0169605
798.888	0.0169543
798.966	0.0171335
799.044	0.0171640
799.122	0.0171371
799.200	0.0169524
799.279	0.0169868
799.357	0.0171886
799.435	0.0172495
799.513	0.0172108
799.591	0.0172017
799.669	0.0171656
799.747	0.0170390
799.825	0.0171416
799.904	0.0171100
799.982	0.0172265
800.060	0.0170646
800.138	0.0170624
800.216	0.0170606
800.294	0.0170983
800.372	0.0170935
800.450	0.0171186
800.529	0.0171358
800.607	0.0172444
800.685	0.0172310
800.763	0.0171768
800.841	0.0171591
800.919	0.0172943
800.997	0.0173061
801.075	0.0172577
801.154	0.0172726
801.232	0.0171799
801.310	0.0173058
801.388	0.0173252
801.466	0.0174594
801.544	0.0174688
801.622	0.0172480
801.700	0.0173607
801.779	0.0174266
801.857	0.0172181
801.935	0.0172717
802.013	0.0172354
802.091	0.0172809
802.169	0.0172805
802.247	0.0171143
802.325	0.0171121
802.404	0.0172968
802.482	0.0171300
802.560	0.0170412
802.638	0.0170213
802.716	0.0169021
802.794	0.0168983
802.872	0.0170077
802.950	0.0170583
803.029	0.0169875
803.107	0.0169314
803.185	0.0169353
803.263	0.0170452
803.341	0.0170905
803.419	0.0169514
803.497	0.0170353
803.575	0.0171580
803.654	0.0170225
803.732	0.0172178
803.810	0.0171864
803.888	0.0172550
803.966	0.0171849
804.044	0.0172493
804.122	0.0172047
804.200	0.0172977
804.279	0.0173889
804.357	0.0172866
804.435	0.0173326
804.513	0.0173499
804.591	0.0172179
804.669	0.0172042
804.747	0.0173034
804.825	0.0173743
804.904	0.0172592
804.982	0.0171278
805.060	0.0171867
805.138	0.0172370
805.216	0.0171638
805.294	0.0171613
805.372	0.0170882
805.450	0.0170919
805.529	0.0171163
805.607	0.0170018
805.685	0.0172462
805.763	0.0170390
805.841	0.0171068
805.919	0.0170319
805.997	0.0170570
806.075	0.0170036
806.154	0.0170300
806.232	0.0170730
806.310	0.0171416
806.388	0.0173328
806.466	0.0171961
806.544	0.0172328
806.622	0.0172029
806.700	0.0171968
806.779	0.0172944
806.857	0.0173202
806.935	0.0173347
807.013	0.0173962
807.091	0.0173164
807.169	0.0173022
807.247	0.0174206
807.325	0.0172778
807.404	0.0173238
807.482	0.0173186
807.560	0.0173041
807.638	0.0172487
807.716	0.0172739
807.794	0.0171795
807.872	0.0171787
807.950	0.0170526
808.029	0.0171729
808.107	0.0169975
808.185	0.0170098
808.263	0.0169373
808.341	0.0171822
808.419	0.0169586
808.497	0.0167879
808.575	0.0170149
808.654	0.0168862
808.732	0.0169270
808.810	0.0168897
808.888	0.0168520
808.966	0.0169032
809.044	0.0170628
809.122	0.0168629
809.200	0.0169469
809.279	0.0170492
809.357	0.0170720
809.435	0.0172925
809.513	0.0173183
809.591	0.0173339
809.669	0.0172860
809.747	0.0172663
809.825	0.0173850
809.904	0.0174667
809.982	0.0174010
810.060	0.0175692
810.138	0.0175573
810.216	0.0174345
810.294	0.0174531
810.372	0.0174615
810.450	0.0175115
810.529	0.0174834
810.607	0.0173872
810.685	0.0174553
810.763	0.0173545
810.841	0.0173273
810.919	0.0173695
810.997	0.0171699
811.075	0.0171898
811.154	0.0173624
811.232	0.0171044
811.310	0.0170929
811.388	0.0172189
811.466	0.0170667
811.544	0.0171329
811.622	0.0169555
811.700	0.0170372
811.779	0.0169569
811.857	0.0170141
811.935	0.0170692
812.013	0.0169260
812.091	0.0170347
812.169	0.0169968
812.247	0.0171085
812.325	0.0168732
812.404	0.0170002
812.482	0.0170152
812.560	0.0172068
812.638	0.0170463
812.716	0.0170042
812.794	0.0170535
812.872	0.0171297
812.950	0.0171803
813.029	0.0171268
813.107	0.0172845
813.185	0.0171368
813.263	0.0174747
813.341	0.0173621
813.419	0.0173727
813.497	0.0174986
813.575	0.0173473
813.654	0.0176036
813.732	0.0174433
813.810	0.0175345
813.888	0.0173844
813.966	0.0173735
814.044	0.0174682
814.122	0.0176256
814.200	0.0174048
814.279	0.0174436
814.357	0.0174479
814.435	0.0173671
814.513	0.0173206
814.591	0.0173143
814.669	0.0173232
814.747	0.0172766
814.825	0.0172663
814.904	0.0173109
814.982	0.0172018
815.060	0.0171423
815.138	0.0172484
815.216	0.0172286
815.294	0.0171618
815.372	0.0171825
815.450	0.0171829
815.529	0.0172453
815.607	0.0172178
815.685	0.0171121
815.763	0.0170908
815.841	0.0170852
815.919	0.0172338
815.997	0.0170506
816.075	0.0171418
816.154	0.0170404
816.232	0.0171858
816.310	0.0170996
816.388	0.0169799
816.466	0.0171060
816.544	0.0170274
816.622	0.0170632
816.700	0.0170345
816.779	0.0172047
816.857	0.0173103
816.935	0.0171647
817.013	0.0170689
817.091	0.0173252
817.169	0.0172440
817.247	0.0172928
817.325	0.0173728
817.404	0.0172982
817.482	0.0173694
817.560	0.0173515
817.638	0.0172573
817.716	0.0173782
817.794	0.0172738
817.872	0.0174487
817.950	0.0174474
818.029	0.0172681
818.107	0.0173740
818.185	0.0172814
818.263	0.0173010
818.341	0.0172318
818.419	0.0172966
818.497	0.0173280
818.575	0.0172997
818.654	0.0173631
818.732	0.0172716
818.810	0.0172948
818.888	0.0172013
818.966	0.0173033
819.044	0.0173733
819.122	0.0171378
819.200	0.0171145
819.279	0.0171906
819.357	0.0172268
819.435	0.0171293
819.513	0.0172923
819.591	0.0170052
819.669	0.0171092
819.747	0.0172254
819.825	0.0172058
819.904	0.0171924
819.982	0.0172208
820.060	0.0170478
820.138	0.0170118
820.216	0.0171635
820.294	0.0172147
820.372	0.0171775
820.450	0.0172737
820.529	0.0171875
820.607	0.0171825
820.685	0.0171751
820.763	0.0172500
820.841	0.0173929
820.919	0.0173053
820.997	0.0171680
821.075	0.0173076
821.154	0.0174733
821.232	0.0173626
821.310	0.0174651
821.388	0.0174420
821.466	0.0175596
821.544	0.0175116
821.622	0.0174761
821.700	0.0175577
821.779	0.0173177
821.857	0.0173854
821.935	0.0174270
822.013	0.0173643
822.091	0.0174437
822.169	0.0173437
822.247	0.0172157
822.325	0.0172410
822.404	0.0171770
822.482	0.0171926
822.560	0.0170444
822.638	0.0169724
822.716	0.0170568
822.794	0.0170522
822.872	0.0168539
822.950	0.0168593
823.029	0.0169999
823.107	0.0170731
823.185	0.0169772
823.263	0.0169636
823.341	0.0169951
823.419	0.0169887
823.497	0.0171375
823.575	0.0171095
823.654	0.0170803
823.732	0.0171499
823.810	0.0171165
823.888	0.0171091
823.966	0.0170707
824.044	0.0171910
824.122	0.0172012
824.200	0.0172701
824.279	0.0172506
824.357	0.0173219
824.435	0.0173110
824.513	0.0172591
824.591	0.0172886
824.669	0.0173640
824.747	0.0172305
824.825	0.0172626
824.904	0.0173785
824.982	0.0171561
825.060	0.0171818
825.138	0.0172763
825.216	0.0173533
825.294	0.0173643
825.372	0.0174966
825.450	0.0173097
825.529	0.0172908
825.607	0.0173611
825.685	0.0174156
825.763	0.0174363
825.841	0.0173669
825.919	0.0172432
825.997	0.0173879
826.075	0.0173228
826.154	0.0173434
826.232	0.0172092
826.310	0.0173097
826.388	0.0170266
826.466	0.0171742
826.544	0.0173044
826.622	0.0172045
826.700	0.0171568
826.779	0.0170296
826.857	0.0171298
826.935	0.0171943
827.013	0.0171786
827.091	0.0169650
827.169	0.0172224
827.247	0.0172372
827.325	0.0173307
827.404	0.0172234
827.482	0.0171821
827.560	0.0172706
827.638	0.0172865
827.716	0.0172970
827.794	0.0171749
827.872	0.0173434
827.950	0.0173138
828.029	0.0173230
828.107	0.0172379
828.185	0.0172649
828.263	0.0172976
828.341	0.0170688
828.419	0.0170680
828.497	0.0171649
828.575	0.0171393
828.654	0.0170731
828.732	0.0172045
828.810	0.0171899
828.888	0.0171887
828.966	0.0172543
829.044	0.0171452
829.122	0.0172408
829.200	0.0172761
829.279	0.0171988
829.357	0.0172118
829.435	0.0173084
829.513	0.0173803
829.591	0.0174483
829.669	0.0172868
829.747	0.0172760
829.825	0.0172594
829.904	0.0172504
829.982	0.0172659
830.060	0.0171253
830.138	0.0171986
830.216	0.0172385
830.294	0.0172469
830.372	0.0173141
830.450	0.0171261
830.529	0.0172757
830.607	0.0174314
830.685	0.0172890
830.763	0.0173009
830.841	0.0171683
830.919	0.0173716
830.997	0.0172659
831.075	0.0172990
831.154	0.0173118
831.232	0.0172333
831.310	0.0172089
831.388	0.0172816
831.466	0.0170531
831.544	0.0171088
831.622	0.0172289
831.700	0.0172117
831.779	0.0171790
831.857	0.0170425
831.935	0.0171279
832.013	0.0172765
832.091	0.0170921
832.169	0.0170793
832.247	0.0171841
832.325	0.0171705
832.404	0.0173406
832.482	0.0171820
832.560	0.0172246
832.638	0.0171861
832.716	0.0172013
832.794	0.0170863
832.872	0.0170632
832.950	0.0170106
833.029	0.0171484
833.107	0.0171645
833.185	0.0170811
833.263	0.0170953
833.341	0.0172631
833.419	0.0171957
833.497	0.0173003
833.575	0.0172119
833.654	0.0174454
833.732	0.0172736
833.810	0.0171336
833.888	0.0173101
833.966	0.0172911
834.044	0.0172209
834.122	0.0172095
834.200	0.0172947
834.279	0.0173698
834.357	0.0171612
834.435	0.0173779
834.513	0.0171584
834.591	0.0174120
834.669	0.0173151
834.747	0.0173312
834.825	0.0173596
834.904	0.0173030
834.982	0.0173405
835.060	0.0174049
835.138	0.0172231
835.216	0.0173433
835.294	0.0173904
835.372	0.0172167
835.450	0.0173071
835.529	0.0171000
835.607	0.0171902
835.685	0.0171759
835.763	0.0170689
835.841	0.0172237
835.919	0.0172960
835.997	0.0171262
836.075	0.0170181
836.154	0.0172141
836.232	0.0172459
836.310	0.0171760
836.388	0.0172871
836.466	0.0171208
836.544	0.0172073
836.622	0.0171939
836.700	0.0172886
836.779	0.0172536
836.857	0.0173238
836.935	0.0172243
837.013	0.0171977
837.091	0.0171999
837.169	0.0172964
837.247	0.0171475
837.325	0.0171637
837.404	0.0172108
837.482	0.0172510
837.560	0.0172004
837.638	0.0172231
837.716	0.0171926
837.794	0.0171926
837.872	0.0172605
837.950	0.0172694
838.029	0.0172740
838.107	0.0173750
838.185	0.0171850
838.263	0.0172215
838.341	0.0174097
838.419	0.0173666
838.497	0.0172092
838.575	0.0172570
838.654	0.0173737
838.732	0.0172441
838.810	0.0172314
838.888	0.0171652
838.966	0.0170952
839.044	0.0171344
839.122	0.0171932
839.200	0.0171200
839.279	0.0171238
839.357	0.0169581
839.435	0.0170889
839.513	0.0170497
839.591	0.0171481
839.669	0.0171193
839.747	0.0171144
839.825	0.0171112
839.904	0.0172546
839.982	0.0173064
840.060	0.0171446
840.138	0.0172234
840.216	0.0172234
840.294	0.0172404
840.372	0.0171434
840.450	0.0172573
840.529	0.0172848
840.607	0.0172764
840.685	0.0173298
840.763	0.0172482
840.841	0.0173074
840.919	0.0173348
840.997	0.0171706
841.075	0.0171900
841.154	0.0173996
841.232	0.0173096
841.310	0.0172250
841.388	0.0172840
841.466	0.0172369
841.544	0.0171729
841.622	0.0172385
841.700	0.0171523
841.779	0.0172653
841.857	0.0171303
841.935	0.0173056
842.013	0.0172766
842.091	0.0173192
842.169	0.0172757
842.247	0.0172224
842.325	0.0172894
842.404	0.0173228
842.482	0.0173298
842.560	0.0171945
842.638	0.0174712
842.716	0.0172697
842.794	0.0174340
842.872	0.0175247
842.950	0.0173341
843.029	0.0173846
843.107	0.0173734
843.185	0.0173193
843.263	0.0172897
843.341	0.0171785
843.419	0.0172281
843.497	0.0173648
843.575	0.0172672
843.654	0.0171931
843.732	0.0171478
843.810	0.0170610
843.888	0.0169962
843.966	0.0170040
844.044	0.0169986
844.122	0.0170246
844.200	0.0171230
844.279	0.0169602
844.357	0.0171144
844.435	0.0170098
844.513	0.0171455
844.591	0.0170659
844.669	0.0172298
844.747	0.0171931
844.825	0.0172046
844.904	0.0171221
844.982	0.0171539
845.060	0.0173724
845.138	0.0173079
845.216	0.0173159
845.294	0.0173788
845.372	0.0174628
845.450	0.0174323
845.529	0.0172911
845.607	0.0173519
845.685	0.0174919
845.763	0.0173226
845.841	0.0173663
845.919	0.0174491
845.997	0.0174939
846.075	0.0175031
846.154	0.0175852
846.232	0.0174601
846.310	0.0174607
846.388	0.0173804
846.466	0.0174097
846.544	0.0175644
846.622	0.0175095
846.700	0.0172503
846.779	0.0171629
846.857	0.0172745
846.935	0.0172140
847.013	0.0172608
847.091	0.0170898
847.169	0.0171506
847.247	0.0169927
847.325	0.0170011
847.404	0.0171184
847.482	0.0170171
847.560	0.0170900
847.638	0.0170921
847.716	0.0171321
847.794	0.0170818
847.872	0.0170741
847.950	0.0170789
848.029	0.0172115
848.107	0.0173296
848.185	0.0172998
848.263	0.0172352
848.341	0.0172648
848.419	0.0172180
848.497	0.0173259
848.575	0.0173897
848.654	0.0174118
848.732	0.0174377
848.810	0.0174689
848.888	0.0173412
848.966	0.0173232
849.044	0.0173331
849.122	0.0173148
849.200	0.0173807
849.279	0.0172607
849.357	0.0173308
849.435	0.0171522
849.513	0.0171573
849.591	0.0173354
849.669	0.0170215
849.747	0.0169778
849.825	0.0171457
849.904	0.0170773
849.982	0.0170210
850.060	0.0172010
850.138	0.0168832
850.216	0.0169621
850.294	0.0170297
850.372	0.0169250
850.450	0.0169769
850.529	0.0171818
850.607	0.0171140
850.685	0.0171851
850.763	0.0171826
850.841	0.0173008
850.919	0.0173944
850.997	0.0172871
851.075	0.0173002
851.154	0.0173985
851.232	0.0173090
851.310	0.0173483
851.388	0.0173686
851.466	0.0174351
851.544	0.0174660
851.622	0.0172794
851.700	0.0173660
851.779	0.0174876
851.857	0.0175411
851.935	0.0174327
852.013	0.0173221
852.091	0.0172866
852.169	0.0173317
852.247	0.0172971
852.325	0.0173112
852.404	0.0172379
852.482	0.0172093
852.560	0.0173886
852.638	0.0172850
852.716	0.0172173
852.794	0.0172340
852.872	0.0171412
852.950	0.0172308
853.029	0.0169727
853.107	0.0171536
853.185	0.0172105
853.263	0.0169698
853.341	0.0169626
853.419	0.0170152
853.497	0.0170103
853.575	0.0170373
853.654	0.0171161
853.732	0.0170140
853.810	0.0169651
853.888	0.0169831
853.966	0.0170880
854.044	0.0171176
854.122	0.0171841
854.200	0.0172586
854.279	0.0173035
854.357	0.0173726
854.435	0.0172661
854.513	0.0174185
854.591	0.0173139
854.669	0.0174104
854.747	0.0174048
854.825	0.0174623
854.904	0.0172788
854.982	0.0174288
855.060	0.0174366
855.138	0.0172863
855.216	0.0173186
855.294	0.0173220
855.372	0.0172668
855.450	0.0174076
855.529	0.0172206
855.607	0.0173066
855.685	0.0172002
855.763	0.0171657
855.841	0.0171696
855.919	0.0172363
855.997	0.0170551
856.075	0.0172276
856.154	0.0171678
856.232	0.0170736
856.310	0.0170795
856.388	0.0170619
856.466	0.0170464
856.544	0.0170889
856.622	0.0170949
856.700	0.0171004
856.779	0.0170874
856.857	0.0172334
856.935	0.0171021
857.013	0.0173904
857.091	0.0172573
857.169	0.0172983
857.247	0.0171995
857.325	0.0173153
857.404	0.0173714
857.482	0.0173666
857.560	0.0172150
857.638	0.0172574
857.716	0.0173407
857.794	0.0173535
857.872	0.0172794
857.950	0.0172650
858.029	0.0171855
858.107	0.0171404
858.185	0.0171930
858.263	0.0172684
858.341	0.0172520
858.419	0.0172688
858.497	0.0171752
858.575	0.0171505
858.654	0.0171315
858.732	0.0170223
858.810	0.0170965
858.888	0.0171970
858.966	0.0171708
859.044	0.0172683
859.122	0.0171794
859.200	0.0171857
859.279	0.0172065
859.357	0.0171297
859.435	0.0171201
859.513	0.0173803
859.591	0.0172044
859.669	0.0172983
859.747	0.0172139
859.825	0.0171972
859.904	0.0171475
859.982	0.0172408
860.060	0.0171997
860.138	0.0173358
860.216	0.0171964
860.294	0.0171043
860.372	0.0172144
860.450	0.0172517
860.529	0.0174170
860.607	0.0171405
860.685	0.0171985
860.763	0.0171828
860.841	0.0172563
860.919	0.0172991
860.997	0.0172072
861.075	0.0172573
861.154	0.0172009
861.232	0.0171498
861.310	0.0172810
861.388	0.0171758
861.466	0.0172075
861.544	0.0171574
861.622	0.0169997
861.700	0.0172499
861.779	0.0171573
861.857	0.0171970
861.935	0.0172073
862.013	0.0171230
862.091	0.0170741
862.169	0.0171290
862.247	0.0172002
862.325	0.0170480
862.404	0.0170602
862.482	0.0170979
862.560	0.0170193
862.638	0.0169112
862.716	0.0170712
862.794	0.0170963
862.872	0.0170736
862.950	0.0172141
863.029	0.0171274
863.107	0.0171598
863.185	0.0173240
863.263	0.0171049
863.341	0.0172187
863.419	0.0172158
863.497	0.0172983
863.575	0.0174124
863.654	0.0172627
863.732	0.0173154
863.810	0.0173038
863.888	0.0172185
863.966	0.0172294
864.044	0.0171413
864.122	0.0171613
864.200	0.0172678
864.279	0.0174076
864.357	0.0172189
864.435	0.0171603
864.513	0.0171861
864.591	0.0172124
864.669	0.0171576
864.747	0.0171243
864.825	0.0171076
864.904	0.0170288
864.982	0.0171214
865.060	0.0170410
865.138	0.0170613
865.216	0.0170313
865.294	0.0170341
865.372	0.0171279
865.450	0.0169983
865.529	0.0170358
865.607	0.0170649
865.685	0.0170432
865.763	0.0171105
865.841	0.0171725
865.919	0.0171083
865.997	0.0171004
866.075	0.0173424
866.154	0.0172761
866.232	0.0170615
866.310	0.0172739
866.388	0.0172299
866.466	0.0171099
866.544	0.0171677
866.622	0.0171741
866.700	0.0173954
866.779	0.0172955
866.857	0.0173344
866.935	0.0173330
867.013	0.0172883
867.091	0.0171642
867.169	0.0173655
867.247	0.0172678
867.325	0.0170906
867.404	0.0171548
867.482	0.0172638
867.560	0.0171772
867.638	0.0171391
867.716	0.0171847
867.794	0.0170251
867.872	0.0170776
867.950	0.0170476
868.029	0.0170155
868.107	0.0170432
868.185	0.0170296
868.263	0.0169870
868.341	0.0171827
868.419	0.0172651
868.497	0.0173015
868.575	0.0172272
868.654	0.0172460
868.732	0.0173228
868.810	0.0172452
868.888	0.0173904
868.966	0.0173174
869.044	0.0172307
869.122	0.0174506
869.200	0.0173688
869.279	0.0174044
869.357	0.0172533
869.435	0.0173371
869.513	0.0173077
869.591	0.0173279
869.669	0.0173663
869.747	0.0172004
869.825	0.0172624
869.904	0.0173627
869.982	0.0171926
870.060	0.0172832
870.138	0.0172087
870.216	0.0171478
870.294	0.0172112
870.372	0.0171046
870.450	0.0172121
870.529	0.0171061
870.607	0.0170268
870.685	0.0170889
870.763	0.0170757
870.841	0.0171048
870.919	0.0171089
870.997	0.0172141
871.075	0.0171924
871.154	0.0171722
871.232	0.0170966
871.310	0.0171843
871.388	0.0171204
871.466	0.0169993
871.544	0.0172205
871.622	0.0172128
871.700	0.0171523
871.779	0.0172136
871.857	0.0172983
871.935	0.0172188
872.013	0.0171480
872.091	0.0171975
872.169	0.0172562
872.247	0.0172169
872.325	0.0171851
872.404	0.0172405
872.482	0.0172865
872.560	0.0170947
872.638	0.0173019
872.716	0.0172457
872.794	0.0170641
872.872	0.0172112
872.950	0.0172519
873.029	0.0171867
873.107	0.0171437
873.185	0.0172429
873.263	0.0170889
873.341	0.0171772
873.419	0.0170634
873.497	0.0172340
873.575	0.0171019
873.654	0.0170539
873.732	0.0171172
873.810	0.0171890
873.888	0.0171607
873.966	0.0171596
874.044	0.0171622
874.122	0.0172097
874.200	0.0172068
874.279	0.0170192
874.357	0.0171290
874.435	0.0172449
874.513	0.0170953
874.591	0.0171728
874.669	0.0172002
874.747	0.0171805
874.825	0.0170821
874.904	0.0171365
874.982	0.0172099
875.060	0.0172002
875.138	0.0171142
875.216	0.0171331
875.294	0.0171520
875.372	0.0171300
875.450	0.0171513
875.529	0.0170184
875.607	0.0171322
875.685	0.0172226
875.763	0.0170725
875.841	0.0171172
875.919	0.0171468
875.997	0.0173602
876.075	0.0172650
876.154	0.0172341
876.232	0.0171972
876.310	0.0173593
876.388	0.0172643
876.466	0.0170390
876.544	0.0170612
876.622	0.0170116
876.700	0.0168903
876.779	0.0168976
876.857	0.0168679
876.935	0.0169659
877.013	0.0171894
877.091	0.0170961
877.169	0.0171003
877.247	0.0171488
877.325	0.0170927
877.404	0.0170638
877.482	0.0170223
877.560	0.0171408
877.638	0.0172323
877.716	0.0172618
877.794	0.0170869
877.872	0.0170894
877.950	0.0173344
878.029	0.0173187
878.107	0.0174570
878.185	0.0174827
878.263	0.0174002
878.341	0.0174557
878.419	0.0176192
878.497	0.0175250
878.575	0.0173885
878.654	0.0172290
878.732	0.0171119
878.810	0.0172656
878.888	0.0169906
878.966	0.0169370
879.044	0.0169189
879.122	0.0167574
879.200	0.0169885
879.279	0.0168882
879.357	0.0169529
879.435	0.0172161
879.513	0.0172085
879.591	0.0172308
879.669	0.0170911
879.747	0.0172588
879.825	0.0172272
879.904	0.0170071
879.982	0.0169873
880.060	0.0168979
880.138	0.0168391
880.216	0.0168621
880.294	0.0167255
880.372	0.0165806
880.450	0.0168518
880.529	0.0169430
880.607	0.0170072
880.685	0.0171505
880.763	0.0172658
880.841	0.0173672
880.919	0.0173552
880.997	0.0173838
881.075	0.0175916
881.154	0.0175311
881.232	0.0176860
881.310	0.0177360
881.388	0.0175708
881.466	0.0176453
881.544	0.0177542
881.622	0.0176031
881.700	0.0175793
881.779	0.0174775
881.857	0.0174908
881.935	0.0174165
882.013	0.0173269
882.091	0.0172694
882.169	0.0170464
882.247	0.0170485
882.325	0.0170572
882.404	0.0169480
882.482	0.0170220
882.560	0.0170427
882.638	0.0170935
882.716	0.0170730
882.794	0.0171204
882.872	0.0172112
882.950	0.0170876
883.029	0.0169596
883.107	0.0169469
883.185	0.0168367
883.263	0.0166455
883.341	0.0165168
883.419	0.0166058
883.497	0.0165118
883.575	0.0164763
883.654	0.0167749
883.732	0.0168066
883.810	0.0167744
883.888	0.0168147
883.966	0.0171925
884.044	0.0172569
884.122	0.0175108
884.200	0.0175269
884.279	0.0176995
884.357	0.0178146
884.435	0.0178599
884.513	0.0176427
884.591	0.0177746
884.669	0.0178835
884.747	0.0176029
884.825	0.0175375
884.904	0.0173538
884.982	0.0173234
885.060	0.0172417
885.138	0.0170064
885.216	0.0169407
885.294	0.0167339
885.372	0.0165844
885.450	0.0166508
885.529	0.0166596
885.607	0.0166880
885.685	0.0168520
885.763	0.0168807
885.841	0.0170095
885.919	0.0171234
885.997	0.0172971
886.075	0.0173448
886.154	0.0173376
886.232	0.0173929
886.310	0.0173164
886.388	0.0172954
886.466	0.0172507
886.544	0.0172946
886.622	0.0171275
886.700	0.0171832
886.779	0.0169189
886.857	0.0170126
886.935	0.0171356
887.013	0.0169642
887.091	0.0170763
887.169	0.0171854
887.247	0.0172030
887.325	0.0173854
887.404	0.0173236
887.482	0.0175072
887.560	0.0175506
887.638	0.0174972
887.716	0.0175067
887.794	0.0174120
887.872	0.0174231
887.950	0.0173491
888.029	0.0171731
888.107	0.0171626
888.185	0.0170774
888.263	0.0169661
888.341	0.0168316
888.419	0.0167081
888.497	0.0169498
888.575	0.0167973
888.654	0.0167840
888.732	0.0169505
888.810	0.0169128
888.888	0.0169985
888.966	0.0171510
889.044	0.0171555
889.122	0.0171411
889.200	0.0172805
889.279	0.0172860
889.357	0.0173515
889.435	0.0173259
889.513	0.0173765
889.591	0.0172929
889.669	0.0173546
889.747	0.0173905
889.825	0.0172380
889.904	0.0172763
889.982	0.0172825
890.060	0.0172131
890.138	0.0172630
890.216	0.0172253
890.294	0.0172713
890.372	0.0172373
890.450	0.0172662
890.529	0.0172772
890.607	0.0171967
890.685	0.0172823
890.763	0.0171133
890.841	0.0170443
890.919	0.0170743
890.997	0.0170959
891.075	0.0169763
891.154	0.0170676
891.232	0.0170380
891.310	0.0169005
891.388	0.0169869
891.466	0.0169095
891.544	0.0168132
891.622	0.0167509
891.700	0.0168645
891.779	0.0170237
891.857	0.0170468
891.935	0.0170277
892.013	0.0171667
892.091	0.0172489
892.169	0.0174060
892.247	0.0174361
892.325	0.0175546
892.404	0.0175838
892.482	0.0174023
892.560	0.0176146
892.638	0.0175577
892.716	0.0174493
892.794	0.0175112
892.872	0.0175325
892.950	0.0173540
893.029	0.0172478
893.107	0.0173186
893.185	0.0173015
893.263	0.0172540
893.341	0.0171674
893.419	0.0172268
893.497	0.0171939
893.575	0.0169427
893.654	0.0170055
893.732	0.0170410
893.810	0.0168764
893.888	0.0171075
893.966	0.0169968
894.044	0.0169759
894.122	0.0170363
894.200	0.0171282
894.279	0.0169811
894.357	0.0171057
894.435	0.0171732
894.513	0.0170362
894.591	0.0171922
894.669	0.0170206
894.747	0.0171000
894.825	0.0170396
894.904	0.0171821
894.982	0.0170016
895.060	0.0168674
895.138	0.0171977
895.216	0.0170544
895.294	0.0170450
895.372	0.0170432
895.450	0.0170969
895.529	0.0170902
895.607	0.0169853
895.685	0.0171320
895.763	0.0172128
895.841	0.0172070
895.919	0.0172110
895.997	0.0173586
896.075	0.0173389
896.154	0.0173870
896.232	0.0175401
896.310	0.0173820
896.388	0.0175990
896.466	0.0174332
896.544	0.0173179
896.622	0.0175228
896.700	0.0175200
896.779	0.0174013
896.857	0.0175298
896.935	0.0174295
897.013	0.0173218
897.091	0.0173046
897.169	0.0172539
897.247	0.0172218
897.325	0.0172746
897.404	0.0173466
897.482	0.0170773
897.560	0.0171757
897.638	0.0171327
897.716	0.0170788
897.794	0.0170674
897.872	0.0171538
897.950	0.0171333
898.029	0.0170988
898.107	0.0171898
898.185	0.0171215
898.263	0.0172014
898.341	0.0170775
898.419	0.0171127
898.497	0.0170425
898.575	0.0170047
898.654	0.0171037
898.732	0.0168994
898.810	0.0170148
898.888	0.0169977
898.966	0.0170601
899.044	0.0169815
899.122	0.0170548
899.200	0.0170381
899.279	0.0170639
899.357	0.0172366
899.435	0.0173846
899.513	0.0173673
899.591	0.0173136
899.669	0.0174453
899.747	0.0173648
899.825	0.0175390
899.904	0.0174075
899.982	0.0174365
900.060	0.0174338
900.138	0.0174139
900.216	0.0173376
900.294	0.0173132
900.372	0.0173352
900.450	0.0172723
900.529	0.0172890
900.607	0.0173427
900.685	0.0172261
900.763	0.0171263
900.841	0.0170726
900.919	0.0170973
900.997	0.0172453
901.075	0.0170249
901.154	0.0171951
901.232	0.0170548
901.310	0.0172673
901.388	0.0171427
901.466	0.0173249
901.544	0.0172274
901.622	0.0171855
901.700	0.0172149
901.779	0.0171223
901.857	0.0173162
901.935	0.0172274
902.013	0.0171838
902.091	0.0171353
902.169	0.0171576
902.247	0.0171953
902.325	0.0172180
902.404	0.0172301
902.482	0.0171972
902.560	0.0174004
902.638	0.0172429
902.716	0.0172839
902.794	0.0172038
902.872	0.0173045
902.950	0.0173695
903.029	0.0174064
903.107	0.0174188
903.185	0.0173647
903.263	0.0173737
903.341	0.0173966
903.419	0.0173122
903.497	0.0173524
903.575	0.0173867
903.654	0.0172637
903.732	0.0172003
903.810	0.0172034
903.888	0.0172233
903.966	0.0171352
904.044	0.0170460
904.122	0.0171368
904.200	0.0171706
904.279	0.0170182
904.357	0.0169427
904.435	0.0169451
904.513	0.0171176
904.591	0.0170601
904.669	0.0171217
904.747	0.0170840
904.825	0.0171218
904.904	0.0170242
904.982	0.0169798
905.060	0.0172924
905.138	0.0172316
905.216	0.0171816
905.294	0.0172450
905.372	0.0172404
905.450	0.0174438
905.529	0.0175287
905.607	0.0176064
905.685	0.0173722
905.763	0.0175248
905.841	0.0175533
905.919	0.0173081
905.997	0.0173826
906.075	0.0174206
906.154	0.0174338
906.232	0.0172497
906.310	0.0172852
906.388	0.0172929
906.466	0.0171683
906.544	0.0170610
906.622	0.0170885
906.700	0.0172704
906.779	0.0170961
906.857	0.0171217
906.935	0.0169627
907.013	0.0169393
907.091	0.0169431
907.169	0.0170190
907.247	0.0169686
907.325	0.0168847
907.404	0.0170771
907.482	0.0170061
907.560	0.0168965
907.638	0.0169498
907.716	0.0171562
907.794	0.0169942
907.872	0.0170889
907.950	0.0171331
908.029	0.0172423
908.107	0.0173232
908.185	0.0173679
908.263	0.0172701
908.341	0.0173325
908.419	0.0175640
908.497	0.0174525
908.575	0.0174803
908.654	0.0174017
908.732	0.0173981
908.810	0.0172661
908.888	0.0173341
908.966	0.0174170
909.044	0.0174220
909.122	0.0173720
909.200	0.0171516
909.279	0.0172904
909.357	0.0173151
909.435	0.0173265
909.513	0.0171638
909.591	0.0171266
909.669	0.0171542
909.747	0.0172028
909.825	0.0171771
909.904	0.0171092
909.982	0.0170270
910.060	0.0170171
910.138	0.0169794
910.216	0.0170231
910.294	0.0170061
910.372	0.0170441
910.450	0.0170303
910.529	0.0171560
910.607	0.0171372
910.685	0.0170727
910.763	0.0170712
910.841	0.0171251
910.919	0.0171077
910.997	0.0172154
911.075	0.0172859
911.154	0.0174273
911.232	0.0174075
911.310	0.0174121
911.388	0.0173856
911.466	0.0174276
911.544	0.0173395
911.622	0.0174863
911.700	0.0173084
911.779	0.0172849
911.857	0.0175060
911.935	0.0173602
912.013	0.0174099
912.091	0.0174367
912.169	0.0174043
912.247	0.0173010
912.325	0.0173558
912.404	0.0172310
912.482	0.0171325
912.560	0.0172906
912.638	0.0172663
912.716	0.0172426
912.794	0.0169742
912.872	0.0169922
912.950	0.0168460
913.029	0.0169665
913.107	0.0170190
913.185	0.0170676
913.263	0.0169878
913.341	0.0170962
913.419	0.0170066
913.497	0.0170224
913.575	0.0169585
913.654	0.0170189
913.732	0.0171351
913.810	0.0172169
913.888	0.0171016
913.966	0.0170911
914.044	0.0172430
914.122	0.0172784
914.200	0.0171527
914.279	0.0172137
914.357	0.0173169
914.435	0.0174030
914.513	0.0172842
914.591	0.0173170
914.669	0.0173810
914.747	0.0174746
914.825	0.0174954
914.904	0.0174291
914.982	0.0173729
915.060	0.0174137
915.138	0.0174939
915.216	0.0174426
915.294	0.0174741
915.372	0.0173280
915.450	0.0173833
915.529	0.0174381
915.607	0.0173324
915.685	0.0172794
915.763	0.0172607
915.841	0.0173135
915.919	0.0173427
915.997	0.0172169
916.075	0.0172182
916.154	0.0171442
916.232	0.0170908
916.310	0.0171747
916.388	0.0170847
916.466	0.0170394
916.544	0.0170387
916.622	0.0170531
916.700	0.0169370
916.779	0.0171106
916.857	0.0171302
916.935	0.0172442
917.013	0.0172682
917.091	0.0171720
917.169	0.0173039
917.247	0.0171987
917.325	0.0172843
917.404	0.0173753
917.482	0.0172750
917.560	0.0174441
917.638	0.0173672
917.716	0.0173476
917.794	0.0173093
917.872	0.0172626
917.950	0.0173505
918.029	0.0173031
918.107	0.0172459
918.185	0.0172219
918.263	0.0172475
918.341	0.0171764
918.419	0.0172986
918.497	0.0171336
918.575	0.0171040
918.654	0.0173579
918.732	0.0173457
918.810	0.0172265
918.888	0.0173824
918.966	0.0173647
919.044	0.0172700
919.122	0.0172021
919.200	0.0174518
919.279	0.0173248
919.357	0.0173911
919.435	0.0173932
919.513	0.0172549
919.591	0.0172993
919.669	0.0173380
919.747	0.0173966
919.825	0.0172247
919.904	0.0171642
