06/03/2022	14:02:55	Ver.	4.1	UNKNOWN
Optical Delay	599.981738	Delta X		0.078125	Sweeps	1	Scan Rate	0/0
Coordinates	Axis 1	NaN	Axis 2	NaN	Axis 3	NaN	Axis 4	NaN	Axis 5	NaN	Axis 6	0.000000
TX Power	0.000000	RX Power	0.000000

599.982	0.0170325
600.060	0.0170205
600.138	0.0172299
600.216	0.0169659
600.294	0.0170958
600.372	0.0170589
600.450	0.0170638
600.529	0.0169595
600.607	0.0170237
600.685	0.0170968
600.763	0.0169418
600.841	0.0170003
600.919	0.0169656
600.997	0.0170720
601.075	0.0170400
601.154	0.0170128
601.232	0.0170110
601.310	0.0170650
601.388	0.0170747
601.466	0.0170525
601.544	0.0171076
601.622	0.0171569
601.700	0.0169054
601.779	0.0169683
601.857	0.0171040
601.935	0.0169954
602.013	0.0169979
602.091	0.0170483
602.169	0.0170602
602.247	0.0171272
602.325	0.0169177
602.404	0.0171096
602.482	0.0171088
602.560	0.0170834
602.638	0.0169422
602.716	0.0170837
602.794	0.0170602
602.872	0.0171218
602.950	0.0169855
603.029	0.0171056
603.107	0.0170362
603.185	0.0170329
603.263	0.0170084
603.341	0.0170209
603.419	0.0170815
603.497	0.0171703
603.575	0.0170242
603.654	0.0171497
603.732	0.0170698
603.810	0.0170953
603.888	0.0171187
603.966	0.0171021
604.044	0.0169887
604.122	0.0170434
604.200	0.0170794
604.279	0.0170889
604.357	0.0169656
604.435	0.0170235
604.513	0.0171220
604.591	0.0170219
604.669	0.0170671
604.747	0.0171435
604.825	0.0170674
604.904	0.0170618
604.982	0.0171552
605.060	0.0170738
605.138	0.0169768
605.216	0.0169830
605.294	0.0169760
605.372	0.0169855
605.450	0.0170911
605.529	0.0170653
605.607	0.0169785
605.685	0.0168481
605.763	0.0170763
605.841	0.0170113
605.919	0.0169972
605.997	0.0170209
606.075	0.0169619
606.154	0.0170426
606.232	0.0170578
606.310	0.0169885
606.388	0.0170393
606.466	0.0170584
606.544	0.0170535
606.622	0.0169805
606.700	0.0170158
606.779	0.0170541
606.857	0.0171632
606.935	0.0171125
607.013	0.0171806
607.091	0.0170660
607.169	0.0170559
607.247	0.0169393
607.325	0.0169888
607.404	0.0169844
607.482	0.0171445
607.560	0.0170846
607.638	0.0170634
607.716	0.0170525
607.794	0.0169942
607.872	0.0169935
607.950	0.0169917
608.029	0.0171298
608.107	0.0170459
608.185	0.0170422
608.263	0.0170660
608.341	0.0171241
608.419	0.0170640
608.497	0.0169396
608.575	0.0171384
608.654	0.0169766
608.732	0.0170255
608.810	0.0170895
608.888	0.0170389
608.966	0.0170246
609.044	0.0170536
609.122	0.0169200
609.200	0.0169775
609.279	0.0169835
609.357	0.0170686
609.435	0.0170055
609.513	0.0169449
609.591	0.0169294
609.669	0.0170971
609.747	0.0169089
609.825	0.0169973
609.904	0.0169872
609.982	0.0170670
610.060	0.0170358
610.138	0.0169062
610.216	0.0171449
610.294	0.0170022
610.372	0.0170689
610.450	0.0169787
610.529	0.0170457
610.607	0.0171015
610.685	0.0170753
610.763	0.0171614
610.841	0.0171093
610.919	0.0171346
610.997	0.0172748
611.075	0.0170462
611.154	0.0170776
611.232	0.0170906
611.310	0.0171265
611.388	0.0172127
611.466	0.0171528
611.544	0.0170546
611.622	0.0172109
611.700	0.0172523
611.779	0.0169950
611.857	0.0170021
611.935	0.0171173
612.013	0.0171440
612.091	0.0170438
612.169	0.0169724
612.247	0.0170544
612.325	0.0170345
612.404	0.0169463
612.482	0.0171041
612.560	0.0171497
612.638	0.0170998
612.716	0.0171056
612.794	0.0170150
612.872	0.0170203
612.950	0.0170026
613.029	0.0170198
613.107	0.0170968
613.185	0.0170081
613.263	0.0170103
613.341	0.0170387
613.419	0.0169657
613.497	0.0170666
613.575	0.0169496
613.654	0.0169877
613.732	0.0170619
613.810	0.0171853
613.888	0.0170695
613.966	0.0171658
614.044	0.0169958
614.122	0.0172094
614.200	0.0172137
614.279	0.0170454
614.357	0.0171819
614.435	0.0171702
614.513	0.0171712
614.591	0.0171898
614.669	0.0170142
614.747	0.0171700
614.825	0.0172230
614.904	0.0169832
614.982	0.0171548
615.060	0.0171725
615.138	0.0170113
615.216	0.0170232
615.294	0.0171659
615.372	0.0170654
615.450	0.0169652
615.529	0.0169888
615.607	0.0171822
615.685	0.0171331
615.763	0.0170827
615.841	0.0170735
615.919	0.0170369
615.997	0.0170148
616.075	0.0169917
616.154	0.0170348
616.232	0.0170758
616.310	0.0170319
616.388	0.0170630
616.466	0.0168900
616.544	0.0169540
616.622	0.0169205
616.700	0.0168958
616.779	0.0170176
616.857	0.0169032
616.935	0.0170625
617.013	0.0170377
617.091	0.0169882
617.169	0.0168743
617.247	0.0168788
617.325	0.0170552
617.404	0.0169811
617.482	0.0169131
617.560	0.0171146
617.638	0.0170481
617.716	0.0170224
617.794	0.0169517
617.872	0.0171186
617.950	0.0170991
618.029	0.0170831
618.107	0.0171010
618.185	0.0171452
618.263	0.0169839
618.341	0.0169845
618.419	0.0171494
618.497	0.0171756
618.575	0.0171783
618.654	0.0171799
618.732	0.0171110
618.810	0.0171345
618.888	0.0171660
618.966	0.0169718
619.044	0.0169440
619.122	0.0171180
619.200	0.0169361
619.279	0.0171468
619.357	0.0170650
619.435	0.0170655
619.513	0.0170835
619.591	0.0171278
619.669	0.0168948
619.747	0.0169380
619.825	0.0169237
619.904	0.0168865
619.982	0.0169953
620.060	0.0169708
620.138	0.0169712
620.216	0.0170085
620.294	0.0169476
620.372	0.0169735
620.450	0.0170168
620.529	0.0169825
620.607	0.0170393
620.685	0.0170164
620.763	0.0171232
620.841	0.0169791
620.919	0.0169947
620.997	0.0171136
621.075	0.0171629
621.154	0.0170071
621.232	0.0171181
621.310	0.0169994
621.388	0.0171399
621.466	0.0170288
621.544	0.0170532
621.622	0.0170481
621.700	0.0171188
621.779	0.0172459
621.857	0.0170997
621.935	0.0170450
622.013	0.0171755
622.091	0.0170278
622.169	0.0169917
622.247	0.0169742
622.325	0.0172007
622.404	0.0170888
622.482	0.0170746
622.560	0.0170290
622.638	0.0170101
622.716	0.0170988
622.794	0.0170948
622.872	0.0169949
622.950	0.0170456
623.029	0.0170411
623.107	0.0168394
623.185	0.0169745
623.263	0.0170377
623.341	0.0170254
623.419	0.0171209
623.497	0.0169986
623.575	0.0170824
623.654	0.0169621
623.732	0.0170993
623.810	0.0170000
623.888	0.0167850
623.966	0.0169534
624.044	0.0170969
624.122	0.0170322
624.200	0.0169245
624.279	0.0170266
624.357	0.0171458
624.435	0.0170031
624.513	0.0171106
624.591	0.0170073
624.669	0.0169223
624.747	0.0168797
624.825	0.0170135
624.904	0.0171259
624.982	0.0170184
625.060	0.0170400
625.138	0.0170184
625.216	0.0170521
625.294	0.0168936
625.372	0.0172276
625.450	0.0170734
625.529	0.0170528
625.607	0.0170515
625.685	0.0170729
625.763	0.0169930
625.841	0.0171532
625.919	0.0171770
625.997	0.0169764
626.075	0.0170204
626.154	0.0169918
626.232	0.0170251
626.310	0.0171355
626.388	0.0171787
626.466	0.0170283
626.544	0.0169756
626.622	0.0171566
626.700	0.0169898
626.779	0.0170554
626.857	0.0168271
626.935	0.0169855
627.013	0.0171783
627.091	0.0170217
627.169	0.0170182
627.247	0.0170732
627.325	0.0171672
627.404	0.0171227
627.482	0.0170273
627.560	0.0170257
627.638	0.0169539
627.716	0.0170351
627.794	0.0169667
627.872	0.0170469
627.950	0.0170444
628.029	0.0170882
628.107	0.0170514
628.185	0.0169705
628.263	0.0169633
628.341	0.0170114
628.419	0.0171091
628.497	0.0170774
628.575	0.0170530
628.654	0.0170892
628.732	0.0171456
628.810	0.0172083
628.888	0.0170051
628.966	0.0170686
629.044	0.0169978
629.122	0.0170299
629.200	0.0169910
629.279	0.0171240
629.357	0.0171161
629.435	0.0170668
629.513	0.0169165
629.591	0.0170374
629.669	0.0170439
629.747	0.0170973
629.825	0.0171845
629.904	0.0171024
629.982	0.0168997
630.060	0.0168894
630.138	0.0172634
630.216	0.0171880
630.294	0.0170235
630.372	0.0169714
630.450	0.0171201
630.529	0.0170584
630.607	0.0169231
630.685	0.0169775
630.763	0.0170311
630.841	0.0170036
630.919	0.0170065
630.997	0.0169773
631.075	0.0170574
631.154	0.0169286
631.232	0.0170729
631.310	0.0170146
631.388	0.0169277
631.466	0.0170618
631.544	0.0170019
631.622	0.0170442
631.700	0.0170076
631.779	0.0169943
631.857	0.0168522
631.935	0.0171319
632.013	0.0171326
632.091	0.0171191
632.169	0.0170695
632.247	0.0171312
632.325	0.0170254
632.404	0.0170953
632.482	0.0171684
632.560	0.0171035
632.638	0.0171638
632.716	0.0171581
632.794	0.0171654
632.872	0.0170015
632.950	0.0169039
633.029	0.0171761
633.107	0.0170306
633.185	0.0170957
633.263	0.0171566
633.341	0.0170603
633.419	0.0170900
633.497	0.0170564
633.575	0.0170113
633.654	0.0171452
633.732	0.0172544
633.810	0.0170521
633.888	0.0169342
633.966	0.0169803
634.044	0.0170166
634.122	0.0170795
634.200	0.0171972
634.279	0.0170394
634.357	0.0169812
634.435	0.0169758
634.513	0.0170033
634.591	0.0170901
634.669	0.0170263
634.747	0.0170866
634.825	0.0170802
634.904	0.0170988
634.982	0.0171902
635.060	0.0170248
635.138	0.0170688
635.216	0.0170224
635.294	0.0169926
635.372	0.0170560
635.450	0.0170364
635.529	0.0169196
635.607	0.0172134
635.685	0.0169067
635.763	0.0169885
635.841	0.0170807
635.919	0.0171191
635.997	0.0170937
636.075	0.0169904
636.154	0.0171159
636.232	0.0170804
636.310	0.0170672
636.388	0.0170329
636.466	0.0170651
636.544	0.0170319
636.622	0.0170757
636.700	0.0171113
636.779	0.0171218
636.857	0.0170871
636.935	0.0171219
637.013	0.0171117
637.091	0.0170094
637.169	0.0170418
637.247	0.0170207
637.325	0.0170903
637.404	0.0171236
637.482	0.0170120
637.560	0.0171326
637.638	0.0170478
637.716	0.0170106
637.794	0.0170300
637.872	0.0171443
637.950	0.0170531
638.029	0.0171123
638.107	0.0169452
638.185	0.0170353
638.263	0.0172158
638.341	0.0169403
638.419	0.0170473
638.497	0.0171537
638.575	0.0171258
638.654	0.0170200
638.732	0.0169685
638.810	0.0170583
638.888	0.0170600
638.966	0.0170696
639.044	0.0169750
639.122	0.0170122
639.200	0.0172079
639.279	0.0170071
639.357	0.0170717
639.435	0.0170728
639.513	0.0169896
639.591	0.0171294
639.669	0.0170531
639.747	0.0170361
639.825	0.0169965
639.904	0.0170399
639.982	0.0169828
640.060	0.0169333
640.138	0.0171187
640.216	0.0171146
640.294	0.0170599
640.372	0.0170049
640.450	0.0170243
640.529	0.0169078
640.607	0.0170703
640.685	0.0170266
640.763	0.0170364
640.841	0.0171383
640.919	0.0170126
640.997	0.0170066
641.075	0.0170075
641.154	0.0169888
641.232	0.0169191
641.310	0.0170385
641.388	0.0169537
641.466	0.0169765
641.544	0.0170186
641.622	0.0170423
641.700	0.0170285
641.779	0.0170970
641.857	0.0170547
641.935	0.0171605
642.013	0.0169830
642.091	0.0169980
642.169	0.0171347
642.247	0.0170860
642.325	0.0170358
642.404	0.0169883
642.482	0.0169718
642.560	0.0170316
642.638	0.0171307
642.716	0.0170853
642.794	0.0170222
642.872	0.0170434
642.950	0.0170898
643.029	0.0170210
643.107	0.0169732
643.185	0.0169783
643.263	0.0170045
643.341	0.0170438
643.419	0.0169344
643.497	0.0170191
643.575	0.0171299
643.654	0.0170049
643.732	0.0170341
643.810	0.0170024
643.888	0.0171019
643.966	0.0170950
644.044	0.0170553
644.122	0.0170217
644.200	0.0169368
644.279	0.0169942
644.357	0.0170104
644.435	0.0170930
644.513	0.0169688
644.591	0.0170598
644.669	0.0170088
644.747	0.0169527
644.825	0.0170677
644.904	0.0169666
644.982	0.0169104
645.060	0.0171860
645.138	0.0170892
645.216	0.0170945
645.294	0.0169574
645.372	0.0170187
645.450	0.0170837
645.529	0.0170601
645.607	0.0171046
645.685	0.0170082
645.763	0.0168947
645.841	0.0171429
645.919	0.0170791
645.997	0.0169477
646.075	0.0170556
646.154	0.0171147
646.232	0.0170560
646.310	0.0170443
646.388	0.0170384
646.466	0.0170303
646.544	0.0170266
646.622	0.0170777
646.700	0.0171114
646.779	0.0170597
646.857	0.0170438
646.935	0.0170919
647.013	0.0171198
647.091	0.0170159
647.169	0.0170771
647.247	0.0171205
647.325	0.0171525
647.404	0.0168833
647.482	0.0170334
647.560	0.0170245
647.638	0.0172482
647.716	0.0169938
647.794	0.0168909
647.872	0.0170270
647.950	0.0170933
648.029	0.0170935
648.107	0.0171358
648.185	0.0170126
648.263	0.0169506
648.341	0.0169217
648.419	0.0170762
648.497	0.0170823
648.575	0.0170734
648.654	0.0170580
648.732	0.0169659
648.810	0.0169777
648.888	0.0169984
648.966	0.0170804
649.044	0.0170464
649.122	0.0169618
649.200	0.0170245
649.279	0.0170683
649.357	0.0171397
649.435	0.0171333
649.513	0.0170990
649.591	0.0169922
649.669	0.0169518
649.747	0.0169083
649.825	0.0170853
649.904	0.0170603
649.982	0.0170742
650.060	0.0172079
650.138	0.0169876
650.216	0.0170120
650.294	0.0171484
650.372	0.0171057
650.450	0.0169913
650.529	0.0170383
650.607	0.0169659
650.685	0.0169367
650.763	0.0171149
650.841	0.0170535
650.919	0.0169600
650.997	0.0170559
651.075	0.0171391
651.154	0.0169156
651.232	0.0170146
651.310	0.0170383
651.388	0.0170604
651.466	0.0170779
651.544	0.0171295
651.622	0.0170820
651.700	0.0169765
651.779	0.0169444
651.857	0.0169702
651.935	0.0171655
652.013	0.0171115
652.091	0.0170733
652.169	0.0170912
652.247	0.0169884
652.325	0.0168977
652.404	0.0169960
652.482	0.0169959
652.560	0.0170501
652.638	0.0171209
652.716	0.0170450
652.794	0.0170156
652.872	0.0168941
652.950	0.0170282
653.029	0.0171478
653.107	0.0171012
653.185	0.0168870
653.263	0.0169778
653.341	0.0170780
653.419	0.0169667
653.497	0.0169843
653.575	0.0172628
653.654	0.0169608
653.732	0.0170173
653.810	0.0170842
653.888	0.0170500
653.966	0.0169942
654.044	0.0170566
654.122	0.0170113
654.200	0.0170840
654.279	0.0170621
654.357	0.0170753
654.435	0.0169324
654.513	0.0170693
654.591	0.0171078
654.669	0.0170319
654.747	0.0170066
654.825	0.0169296
654.904	0.0170396
654.982	0.0170944
655.060	0.0170159
655.138	0.0170495
655.216	0.0170071
655.294	0.0170226
655.372	0.0169975
655.450	0.0169768
655.529	0.0171008
655.607	0.0170065
655.685	0.0171250
655.763	0.0170531
655.841	0.0170776
655.919	0.0171322
655.997	0.0170334
656.075	0.0170993
656.154	0.0170810
656.232	0.0170473
656.310	0.0170459
656.388	0.0170358
656.466	0.0171471
656.544	0.0171317
656.622	0.0170079
656.700	0.0170153
656.779	0.0170348
656.857	0.0170284
656.935	0.0170239
657.013	0.0171484
657.091	0.0170314
657.169	0.0169662
657.247	0.0169732
657.325	0.0171307
657.404	0.0170403
657.482	0.0169716
657.560	0.0169990
657.638	0.0171506
657.716	0.0170341
657.794	0.0171579
657.872	0.0171018
657.950	0.0171195
658.029	0.0170440
658.107	0.0169788
658.185	0.0171146
658.263	0.0172392
658.341	0.0170494
658.419	0.0169070
658.497	0.0171005
658.575	0.0169760
658.654	0.0171531
658.732	0.0169536
658.810	0.0169839
658.888	0.0170921
658.966	0.0171692
659.044	0.0170541
659.122	0.0170671
659.200	0.0170518
659.279	0.0169783
659.357	0.0169829
659.435	0.0171083
659.513	0.0170936
659.591	0.0170276
659.669	0.0170248
659.747	0.0170891
659.825	0.0170409
659.904	0.0170393
659.982	0.0170988
660.060	0.0171037
660.138	0.0172137
660.216	0.0170316
660.294	0.0170668
660.372	0.0170750
660.450	0.0170763
660.529	0.0171102
660.607	0.0170576
660.685	0.0172971
660.763	0.0172548
660.841	0.0171909
660.919	0.0168820
660.997	0.0170650
661.075	0.0171409
661.154	0.0170614
661.232	0.0170851
661.310	0.0170751
661.388	0.0170052
661.466	0.0171127
661.544	0.0171880
661.622	0.0171297
661.700	0.0171532
661.779	0.0170379
661.857	0.0170606
661.935	0.0171536
662.013	0.0170488
662.091	0.0171111
662.169	0.0170944
662.247	0.0172096
662.325	0.0171308
662.404	0.0170023
662.482	0.0170647
662.560	0.0170868
662.638	0.0171989
662.716	0.0171118
662.794	0.0170335
662.872	0.0170526
662.950	0.0171166
663.029	0.0170818
663.107	0.0170646
663.185	0.0170271
663.263	0.0169727
663.341	0.0171037
663.419	0.0170824
663.497	0.0172790
663.575	0.0170828
663.654	0.0171442
663.732	0.0170821
663.810	0.0170089
663.888	0.0170848
663.966	0.0170263
664.044	0.0170380
664.122	0.0169816
664.200	0.0170531
664.279	0.0171167
664.357	0.0171590
664.435	0.0170635
664.513	0.0170454
664.591	0.0171523
664.669	0.0171782
664.747	0.0170622
664.825	0.0170895
664.904	0.0170026
664.982	0.0171963
665.060	0.0171497
665.138	0.0170470
665.216	0.0170567
665.294	0.0171259
665.372	0.0171482
665.450	0.0170615
665.529	0.0170531
665.607	0.0171402
665.685	0.0169861
665.763	0.0171217
665.841	0.0171365
665.919	0.0169450
665.997	0.0170145
666.075	0.0171838
666.154	0.0171193
666.232	0.0169741
666.310	0.0169818
666.388	0.0170779
666.466	0.0170071
666.544	0.0169666
666.622	0.0171195
666.700	0.0171960
666.779	0.0171570
666.857	0.0169995
666.935	0.0170908
667.013	0.0171305
667.091	0.0171469
667.169	0.0171442
667.247	0.0170885
667.325	0.0171336
667.404	0.0170844
667.482	0.0171426
667.560	0.0168876
667.638	0.0169569
667.716	0.0171848
667.794	0.0170206
667.872	0.0169611
667.950	0.0170785
668.029	0.0170242
668.107	0.0170790
668.185	0.0169549
668.263	0.0170747
668.341	0.0170908
668.419	0.0171503
668.497	0.0170344
668.575	0.0169839
668.654	0.0170051
668.732	0.0171459
668.810	0.0169591
668.888	0.0170127
668.966	0.0169494
669.044	0.0170778
669.122	0.0169885
669.200	0.0170172
669.279	0.0170701
669.357	0.0170275
669.435	0.0170406
669.513	0.0170058
669.591	0.0170501
669.669	0.0170803
669.747	0.0170082
669.825	0.0169693
669.904	0.0168888
669.982	0.0169267
670.060	0.0171064
670.138	0.0171539
670.216	0.0171364
670.294	0.0169855
670.372	0.0169792
670.450	0.0171243
670.529	0.0169818
670.607	0.0170539
670.685	0.0169724
670.763	0.0170721
670.841	0.0171795
670.919	0.0170499
670.997	0.0170452
671.075	0.0169187
671.154	0.0171230
671.232	0.0172437
671.310	0.0169922
671.388	0.0170110
671.466	0.0170402
671.544	0.0171133
671.622	0.0171065
671.700	0.0170528
671.779	0.0171228
671.857	0.0170880
671.935	0.0170139
672.013	0.0170654
672.091	0.0169048
672.169	0.0171385
672.247	0.0170672
672.325	0.0170438
672.404	0.0170266
672.482	0.0171015
672.560	0.0170450
672.638	0.0171242
672.716	0.0169834
672.794	0.0169527
672.872	0.0169796
672.950	0.0170088
673.029	0.0169727
673.107	0.0170072
673.185	0.0170795
673.263	0.0168888
673.341	0.0171468
673.419	0.0170823
673.497	0.0169957
673.575	0.0170616
673.654	0.0170783
673.732	0.0171231
673.810	0.0170881
673.888	0.0170522
673.966	0.0169334
674.044	0.0170142
674.122	0.0171402
674.200	0.0169780
674.279	0.0169501
674.357	0.0170473
674.435	0.0169215
674.513	0.0169708
674.591	0.0169479
674.669	0.0169276
674.747	0.0169508
674.825	0.0170595
674.904	0.0170625
674.982	0.0169000
675.060	0.0170077
675.138	0.0170393
675.216	0.0170706
675.294	0.0169930
675.372	0.0170541
675.450	0.0171865
675.529	0.0171812
675.607	0.0171971
675.685	0.0171861
675.763	0.0171215
675.841	0.0172122
675.919	0.0170494
675.997	0.0172095
676.075	0.0171603
676.154	0.0169927
676.232	0.0170039
676.310	0.0171162
676.388	0.0169960
676.466	0.0170674
676.544	0.0168788
676.622	0.0169077
676.700	0.0169561
676.779	0.0169073
676.857	0.0168964
676.935	0.0167773
677.013	0.0168517
677.091	0.0169068
677.169	0.0169229
677.247	0.0170322
677.325	0.0169234
677.404	0.0168817
677.482	0.0169527
677.560	0.0169836
677.638	0.0167937
677.716	0.0169360
677.794	0.0169274
677.872	0.0168914
677.950	0.0171813
678.029	0.0169814
678.107	0.0172183
678.185	0.0172189
678.263	0.0170692
678.341	0.0172462
678.419	0.0171355
678.497	0.0171335
678.575	0.0172060
678.654	0.0171256
678.732	0.0173248
678.810	0.0171599
678.888	0.0171276
678.966	0.0173103
679.044	0.0171164
679.122	0.0171746
679.200	0.0171306
679.279	0.0171174
679.357	0.0170039
679.435	0.0171126
679.513	0.0171083
679.591	0.0169302
679.669	0.0169268
679.747	0.0169496
679.825	0.0170290
679.904	0.0169355
679.982	0.0170242
680.060	0.0170055
680.138	0.0170467
680.216	0.0169989
680.294	0.0169633
680.372	0.0169263
680.450	0.0169218
680.529	0.0168516
680.607	0.0166026
680.685	0.0165913
680.763	0.0166180
680.841	0.0165144
680.919	0.0166814
680.997	0.0166965
681.075	0.0167231
681.154	0.0166178
681.232	0.0166221
681.310	0.0169212
681.388	0.0170575
681.466	0.0169838
681.544	0.0169598
681.622	0.0170309
681.700	0.0169309
681.779	0.0168166
681.857	0.0168844
681.935	0.0169820
682.013	0.0169769
682.091	0.0169166
682.169	0.0172842
682.247	0.0173339
682.325	0.0177560
682.404	0.0180082
682.482	0.0182230
682.560	0.0184763
682.638	0.0185394
682.716	0.0186413
682.794	0.0185883
682.872	0.0184586
682.950	0.0182170
683.029	0.0179342
683.107	0.0176134
683.185	0.0173425
683.263	0.0172118
683.341	0.0171395
683.419	0.0169195
683.497	0.0168768
683.575	0.0169136
683.654	0.0169260
683.732	0.0170242
683.810	0.0171796
683.888	0.0170972
683.966	0.0168600
684.044	0.0167867
684.122	0.0167325
684.200	0.0165224
684.279	0.0162334
684.357	0.0160279
684.435	0.0158733
684.513	0.0154559
684.591	0.0156399
684.669	0.0153893
684.747	0.0153741
684.825	0.0152713
684.904	0.0152046
684.982	0.0152091
685.060	0.0153580
685.138	0.0156824
685.216	0.0157285
685.294	0.0157951
685.372	0.0162294
685.450	0.0165354
685.529	0.0169365
685.607	0.0173421
685.685	0.0176977
685.763	0.0177757
685.841	0.0182159
685.919	0.0183041
685.997	0.0182987
686.075	0.0183183
686.154	0.0184141
686.232	0.0183588
686.310	0.0183620
686.388	0.0182709
686.466	0.0182528
686.544	0.0182990
686.622	0.0184000
686.700	0.0185373
686.779	0.0187710
686.857	0.0190598
686.935	0.0191833
687.013	0.0194749
687.091	0.0197330
687.169	0.0199204
687.247	0.0201207
687.325	0.0202668
687.404	0.0202690
687.482	0.0202660
687.560	0.0202747
687.638	0.0201105
687.716	0.0198183
687.794	0.0195181
687.872	0.0190588
687.950	0.0183973
688.029	0.0175486
688.107	0.0165572
688.185	0.0156602
688.263	0.0143812
688.341	0.0132411
688.419	0.0121275
688.497	0.0108576
688.575	0.00986412
688.654	0.00902573
688.732	0.00834648
688.810	0.00781708
688.888	0.00779205
688.966	0.00797073
689.044	0.00798988
689.122	0.00866997
689.200	0.00925728
689.279	0.0103142
689.357	0.0115182
689.435	0.0127913
689.513	0.0141909
689.591	0.0157565
689.669	0.0173220
689.747	0.0192661
689.825	0.0209832
689.904	0.0227623
689.982	0.0243493
690.060	0.0255871
690.138	0.0266142
690.216	0.0273795
690.294	0.0281003
690.372	0.0284199
690.450	0.0284308
690.529	0.0282138
690.607	0.0277580
690.685	0.0271473
690.763	0.0264915
690.841	0.0254107
690.919	0.0244723
690.997	0.0235536
691.075	0.0224565
691.154	0.0213519
691.232	0.0202150
691.310	0.0190063
691.388	0.0176707
691.466	0.0165079
691.544	0.0152452
691.622	0.0137715
691.700	0.0121398
691.779	0.0105312
691.857	0.00886673
691.935	0.00733414
692.013	0.00591690
692.091	0.00477501
692.169	0.00381912
692.247	0.00329231
692.325	0.00317978
692.404	0.00340668
692.482	0.00393860
692.560	0.00491829
692.638	0.00643227
692.716	0.00783806
692.794	0.00952202
692.872	0.0114056
692.950	0.0134555
693.029	0.0151859
693.107	0.0170432
693.185	0.0188558
693.263	0.0205419
693.341	0.0220289
693.419	0.0236246
693.497	0.0248846
693.575	0.0260400
693.654	0.0269668
693.732	0.0278292
693.810	0.0282770
693.888	0.0285028
693.966	0.0285609
694.044	0.0283999
694.122	0.0280222
694.200	0.0274348
694.279	0.0266985
694.357	0.0260013
694.435	0.0252480
694.513	0.0241933
694.591	0.0231216
694.669	0.0218510
694.747	0.0205191
694.825	0.0194768
694.904	0.0180932
694.982	0.0166087
695.060	0.0154197
695.138	0.0139385
695.216	0.0125352
695.294	0.0111971
695.372	0.00974625
695.450	0.00851051
695.529	0.00743698
695.607	0.00648796
695.685	0.00575935
695.763	0.00521210
695.841	0.00523384
695.919	0.00534340
695.997	0.00569427
696.075	0.00609665
696.154	0.00719521
696.232	0.00838547
696.310	0.00953384
696.388	0.0111261
696.466	0.0125746
696.544	0.0140194
696.622	0.0154683
696.700	0.0169523
696.779	0.0184694
696.857	0.0197774
696.935	0.0211294
697.013	0.0223849
697.091	0.0235049
697.169	0.0245766
697.247	0.0255234
697.325	0.0262292
697.404	0.0269573
697.482	0.0272465
697.560	0.0275235
697.638	0.0273275
697.716	0.0271811
697.794	0.0267321
697.872	0.0261778
697.950	0.0254420
698.029	0.0245804
698.107	0.0235291
698.185	0.0225873
698.263	0.0215402
698.341	0.0204652
698.419	0.0193013
698.497	0.0181383
698.575	0.0170267
698.654	0.0159946
698.732	0.0148672
698.810	0.0135864
698.888	0.0123285
698.966	0.0112436
699.044	0.0102084
699.122	0.00920746
699.200	0.00842239
699.279	0.00787720
699.357	0.00744301
699.435	0.00726036
699.513	0.00755203
699.591	0.00792648
699.669	0.00836563
699.747	0.00904045
699.825	0.0100240
699.904	0.0109238
699.982	0.0120070
700.060	0.0130357
700.138	0.0139184
700.216	0.0149816
700.294	0.0160491
700.372	0.0169073
700.450	0.0178183
700.529	0.0187283
700.607	0.0192319
700.685	0.0199819
700.763	0.0207647
700.841	0.0211787
700.919	0.0215609
700.997	0.0220225
701.075	0.0225503
701.154	0.0227129
701.232	0.0228359
701.310	0.0230289
701.388	0.0231448
701.466	0.0230357
701.544	0.0229510
701.622	0.0224181
701.700	0.0222811
701.779	0.0220693
701.857	0.0215298
701.935	0.0210226
702.013	0.0203807
702.091	0.0197802
702.169	0.0192604
702.247	0.0186927
702.325	0.0179383
702.404	0.0173952
702.482	0.0166279
702.560	0.0159715
702.638	0.0153210
702.716	0.0145184
702.794	0.0137549
702.872	0.0132427
702.950	0.0126254
703.029	0.0122742
703.107	0.0120547
703.185	0.0119141
703.263	0.0118489
703.341	0.0121638
703.419	0.0121840
703.497	0.0124771
703.575	0.0131108
703.654	0.0135870
703.732	0.0140413
703.810	0.0146690
703.888	0.0150227
703.966	0.0157072
704.044	0.0163345
704.122	0.0168249
704.200	0.0171219
704.279	0.0175417
704.357	0.0179233
704.435	0.0183818
704.513	0.0186215
704.591	0.0187511
704.669	0.0191068
704.747	0.0192645
704.825	0.0193874
704.904	0.0193256
704.982	0.0194029
705.060	0.0193878
705.138	0.0193924
705.216	0.0190469
705.294	0.0190586
705.372	0.0187862
705.450	0.0186955
705.529	0.0185057
705.607	0.0183102
705.685	0.0180863
705.763	0.0178891
705.841	0.0178757
705.919	0.0177840
705.997	0.0176787
706.075	0.0177564
706.154	0.0176195
706.232	0.0174099
706.310	0.0171743
706.388	0.0171632
706.466	0.0167300
706.544	0.0163642
706.622	0.0161044
706.700	0.0158401
706.779	0.0154405
706.857	0.0153092
706.935	0.0149973
707.013	0.0146293
707.091	0.0143967
707.169	0.0142202
707.247	0.0140822
707.325	0.0142050
707.404	0.0143200
707.482	0.0143214
707.560	0.0147092
707.638	0.0149419
707.716	0.0152901
707.794	0.0159426
707.872	0.0164577
707.950	0.0169887
708.029	0.0173869
708.107	0.0180053
708.185	0.0183989
708.263	0.0187605
708.341	0.0193306
708.419	0.0195234
708.497	0.0198000
708.575	0.0199719
708.654	0.0200471
708.732	0.0199350
708.810	0.0199489
708.888	0.0197617
708.966	0.0195119
709.044	0.0192899
709.122	0.0190540
709.200	0.0187373
709.279	0.0186369
709.357	0.0183640
709.435	0.0183318
709.513	0.0182211
709.591	0.0179854
709.669	0.0177909
709.747	0.0175211
709.825	0.0172867
709.904	0.0169950
709.982	0.0166599
710.060	0.0165186
710.138	0.0160503
710.216	0.0155486
710.294	0.0150695
710.372	0.0145750
710.450	0.0143737
710.529	0.0138954
710.607	0.0134133
710.685	0.0131007
710.763	0.0129225
710.841	0.0129195
710.919	0.0128688
710.997	0.0127840
711.075	0.0129660
711.154	0.0133426
711.232	0.0138437
711.310	0.0144440
711.388	0.0148587
711.466	0.0156110
711.544	0.0164310
711.622	0.0168098
711.700	0.0176774
711.779	0.0185013
711.857	0.0191601
711.935	0.0199409
712.013	0.0203879
712.091	0.0208470
712.169	0.0212006
712.247	0.0214472
712.325	0.0217117
712.404	0.0215794
712.482	0.0214626
712.560	0.0212779
712.638	0.0210587
712.716	0.0208562
712.794	0.0204850
712.872	0.0201746
712.950	0.0197750
713.029	0.0193848
713.107	0.0189748
713.185	0.0184051
713.263	0.0180334
713.341	0.0176867
713.419	0.0170447
713.497	0.0166444
713.575	0.0163538
713.654	0.0160918
713.732	0.0156884
713.810	0.0151733
713.888	0.0149841
713.966	0.0146170
714.044	0.0143225
714.122	0.0141457
714.200	0.0138627
714.279	0.0138437
714.357	0.0136455
714.435	0.0134059
714.513	0.0133091
714.591	0.0133159
714.669	0.0132226
714.747	0.0134915
714.825	0.0135227
714.904	0.0138545
714.982	0.0141905
715.060	0.0145481
715.138	0.0152045
715.216	0.0155235
715.294	0.0160000
715.372	0.0166897
715.450	0.0172692
715.529	0.0178797
715.607	0.0184245
715.685	0.0191351
715.763	0.0195440
715.841	0.0199202
715.919	0.0202837
715.997	0.0207267
716.075	0.0209378
716.154	0.0209476
716.232	0.0208800
716.310	0.0209322
716.388	0.0207372
716.466	0.0203906
716.544	0.0200921
716.622	0.0197437
716.700	0.0192883
716.779	0.0188355
716.857	0.0186891
716.935	0.0181844
717.013	0.0177748
717.091	0.0174688
717.169	0.0173353
717.247	0.0170330
717.325	0.0167534
717.404	0.0165709
717.482	0.0166337
717.560	0.0165102
717.638	0.0163277
717.716	0.0162488
717.794	0.0162096
717.872	0.0159639
717.950	0.0157681
718.029	0.0156200
718.107	0.0154350
718.185	0.0151859
718.263	0.0149622
718.341	0.0149016
718.419	0.0147205
718.497	0.0147515
718.575	0.0145317
718.654	0.0146954
718.732	0.0147514
718.810	0.0148674
718.888	0.0151428
718.966	0.0153955
719.044	0.0158810
719.122	0.0162184
719.200	0.0166314
719.279	0.0168351
719.357	0.0172772
719.435	0.0177434
719.513	0.0179030
719.591	0.0181570
719.669	0.0184869
719.747	0.0186943
719.825	0.0187760
719.904	0.0188587
719.982	0.0188734
720.060	0.0186479
720.138	0.0186145
720.216	0.0186145
720.294	0.0184077
720.372	0.0182088
720.450	0.0180368
720.529	0.0179601
720.607	0.0176921
720.685	0.0173968
720.763	0.0174193
720.841	0.0173152
720.919	0.0170037
720.997	0.0171198
721.075	0.0168647
721.154	0.0167248
721.232	0.0167467
721.310	0.0165755
721.388	0.0166409
721.466	0.0165467
721.544	0.0164980
721.622	0.0165464
721.700	0.0164645
721.779	0.0165097
721.857	0.0165692
721.935	0.0165634
722.013	0.0165177
722.091	0.0165046
722.169	0.0165129
722.247	0.0166454
722.325	0.0167689
722.404	0.0169080
722.482	0.0168815
722.560	0.0168212
722.638	0.0170247
722.716	0.0172255
722.794	0.0172639
722.872	0.0174113
722.950	0.0175774
723.029	0.0176309
723.107	0.0177354
723.185	0.0177308
723.263	0.0179279
723.341	0.0181300
723.419	0.0180212
723.497	0.0181059
723.575	0.0180840
723.654	0.0179301
723.732	0.0179906
723.810	0.0180038
723.888	0.0179548
723.966	0.0177666
724.044	0.0176025
724.122	0.0173478
724.200	0.0172913
724.279	0.0169399
724.357	0.0168446
724.435	0.0168030
724.513	0.0166560
724.591	0.0166366
724.669	0.0164540
724.747	0.0163687
724.825	0.0164491
724.904	0.0162382
724.982	0.0162366
725.060	0.0162650
725.138	0.0163024
725.216	0.0161500
725.294	0.0162064
725.372	0.0163022
725.450	0.0163461
725.529	0.0163614
725.607	0.0162562
725.685	0.0163756
725.763	0.0164705
725.841	0.0166290
725.919	0.0167068
725.997	0.0167117
726.075	0.0167786
726.154	0.0169947
726.232	0.0171706
726.310	0.0171714
726.388	0.0173184
726.466	0.0172752
726.544	0.0173698
726.622	0.0173190
726.700	0.0174480
726.779	0.0173601
726.857	0.0174037
726.935	0.0172125
727.013	0.0171709
727.091	0.0171579
727.169	0.0172923
727.247	0.0170832
727.325	0.0170729
727.404	0.0171821
727.482	0.0170625
727.560	0.0172200
727.638	0.0172796
727.716	0.0174173
727.794	0.0173106
727.872	0.0174953
727.950	0.0174895
728.029	0.0173666
728.107	0.0174131
728.185	0.0173377
728.263	0.0174320
728.341	0.0173196
728.419	0.0172785
728.497	0.0172590
728.575	0.0170816
728.654	0.0170591
728.732	0.0171319
728.810	0.0169691
728.888	0.0168555
728.966	0.0167068
729.044	0.0166444
729.122	0.0168211
729.200	0.0165561
729.279	0.0167033
729.357	0.0167779
729.435	0.0166541
729.513	0.0167513
729.591	0.0169016
729.669	0.0169733
729.747	0.0169744
729.825	0.0169991
729.904	0.0169920
729.982	0.0169762
730.060	0.0172563
730.138	0.0172063
730.216	0.0173032
730.294	0.0172031
730.372	0.0172130
730.450	0.0173934
730.529	0.0172589
730.607	0.0171485
730.685	0.0171943
730.763	0.0169823
730.841	0.0170335
730.919	0.0169552
730.997	0.0167219
731.075	0.0168752
731.154	0.0170628
731.232	0.0169191
731.310	0.0169033
731.388	0.0167840
731.466	0.0167477
731.544	0.0167736
731.622	0.0167466
731.700	0.0167036
731.779	0.0167827
731.857	0.0169099
731.935	0.0168869
732.013	0.0170042
732.091	0.0168671
732.169	0.0169524
732.247	0.0170502
732.325	0.0170770
732.404	0.0171076
732.482	0.0169638
732.560	0.0170604
732.638	0.0171440
732.716	0.0169823
732.794	0.0170171
732.872	0.0169700
732.950	0.0169796
733.029	0.0169218
733.107	0.0170493
733.185	0.0171268
733.263	0.0172663
733.341	0.0170164
733.419	0.0171098
733.497	0.0170763
733.575	0.0171391
733.654	0.0171188
733.732	0.0170570
733.810	0.0171423
733.888	0.0171346
733.966	0.0170831
734.044	0.0170884
734.122	0.0170887
734.200	0.0172025
734.279	0.0172008
734.357	0.0171095
734.435	0.0171881
734.513	0.0171442
734.591	0.0170928
734.669	0.0171503
734.747	0.0173312
734.825	0.0173985
734.904	0.0172227
734.982	0.0173021
735.060	0.0173032
735.138	0.0173572
735.216	0.0172404
735.294	0.0173875
735.372	0.0173400
735.450	0.0170566
735.529	0.0170813
735.607	0.0170101
735.685	0.0168394
735.763	0.0168105
735.841	0.0166680
735.919	0.0165220
735.997	0.0166001
736.075	0.0165630
736.154	0.0163133
736.232	0.0165251
736.310	0.0165315
736.388	0.0164953
736.466	0.0165527
736.544	0.0165456
736.622	0.0166713
736.700	0.0167955
736.779	0.0169361
736.857	0.0169656
736.935	0.0170637
737.013	0.0172935
737.091	0.0172213
737.169	0.0173301
737.247	0.0174955
737.325	0.0173958
737.404	0.0174255
737.482	0.0174323
737.560	0.0173239
737.638	0.0173845
737.716	0.0172820
737.794	0.0171668
737.872	0.0172192
737.950	0.0171497
738.029	0.0170750
738.107	0.0172196
738.185	0.0169595
738.263	0.0170782
738.341	0.0171275
738.419	0.0171637
738.497	0.0170962
738.575	0.0172159
738.654	0.0172621
738.732	0.0172666
738.810	0.0172878
738.888	0.0172836
738.966	0.0173235
739.044	0.0173596
739.122	0.0174060
739.200	0.0172153
739.279	0.0172925
739.357	0.0171847
739.435	0.0172871
739.513	0.0173341
739.591	0.0170957
739.669	0.0171205
739.747	0.0173032
739.825	0.0171801
739.904	0.0171104
739.982	0.0172872
740.060	0.0171454
740.138	0.0172955
740.216	0.0172923
740.294	0.0171690
740.372	0.0170934
740.450	0.0170820
740.529	0.0171003
740.607	0.0172830
740.685	0.0170517
740.763	0.0170814
740.841	0.0168626
740.919	0.0169940
740.997	0.0168542
741.075	0.0168967
741.154	0.0168493
741.232	0.0168465
741.310	0.0167576
741.388	0.0168748
741.466	0.0167866
741.544	0.0167391
741.622	0.0166402
741.700	0.0167475
741.779	0.0168042
741.857	0.0167677
741.935	0.0167966
742.013	0.0169592
742.091	0.0169765
742.169	0.0169778
742.247	0.0170353
742.325	0.0171187
742.404	0.0173229
742.482	0.0173817
742.560	0.0173512
742.638	0.0174728
742.716	0.0177003
742.794	0.0175397
742.872	0.0176534
742.950	0.0176315
743.029	0.0176740
743.107	0.0174546
743.185	0.0174119
743.263	0.0174095
743.341	0.0173162
743.419	0.0171793
743.497	0.0173447
743.575	0.0171850
743.654	0.0172701
743.732	0.0171996
743.810	0.0170613
743.888	0.0169427
743.966	0.0169838
744.044	0.0168599
744.122	0.0168892
744.200	0.0169381
744.279	0.0169332
744.357	0.0168749
744.435	0.0168630
744.513	0.0168754
744.591	0.0169146
744.669	0.0168686
744.747	0.0169326
744.825	0.0168774
744.904	0.0167393
744.982	0.0168097
745.060	0.0168812
745.138	0.0167782
745.216	0.0167886
745.294	0.0168236
745.372	0.0169267
745.450	0.0169590
745.529	0.0168446
745.607	0.0168074
745.685	0.0169770
745.763	0.0170867
745.841	0.0170803
745.919	0.0172846
745.997	0.0172298
746.075	0.0172572
746.154	0.0172969
746.232	0.0173707
746.310	0.0173412
746.388	0.0172980
746.466	0.0172283
746.544	0.0172957
746.622	0.0173448
746.700	0.0173103
746.779	0.0174666
746.857	0.0174535
746.935	0.0175077
747.013	0.0174186
747.091	0.0173455
747.169	0.0174398
747.247	0.0175095
747.325	0.0174509
747.404	0.0174749
747.482	0.0174234
747.560	0.0174627
747.638	0.0175049
747.716	0.0174427
747.794	0.0173692
747.872	0.0173114
747.950	0.0172470
748.029	0.0170973
748.107	0.0169649
748.185	0.0167665
748.263	0.0166858
748.341	0.0166277
748.419	0.0163799
748.497	0.0164004
748.575	0.0164761
748.654	0.0163288
748.732	0.0162474
748.810	0.0162620
748.888	0.0163718
748.966	0.0164613
749.044	0.0163612
749.122	0.0163856
749.200	0.0163907
749.279	0.0165939
749.357	0.0167751
749.435	0.0168702
749.513	0.0169400
749.591	0.0172008
749.669	0.0172428
749.747	0.0173781
749.825	0.0174087
749.904	0.0172627
749.982	0.0173748
750.060	0.0172663
750.138	0.0172304
750.216	0.0174566
750.294	0.0172055
750.372	0.0173203
750.450	0.0174022
750.529	0.0172182
750.607	0.0171756
750.685	0.0171975
750.763	0.0172491
750.841	0.0172742
750.919	0.0172647
750.997	0.0172068
751.075	0.0173711
751.154	0.0171874
751.232	0.0173027
751.310	0.0173657
751.388	0.0171095
751.466	0.0174030
751.544	0.0172400
751.622	0.0172191
751.700	0.0171513
751.779	0.0170222
751.857	0.0169521
751.935	0.0170451
752.013	0.0169406
752.091	0.0170323
752.169	0.0169109
752.247	0.0166983
752.325	0.0167230
752.404	0.0166812
752.482	0.0166869
752.560	0.0166535
752.638	0.0166106
752.716	0.0167026
752.794	0.0166979
752.872	0.0167795
752.950	0.0168130
753.029	0.0168990
753.107	0.0168950
753.185	0.0169321
753.263	0.0171009
753.341	0.0172254
753.419	0.0172732
753.497	0.0173433
753.575	0.0174512
753.654	0.0174718
753.732	0.0173935
753.810	0.0173741
753.888	0.0174265
753.966	0.0173115
754.044	0.0174619
754.122	0.0172723
754.200	0.0173495
754.279	0.0173624
754.357	0.0172316
754.435	0.0171910
754.513	0.0171764
754.591	0.0171534
754.669	0.0171257
754.747	0.0172295
754.825	0.0171823
754.904	0.0170959
754.982	0.0169707
755.060	0.0169448
755.138	0.0172088
755.216	0.0172151
755.294	0.0171126
755.372	0.0171551
755.450	0.0170635
755.529	0.0169801
755.607	0.0170604
755.685	0.0169903
755.763	0.0169371
755.841	0.0169983
755.919	0.0169917
755.997	0.0167669
756.075	0.0167599
756.154	0.0168950
756.232	0.0168263
756.310	0.0168253
756.388	0.0167712
756.466	0.0169016
756.544	0.0167857
756.622	0.0168097
756.700	0.0169521
756.779	0.0169421
756.857	0.0170391
756.935	0.0170596
757.013	0.0169726
757.091	0.0169801
757.169	0.0171831
757.247	0.0171386
757.325	0.0170411
757.404	0.0170945
757.482	0.0170415
757.560	0.0172584
757.638	0.0171816
757.716	0.0171387
757.794	0.0170816
757.872	0.0168973
757.950	0.0170139
758.029	0.0170860
758.107	0.0169398
758.185	0.0171040
758.263	0.0169880
758.341	0.0171668
758.419	0.0171009
758.497	0.0170889
758.575	0.0171745
758.654	0.0173157
758.732	0.0171115
758.810	0.0171686
758.888	0.0171158
758.966	0.0171175
759.044	0.0172134
759.122	0.0173425
759.200	0.0172393
759.279	0.0171731
759.357	0.0170914
759.435	0.0171400
759.513	0.0169437
759.591	0.0169742
759.669	0.0169309
759.747	0.0169329
759.825	0.0169894
759.904	0.0168974
759.982	0.0168796
760.060	0.0169081
760.138	0.0169378
760.216	0.0170404
760.294	0.0170534
760.372	0.0170486
760.450	0.0170663
760.529	0.0170573
760.607	0.0169344
760.685	0.0171304
760.763	0.0170519
760.841	0.0169733
760.919	0.0168581
760.997	0.0169476
761.075	0.0169331
761.154	0.0167815
761.232	0.0169539
761.310	0.0169702
761.388	0.0168896
761.466	0.0168818
761.544	0.0168107
761.622	0.0171306
761.700	0.0170323
761.779	0.0170077
761.857	0.0172968
761.935	0.0174596
762.013	0.0173342
762.091	0.0174517
762.169	0.0174738
762.247	0.0174733
762.325	0.0175523
762.404	0.0174461
762.482	0.0175999
762.560	0.0175780
762.638	0.0174621
762.716	0.0174640
762.794	0.0172955
762.872	0.0172314
762.950	0.0170918
763.029	0.0171907
763.107	0.0169805
763.185	0.0168824
763.263	0.0168267
763.341	0.0167651
763.419	0.0167195
763.497	0.0168340
763.575	0.0167577
763.654	0.0165690
763.732	0.0165556
763.810	0.0167850
763.888	0.0167724
763.966	0.0167726
764.044	0.0168610
764.122	0.0168446
764.200	0.0168732
764.279	0.0169641
764.357	0.0169717
764.435	0.0170532
764.513	0.0169635
764.591	0.0170235
764.669	0.0169276
764.747	0.0169572
764.825	0.0169815
764.904	0.0169395
764.982	0.0169585
765.060	0.0168199
765.138	0.0169125
765.216	0.0169813
765.294	0.0170280
765.372	0.0170119
765.450	0.0170592
765.529	0.0171970
765.607	0.0173729
765.685	0.0173816
765.763	0.0173310
765.841	0.0173892
765.919	0.0174562
765.997	0.0175926
766.075	0.0174824
766.154	0.0174596
766.232	0.0175853
766.310	0.0176093
766.388	0.0174665
766.466	0.0174594
766.544	0.0174016
766.622	0.0173759
766.700	0.0173217
766.779	0.0172124
766.857	0.0171163
766.935	0.0169026
767.013	0.0170409
767.091	0.0170160
767.169	0.0168674
767.247	0.0168398
767.325	0.0167067
767.404	0.0168143
767.482	0.0167208
767.560	0.0167194
767.638	0.0167453
767.716	0.0167354
767.794	0.0167719
767.872	0.0168400
767.950	0.0167855
768.029	0.0169451
768.107	0.0169350
768.185	0.0167577
768.263	0.0168591
768.341	0.0168366
768.419	0.0168699
768.497	0.0169730
768.575	0.0168805
768.654	0.0169477
768.732	0.0169438
768.810	0.0170857
768.888	0.0169105
768.966	0.0170872
769.044	0.0171015
769.122	0.0169524
769.200	0.0170718
769.279	0.0172797
769.357	0.0171857
769.435	0.0171161
769.513	0.0171151
769.591	0.0170337
769.669	0.0170628
769.747	0.0171983
769.825	0.0172015
769.904	0.0170113
769.982	0.0171803
770.060	0.0172453
770.138	0.0171399
770.216	0.0171708
770.294	0.0172504
770.372	0.0172159
770.450	0.0172087
770.529	0.0173207
770.607	0.0173264
770.685	0.0173483
770.763	0.0173400
770.841	0.0174901
770.919	0.0174405
770.997	0.0173952
771.075	0.0174958
771.154	0.0175351
771.232	0.0172765
771.310	0.0173144
771.388	0.0171068
771.466	0.0171676
771.544	0.0171978
771.622	0.0168946
771.700	0.0169518
771.779	0.0167936
771.857	0.0167794
771.935	0.0167815
772.013	0.0167713
772.091	0.0168179
772.169	0.0165648
772.247	0.0167702
772.325	0.0165804
772.404	0.0167199
772.482	0.0165800
772.560	0.0165903
772.638	0.0167222
772.716	0.0167812
772.794	0.0167809
772.872	0.0168477
772.950	0.0168803
773.029	0.0169002
773.107	0.0168536
773.185	0.0169354
773.263	0.0168887
773.341	0.0169601
773.419	0.0171906
773.497	0.0171299
773.575	0.0170035
773.654	0.0169639
773.732	0.0170951
773.810	0.0172715
773.888	0.0171948
773.966	0.0170976
774.044	0.0170677
774.122	0.0173071
774.200	0.0172613
774.279	0.0173090
774.357	0.0172669
774.435	0.0172346
774.513	0.0173862
774.591	0.0174715
774.669	0.0175104
774.747	0.0174213
774.825	0.0173219
774.904	0.0173006
774.982	0.0173416
775.060	0.0172803
775.138	0.0172224
775.216	0.0173022
775.294	0.0170759
775.372	0.0170882
775.450	0.0169020
775.529	0.0170146
775.607	0.0168078
775.685	0.0168553
775.763	0.0166912
775.841	0.0166605
775.919	0.0167535
775.997	0.0165588
776.075	0.0166042
776.154	0.0166399
776.232	0.0165952
776.310	0.0166671
776.388	0.0166754
776.466	0.0166727
776.544	0.0167499
776.622	0.0168610
776.700	0.0169370
776.779	0.0170442
776.857	0.0169423
776.935	0.0170213
777.013	0.0170948
777.091	0.0170538
777.169	0.0171951
777.247	0.0171936
777.325	0.0172385
777.404	0.0173712
777.482	0.0173222
777.560	0.0173435
777.638	0.0172987
777.716	0.0172475
777.794	0.0173901
777.872	0.0174427
777.950	0.0173161
778.029	0.0173608
778.107	0.0173376
778.185	0.0171783
778.263	0.0173446
778.341	0.0174457
778.419	0.0170935
778.497	0.0174361
778.575	0.0172465
778.654	0.0171220
778.732	0.0172783
778.810	0.0171542
778.888	0.0172321
778.966	0.0171848
779.044	0.0172870
779.122	0.0171464
779.200	0.0171519
779.279	0.0170869
779.357	0.0171184
779.435	0.0170744
779.513	0.0172466
779.591	0.0170349
779.669	0.0170745
779.747	0.0169955
779.825	0.0170424
779.904	0.0169745
779.982	0.0168685
780.060	0.0168723
780.138	0.0168426
780.216	0.0168089
780.294	0.0167014
780.372	0.0169823
780.450	0.0167809
780.529	0.0166666
780.607	0.0165881
780.685	0.0167570
780.763	0.0166821
780.841	0.0167593
780.919	0.0167507
780.997	0.0167443
781.075	0.0168607
781.154	0.0168581
781.232	0.0168298
781.310	0.0168788
781.388	0.0168027
781.466	0.0168898
781.544	0.0169163
781.622	0.0170531
781.700	0.0168965
781.779	0.0170751
781.857	0.0171006
781.935	0.0171471
782.013	0.0170874
782.091	0.0170448
782.169	0.0169432
782.247	0.0169585
782.325	0.0170097
782.404	0.0170735
782.482	0.0170831
782.560	0.0170271
782.638	0.0171279
782.716	0.0172076
782.794	0.0172212
782.872	0.0173916
782.950	0.0173527
783.029	0.0175594
783.107	0.0177435
783.185	0.0177796
783.263	0.0176115
783.341	0.0176340
783.419	0.0175636
783.497	0.0177642
783.575	0.0175808
783.654	0.0177433
783.732	0.0176223
783.810	0.0174680
783.888	0.0174052
783.966	0.0174471
784.044	0.0173064
784.122	0.0172444
784.200	0.0171109
784.279	0.0170313
784.357	0.0169540
784.435	0.0169408
784.513	0.0168562
784.591	0.0168117
784.669	0.0167001
784.747	0.0165222
784.825	0.0164939
784.904	0.0163643
784.982	0.0164180
785.060	0.0162958
785.138	0.0164338
785.216	0.0162994
785.294	0.0164198
785.372	0.0162466
785.450	0.0164442
785.529	0.0164476
785.607	0.0164176
785.685	0.0165733
785.763	0.0167194
785.841	0.0167225
785.919	0.0167212
785.997	0.0167933
786.075	0.0168520
786.154	0.0169042
786.232	0.0170182
786.310	0.0171735
786.388	0.0172482
786.466	0.0174531
786.544	0.0173782
786.622	0.0176471
786.700	0.0176602
786.779	0.0177393
786.857	0.0178600
786.935	0.0178510
787.013	0.0179523
787.091	0.0180579
787.169	0.0179202
787.247	0.0179218
787.325	0.0179659
787.404	0.0179261
787.482	0.0177299
787.560	0.0177200
787.638	0.0176234
787.716	0.0173978
787.794	0.0172826
787.872	0.0171928
787.950	0.0170741
788.029	0.0168556
788.107	0.0167352
788.185	0.0166522
788.263	0.0165407
788.341	0.0164711
788.419	0.0162315
788.497	0.0161858
788.575	0.0160683
788.654	0.0161013
788.732	0.0158894
788.810	0.0159358
788.888	0.0158593
788.966	0.0158175
789.044	0.0160920
789.122	0.0159962
789.200	0.0159951
789.279	0.0162418
789.357	0.0162799
789.435	0.0162369
789.513	0.0163831
789.591	0.0166039
789.669	0.0166309
789.747	0.0167960
789.825	0.0169099
789.904	0.0169866
789.982	0.0171690
790.060	0.0172394
790.138	0.0173565
790.216	0.0175984
790.294	0.0176985
790.372	0.0178336
790.450	0.0178791
790.529	0.0180113
790.607	0.0180556
790.685	0.0181041
790.763	0.0180767
790.841	0.0180412
790.919	0.0181141
790.997	0.0180983
791.075	0.0180683
791.154	0.0178455
791.232	0.0177859
791.310	0.0178151
791.388	0.0177567
791.466	0.0174157
791.544	0.0173306
791.622	0.0173010
791.700	0.0172783
791.779	0.0169763
791.857	0.0170190
791.935	0.0169022
792.013	0.0166483
792.091	0.0166364
792.169	0.0166341
792.247	0.0164121
792.325	0.0161582
792.404	0.0162413
792.482	0.0162491
792.560	0.0161752
792.638	0.0161501
792.716	0.0161871
792.794	0.0161856
792.872	0.0161204
792.950	0.0160764
793.029	0.0161423
793.107	0.0163422
793.185	0.0164242
793.263	0.0164964
793.341	0.0167465
793.419	0.0166975
793.497	0.0169981
793.575	0.0171775
793.654	0.0173258
793.732	0.0173727
793.810	0.0174104
793.888	0.0177002
793.966	0.0178363
794.044	0.0178130
794.122	0.0178901
794.200	0.0180139
794.279	0.0179467
794.357	0.0178332
794.435	0.0181633
794.513	0.0181373
794.591	0.0179314
794.669	0.0178947
794.747	0.0177227
794.825	0.0176079
794.904	0.0177499
794.982	0.0176590
795.060	0.0174039
795.138	0.0172781
795.216	0.0172305
795.294	0.0171953
795.372	0.0170105
795.450	0.0169598
795.529	0.0168221
795.607	0.0168091
795.685	0.0166624
795.763	0.0165708
795.841	0.0166927
795.919	0.0164646
795.997	0.0164143
796.075	0.0163637
796.154	0.0164046
796.232	0.0164784
796.310	0.0162959
796.388	0.0164535
796.466	0.0164584
796.544	0.0164845
796.622	0.0166300
796.700	0.0166010
796.779	0.0168399
796.857	0.0166986
796.935	0.0165793
797.013	0.0168371
797.091	0.0169798
797.169	0.0170350
797.247	0.0170500
797.325	0.0170785
797.404	0.0172462
797.482	0.0173672
797.560	0.0173684
797.638	0.0173253
797.716	0.0174320
797.794	0.0176060
797.872	0.0176338
797.950	0.0175333
798.029	0.0176212
798.107	0.0175478
798.185	0.0175375
798.263	0.0175279
798.341	0.0172215
798.419	0.0174603
798.497	0.0173998
798.575	0.0171971
798.654	0.0171960
798.732	0.0171686
798.810	0.0172237
798.888	0.0172321
798.966	0.0171292
799.044	0.0171034
799.122	0.0170390
799.200	0.0171586
799.279	0.0170874
799.357	0.0170979
799.435	0.0171504
799.513	0.0170859
799.591	0.0170739
799.669	0.0172228
799.747	0.0171445
799.825	0.0170601
799.904	0.0171296
799.982	0.0171948
800.060	0.0171329
800.138	0.0171301
800.216	0.0170451
800.294	0.0169759
800.372	0.0169543
800.450	0.0171484
800.529	0.0171104
800.607	0.0171590
800.685	0.0170649
800.763	0.0170445
800.841	0.0170430
800.919	0.0170872
800.997	0.0169160
801.075	0.0169061
801.154	0.0170038
801.232	0.0170278
801.310	0.0171017
801.388	0.0169180
801.466	0.0169400
801.544	0.0168860
801.622	0.0169307
801.700	0.0170998
801.779	0.0169614
801.857	0.0169914
801.935	0.0170962
802.013	0.0168816
802.091	0.0168914
802.169	0.0170327
802.247	0.0169910
802.325	0.0169985
802.404	0.0169420
802.482	0.0169631
802.560	0.0171039
802.638	0.0172881
802.716	0.0171564
802.794	0.0172031
802.872	0.0171519
802.950	0.0172437
803.029	0.0172166
803.107	0.0174305
803.185	0.0171376
803.263	0.0171400
803.341	0.0174059
803.419	0.0172845
803.497	0.0172868
803.575	0.0174004
803.654	0.0172578
803.732	0.0174464
803.810	0.0173083
803.888	0.0173016
803.966	0.0172804
804.044	0.0172069
804.122	0.0172259
804.200	0.0171608
804.279	0.0173403
804.357	0.0172794
804.435	0.0171529
804.513	0.0171271
804.591	0.0171102
804.669	0.0171825
804.747	0.0170388
804.825	0.0170184
804.904	0.0169685
804.982	0.0171059
805.060	0.0170035
805.138	0.0169431
805.216	0.0169981
805.294	0.0169743
805.372	0.0170413
805.450	0.0169481
805.529	0.0169715
805.607	0.0169290
805.685	0.0169101
805.763	0.0169181
805.841	0.0169204
805.919	0.0169441
805.997	0.0168787
806.075	0.0168624
806.154	0.0169001
806.232	0.0170059
806.310	0.0168259
806.388	0.0169768
806.466	0.0168900
806.544	0.0169183
806.622	0.0169122
806.700	0.0168650
806.779	0.0170026
806.857	0.0169625
806.935	0.0169757
807.013	0.0168472
807.091	0.0169176
807.169	0.0168755
807.247	0.0169246
807.325	0.0170387
807.404	0.0167673
807.482	0.0170403
807.560	0.0170641
807.638	0.0170731
807.716	0.0171650
807.794	0.0172378
807.872	0.0171171
807.950	0.0171750
808.029	0.0173093
808.107	0.0172977
808.185	0.0173065
808.263	0.0173561
808.341	0.0172639
808.419	0.0173370
808.497	0.0174991
808.575	0.0173172
808.654	0.0173988
808.732	0.0174934
808.810	0.0174749
808.888	0.0173313
808.966	0.0174310
809.044	0.0174073
809.122	0.0173196
809.200	0.0171877
809.279	0.0174800
809.357	0.0172320
809.435	0.0170805
809.513	0.0171811
809.591	0.0169976
809.669	0.0170617
809.747	0.0170194
809.825	0.0170107
809.904	0.0169220
809.982	0.0168432
810.060	0.0168318
810.138	0.0168307
810.216	0.0167873
810.294	0.0168412
810.372	0.0166980
810.450	0.0166328
810.529	0.0166082
810.607	0.0167057
810.685	0.0168317
810.763	0.0168948
810.841	0.0167445
810.919	0.0168011
810.997	0.0167274
811.075	0.0168483
811.154	0.0168177
811.232	0.0168494
811.310	0.0168272
811.388	0.0170569
811.466	0.0170039
811.544	0.0169279
811.622	0.0170570
811.700	0.0170387
811.779	0.0170985
811.857	0.0171452
811.935	0.0171389
812.013	0.0171573
812.091	0.0172219
812.169	0.0173515
812.247	0.0172682
812.325	0.0173425
812.404	0.0173891
812.482	0.0173677
812.560	0.0173367
812.638	0.0174541
812.716	0.0172698
812.794	0.0172757
812.872	0.0172771
812.950	0.0172388
813.029	0.0173010
813.107	0.0171205
813.185	0.0172229
813.263	0.0171626
813.341	0.0170954
813.419	0.0171006
813.497	0.0168465
813.575	0.0169944
813.654	0.0169004
813.732	0.0170483
813.810	0.0169137
813.888	0.0168453
813.966	0.0171024
814.044	0.0170490
814.122	0.0169788
814.200	0.0169254
814.279	0.0168265
814.357	0.0168346
814.435	0.0170037
814.513	0.0169595
814.591	0.0168945
814.669	0.0169544
814.747	0.0168155
814.825	0.0168001
814.904	0.0168089
814.982	0.0169347
815.060	0.0167570
815.138	0.0168638
815.216	0.0167654
815.294	0.0167870
815.372	0.0168459
815.450	0.0170064
815.529	0.0171301
815.607	0.0171198
815.685	0.0170369
815.763	0.0170562
815.841	0.0171198
815.919	0.0170790
815.997	0.0173749
816.075	0.0173797
816.154	0.0172418
816.232	0.0172758
816.310	0.0174686
816.388	0.0174055
816.466	0.0174554
816.544	0.0174759
816.622	0.0173291
816.700	0.0174805
816.779	0.0173449
816.857	0.0172659
816.935	0.0173061
817.013	0.0173642
817.091	0.0172523
817.169	0.0173569
817.247	0.0173050
817.325	0.0172001
817.404	0.0171742
817.482	0.0171198
817.560	0.0171259
817.638	0.0170981
817.716	0.0170851
817.794	0.0172307
817.872	0.0171451
817.950	0.0170016
818.029	0.0170337
818.107	0.0170651
818.185	0.0169999
818.263	0.0170586
818.341	0.0169595
818.419	0.0169785
818.497	0.0169717
818.575	0.0169769
818.654	0.0169946
818.732	0.0169055
818.810	0.0167671
818.888	0.0169738
818.966	0.0167879
819.044	0.0169768
819.122	0.0169376
819.200	0.0170690
819.279	0.0169587
819.357	0.0170724
819.435	0.0170821
819.513	0.0170271
819.591	0.0173058
819.669	0.0173296
819.747	0.0171659
819.825	0.0172827
819.904	0.0173373
819.982	0.0172607
820.060	0.0172504
820.138	0.0173496
820.216	0.0173215
820.294	0.0173048
820.372	0.0172337
820.450	0.0171851
820.529	0.0172048
820.607	0.0170934
820.685	0.0171192
820.763	0.0170113
820.841	0.0170197
820.919	0.0169396
820.997	0.0170692
821.075	0.0169483
821.154	0.0170550
821.232	0.0169520
821.310	0.0168508
821.388	0.0169300
821.466	0.0169315
821.544	0.0169665
821.622	0.0168632
821.700	0.0170299
821.779	0.0170900
821.857	0.0169477
821.935	0.0167504
822.013	0.0169672
822.091	0.0168968
822.169	0.0169499
822.247	0.0168523
822.325	0.0168857
822.404	0.0167885
822.482	0.0168848
822.560	0.0169579
822.638	0.0169298
822.716	0.0169800
822.794	0.0169551
822.872	0.0171710
822.950	0.0171233
823.029	0.0170448
823.107	0.0172514
823.185	0.0172762
823.263	0.0173255
823.341	0.0173431
823.419	0.0172098
823.497	0.0173829
823.575	0.0173730
823.654	0.0173757
823.732	0.0174821
823.810	0.0174646
823.888	0.0174963
823.966	0.0175013
824.044	0.0173997
824.122	0.0173459
824.200	0.0172791
824.279	0.0171944
824.357	0.0171055
824.435	0.0171192
824.513	0.0171505
824.591	0.0171741
824.669	0.0170684
824.747	0.0171259
824.825	0.0170435
824.904	0.0171702
824.982	0.0169659
825.060	0.0170363
825.138	0.0169263
825.216	0.0171216
825.294	0.0170881
825.372	0.0170615
825.450	0.0172272
825.529	0.0173027
825.607	0.0171458
825.685	0.0171429
825.763	0.0172118
825.841	0.0171204
825.919	0.0172307
825.997	0.0171207
826.075	0.0171040
826.154	0.0169742
826.232	0.0170432
826.310	0.0170273
826.388	0.0171679
826.466	0.0170942
826.544	0.0170467
826.622	0.0169845
826.700	0.0170954
826.779	0.0170398
826.857	0.0168850
826.935	0.0170033
827.013	0.0170225
827.091	0.0170025
827.169	0.0169909
827.247	0.0169870
827.325	0.0169053
827.404	0.0168787
827.482	0.0168272
827.560	0.0169592
827.638	0.0169688
827.716	0.0167910
827.794	0.0168194
827.872	0.0168761
827.950	0.0168941
828.029	0.0167416
828.107	0.0167745
828.185	0.0169216
828.263	0.0169209
828.341	0.0168935
828.419	0.0170256
828.497	0.0171627
828.575	0.0170942
828.654	0.0170706
828.732	0.0171739
828.810	0.0173854
828.888	0.0172507
828.966	0.0172920
829.044	0.0172853
829.122	0.0172778
829.200	0.0173239
829.279	0.0173579
829.357	0.0173534
829.435	0.0170580
829.513	0.0171672
829.591	0.0172858
829.669	0.0171998
829.747	0.0172329
829.825	0.0172634
829.904	0.0171935
829.982	0.0170647
830.060	0.0172314
830.138	0.0171245
830.216	0.0170866
830.294	0.0172009
830.372	0.0169421
830.450	0.0171335
830.529	0.0171845
830.607	0.0169662
830.685	0.0170166
830.763	0.0171456
830.841	0.0170483
830.919	0.0170192
830.997	0.0169989
831.075	0.0169774
831.154	0.0169080
831.232	0.0170250
831.310	0.0169563
831.388	0.0170728
831.466	0.0169544
831.544	0.0169103
831.622	0.0168676
831.700	0.0168564
831.779	0.0169251
831.857	0.0168977
831.935	0.0169730
832.013	0.0167960
832.091	0.0169545
832.169	0.0169413
832.247	0.0169574
832.325	0.0169427
832.404	0.0169891
832.482	0.0170228
832.560	0.0169273
832.638	0.0169053
832.716	0.0170875
832.794	0.0172141
832.872	0.0171270
832.950	0.0172794
833.029	0.0172885
833.107	0.0172124
833.185	0.0172211
833.263	0.0172070
833.341	0.0172690
833.419	0.0173999
833.497	0.0173777
833.575	0.0172102
833.654	0.0171930
833.732	0.0172086
833.810	0.0172345
833.888	0.0173317
833.966	0.0172906
834.044	0.0172074
834.122	0.0171395
834.200	0.0170939
834.279	0.0171190
834.357	0.0170655
834.435	0.0170667
834.513	0.0170520
834.591	0.0171590
834.669	0.0171743
834.747	0.0170699
834.825	0.0170698
834.904	0.0169676
834.982	0.0170720
835.060	0.0170198
835.138	0.0169958
835.216	0.0169350
835.294	0.0168476
835.372	0.0169016
835.450	0.0169057
835.529	0.0169576
835.607	0.0169997
835.685	0.0168911
835.763	0.0168822
835.841	0.0168676
835.919	0.0169450
835.997	0.0170056
836.075	0.0169432
836.154	0.0170960
836.232	0.0169572
836.310	0.0169832
836.388	0.0170403
836.466	0.0170770
836.544	0.0171342
836.622	0.0171375
836.700	0.0170995
836.779	0.0171223
836.857	0.0170367
836.935	0.0171353
837.013	0.0170733
837.091	0.0170731
837.169	0.0169991
837.247	0.0169382
837.325	0.0170318
837.404	0.0170502
837.482	0.0170287
837.560	0.0169238
837.638	0.0168909
837.716	0.0169730
837.794	0.0169919
837.872	0.0170677
837.950	0.0169142
838.029	0.0171573
838.107	0.0170232
838.185	0.0171160
838.263	0.0171365
838.341	0.0171736
838.419	0.0170696
838.497	0.0171064
838.575	0.0172065
838.654	0.0170566
838.732	0.0170219
838.810	0.0171649
838.888	0.0171251
838.966	0.0171905
839.044	0.0169899
839.122	0.0170576
839.200	0.0170727
839.279	0.0170454
839.357	0.0170219
839.435	0.0170892
839.513	0.0170968
839.591	0.0171645
839.669	0.0171386
839.747	0.0170257
839.825	0.0171138
839.904	0.0172449
839.982	0.0170772
840.060	0.0170827
840.138	0.0170386
840.216	0.0170233
840.294	0.0170780
840.372	0.0171468
840.450	0.0170211
840.529	0.0168386
840.607	0.0170023
840.685	0.0170351
840.763	0.0169847
840.841	0.0170433
840.919	0.0171053
840.997	0.0171518
841.075	0.0170341
841.154	0.0171455
841.232	0.0170794
841.310	0.0170369
841.388	0.0170517
841.466	0.0170992
841.544	0.0171765
841.622	0.0170018
841.700	0.0170679
841.779	0.0171828
841.857	0.0170204
841.935	0.0170867
842.013	0.0170191
842.091	0.0169505
842.169	0.0170349
842.247	0.0171181
842.325	0.0171661
842.404	0.0170026
842.482	0.0168954
842.560	0.0169518
842.638	0.0170300
842.716	0.0170840
842.794	0.0170507
842.872	0.0169872
842.950	0.0169939
843.029	0.0169937
843.107	0.0170441
843.185	0.0170300
843.263	0.0170397
843.341	0.0170648
843.419	0.0171105
843.497	0.0169685
843.575	0.0172444
843.654	0.0170667
843.732	0.0171297
843.810	0.0172501
843.888	0.0170898
843.966	0.0170475
844.044	0.0170470
844.122	0.0169801
844.200	0.0172588
844.279	0.0171881
844.357	0.0168535
844.435	0.0171585
844.513	0.0169558
844.591	0.0169614
844.669	0.0170055
844.747	0.0169812
844.825	0.0168636
844.904	0.0170115
844.982	0.0168475
845.060	0.0170991
845.138	0.0171532
845.216	0.0169091
845.294	0.0169875
845.372	0.0170697
845.450	0.0169552
845.529	0.0169230
845.607	0.0170126
845.685	0.0171358
845.763	0.0171507
845.841	0.0170774
845.919	0.0170713
845.997	0.0170657
846.075	0.0170455
846.154	0.0169226
846.232	0.0170380
846.310	0.0169930
846.388	0.0170071
846.466	0.0169814
846.544	0.0170724
846.622	0.0169757
846.700	0.0170299
846.779	0.0168456
846.857	0.0168830
846.935	0.0170035
847.013	0.0171089
847.091	0.0170160
847.169	0.0171664
847.247	0.0172000
847.325	0.0171199
847.404	0.0171081
847.482	0.0172381
847.560	0.0172009
847.638	0.0171649
847.716	0.0171518
847.794	0.0172118
847.872	0.0173152
847.950	0.0171433
848.029	0.0171722
848.107	0.0171172
848.185	0.0170576
848.263	0.0171473
848.341	0.0170612
848.419	0.0168776
848.497	0.0171780
848.575	0.0169853
848.654	0.0168804
848.732	0.0169473
848.810	0.0170181
848.888	0.0168885
848.966	0.0168781
849.044	0.0169115
849.122	0.0170049
849.200	0.0170058
849.279	0.0170074
849.357	0.0170341
849.435	0.0171799
849.513	0.0170647
849.591	0.0170905
849.669	0.0170116
849.747	0.0171931
849.825	0.0170971
849.904	0.0170897
849.982	0.0170519
850.060	0.0171198
850.138	0.0169973
850.216	0.0170277
850.294	0.0171309
850.372	0.0171301
850.450	0.0170321
850.529	0.0170112
850.607	0.0170028
850.685	0.0169111
850.763	0.0169458
850.841	0.0170779
850.919	0.0171255
850.997	0.0169544
851.075	0.0170956
851.154	0.0171269
851.232	0.0169275
851.310	0.0169820
851.388	0.0169651
851.466	0.0169699
851.544	0.0170368
851.622	0.0170380
851.700	0.0169359
851.779	0.0168935
851.857	0.0168365
851.935	0.0168784
852.013	0.0170006
852.091	0.0168375
852.169	0.0167686
852.247	0.0168536
852.325	0.0168791
852.404	0.0170052
852.482	0.0170601
852.560	0.0170350
852.638	0.0169986
852.716	0.0169897
852.794	0.0170889
852.872	0.0171680
852.950	0.0170994
853.029	0.0172211
853.107	0.0171150
853.185	0.0170437
853.263	0.0170486
853.341	0.0170365
853.419	0.0170261
853.497	0.0172623
853.575	0.0169496
853.654	0.0171890
853.732	0.0171389
853.810	0.0169402
853.888	0.0170003
853.966	0.0169588
854.044	0.0168919
854.122	0.0169910
854.200	0.0170055
854.279	0.0169675
854.357	0.0169294
854.435	0.0167912
854.513	0.0169950
854.591	0.0168900
854.669	0.0167577
854.747	0.0169937
854.825	0.0167487
854.904	0.0169515
854.982	0.0168813
855.060	0.0168977
855.138	0.0169579
855.216	0.0168587
855.294	0.0169248
855.372	0.0170068
855.450	0.0169820
855.529	0.0168713
855.607	0.0170182
855.685	0.0169379
855.763	0.0170526
855.841	0.0170020
855.919	0.0169112
855.997	0.0169168
856.075	0.0170401
856.154	0.0169928
856.232	0.0170642
856.310	0.0170403
856.388	0.0170525
856.466	0.0171683
856.544	0.0170892
856.622	0.0171531
856.700	0.0173627
856.779	0.0171394
856.857	0.0170671
856.935	0.0171696
857.013	0.0169948
857.091	0.0170825
857.169	0.0172244
857.247	0.0172226
857.325	0.0170506
857.404	0.0168699
857.482	0.0168650
857.560	0.0169684
857.638	0.0169653
857.716	0.0168852
857.794	0.0169530
857.872	0.0168137
857.950	0.0167335
858.029	0.0169806
858.107	0.0169019
858.185	0.0167808
858.263	0.0169356
858.341	0.0168932
858.419	0.0168225
858.497	0.0168464
858.575	0.0168416
858.654	0.0169331
858.732	0.0168751
858.810	0.0168270
858.888	0.0168705
858.966	0.0170039
859.044	0.0167541
859.122	0.0168536
859.200	0.0168984
859.279	0.0169213
859.357	0.0167996
859.435	0.0169434
859.513	0.0169336
859.591	0.0168824
859.669	0.0169347
859.747	0.0170502
859.825	0.0169154
859.904	0.0168671
859.982	0.0169812
860.060	0.0170145
860.138	0.0171346
860.216	0.0170032
860.294	0.0170837
860.372	0.0170860
860.450	0.0170924
860.529	0.0171099
860.607	0.0171593
860.685	0.0170560
860.763	0.0170847
860.841	0.0171140
860.919	0.0171590
860.997	0.0171310
861.075	0.0171044
861.154	0.0170451
861.232	0.0171014
861.310	0.0171751
861.388	0.0171879
861.466	0.0172177
861.544	0.0171454
861.622	0.0171732
861.700	0.0172168
861.779	0.0170193
861.857	0.0171490
861.935	0.0170847
862.013	0.0172223
862.091	0.0170284
862.169	0.0168818
862.247	0.0170081
862.325	0.0170785
862.404	0.0169373
862.482	0.0169306
862.560	0.0169357
862.638	0.0169299
862.716	0.0168237
862.794	0.0168392
862.872	0.0170051
862.950	0.0168500
863.029	0.0168900
863.107	0.0168320
863.185	0.0168177
863.263	0.0169094
863.341	0.0168800
863.419	0.0168641
863.497	0.0168181
863.575	0.0167837
863.654	0.0168159
863.732	0.0167948
863.810	0.0169691
863.888	0.0169926
863.966	0.0168920
864.044	0.0169869
864.122	0.0170629
864.200	0.0170094
864.279	0.0170036
864.357	0.0169930
864.435	0.0171262
864.513	0.0171114
864.591	0.0171496
864.669	0.0170950
864.747	0.0172031
864.825	0.0170371
864.904	0.0171622
864.982	0.0172452
865.060	0.0172057
865.138	0.0170990
865.216	0.0172072
865.294	0.0171432
865.372	0.0172141
865.450	0.0170835
865.529	0.0171136
865.607	0.0169272
865.685	0.0171637
865.763	0.0170773
865.841	0.0171355
865.919	0.0170181
865.997	0.0170296
866.075	0.0170358
866.154	0.0169945
866.232	0.0171262
866.310	0.0168886
866.388	0.0170705
866.466	0.0173373
866.544	0.0170413
866.622	0.0170374
866.700	0.0169901
866.779	0.0171542
866.857	0.0171392
866.935	0.0171438
867.013	0.0171112
867.091	0.0169441
867.169	0.0171127
867.247	0.0170863
867.325	0.0170830
867.404	0.0170077
867.482	0.0170368
867.560	0.0169904
867.638	0.0169836
867.716	0.0169262
867.794	0.0169641
867.872	0.0169348
867.950	0.0170116
868.029	0.0170650
868.107	0.0169675
868.185	0.0169621
868.263	0.0170593
868.341	0.0170397
868.419	0.0169817
868.497	0.0169063
868.575	0.0167668
868.654	0.0169207
868.732	0.0170644
868.810	0.0170455
868.888	0.0168780
868.966	0.0168575
869.044	0.0170243
869.122	0.0170911
869.200	0.0169649
869.279	0.0170052
869.357	0.0170765
869.435	0.0171471
869.513	0.0171411
869.591	0.0170386
869.669	0.0170557
869.747	0.0172139
869.825	0.0172014
869.904	0.0172697
869.982	0.0173475
870.060	0.0171782
870.138	0.0171947
870.216	0.0170941
870.294	0.0172028
870.372	0.0171615
870.450	0.0171046
870.529	0.0170860
870.607	0.0172516
870.685	0.0172285
870.763	0.0170530
870.841	0.0170583
870.919	0.0171129
870.997	0.0170921
871.075	0.0170479
871.154	0.0170554
871.232	0.0170657
871.310	0.0169888
871.388	0.0170751
871.466	0.0170715
871.544	0.0170414
871.622	0.0172164
871.700	0.0170721
871.779	0.0170341
871.857	0.0170193
871.935	0.0169893
872.013	0.0170033
872.091	0.0170097
872.169	0.0170629
872.247	0.0169522
872.325	0.0169772
872.404	0.0168034
872.482	0.0168811
872.560	0.0169501
872.638	0.0170382
872.716	0.0169283
872.794	0.0168164
872.872	0.0169797
872.950	0.0170635
873.029	0.0171059
873.107	0.0169767
873.185	0.0169416
873.263	0.0169122
873.341	0.0170081
873.419	0.0169897
873.497	0.0170161
873.575	0.0170377
873.654	0.0168338
873.732	0.0170186
873.810	0.0169662
873.888	0.0169993
873.966	0.0170467
874.044	0.0171872
874.122	0.0171937
874.200	0.0172724
874.279	0.0172007
874.357	0.0172865
874.435	0.0172771
874.513	0.0171950
874.591	0.0173248
874.669	0.0172031
874.747	0.0171986
874.825	0.0171455
874.904	0.0172346
874.982	0.0171462
875.060	0.0171065
875.138	0.0171215
875.216	0.0171751
875.294	0.0170864
875.372	0.0171276
875.450	0.0170702
875.529	0.0170235
875.607	0.0171700
875.685	0.0170030
875.763	0.0168939
875.841	0.0169950
875.919	0.0171055
875.997	0.0169184
876.075	0.0167035
876.154	0.0168819
876.232	0.0168132
876.310	0.0168562
876.388	0.0168269
876.466	0.0167990
876.544	0.0166923
876.622	0.0168331
876.700	0.0167957
876.779	0.0168834
876.857	0.0168869
876.935	0.0168594
877.013	0.0169035
877.091	0.0168233
877.169	0.0168467
877.247	0.0168140
877.325	0.0168800
877.404	0.0168140
877.482	0.0168163
877.560	0.0169487
877.638	0.0169495
877.716	0.0169077
877.794	0.0170697
877.872	0.0171322
877.950	0.0170506
878.029	0.0171189
878.107	0.0170303
878.185	0.0171016
878.263	0.0171380
878.341	0.0173161
878.419	0.0174471
878.497	0.0173524
878.575	0.0172942
878.654	0.0175306
878.732	0.0175779
878.810	0.0174923
878.888	0.0175492
878.966	0.0175977
879.044	0.0177014
879.122	0.0176560
879.200	0.0176071
879.279	0.0174481
879.357	0.0174367
879.435	0.0173486
879.513	0.0171314
879.591	0.0172862
879.669	0.0170390
879.747	0.0169200
879.825	0.0168053
879.904	0.0166449
879.982	0.0165108
880.060	0.0165128
880.138	0.0163896
880.216	0.0162341
880.294	0.0161673
880.372	0.0162425
880.450	0.0162719
880.529	0.0163775
880.607	0.0162659
880.685	0.0164039
880.763	0.0164548
880.841	0.0164843
880.919	0.0166588
880.997	0.0168146
881.075	0.0168375
881.154	0.0168616
881.232	0.0171042
881.310	0.0170713
881.388	0.0172121
881.466	0.0171159
881.544	0.0171835
881.622	0.0172283
881.700	0.0173634
881.779	0.0174298
881.857	0.0175139
881.935	0.0175900
882.013	0.0175401
882.091	0.0175655
882.169	0.0175504
882.247	0.0175049
882.325	0.0175049
882.404	0.0174480
882.482	0.0175220
882.560	0.0174891
882.638	0.0174312
882.716	0.0174209
882.794	0.0173377
882.872	0.0173269
882.950	0.0172538
883.029	0.0173797
883.107	0.0171246
883.185	0.0171433
883.263	0.0170107
883.341	0.0169067
883.419	0.0169243
883.497	0.0165108
883.575	0.0168383
883.654	0.0166048
883.732	0.0163969
883.810	0.0163477
883.888	0.0162177
883.966	0.0162395
884.044	0.0162178
884.122	0.0163853
884.200	0.0163719
884.279	0.0164484
884.357	0.0165457
884.435	0.0167274
884.513	0.0169003
884.591	0.0171001
884.669	0.0172297
884.747	0.0173441
884.825	0.0173950
884.904	0.0174782
884.982	0.0175847
885.060	0.0176250
885.138	0.0177305
885.216	0.0177153
885.294	0.0175990
885.372	0.0175873
885.450	0.0174908
885.529	0.0175170
885.607	0.0174545
885.685	0.0174104
885.763	0.0173676
885.841	0.0172003
885.919	0.0171900
885.997	0.0170189
886.075	0.0169722
886.154	0.0171072
886.232	0.0168871
886.310	0.0169295
886.388	0.0168000
886.466	0.0167666
886.544	0.0167848
886.622	0.0166837
886.700	0.0167131
886.779	0.0168450
886.857	0.0168598
886.935	0.0167713
887.013	0.0168192
887.091	0.0169555
887.169	0.0169623
887.247	0.0169642
887.325	0.0170652
887.404	0.0167694
887.482	0.0168840
887.560	0.0168533
887.638	0.0168604
887.716	0.0168729
887.794	0.0169598
887.872	0.0171107
887.950	0.0171149
888.029	0.0171279
888.107	0.0172154
888.185	0.0172529
888.263	0.0173158
888.341	0.0174061
888.419	0.0172497
888.497	0.0173366
888.575	0.0173573
888.654	0.0173569
888.732	0.0174369
888.810	0.0172608
888.888	0.0173835
888.966	0.0173778
889.044	0.0173575
889.122	0.0174015
889.200	0.0175475
889.279	0.0173970
889.357	0.0174347
889.435	0.0173145
889.513	0.0173004
889.591	0.0172254
889.669	0.0172824
889.747	0.0171164
889.825	0.0170934
889.904	0.0169576
889.982	0.0168652
890.060	0.0168886
890.138	0.0168930
890.216	0.0167714
890.294	0.0168048
890.372	0.0168820
890.450	0.0168847
890.529	0.0168901
890.607	0.0168034
890.685	0.0167043
890.763	0.0169142
890.841	0.0167332
890.919	0.0166940
890.997	0.0168122
891.075	0.0166762
891.154	0.0167163
891.232	0.0167678
891.310	0.0166632
891.388	0.0167532
891.466	0.0167714
891.544	0.0168567
891.622	0.0170482
891.700	0.0171240
891.779	0.0170704
891.857	0.0172203
891.935	0.0171320
892.013	0.0173208
892.091	0.0175064
892.169	0.0175188
892.247	0.0175914
892.325	0.0175149
892.404	0.0175183
892.482	0.0176467
892.560	0.0174825
892.638	0.0174422
892.716	0.0173442
892.794	0.0174251
892.872	0.0174084
892.950	0.0174186
893.029	0.0174202
893.107	0.0171885
893.185	0.0172952
893.263	0.0171545
893.341	0.0171725
893.419	0.0171776
893.497	0.0170515
893.575	0.0171069
893.654	0.0171388
893.732	0.0169035
893.810	0.0168703
893.888	0.0169668
893.966	0.0169430
894.044	0.0171117
894.122	0.0171155
894.200	0.0168963
894.279	0.0170398
894.357	0.0171972
894.435	0.0171275
894.513	0.0171265
894.591	0.0171645
894.669	0.0170983
894.747	0.0170729
894.825	0.0171270
894.904	0.0169097
894.982	0.0170716
895.060	0.0170792
895.138	0.0169553
895.216	0.0170290
895.294	0.0170171
895.372	0.0170261
895.450	0.0169702
895.529	0.0170969
895.607	0.0170573
895.685	0.0170959
895.763	0.0170921
895.841	0.0171931
895.919	0.0172237
895.997	0.0171970
896.075	0.0169943
896.154	0.0171664
896.232	0.0173379
896.310	0.0171301
896.388	0.0171169
896.466	0.0171082
896.544	0.0170261
896.622	0.0172059
896.700	0.0171104
896.779	0.0171118
896.857	0.0170828
896.935	0.0170695
897.013	0.0172035
897.091	0.0171601
897.169	0.0171363
897.247	0.0169839
897.325	0.0170925
897.404	0.0170879
897.482	0.0170596
897.560	0.0171210
897.638	0.0173112
897.716	0.0172655
897.794	0.0172112
897.872	0.0171822
897.950	0.0172623
898.029	0.0172443
898.107	0.0171539
898.185	0.0170626
898.263	0.0170610
898.341	0.0172121
898.419	0.0170463
898.497	0.0169706
898.575	0.0168322
898.654	0.0169727
898.732	0.0169926
898.810	0.0169205
898.888	0.0169161
898.966	0.0170342
899.044	0.0170036
899.122	0.0170467
899.200	0.0169749
899.279	0.0170964
899.357	0.0171330
899.435	0.0172263
899.513	0.0171536
899.591	0.0172931
899.669	0.0175875
899.747	0.0175911
899.825	0.0172780
899.904	0.0174577
899.982	0.0176208
900.060	0.0174220
900.138	0.0173916
900.216	0.0174125
900.294	0.0174499
900.372	0.0173491
900.450	0.0172910
900.529	0.0173386
900.607	0.0171284
900.685	0.0170409
900.763	0.0169526
900.841	0.0170627
900.919	0.0171548
900.997	0.0170206
901.075	0.0171318
901.154	0.0170881
901.232	0.0169820
901.310	0.0169613
901.388	0.0168433
901.466	0.0169932
901.544	0.0169167
901.622	0.0169501
901.700	0.0167349
901.779	0.0167765
901.857	0.0168818
901.935	0.0168079
902.013	0.0165705
902.091	0.0166837
902.169	0.0166015
902.247	0.0166977
902.325	0.0166499
902.404	0.0166018
902.482	0.0166080
902.560	0.0166546
902.638	0.0166701
902.716	0.0167342
902.794	0.0168920
902.872	0.0168198
902.950	0.0171043
903.029	0.0171574
903.107	0.0172572
903.185	0.0173374
903.263	0.0173463
903.341	0.0174268
903.419	0.0175454
903.497	0.0174658
903.575	0.0175509
903.654	0.0175703
903.732	0.0175087
903.810	0.0176182
903.888	0.0176553
903.966	0.0175120
904.044	0.0176342
904.122	0.0175641
904.200	0.0175057
904.279	0.0174852
904.357	0.0175086
904.435	0.0173483
904.513	0.0173260
904.591	0.0171960
904.669	0.0171799
904.747	0.0169841
904.825	0.0170085
904.904	0.0168684
904.982	0.0168935
905.060	0.0168002
905.138	0.0167572
905.216	0.0164997
905.294	0.0165678
905.372	0.0165472
905.450	0.0165634
905.529	0.0164506
905.607	0.0164065
905.685	0.0164299
905.763	0.0164967
905.841	0.0164201
905.919	0.0165365
905.997	0.0164800
906.075	0.0166190
906.154	0.0167448
906.232	0.0166731
906.310	0.0168505
906.388	0.0168284
906.466	0.0169734
906.544	0.0169319
906.622	0.0170952
906.700	0.0172491
906.779	0.0172097
906.857	0.0175365
906.935	0.0174200
907.013	0.0175597
907.091	0.0174593
907.169	0.0175506
907.247	0.0175884
907.325	0.0175866
907.404	0.0176224
907.482	0.0176727
907.560	0.0175675
907.638	0.0177383
907.716	0.0176770
907.794	0.0176070
907.872	0.0175320
907.950	0.0175591
908.029	0.0175360
908.107	0.0175012
908.185	0.0173168
908.263	0.0172332
908.341	0.0172128
908.419	0.0173078
908.497	0.0169856
908.575	0.0169531
908.654	0.0168172
908.732	0.0169684
908.810	0.0168777
908.888	0.0168163
908.966	0.0167616
909.044	0.0166940
909.122	0.0166228
909.200	0.0166191
909.279	0.0165528
909.357	0.0165007
909.435	0.0167149
909.513	0.0167130
909.591	0.0165883
909.669	0.0166105
909.747	0.0165965
909.825	0.0167580
909.904	0.0167859
909.982	0.0168018
910.060	0.0169424
910.138	0.0169693
910.216	0.0169988
910.294	0.0169960
910.372	0.0171003
910.450	0.0172188
910.529	0.0174223
910.607	0.0171896
910.685	0.0172321
910.763	0.0173088
910.841	0.0174098
910.919	0.0174001
910.997	0.0174179
911.075	0.0174491
911.154	0.0174120
911.232	0.0173730
911.310	0.0174899
911.388	0.0174467
911.466	0.0173650
911.544	0.0174812
911.622	0.0173688
911.700	0.0172910
911.779	0.0172488
911.857	0.0173348
911.935	0.0171445
912.013	0.0171874
912.091	0.0171421
912.169	0.0170953
912.247	0.0172373
912.325	0.0171646
912.404	0.0169970
912.482	0.0169998
912.560	0.0170132
912.638	0.0170460
912.716	0.0168941
912.794	0.0169357
912.872	0.0169039
912.950	0.0167883
913.029	0.0169056
913.107	0.0168744
913.185	0.0167318
913.263	0.0167226
913.341	0.0168266
913.419	0.0167753
913.497	0.0169249
913.575	0.0169157
913.654	0.0168806
913.732	0.0169904
913.810	0.0170003
913.888	0.0169020
913.966	0.0169222
914.044	0.0171099
914.122	0.0170958
914.200	0.0171049
914.279	0.0171974
914.357	0.0171616
914.435	0.0173355
914.513	0.0171478
914.591	0.0171664
914.669	0.0171829
914.747	0.0172714
914.825	0.0171219
914.904	0.0173759
914.982	0.0172100
915.060	0.0170337
915.138	0.0171173
915.216	0.0171315
915.294	0.0170741
915.372	0.0171051
915.450	0.0171709
915.529	0.0170982
915.607	0.0170615
915.685	0.0169766
915.763	0.0171235
915.841	0.0171487
915.919	0.0170550
915.997	0.0170935
916.075	0.0172529
916.154	0.0171614
916.232	0.0170782
916.310	0.0170461
916.388	0.0170383
916.466	0.0170718
916.544	0.0170136
916.622	0.0170612
916.700	0.0170789
916.779	0.0170289
916.857	0.0168473
916.935	0.0169534
917.013	0.0169583
917.091	0.0170466
917.169	0.0170314
917.247	0.0168478
917.325	0.0169546
917.404	0.0170360
917.482	0.0168052
917.560	0.0169830
917.638	0.0168300
917.716	0.0169128
917.794	0.0170240
917.872	0.0170548
917.950	0.0170876
918.029	0.0171681
918.107	0.0171199
918.185	0.0172513
918.263	0.0171396
918.341	0.0170998
918.419	0.0172455
918.497	0.0171021
918.575	0.0170152
918.654	0.0170860
918.732	0.0170648
918.810	0.0171017
918.888	0.0172416
918.966	0.0169765
919.044	0.0171677
919.122	0.0170618
919.200	0.0171130
919.279	0.0171059
919.357	0.0171806
919.435	0.0171275
919.513	0.0171573
919.591	0.0171718
919.669	0.0173466
919.747	0.0172795
919.825	0.0171530
919.904	0.0172916
