06/03/2022	14:03:15	Ver.	4.1	UNKNOWN
Optical Delay	599.981738	Delta X		0.078125	Sweeps	1	Scan Rate	0/0
Coordinates	Axis 1	NaN	Axis 2	NaN	Axis 3	NaN	Axis 4	NaN	Axis 5	NaN	Axis 6	0.000000
TX Power	0.000000	RX Power	0.000000

599.982	0.0165770
600.060	0.0165329
600.138	0.0164104
600.216	0.0165670
600.294	0.0165037
600.372	0.0165689
600.450	0.0166031
600.529	0.0166069
600.607	0.0166328
600.685	0.0165073
600.763	0.0166844
600.841	0.0164579
600.919	0.0165714
600.997	0.0166632
601.075	0.0165073
601.154	0.0166042
601.232	0.0166330
601.310	0.0165102
601.388	0.0165544
601.466	0.0165234
601.544	0.0166510
601.622	0.0166499
601.700	0.0167156
601.779	0.0164980
601.857	0.0165565
601.935	0.0165852
602.013	0.0165250
602.091	0.0165525
602.169	0.0165237
602.247	0.0164992
602.325	0.0166776
602.404	0.0166602
602.482	0.0165612
602.560	0.0165987
602.638	0.0165369
602.716	0.0165959
602.794	0.0166279
602.872	0.0166905
602.950	0.0165771
603.029	0.0167428
603.107	0.0167841
603.185	0.0165972
603.263	0.0165096
603.341	0.0166075
603.419	0.0165557
603.497	0.0166048
603.575	0.0165684
603.654	0.0165836
603.732	0.0165428
603.810	0.0166283
603.888	0.0165648
603.966	0.0166755
604.044	0.0165701
604.122	0.0165713
604.200	0.0166394
604.279	0.0167239
604.357	0.0166030
604.435	0.0164774
604.513	0.0165745
604.591	0.0165324
604.669	0.0164857
604.747	0.0164849
604.825	0.0164892
604.904	0.0165083
604.982	0.0165784
605.060	0.0164782
605.138	0.0164941
605.216	0.0165688
605.294	0.0165623
605.372	0.0166589
605.450	0.0166199
605.529	0.0166251
605.607	0.0165194
605.685	0.0166061
605.763	0.0166705
605.841	0.0166000
605.919	0.0165706
605.997	0.0165390
606.075	0.0166918
606.154	0.0166125
606.232	0.0165039
606.310	0.0166544
606.388	0.0166589
606.466	0.0165205
606.544	0.0165388
606.622	0.0166940
606.700	0.0165995
606.779	0.0166911
606.857	0.0165359
606.935	0.0166129
607.013	0.0166212
607.091	0.0166977
607.169	0.0165230
607.247	0.0166277
607.325	0.0165697
607.404	0.0164890
607.482	0.0166675
607.560	0.0165557
607.638	0.0165950
607.716	0.0166157
607.794	0.0165812
607.872	0.0164953
607.950	0.0165781
608.029	0.0166536
608.107	0.0166431
608.185	0.0166073
608.263	0.0165983
608.341	0.0165256
608.419	0.0165861
608.497	0.0165408
608.575	0.0165136
608.654	0.0165221
608.732	0.0165303
608.810	0.0164959
608.888	0.0165736
608.966	0.0164207
609.044	0.0166180
609.122	0.0165461
609.200	0.0165150
609.279	0.0164590
609.357	0.0165933
609.435	0.0165382
609.513	0.0166389
609.591	0.0165972
609.669	0.0165589
609.747	0.0165061
609.825	0.0166744
609.904	0.0165205
609.982	0.0166588
610.060	0.0166368
610.138	0.0165612
610.216	0.0165838
610.294	0.0166154
610.372	0.0165803
610.450	0.0165835
610.529	0.0165033
610.607	0.0166792
610.685	0.0166805
610.763	0.0166434
610.841	0.0165343
610.919	0.0165141
610.997	0.0166642
611.075	0.0166265
611.154	0.0165812
611.232	0.0166585
611.310	0.0165794
611.388	0.0166937
611.466	0.0166837
611.544	0.0165784
611.622	0.0165689
611.700	0.0166743
611.779	0.0166640
611.857	0.0165720
611.935	0.0166022
612.013	0.0166293
612.091	0.0165527
612.169	0.0165710
612.247	0.0166481
612.325	0.0166235
612.404	0.0165077
612.482	0.0164462
612.560	0.0166309
612.638	0.0164410
612.716	0.0165823
612.794	0.0165102
612.872	0.0164465
612.950	0.0165617
613.029	0.0165027
613.107	0.0166241
613.185	0.0165371
613.263	0.0165330
613.341	0.0164818
613.419	0.0165928
613.497	0.0166458
613.575	0.0167020
613.654	0.0165945
613.732	0.0166486
613.810	0.0166940
613.888	0.0166169
613.966	0.0165527
614.044	0.0166995
614.122	0.0165920
614.200	0.0167639
614.279	0.0167873
614.357	0.0166416
614.435	0.0168327
614.513	0.0167105
614.591	0.0166369
614.669	0.0166090
614.747	0.0167914
614.825	0.0166494
614.904	0.0164993
614.982	0.0166403
615.060	0.0165148
615.138	0.0164996
615.216	0.0166161
615.294	0.0167549
615.372	0.0165935
615.450	0.0166016
615.529	0.0166415
615.607	0.0165929
615.685	0.0165969
615.763	0.0166923
615.841	0.0165565
615.919	0.0165646
615.997	0.0166163
616.075	0.0166171
616.154	0.0164193
616.232	0.0164435
616.310	0.0164713
616.388	0.0165527
616.466	0.0165662
616.544	0.0164195
616.622	0.0164643
616.700	0.0166060
616.779	0.0165952
616.857	0.0165273
616.935	0.0165219
617.013	0.0165765
617.091	0.0166131
617.169	0.0164601
617.247	0.0166032
617.325	0.0164973
617.404	0.0165713
617.482	0.0167785
617.560	0.0167504
617.638	0.0165868
617.716	0.0167162
617.794	0.0166467
617.872	0.0165604
617.950	0.0166205
618.029	0.0166116
618.107	0.0165526
618.185	0.0165662
618.263	0.0164885
618.341	0.0166111
618.419	0.0165932
618.497	0.0164999
618.575	0.0167111
618.654	0.0166812
618.732	0.0167358
618.810	0.0165783
618.888	0.0165799
618.966	0.0165743
619.044	0.0164161
619.122	0.0165192
619.200	0.0166766
619.279	0.0164483
619.357	0.0164920
619.435	0.0165339
619.513	0.0165080
619.591	0.0165294
619.669	0.0165186
619.747	0.0165218
619.825	0.0164368
619.904	0.0163897
619.982	0.0164530
620.060	0.0164529
620.138	0.0164722
620.216	0.0164999
620.294	0.0164966
620.372	0.0165695
620.450	0.0166200
620.529	0.0166390
620.607	0.0165750
620.685	0.0164225
620.763	0.0165160
620.841	0.0165714
620.919	0.0164860
620.997	0.0167034
621.075	0.0166427
621.154	0.0165670
621.232	0.0166086
621.310	0.0165307
621.388	0.0165834
621.466	0.0165683
621.544	0.0165710
621.622	0.0166065
621.700	0.0166351
621.779	0.0166478
621.857	0.0166453
621.935	0.0166445
622.013	0.0166559
622.091	0.0166039
622.169	0.0166205
622.247	0.0166794
622.325	0.0165805
622.404	0.0164841
622.482	0.0166043
622.560	0.0165203
622.638	0.0166131
622.716	0.0165910
622.794	0.0165673
622.872	0.0165550
622.950	0.0164949
623.029	0.0165662
623.107	0.0166821
623.185	0.0166108
623.263	0.0164641
623.341	0.0164854
623.419	0.0165601
623.497	0.0166090
623.575	0.0165517
623.654	0.0163850
623.732	0.0165255
623.810	0.0166233
623.888	0.0165558
623.966	0.0165633
624.044	0.0165539
624.122	0.0165672
624.200	0.0165969
624.279	0.0165196
624.357	0.0165459
624.435	0.0166395
624.513	0.0165014
624.591	0.0164729
624.669	0.0166155
624.747	0.0165314
624.825	0.0165680
624.904	0.0165324
624.982	0.0165677
625.060	0.0165609
625.138	0.0166354
625.216	0.0165324
625.294	0.0166177
625.372	0.0166510
625.450	0.0164767
625.529	0.0164471
625.607	0.0165929
625.685	0.0165826
625.763	0.0166045
625.841	0.0166534
625.919	0.0165759
625.997	0.0164986
626.075	0.0165250
626.154	0.0165820
626.232	0.0164838
626.310	0.0166618
626.388	0.0165908
626.466	0.0166040
626.544	0.0165118
626.622	0.0166135
626.700	0.0166055
626.779	0.0165821
626.857	0.0165341
626.935	0.0166206
627.013	0.0165900
627.091	0.0165330
627.169	0.0165221
627.247	0.0165668
627.325	0.0164663
627.404	0.0166094
627.482	0.0166983
627.560	0.0164533
627.638	0.0165215
627.716	0.0164407
627.794	0.0165166
627.872	0.0165884
627.950	0.0164500
628.029	0.0165593
628.107	0.0165739
628.185	0.0166138
628.263	0.0164900
628.341	0.0165061
628.419	0.0166521
628.497	0.0165900
628.575	0.0165952
628.654	0.0165321
628.732	0.0166798
628.810	0.0166886
628.888	0.0165515
628.966	0.0164861
629.044	0.0165667
629.122	0.0165820
629.200	0.0166122
629.279	0.0165952
629.357	0.0167562
629.435	0.0165833
629.513	0.0165537
629.591	0.0166911
629.669	0.0167469
629.747	0.0166579
629.825	0.0165292
629.904	0.0166486
629.982	0.0165493
630.060	0.0166595
630.138	0.0165044
630.216	0.0165475
630.294	0.0167531
630.372	0.0166739
630.450	0.0166124
630.529	0.0166442
630.607	0.0166120
630.685	0.0165968
630.763	0.0166867
630.841	0.0164606
630.919	0.0166365
630.997	0.0166312
631.075	0.0165981
631.154	0.0165324
631.232	0.0166437
631.310	0.0165784
631.388	0.0164616
631.466	0.0165609
631.544	0.0165814
631.622	0.0166266
631.700	0.0165846
631.779	0.0164856
631.857	0.0166605
631.935	0.0165403
632.013	0.0164814
632.091	0.0165668
632.169	0.0165456
632.247	0.0165015
632.325	0.0165200
632.404	0.0166195
632.482	0.0167178
632.560	0.0165281
632.638	0.0164526
632.716	0.0166730
632.794	0.0165211
632.872	0.0165413
632.950	0.0166817
633.029	0.0166013
633.107	0.0166567
633.185	0.0166799
633.263	0.0165922
633.341	0.0166392
633.419	0.0166579
633.497	0.0166496
633.575	0.0165900
633.654	0.0166561
633.732	0.0166073
633.810	0.0164991
633.888	0.0164547
633.966	0.0164588
634.044	0.0165053
634.122	0.0165968
634.200	0.0166716
634.279	0.0166109
634.357	0.0163966
634.435	0.0166633
634.513	0.0166906
634.591	0.0164842
634.669	0.0165981
634.747	0.0165778
634.825	0.0165159
634.904	0.0166393
634.982	0.0164306
635.060	0.0165525
635.138	0.0166386
635.216	0.0164304
635.294	0.0164732
635.372	0.0166430
635.450	0.0165565
635.529	0.0164895
635.607	0.0164570
635.685	0.0166277
635.763	0.0166002
635.841	0.0165857
635.919	0.0165237
635.997	0.0166270
636.075	0.0166189
636.154	0.0166554
636.232	0.0165506
636.310	0.0167104
636.388	0.0167436
636.466	0.0165436
636.544	0.0165871
636.622	0.0165502
636.700	0.0165646
636.779	0.0166414
636.857	0.0165558
636.935	0.0165197
637.013	0.0165983
637.091	0.0165575
637.169	0.0166042
637.247	0.0166583
637.325	0.0166681
637.404	0.0165865
637.482	0.0165250
637.560	0.0165336
637.638	0.0165495
637.716	0.0165825
637.794	0.0165848
637.872	0.0165633
637.950	0.0165354
638.029	0.0165368
638.107	0.0166165
638.185	0.0166580
638.263	0.0167089
638.341	0.0166984
638.419	0.0165143
638.497	0.0165134
638.575	0.0164547
638.654	0.0166347
638.732	0.0166910
638.810	0.0166311
638.888	0.0164434
638.966	0.0165005
639.044	0.0165630
639.122	0.0165482
639.200	0.0166079
639.279	0.0166092
639.357	0.0164191
639.435	0.0166644
639.513	0.0167046
639.591	0.0165394
639.669	0.0164734
639.747	0.0166646
639.825	0.0166544
639.904	0.0165084
639.982	0.0165477
640.060	0.0165804
640.138	0.0165670
640.216	0.0166539
640.294	0.0165487
640.372	0.0166854
640.450	0.0165927
640.529	0.0165751
640.607	0.0165645
640.685	0.0165427
640.763	0.0166533
640.841	0.0165591
640.919	0.0165433
640.997	0.0166690
641.075	0.0166289
641.154	0.0166398
641.232	0.0165099
641.310	0.0165459
641.388	0.0167129
641.466	0.0165430
641.544	0.0165975
641.622	0.0165376
641.700	0.0165842
641.779	0.0166347
641.857	0.0165608
641.935	0.0166943
642.013	0.0165314
642.091	0.0167738
642.169	0.0167098
642.247	0.0166431
642.325	0.0166921
642.404	0.0166783
642.482	0.0165308
642.560	0.0165919
642.638	0.0165688
642.716	0.0166598
642.794	0.0166437
642.872	0.0167030
642.950	0.0167452
643.029	0.0165382
643.107	0.0166646
643.185	0.0165598
643.263	0.0165622
643.341	0.0166329
643.419	0.0165569
643.497	0.0165522
643.575	0.0165325
643.654	0.0165977
643.732	0.0165995
643.810	0.0166940
643.888	0.0164690
643.966	0.0165348
644.044	0.0166469
644.122	0.0165305
644.200	0.0165245
644.279	0.0166080
644.357	0.0165887
644.435	0.0165273
644.513	0.0165434
644.591	0.0166232
644.669	0.0165219
644.747	0.0165778
644.825	0.0165981
644.904	0.0165630
644.982	0.0164070
645.060	0.0165096
645.138	0.0166673
645.216	0.0166753
645.294	0.0167163
645.372	0.0166138
645.450	0.0166268
645.529	0.0166241
645.607	0.0164964
645.685	0.0164567
645.763	0.0166357
645.841	0.0165697
645.919	0.0164651
645.997	0.0165710
646.075	0.0165531
646.154	0.0165584
646.232	0.0166011
646.310	0.0165727
646.388	0.0165818
646.466	0.0166541
646.544	0.0165643
646.622	0.0163832
646.700	0.0166328
646.779	0.0166261
646.857	0.0164610
646.935	0.0165906
647.013	0.0166318
647.091	0.0166497
647.169	0.0164681
647.247	0.0165158
647.325	0.0165874
647.404	0.0164755
647.482	0.0166060
647.560	0.0165795
647.638	0.0165252
647.716	0.0165891
647.794	0.0165876
647.872	0.0165684
647.950	0.0164544
648.029	0.0166299
648.107	0.0164870
648.185	0.0165734
648.263	0.0165784
648.341	0.0164678
648.419	0.0164337
648.497	0.0166428
648.575	0.0165263
648.654	0.0165920
648.732	0.0165208
648.810	0.0164611
648.888	0.0165772
648.966	0.0164687
649.044	0.0164246
649.122	0.0165667
649.200	0.0164748
649.279	0.0167428
649.357	0.0166550
649.435	0.0165572
649.513	0.0165186
649.591	0.0165803
649.669	0.0166235
649.747	0.0164422
649.825	0.0165275
649.904	0.0164608
649.982	0.0164265
650.060	0.0165878
650.138	0.0167300
650.216	0.0166705
650.294	0.0166665
650.372	0.0164048
650.450	0.0166208
650.529	0.0166103
650.607	0.0165134
650.685	0.0165891
650.763	0.0166009
650.841	0.0164769
650.919	0.0166763
650.997	0.0166423
651.075	0.0166182
651.154	0.0165140
651.232	0.0166656
651.310	0.0165732
651.388	0.0165318
651.466	0.0165929
651.544	0.0164189
651.622	0.0163927
651.700	0.0166360
651.779	0.0166171
651.857	0.0166325
651.935	0.0165475
652.013	0.0164486
652.091	0.0165445
652.169	0.0165412
652.247	0.0164648
652.325	0.0166565
652.404	0.0165807
652.482	0.0165824
652.560	0.0167102
652.638	0.0165362
652.716	0.0166449
652.794	0.0166083
652.872	0.0166335
652.950	0.0165617
653.029	0.0164702
653.107	0.0165529
653.185	0.0166399
653.263	0.0166921
653.341	0.0164799
653.419	0.0165186
653.497	0.0165495
653.575	0.0167130
653.654	0.0166096
653.732	0.0165462
653.810	0.0165293
653.888	0.0165750
653.966	0.0165005
654.044	0.0166493
654.122	0.0165005
654.200	0.0165947
654.279	0.0165244
654.357	0.0166039
654.435	0.0165650
654.513	0.0165399
654.591	0.0164583
654.669	0.0165754
654.747	0.0165568
654.825	0.0165715
654.904	0.0165082
654.982	0.0164885
655.060	0.0164775
655.138	0.0165840
655.216	0.0166672
655.294	0.0166308
655.372	0.0166950
655.450	0.0166677
655.529	0.0165832
655.607	0.0166824
655.685	0.0166591
655.763	0.0165281
655.841	0.0166302
655.919	0.0165850
655.997	0.0165620
656.075	0.0165115
656.154	0.0165269
656.232	0.0166493
656.310	0.0165287
656.388	0.0165295
656.466	0.0165792
656.544	0.0165223
656.622	0.0166176
656.700	0.0165630
656.779	0.0165852
656.857	0.0165582
656.935	0.0166039
657.013	0.0164729
657.091	0.0164725
657.169	0.0165777
657.247	0.0165448
657.325	0.0166286
657.404	0.0164976
657.482	0.0166025
657.560	0.0166131
657.638	0.0165315
657.716	0.0164237
657.794	0.0164697
657.872	0.0165116
657.950	0.0166737
658.029	0.0166014
658.107	0.0167065
658.185	0.0166485
658.263	0.0165320
658.341	0.0166869
658.419	0.0166328
658.497	0.0165826
658.575	0.0166309
658.654	0.0166261
658.732	0.0165967
658.810	0.0165208
658.888	0.0165655
658.966	0.0166326
659.044	0.0167091
659.122	0.0166103
659.200	0.0165347
659.279	0.0166265
659.357	0.0166479
659.435	0.0164844
659.513	0.0165913
659.591	0.0168125
659.669	0.0165863
659.747	0.0165275
659.825	0.0165437
659.904	0.0164487
659.982	0.0165279
660.060	0.0165414
660.138	0.0164894
660.216	0.0165699
660.294	0.0167100
660.372	0.0166432
660.450	0.0166876
660.529	0.0166104
660.607	0.0167271
660.685	0.0164848
660.763	0.0166002
660.841	0.0166520
660.919	0.0167750
660.997	0.0166446
661.075	0.0165218
661.154	0.0166224
661.232	0.0165969
661.310	0.0165786
661.388	0.0166252
661.466	0.0166103
661.544	0.0165305
661.622	0.0165613
661.700	0.0165924
661.779	0.0166116
661.857	0.0167159
661.935	0.0166353
662.013	0.0166949
662.091	0.0166249
662.169	0.0166575
662.247	0.0167051
662.325	0.0167142
662.404	0.0165978
662.482	0.0165870
662.560	0.0166385
662.638	0.0165932
662.716	0.0166201
662.794	0.0166000
662.872	0.0166723
662.950	0.0165363
663.029	0.0166795
663.107	0.0166798
663.185	0.0167268
663.263	0.0165068
663.341	0.0165430
663.419	0.0164611
663.497	0.0165220
663.575	0.0166034
663.654	0.0165330
663.732	0.0165533
663.810	0.0165562
663.888	0.0166039
663.966	0.0166455
664.044	0.0166479
664.122	0.0166192
664.200	0.0165614
664.279	0.0166521
664.357	0.0165371
664.435	0.0165197
664.513	0.0166737
664.591	0.0164749
664.669	0.0164891
664.747	0.0165549
664.825	0.0166405
664.904	0.0166177
664.982	0.0167278
665.060	0.0165511
665.138	0.0166125
665.216	0.0165608
665.294	0.0166693
665.372	0.0166499
665.450	0.0166780
665.529	0.0166316
665.607	0.0165870
665.685	0.0164771
665.763	0.0167191
665.841	0.0165845
665.919	0.0166102
665.997	0.0166145
666.075	0.0165979
666.154	0.0165762
666.232	0.0164977
666.310	0.0165637
666.388	0.0165663
666.466	0.0164555
666.544	0.0164859
666.622	0.0167873
666.700	0.0166949
666.779	0.0164052
666.857	0.0165872
666.935	0.0166719
667.013	0.0166248
667.091	0.0166080
667.169	0.0164428
667.247	0.0165470
667.325	0.0165527
667.404	0.0164800
667.482	0.0165429
667.560	0.0164427
667.638	0.0166468
667.716	0.0166570
667.794	0.0165907
667.872	0.0166135
667.950	0.0165219
668.029	0.0166536
668.107	0.0166721
668.185	0.0166562
668.263	0.0164919
668.341	0.0165946
668.419	0.0167399
668.497	0.0166575
668.575	0.0165812
668.654	0.0165630
668.732	0.0166450
668.810	0.0165439
668.888	0.0166783
668.966	0.0166487
669.044	0.0165964
669.122	0.0165196
669.200	0.0165840
669.279	0.0165445
669.357	0.0165741
669.435	0.0165252
669.513	0.0165623
669.591	0.0165743
669.669	0.0165083
669.747	0.0164965
669.825	0.0165599
669.904	0.0167102
669.982	0.0165584
670.060	0.0165442
670.138	0.0166763
670.216	0.0164964
670.294	0.0164999
670.372	0.0166225
670.450	0.0166158
670.529	0.0166996
670.607	0.0164907
670.685	0.0165346
670.763	0.0166084
670.841	0.0166433
670.919	0.0165936
670.997	0.0167162
671.075	0.0167383
671.154	0.0166196
671.232	0.0165546
671.310	0.0165862
671.388	0.0166325
671.466	0.0165803
671.544	0.0166449
671.622	0.0166271
671.700	0.0166421
671.779	0.0166330
671.857	0.0165585
671.935	0.0165231
672.013	0.0165514
672.091	0.0165733
672.169	0.0164725
672.247	0.0164289
672.325	0.0166449
672.404	0.0165542
672.482	0.0166295
672.560	0.0165962
672.638	0.0165176
672.716	0.0164907
672.794	0.0165322
672.872	0.0166771
672.950	0.0166147
673.029	0.0165908
673.107	0.0167348
673.185	0.0166142
673.263	0.0166201
673.341	0.0165780
673.419	0.0164840
673.497	0.0165999
673.575	0.0166634
673.654	0.0166486
673.732	0.0164375
673.810	0.0164858
673.888	0.0164783
673.966	0.0164670
674.044	0.0164793
674.122	0.0164542
674.200	0.0164069
674.279	0.0164455
674.357	0.0166843
674.435	0.0166797
674.513	0.0165702
674.591	0.0166950
674.669	0.0166622
674.747	0.0167080
674.825	0.0166790
674.904	0.0168525
674.982	0.0166801
675.060	0.0166045
675.138	0.0165494
675.216	0.0167444
675.294	0.0167164
675.372	0.0167035
675.450	0.0165622
675.529	0.0165685
675.607	0.0165337
675.685	0.0165404
675.763	0.0164946
675.841	0.0164872
675.919	0.0165190
675.997	0.0166628
676.075	0.0166463
676.154	0.0164445
676.232	0.0164608
676.310	0.0165257
676.388	0.0163737
676.466	0.0163598
676.544	0.0164060
676.622	0.0165424
676.700	0.0165209
676.779	0.0163506
676.857	0.0163463
676.935	0.0164288
677.013	0.0165162
677.091	0.0165759
677.169	0.0165704
677.247	0.0164569
677.325	0.0166074
677.404	0.0167809
677.482	0.0165775
677.560	0.0165713
677.638	0.0166315
677.716	0.0166418
677.794	0.0166556
677.872	0.0166734
677.950	0.0168092
678.029	0.0168088
678.107	0.0169048
678.185	0.0167452
678.263	0.0168632
678.341	0.0167334
678.419	0.0167607
678.497	0.0166923
678.575	0.0167900
678.654	0.0167184
678.732	0.0166739
678.810	0.0165530
678.888	0.0165572
678.966	0.0166036
679.044	0.0165522
679.122	0.0165486
679.200	0.0164481
679.279	0.0164130
679.357	0.0163461
679.435	0.0162499
679.513	0.0163536
679.591	0.0163099
679.669	0.0163841
679.747	0.0166319
679.825	0.0165728
679.904	0.0165060
679.982	0.0166507
680.060	0.0165691
680.138	0.0164479
680.216	0.0164859
680.294	0.0162695
680.372	0.0160678
680.450	0.0160809
680.529	0.0160261
680.607	0.0159252
680.685	0.0160791
680.763	0.0160574
680.841	0.0160754
680.919	0.0162918
680.997	0.0164300
681.075	0.0165009
681.154	0.0164085
681.232	0.0166969
681.310	0.0167131
681.388	0.0165588
681.466	0.0166087
681.544	0.0165858
681.622	0.0165479
681.700	0.0165676
681.779	0.0166318
681.857	0.0167410
681.935	0.0170237
682.013	0.0173837
682.091	0.0176601
682.169	0.0181008
682.247	0.0183952
682.325	0.0185614
682.404	0.0187004
682.482	0.0185988
682.560	0.0182845
682.638	0.0181304
682.716	0.0177242
682.794	0.0171405
682.872	0.0169231
682.950	0.0164368
683.029	0.0160216
683.107	0.0159200
683.185	0.0156743
683.263	0.0156370
683.341	0.0155995
683.419	0.0157161
683.497	0.0156824
683.575	0.0156597
683.654	0.0156178
683.732	0.0154901
683.810	0.0153366
683.888	0.0150471
683.966	0.0151331
684.044	0.0150237
684.122	0.0147338
684.200	0.0147809
684.279	0.0148214
684.357	0.0148991
684.435	0.0150495
684.513	0.0151328
684.591	0.0153999
684.669	0.0155697
684.747	0.0160421
684.825	0.0162724
684.904	0.0164510
684.982	0.0167535
685.060	0.0170188
685.138	0.0174719
685.216	0.0175712
685.294	0.0181133
685.372	0.0184867
685.450	0.0187296
685.529	0.0187764
685.607	0.0185966
685.685	0.0184989
685.763	0.0182000
685.841	0.0178288
685.919	0.0173344
685.997	0.0169650
686.075	0.0166732
686.154	0.0164928
686.232	0.0163209
686.310	0.0162653
686.388	0.0165510
686.466	0.0169824
686.544	0.0175965
686.622	0.0180916
686.700	0.0187675
686.779	0.0194759
686.857	0.0198480
686.935	0.0201134
687.013	0.0204932
687.091	0.0204570
687.169	0.0203068
687.247	0.0200177
687.325	0.0197814
687.404	0.0191212
687.482	0.0185917
687.560	0.0179231
687.638	0.0172244
687.716	0.0162018
687.794	0.0152005
687.872	0.0140328
687.950	0.0128362
688.029	0.0116421
688.107	0.0103277
688.185	0.00930801
688.263	0.00820869
688.341	0.00744560
688.419	0.00713837
688.497	0.00686584
688.575	0.00688454
688.654	0.00746048
688.732	0.00824234
688.810	0.00927017
688.888	0.0104318
688.966	0.0116824
689.044	0.0130408
689.122	0.0144934
689.200	0.0159810
689.279	0.0173809
689.357	0.0188371
689.435	0.0203442
689.513	0.0217368
689.591	0.0230736
689.669	0.0244523
689.747	0.0255601
689.825	0.0263911
689.904	0.0269553
689.982	0.0273208
690.060	0.0273997
690.138	0.0272348
690.216	0.0270140
690.294	0.0266726
690.372	0.0259011
690.450	0.0251849
690.529	0.0243901
690.607	0.0234174
690.685	0.0224952
690.763	0.0213783
690.841	0.0203052
690.919	0.0192764
690.997	0.0179816
691.075	0.0168403
691.154	0.0156696
691.232	0.0145634
691.310	0.0132542
691.388	0.0119656
691.466	0.0105661
691.544	0.00913437
691.622	0.00786674
691.700	0.00639229
691.779	0.00518578
691.857	0.00404335
691.935	0.00334877
692.013	0.00256462
692.091	0.00247368
692.169	0.00255966
692.247	0.00309555
692.325	0.00406715
692.404	0.00530243
692.482	0.00694099
692.560	0.00868103
692.638	0.0106559
692.716	0.0126411
692.794	0.0147750
692.872	0.0169595
692.950	0.0191518
693.029	0.0211486
693.107	0.0229767
693.185	0.0248193
693.263	0.0264515
693.341	0.0278044
693.419	0.0287460
693.497	0.0294707
693.575	0.0301822
693.654	0.0303638
693.732	0.0301556
693.810	0.0297186
693.888	0.0291493
693.966	0.0281724
694.044	0.0271452
694.122	0.0259692
694.200	0.0248422
694.279	0.0235284
694.357	0.0221610
694.435	0.0206522
694.513	0.0190714
694.591	0.0175335
694.669	0.0161165
694.747	0.0146056
694.825	0.0131330
694.904	0.0118647
694.982	0.0103459
695.060	0.00913994
695.138	0.00796898
695.216	0.00700058
695.294	0.00604889
695.372	0.00546486
695.450	0.00490959
695.529	0.00477737
695.607	0.00472519
695.685	0.00507416
695.763	0.00558990
695.841	0.00635231
695.919	0.00711540
695.997	0.00821823
696.075	0.00942528
696.154	0.0107495
696.232	0.0120882
696.310	0.0134766
696.388	0.0149245
696.466	0.0163807
696.544	0.0176039
696.622	0.0189353
696.700	0.0202126
696.779	0.0214304
696.857	0.0228471
696.935	0.0238491
697.013	0.0251389
697.091	0.0260593
697.169	0.0266553
697.247	0.0271899
697.325	0.0274693
697.404	0.0274629
697.482	0.0268739
697.560	0.0264269
697.638	0.0257471
697.716	0.0251694
697.794	0.0240397
697.872	0.0231760
697.950	0.0220752
698.029	0.0212226
698.107	0.0202552
698.185	0.0193192
698.263	0.0184866
698.341	0.0176192
698.419	0.0167331
698.497	0.0157140
698.575	0.0145808
698.654	0.0133810
698.732	0.0123211
698.810	0.0110460
698.888	0.0100538
698.966	0.00901146
699.044	0.00808243
699.122	0.00713226
699.200	0.00669304
699.279	0.00632111
699.357	0.00589584
699.435	0.00607155
699.513	0.00635658
699.591	0.00686188
699.669	0.00739586
699.747	0.00815765
699.825	0.00918884
699.904	0.0104081
699.982	0.0118444
700.060	0.0132259
700.138	0.0146119
700.216	0.0159102
700.294	0.0171613
700.372	0.0183112
700.450	0.0195020
700.529	0.0205573
700.607	0.0213575
700.685	0.0222140
700.763	0.0229666
700.841	0.0236378
700.919	0.0242414
700.997	0.0245697
701.075	0.0250331
701.154	0.0250806
701.232	0.0249563
701.310	0.0248949
701.388	0.0248334
701.466	0.0242839
701.544	0.0235658
701.622	0.0230008
701.700	0.0224047
701.779	0.0214953
701.857	0.0207575
701.935	0.0198306
702.013	0.0187524
702.091	0.0179911
702.169	0.0171856
702.247	0.0160947
702.325	0.0152097
702.404	0.0142284
702.482	0.0131726
702.560	0.0123742
702.638	0.0114796
702.716	0.0106558
702.794	0.0101353
702.872	0.00961418
702.950	0.00922379
703.029	0.00902924
703.107	0.00898254
703.185	0.00913940
703.263	0.00951660
703.341	0.00981697
703.419	0.0104678
703.497	0.0112516
703.575	0.0121474
703.654	0.0131715
703.732	0.0141345
703.810	0.0150909
703.888	0.0161038
703.966	0.0171270
704.044	0.0178197
704.122	0.0186771
704.200	0.0191551
704.279	0.0196957
704.357	0.0201604
704.435	0.0204490
704.513	0.0206234
704.591	0.0208319
704.669	0.0208443
704.747	0.0206344
704.825	0.0204559
704.904	0.0202086
704.982	0.0198309
705.060	0.0194316
705.138	0.0191032
705.216	0.0186568
705.294	0.0181243
705.372	0.0179360
705.450	0.0177357
705.529	0.0173184
705.607	0.0172688
705.685	0.0172474
705.763	0.0171453
705.841	0.0171582
705.919	0.0170184
705.997	0.0168669
706.075	0.0166570
706.154	0.0164286
706.232	0.0162978
706.310	0.0159798
706.388	0.0155886
706.466	0.0151764
706.544	0.0146781
706.622	0.0142830
706.700	0.0137831
706.779	0.0134681
706.857	0.0129985
706.935	0.0127927
707.013	0.0125820
707.091	0.0126070
707.169	0.0126613
707.247	0.0129268
707.325	0.0134768
707.404	0.0139967
707.482	0.0144772
707.560	0.0152670
707.638	0.0158327
707.716	0.0166380
707.794	0.0171687
707.872	0.0178130
707.950	0.0184521
708.029	0.0189307
708.107	0.0194144
708.185	0.0198584
708.263	0.0202492
708.341	0.0204031
708.419	0.0204927
708.497	0.0204581
708.575	0.0204259
708.654	0.0202757
708.732	0.0199696
708.810	0.0198680
708.888	0.0194338
708.966	0.0190428
709.044	0.0186842
709.122	0.0185318
709.200	0.0179789
709.279	0.0177892
709.357	0.0175551
709.435	0.0172974
709.513	0.0169154
709.591	0.0164186
709.669	0.0161038
709.747	0.0156506
709.825	0.0154325
709.904	0.0151608
709.982	0.0147440
710.060	0.0142081
710.138	0.0138918
710.216	0.0134644
710.294	0.0129307
710.372	0.0127268
710.450	0.0125321
710.529	0.0122031
710.607	0.0119811
710.685	0.0119324
710.763	0.0120701
710.841	0.0123376
710.919	0.0124251
710.997	0.0129371
711.075	0.0134207
711.154	0.0137186
711.232	0.0143042
711.310	0.0151222
711.388	0.0157865
711.466	0.0165506
711.544	0.0174075
711.622	0.0183495
711.700	0.0191104
711.779	0.0196145
711.857	0.0203677
711.935	0.0209245
712.013	0.0213621
712.091	0.0216374
712.169	0.0217918
712.247	0.0220018
712.325	0.0219286
712.404	0.0216764
712.482	0.0214487
712.560	0.0211084
712.638	0.0207355
712.716	0.0203217
712.794	0.0197236
712.872	0.0192947
712.950	0.0185616
713.029	0.0179961
713.107	0.0174287
713.185	0.0169593
713.263	0.0164325
713.341	0.0159818
713.419	0.0156547
713.497	0.0151441
713.575	0.0147096
713.654	0.0142970
713.732	0.0139246
713.810	0.0136821
713.888	0.0136014
713.966	0.0132403
714.044	0.0128142
714.122	0.0128629
714.200	0.0125714
714.279	0.0124714
714.357	0.0122417
714.435	0.0122392
714.513	0.0123710
714.591	0.0124947
714.669	0.0128860
714.747	0.0130507
714.825	0.0133964
714.904	0.0138929
714.982	0.0145696
715.060	0.0150719
715.138	0.0157249
715.216	0.0163667
715.294	0.0169400
715.372	0.0175356
715.450	0.0180557
715.529	0.0186383
715.607	0.0192079
715.685	0.0197037
715.763	0.0200729
715.841	0.0203441
715.919	0.0205038
715.997	0.0208176
716.075	0.0208305
716.154	0.0208901
716.232	0.0207401
716.310	0.0207265
716.388	0.0203689
716.466	0.0201910
716.544	0.0197838
716.622	0.0194849
716.700	0.0190522
716.779	0.0186049
716.857	0.0182539
716.935	0.0177046
717.013	0.0173295
717.091	0.0168912
717.169	0.0163585
717.247	0.0161270
717.325	0.0157576
717.404	0.0155636
717.482	0.0152719
717.560	0.0150014
717.638	0.0146300
717.716	0.0144092
717.794	0.0143142
717.872	0.0141148
717.950	0.0139547
718.029	0.0137093
718.107	0.0137520
718.185	0.0137035
718.263	0.0136823
718.341	0.0137841
718.419	0.0139124
718.497	0.0141479
718.575	0.0141876
718.654	0.0144128
718.732	0.0147456
718.810	0.0149140
718.888	0.0153430
718.966	0.0155650
719.044	0.0159037
719.122	0.0162020
719.200	0.0165908
719.279	0.0168967
719.357	0.0173701
719.435	0.0176334
719.513	0.0178693
719.591	0.0181744
719.669	0.0181904
719.747	0.0184297
719.825	0.0187431
719.904	0.0186819
719.982	0.0187572
720.060	0.0185992
720.138	0.0186166
720.216	0.0183662
720.294	0.0182829
720.372	0.0182655
720.450	0.0180695
720.529	0.0180286
720.607	0.0174955
720.685	0.0173459
720.763	0.0170898
720.841	0.0169727
720.919	0.0167752
720.997	0.0165328
721.075	0.0163127
721.154	0.0160729
721.232	0.0161241
721.310	0.0158168
721.388	0.0158147
721.466	0.0158496
721.544	0.0155854
721.622	0.0156916
721.700	0.0157750
721.779	0.0156632
721.857	0.0155332
721.935	0.0156728
722.013	0.0155744
722.091	0.0158150
722.169	0.0158070
722.247	0.0158726
722.325	0.0160833
722.404	0.0161611
722.482	0.0163137
722.560	0.0163964
722.638	0.0164385
722.716	0.0165707
722.794	0.0167936
722.872	0.0170191
722.950	0.0170407
723.029	0.0171668
723.107	0.0172316
723.185	0.0173877
723.263	0.0174098
723.341	0.0172803
723.419	0.0172643
723.497	0.0172891
723.575	0.0173072
723.654	0.0170953
723.732	0.0171165
723.810	0.0170866
723.888	0.0170168
723.966	0.0167878
724.044	0.0168430
724.122	0.0169087
724.200	0.0168050
724.279	0.0168228
724.357	0.0166409
724.435	0.0166029
724.513	0.0165892
724.591	0.0163873
724.669	0.0163838
724.747	0.0162022
724.825	0.0162218
724.904	0.0161195
724.982	0.0158353
725.060	0.0158215
725.138	0.0156996
725.216	0.0156975
725.294	0.0154958
725.372	0.0154014
725.450	0.0155485
725.529	0.0155615
725.607	0.0158408
725.685	0.0157427
725.763	0.0158253
725.841	0.0159899
725.919	0.0162832
725.997	0.0163194
726.075	0.0165027
726.154	0.0165571
726.232	0.0166648
726.310	0.0166534
726.388	0.0166852
726.466	0.0166710
726.544	0.0166446
726.622	0.0166515
726.700	0.0164809
726.779	0.0164602
726.857	0.0164594
726.935	0.0165280
727.013	0.0165210
727.091	0.0165292
727.169	0.0164841
727.247	0.0165560
727.325	0.0166833
727.404	0.0164845
727.482	0.0167167
727.560	0.0168027
727.638	0.0168698
727.716	0.0171110
727.794	0.0171318
727.872	0.0171203
727.950	0.0170081
728.029	0.0172511
728.107	0.0172614
728.185	0.0172231
728.263	0.0170856
728.341	0.0172152
728.419	0.0173491
728.497	0.0170239
728.575	0.0171132
728.654	0.0170107
728.732	0.0168392
728.810	0.0167356
728.888	0.0167500
728.966	0.0166248
729.044	0.0164618
729.122	0.0164090
729.200	0.0163207
729.279	0.0162292
729.357	0.0161463
729.435	0.0161160
729.513	0.0162505
729.591	0.0162304
729.669	0.0163471
729.747	0.0163351
729.825	0.0163372
729.904	0.0164445
729.982	0.0165745
730.060	0.0165969
730.138	0.0164187
730.216	0.0164278
730.294	0.0165514
730.372	0.0164737
730.450	0.0164701
730.529	0.0163300
730.607	0.0165983
730.685	0.0164477
730.763	0.0164288
730.841	0.0163316
730.919	0.0163379
730.997	0.0164066
731.075	0.0161607
731.154	0.0161562
731.232	0.0162009
731.310	0.0161266
731.388	0.0162514
731.466	0.0161241
731.544	0.0162054
731.622	0.0162540
731.700	0.0161934
731.779	0.0163711
731.857	0.0165231
731.935	0.0165714
732.013	0.0166189
732.091	0.0167518
732.169	0.0168318
732.247	0.0168561
732.325	0.0169300
732.404	0.0169170
732.482	0.0169130
732.560	0.0170919
732.638	0.0169625
732.716	0.0168303
732.794	0.0168099
732.872	0.0167344
732.950	0.0168146
733.029	0.0166712
733.107	0.0166313
733.185	0.0166276
733.263	0.0165679
733.341	0.0166319
733.419	0.0165726
733.497	0.0165179
733.575	0.0165757
733.654	0.0164062
733.732	0.0165620
733.810	0.0165338
733.888	0.0166369
733.966	0.0166887
734.044	0.0165501
734.122	0.0166944
734.200	0.0166561
734.279	0.0166772
734.357	0.0166499
734.435	0.0168410
734.513	0.0167590
734.591	0.0169071
734.669	0.0168136
734.747	0.0167726
734.825	0.0167876
734.904	0.0169231
734.982	0.0168255
735.060	0.0165784
735.138	0.0167619
735.216	0.0167150
735.294	0.0165388
735.372	0.0164090
735.450	0.0163935
735.529	0.0163084
735.607	0.0161796
735.685	0.0161489
735.763	0.0161300
735.841	0.0160540
735.919	0.0161147
735.997	0.0161286
736.075	0.0160790
736.154	0.0161797
736.232	0.0162260
736.310	0.0161456
736.388	0.0164478
736.466	0.0164770
736.544	0.0165358
736.622	0.0167285
736.700	0.0167332
736.779	0.0167977
736.857	0.0168068
736.935	0.0167464
737.013	0.0167333
737.091	0.0167482
737.169	0.0166426
737.247	0.0166847
737.325	0.0164633
737.404	0.0165462
737.482	0.0165519
737.560	0.0164005
737.638	0.0164430
737.716	0.0165049
737.794	0.0165279
737.872	0.0165064
737.950	0.0164958
738.029	0.0165970
738.107	0.0166632
738.185	0.0166866
738.263	0.0167461
738.341	0.0167595
738.419	0.0167889
738.497	0.0171329
738.575	0.0168572
738.654	0.0169115
738.732	0.0169394
738.810	0.0170100
738.888	0.0167763
738.966	0.0168769
739.044	0.0168671
739.122	0.0168659
739.200	0.0166402
739.279	0.0167504
739.357	0.0166370
739.435	0.0166564
739.513	0.0166363
739.591	0.0166785
739.669	0.0167181
739.747	0.0166299
739.825	0.0165355
739.904	0.0166357
739.982	0.0164649
740.060	0.0165672
740.138	0.0165073
740.216	0.0165866
740.294	0.0166870
740.372	0.0166328
740.450	0.0165811
740.529	0.0167918
740.607	0.0166238
740.685	0.0165434
740.763	0.0165287
740.841	0.0165483
740.919	0.0163677
740.997	0.0164302
741.075	0.0163560
741.154	0.0163422
741.232	0.0162263
741.310	0.0161990
741.388	0.0160387
741.466	0.0160073
741.544	0.0158792
741.622	0.0160579
741.700	0.0160209
741.779	0.0160491
741.857	0.0160742
741.935	0.0162214
742.013	0.0164748
742.091	0.0166254
742.169	0.0166312
742.247	0.0168076
742.325	0.0170063
742.404	0.0170825
742.482	0.0172583
742.560	0.0171241
742.638	0.0172465
742.716	0.0172824
742.794	0.0173241
742.872	0.0172098
742.950	0.0171252
743.029	0.0170383
743.107	0.0169285
743.185	0.0169287
743.263	0.0168843
743.341	0.0167533
743.419	0.0165531
743.497	0.0164706
743.575	0.0165147
743.654	0.0163474
743.732	0.0162279
743.810	0.0161855
743.888	0.0161101
743.966	0.0162698
744.044	0.0162370
744.122	0.0162486
744.200	0.0163304
744.279	0.0162997
744.357	0.0162708
744.435	0.0162034
744.513	0.0161784
744.591	0.0163460
744.669	0.0162962
744.747	0.0162784
744.825	0.0163554
744.904	0.0162257
744.982	0.0162745
745.060	0.0163956
745.138	0.0163254
745.216	0.0163046
745.294	0.0164374
745.372	0.0163751
745.450	0.0165780
745.529	0.0164717
745.607	0.0165930
745.685	0.0165871
745.763	0.0166195
745.841	0.0166727
745.919	0.0168679
745.997	0.0167836
746.075	0.0167439
746.154	0.0167973
746.232	0.0167733
746.310	0.0168930
746.388	0.0167725
746.466	0.0166920
746.544	0.0168787
746.622	0.0169084
746.700	0.0170355
746.779	0.0170231
746.857	0.0168645
746.935	0.0170042
747.013	0.0169930
747.091	0.0170017
747.169	0.0168707
747.247	0.0167717
747.325	0.0168494
747.404	0.0168108
747.482	0.0167371
747.560	0.0167095
747.638	0.0167368
747.716	0.0166031
747.794	0.0165967
747.872	0.0165010
747.950	0.0163886
748.029	0.0163615
748.107	0.0162703
748.185	0.0161253
748.263	0.0160395
748.341	0.0160632
748.419	0.0160620
748.497	0.0158112
748.575	0.0158503
748.654	0.0157426
748.732	0.0156744
748.810	0.0159442
748.888	0.0157960
748.966	0.0159257
749.044	0.0160146
749.122	0.0160754
749.200	0.0161856
749.279	0.0162594
749.357	0.0164437
749.435	0.0166242
749.513	0.0165858
749.591	0.0167335
749.669	0.0168016
749.747	0.0168993
749.825	0.0169218
749.904	0.0169163
749.982	0.0168805
750.060	0.0169175
750.138	0.0169533
750.216	0.0169978
750.294	0.0168956
750.372	0.0169823
750.450	0.0168860
750.529	0.0170163
750.607	0.0169065
750.685	0.0168753
750.763	0.0169591
750.841	0.0168844
750.919	0.0169653
750.997	0.0169518
751.075	0.0169285
751.154	0.0168754
751.232	0.0169613
751.310	0.0168634
751.388	0.0168308
751.466	0.0166824
751.544	0.0165851
751.622	0.0164890
751.700	0.0165150
751.779	0.0163984
751.857	0.0163620
751.935	0.0162283
752.013	0.0162886
752.091	0.0162708
752.169	0.0161365
752.247	0.0160342
752.325	0.0161195
752.404	0.0159860
752.482	0.0161090
752.560	0.0161809
752.638	0.0161588
752.716	0.0163213
752.794	0.0163316
752.872	0.0163555
752.950	0.0167382
753.029	0.0167177
753.107	0.0168647
753.185	0.0168755
753.263	0.0168269
753.341	0.0170200
753.419	0.0170390
753.497	0.0171339
753.575	0.0169901
753.654	0.0169106
753.732	0.0169482
753.810	0.0169462
753.888	0.0166192
753.966	0.0166167
754.044	0.0166733
754.122	0.0166271
754.200	0.0166544
754.279	0.0165670
754.357	0.0165721
754.435	0.0165369
754.513	0.0165685
754.591	0.0165633
754.669	0.0165359
754.747	0.0166762
754.825	0.0165828
754.904	0.0165771
754.982	0.0168147
755.060	0.0166894
755.138	0.0165140
755.216	0.0164954
755.294	0.0167014
755.372	0.0164725
755.450	0.0164471
755.529	0.0164657
755.607	0.0163701
755.685	0.0164825
755.763	0.0163156
755.841	0.0163615
755.919	0.0163516
755.997	0.0163141
756.075	0.0163514
756.154	0.0163001
756.232	0.0163694
756.310	0.0161666
756.388	0.0162975
756.466	0.0162920
756.544	0.0162816
756.622	0.0164663
756.700	0.0164024
756.779	0.0163961
756.857	0.0165186
756.935	0.0166366
757.013	0.0165776
757.091	0.0166130
757.169	0.0169257
757.247	0.0168060
757.325	0.0167870
757.404	0.0167533
757.482	0.0167985
757.560	0.0166666
757.638	0.0167513
757.716	0.0168781
757.794	0.0168656
757.872	0.0167238
757.950	0.0167464
758.029	0.0167855
758.107	0.0167536
758.185	0.0166526
758.263	0.0164351
758.341	0.0165295
758.419	0.0166152
758.497	0.0165602
758.575	0.0164379
758.654	0.0164441
758.732	0.0165551
758.810	0.0166553
758.888	0.0166470
758.966	0.0164928
759.044	0.0166507
759.122	0.0166309
759.200	0.0164783
759.279	0.0165535
759.357	0.0166255
759.435	0.0164931
759.513	0.0163901
759.591	0.0165816
759.669	0.0162928
759.747	0.0163857
759.825	0.0163020
759.904	0.0162840
759.982	0.0164044
760.060	0.0162591
760.138	0.0162819
760.216	0.0163799
760.294	0.0162190
760.372	0.0164651
760.450	0.0164381
760.529	0.0163823
760.607	0.0164298
760.685	0.0164973
760.763	0.0164534
760.841	0.0164829
760.919	0.0163986
760.997	0.0164558
761.075	0.0163554
761.154	0.0164451
761.232	0.0164348
761.310	0.0166093
761.388	0.0165860
761.466	0.0166697
761.544	0.0167507
761.622	0.0167348
761.700	0.0168948
761.779	0.0168885
761.857	0.0170741
761.935	0.0170095
762.013	0.0169991
762.091	0.0171166
762.169	0.0169707
762.247	0.0170782
762.325	0.0168550
762.404	0.0167112
762.482	0.0168581
762.560	0.0167606
762.638	0.0166739
762.716	0.0166253
762.794	0.0164588
762.872	0.0163901
762.950	0.0161966
763.029	0.0162122
763.107	0.0160895
763.185	0.0161356
763.263	0.0160938
763.341	0.0160571
763.419	0.0159582
763.497	0.0159995
763.575	0.0161353
763.654	0.0159453
763.732	0.0162052
763.810	0.0163618
763.888	0.0163502
763.966	0.0163965
764.044	0.0163811
764.122	0.0164781
764.200	0.0165097
764.279	0.0164984
764.357	0.0165524
764.435	0.0165039
764.513	0.0165270
764.591	0.0164895
764.669	0.0165493
764.747	0.0164574
764.825	0.0163554
764.904	0.0165097
764.982	0.0164742
765.060	0.0164188
765.138	0.0165558
765.216	0.0165343
765.294	0.0167007
765.372	0.0168372
765.450	0.0167361
765.529	0.0168599
765.607	0.0169734
765.685	0.0169727
765.763	0.0171231
765.841	0.0171738
765.919	0.0170629
765.997	0.0169843
766.075	0.0170380
766.154	0.0170241
766.232	0.0170086
766.310	0.0169351
766.388	0.0169084
766.466	0.0166026
766.544	0.0166535
766.622	0.0166097
766.700	0.0164468
766.779	0.0163369
766.857	0.0163563
766.935	0.0161105
767.013	0.0161832
767.091	0.0162461
767.169	0.0161712
767.247	0.0161897
767.325	0.0160730
767.404	0.0160117
767.482	0.0161757
767.560	0.0161614
767.638	0.0162090
767.716	0.0162003
767.794	0.0160912
767.872	0.0162991
767.950	0.0163487
768.029	0.0162473
768.107	0.0162993
768.185	0.0164210
768.263	0.0163260
768.341	0.0166247
768.419	0.0163877
768.497	0.0164334
768.575	0.0165170
768.654	0.0166692
768.732	0.0165176
768.810	0.0165520
768.888	0.0165680
768.966	0.0165903
769.044	0.0165330
769.122	0.0167455
769.200	0.0166127
769.279	0.0166262
769.357	0.0167622
769.435	0.0166324
769.513	0.0165746
769.591	0.0166813
769.669	0.0167876
769.747	0.0168017
769.825	0.0168766
769.904	0.0168553
769.982	0.0169118
770.060	0.0170007
770.138	0.0169863
770.216	0.0171191
770.294	0.0172314
770.372	0.0170161
770.450	0.0170647
770.529	0.0169279
770.607	0.0169822
770.685	0.0168630
770.763	0.0170305
770.841	0.0169691
770.919	0.0168182
770.997	0.0168011
771.075	0.0166292
771.154	0.0166804
771.232	0.0166035
771.310	0.0163651
771.388	0.0163074
771.466	0.0163888
771.544	0.0163326
771.622	0.0161137
771.700	0.0162315
771.779	0.0161350
771.857	0.0161464
771.935	0.0160474
772.013	0.0161201
772.091	0.0160752
772.169	0.0161736
772.247	0.0162170
772.325	0.0160994
772.404	0.0160848
772.482	0.0161850
772.560	0.0161131
772.638	0.0163237
772.716	0.0163958
772.794	0.0163662
772.872	0.0164028
772.950	0.0165618
773.029	0.0163750
773.107	0.0164571
773.185	0.0166521
773.263	0.0166682
773.341	0.0167917
773.419	0.0168526
773.497	0.0168622
773.575	0.0169480
773.654	0.0167626
773.732	0.0169199
773.810	0.0169173
773.888	0.0169341
773.966	0.0168563
774.044	0.0169344
774.122	0.0171152
774.200	0.0169308
774.279	0.0168468
774.357	0.0168900
774.435	0.0172277
774.513	0.0170976
774.591	0.0168796
774.669	0.0168989
774.747	0.0169011
774.825	0.0169239
774.904	0.0167619
774.982	0.0165750
775.060	0.0164552
775.138	0.0163315
775.216	0.0164555
775.294	0.0163219
775.372	0.0162193
775.450	0.0162453
775.529	0.0161582
775.607	0.0162543
775.685	0.0160872
775.763	0.0160434
775.841	0.0160386
775.919	0.0160615
775.997	0.0160874
776.075	0.0161690
776.154	0.0161264
776.232	0.0161603
776.310	0.0162357
776.388	0.0163324
776.466	0.0164519
776.544	0.0164771
776.622	0.0164101
776.700	0.0166439
776.779	0.0165598
776.857	0.0166407
776.935	0.0168095
777.013	0.0167889
777.091	0.0168008
777.169	0.0168291
777.247	0.0168156
777.325	0.0167697
777.404	0.0168465
777.482	0.0168361
777.560	0.0166750
777.638	0.0168647
777.716	0.0168707
777.794	0.0170207
777.872	0.0168223
777.950	0.0167979
778.029	0.0168771
778.107	0.0168620
778.185	0.0168884
778.263	0.0168323
778.341	0.0167764
778.419	0.0169200
778.497	0.0169101
778.575	0.0169154
778.654	0.0167118
778.732	0.0167609
778.810	0.0167257
778.888	0.0168848
778.966	0.0167816
779.044	0.0166417
779.122	0.0166734
779.200	0.0166038
779.279	0.0165320
779.357	0.0165912
779.435	0.0163510
779.513	0.0162521
779.591	0.0162807
779.669	0.0162150
779.747	0.0161225
779.825	0.0161366
779.904	0.0159273
779.982	0.0159928
780.060	0.0161403
780.138	0.0159055
780.216	0.0161900
780.294	0.0161331
780.372	0.0161124
780.450	0.0161076
780.529	0.0160832
780.607	0.0162159
780.685	0.0162389
780.763	0.0163461
780.841	0.0163722
780.919	0.0164690
780.997	0.0163566
781.075	0.0164602
781.154	0.0164603
781.232	0.0164114
781.310	0.0165087
781.388	0.0165856
781.466	0.0165874
781.544	0.0165357
781.622	0.0166047
781.700	0.0166544
781.779	0.0166709
781.857	0.0165598
781.935	0.0166154
782.013	0.0166570
782.091	0.0166563
782.169	0.0167644
782.247	0.0168413
782.325	0.0168198
782.404	0.0170171
782.482	0.0169706
782.560	0.0169524
782.638	0.0169393
782.716	0.0171184
782.794	0.0170345
782.872	0.0171018
782.950	0.0172990
783.029	0.0170754
783.107	0.0171965
783.185	0.0171490
783.263	0.0169756
783.341	0.0169897
783.419	0.0171236
783.497	0.0169238
783.575	0.0167979
783.654	0.0168426
783.732	0.0167242
783.810	0.0166860
783.888	0.0165565
783.966	0.0164771
784.044	0.0163859
784.122	0.0162341
784.200	0.0162341
784.279	0.0161343
784.357	0.0161370
784.435	0.0160419
784.513	0.0158201
784.591	0.0159107
784.669	0.0160126
784.747	0.0157585
784.825	0.0159458
784.904	0.0157496
784.982	0.0159161
785.060	0.0160529
785.138	0.0161219
785.216	0.0162252
785.294	0.0161535
785.372	0.0162408
785.450	0.0162260
785.529	0.0163741
785.607	0.0164169
785.685	0.0164989
785.763	0.0165857
785.841	0.0165373
785.919	0.0166547
785.997	0.0167039
786.075	0.0166796
786.154	0.0167863
786.232	0.0168551
786.310	0.0170709
786.388	0.0172425
786.466	0.0171550
786.544	0.0172645
786.622	0.0174255
786.700	0.0174789
786.779	0.0175308
786.857	0.0174240
786.935	0.0175242
787.013	0.0174717
787.091	0.0174284
787.169	0.0173081
787.247	0.0172413
787.325	0.0170970
787.404	0.0171081
787.482	0.0169305
787.560	0.0167951
787.638	0.0165933
787.716	0.0165592
787.794	0.0164133
787.872	0.0161984
787.950	0.0160728
788.029	0.0159452
788.107	0.0157921
788.185	0.0156615
788.263	0.0156256
788.341	0.0154507
788.419	0.0153305
788.497	0.0154247
788.575	0.0152818
788.654	0.0150751
788.732	0.0153089
788.810	0.0154437
788.888	0.0152896
788.966	0.0154581
789.044	0.0154168
789.122	0.0154939
789.200	0.0158574
789.279	0.0158685
789.357	0.0161221
789.435	0.0162842
789.513	0.0163928
789.591	0.0164980
789.669	0.0167159
789.747	0.0170049
789.825	0.0169250
789.904	0.0170953
789.982	0.0172150
790.060	0.0174007
790.138	0.0175358
790.216	0.0175332
790.294	0.0177418
790.372	0.0177924
790.450	0.0177914
790.529	0.0179265
790.607	0.0178317
790.685	0.0177372
790.763	0.0176869
790.841	0.0175696
790.919	0.0175502
790.997	0.0173443
791.075	0.0172666
791.154	0.0171094
791.232	0.0170066
791.310	0.0170596
791.388	0.0168114
791.466	0.0165914
791.544	0.0165796
791.622	0.0163551
791.700	0.0163177
791.779	0.0161938
791.857	0.0161575
791.935	0.0160243
792.013	0.0156802
792.091	0.0156607
792.169	0.0155770
792.247	0.0155617
792.325	0.0155096
792.404	0.0154316
792.482	0.0152901
792.560	0.0154636
792.638	0.0154247
792.716	0.0154088
792.794	0.0156081
792.872	0.0155704
792.950	0.0156825
793.029	0.0157809
793.107	0.0161292
793.185	0.0160898
793.263	0.0162221
793.341	0.0164552
793.419	0.0164832
793.497	0.0166991
793.575	0.0168391
793.654	0.0170866
793.732	0.0173143
793.810	0.0174541
793.888	0.0174250
793.966	0.0176871
794.044	0.0178265
794.122	0.0176564
794.200	0.0176463
794.279	0.0178383
794.357	0.0177071
794.435	0.0177004
794.513	0.0177492
794.591	0.0175224
794.669	0.0176022
794.747	0.0174579
794.825	0.0173920
794.904	0.0171448
794.982	0.0169569
795.060	0.0169756
795.138	0.0168108
795.216	0.0165946
795.294	0.0164555
795.372	0.0164806
795.450	0.0161832
795.529	0.0161280
795.607	0.0160258
795.685	0.0159365
795.763	0.0158111
795.841	0.0158360
795.919	0.0157826
795.997	0.0157906
796.075	0.0157220
796.154	0.0156664
796.232	0.0157649
796.310	0.0157619
796.388	0.0155879
796.466	0.0158403
796.544	0.0159732
796.622	0.0159772
796.700	0.0159741
796.779	0.0161121
796.857	0.0161995
796.935	0.0162247
797.013	0.0163534
797.091	0.0164364
797.169	0.0165536
797.247	0.0166149
797.325	0.0167445
797.404	0.0167418
797.482	0.0169335
797.560	0.0169164
797.638	0.0170242
797.716	0.0172656
797.794	0.0173067
797.872	0.0172825
797.950	0.0172961
798.029	0.0172942
798.107	0.0171178
798.185	0.0172058
798.263	0.0171087
798.341	0.0170126
798.419	0.0170800
798.497	0.0169918
798.575	0.0168363
798.654	0.0168531
798.732	0.0168402
798.810	0.0170113
798.888	0.0168238
798.966	0.0167767
799.044	0.0167774
799.122	0.0166778
799.200	0.0166552
799.279	0.0165636
799.357	0.0166212
799.435	0.0166667
799.513	0.0163853
799.591	0.0164912
799.669	0.0166602
799.747	0.0165240
799.825	0.0165516
799.904	0.0166021
799.982	0.0165115
800.060	0.0165018
800.138	0.0165246
800.216	0.0164013
800.294	0.0164706
800.372	0.0163895
800.450	0.0163374
800.529	0.0164801
800.607	0.0164061
800.685	0.0163138
800.763	0.0163161
800.841	0.0164079
800.919	0.0162329
800.997	0.0163480
801.075	0.0162757
801.154	0.0162936
801.232	0.0163631
801.310	0.0164117
801.388	0.0164676
801.466	0.0165130
801.544	0.0165158
801.622	0.0165157
801.700	0.0165269
801.779	0.0166962
801.857	0.0165536
801.935	0.0165665
802.013	0.0166148
802.091	0.0167318
802.169	0.0167686
802.247	0.0166525
802.325	0.0167381
802.404	0.0167882
802.482	0.0167533
802.560	0.0168102
802.638	0.0168596
802.716	0.0168827
802.794	0.0167479
802.872	0.0166784
802.950	0.0166309
803.029	0.0167696
803.107	0.0166679
803.185	0.0166024
803.263	0.0166090
803.341	0.0167290
803.419	0.0167480
803.497	0.0167139
803.575	0.0165193
803.654	0.0167108
803.732	0.0166511
803.810	0.0167329
803.888	0.0166984
803.966	0.0166893
804.044	0.0166478
804.122	0.0167270
804.200	0.0166512
804.279	0.0165895
804.357	0.0165574
804.435	0.0164469
804.513	0.0165436
804.591	0.0166511
804.669	0.0165403
804.747	0.0165117
804.825	0.0164571
804.904	0.0164258
804.982	0.0164685
805.060	0.0164849
805.138	0.0164191
805.216	0.0164934
805.294	0.0164780
805.372	0.0164491
805.450	0.0166323
805.529	0.0164799
805.607	0.0166711
805.685	0.0164234
805.763	0.0165453
805.841	0.0164785
805.919	0.0165527
805.997	0.0165703
806.075	0.0164618
806.154	0.0165750
806.232	0.0165044
806.310	0.0164116
806.388	0.0164847
806.466	0.0165804
806.544	0.0165888
806.622	0.0164803
806.700	0.0164972
806.779	0.0164572
806.857	0.0163741
806.935	0.0164737
807.013	0.0165078
807.091	0.0165735
807.169	0.0165134
807.247	0.0164980
807.325	0.0165787
807.404	0.0165218
807.482	0.0166154
807.560	0.0167313
807.638	0.0165467
807.716	0.0164926
807.794	0.0167256
807.872	0.0167112
807.950	0.0168525
808.029	0.0169187
808.107	0.0168650
808.185	0.0167462
808.263	0.0167552
808.341	0.0168491
808.419	0.0169400
808.497	0.0169540
808.575	0.0169650
808.654	0.0168436
808.732	0.0166721
808.810	0.0167048
808.888	0.0166798
808.966	0.0168307
809.044	0.0166923
809.122	0.0166772
809.200	0.0166967
809.279	0.0165558
809.357	0.0167149
809.435	0.0165369
809.513	0.0163969
809.591	0.0164503
809.669	0.0163292
809.747	0.0164395
809.825	0.0165057
809.904	0.0162833
809.982	0.0163009
810.060	0.0164373
810.138	0.0163683
810.216	0.0164791
810.294	0.0162617
810.372	0.0162621
810.450	0.0162319
810.529	0.0162153
810.607	0.0162779
810.685	0.0163799
810.763	0.0164283
810.841	0.0164326
810.919	0.0164422
810.997	0.0163436
811.075	0.0164119
811.154	0.0164754
811.232	0.0165608
811.310	0.0166228
811.388	0.0165112
811.466	0.0164277
811.544	0.0167157
811.622	0.0167122
811.700	0.0167589
811.779	0.0167369
811.857	0.0166914
811.935	0.0168495
812.013	0.0168752
812.091	0.0168022
812.169	0.0169853
812.247	0.0169926
812.325	0.0167400
812.404	0.0168854
812.482	0.0168867
812.560	0.0168423
812.638	0.0168772
812.716	0.0168913
812.794	0.0167415
812.872	0.0166427
812.950	0.0166457
813.029	0.0166901
813.107	0.0167074
813.185	0.0167514
813.263	0.0166032
813.341	0.0165746
813.419	0.0165933
813.497	0.0166100
813.575	0.0166302
813.654	0.0165874
813.732	0.0165184
813.810	0.0164692
813.888	0.0162452
813.966	0.0164556
814.044	0.0166158
814.122	0.0165359
814.200	0.0163909
814.279	0.0164591
814.357	0.0163326
814.435	0.0164571
814.513	0.0164070
814.591	0.0163492
814.669	0.0163155
814.747	0.0162699
814.825	0.0164618
814.904	0.0164133
814.982	0.0161548
815.060	0.0163145
815.138	0.0163783
815.216	0.0163715
815.294	0.0163827
815.372	0.0164034
815.450	0.0165223
815.529	0.0165859
815.607	0.0166661
815.685	0.0167967
815.763	0.0168268
815.841	0.0168340
815.919	0.0168643
815.997	0.0168585
816.075	0.0169470
816.154	0.0169808
816.232	0.0170503
816.310	0.0168442
816.388	0.0169473
816.466	0.0169633
816.544	0.0168961
816.622	0.0168192
816.700	0.0169160
816.779	0.0167524
816.857	0.0168014
816.935	0.0169092
817.013	0.0167817
817.091	0.0167123
817.169	0.0167469
817.247	0.0167075
817.325	0.0167384
817.404	0.0166982
817.482	0.0166476
817.560	0.0166128
817.638	0.0165401
817.716	0.0167377
817.794	0.0165295
817.872	0.0164853
817.950	0.0165489
818.029	0.0165276
818.107	0.0163972
818.185	0.0161787
818.263	0.0163394
818.341	0.0162354
818.419	0.0162274
818.497	0.0162745
818.575	0.0164865
818.654	0.0162329
818.732	0.0160372
818.810	0.0162900
818.888	0.0161955
818.966	0.0164182
819.044	0.0164574
819.122	0.0163619
819.200	0.0164832
819.279	0.0163921
819.357	0.0164836
819.435	0.0167229
819.513	0.0167683
819.591	0.0167329
819.669	0.0169183
819.747	0.0169434
819.825	0.0169419
819.904	0.0167943
819.982	0.0168614
820.060	0.0169841
820.138	0.0168726
820.216	0.0169969
820.294	0.0168598
820.372	0.0168888
820.450	0.0167239
820.529	0.0166222
820.607	0.0166208
820.685	0.0165820
820.763	0.0165964
820.841	0.0166515
820.919	0.0164626
820.997	0.0165661
821.075	0.0164733
821.154	0.0164808
821.232	0.0164687
821.310	0.0164967
821.388	0.0164653
821.466	0.0164252
821.544	0.0164923
821.622	0.0163354
821.700	0.0163352
821.779	0.0164046
821.857	0.0164623
821.935	0.0162885
822.013	0.0164260
822.091	0.0163290
822.169	0.0163308
822.247	0.0163893
822.325	0.0162802
822.404	0.0163721
822.482	0.0164315
822.560	0.0163924
822.638	0.0165141
822.716	0.0166716
822.794	0.0166082
822.872	0.0167512
822.950	0.0168929
823.029	0.0169521
823.107	0.0170108
823.185	0.0169938
823.263	0.0170387
823.341	0.0169588
823.419	0.0169700
823.497	0.0169539
823.575	0.0170583
823.654	0.0170954
823.732	0.0169865
823.810	0.0168674
823.888	0.0168015
823.966	0.0167300
824.044	0.0167875
824.122	0.0167435
824.200	0.0166331
824.279	0.0167429
824.357	0.0165890
824.435	0.0165181
824.513	0.0164935
824.591	0.0165967
824.669	0.0164459
824.747	0.0165849
824.825	0.0166844
824.904	0.0166946
824.982	0.0166166
825.060	0.0166228
825.138	0.0164729
825.216	0.0165907
825.294	0.0167229
825.372	0.0166168
825.450	0.0165820
825.529	0.0166864
825.607	0.0167245
825.685	0.0166279
825.763	0.0165570
825.841	0.0166564
825.919	0.0166853
825.997	0.0165320
826.075	0.0164220
826.154	0.0164466
826.232	0.0165659
826.310	0.0167113
826.388	0.0165572
826.466	0.0165549
826.544	0.0165560
826.622	0.0164952
826.700	0.0164729
826.779	0.0164119
826.857	0.0165338
826.935	0.0164132
827.013	0.0164252
827.091	0.0164941
827.169	0.0164253
827.247	0.0163748
827.325	0.0163106
827.404	0.0162575
827.482	0.0164754
827.560	0.0164622
827.638	0.0164105
827.716	0.0163817
827.794	0.0163627
827.872	0.0163354
827.950	0.0164230
828.029	0.0164262
828.107	0.0163884
828.185	0.0166073
828.263	0.0166437
828.341	0.0168011
828.419	0.0166203
828.497	0.0167666
828.575	0.0168646
828.654	0.0168929
828.732	0.0167606
828.810	0.0168633
828.888	0.0168429
828.966	0.0168802
829.044	0.0169196
829.122	0.0169057
829.200	0.0168549
829.279	0.0168896
829.357	0.0167025
829.435	0.0167935
829.513	0.0166998
829.591	0.0166669
829.669	0.0166175
829.747	0.0165724
829.825	0.0165785
829.904	0.0166418
829.982	0.0165836
830.060	0.0165565
830.138	0.0164615
830.216	0.0164206
830.294	0.0164952
830.372	0.0166568
830.450	0.0166541
830.529	0.0164858
830.607	0.0166027
830.685	0.0166373
830.763	0.0164900
830.841	0.0164242
830.919	0.0163616
830.997	0.0166431
831.075	0.0165634
831.154	0.0164411
831.232	0.0164272
831.310	0.0164086
831.388	0.0163763
831.466	0.0164582
831.544	0.0164784
831.622	0.0164733
831.700	0.0164635
831.779	0.0163037
831.857	0.0162707
831.935	0.0166108
832.013	0.0164751
832.091	0.0165501
832.169	0.0165688
832.247	0.0166374
832.325	0.0166550
832.404	0.0166990
832.482	0.0166382
832.560	0.0164853
832.638	0.0165692
832.716	0.0167479
832.794	0.0166386
832.872	0.0165850
832.950	0.0165610
833.029	0.0166960
833.107	0.0167899
833.185	0.0167400
833.263	0.0166337
833.341	0.0166990
833.419	0.0166836
833.497	0.0168526
833.575	0.0167146
833.654	0.0166449
833.732	0.0167174
833.810	0.0166772
833.888	0.0166399
833.966	0.0166602
834.044	0.0165863
834.122	0.0165018
834.200	0.0167332
834.279	0.0166834
834.357	0.0165421
834.435	0.0166251
834.513	0.0166175
834.591	0.0165418
834.669	0.0165092
834.747	0.0164559
834.825	0.0165175
834.904	0.0165319
834.982	0.0164212
835.060	0.0163244
835.138	0.0164087
835.216	0.0164648
835.294	0.0164320
835.372	0.0163689
835.450	0.0164653
835.529	0.0163898
835.607	0.0164568
835.685	0.0164913
835.763	0.0165571
835.841	0.0165159
835.919	0.0165973
835.997	0.0166021
836.075	0.0165663
836.154	0.0165646
836.232	0.0165853
836.310	0.0166467
836.388	0.0165401
836.466	0.0166337
836.544	0.0165277
836.622	0.0164948
836.700	0.0165708
836.779	0.0165377
836.857	0.0164899
836.935	0.0165823
837.013	0.0165727
837.091	0.0165742
837.169	0.0164391
837.247	0.0164906
837.325	0.0165648
837.404	0.0165232
837.482	0.0165695
837.560	0.0165929
837.638	0.0165439
837.716	0.0165692
837.794	0.0166042
837.872	0.0166305
837.950	0.0166940
838.029	0.0165788
838.107	0.0165537
838.185	0.0166544
838.263	0.0166811
838.341	0.0165928
838.419	0.0166348
838.497	0.0167568
838.575	0.0166511
838.654	0.0167274
838.732	0.0167389
838.810	0.0166412
838.888	0.0166602
838.966	0.0168200
839.044	0.0166729
839.122	0.0166399
839.200	0.0165307
839.279	0.0165215
839.357	0.0166335
839.435	0.0166068
839.513	0.0165819
839.591	0.0166611
839.669	0.0166591
839.747	0.0165722
839.825	0.0166087
839.904	0.0165500
839.982	0.0165913
840.060	0.0165910
840.138	0.0165730
840.216	0.0166532
840.294	0.0165919
840.372	0.0166222
840.450	0.0167043
840.529	0.0165926
840.607	0.0164532
840.685	0.0164702
840.763	0.0165582
840.841	0.0165670
840.919	0.0164741
840.997	0.0165992
841.075	0.0165269
841.154	0.0165981
841.232	0.0165366
841.310	0.0166071
841.388	0.0164882
841.466	0.0165884
841.544	0.0165945
841.622	0.0164482
841.700	0.0165575
841.779	0.0164676
841.857	0.0165876
841.935	0.0165078
842.013	0.0165351
842.091	0.0165670
842.169	0.0165594
842.247	0.0165398
842.325	0.0165228
842.404	0.0165862
842.482	0.0164391
842.560	0.0165382
842.638	0.0165539
842.716	0.0164288
842.794	0.0164990
842.872	0.0165813
842.950	0.0165231
843.029	0.0164922
843.107	0.0166512
843.185	0.0165985
843.263	0.0166678
843.341	0.0166742
843.419	0.0166227
843.497	0.0167927
843.575	0.0165958
843.654	0.0166397
843.732	0.0167537
843.810	0.0166348
843.888	0.0166012
843.966	0.0165858
844.044	0.0166780
844.122	0.0167386
844.200	0.0166073
844.279	0.0165424
844.357	0.0163848
844.435	0.0166073
844.513	0.0164351
844.591	0.0164482
844.669	0.0166149
844.747	0.0165675
844.825	0.0165705
844.904	0.0164749
844.982	0.0164846
845.060	0.0165284
845.138	0.0165757
845.216	0.0165750
845.294	0.0164890
845.372	0.0166278
845.450	0.0165583
845.529	0.0165220
845.607	0.0167376
845.685	0.0165571
845.763	0.0166205
845.841	0.0165968
845.919	0.0166951
845.997	0.0165340
846.075	0.0164855
846.154	0.0165424
846.232	0.0166041
846.310	0.0165655
846.388	0.0165688
846.466	0.0165854
846.544	0.0164544
846.622	0.0166026
846.700	0.0166409
846.779	0.0164821
846.857	0.0166920
846.935	0.0167359
847.013	0.0169149
847.091	0.0166869
847.169	0.0167823
847.247	0.0168664
847.325	0.0169395
847.404	0.0167701
847.482	0.0167693
847.560	0.0165947
847.638	0.0165497
847.716	0.0165795
847.794	0.0165356
847.872	0.0165482
847.950	0.0165466
848.029	0.0164377
848.107	0.0163911
848.185	0.0163953
848.263	0.0163601
848.341	0.0162715
848.419	0.0163368
848.497	0.0164549
848.575	0.0164357
848.654	0.0164893
848.732	0.0164523
848.810	0.0165634
848.888	0.0164867
848.966	0.0165015
849.044	0.0166673
849.122	0.0167523
849.200	0.0167104
849.279	0.0164645
849.357	0.0165886
849.435	0.0166071
849.513	0.0165310
849.591	0.0165704
849.669	0.0163957
849.747	0.0165314
849.825	0.0166237
849.904	0.0165597
849.982	0.0165232
850.060	0.0165937
850.138	0.0164751
850.216	0.0165826
850.294	0.0165116
850.372	0.0164357
850.450	0.0165513
850.529	0.0165425
850.607	0.0165024
850.685	0.0165739
850.763	0.0166242
850.841	0.0163455
850.919	0.0165742
850.997	0.0166457
851.075	0.0164539
851.154	0.0166102
851.232	0.0164952
851.310	0.0164362
851.388	0.0164767
851.466	0.0164502
851.544	0.0163795
851.622	0.0164324
851.700	0.0161840
851.779	0.0163039
851.857	0.0164042
851.935	0.0163953
852.013	0.0162063
852.091	0.0165377
852.169	0.0164803
852.247	0.0164648
852.325	0.0164091
852.404	0.0166216
852.482	0.0165719
852.560	0.0165817
852.638	0.0166392
852.716	0.0165741
852.794	0.0167480
852.872	0.0165821
852.950	0.0167636
853.029	0.0166300
853.107	0.0165978
853.185	0.0165651
853.263	0.0167773
853.341	0.0165862
853.419	0.0166020
853.497	0.0166053
853.575	0.0164720
853.654	0.0164349
853.732	0.0165165
853.810	0.0164885
853.888	0.0162465
853.966	0.0163796
854.044	0.0163242
854.122	0.0164217
854.200	0.0163272
854.279	0.0163612
854.357	0.0164471
854.435	0.0164548
854.513	0.0164439
854.591	0.0164638
854.669	0.0165608
854.747	0.0164809
854.825	0.0164630
854.904	0.0166054
854.982	0.0165751
855.060	0.0165581
855.138	0.0163950
855.216	0.0165788
855.294	0.0166741
855.372	0.0165499
855.450	0.0165434
855.529	0.0166335
855.607	0.0165762
855.685	0.0165372
855.763	0.0165562
855.841	0.0166864
855.919	0.0167290
855.997	0.0166371
856.075	0.0167558
856.154	0.0167062
856.232	0.0166753
856.310	0.0165126
856.388	0.0166401
856.466	0.0167451
856.544	0.0166557
856.622	0.0167085
856.700	0.0167652
856.779	0.0166923
856.857	0.0165896
856.935	0.0165461
857.013	0.0166178
857.091	0.0166480
857.169	0.0164867
857.247	0.0164862
857.325	0.0164143
857.404	0.0163553
857.482	0.0165884
857.560	0.0165393
857.638	0.0163072
857.716	0.0165614
857.794	0.0165635
857.872	0.0164353
857.950	0.0164639
858.029	0.0164734
858.107	0.0165210
858.185	0.0165335
858.263	0.0166079
858.341	0.0163910
858.419	0.0164152
858.497	0.0164586
858.575	0.0164532
858.654	0.0163740
858.732	0.0164194
858.810	0.0165186
858.888	0.0163629
858.966	0.0163701
859.044	0.0163158
859.122	0.0163941
859.200	0.0163731
859.279	0.0163719
859.357	0.0164798
859.435	0.0164325
859.513	0.0164162
859.591	0.0167709
859.669	0.0165400
859.747	0.0165621
859.825	0.0166389
859.904	0.0166280
859.982	0.0165219
860.060	0.0166266
860.138	0.0167198
860.216	0.0166656
860.294	0.0165567
860.372	0.0165688
860.450	0.0166252
860.529	0.0165839
860.607	0.0166863
860.685	0.0167052
860.763	0.0167027
860.841	0.0167206
860.919	0.0166747
860.997	0.0166876
861.075	0.0166236
861.154	0.0166684
861.232	0.0165691
861.310	0.0168476
861.388	0.0166769
861.466	0.0166241
861.544	0.0166264
861.622	0.0166744
861.700	0.0166451
861.779	0.0166258
861.857	0.0166160
861.935	0.0165878
862.013	0.0165446
862.091	0.0166576
862.169	0.0165772
862.247	0.0164630
862.325	0.0165519
862.404	0.0163828
862.482	0.0163532
862.560	0.0164075
862.638	0.0164706
862.716	0.0163135
862.794	0.0162801
862.872	0.0163113
862.950	0.0164346
863.029	0.0163041
863.107	0.0163004
863.185	0.0162528
863.263	0.0163650
863.341	0.0164275
863.419	0.0163385
863.497	0.0163530
863.575	0.0164413
863.654	0.0165259
863.732	0.0164185
863.810	0.0165559
863.888	0.0165811
863.966	0.0165146
864.044	0.0165546
864.122	0.0166479
864.200	0.0164944
864.279	0.0166499
864.357	0.0166064
864.435	0.0166192
864.513	0.0166398
864.591	0.0166277
864.669	0.0164211
864.747	0.0166240
864.825	0.0165851
864.904	0.0165695
864.982	0.0167278
865.060	0.0165994
865.138	0.0167022
865.216	0.0167117
865.294	0.0165675
865.372	0.0164819
865.450	0.0165876
865.529	0.0165913
865.607	0.0165631
865.685	0.0165854
865.763	0.0164244
865.841	0.0165678
865.919	0.0165425
865.997	0.0165454
866.075	0.0166073
866.154	0.0165618
866.232	0.0166432
866.310	0.0165063
866.388	0.0166463
866.466	0.0166318
866.544	0.0165429
866.622	0.0164692
866.700	0.0165437
866.779	0.0164330
866.857	0.0163914
866.935	0.0165097
867.013	0.0164938
867.091	0.0164966
867.169	0.0164539
867.247	0.0164375
867.325	0.0163078
867.404	0.0164281
867.482	0.0164708
867.560	0.0163751
867.638	0.0164810
867.716	0.0163393
867.794	0.0163626
867.872	0.0164512
867.950	0.0164402
868.029	0.0163667
868.107	0.0165802
868.185	0.0164700
868.263	0.0164828
868.341	0.0164642
868.419	0.0165201
868.497	0.0165009
868.575	0.0166660
868.654	0.0164767
868.732	0.0165097
868.810	0.0165532
868.888	0.0166457
868.966	0.0166494
869.044	0.0166757
869.122	0.0166454
869.200	0.0167089
869.279	0.0167557
869.357	0.0168605
869.435	0.0166814
869.513	0.0165593
869.591	0.0166434
869.669	0.0167223
869.747	0.0166425
869.825	0.0165455
869.904	0.0166448
869.982	0.0168043
870.060	0.0167416
870.138	0.0165593
870.216	0.0166197
870.294	0.0166471
870.372	0.0166919
870.450	0.0166048
870.529	0.0165411
870.607	0.0166743
870.685	0.0166154
870.763	0.0165663
870.841	0.0165124
870.919	0.0165002
870.997	0.0164838
871.075	0.0165005
871.154	0.0165930
871.232	0.0165838
871.310	0.0164908
871.388	0.0164639
871.466	0.0165221
871.544	0.0165908
871.622	0.0165486
871.700	0.0166821
871.779	0.0165538
871.857	0.0165179
871.935	0.0163725
872.013	0.0164330
872.091	0.0164236
872.169	0.0164278
872.247	0.0163538
872.325	0.0163564
872.404	0.0163076
872.482	0.0164376
872.560	0.0164640
872.638	0.0164266
872.716	0.0165351
872.794	0.0165704
872.872	0.0164370
872.950	0.0166274
873.029	0.0165576
873.107	0.0164980
873.185	0.0165919
873.263	0.0166841
873.341	0.0165237
873.419	0.0165133
873.497	0.0166125
873.575	0.0165695
873.654	0.0166473
873.732	0.0165224
873.810	0.0166215
873.888	0.0167416
873.966	0.0167445
874.044	0.0168047
874.122	0.0169070
874.200	0.0168739
874.279	0.0169246
874.357	0.0169032
874.435	0.0167518
874.513	0.0167830
874.591	0.0167187
874.669	0.0166289
874.747	0.0165715
874.825	0.0164846
874.904	0.0164947
874.982	0.0164750
875.060	0.0164494
875.138	0.0163253
875.216	0.0164280
875.294	0.0163772
875.372	0.0165065
875.450	0.0164957
875.529	0.0162994
875.607	0.0163145
875.685	0.0162811
875.763	0.0162906
875.841	0.0163633
875.919	0.0163786
875.997	0.0163158
876.075	0.0163609
876.154	0.0163309
876.232	0.0163593
876.310	0.0164175
876.388	0.0163718
876.466	0.0164637
876.544	0.0164670
876.622	0.0164804
876.700	0.0164680
876.779	0.0164098
876.857	0.0164042
876.935	0.0163944
877.013	0.0164720
877.091	0.0163281
877.169	0.0163825
877.247	0.0164710
877.325	0.0166315
877.404	0.0165013
877.482	0.0165269
877.560	0.0166451
877.638	0.0166476
877.716	0.0167865
877.794	0.0167037
877.872	0.0167072
877.950	0.0168889
878.029	0.0168530
878.107	0.0168168
878.185	0.0170272
878.263	0.0169929
878.341	0.0171016
878.419	0.0172039
878.497	0.0170999
878.575	0.0172402
878.654	0.0173067
878.732	0.0172195
878.810	0.0172324
878.888	0.0171781
878.966	0.0169899
879.044	0.0168014
879.122	0.0166358
879.200	0.0165715
879.279	0.0164843
879.357	0.0162076
879.435	0.0161076
879.513	0.0161152
879.591	0.0160478
879.669	0.0156786
879.747	0.0157729
879.825	0.0156184
879.904	0.0157558
879.982	0.0157420
880.060	0.0157071
880.138	0.0157561
880.216	0.0158032
880.294	0.0158455
880.372	0.0159245
880.450	0.0161484
880.529	0.0163457
880.607	0.0163561
880.685	0.0165312
880.763	0.0163924
880.841	0.0165344
880.919	0.0166486
880.997	0.0167058
881.075	0.0167678
881.154	0.0168269
881.232	0.0168239
881.310	0.0166516
881.388	0.0167992
881.466	0.0167314
881.544	0.0167108
881.622	0.0168108
881.700	0.0169637
881.779	0.0171194
881.857	0.0170480
881.935	0.0170782
882.013	0.0169000
882.091	0.0170308
882.169	0.0171513
882.247	0.0171179
882.325	0.0169341
882.404	0.0169802
882.482	0.0169154
882.560	0.0170664
882.638	0.0168011
882.716	0.0168932
882.794	0.0168781
882.872	0.0167178
882.950	0.0166323
883.029	0.0164919
883.107	0.0164977
883.185	0.0161951
883.263	0.0160155
883.341	0.0160622
883.419	0.0159180
883.497	0.0158369
883.575	0.0157482
883.654	0.0157835
883.732	0.0155614
883.810	0.0158119
883.888	0.0157075
883.966	0.0157428
884.044	0.0158303
884.122	0.0160278
884.200	0.0162569
884.279	0.0162332
884.357	0.0165578
884.435	0.0166911
884.513	0.0168928
884.591	0.0170173
884.669	0.0171975
884.747	0.0173342
884.825	0.0172656
884.904	0.0173804
884.982	0.0174075
885.060	0.0172965
885.138	0.0173360
885.216	0.0172358
885.294	0.0172233
885.372	0.0169361
885.450	0.0169403
885.529	0.0168601
885.607	0.0166215
885.685	0.0168053
885.763	0.0166632
885.841	0.0163913
885.919	0.0163455
885.997	0.0164458
886.075	0.0161775
886.154	0.0161298
886.232	0.0162422
886.310	0.0162501
886.388	0.0162529
886.466	0.0163727
886.544	0.0162804
886.622	0.0162452
886.700	0.0163396
886.779	0.0164169
886.857	0.0164859
886.935	0.0163809
887.013	0.0165087
887.091	0.0164957
887.169	0.0166232
887.247	0.0164683
887.325	0.0164808
887.404	0.0165032
887.482	0.0164507
887.560	0.0164760
887.638	0.0164649
887.716	0.0165637
887.794	0.0164802
887.872	0.0165770
887.950	0.0164607
888.029	0.0165464
888.107	0.0166383
888.185	0.0166906
888.263	0.0166177
888.341	0.0167442
888.419	0.0168121
888.497	0.0168317
888.575	0.0168571
888.654	0.0168505
888.732	0.0168447
888.810	0.0168789
888.888	0.0169582
888.966	0.0168808
889.044	0.0170431
889.122	0.0167345
889.200	0.0169593
889.279	0.0170692
889.357	0.0168250
889.435	0.0167200
889.513	0.0167587
889.591	0.0168118
889.669	0.0165173
889.747	0.0165279
889.825	0.0163795
889.904	0.0165156
889.982	0.0164520
890.060	0.0165121
890.138	0.0164571
890.216	0.0163333
890.294	0.0164562
890.372	0.0164262
890.450	0.0162856
890.529	0.0164130
890.607	0.0161994
890.685	0.0160619
890.763	0.0161370
890.841	0.0161742
890.919	0.0161027
890.997	0.0159545
891.075	0.0159930
891.154	0.0161326
891.232	0.0161868
891.310	0.0162335
891.388	0.0163894
891.466	0.0163558
891.544	0.0164400
891.622	0.0165175
891.700	0.0166193
891.779	0.0169202
891.857	0.0168646
891.935	0.0168784
892.013	0.0170116
892.091	0.0170166
892.169	0.0170951
892.247	0.0170659
892.325	0.0170943
892.404	0.0170034
892.482	0.0170499
892.560	0.0170824
892.638	0.0170667
892.716	0.0169882
892.794	0.0168079
892.872	0.0168931
892.950	0.0169252
893.029	0.0168517
893.107	0.0167745
893.185	0.0167236
893.263	0.0165919
893.341	0.0165982
893.419	0.0166153
893.497	0.0164902
893.575	0.0165658
893.654	0.0164277
893.732	0.0163867
893.810	0.0164779
893.888	0.0165311
893.966	0.0164970
894.044	0.0165369
894.122	0.0164107
894.200	0.0165002
894.279	0.0165239
894.357	0.0164185
894.435	0.0165364
894.513	0.0165508
894.591	0.0163732
894.669	0.0163340
894.747	0.0164045
894.825	0.0163368
894.904	0.0163468
894.982	0.0163033
895.060	0.0163005
895.138	0.0163128
895.216	0.0163618
895.294	0.0163498
895.372	0.0165259
895.450	0.0165034
895.529	0.0165179
895.607	0.0167372
895.685	0.0167941
895.763	0.0167353
895.841	0.0167847
895.919	0.0169504
895.997	0.0168155
896.075	0.0167416
896.154	0.0168407
896.232	0.0166488
896.310	0.0167564
896.388	0.0166864
896.466	0.0165951
896.544	0.0164848
896.622	0.0166352
896.700	0.0166644
896.779	0.0164581
896.857	0.0165707
896.935	0.0165845
897.013	0.0166097
897.091	0.0166326
897.169	0.0166624
897.247	0.0165867
897.325	0.0166344
897.404	0.0165453
897.482	0.0166470
897.560	0.0167375
897.638	0.0166803
897.716	0.0166819
897.794	0.0166506
897.872	0.0166579
897.950	0.0166176
898.029	0.0165759
898.107	0.0165099
898.185	0.0165408
898.263	0.0163918
898.341	0.0164177
898.419	0.0164283
898.497	0.0163792
898.575	0.0163752
898.654	0.0163630
898.732	0.0163734
898.810	0.0163776
898.888	0.0163985
898.966	0.0164204
899.044	0.0165061
899.122	0.0166082
899.200	0.0166072
899.279	0.0166644
899.357	0.0168687
899.435	0.0167668
899.513	0.0169309
899.591	0.0169839
899.669	0.0168904
899.747	0.0170294
899.825	0.0169852
899.904	0.0167614
899.982	0.0168241
900.060	0.0167405
900.138	0.0166515
900.216	0.0167750
900.294	0.0166784
900.372	0.0166705
900.450	0.0166713
900.529	0.0166114
900.607	0.0168121
900.685	0.0166365
900.763	0.0166528
900.841	0.0163931
900.919	0.0165836
900.997	0.0165332
901.075	0.0166286
901.154	0.0164611
901.232	0.0164648
901.310	0.0165289
901.388	0.0164317
901.466	0.0163177
901.544	0.0163765
901.622	0.0163397
901.700	0.0161783
901.779	0.0160303
901.857	0.0161107
901.935	0.0162724
902.013	0.0161498
902.091	0.0161694
902.169	0.0161281
902.247	0.0161924
902.325	0.0162344
902.404	0.0162964
902.482	0.0163394
902.560	0.0165105
902.638	0.0163950
902.716	0.0165242
902.794	0.0165244
902.872	0.0166179
902.950	0.0167342
903.029	0.0168781
903.107	0.0169756
903.185	0.0169980
903.263	0.0169064
903.341	0.0170004
903.419	0.0171238
903.497	0.0170717
903.575	0.0170692
903.654	0.0171149
903.732	0.0169866
903.810	0.0170368
903.888	0.0171838
903.966	0.0171494
904.044	0.0170698
904.122	0.0169759
904.200	0.0169198
904.279	0.0167111
904.357	0.0168021
904.435	0.0166084
904.513	0.0167632
904.591	0.0166548
904.669	0.0163315
904.747	0.0163300
904.825	0.0163330
904.904	0.0163228
904.982	0.0161169
905.060	0.0161186
905.138	0.0159995
905.216	0.0160891
905.294	0.0160247
905.372	0.0158581
905.450	0.0159162
905.529	0.0159076
905.607	0.0159888
905.685	0.0160002
905.763	0.0160130
905.841	0.0161404
905.919	0.0162688
905.997	0.0162215
906.075	0.0162521
906.154	0.0164791
906.232	0.0166769
906.310	0.0167148
906.388	0.0166348
906.466	0.0169417
906.544	0.0168412
906.622	0.0168803
906.700	0.0169750
906.779	0.0170515
906.857	0.0171599
906.935	0.0171561
907.013	0.0171632
907.091	0.0171504
907.169	0.0170660
907.247	0.0171069
907.325	0.0172649
907.404	0.0171387
907.482	0.0171538
907.560	0.0171171
907.638	0.0168962
907.716	0.0169775
907.794	0.0169861
907.872	0.0169051
907.950	0.0170393
908.029	0.0169019
908.107	0.0167801
908.185	0.0166463
908.263	0.0166164
908.341	0.0165501
908.419	0.0164604
908.497	0.0165813
908.575	0.0162916
908.654	0.0162106
908.732	0.0162457
908.810	0.0161446
908.888	0.0161998
908.966	0.0162298
909.044	0.0161622
909.122	0.0159751
909.200	0.0161070
909.279	0.0159817
909.357	0.0161768
909.435	0.0160803
909.513	0.0161535
909.591	0.0162479
909.669	0.0162539
909.747	0.0163499
909.825	0.0162668
909.904	0.0163554
909.982	0.0164418
910.060	0.0165959
910.138	0.0167191
910.216	0.0166184
910.294	0.0167885
910.372	0.0167978
910.450	0.0168692
910.529	0.0168909
910.607	0.0168553
910.685	0.0168729
910.763	0.0169821
910.841	0.0170373
910.919	0.0170374
910.997	0.0169714
911.075	0.0169704
911.154	0.0170261
911.232	0.0170863
911.310	0.0169645
911.388	0.0169476
911.466	0.0169599
911.544	0.0169057
911.622	0.0166685
911.700	0.0166885
911.779	0.0166024
911.857	0.0166502
911.935	0.0165043
912.013	0.0165536
912.091	0.0165056
912.169	0.0165372
912.247	0.0164142
912.325	0.0163435
912.404	0.0164350
912.482	0.0164030
912.560	0.0163903
912.638	0.0165162
912.716	0.0162967
912.794	0.0162317
912.872	0.0162183
912.950	0.0160835
913.029	0.0162307
913.107	0.0163303
913.185	0.0162364
913.263	0.0164181
913.341	0.0163933
913.419	0.0164610
913.497	0.0165263
913.575	0.0166180
913.654	0.0166570
913.732	0.0167481
913.810	0.0167580
913.888	0.0167061
913.966	0.0166566
914.044	0.0167915
914.122	0.0167281
914.200	0.0169294
914.279	0.0167733
914.357	0.0166951
914.435	0.0167200
914.513	0.0167146
914.591	0.0168393
914.669	0.0166534
914.747	0.0167552
914.825	0.0167120
914.904	0.0166543
914.982	0.0166720
915.060	0.0164088
915.138	0.0165493
915.216	0.0165338
915.294	0.0165649
915.372	0.0167578
915.450	0.0166812
915.529	0.0166274
915.607	0.0166055
915.685	0.0166461
915.763	0.0166421
915.841	0.0167977
915.919	0.0166676
915.997	0.0167495
916.075	0.0165658
916.154	0.0166527
916.232	0.0166486
916.310	0.0167747
916.388	0.0166949
916.466	0.0166370
916.544	0.0166886
916.622	0.0165682
916.700	0.0164310
916.779	0.0164986
916.857	0.0165723
916.935	0.0165334
917.013	0.0163649
917.091	0.0163287
917.169	0.0163044
917.247	0.0165143
917.325	0.0164320
917.404	0.0164628
917.482	0.0164857
917.560	0.0165459
917.638	0.0165163
917.716	0.0166684
917.794	0.0166845
917.872	0.0165800
917.950	0.0166086
918.029	0.0166922
918.107	0.0167027
918.185	0.0167641
918.263	0.0167402
918.341	0.0164875
918.419	0.0166257
918.497	0.0167445
918.575	0.0166106
918.654	0.0166219
918.732	0.0166792
918.810	0.0166154
918.888	0.0166690
918.966	0.0165423
919.044	0.0166451
919.122	0.0166975
919.200	0.0166686
919.279	0.0167474
919.357	0.0166560
919.435	0.0167570
919.513	0.0167835
919.591	0.0168475
919.669	0.0168452
919.747	0.0166737
919.825	0.0167080
919.904	0.0167904
