06/03/2022	14:03:35	Ver.	4.1	UNKNOWN
Optical Delay	599.981738	Delta X		0.078125	Sweeps	1	Scan Rate	0/0
Coordinates	Axis 1	NaN	Axis 2	NaN	Axis 3	NaN	Axis 4	NaN	Axis 5	NaN	Axis 6	0.000000
TX Power	0.000000	RX Power	0.000000

599.982	0.0162032
600.060	0.0161064
600.138	0.0161922
600.216	0.0161106
600.294	0.0161852
600.372	0.0162032
600.450	0.0161536
600.529	0.0161598
600.607	0.0162424
600.685	0.0162865
600.763	0.0161423
600.841	0.0161262
600.919	0.0161455
600.997	0.0162211
601.075	0.0161908
601.154	0.0162254
601.232	0.0161014
601.310	0.0162876
601.388	0.0161987
601.466	0.0162231
601.544	0.0162025
601.622	0.0161909
601.700	0.0160963
601.779	0.0160645
601.857	0.0161400
601.935	0.0161713
602.013	0.0161948
602.091	0.0160421
602.169	0.0161790
602.247	0.0161550
602.325	0.0161036
602.404	0.0161122
602.482	0.0163163
602.560	0.0162560
602.638	0.0161210
602.716	0.0161465
602.794	0.0163246
602.872	0.0162348
602.950	0.0161066
603.029	0.0162537
603.107	0.0162311
603.185	0.0160516
603.263	0.0162012
603.341	0.0161292
603.419	0.0161625
603.497	0.0161439
603.575	0.0161199
603.654	0.0162048
603.732	0.0162437
603.810	0.0161846
603.888	0.0161420
603.966	0.0161816
604.044	0.0160552
604.122	0.0161552
604.200	0.0161388
604.279	0.0161676
604.357	0.0160950
604.435	0.0162518
604.513	0.0162500
604.591	0.0162421
604.669	0.0161991
604.747	0.0161709
604.825	0.0161311
604.904	0.0162039
604.982	0.0161544
605.060	0.0162263
605.138	0.0161917
605.216	0.0161738
605.294	0.0161779
605.372	0.0161726
605.450	0.0160853
605.529	0.0163248
605.607	0.0162224
605.685	0.0161717
605.763	0.0160447
605.841	0.0163387
605.919	0.0162019
605.997	0.0162280
606.075	0.0161755
606.154	0.0162878
606.232	0.0161948
606.310	0.0161983
606.388	0.0162233
606.466	0.0161641
606.544	0.0162151
606.622	0.0162121
606.700	0.0162897
606.779	0.0162093
606.857	0.0161288
606.935	0.0161568
607.013	0.0161353
607.091	0.0162605
607.169	0.0162318
607.247	0.0161910
607.325	0.0162616
607.404	0.0162321
607.482	0.0162598
607.560	0.0161892
607.638	0.0162736
607.716	0.0161712
607.794	0.0161958
607.872	0.0160965
607.950	0.0162096
608.029	0.0162675
608.107	0.0160509
608.185	0.0161163
608.263	0.0161891
608.341	0.0160759
608.419	0.0161634
608.497	0.0163590
608.575	0.0161613
608.654	0.0161127
608.732	0.0160934
608.810	0.0161658
608.888	0.0160916
608.966	0.0160213
609.044	0.0160913
609.122	0.0161476
609.200	0.0161909
609.279	0.0161037
609.357	0.0161143
609.435	0.0162257
609.513	0.0161351
609.591	0.0162098
609.669	0.0161569
609.747	0.0162520
609.825	0.0162086
609.904	0.0161272
609.982	0.0162408
610.060	0.0162425
610.138	0.0161160
610.216	0.0162157
610.294	0.0162995
610.372	0.0163041
610.450	0.0161741
610.529	0.0162912
610.607	0.0162602
610.685	0.0163004
610.763	0.0161536
610.841	0.0161562
610.919	0.0161741
610.997	0.0162234
611.075	0.0161504
611.154	0.0161337
611.232	0.0161080
611.310	0.0161765
611.388	0.0162056
611.466	0.0162177
611.544	0.0161066
611.622	0.0161926
611.700	0.0161604
611.779	0.0162809
611.857	0.0161061
611.935	0.0161813
612.013	0.0161147
612.091	0.0161793
612.169	0.0162409
612.247	0.0162521
612.325	0.0161308
612.404	0.0161576
612.482	0.0161217
612.560	0.0161246
612.638	0.0160300
612.716	0.0161494
612.794	0.0160861
612.872	0.0161288
612.950	0.0161179
613.029	0.0161574
613.107	0.0161109
613.185	0.0161205
613.263	0.0161039
613.341	0.0161021
613.419	0.0162691
613.497	0.0162462
613.575	0.0161996
613.654	0.0162397
613.732	0.0162674
613.810	0.0161923
613.888	0.0163502
613.966	0.0161422
614.044	0.0162897
614.122	0.0163078
614.200	0.0161300
614.279	0.0162051
614.357	0.0161868
614.435	0.0162244
614.513	0.0161695
614.591	0.0162724
614.669	0.0162062
614.747	0.0161488
614.825	0.0161214
614.904	0.0162024
614.982	0.0162730
615.060	0.0161481
615.138	0.0161056
615.216	0.0159971
615.294	0.0162076
615.372	0.0161885
615.450	0.0162654
615.529	0.0161805
615.607	0.0161590
615.685	0.0161477
615.763	0.0161695
615.841	0.0160667
615.919	0.0160950
615.997	0.0161127
616.075	0.0161557
616.154	0.0161271
616.232	0.0160410
616.310	0.0161016
616.388	0.0161404
616.466	0.0161363
616.544	0.0160246
616.622	0.0160938
616.700	0.0161790
616.779	0.0161397
616.857	0.0161112
616.935	0.0161210
617.013	0.0161652
617.091	0.0163033
617.169	0.0161299
617.247	0.0160111
617.325	0.0162057
617.404	0.0162036
617.482	0.0161814
617.560	0.0163431
617.638	0.0162411
617.716	0.0162971
617.794	0.0163712
617.872	0.0161507
617.950	0.0161297
618.029	0.0162939
618.107	0.0162205
618.185	0.0162103
618.263	0.0162270
618.341	0.0162312
618.419	0.0161870
618.497	0.0161594
618.575	0.0161893
618.654	0.0161813
618.732	0.0162431
618.810	0.0161636
618.888	0.0161807
618.966	0.0162589
619.044	0.0162743
619.122	0.0161738
619.200	0.0161742
619.279	0.0161761
619.357	0.0161685
619.435	0.0162148
619.513	0.0161128
619.591	0.0161819
619.669	0.0162121
619.747	0.0161120
619.825	0.0161293
619.904	0.0161676
619.982	0.0161685
620.060	0.0160995
620.138	0.0162592
620.216	0.0161783
620.294	0.0161907
620.372	0.0161138
620.450	0.0160585
620.529	0.0162047
620.607	0.0161749
620.685	0.0161662
620.763	0.0161999
620.841	0.0161224
620.919	0.0161837
620.997	0.0161859
621.075	0.0162032
621.154	0.0161745
621.232	0.0163165
621.310	0.0162653
621.388	0.0162225
621.466	0.0162685
621.544	0.0163599
621.622	0.0163127
621.700	0.0163074
621.779	0.0162412
621.857	0.0163210
621.935	0.0161975
622.013	0.0162862
622.091	0.0161806
622.169	0.0162464
622.247	0.0162033
622.325	0.0163097
622.404	0.0162772
622.482	0.0161053
622.560	0.0161580
622.638	0.0162115
622.716	0.0160886
622.794	0.0161619
622.872	0.0162645
622.950	0.0160823
623.029	0.0161605
623.107	0.0161841
623.185	0.0161674
623.263	0.0159627
623.341	0.0161167
623.419	0.0162421
623.497	0.0161198
623.575	0.0161633
623.654	0.0161120
623.732	0.0160882
623.810	0.0161778
623.888	0.0161643
623.966	0.0162294
624.044	0.0161383
624.122	0.0160468
624.200	0.0160477
624.279	0.0161662
624.357	0.0162469
624.435	0.0161096
624.513	0.0159895
624.591	0.0160479
624.669	0.0161869
624.747	0.0161215
624.825	0.0161578
624.904	0.0163202
624.982	0.0162628
625.060	0.0162531
625.138	0.0161612
625.216	0.0161072
625.294	0.0161440
625.372	0.0162778
625.450	0.0161136
625.529	0.0162474
625.607	0.0161994
625.685	0.0161786
625.763	0.0161372
625.841	0.0162061
625.919	0.0162184
625.997	0.0162148
626.075	0.0161309
626.154	0.0160662
626.232	0.0161255
626.310	0.0163296
626.388	0.0161890
626.466	0.0160339
626.544	0.0162365
626.622	0.0161280
626.700	0.0162102
626.779	0.0160933
626.857	0.0161159
626.935	0.0161647
627.013	0.0161357
627.091	0.0162048
627.169	0.0162407
627.247	0.0160242
627.325	0.0160915
627.404	0.0162749
627.482	0.0161734
627.560	0.0160308
627.638	0.0161034
627.716	0.0162315
627.794	0.0161974
627.872	0.0161102
627.950	0.0161088
628.029	0.0161034
628.107	0.0161388
628.185	0.0161974
628.263	0.0162489
628.341	0.0162400
628.419	0.0161326
628.497	0.0162311
628.575	0.0161430
628.654	0.0162357
628.732	0.0162822
628.810	0.0161185
628.888	0.0161849
628.966	0.0161018
629.044	0.0161782
629.122	0.0161710
629.200	0.0161282
629.279	0.0160851
629.357	0.0161688
629.435	0.0162016
629.513	0.0160811
629.591	0.0161070
629.669	0.0161971
629.747	0.0161073
629.825	0.0162626
629.904	0.0161932
629.982	0.0161732
630.060	0.0161745
630.138	0.0161273
630.216	0.0161384
630.294	0.0160988
630.372	0.0160561
630.450	0.0160357
630.529	0.0161313
630.607	0.0161256
630.685	0.0161240
630.763	0.0161781
630.841	0.0162242
630.919	0.0161540
630.997	0.0160416
631.075	0.0161472
631.154	0.0160049
631.232	0.0161075
631.310	0.0161914
631.388	0.0160638
631.466	0.0160730
631.544	0.0161193
631.622	0.0161703
631.700	0.0162343
631.779	0.0160221
631.857	0.0161821
631.935	0.0161693
632.013	0.0161855
632.091	0.0161724
632.169	0.0161343
632.247	0.0161361
632.325	0.0161489
632.404	0.0161431
632.482	0.0162009
632.560	0.0162507
632.638	0.0160597
632.716	0.0161880
632.794	0.0162417
632.872	0.0160846
632.950	0.0162069
633.029	0.0161724
633.107	0.0161684
633.185	0.0163253
633.263	0.0162701
633.341	0.0161945
633.419	0.0161243
633.497	0.0161469
633.575	0.0160708
633.654	0.0161747
633.732	0.0160731
633.810	0.0160403
633.888	0.0161420
633.966	0.0160152
634.044	0.0160612
634.122	0.0162390
634.200	0.0160784
634.279	0.0160637
634.357	0.0160699
634.435	0.0161616
634.513	0.0161266
634.591	0.0160233
634.669	0.0161060
634.747	0.0161155
634.825	0.0161511
634.904	0.0160641
634.982	0.0160174
635.060	0.0161430
635.138	0.0161395
635.216	0.0161626
635.294	0.0161560
635.372	0.0161845
635.450	0.0161393
635.529	0.0160790
635.607	0.0160088
635.685	0.0162126
635.763	0.0162410
635.841	0.0161517
635.919	0.0161369
635.997	0.0162011
636.075	0.0161740
636.154	0.0160889
636.232	0.0161864
636.310	0.0160307
636.388	0.0161599
636.466	0.0161443
636.544	0.0160336
636.622	0.0161251
636.700	0.0161524
636.779	0.0162635
636.857	0.0161127
636.935	0.0161143
637.013	0.0162080
637.091	0.0161969
637.169	0.0162923
637.247	0.0161684
637.325	0.0160977
637.404	0.0162447
637.482	0.0161494
637.560	0.0161194
637.638	0.0161874
637.716	0.0161983
637.794	0.0160332
637.872	0.0160971
637.950	0.0162743
638.029	0.0162046
638.107	0.0160608
638.185	0.0161290
638.263	0.0162019
638.341	0.0163361
638.419	0.0161890
638.497	0.0162431
638.575	0.0160809
638.654	0.0162067
638.732	0.0162711
638.810	0.0162844
638.888	0.0161845
638.966	0.0162326
639.044	0.0161331
639.122	0.0161875
639.200	0.0161652
639.279	0.0160773
639.357	0.0162464
639.435	0.0162240
639.513	0.0161750
639.591	0.0161441
639.669	0.0162177
639.747	0.0160992
639.825	0.0161475
639.904	0.0161685
639.982	0.0161951
640.060	0.0161279
640.138	0.0160997
640.216	0.0161446
640.294	0.0161413
640.372	0.0159753
640.450	0.0161945
640.529	0.0161865
640.607	0.0162422
640.685	0.0160643
640.763	0.0161295
640.841	0.0162734
640.919	0.0163393
640.997	0.0162072
641.075	0.0163279
641.154	0.0160759
641.232	0.0161396
641.310	0.0162520
641.388	0.0162778
641.466	0.0160482
641.544	0.0162029
641.622	0.0162800
641.700	0.0161337
641.779	0.0160239
641.857	0.0162408
641.935	0.0161872
642.013	0.0162084
642.091	0.0162376
642.169	0.0161843
642.247	0.0161992
642.325	0.0161364
642.404	0.0161108
642.482	0.0160767
642.560	0.0161317
642.638	0.0160745
642.716	0.0160643
642.794	0.0160225
642.872	0.0161269
642.950	0.0161914
643.029	0.0161138
643.107	0.0162298
643.185	0.0162051
643.263	0.0161278
643.341	0.0160814
643.419	0.0161354
643.497	0.0162777
643.575	0.0161816
643.654	0.0161332
643.732	0.0160699
643.810	0.0160874
643.888	0.0162132
643.966	0.0162508
644.044	0.0161613
644.122	0.0161794
644.200	0.0161567
644.279	0.0162514
644.357	0.0161386
644.435	0.0161945
644.513	0.0161402
644.591	0.0161358
644.669	0.0161192
644.747	0.0161436
644.825	0.0161632
644.904	0.0161746
644.982	0.0162307
645.060	0.0161764
645.138	0.0160750
645.216	0.0160860
645.294	0.0161723
645.372	0.0162354
645.450	0.0160960
645.529	0.0160971
645.607	0.0160290
645.685	0.0161650
645.763	0.0161272
645.841	0.0160218
645.919	0.0161304
645.997	0.0162397
646.075	0.0162029
646.154	0.0161115
646.232	0.0161504
646.310	0.0162073
646.388	0.0161296
646.466	0.0161435
646.544	0.0160802
646.622	0.0162336
646.700	0.0163142
646.779	0.0161572
646.857	0.0160751
646.935	0.0161467
647.013	0.0161657
647.091	0.0161169
647.169	0.0160529
647.247	0.0162611
647.325	0.0162000
647.404	0.0161770
647.482	0.0161404
647.560	0.0162592
647.638	0.0162294
647.716	0.0161625
647.794	0.0159597
647.872	0.0161844
647.950	0.0161884
648.029	0.0161771
648.107	0.0161106
648.185	0.0161497
648.263	0.0160451
648.341	0.0163143
648.419	0.0162048
648.497	0.0160691
648.575	0.0161893
648.654	0.0160976
648.732	0.0161759
648.810	0.0162222
648.888	0.0162862
648.966	0.0161421
649.044	0.0161611
649.122	0.0161786
649.200	0.0161846
649.279	0.0161186
649.357	0.0161214
649.435	0.0162006
649.513	0.0161387
649.591	0.0159650
649.669	0.0160416
649.747	0.0163269
649.825	0.0163001
649.904	0.0161884
649.982	0.0162624
650.060	0.0161858
650.138	0.0160783
650.216	0.0160959
650.294	0.0160933
650.372	0.0160583
650.450	0.0162500
650.529	0.0163030
650.607	0.0161907
650.685	0.0160909
650.763	0.0161283
650.841	0.0162114
650.919	0.0161312
650.997	0.0160535
651.075	0.0161321
651.154	0.0162173
651.232	0.0162089
651.310	0.0162064
651.388	0.0161806
651.466	0.0161952
651.544	0.0161868
651.622	0.0160925
651.700	0.0161098
651.779	0.0162804
651.857	0.0162903
651.935	0.0163284
652.013	0.0161661
652.091	0.0162135
652.169	0.0161902
652.247	0.0160941
652.325	0.0161880
652.404	0.0161896
652.482	0.0162890
652.560	0.0161423
652.638	0.0162770
652.716	0.0162450
652.794	0.0162615
652.872	0.0160535
652.950	0.0160938
653.029	0.0161897
653.107	0.0161689
653.185	0.0161935
653.263	0.0161235
653.341	0.0160344
653.419	0.0161559
653.497	0.0161014
653.575	0.0160793
653.654	0.0162179
653.732	0.0161055
653.810	0.0160661
653.888	0.0161730
653.966	0.0161692
654.044	0.0161851
654.122	0.0160913
654.200	0.0161275
654.279	0.0160685
654.357	0.0161944
654.435	0.0162434
654.513	0.0160864
654.591	0.0161748
654.669	0.0162022
654.747	0.0161825
654.825	0.0161715
654.904	0.0162667
654.982	0.0162591
655.060	0.0162103
655.138	0.0160846
655.216	0.0161707
655.294	0.0162562
655.372	0.0161633
655.450	0.0161945
655.529	0.0160368
655.607	0.0161963
655.685	0.0162299
655.763	0.0161988
655.841	0.0161524
655.919	0.0162061
655.997	0.0162018
656.075	0.0162873
656.154	0.0162100
656.232	0.0162659
656.310	0.0161517
656.388	0.0161861
656.466	0.0161948
656.544	0.0161835
656.622	0.0161881
656.700	0.0163400
656.779	0.0161395
656.857	0.0162680
656.935	0.0162718
657.013	0.0162226
657.091	0.0162593
657.169	0.0162090
657.247	0.0162605
657.325	0.0162012
657.404	0.0161942
657.482	0.0161800
657.560	0.0163097
657.638	0.0161883
657.716	0.0162221
657.794	0.0161585
657.872	0.0162189
657.950	0.0161504
658.029	0.0161195
658.107	0.0160887
658.185	0.0162777
658.263	0.0160383
658.341	0.0161224
658.419	0.0160925
658.497	0.0161327
658.575	0.0160458
658.654	0.0161750
658.732	0.0161926
658.810	0.0161039
658.888	0.0160873
658.966	0.0162367
659.044	0.0161676
659.122	0.0162237
659.200	0.0161263
659.279	0.0162337
659.357	0.0161964
659.435	0.0159964
659.513	0.0161055
659.591	0.0161698
659.669	0.0161655
659.747	0.0160831
659.825	0.0162179
659.904	0.0162301
659.982	0.0162712
660.060	0.0162209
660.138	0.0162613
660.216	0.0161588
660.294	0.0162008
660.372	0.0161607
660.450	0.0163022
660.529	0.0161585
660.607	0.0162496
660.685	0.0161815
660.763	0.0160174
660.841	0.0161822
660.919	0.0161528
660.997	0.0162832
661.075	0.0161408
661.154	0.0161782
661.232	0.0162396
661.310	0.0163164
661.388	0.0160766
661.466	0.0160514
661.544	0.0160928
661.622	0.0161691
661.700	0.0162142
661.779	0.0161383
661.857	0.0161974
661.935	0.0160989
662.013	0.0161405
662.091	0.0162483
662.169	0.0161910
662.247	0.0162762
662.325	0.0161205
662.404	0.0162122
662.482	0.0163210
662.560	0.0162276
662.638	0.0161758
662.716	0.0160980
662.794	0.0161031
662.872	0.0162463
662.950	0.0162486
663.029	0.0162021
663.107	0.0160431
663.185	0.0160790
663.263	0.0161451
663.341	0.0161245
663.419	0.0160297
663.497	0.0160927
663.575	0.0162674
663.654	0.0162665
663.732	0.0161811
663.810	0.0162891
663.888	0.0160928
663.966	0.0159868
664.044	0.0160687
664.122	0.0160961
664.200	0.0162487
664.279	0.0160975
664.357	0.0160403
664.435	0.0161665
664.513	0.0161510
664.591	0.0161437
664.669	0.0161911
664.747	0.0161894
664.825	0.0161597
664.904	0.0161160
664.982	0.0160299
665.060	0.0162629
665.138	0.0163265
665.216	0.0161994
665.294	0.0161972
665.372	0.0161012
665.450	0.0162180
665.529	0.0162499
665.607	0.0162037
665.685	0.0161776
665.763	0.0161486
665.841	0.0161276
665.919	0.0161158
665.997	0.0162476
666.075	0.0161588
666.154	0.0161169
666.232	0.0161212
666.310	0.0161948
666.388	0.0161162
666.466	0.0161372
666.544	0.0159954
666.622	0.0161890
666.700	0.0160901
666.779	0.0160416
666.857	0.0161628
666.935	0.0160768
667.013	0.0161942
667.091	0.0161172
667.169	0.0162121
667.247	0.0160372
667.325	0.0161072
667.404	0.0161131
667.482	0.0162434
667.560	0.0160905
667.638	0.0162344
667.716	0.0160638
667.794	0.0162128
667.872	0.0161600
667.950	0.0161260
668.029	0.0162509
668.107	0.0161166
668.185	0.0161327
668.263	0.0161369
668.341	0.0160120
668.419	0.0160723
668.497	0.0161091
668.575	0.0161425
668.654	0.0160433
668.732	0.0161159
668.810	0.0161123
668.888	0.0160277
668.966	0.0161767
669.044	0.0161182
669.122	0.0161404
669.200	0.0161318
669.279	0.0161420
669.357	0.0161962
669.435	0.0162046
669.513	0.0160748
669.591	0.0161774
669.669	0.0161674
669.747	0.0161193
669.825	0.0161192
669.904	0.0161832
669.982	0.0162066
670.060	0.0161669
670.138	0.0161473
670.216	0.0161697
670.294	0.0162662
670.372	0.0161803
670.450	0.0162654
670.529	0.0162076
670.607	0.0161722
670.685	0.0163159
670.763	0.0161040
670.841	0.0160054
670.919	0.0160059
670.997	0.0161096
671.075	0.0161284
671.154	0.0160725
671.232	0.0161855
671.310	0.0162070
671.388	0.0161391
671.466	0.0160347
671.544	0.0162061
671.622	0.0161699
671.700	0.0162309
671.779	0.0163226
671.857	0.0162254
671.935	0.0161528
672.013	0.0161888
672.091	0.0161555
672.169	0.0161566
672.247	0.0161536
672.325	0.0160931
672.404	0.0161888
672.482	0.0161071
672.560	0.0161666
672.638	0.0161138
672.716	0.0160351
672.794	0.0160661
672.872	0.0160091
672.950	0.0161735
673.029	0.0162110
673.107	0.0161527
673.185	0.0161159
673.263	0.0161808
673.341	0.0162527
673.419	0.0162706
673.497	0.0163377
673.575	0.0161852
673.654	0.0162021
673.732	0.0163757
673.810	0.0163107
673.888	0.0161540
673.966	0.0162421
674.044	0.0161275
674.122	0.0160933
674.200	0.0161461
674.279	0.0161661
674.357	0.0161156
674.435	0.0162132
674.513	0.0162939
674.591	0.0161519
674.669	0.0162540
674.747	0.0161826
674.825	0.0161703
674.904	0.0163355
674.982	0.0163091
675.060	0.0163042
675.138	0.0162636
675.216	0.0161994
675.294	0.0161603
675.372	0.0161103
675.450	0.0160298
675.529	0.0158556
675.607	0.0160027
675.685	0.0159575
675.763	0.0158481
675.841	0.0159597
675.919	0.0161141
675.997	0.0160138
676.075	0.0159631
676.154	0.0160791
676.232	0.0161471
676.310	0.0163192
676.388	0.0160532
676.466	0.0161949
676.544	0.0163038
676.622	0.0162576
676.700	0.0161722
676.779	0.0160945
676.857	0.0163467
676.935	0.0162614
677.013	0.0163025
677.091	0.0163558
677.169	0.0164415
677.247	0.0164649
677.325	0.0165472
677.404	0.0165775
677.482	0.0165166
677.560	0.0164548
677.638	0.0163909
677.716	0.0164812
677.794	0.0164903
677.872	0.0163998
677.950	0.0162027
678.029	0.0162720
678.107	0.0161435
678.185	0.0160523
678.263	0.0158838
678.341	0.0159235
678.419	0.0157773
678.497	0.0158408
678.575	0.0159368
678.654	0.0159546
678.732	0.0158783
678.810	0.0160127
678.888	0.0159052
678.966	0.0160384
679.044	0.0161792
679.122	0.0163174
679.200	0.0164641
679.279	0.0165139
679.357	0.0165098
679.435	0.0163226
679.513	0.0163797
679.591	0.0162260
679.669	0.0161719
679.747	0.0159501
679.825	0.0156903
679.904	0.0156303
679.982	0.0155651
680.060	0.0154745
680.138	0.0153448
680.216	0.0154078
680.294	0.0154960
680.372	0.0153053
680.450	0.0156408
680.529	0.0158227
680.607	0.0160336
680.685	0.0163243
680.763	0.0166013
680.841	0.0166940
680.919	0.0168094
680.997	0.0168304
681.075	0.0168264
681.154	0.0167951
681.232	0.0166672
681.310	0.0167153
681.388	0.0167196
681.466	0.0168501
681.544	0.0169592
681.622	0.0170940
681.700	0.0174359
681.779	0.0176701
681.857	0.0178622
681.935	0.0179476
682.013	0.0180244
682.091	0.0177563
682.169	0.0175472
682.247	0.0171443
682.325	0.0167633
682.404	0.0160059
682.482	0.0155824
682.560	0.0152094
682.638	0.0147851
682.716	0.0143596
682.794	0.0143067
682.872	0.0140895
682.950	0.0140266
683.029	0.0141967
683.107	0.0141058
683.185	0.0142113
683.263	0.0144740
683.341	0.0144652
683.419	0.0146112
683.497	0.0148134
683.575	0.0149236
683.654	0.0151276
683.732	0.0153514
683.810	0.0156944
683.888	0.0158002
683.966	0.0161824
684.044	0.0165151
684.122	0.0167097
684.200	0.0170934
684.279	0.0171056
684.357	0.0171081
684.435	0.0172351
684.513	0.0171944
684.591	0.0172596
684.669	0.0170809
684.747	0.0171608
684.825	0.0172884
684.904	0.0174255
684.982	0.0173687
685.060	0.0173768
685.138	0.0175069
685.216	0.0176172
685.294	0.0174059
685.372	0.0172644
685.450	0.0168673
685.529	0.0165307
685.607	0.0160785
685.685	0.0157182
685.763	0.0157019
685.841	0.0152605
685.919	0.0153262
685.997	0.0156225
686.075	0.0162045
686.154	0.0167043
686.232	0.0173573
686.310	0.0179933
686.388	0.0188271
686.466	0.0196527
686.544	0.0199760
686.622	0.0202155
686.700	0.0202146
686.779	0.0198814
686.857	0.0193186
686.935	0.0187379
687.013	0.0177666
687.091	0.0169077
687.169	0.0157581
687.247	0.0148503
687.325	0.0136366
687.404	0.0126042
687.482	0.0115912
687.560	0.0107971
687.638	0.00999695
687.716	0.00919975
687.794	0.00845749
687.872	0.00805206
687.950	0.00779785
688.029	0.00767220
688.107	0.00787788
688.185	0.00813690
688.263	0.00898415
688.341	0.00993668
688.419	0.0112341
688.497	0.0124812
688.575	0.0140981
688.654	0.0156157
688.732	0.0171377
688.810	0.0186953
688.888	0.0200359
688.966	0.0212600
689.044	0.0223129
689.122	0.0231705
689.200	0.0237919
689.279	0.0243052
689.357	0.0245646
689.435	0.0246500
689.513	0.0248013
689.591	0.0245294
689.669	0.0240724
689.747	0.0236631
689.825	0.0234502
689.904	0.0229802
689.982	0.0226247
690.060	0.0222841
690.138	0.0218535
690.216	0.0214564
690.294	0.0210944
690.372	0.0205537
690.450	0.0199448
690.529	0.0191443
690.607	0.0185365
690.685	0.0174722
690.763	0.0161223
690.841	0.0147665
690.919	0.0134601
690.997	0.0117822
691.075	0.0101858
691.154	0.00880455
691.232	0.00720345
691.310	0.00577011
691.388	0.00458443
691.466	0.00357368
691.544	0.00288895
691.622	0.00249428
691.700	0.00231941
691.779	0.00258331
691.857	0.00306427
691.935	0.00390610
692.013	0.00475906
692.091	0.00601967
692.169	0.00761093
692.247	0.00956230
692.325	0.0114948
692.404	0.0133717
692.482	0.0154668
692.560	0.0178235
692.638	0.0200012
692.716	0.0221835
692.794	0.0243108
692.872	0.0262766
692.950	0.0279270
693.029	0.0293624
693.107	0.0304135
693.185	0.0310897
693.263	0.0313474
693.341	0.0312029
693.419	0.0307566
693.497	0.0302055
693.575	0.0291652
693.654	0.0280289
693.732	0.0269601
693.810	0.0254904
693.888	0.0238817
693.966	0.0221606
694.044	0.0205077
694.122	0.0186185
694.200	0.0169377
694.279	0.0149902
694.357	0.0131450
694.435	0.0115648
694.513	0.0101319
694.591	0.00880219
694.669	0.00755463
694.747	0.00675949
694.825	0.00580948
694.904	0.00523262
694.982	0.00514793
695.060	0.00494453
695.138	0.00501328
695.216	0.00509506
695.294	0.00553009
695.372	0.00583603
695.450	0.00635895
695.529	0.00707558
695.607	0.00783043
695.685	0.00865471
695.763	0.00957520
695.841	0.0107217
695.919	0.0118625
695.997	0.0130176
696.075	0.0144890
696.154	0.0157986
696.232	0.0170142
696.310	0.0184316
696.388	0.0198335
696.466	0.0212286
696.544	0.0225492
696.622	0.0237131
696.700	0.0248397
696.779	0.0258258
696.857	0.0265208
696.935	0.0268661
697.013	0.0268135
697.091	0.0266661
697.169	0.0264808
697.247	0.0259270
697.325	0.0252735
697.404	0.0245332
697.482	0.0236924
697.560	0.0230461
697.638	0.0220821
697.716	0.0211861
697.794	0.0201862
697.872	0.0191526
697.950	0.0182726
698.029	0.0169352
698.107	0.0159399
698.185	0.0148289
698.263	0.0138689
698.341	0.0128538
698.419	0.0117840
698.497	0.0109579
698.575	0.0100047
698.654	0.00933876
698.732	0.00874245
698.810	0.00805573
698.888	0.00779335
698.966	0.00727478
699.044	0.00686844
699.122	0.00652473
699.200	0.00647682
699.279	0.00639458
699.357	0.00652832
699.435	0.00675117
699.513	0.00738663
699.591	0.00803711
699.669	0.00904991
699.747	0.0102361
699.825	0.0114097
699.904	0.0128421
699.982	0.0142155
700.060	0.0158344
700.138	0.0171798
700.216	0.0186921
700.294	0.0202943
700.372	0.0215161
700.450	0.0230354
700.529	0.0240742
700.607	0.0252187
700.685	0.0259438
700.763	0.0267300
700.841	0.0267921
700.919	0.0270223
700.997	0.0268121
701.075	0.0267208
701.154	0.0259692
701.232	0.0254722
701.310	0.0244707
701.388	0.0236834
701.466	0.0226045
701.544	0.0215177
701.622	0.0204172
701.700	0.0194158
701.779	0.0181950
701.857	0.0170441
701.935	0.0158279
702.013	0.0147523
702.091	0.0135673
702.169	0.0125774
702.247	0.0115701
702.325	0.0107297
702.404	0.00976982
702.482	0.00892258
702.560	0.00833565
702.638	0.00781410
702.716	0.00731941
702.794	0.00718765
702.872	0.00704582
702.950	0.00723984
703.029	0.00771111
703.107	0.00820663
703.185	0.00877663
703.263	0.00978355
703.341	0.0106808
703.419	0.0118801
703.497	0.0131870
703.575	0.0144435
703.654	0.0156255
703.732	0.0166756
703.810	0.0177341
703.888	0.0187943
703.966	0.0195846
704.044	0.0203910
704.122	0.0211189
704.200	0.0216002
704.279	0.0219418
704.357	0.0220292
704.435	0.0221774
704.513	0.0220816
704.591	0.0216277
704.669	0.0212850
704.747	0.0208079
704.825	0.0200086
704.904	0.0195855
704.982	0.0190643
705.060	0.0184473
705.138	0.0180543
705.216	0.0177189
705.294	0.0172931
705.372	0.0171851
705.450	0.0167792
705.529	0.0165314
705.607	0.0165376
705.685	0.0162688
705.763	0.0160748
705.841	0.0156354
705.919	0.0154001
705.997	0.0150216
706.075	0.0143945
706.154	0.0140799
706.232	0.0136760
706.310	0.0131627
706.388	0.0126971
706.466	0.0123380
706.544	0.0121186
706.622	0.0118591
706.700	0.0119196
706.779	0.0117251
706.857	0.0120102
706.935	0.0124741
707.013	0.0127737
707.091	0.0133447
707.169	0.0139021
707.247	0.0145170
707.325	0.0153133
707.404	0.0158417
707.482	0.0166236
707.560	0.0171202
707.638	0.0177609
707.716	0.0181421
707.794	0.0187782
707.872	0.0192622
707.950	0.0195281
708.029	0.0199660
708.107	0.0202760
708.185	0.0202789
708.263	0.0203897
708.341	0.0203261
708.419	0.0202538
708.497	0.0199804
708.575	0.0198639
708.654	0.0194388
708.732	0.0191272
708.810	0.0186030
708.888	0.0183531
708.966	0.0180312
709.044	0.0174740
709.122	0.0170532
709.200	0.0166856
709.279	0.0159558
709.357	0.0155459
709.435	0.0149158
709.513	0.0144054
709.591	0.0139271
709.669	0.0133751
709.747	0.0129183
709.825	0.0125024
709.904	0.0123280
709.982	0.0119016
710.060	0.0116811
710.138	0.0114479
710.216	0.0113422
710.294	0.0112187
710.372	0.0113232
710.450	0.0115607
710.529	0.0120232
710.607	0.0123301
710.685	0.0127362
710.763	0.0133434
710.841	0.0140014
710.919	0.0145871
710.997	0.0152702
711.075	0.0158737
711.154	0.0165504
711.232	0.0171864
711.310	0.0176173
711.388	0.0183289
711.466	0.0189529
711.544	0.0193858
711.622	0.0197456
711.700	0.0201077
711.779	0.0204842
711.857	0.0208329
711.935	0.0209962
712.013	0.0211755
712.091	0.0213609
712.169	0.0213557
712.247	0.0213412
712.325	0.0211950
712.404	0.0206268
712.482	0.0204564
712.560	0.0199708
712.638	0.0193201
712.716	0.0186732
712.794	0.0180727
712.872	0.0172340
712.950	0.0164245
713.029	0.0158912
713.107	0.0150922
713.185	0.0143296
713.263	0.0138433
713.341	0.0132835
713.419	0.0129025
713.497	0.0126131
713.575	0.0121667
713.654	0.0121224
713.732	0.0119709
713.810	0.0116948
713.888	0.0116896
713.966	0.0117884
714.044	0.0117544
714.122	0.0119395
714.200	0.0122401
714.279	0.0123926
714.357	0.0126182
714.435	0.0128668
714.513	0.0132415
714.591	0.0136997
714.669	0.0141190
714.747	0.0146234
714.825	0.0149979
714.904	0.0155679
714.982	0.0161039
715.060	0.0164127
715.138	0.0168678
715.216	0.0174923
715.294	0.0178728
715.372	0.0184731
715.450	0.0189419
715.529	0.0193174
715.607	0.0195927
715.685	0.0199725
715.763	0.0202869
715.841	0.0203957
715.919	0.0204928
715.997	0.0205756
716.075	0.0204652
716.154	0.0202735
716.232	0.0201421
716.310	0.0198351
716.388	0.0195804
716.466	0.0191454
716.544	0.0188333
716.622	0.0183889
716.700	0.0178224
716.779	0.0175239
716.857	0.0169229
716.935	0.0164204
717.013	0.0158311
717.091	0.0152342
717.169	0.0147689
717.247	0.0144052
717.325	0.0138660
717.404	0.0134905
717.482	0.0131339
717.560	0.0128249
717.638	0.0124983
717.716	0.0124324
717.794	0.0123598
717.872	0.0123180
717.950	0.0124320
718.029	0.0125040
718.107	0.0127537
718.185	0.0131733
718.263	0.0134544
718.341	0.0137679
718.419	0.0141350
718.497	0.0145145
718.575	0.0146745
718.654	0.0149732
718.732	0.0153899
718.810	0.0158768
718.888	0.0161530
718.966	0.0164394
719.044	0.0165121
719.122	0.0168938
719.200	0.0172547
719.279	0.0172722
719.357	0.0175411
719.435	0.0178108
719.513	0.0178593
719.591	0.0180948
719.669	0.0180840
719.747	0.0181741
719.825	0.0182255
719.904	0.0182098
719.982	0.0181546
720.060	0.0179501
720.138	0.0180952
720.216	0.0180650
720.294	0.0178782
720.372	0.0178082
720.450	0.0176357
720.529	0.0175269
720.607	0.0174560
720.685	0.0172542
720.763	0.0168782
720.841	0.0168340
720.919	0.0166190
720.997	0.0161533
721.075	0.0159726
721.154	0.0157082
721.232	0.0154282
721.310	0.0150498
721.388	0.0149794
721.466	0.0146799
721.544	0.0146180
721.622	0.0143766
721.700	0.0145395
721.779	0.0144646
721.857	0.0143021
721.935	0.0144051
722.013	0.0146152
722.091	0.0146160
722.169	0.0148341
722.247	0.0151401
722.325	0.0152726
722.404	0.0155978
722.482	0.0160152
722.560	0.0161632
722.638	0.0164122
722.716	0.0167520
722.794	0.0168756
722.872	0.0172298
722.950	0.0172885
723.029	0.0172089
723.107	0.0174521
723.185	0.0172454
723.263	0.0172327
723.341	0.0169279
723.419	0.0169295
723.497	0.0167468
723.575	0.0167012
723.654	0.0164648
723.732	0.0163038
723.810	0.0161739
723.888	0.0161699
723.966	0.0161287
724.044	0.0161430
724.122	0.0160423
724.200	0.0160470
724.279	0.0160560
724.357	0.0161582
724.435	0.0162893
724.513	0.0161235
724.591	0.0162836
724.669	0.0160707
724.747	0.0161889
724.825	0.0160099
724.904	0.0159670
724.982	0.0157708
725.060	0.0156515
725.138	0.0155933
725.216	0.0155920
725.294	0.0155525
725.372	0.0153186
725.450	0.0154349
725.529	0.0153526
725.607	0.0153120
725.685	0.0154044
725.763	0.0153015
725.841	0.0153236
725.919	0.0153655
725.997	0.0154409
726.075	0.0153787
726.154	0.0156348
726.232	0.0157555
726.310	0.0157506
726.388	0.0160536
726.466	0.0161618
726.544	0.0161327
726.622	0.0163422
726.700	0.0165909
726.779	0.0166868
726.857	0.0168844
726.935	0.0166788
727.013	0.0167447
727.091	0.0169936
727.169	0.0168495
727.247	0.0168034
727.325	0.0167192
727.404	0.0166621
727.482	0.0166943
727.560	0.0165569
727.638	0.0165721
727.716	0.0166586
727.794	0.0164920
727.872	0.0163891
727.950	0.0165527
728.029	0.0165549
728.107	0.0165920
728.185	0.0166582
728.263	0.0166312
728.341	0.0168362
728.419	0.0170365
728.497	0.0168463
728.575	0.0169269
728.654	0.0168965
728.732	0.0166238
728.810	0.0166251
728.888	0.0166378
728.966	0.0164254
729.044	0.0164262
729.122	0.0163584
729.200	0.0161385
729.279	0.0159022
729.357	0.0160937
729.435	0.0158955
729.513	0.0157433
729.591	0.0156012
729.669	0.0156216
729.747	0.0156425
729.825	0.0155758
729.904	0.0155376
729.982	0.0155340
730.060	0.0155054
730.138	0.0155753
730.216	0.0157681
730.294	0.0157962
730.372	0.0156421
730.450	0.0156466
730.529	0.0158979
730.607	0.0158848
730.685	0.0159540
730.763	0.0158675
730.841	0.0160039
730.919	0.0159607
730.997	0.0159827
731.075	0.0160477
731.154	0.0160575
731.232	0.0161164
731.310	0.0160501
731.388	0.0160376
731.466	0.0160551
731.544	0.0160829
731.622	0.0159898
731.700	0.0161531
731.779	0.0161342
731.857	0.0161237
731.935	0.0162355
732.013	0.0162043
732.091	0.0163309
732.169	0.0163754
732.247	0.0163725
732.325	0.0164081
732.404	0.0164378
732.482	0.0163590
732.560	0.0163977
732.638	0.0164745
732.716	0.0164909
732.794	0.0165452
732.872	0.0165069
732.950	0.0164913
733.029	0.0163771
733.107	0.0163519
733.185	0.0162886
733.263	0.0163413
733.341	0.0163457
733.419	0.0165561
733.497	0.0163303
733.575	0.0164253
733.654	0.0163164
733.732	0.0165661
733.810	0.0164648
733.888	0.0163737
733.966	0.0164130
734.044	0.0163276
734.122	0.0164123
734.200	0.0161716
734.279	0.0162868
734.357	0.0162808
734.435	0.0162839
734.513	0.0163061
734.591	0.0162589
734.669	0.0162965
734.747	0.0161547
734.825	0.0161089
734.904	0.0161255
734.982	0.0160715
735.060	0.0159857
735.138	0.0161015
735.216	0.0159473
735.294	0.0160468
735.372	0.0159163
735.450	0.0159219
735.529	0.0159628
735.607	0.0159625
735.685	0.0157982
735.763	0.0160070
735.841	0.0159233
735.919	0.0159007
735.997	0.0161005
736.075	0.0159760
736.154	0.0159344
736.232	0.0161181
736.310	0.0161070
736.388	0.0161052
736.466	0.0160812
736.544	0.0160675
736.622	0.0160328
736.700	0.0159392
736.779	0.0161115
736.857	0.0161770
736.935	0.0159715
737.013	0.0159269
737.091	0.0160349
737.169	0.0158389
737.247	0.0160762
737.325	0.0159638
737.404	0.0160973
737.482	0.0161514
737.560	0.0163073
737.638	0.0161265
737.716	0.0161571
737.794	0.0163914
737.872	0.0164783
737.950	0.0165373
738.029	0.0166136
738.107	0.0165287
738.185	0.0164780
738.263	0.0166319
738.341	0.0166283
738.419	0.0165263
738.497	0.0164316
738.575	0.0164888
738.654	0.0163305
738.732	0.0164422
738.810	0.0163017
738.888	0.0162047
738.966	0.0162621
739.044	0.0162598
739.122	0.0160302
739.200	0.0160815
739.279	0.0161292
739.357	0.0161466
739.435	0.0159255
739.513	0.0159619
739.591	0.0161774
739.669	0.0160523
739.747	0.0161475
739.825	0.0161821
739.904	0.0161732
739.982	0.0160997
740.060	0.0162924
740.138	0.0161977
740.216	0.0161307
740.294	0.0162069
740.372	0.0160828
740.450	0.0161960
740.529	0.0161257
740.607	0.0159544
740.685	0.0159626
740.763	0.0158690
740.841	0.0159365
740.919	0.0157285
740.997	0.0157858
741.075	0.0157856
741.154	0.0156998
741.232	0.0156924
741.310	0.0156504
741.388	0.0156139
741.466	0.0157533
741.544	0.0156475
741.622	0.0158510
741.700	0.0159669
741.779	0.0161278
741.857	0.0161234
741.935	0.0163409
742.013	0.0165662
742.091	0.0165713
742.169	0.0167416
742.247	0.0167017
742.325	0.0167477
742.404	0.0167599
742.482	0.0167097
742.560	0.0166870
742.638	0.0167542
742.716	0.0166267
742.794	0.0165887
742.872	0.0164258
742.950	0.0163966
743.029	0.0163301
743.107	0.0162051
743.185	0.0161168
743.263	0.0159135
743.341	0.0158320
743.419	0.0158735
743.497	0.0157713
743.575	0.0157288
743.654	0.0158376
743.732	0.0157623
743.810	0.0155891
743.888	0.0158342
743.966	0.0157343
744.044	0.0157064
744.122	0.0157285
744.200	0.0159048
744.279	0.0159151
744.357	0.0159117
744.435	0.0159544
744.513	0.0160235
744.591	0.0160050
744.669	0.0159164
744.747	0.0160697
744.825	0.0160568
744.904	0.0160723
744.982	0.0161346
745.060	0.0160500
745.138	0.0160586
745.216	0.0161186
745.294	0.0162660
745.372	0.0161906
745.450	0.0163406
745.529	0.0163593
745.607	0.0163802
745.685	0.0164268
745.763	0.0163032
745.841	0.0165031
745.919	0.0164358
745.997	0.0163809
746.075	0.0164686
746.154	0.0165978
746.232	0.0166325
746.310	0.0165044
746.388	0.0164655
746.466	0.0165655
746.544	0.0164984
746.622	0.0165173
746.700	0.0164782
746.779	0.0165766
746.857	0.0164071
746.935	0.0163128
747.013	0.0162263
747.091	0.0162245
747.169	0.0162897
747.247	0.0162704
747.325	0.0161417
747.404	0.0161480
747.482	0.0160575
747.560	0.0159721
747.638	0.0158788
747.716	0.0158522
747.794	0.0157513
747.872	0.0157516
747.950	0.0156943
748.029	0.0156962
748.107	0.0157341
748.185	0.0155934
748.263	0.0155486
748.341	0.0155264
748.419	0.0155791
748.497	0.0157353
748.575	0.0157066
748.654	0.0157887
748.732	0.0157896
748.810	0.0157942
748.888	0.0159923
748.966	0.0159275
749.044	0.0161142
749.122	0.0161453
749.200	0.0160291
749.279	0.0162044
749.357	0.0162460
749.435	0.0163404
749.513	0.0162300
749.591	0.0163429
749.669	0.0163371
749.747	0.0163433
749.825	0.0163157
749.904	0.0164402
749.982	0.0163183
750.060	0.0164700
750.138	0.0164767
750.216	0.0165672
750.294	0.0166107
750.372	0.0166954
750.450	0.0166751
750.529	0.0167720
750.607	0.0166579
750.685	0.0167541
750.763	0.0166948
750.841	0.0165873
750.919	0.0166711
750.997	0.0165437
751.075	0.0164808
751.154	0.0164849
751.232	0.0162725
751.310	0.0162394
751.388	0.0162672
751.466	0.0159808
751.544	0.0160115
751.622	0.0159963
751.700	0.0158678
751.779	0.0158707
751.857	0.0158202
751.935	0.0157924
752.013	0.0156635
752.091	0.0158099
752.169	0.0155661
752.247	0.0156780
752.325	0.0157112
752.404	0.0156647
752.482	0.0160201
752.560	0.0160306
752.638	0.0160725
752.716	0.0162408
752.794	0.0164333
752.872	0.0165035
752.950	0.0164511
753.029	0.0167992
753.107	0.0167222
753.185	0.0167017
753.263	0.0168875
753.341	0.0167580
753.419	0.0167831
753.497	0.0165253
753.575	0.0163997
753.654	0.0163885
753.732	0.0163406
753.810	0.0163232
753.888	0.0162184
753.966	0.0159779
754.044	0.0161165
754.122	0.0160988
754.200	0.0160399
754.279	0.0159958
754.357	0.0159184
754.435	0.0159413
754.513	0.0159766
754.591	0.0160358
754.669	0.0159605
754.747	0.0160121
754.825	0.0160279
754.904	0.0161008
754.982	0.0161179
755.060	0.0161050
755.138	0.0161873
755.216	0.0160929
755.294	0.0159463
755.372	0.0160348
755.450	0.0160041
755.529	0.0159480
755.607	0.0159103
755.685	0.0158201
755.763	0.0158180
755.841	0.0158006
755.919	0.0158729
755.997	0.0157832
756.075	0.0158302
756.154	0.0157870
756.232	0.0159676
756.310	0.0160047
756.388	0.0160293
756.466	0.0159700
756.544	0.0160928
756.622	0.0161572
756.700	0.0162724
756.779	0.0162543
756.857	0.0163645
756.935	0.0164069
757.013	0.0164539
757.091	0.0163761
757.169	0.0164169
757.247	0.0163446
757.325	0.0164351
757.404	0.0164365
757.482	0.0164236
757.560	0.0162823
757.638	0.0164179
757.716	0.0163872
757.794	0.0164255
757.872	0.0164303
757.950	0.0163625
758.029	0.0164098
758.107	0.0163457
758.185	0.0164012
758.263	0.0165018
758.341	0.0163415
758.419	0.0163213
758.497	0.0162673
758.575	0.0162500
758.654	0.0162497
758.732	0.0162399
758.810	0.0161176
758.888	0.0161626
758.966	0.0159929
759.044	0.0159367
759.122	0.0159600
759.200	0.0159106
759.279	0.0157611
759.357	0.0157803
759.435	0.0157140
759.513	0.0156612
759.591	0.0156997
759.669	0.0156632
759.747	0.0159035
759.825	0.0157021
759.904	0.0158515
759.982	0.0158543
760.060	0.0158303
760.138	0.0157966
760.216	0.0160074
760.294	0.0158784
760.372	0.0160267
760.450	0.0159679
760.529	0.0160832
760.607	0.0161021
760.685	0.0160965
760.763	0.0160665
760.841	0.0162358
760.919	0.0163560
760.997	0.0163979
761.075	0.0164314
761.154	0.0164568
761.232	0.0165515
761.310	0.0166327
761.388	0.0166688
761.466	0.0166905
761.544	0.0167081
761.622	0.0167044
761.700	0.0168047
761.779	0.0165692
761.857	0.0164066
761.935	0.0164847
762.013	0.0164777
762.091	0.0164504
762.169	0.0162059
762.247	0.0162727
762.325	0.0161289
762.404	0.0161014
762.482	0.0161047
762.560	0.0159630
762.638	0.0158684
762.716	0.0157755
762.794	0.0158254
762.872	0.0157437
762.950	0.0156914
763.029	0.0158233
763.107	0.0156415
763.185	0.0156234
763.263	0.0157555
763.341	0.0157283
763.419	0.0158568
763.497	0.0157407
763.575	0.0156880
763.654	0.0156989
763.732	0.0157268
763.810	0.0157741
763.888	0.0156892
763.966	0.0159036
764.044	0.0159510
764.122	0.0158521
764.200	0.0160162
764.279	0.0161283
764.357	0.0161459
764.435	0.0159846
764.513	0.0161813
764.591	0.0163306
764.669	0.0162338
764.747	0.0163352
764.825	0.0163198
764.904	0.0164411
764.982	0.0165018
765.060	0.0165922
765.138	0.0166520
765.216	0.0167031
765.294	0.0166702
765.372	0.0166608
765.450	0.0167770
765.529	0.0168094
765.607	0.0166519
765.685	0.0167726
765.763	0.0166071
765.841	0.0164429
765.919	0.0165865
765.997	0.0166391
766.075	0.0163228
766.154	0.0162730
766.232	0.0161716
766.310	0.0160045
766.388	0.0159589
766.466	0.0158549
766.544	0.0157614
766.622	0.0158484
766.700	0.0156519
766.779	0.0156617
766.857	0.0156579
766.935	0.0156898
767.013	0.0156057
767.091	0.0155923
767.169	0.0157078
767.247	0.0158157
767.325	0.0158555
767.404	0.0157642
767.482	0.0157844
767.560	0.0157775
767.638	0.0158702
767.716	0.0159399
767.794	0.0159660
767.872	0.0159760
767.950	0.0159791
768.029	0.0161131
768.107	0.0160314
768.185	0.0160605
768.263	0.0161282
768.341	0.0162299
768.419	0.0160983
768.497	0.0160535
768.575	0.0162088
768.654	0.0161749
768.732	0.0161243
768.810	0.0162408
768.888	0.0161582
768.966	0.0161819
769.044	0.0162227
769.122	0.0163680
769.200	0.0164623
769.279	0.0165311
769.357	0.0167521
769.435	0.0165992
769.513	0.0166124
769.591	0.0167187
769.669	0.0166978
769.747	0.0169224
769.825	0.0168938
769.904	0.0167446
769.982	0.0168114
770.060	0.0167031
770.138	0.0166219
770.216	0.0166949
770.294	0.0166635
770.372	0.0164208
770.450	0.0163900
770.529	0.0163158
770.607	0.0161326
770.685	0.0160845
770.763	0.0159782
770.841	0.0158694
770.919	0.0158932
770.997	0.0157710
771.075	0.0157523
771.154	0.0158088
771.232	0.0156243
771.310	0.0156214
771.388	0.0157436
771.466	0.0157520
771.544	0.0156689
771.622	0.0156172
771.700	0.0157169
771.779	0.0156483
771.857	0.0157861
771.935	0.0157179
772.013	0.0157883
772.091	0.0159214
772.169	0.0158996
772.247	0.0158305
772.325	0.0159209
772.404	0.0159719
772.482	0.0160047
772.560	0.0159521
772.638	0.0160463
772.716	0.0161696
772.794	0.0160815
772.872	0.0163086
772.950	0.0163038
773.029	0.0163388
773.107	0.0164684
773.185	0.0163824
773.263	0.0165726
773.341	0.0167293
773.419	0.0166251
773.497	0.0168204
773.575	0.0167979
773.654	0.0168446
773.732	0.0168426
773.810	0.0168295
773.888	0.0168494
773.966	0.0168489
774.044	0.0167868
774.122	0.0166375
774.200	0.0166468
774.279	0.0164496
774.357	0.0164265
774.435	0.0164252
774.513	0.0163063
774.591	0.0162383
774.669	0.0161163
774.747	0.0158939
774.825	0.0158509
774.904	0.0158525
774.982	0.0156902
775.060	0.0156810
775.138	0.0156095
775.216	0.0155435
775.294	0.0155199
775.372	0.0155762
775.450	0.0154977
775.529	0.0156707
775.607	0.0154944
775.685	0.0157000
775.763	0.0157319
775.841	0.0157301
775.919	0.0159532
775.997	0.0158765
776.075	0.0160154
776.154	0.0161266
776.232	0.0162421
776.310	0.0162283
776.388	0.0162770
776.466	0.0162843
776.544	0.0165092
776.622	0.0165218
776.700	0.0165499
776.779	0.0164928
776.857	0.0165331
776.935	0.0166009
777.013	0.0165942
777.091	0.0165766
777.169	0.0165456
777.247	0.0165089
777.325	0.0164597
777.404	0.0165892
777.482	0.0165185
777.560	0.0165746
777.638	0.0164796
777.716	0.0166195
777.794	0.0166689
777.872	0.0166820
777.950	0.0166508
778.029	0.0165986
778.107	0.0167300
778.185	0.0166311
778.263	0.0165099
778.341	0.0164989
778.419	0.0165675
778.497	0.0163236
778.575	0.0162904
778.654	0.0162369
778.732	0.0162771
778.810	0.0160754
778.888	0.0159022
778.966	0.0158387
779.044	0.0157597
779.122	0.0157056
779.200	0.0155972
779.279	0.0155080
779.357	0.0155357
779.435	0.0156718
779.513	0.0155507
779.591	0.0154160
779.669	0.0155287
779.747	0.0155476
779.825	0.0155315
779.904	0.0156261
779.982	0.0156839
780.060	0.0157504
780.138	0.0157785
780.216	0.0157624
780.294	0.0157663
780.372	0.0159173
780.450	0.0160091
780.529	0.0161047
780.607	0.0160478
780.685	0.0160631
780.763	0.0160227
780.841	0.0160862
780.919	0.0160684
780.997	0.0161081
781.075	0.0161855
781.154	0.0161562
781.232	0.0161642
781.310	0.0163323
781.388	0.0164485
781.466	0.0163875
781.544	0.0163347
781.622	0.0163427
781.700	0.0164365
781.779	0.0165828
781.857	0.0166589
781.935	0.0166675
782.013	0.0167230
782.091	0.0167892
782.169	0.0167873
782.247	0.0166703
782.325	0.0167830
782.404	0.0167848
782.482	0.0167583
782.560	0.0167965
782.638	0.0167741
782.716	0.0166560
782.794	0.0165940
782.872	0.0164590
782.950	0.0165081
783.029	0.0163510
783.107	0.0161694
783.185	0.0162449
783.263	0.0161475
783.341	0.0159138
783.419	0.0158966
783.497	0.0157830
783.575	0.0157561
783.654	0.0155548
783.732	0.0155195
783.810	0.0154035
783.888	0.0154485
783.966	0.0153167
784.044	0.0153467
784.122	0.0154080
784.200	0.0154213
784.279	0.0154005
784.357	0.0154746
784.435	0.0154756
784.513	0.0155337
784.591	0.0155172
784.669	0.0157333
784.747	0.0156562
784.825	0.0158272
784.904	0.0157314
784.982	0.0159589
785.060	0.0159351
785.138	0.0159564
785.216	0.0160084
785.294	0.0161743
785.372	0.0160261
785.450	0.0162801
785.529	0.0162841
785.607	0.0162702
785.685	0.0164143
785.763	0.0166412
785.841	0.0166811
785.919	0.0165804
785.997	0.0166348
786.075	0.0169127
786.154	0.0169818
786.232	0.0169978
786.310	0.0170634
786.388	0.0171023
786.466	0.0171482
786.544	0.0170677
786.622	0.0171267
786.700	0.0170589
786.779	0.0168713
786.857	0.0167519
786.935	0.0167251
787.013	0.0165672
787.091	0.0165469
787.169	0.0163129
787.247	0.0162152
787.325	0.0159869
787.404	0.0157766
787.482	0.0156160
787.560	0.0154801
787.638	0.0153722
787.716	0.0153407
787.794	0.0152824
787.872	0.0151596
787.950	0.0151080
788.029	0.0148431
788.107	0.0149236
788.185	0.0149123
788.263	0.0147937
788.341	0.0148077
788.419	0.0149199
788.497	0.0149055
788.575	0.0149982
788.654	0.0151726
788.732	0.0151526
788.810	0.0152162
788.888	0.0155373
788.966	0.0155800
789.044	0.0158463
789.122	0.0159040
789.200	0.0163386
789.279	0.0164023
789.357	0.0164777
789.435	0.0165547
789.513	0.0169417
789.591	0.0170755
789.669	0.0172308
789.747	0.0174406
789.825	0.0174662
789.904	0.0175768
789.982	0.0174442
790.060	0.0177082
790.138	0.0175404
790.216	0.0176684
790.294	0.0176157
790.372	0.0175780
790.450	0.0173183
790.529	0.0173483
790.607	0.0173116
790.685	0.0170425
790.763	0.0169953
790.841	0.0168620
790.919	0.0166689
790.997	0.0164374
791.075	0.0164127
791.154	0.0162231
791.232	0.0161225
791.310	0.0160336
791.388	0.0158791
791.466	0.0157087
791.544	0.0154910
791.622	0.0153687
791.700	0.0151785
791.779	0.0151334
791.857	0.0149648
791.935	0.0149636
792.013	0.0149534
792.091	0.0149270
792.169	0.0146560
792.247	0.0148676
792.325	0.0147218
792.404	0.0149365
792.482	0.0151507
792.560	0.0151015
792.638	0.0152068
792.716	0.0152382
792.794	0.0153721
792.872	0.0156322
792.950	0.0157703
793.029	0.0160893
793.107	0.0161984
793.185	0.0163198
793.263	0.0166034
793.341	0.0168097
793.419	0.0168491
793.497	0.0170490
793.575	0.0172206
793.654	0.0172174
793.732	0.0174905
793.810	0.0174770
793.888	0.0175982
793.966	0.0176421
794.044	0.0175684
794.122	0.0174631
794.200	0.0174824
794.279	0.0175248
794.357	0.0174082
794.435	0.0172812
794.513	0.0169927
794.591	0.0170068
794.669	0.0166508
794.747	0.0166880
794.825	0.0164581
794.904	0.0164203
794.982	0.0163489
795.060	0.0160789
795.138	0.0158776
795.216	0.0159487
795.294	0.0158619
795.372	0.0155726
795.450	0.0155506
795.529	0.0153985
795.607	0.0154302
795.685	0.0152853
795.763	0.0151534
795.841	0.0152129
795.919	0.0151150
795.997	0.0152184
796.075	0.0151032
796.154	0.0152171
796.232	0.0151065
796.310	0.0151659
796.388	0.0153468
796.466	0.0153963
796.544	0.0154398
796.622	0.0155357
796.700	0.0157523
796.779	0.0158923
796.857	0.0159671
796.935	0.0162970
797.013	0.0160696
797.091	0.0163672
797.169	0.0164837
797.247	0.0166845
797.325	0.0168156
797.404	0.0167660
797.482	0.0168808
797.560	0.0169933
797.638	0.0170931
797.716	0.0171364
797.794	0.0169943
797.872	0.0170275
797.950	0.0169866
798.029	0.0169962
798.107	0.0168402
798.185	0.0168165
798.263	0.0165765
798.341	0.0167314
798.419	0.0166792
798.497	0.0165323
798.575	0.0164660
798.654	0.0163782
798.732	0.0163451
798.810	0.0163023
798.888	0.0163512
798.966	0.0163019
799.044	0.0161171
799.122	0.0161415
799.200	0.0160433
799.279	0.0160950
799.357	0.0159673
799.435	0.0160522
799.513	0.0159827
799.591	0.0160484
799.669	0.0159689
799.747	0.0158215
799.825	0.0158289
799.904	0.0158537
799.982	0.0157545
800.060	0.0156978
800.138	0.0156879
800.216	0.0154783
800.294	0.0155468
800.372	0.0156760
800.450	0.0155859
800.529	0.0155747
800.607	0.0157440
800.685	0.0157200
800.763	0.0156888
800.841	0.0156956
800.919	0.0159219
800.997	0.0159199
801.075	0.0160155
801.154	0.0161040
801.232	0.0161314
801.310	0.0163435
801.388	0.0163538
801.466	0.0163708
801.544	0.0164946
801.622	0.0164824
801.700	0.0165466
801.779	0.0163705
801.857	0.0165004
801.935	0.0165623
802.013	0.0166354
802.091	0.0166924
802.169	0.0165103
802.247	0.0165543
802.325	0.0167137
802.404	0.0164877
802.482	0.0164562
802.560	0.0163789
802.638	0.0164329
802.716	0.0164377
802.794	0.0164117
802.872	0.0165100
802.950	0.0162840
803.029	0.0161497
803.107	0.0162618
803.185	0.0161543
803.263	0.0161384
803.341	0.0160773
803.419	0.0160741
803.497	0.0161855
803.575	0.0161744
803.654	0.0160849
803.732	0.0159148
803.810	0.0159863
803.888	0.0160320
803.966	0.0158405
804.044	0.0159151
804.122	0.0158482
804.200	0.0158714
804.279	0.0157946
804.357	0.0159429
804.435	0.0160019
804.513	0.0158686
804.591	0.0158180
804.669	0.0158575
804.747	0.0161396
804.825	0.0161922
804.904	0.0160602
804.982	0.0161139
805.060	0.0161834
805.138	0.0162741
805.216	0.0163240
805.294	0.0163284
805.372	0.0163093
805.450	0.0163082
805.529	0.0163989
805.607	0.0163647
805.685	0.0163884
805.763	0.0162357
805.841	0.0162557
805.919	0.0164142
805.997	0.0163544
806.075	0.0162298
806.154	0.0162151
806.232	0.0160996
806.310	0.0161160
806.388	0.0160318
806.466	0.0161632
806.544	0.0160763
806.622	0.0160435
806.700	0.0160801
806.779	0.0160383
806.857	0.0161483
806.935	0.0161039
807.013	0.0161026
807.091	0.0162563
807.169	0.0162685
807.247	0.0163506
807.325	0.0163705
807.404	0.0162614
807.482	0.0162338
807.560	0.0163123
807.638	0.0164823
807.716	0.0165039
807.794	0.0163555
807.872	0.0165711
807.950	0.0164314
808.029	0.0163607
808.107	0.0163667
808.185	0.0163518
808.263	0.0162888
808.341	0.0163904
808.419	0.0163263
808.497	0.0162419
808.575	0.0161601
808.654	0.0161436
808.732	0.0161578
808.810	0.0160925
808.888	0.0161069
808.966	0.0161797
809.044	0.0160574
809.122	0.0160767
809.200	0.0161209
809.279	0.0160694
809.357	0.0161007
809.435	0.0160265
809.513	0.0159541
809.591	0.0160527
809.669	0.0160065
809.747	0.0159511
809.825	0.0158507
809.904	0.0159232
809.982	0.0159971
810.060	0.0159985
810.138	0.0160535
810.216	0.0160020
810.294	0.0159301
810.372	0.0158724
810.450	0.0160315
810.529	0.0160627
810.607	0.0159536
810.685	0.0161469
810.763	0.0161409
810.841	0.0161289
810.919	0.0162093
810.997	0.0161123
811.075	0.0161227
811.154	0.0163301
811.232	0.0164938
811.310	0.0162251
811.388	0.0164237
811.466	0.0164977
811.544	0.0165286
811.622	0.0164047
811.700	0.0163688
811.779	0.0165703
811.857	0.0163756
811.935	0.0164374
812.013	0.0163189
812.091	0.0162281
812.169	0.0163748
812.247	0.0163796
812.325	0.0163912
812.404	0.0164394
812.482	0.0162357
812.560	0.0162493
812.638	0.0162088
812.716	0.0162637
812.794	0.0162833
812.872	0.0163026
812.950	0.0161719
813.029	0.0161806
813.107	0.0160609
813.185	0.0161276
813.263	0.0161684
813.341	0.0160658
813.419	0.0160710
813.497	0.0160888
813.575	0.0160536
813.654	0.0159538
813.732	0.0159116
813.810	0.0159801
813.888	0.0160333
813.966	0.0161801
814.044	0.0158857
814.122	0.0161534
814.200	0.0159216
814.279	0.0160123
814.357	0.0160848
814.435	0.0159777
814.513	0.0159999
814.591	0.0160093
814.669	0.0158363
814.747	0.0158889
814.825	0.0161018
814.904	0.0161205
814.982	0.0161083
815.060	0.0161996
815.138	0.0163409
815.216	0.0163521
815.294	0.0164119
815.372	0.0163741
815.450	0.0164923
815.529	0.0163764
815.607	0.0164355
815.685	0.0164774
815.763	0.0164558
815.841	0.0163794
815.919	0.0165661
815.997	0.0164664
816.075	0.0164779
816.154	0.0165617
816.232	0.0164217
816.310	0.0163433
816.388	0.0164665
816.466	0.0165717
816.544	0.0163812
816.622	0.0164085
816.700	0.0163775
816.779	0.0162685
816.857	0.0163536
816.935	0.0164881
817.013	0.0164977
817.091	0.0163383
817.169	0.0159650
817.247	0.0163041
817.325	0.0161677
817.404	0.0159966
817.482	0.0161465
817.560	0.0159216
817.638	0.0158595
817.716	0.0159654
817.794	0.0157810
817.872	0.0158250
817.950	0.0158109
818.029	0.0157746
818.107	0.0158034
818.185	0.0157883
818.263	0.0159754
818.341	0.0158604
818.419	0.0159237
818.497	0.0159056
818.575	0.0160007
818.654	0.0160089
818.732	0.0159923
818.810	0.0160022
818.888	0.0160207
818.966	0.0161754
819.044	0.0163689
819.122	0.0162555
819.200	0.0163041
819.279	0.0166017
819.357	0.0166039
819.435	0.0166881
819.513	0.0166267
819.591	0.0164656
819.669	0.0163042
819.747	0.0165907
819.825	0.0165991
819.904	0.0165100
819.982	0.0164336
820.060	0.0163997
820.138	0.0163217
820.216	0.0162481
820.294	0.0163203
820.372	0.0161565
820.450	0.0161810
820.529	0.0161739
820.607	0.0161904
820.685	0.0161810
820.763	0.0161438
820.841	0.0161564
820.919	0.0160546
820.997	0.0160350
821.075	0.0161056
821.154	0.0159791
821.232	0.0160253
821.310	0.0160517
821.388	0.0159790
821.466	0.0159084
821.544	0.0159546
821.622	0.0159242
821.700	0.0157927
821.779	0.0158379
821.857	0.0159151
821.935	0.0158942
822.013	0.0158295
822.091	0.0158462
822.169	0.0157953
822.247	0.0159390
822.325	0.0159316
822.404	0.0161162
822.482	0.0161544
822.560	0.0162994
822.638	0.0163918
822.716	0.0163031
822.794	0.0163335
822.872	0.0164739
822.950	0.0167130
823.029	0.0166781
823.107	0.0166814
823.185	0.0167531
823.263	0.0167542
823.341	0.0167457
823.419	0.0166692
823.497	0.0166275
823.575	0.0166167
823.654	0.0166639
823.732	0.0164592
823.810	0.0163527
823.888	0.0164068
823.966	0.0161967
824.044	0.0163235
824.122	0.0162313
824.200	0.0160513
824.279	0.0160908
824.357	0.0160387
824.435	0.0161185
824.513	0.0161370
824.591	0.0161271
824.669	0.0161305
824.747	0.0160609
824.825	0.0161629
824.904	0.0162126
824.982	0.0161890
825.060	0.0162926
825.138	0.0160356
825.216	0.0162744
825.294	0.0162157
825.372	0.0161768
825.450	0.0160715
825.529	0.0161812
825.607	0.0160982
825.685	0.0161378
825.763	0.0161320
825.841	0.0158945
825.919	0.0160605
825.997	0.0159557
826.075	0.0160115
826.154	0.0160201
826.232	0.0159622
826.310	0.0159753
826.388	0.0160207
826.466	0.0159949
826.544	0.0159286
826.622	0.0159775
826.700	0.0159892
826.779	0.0159299
826.857	0.0160208
826.935	0.0161440
827.013	0.0161634
827.091	0.0162324
827.169	0.0161073
827.247	0.0161341
827.325	0.0162089
827.404	0.0162197
827.482	0.0160953
827.560	0.0161367
827.638	0.0161333
827.716	0.0161809
827.794	0.0162199
827.872	0.0163454
827.950	0.0164281
828.029	0.0162888
828.107	0.0163776
828.185	0.0163689
828.263	0.0163688
828.341	0.0163748
828.419	0.0163245
828.497	0.0165878
828.575	0.0164063
828.654	0.0163355
828.732	0.0163287
828.810	0.0162939
828.888	0.0162824
828.966	0.0162617
829.044	0.0163543
829.122	0.0160899
829.200	0.0161307
829.279	0.0161946
829.357	0.0162312
829.435	0.0161875
829.513	0.0160421
829.591	0.0162103
829.669	0.0162240
829.747	0.0160519
829.825	0.0161571
829.904	0.0162138
829.982	0.0161739
830.060	0.0162129
830.138	0.0162160
830.216	0.0161488
830.294	0.0161892
830.372	0.0162116
830.450	0.0162128
830.529	0.0161405
830.607	0.0162082
830.685	0.0161805
830.763	0.0160294
830.841	0.0160600
830.919	0.0161657
830.997	0.0160593
831.075	0.0159686
831.154	0.0160337
831.232	0.0161941
831.310	0.0161401
831.388	0.0161576
831.466	0.0160552
831.544	0.0160499
831.622	0.0162239
831.700	0.0160943
831.779	0.0162602
831.857	0.0161382
831.935	0.0160696
832.013	0.0161404
832.091	0.0163481
832.169	0.0161689
832.247	0.0162093
832.325	0.0162067
832.404	0.0162273
832.482	0.0162614
832.560	0.0162299
832.638	0.0162921
832.716	0.0163269
832.794	0.0163666
832.872	0.0163685
832.950	0.0162998
833.029	0.0161640
833.107	0.0161879
833.185	0.0162898
833.263	0.0163056
833.341	0.0162880
833.419	0.0161995
833.497	0.0163052
833.575	0.0161128
833.654	0.0162355
833.732	0.0162511
833.810	0.0160818
833.888	0.0160397
833.966	0.0161149
834.044	0.0161003
834.122	0.0159759
834.200	0.0161742
834.279	0.0161578
834.357	0.0159874
834.435	0.0160340
834.513	0.0160493
834.591	0.0161930
834.669	0.0159835
834.747	0.0160909
834.825	0.0160625
834.904	0.0161423
834.982	0.0160677
835.060	0.0161189
835.138	0.0161870
835.216	0.0162060
835.294	0.0161040
835.372	0.0161065
835.450	0.0162069
835.529	0.0162341
835.607	0.0160692
835.685	0.0162313
835.763	0.0161496
835.841	0.0162772
835.919	0.0162360
835.997	0.0162280
836.075	0.0161505
836.154	0.0162213
836.232	0.0160749
836.310	0.0161914
836.388	0.0161814
836.466	0.0162520
836.544	0.0160385
836.622	0.0161401
836.700	0.0160682
836.779	0.0160113
836.857	0.0161231
836.935	0.0159914
837.013	0.0160875
837.091	0.0161851
837.169	0.0161102
837.247	0.0160938
837.325	0.0161176
837.404	0.0161065
837.482	0.0162514
837.560	0.0161154
837.638	0.0162557
837.716	0.0162268
837.794	0.0161124
837.872	0.0162932
837.950	0.0162132
838.029	0.0161996
838.107	0.0162292
838.185	0.0162725
838.263	0.0161701
838.341	0.0160931
838.419	0.0162845
838.497	0.0161415
838.575	0.0161916
838.654	0.0162690
838.732	0.0161604
838.810	0.0162702
838.888	0.0163126
838.966	0.0162585
839.044	0.0162682
839.122	0.0161803
839.200	0.0161935
839.279	0.0163573
839.357	0.0163144
839.435	0.0163602
839.513	0.0162641
839.591	0.0162224
839.669	0.0160597
839.747	0.0160468
839.825	0.0161201
839.904	0.0160729
839.982	0.0160773
840.060	0.0161256
840.138	0.0161488
840.216	0.0160819
840.294	0.0160622
840.372	0.0160750
840.450	0.0160767
840.529	0.0161312
840.607	0.0161175
840.685	0.0160374
840.763	0.0160544
840.841	0.0160236
840.919	0.0161388
840.997	0.0161965
841.075	0.0162358
841.154	0.0161681
841.232	0.0161262
841.310	0.0159992
841.388	0.0162395
841.466	0.0162138
841.544	0.0161115
841.622	0.0161408
841.700	0.0161599
841.779	0.0160404
841.857	0.0161017
841.935	0.0160965
842.013	0.0161434
842.091	0.0162287
842.169	0.0161287
842.247	0.0160779
842.325	0.0160774
842.404	0.0160960
842.482	0.0160576
842.560	0.0160807
842.638	0.0163168
842.716	0.0162319
842.794	0.0163078
842.872	0.0162496
842.950	0.0163603
843.029	0.0161050
843.107	0.0162722
843.185	0.0162843
843.263	0.0162995
843.341	0.0163498
843.419	0.0162202
843.497	0.0163168
843.575	0.0163724
843.654	0.0163171
843.732	0.0162320
843.810	0.0161797
843.888	0.0161500
843.966	0.0161225
844.044	0.0162135
844.122	0.0161045
844.200	0.0160183
844.279	0.0160948
844.357	0.0161134
844.435	0.0160912
844.513	0.0161127
844.591	0.0160726
844.669	0.0160686
844.747	0.0160523
844.825	0.0160823
844.904	0.0159967
844.982	0.0161068
845.060	0.0161066
845.138	0.0161779
845.216	0.0161605
845.294	0.0162005
845.372	0.0160709
845.450	0.0160913
845.529	0.0160298
845.607	0.0160554
845.685	0.0160069
845.763	0.0161459
845.841	0.0160480
845.919	0.0159097
845.997	0.0160716
846.075	0.0160775
846.154	0.0160464
846.232	0.0161201
846.310	0.0162618
846.388	0.0161378
846.466	0.0162118
846.544	0.0164401
846.622	0.0163225
846.700	0.0162906
846.779	0.0163892
846.857	0.0164975
846.935	0.0162244
847.013	0.0163462
847.091	0.0163483
847.169	0.0163380
847.247	0.0163660
847.325	0.0161977
847.404	0.0162921
847.482	0.0161900
847.560	0.0161384
847.638	0.0160677
847.716	0.0161194
847.794	0.0161324
847.872	0.0158671
847.950	0.0159608
848.029	0.0160207
848.107	0.0160117
848.185	0.0160528
848.263	0.0159896
848.341	0.0159653
848.419	0.0160971
848.497	0.0159032
848.575	0.0159541
848.654	0.0161794
848.732	0.0161258
848.810	0.0161449
848.888	0.0161176
848.966	0.0161610
849.044	0.0159579
849.122	0.0162162
849.200	0.0161487
849.279	0.0161746
849.357	0.0160571
849.435	0.0160787
849.513	0.0160923
849.591	0.0160276
849.669	0.0160335
849.747	0.0160588
849.825	0.0160696
849.904	0.0160600
849.982	0.0158978
850.060	0.0160816
850.138	0.0162273
850.216	0.0160509
850.294	0.0160773
850.372	0.0161201
850.450	0.0162252
850.529	0.0163067
850.607	0.0161522
850.685	0.0161575
850.763	0.0162417
850.841	0.0161504
850.919	0.0161878
850.997	0.0162208
851.075	0.0160620
851.154	0.0161604
851.232	0.0160107
851.310	0.0159969
851.388	0.0160192
851.466	0.0161514
851.544	0.0160348
851.622	0.0160058
851.700	0.0160055
851.779	0.0161365
851.857	0.0161420
851.935	0.0160806
852.013	0.0161150
852.091	0.0162570
852.169	0.0162418
852.247	0.0161419
852.325	0.0161967
852.404	0.0162829
852.482	0.0162444
852.560	0.0162944
852.638	0.0161812
852.716	0.0161858
852.794	0.0162805
852.872	0.0161747
852.950	0.0162729
853.029	0.0161858
853.107	0.0161777
853.185	0.0161450
853.263	0.0162627
853.341	0.0160606
853.419	0.0160902
853.497	0.0159900
853.575	0.0158727
853.654	0.0160221
853.732	0.0159557
853.810	0.0159563
853.888	0.0159824
853.966	0.0160760
854.044	0.0160664
854.122	0.0161932
854.200	0.0161221
854.279	0.0162041
854.357	0.0162594
854.435	0.0163351
854.513	0.0163715
854.591	0.0161722
854.669	0.0162066
854.747	0.0163425
854.825	0.0161051
854.904	0.0161339
854.982	0.0161725
855.060	0.0162532
855.138	0.0162337
855.216	0.0162315
855.294	0.0161573
855.372	0.0161274
855.450	0.0162443
855.529	0.0163187
855.607	0.0162945
855.685	0.0161327
855.763	0.0162197
855.841	0.0162472
855.919	0.0161592
855.997	0.0163108
856.075	0.0162565
856.154	0.0162463
856.232	0.0163650
856.310	0.0161778
856.388	0.0161693
856.466	0.0161587
856.544	0.0162195
856.622	0.0162338
856.700	0.0162032
856.779	0.0161272
856.857	0.0162584
856.935	0.0159554
857.013	0.0162144
857.091	0.0162092
857.169	0.0160859
857.247	0.0160391
857.325	0.0160709
857.404	0.0161449
857.482	0.0159958
857.560	0.0159972
857.638	0.0161792
857.716	0.0161272
857.794	0.0161665
857.872	0.0161539
857.950	0.0161011
858.029	0.0160522
858.107	0.0161526
858.185	0.0161329
858.263	0.0161024
858.341	0.0160258
858.419	0.0159534
858.497	0.0159342
858.575	0.0161271
858.654	0.0161027
858.732	0.0160145
858.810	0.0159515
858.888	0.0159193
858.966	0.0159684
859.044	0.0161881
859.122	0.0162200
859.200	0.0161621
859.279	0.0162170
859.357	0.0161427
859.435	0.0161417
859.513	0.0161548
859.591	0.0162582
859.669	0.0161518
859.747	0.0162537
859.825	0.0162048
859.904	0.0162556
859.982	0.0163157
860.060	0.0161801
860.138	0.0161420
860.216	0.0162518
860.294	0.0163546
860.372	0.0162669
860.450	0.0162751
860.529	0.0162590
860.607	0.0162141
860.685	0.0163166
860.763	0.0162390
860.841	0.0162220
860.919	0.0162435
860.997	0.0163292
861.075	0.0162132
861.154	0.0162630
861.232	0.0161932
861.310	0.0162642
861.388	0.0162551
861.466	0.0161247
861.544	0.0160995
861.622	0.0160040
861.700	0.0159539
861.779	0.0162119
861.857	0.0160506
861.935	0.0160798
862.013	0.0159610
862.091	0.0159985
862.169	0.0161723
862.247	0.0159914
862.325	0.0158727
862.404	0.0159589
862.482	0.0160207
862.560	0.0160536
862.638	0.0158839
862.716	0.0159612
862.794	0.0159238
862.872	0.0158677
862.950	0.0159092
863.029	0.0160013
863.107	0.0159186
863.185	0.0158600
863.263	0.0161060
863.341	0.0161198
863.419	0.0160430
863.497	0.0160693
863.575	0.0162191
863.654	0.0162429
863.732	0.0162751
863.810	0.0163367
863.888	0.0163206
863.966	0.0161258
864.044	0.0163145
864.122	0.0164046
864.200	0.0162862
864.279	0.0163409
864.357	0.0163912
864.435	0.0163020
864.513	0.0163421
864.591	0.0163645
864.669	0.0162751
864.747	0.0162173
864.825	0.0162972
864.904	0.0163316
864.982	0.0163295
865.060	0.0163250
865.138	0.0163324
865.216	0.0162613
865.294	0.0162747
865.372	0.0162167
865.450	0.0162469
865.529	0.0161436
865.607	0.0161702
865.685	0.0161491
865.763	0.0162386
865.841	0.0160603
865.919	0.0160352
865.997	0.0161020
866.075	0.0159998
866.154	0.0159216
866.232	0.0160810
866.310	0.0160748
866.388	0.0160139
866.466	0.0161298
866.544	0.0159969
866.622	0.0159805
866.700	0.0158411
866.779	0.0159001
866.857	0.0159759
866.935	0.0158687
867.013	0.0159338
867.091	0.0160296
867.169	0.0160467
867.247	0.0157261
867.325	0.0159381
867.404	0.0159743
867.482	0.0160867
867.560	0.0161316
867.638	0.0159179
867.716	0.0160445
867.794	0.0160950
867.872	0.0160905
867.950	0.0160232
868.029	0.0160538
868.107	0.0159782
868.185	0.0160741
868.263	0.0160329
868.341	0.0161349
868.419	0.0161861
868.497	0.0162376
868.575	0.0162705
868.654	0.0163812
868.732	0.0162893
868.810	0.0164685
868.888	0.0163798
868.966	0.0163125
869.044	0.0163306
869.122	0.0162830
869.200	0.0164710
869.279	0.0163158
869.357	0.0162389
869.435	0.0162231
869.513	0.0165313
869.591	0.0163406
869.669	0.0161855
869.747	0.0162859
869.825	0.0161877
869.904	0.0163184
869.982	0.0161510
870.060	0.0162672
870.138	0.0162550
870.216	0.0162347
870.294	0.0161839
870.372	0.0160869
870.450	0.0159852
870.529	0.0161727
870.607	0.0160869
870.685	0.0160487
870.763	0.0162447
870.841	0.0160033
870.919	0.0160407
870.997	0.0161656
871.075	0.0162451
871.154	0.0160211
871.232	0.0160577
871.310	0.0160612
871.388	0.0161068
871.466	0.0159685
871.544	0.0159701
871.622	0.0159811
871.700	0.0159166
871.779	0.0159782
871.857	0.0159567
871.935	0.0159848
872.013	0.0160186
872.091	0.0160834
872.169	0.0161801
872.247	0.0161817
872.325	0.0161546
872.404	0.0163082
872.482	0.0163415
872.560	0.0163615
872.638	0.0163168
872.716	0.0161671
872.794	0.0162680
872.872	0.0162073
872.950	0.0163913
873.029	0.0162560
873.107	0.0162903
873.185	0.0162071
873.263	0.0163074
873.341	0.0163086
873.419	0.0161966
873.497	0.0162680
873.575	0.0164261
873.654	0.0163493
873.732	0.0165307
873.810	0.0165135
873.888	0.0164337
873.966	0.0163789
874.044	0.0165138
874.122	0.0163281
874.200	0.0162925
874.279	0.0162926
874.357	0.0162997
874.435	0.0162401
874.513	0.0159390
874.591	0.0161317
874.669	0.0160890
874.747	0.0159669
874.825	0.0159043
874.904	0.0160799
874.982	0.0161297
875.060	0.0160069
875.138	0.0159451
875.216	0.0160450
875.294	0.0158372
875.372	0.0159614
875.450	0.0160263
875.529	0.0160175
875.607	0.0157986
875.685	0.0157536
875.763	0.0159011
875.841	0.0158438
875.919	0.0158764
875.997	0.0159079
876.075	0.0158163
876.154	0.0160645
876.232	0.0161137
876.310	0.0160811
876.388	0.0160157
876.466	0.0159717
876.544	0.0160617
876.622	0.0159159
876.700	0.0161251
876.779	0.0163148
876.857	0.0162502
876.935	0.0162234
877.013	0.0164610
877.091	0.0165051
877.169	0.0166113
877.247	0.0165792
877.325	0.0165026
877.404	0.0165225
877.482	0.0165878
877.560	0.0167243
877.638	0.0165524
877.716	0.0166228
877.794	0.0164658
877.872	0.0166634
877.950	0.0166125
878.029	0.0165410
878.107	0.0166195
878.185	0.0165424
878.263	0.0165841
878.341	0.0166779
878.419	0.0167166
878.497	0.0164015
878.575	0.0163039
878.654	0.0162664
878.732	0.0160374
878.810	0.0159453
878.888	0.0157974
878.966	0.0156425
879.044	0.0154762
879.122	0.0155959
879.200	0.0154829
879.279	0.0154070
879.357	0.0154036
879.435	0.0152598
879.513	0.0153712
879.591	0.0154187
879.669	0.0155981
879.747	0.0157495
879.825	0.0158324
879.904	0.0157253
879.982	0.0158553
880.060	0.0161037
880.138	0.0160439
880.216	0.0160095
880.294	0.0161175
880.372	0.0162655
880.450	0.0162106
880.529	0.0163671
880.607	0.0162807
880.685	0.0163674
880.763	0.0165092
880.841	0.0162997
880.919	0.0162515
880.997	0.0164198
881.075	0.0163703
881.154	0.0163417
881.232	0.0163697
881.310	0.0165499
881.388	0.0165434
881.466	0.0164848
881.544	0.0165431
881.622	0.0165779
881.700	0.0166798
881.779	0.0166852
881.857	0.0167204
881.935	0.0169250
882.013	0.0169217
882.091	0.0168420
882.169	0.0166867
882.247	0.0166934
882.325	0.0166300
882.404	0.0165273
882.482	0.0164648
882.560	0.0162245
882.638	0.0159790
882.716	0.0158459
882.794	0.0156861
882.872	0.0155864
882.950	0.0155092
883.029	0.0153645
883.107	0.0152353
883.185	0.0150264
883.263	0.0151424
883.341	0.0151468
883.419	0.0151308
883.497	0.0153802
883.575	0.0155069
883.654	0.0154333
883.732	0.0155477
883.810	0.0158983
883.888	0.0159776
883.966	0.0162807
884.044	0.0163759
884.122	0.0163345
884.200	0.0164892
884.279	0.0166922
884.357	0.0168067
884.435	0.0169474
884.513	0.0169514
884.591	0.0170795
884.669	0.0170192
884.747	0.0169263
884.825	0.0169834
884.904	0.0169437
884.982	0.0167990
885.060	0.0169817
885.138	0.0167753
885.216	0.0165398
885.294	0.0166181
885.372	0.0164119
885.450	0.0161152
885.529	0.0159771
885.607	0.0159238
885.685	0.0160323
885.763	0.0159641
885.841	0.0159158
885.919	0.0159396
885.997	0.0160397
886.075	0.0159259
886.154	0.0158885
886.232	0.0159055
886.310	0.0160293
886.388	0.0158263
886.466	0.0160292
886.544	0.0159265
886.622	0.0159373
886.700	0.0160319
886.779	0.0160049
886.857	0.0159379
886.935	0.0159707
887.013	0.0159352
887.091	0.0159851
887.169	0.0158591
887.247	0.0159303
887.325	0.0158098
887.404	0.0158619
887.482	0.0159949
887.560	0.0160780
887.638	0.0161023
887.716	0.0160923
887.794	0.0162202
887.872	0.0162668
887.950	0.0162977
888.029	0.0164781
888.107	0.0164449
888.185	0.0165511
888.263	0.0166195
888.341	0.0166127
888.419	0.0167191
888.497	0.0166034
888.575	0.0167909
888.654	0.0167547
888.732	0.0166666
888.810	0.0165872
888.888	0.0165712
888.966	0.0165641
889.044	0.0164210
889.122	0.0163242
889.200	0.0161392
889.279	0.0162675
889.357	0.0161853
889.435	0.0160250
889.513	0.0161755
889.591	0.0160278
889.669	0.0159306
889.747	0.0160310
889.825	0.0160626
889.904	0.0159922
889.982	0.0159138
890.060	0.0160116
890.138	0.0157961
890.216	0.0158394
890.294	0.0159821
890.372	0.0158697
890.450	0.0158161
890.529	0.0160171
890.607	0.0159190
890.685	0.0157259
890.763	0.0159366
890.841	0.0156374
890.919	0.0158076
890.997	0.0159823
891.075	0.0157244
891.154	0.0157523
891.232	0.0157315
891.310	0.0159974
891.388	0.0159845
891.466	0.0160075
891.544	0.0161336
891.622	0.0162616
891.700	0.0164439
891.779	0.0164109
891.857	0.0165575
891.935	0.0167873
892.013	0.0169136
892.091	0.0167225
892.169	0.0169493
892.247	0.0168382
892.325	0.0170286
892.404	0.0169173
892.482	0.0169122
892.560	0.0170897
892.638	0.0169109
892.716	0.0166964
892.794	0.0166443
892.872	0.0166154
892.950	0.0165094
893.029	0.0165781
893.107	0.0162833
893.185	0.0162965
893.263	0.0163107
893.341	0.0162473
893.419	0.0161365
893.497	0.0159644
893.575	0.0159254
893.654	0.0159341
893.732	0.0157870
893.810	0.0157217
893.888	0.0158082
893.966	0.0159663
894.044	0.0159258
894.122	0.0158315
894.200	0.0157873
894.279	0.0158871
894.357	0.0158703
894.435	0.0157592
894.513	0.0157995
894.591	0.0158559
894.669	0.0158049
894.747	0.0158789
894.825	0.0158282
894.904	0.0158552
894.982	0.0159518
895.060	0.0160480
895.138	0.0161009
895.216	0.0162090
895.294	0.0164091
895.372	0.0162865
895.450	0.0163564
895.529	0.0164022
895.607	0.0163113
895.685	0.0164190
895.763	0.0165624
895.841	0.0167010
895.919	0.0166772
895.997	0.0165592
896.075	0.0166804
896.154	0.0166109
896.232	0.0165152
896.310	0.0166263
896.388	0.0164693
896.466	0.0164610
896.544	0.0165358
896.622	0.0163551
896.700	0.0163054
896.779	0.0161969
896.857	0.0161822
896.935	0.0161439
897.013	0.0162115
897.091	0.0161172
897.169	0.0162450
897.247	0.0163409
897.325	0.0162639
897.404	0.0162534
897.482	0.0162074
897.560	0.0162384
897.638	0.0162138
897.716	0.0161831
897.794	0.0162085
897.872	0.0160777
897.950	0.0162102
898.029	0.0160616
898.107	0.0161887
898.185	0.0161446
898.263	0.0159190
898.341	0.0160615
898.419	0.0160773
898.497	0.0161025
898.575	0.0161791
898.654	0.0161835
898.732	0.0161813
898.810	0.0162191
898.888	0.0162022
898.966	0.0161911
899.044	0.0163098
899.122	0.0163081
899.200	0.0162785
899.279	0.0162195
899.357	0.0163210
899.435	0.0163859
899.513	0.0163721
899.591	0.0164571
899.669	0.0164512
899.747	0.0163895
899.825	0.0163914
899.904	0.0164912
899.982	0.0165749
900.060	0.0164046
900.138	0.0163768
900.216	0.0164701
900.294	0.0163267
900.372	0.0162895
900.450	0.0163613
900.529	0.0162076
900.607	0.0162365
900.685	0.0162918
900.763	0.0160058
900.841	0.0161023
900.919	0.0161243
900.997	0.0159261
901.075	0.0159034
901.154	0.0158727
901.232	0.0159698
901.310	0.0157722
901.388	0.0159311
901.466	0.0158997
901.544	0.0156434
901.622	0.0157267
901.700	0.0156837
901.779	0.0158556
901.857	0.0158124
901.935	0.0160539
902.013	0.0158675
902.091	0.0158739
902.169	0.0159415
902.247	0.0160291
902.325	0.0162460
902.404	0.0162944
902.482	0.0163652
902.560	0.0163760
902.638	0.0164972
902.716	0.0165588
902.794	0.0164128
902.872	0.0165078
902.950	0.0164920
903.029	0.0164906
903.107	0.0166267
903.185	0.0166244
903.263	0.0165526
903.341	0.0166182
903.419	0.0166367
903.497	0.0164571
903.575	0.0166242
903.654	0.0166566
903.732	0.0164999
903.810	0.0164514
903.888	0.0166613
903.966	0.0165160
904.044	0.0163539
904.122	0.0163969
904.200	0.0163971
904.279	0.0162399
904.357	0.0159726
904.435	0.0159730
904.513	0.0158824
904.591	0.0156454
904.669	0.0158260
904.747	0.0155971
904.825	0.0155240
904.904	0.0155531
904.982	0.0154906
905.060	0.0155150
905.138	0.0155607
905.216	0.0155602
905.294	0.0155119
905.372	0.0157650
905.450	0.0157376
905.529	0.0157674
905.607	0.0158297
905.685	0.0161362
905.763	0.0160303
905.841	0.0161529
905.919	0.0163937
905.997	0.0162982
906.075	0.0162348
906.154	0.0164167
906.232	0.0165325
906.310	0.0166430
906.388	0.0165621
906.466	0.0165512
906.544	0.0166087
906.622	0.0167030
906.700	0.0166765
906.779	0.0167073
906.857	0.0166508
906.935	0.0167891
907.013	0.0168060
907.091	0.0166189
907.169	0.0167957
907.247	0.0166077
907.325	0.0165060
907.404	0.0166560
907.482	0.0166138
907.560	0.0165398
907.638	0.0163936
907.716	0.0164159
907.794	0.0164748
907.872	0.0161546
907.950	0.0160218
908.029	0.0161418
908.107	0.0160255
908.185	0.0160765
908.263	0.0159055
908.341	0.0158122
908.419	0.0158510
908.497	0.0158797
908.575	0.0156859
908.654	0.0156174
908.732	0.0155988
908.810	0.0155668
908.888	0.0156565
908.966	0.0156260
909.044	0.0156760
909.122	0.0155794
909.200	0.0158499
909.279	0.0158203
909.357	0.0157661
909.435	0.0159614
909.513	0.0160618
909.591	0.0161904
909.669	0.0161675
909.747	0.0161836
909.825	0.0162987
909.904	0.0163909
909.982	0.0164861
910.060	0.0165129
910.138	0.0164998
910.216	0.0164774
910.294	0.0165399
910.372	0.0165571
910.450	0.0167028
910.529	0.0166576
910.607	0.0165977
910.685	0.0165668
910.763	0.0166143
910.841	0.0165299
910.919	0.0165015
910.997	0.0164553
911.075	0.0164621
911.154	0.0165607
911.232	0.0164420
911.310	0.0164365
911.388	0.0163136
911.466	0.0162961
911.544	0.0162476
911.622	0.0162841
911.700	0.0161310
911.779	0.0160275
911.857	0.0161453
911.935	0.0161420
912.013	0.0161891
912.091	0.0160134
912.169	0.0158920
912.247	0.0159964
912.325	0.0158463
912.404	0.0160478
912.482	0.0159056
912.560	0.0159660
912.638	0.0160009
912.716	0.0159383
912.794	0.0158361
912.872	0.0159782
912.950	0.0158996
913.029	0.0160311
913.107	0.0160223
913.185	0.0159753
913.263	0.0161383
913.341	0.0160968
913.419	0.0162934
913.497	0.0160525
913.575	0.0161819
913.654	0.0162833
913.732	0.0162962
913.810	0.0163819
913.888	0.0163747
913.966	0.0164037
914.044	0.0165000
914.122	0.0165176
914.200	0.0163886
914.279	0.0163840
914.357	0.0164520
914.435	0.0164833
914.513	0.0166428
914.591	0.0164346
914.669	0.0163259
914.747	0.0165085
914.825	0.0164649
914.904	0.0163139
914.982	0.0163174
915.060	0.0162868
915.138	0.0162638
915.216	0.0162749
915.294	0.0162409
915.372	0.0162383
915.450	0.0161797
915.529	0.0161779
915.607	0.0161939
915.685	0.0162374
915.763	0.0161324
915.841	0.0162528
915.919	0.0161598
915.997	0.0162309
916.075	0.0162149
916.154	0.0161938
916.232	0.0162038
916.310	0.0160583
916.388	0.0162444
916.466	0.0160775
916.544	0.0160909
916.622	0.0161480
916.700	0.0158593
916.779	0.0159789
916.857	0.0160406
916.935	0.0159338
917.013	0.0159570
917.091	0.0160765
917.169	0.0160658
917.247	0.0159753
917.325	0.0161810
917.404	0.0162701
917.482	0.0162345
917.560	0.0161493
917.638	0.0162952
917.716	0.0163139
917.794	0.0164845
917.872	0.0164026
917.950	0.0163068
918.029	0.0161661
918.107	0.0160899
918.185	0.0161769
918.263	0.0161550
918.341	0.0163931
918.419	0.0161925
918.497	0.0162977
918.575	0.0162615
918.654	0.0162544
918.732	0.0162733
918.810	0.0163394
918.888	0.0162450
918.966	0.0162965
919.044	0.0163535
919.122	0.0162243
919.200	0.0163596
919.279	0.0164538
919.357	0.0163245
919.435	0.0162795
919.513	0.0163002
919.591	0.0163939
919.669	0.0163229
919.747	0.0162732
919.825	0.0163597
919.904	0.0162614
