06/03/2022	14:04:25	Ver.	4.1	UNKNOWN
Optical Delay	599.981738	Delta X		0.078125	Sweeps	1	Scan Rate	0/0
Coordinates	Axis 1	NaN	Axis 2	NaN	Axis 3	NaN	Axis 4	NaN	Axis 5	NaN	Axis 6	0.000000
TX Power	0.000000	RX Power	0.000000

599.982	0.0162348
600.060	0.0163327
600.138	0.0161828
600.216	0.0161312
600.294	0.0163474
600.372	0.0162593
600.450	0.0162015
600.529	0.0162359
600.607	0.0162516
600.685	0.0163144
600.763	0.0162905
600.841	0.0163338
600.919	0.0161517
600.997	0.0162974
601.075	0.0164019
601.154	0.0163254
601.232	0.0162268
601.310	0.0160511
601.388	0.0161871
601.466	0.0164014
601.544	0.0163273
601.622	0.0162956
601.700	0.0161972
601.779	0.0161976
601.857	0.0161807
601.935	0.0162820
602.013	0.0162291
602.091	0.0163033
602.169	0.0163422
602.247	0.0162743
602.325	0.0162424
602.404	0.0162691
602.482	0.0162006
602.560	0.0162949
602.638	0.0164005
602.716	0.0163312
602.794	0.0163381
602.872	0.0162174
602.950	0.0162212
603.029	0.0163219
603.107	0.0162056
603.185	0.0161527
603.263	0.0162817
603.341	0.0163795
603.419	0.0163140
603.497	0.0162071
603.575	0.0164221
603.654	0.0163160
603.732	0.0162573
603.810	0.0163120
603.888	0.0162044
603.966	0.0162955
604.044	0.0161801
604.122	0.0162420
604.200	0.0162179
604.279	0.0163200
604.357	0.0162162
604.435	0.0162502
604.513	0.0161809
604.591	0.0164322
604.669	0.0163058
604.747	0.0163055
604.825	0.0161375
604.904	0.0161152
604.982	0.0162399
605.060	0.0162364
605.138	0.0163398
605.216	0.0163477
605.294	0.0162774
605.372	0.0162913
605.450	0.0163383
605.529	0.0162515
605.607	0.0163179
605.685	0.0162997
605.763	0.0162830
605.841	0.0162202
605.919	0.0162580
605.997	0.0163271
606.075	0.0162533
606.154	0.0163533
606.232	0.0162376
606.310	0.0162952
606.388	0.0161965
606.466	0.0162700
606.544	0.0163509
606.622	0.0163733
606.700	0.0163229
606.779	0.0162435
606.857	0.0162885
606.935	0.0163388
607.013	0.0162229
607.091	0.0161799
607.169	0.0162482
607.247	0.0164123
607.325	0.0162088
607.404	0.0162310
607.482	0.0160291
607.560	0.0163183
607.638	0.0162563
607.716	0.0161735
607.794	0.0161945
607.872	0.0162878
607.950	0.0162122
608.029	0.0162973
608.107	0.0162186
608.185	0.0164000
608.263	0.0164229
608.341	0.0161994
608.419	0.0163777
608.497	0.0162583
608.575	0.0162595
608.654	0.0161977
608.732	0.0161454
608.810	0.0161400
608.888	0.0162408
608.966	0.0163073
609.044	0.0163158
609.122	0.0161983
609.200	0.0163240
609.279	0.0163543
609.357	0.0163197
609.435	0.0162853
609.513	0.0163280
609.591	0.0162518
609.669	0.0164085
609.747	0.0163715
609.825	0.0163287
609.904	0.0162475
609.982	0.0163310
610.060	0.0161829
610.138	0.0162460
610.216	0.0163194
610.294	0.0162117
610.372	0.0162753
610.450	0.0163806
610.529	0.0162445
610.607	0.0162503
610.685	0.0163770
610.763	0.0163213
610.841	0.0162377
610.919	0.0163152
610.997	0.0161784
611.075	0.0161846
611.154	0.0162946
611.232	0.0161974
611.310	0.0162434
611.388	0.0163552
611.466	0.0162364
611.544	0.0162705
611.622	0.0162590
611.700	0.0163579
611.779	0.0163528
611.857	0.0161607
611.935	0.0161821
612.013	0.0162007
612.091	0.0163359
612.169	0.0163515
612.247	0.0163297
612.325	0.0161002
612.404	0.0162348
612.482	0.0162495
612.560	0.0162798
612.638	0.0163461
612.716	0.0163460
612.794	0.0163409
612.872	0.0162794
612.950	0.0165369
613.029	0.0164886
613.107	0.0163371
613.185	0.0163076
613.263	0.0162666
613.341	0.0164253
613.419	0.0163585
613.497	0.0162819
613.575	0.0164097
613.654	0.0163077
613.732	0.0161109
613.810	0.0164474
613.888	0.0162935
613.966	0.0162643
614.044	0.0163822
614.122	0.0163200
614.200	0.0161436
614.279	0.0162736
614.357	0.0162870
614.435	0.0162531
614.513	0.0161811
614.591	0.0161394
614.669	0.0161403
614.747	0.0162433
614.825	0.0162786
614.904	0.0163620
614.982	0.0160857
615.060	0.0161644
615.138	0.0163784
615.216	0.0162082
615.294	0.0163065
615.372	0.0162256
615.450	0.0161623
615.529	0.0161759
615.607	0.0161516
615.685	0.0162189
615.763	0.0162345
615.841	0.0161961
615.919	0.0162827
615.997	0.0162940
616.075	0.0162810
616.154	0.0163026
616.232	0.0162726
616.310	0.0161920
616.388	0.0161904
616.466	0.0164140
616.544	0.0162742
616.622	0.0162265
616.700	0.0163284
616.779	0.0162679
616.857	0.0163953
616.935	0.0163727
617.013	0.0162617
617.091	0.0163116
617.169	0.0163510
617.247	0.0162684
617.325	0.0162717
617.404	0.0162936
617.482	0.0162368
617.560	0.0163288
617.638	0.0162685
617.716	0.0163360
617.794	0.0163676
617.872	0.0162662
617.950	0.0163310
618.029	0.0161658
618.107	0.0162872
618.185	0.0163163
618.263	0.0161700
618.341	0.0163536
618.419	0.0164388
618.497	0.0162333
618.575	0.0162115
618.654	0.0161983
618.732	0.0161811
618.810	0.0163445
618.888	0.0162387
618.966	0.0162451
619.044	0.0162498
619.122	0.0163024
619.200	0.0161064
619.279	0.0160942
619.357	0.0162698
619.435	0.0164340
619.513	0.0163661
619.591	0.0162533
619.669	0.0163307
619.747	0.0163036
619.825	0.0161032
619.904	0.0162693
619.982	0.0162207
620.060	0.0161932
620.138	0.0162904
620.216	0.0162978
620.294	0.0162445
620.372	0.0162877
620.450	0.0164597
620.529	0.0163261
620.607	0.0162255
620.685	0.0162746
620.763	0.0163835
620.841	0.0163451
620.919	0.0162020
620.997	0.0162356
621.075	0.0162970
621.154	0.0162860
621.232	0.0163476
621.310	0.0162935
621.388	0.0163718
621.466	0.0163409
621.544	0.0163003
621.622	0.0162079
621.700	0.0163452
621.779	0.0164146
621.857	0.0163169
621.935	0.0161783
622.013	0.0163237
622.091	0.0162426
622.169	0.0162959
622.247	0.0162774
622.325	0.0162237
622.404	0.0161527
622.482	0.0161790
622.560	0.0162654
622.638	0.0163189
622.716	0.0161884
622.794	0.0162685
622.872	0.0161861
622.950	0.0162496
623.029	0.0161818
623.107	0.0161734
623.185	0.0162093
623.263	0.0162533
623.341	0.0162499
623.419	0.0162329
623.497	0.0162679
623.575	0.0162193
623.654	0.0161773
623.732	0.0162107
623.810	0.0161776
623.888	0.0161085
623.966	0.0161288
624.044	0.0162676
624.122	0.0162730
624.200	0.0162045
624.279	0.0162743
624.357	0.0162283
624.435	0.0161712
624.513	0.0162907
624.591	0.0163104
624.669	0.0162854
624.747	0.0163081
624.825	0.0163577
624.904	0.0161932
624.982	0.0163626
625.060	0.0162370
625.138	0.0163443
625.216	0.0163103
625.294	0.0161626
625.372	0.0162644
625.450	0.0163729
625.529	0.0162829
625.607	0.0162194
625.685	0.0163225
625.763	0.0161123
625.841	0.0162372
625.919	0.0162488
625.997	0.0161353
626.075	0.0162222
626.154	0.0161743
626.232	0.0162860
626.310	0.0162181
626.388	0.0163566
626.466	0.0162025
626.544	0.0161861
626.622	0.0162032
626.700	0.0162637
626.779	0.0162631
626.857	0.0162466
626.935	0.0162478
627.013	0.0162301
627.091	0.0161772
627.169	0.0162482
627.247	0.0161166
627.325	0.0163325
627.404	0.0163116
627.482	0.0162218
627.560	0.0162299
627.638	0.0162597
627.716	0.0162101
627.794	0.0163778
627.872	0.0161446
627.950	0.0162736
628.029	0.0162389
628.107	0.0162795
628.185	0.0163624
628.263	0.0163408
628.341	0.0163365
628.419	0.0163079
628.497	0.0161896
628.575	0.0162556
628.654	0.0161191
628.732	0.0162595
628.810	0.0162027
628.888	0.0164249
628.966	0.0162469
629.044	0.0164172
629.122	0.0162133
629.200	0.0161477
629.279	0.0161756
629.357	0.0162141
629.435	0.0162806
629.513	0.0162992
629.591	0.0162143
629.669	0.0161848
629.747	0.0163392
629.825	0.0162583
629.904	0.0161246
629.982	0.0162265
630.060	0.0162842
630.138	0.0162481
630.216	0.0162314
630.294	0.0163908
630.372	0.0161989
630.450	0.0161027
630.529	0.0162614
630.607	0.0162855
630.685	0.0161835
630.763	0.0161964
630.841	0.0162246
630.919	0.0163438
630.997	0.0163216
631.075	0.0163885
631.154	0.0162885
631.232	0.0163276
631.310	0.0163000
631.388	0.0164252
631.466	0.0162867
631.544	0.0160932
631.622	0.0161988
631.700	0.0163326
631.779	0.0162791
631.857	0.0163197
631.935	0.0163053
632.013	0.0163016
632.091	0.0162627
632.169	0.0162784
632.247	0.0162249
632.325	0.0162223
632.404	0.0162528
632.482	0.0163611
632.560	0.0161720
632.638	0.0162138
632.716	0.0162930
632.794	0.0163026
632.872	0.0161176
632.950	0.0162647
633.029	0.0162247
633.107	0.0162812
633.185	0.0163251
633.263	0.0162512
633.341	0.0162157
633.419	0.0162914
633.497	0.0161734
633.575	0.0162642
633.654	0.0164037
633.732	0.0164829
633.810	0.0162774
633.888	0.0162004
633.966	0.0163403
634.044	0.0162891
634.122	0.0163222
634.200	0.0163105
634.279	0.0163371
634.357	0.0161969
634.435	0.0161924
634.513	0.0162197
634.591	0.0162974
634.669	0.0162004
634.747	0.0162869
634.825	0.0163124
634.904	0.0161568
634.982	0.0161712
635.060	0.0162482
635.138	0.0163548
635.216	0.0162691
635.294	0.0162776
635.372	0.0163194
635.450	0.0163000
635.529	0.0163330
635.607	0.0163766
635.685	0.0163439
635.763	0.0163238
635.841	0.0163897
635.919	0.0161763
635.997	0.0162765
636.075	0.0162679
636.154	0.0162048
636.232	0.0162312
636.310	0.0162719
636.388	0.0163508
636.466	0.0163554
636.544	0.0161651
636.622	0.0161883
636.700	0.0162643
636.779	0.0163853
636.857	0.0162945
636.935	0.0161668
637.013	0.0163329
637.091	0.0162121
637.169	0.0161857
637.247	0.0163640
637.325	0.0161399
637.404	0.0161275
637.482	0.0161946
637.560	0.0163032
637.638	0.0162844
637.716	0.0163449
637.794	0.0162702
637.872	0.0163049
637.950	0.0161761
638.029	0.0163686
638.107	0.0162357
638.185	0.0162003
638.263	0.0161494
638.341	0.0161896
638.419	0.0162393
638.497	0.0162353
638.575	0.0162682
638.654	0.0162035
638.732	0.0162518
638.810	0.0161810
638.888	0.0162628
638.966	0.0162714
639.044	0.0162194
639.122	0.0161919
639.200	0.0162262
639.279	0.0162572
639.357	0.0162360
639.435	0.0163145
639.513	0.0161676
639.591	0.0161113
639.669	0.0163828
639.747	0.0163086
639.825	0.0163162
639.904	0.0162875
639.982	0.0163243
640.060	0.0162460
640.138	0.0163526
640.216	0.0162695
640.294	0.0163038
640.372	0.0163346
640.450	0.0162525
640.529	0.0161415
640.607	0.0161357
640.685	0.0162614
640.763	0.0163806
640.841	0.0163441
640.919	0.0163098
640.997	0.0161984
641.075	0.0162187
641.154	0.0161852
641.232	0.0163260
641.310	0.0163144
641.388	0.0161022
641.466	0.0163737
641.544	0.0163123
641.622	0.0161655
641.700	0.0162120
641.779	0.0161937
641.857	0.0162959
641.935	0.0163013
642.013	0.0161878
642.091	0.0162815
642.169	0.0162206
642.247	0.0161649
642.325	0.0162177
642.404	0.0162982
642.482	0.0163358
642.560	0.0162045
642.638	0.0162739
642.716	0.0161357
642.794	0.0162234
642.872	0.0163229
642.950	0.0162393
643.029	0.0162010
643.107	0.0163110
643.185	0.0162193
643.263	0.0162676
643.341	0.0162591
643.419	0.0162473
643.497	0.0163315
643.575	0.0162315
643.654	0.0163082
643.732	0.0162154
643.810	0.0162502
643.888	0.0162224
643.966	0.0162177
644.044	0.0162878
644.122	0.0162224
644.200	0.0163284
644.279	0.0162173
644.357	0.0161716
644.435	0.0163462
644.513	0.0162402
644.591	0.0163220
644.669	0.0163200
644.747	0.0162165
644.825	0.0161482
644.904	0.0162260
644.982	0.0161880
645.060	0.0162868
645.138	0.0163264
645.216	0.0162211
645.294	0.0161587
645.372	0.0162601
645.450	0.0161845
645.529	0.0162309
645.607	0.0162790
645.685	0.0162965
645.763	0.0161021
645.841	0.0162553
645.919	0.0161724
645.997	0.0163070
646.075	0.0163470
646.154	0.0162782
646.232	0.0163200
646.310	0.0162291
646.388	0.0161415
646.466	0.0162051
646.544	0.0162131
646.622	0.0162474
646.700	0.0163276
646.779	0.0161547
646.857	0.0162722
646.935	0.0163254
647.013	0.0161816
647.091	0.0162740
647.169	0.0162543
647.247	0.0160851
647.325	0.0162500
647.404	0.0162702
647.482	0.0162050
647.560	0.0162821
647.638	0.0163616
647.716	0.0162120
647.794	0.0162948
647.872	0.0160963
647.950	0.0163131
648.029	0.0162161
648.107	0.0162289
648.185	0.0162310
648.263	0.0162260
648.341	0.0162968
648.419	0.0164078
648.497	0.0162341
648.575	0.0162762
648.654	0.0162817
648.732	0.0161972
648.810	0.0163019
648.888	0.0162448
648.966	0.0162080
649.044	0.0162775
649.122	0.0163002
649.200	0.0162623
649.279	0.0162332
649.357	0.0162806
649.435	0.0163110
649.513	0.0163168
649.591	0.0161591
649.669	0.0162341
649.747	0.0162791
649.825	0.0162515
649.904	0.0161739
649.982	0.0163809
650.060	0.0162263
650.138	0.0163322
650.216	0.0162846
650.294	0.0161498
650.372	0.0161772
650.450	0.0161783
650.529	0.0162599
650.607	0.0162788
650.685	0.0162572
650.763	0.0164223
650.841	0.0162350
650.919	0.0162411
650.997	0.0162899
651.075	0.0162218
651.154	0.0161259
651.232	0.0163003
651.310	0.0161629
651.388	0.0161749
651.466	0.0162914
651.544	0.0163812
651.622	0.0163061
651.700	0.0162804
651.779	0.0161577
651.857	0.0160996
651.935	0.0161623
652.013	0.0163229
652.091	0.0162749
652.169	0.0160860
652.247	0.0163209
652.325	0.0161990
652.404	0.0162688
652.482	0.0163346
652.560	0.0161105
652.638	0.0163435
652.716	0.0163213
652.794	0.0162418
652.872	0.0162775
652.950	0.0163860
653.029	0.0163630
653.107	0.0161845
653.185	0.0161453
653.263	0.0162346
653.341	0.0162893
653.419	0.0162244
653.497	0.0163598
653.575	0.0162796
653.654	0.0163013
653.732	0.0162527
653.810	0.0161979
653.888	0.0163445
653.966	0.0162897
654.044	0.0162917
654.122	0.0161908
654.200	0.0162248
654.279	0.0161660
654.357	0.0162789
654.435	0.0163011
654.513	0.0161707
654.591	0.0161783
654.669	0.0161649
654.747	0.0162134
654.825	0.0163035
654.904	0.0163338
654.982	0.0163521
655.060	0.0162480
655.138	0.0162708
655.216	0.0161774
655.294	0.0161257
655.372	0.0162244
655.450	0.0163340
655.529	0.0163583
655.607	0.0163322
655.685	0.0161387
655.763	0.0162537
655.841	0.0163798
655.919	0.0162395
655.997	0.0162521
656.075	0.0162082
656.154	0.0161872
656.232	0.0162930
656.310	0.0162489
656.388	0.0163071
656.466	0.0162045
656.544	0.0162750
656.622	0.0162081
656.700	0.0162141
656.779	0.0162382
656.857	0.0161721
656.935	0.0162003
657.013	0.0161999
657.091	0.0161929
657.169	0.0162111
657.247	0.0163725
657.325	0.0162682
657.404	0.0161130
657.482	0.0160769
657.560	0.0162436
657.638	0.0162975
657.716	0.0162753
657.794	0.0162532
657.872	0.0162611
657.950	0.0161948
658.029	0.0160606
658.107	0.0161954
658.185	0.0164018
658.263	0.0163143
658.341	0.0162041
658.419	0.0163316
658.497	0.0163201
658.575	0.0163008
658.654	0.0162976
658.732	0.0162184
658.810	0.0161526
658.888	0.0162672
658.966	0.0162971
659.044	0.0161934
659.122	0.0163620
659.200	0.0163329
659.279	0.0161109
659.357	0.0162770
659.435	0.0162936
659.513	0.0161447
659.591	0.0162711
659.669	0.0162759
659.747	0.0163112
659.825	0.0162764
659.904	0.0162778
659.982	0.0162521
660.060	0.0162187
660.138	0.0163364
660.216	0.0162262
660.294	0.0162218
660.372	0.0162608
660.450	0.0163177
660.529	0.0162314
660.607	0.0163315
660.685	0.0162071
660.763	0.0162196
660.841	0.0161849
660.919	0.0163158
660.997	0.0163331
661.075	0.0161637
661.154	0.0162994
661.232	0.0164304
661.310	0.0161740
661.388	0.0162341
661.466	0.0161621
661.544	0.0163162
661.622	0.0162991
661.700	0.0162849
661.779	0.0162465
661.857	0.0163929
661.935	0.0161625
662.013	0.0163215
662.091	0.0161669
662.169	0.0162158
662.247	0.0162761
662.325	0.0162843
662.404	0.0162283
662.482	0.0162556
662.560	0.0162381
662.638	0.0162025
662.716	0.0163103
662.794	0.0163292
662.872	0.0163433
662.950	0.0163391
663.029	0.0162413
663.107	0.0161211
663.185	0.0162888
663.263	0.0162680
663.341	0.0162535
663.419	0.0163355
663.497	0.0162749
663.575	0.0161668
663.654	0.0162428
663.732	0.0162345
663.810	0.0163354
663.888	0.0161666
663.966	0.0162826
664.044	0.0162218
664.122	0.0163342
664.200	0.0162986
664.279	0.0162421
664.357	0.0162651
664.435	0.0162976
664.513	0.0162385
664.591	0.0162014
664.669	0.0162587
664.747	0.0161862
664.825	0.0163098
664.904	0.0161092
664.982	0.0162672
665.060	0.0161986
665.138	0.0161182
665.216	0.0161340
665.294	0.0162743
665.372	0.0162516
665.450	0.0162019
665.529	0.0162197
665.607	0.0162174
665.685	0.0162308
665.763	0.0162370
665.841	0.0162300
665.919	0.0161786
665.997	0.0162907
666.075	0.0164023
666.154	0.0161591
666.232	0.0162494
666.310	0.0162653
666.388	0.0162843
666.466	0.0161800
666.544	0.0161501
666.622	0.0162872
666.700	0.0162635
666.779	0.0162711
666.857	0.0162992
666.935	0.0162587
667.013	0.0162683
667.091	0.0162883
667.169	0.0161726
667.247	0.0161158
667.325	0.0160815
667.404	0.0162796
667.482	0.0161514
667.560	0.0161298
667.638	0.0161302
667.716	0.0163610
667.794	0.0161204
667.872	0.0162529
667.950	0.0162634
668.029	0.0163101
668.107	0.0162243
668.185	0.0162685
668.263	0.0163515
668.341	0.0162527
668.419	0.0162640
668.497	0.0162502
668.575	0.0163054
668.654	0.0162433
668.732	0.0161729
668.810	0.0162794
668.888	0.0161626
668.966	0.0160998
669.044	0.0161186
669.122	0.0163057
669.200	0.0161895
669.279	0.0161711
669.357	0.0162428
669.435	0.0161876
669.513	0.0162464
669.591	0.0162003
669.669	0.0162681
669.747	0.0163237
669.825	0.0162677
669.904	0.0163531
669.982	0.0162594
670.060	0.0163725
670.138	0.0162935
670.216	0.0163683
670.294	0.0161592
670.372	0.0161819
670.450	0.0161142
670.529	0.0160654
670.607	0.0161089
670.685	0.0161314
670.763	0.0161316
670.841	0.0161446
670.919	0.0160691
670.997	0.0161636
671.075	0.0162182
671.154	0.0161349
671.232	0.0161142
671.310	0.0161126
671.388	0.0161029
671.466	0.0161934
671.544	0.0162289
671.622	0.0162528
671.700	0.0162212
671.779	0.0161834
671.857	0.0161557
671.935	0.0162107
672.013	0.0162756
672.091	0.0161263
672.169	0.0161727
672.247	0.0162728
672.325	0.0162978
672.404	0.0162592
672.482	0.0162851
672.560	0.0162699
672.638	0.0162129
672.716	0.0161645
672.794	0.0161109
672.872	0.0161467
672.950	0.0160670
673.029	0.0160929
673.107	0.0160299
673.185	0.0159667
673.263	0.0159847
673.341	0.0158864
673.419	0.0159281
673.497	0.0160287
673.575	0.0160294
673.654	0.0160045
673.732	0.0161313
673.810	0.0162100
673.888	0.0162622
673.966	0.0164487
674.044	0.0163517
674.122	0.0163657
674.200	0.0163619
674.279	0.0163979
674.357	0.0163872
674.435	0.0163725
674.513	0.0164351
674.591	0.0163193
674.669	0.0163237
674.747	0.0162183
674.825	0.0161417
674.904	0.0162606
674.982	0.0161838
675.060	0.0162043
675.138	0.0161800
675.216	0.0162861
675.294	0.0163937
675.372	0.0162918
675.450	0.0162663
675.529	0.0163603
675.607	0.0162502
675.685	0.0164343
675.763	0.0163345
675.841	0.0161324
675.919	0.0163117
675.997	0.0160089
676.075	0.0161842
676.154	0.0161395
676.232	0.0159531
676.310	0.0158060
676.388	0.0157216
676.466	0.0158725
676.544	0.0158773
676.622	0.0158662
676.700	0.0158996
676.779	0.0159035
676.857	0.0160532
676.935	0.0160812
677.013	0.0162160
677.091	0.0161234
677.169	0.0164497
677.247	0.0163419
677.325	0.0164420
677.404	0.0165340
677.482	0.0164835
677.560	0.0165092
677.638	0.0165490
677.716	0.0165306
677.794	0.0164616
677.872	0.0163655
677.950	0.0164594
678.029	0.0164632
678.107	0.0163647
678.185	0.0161887
678.263	0.0161864
678.341	0.0161133
678.419	0.0161237
678.497	0.0159434
678.575	0.0159635
678.654	0.0157460
678.732	0.0156000
678.810	0.0157870
678.888	0.0157900
678.966	0.0158646
679.044	0.0160409
679.122	0.0161906
679.200	0.0161955
679.279	0.0167242
679.357	0.0169070
679.435	0.0171281
679.513	0.0175755
679.591	0.0176509
679.669	0.0178485
679.747	0.0177706
679.825	0.0176603
679.904	0.0176318
679.982	0.0174883
680.060	0.0172414
680.138	0.0169975
680.216	0.0166171
680.294	0.0162039
680.372	0.0160214
680.450	0.0155791
680.529	0.0155733
680.607	0.0153382
680.685	0.0154096
680.763	0.0154371
680.841	0.0154143
680.919	0.0154411
680.997	0.0154530
681.075	0.0154837
681.154	0.0154636
681.232	0.0152795
681.310	0.0151028
681.388	0.0150778
681.466	0.0148103
681.544	0.0145911
681.622	0.0144155
681.700	0.0145138
681.779	0.0145221
681.857	0.0146869
681.935	0.0149487
682.013	0.0153603
682.091	0.0157927
682.169	0.0161153
682.247	0.0164008
682.325	0.0168356
682.404	0.0172348
682.482	0.0173856
682.560	0.0176492
682.638	0.0179805
682.716	0.0180804
682.794	0.0182446
682.872	0.0181995
682.950	0.0183801
683.029	0.0183514
683.107	0.0183298
683.185	0.0181563
683.263	0.0180322
683.341	0.0176229
683.419	0.0170756
683.497	0.0168066
683.575	0.0163825
683.654	0.0156669
683.732	0.0154484
683.810	0.0151397
683.888	0.0149670
683.966	0.0150198
684.044	0.0152552
684.122	0.0155182
684.200	0.0157887
684.279	0.0162904
684.357	0.0169300
684.435	0.0172353
684.513	0.0174242
684.591	0.0176182
684.669	0.0175442
684.747	0.0174741
684.825	0.0171636
684.904	0.0167213
684.982	0.0164899
685.060	0.0160616
685.138	0.0157621
685.216	0.0153748
685.294	0.0154027
685.372	0.0153864
685.450	0.0152631
685.529	0.0154801
685.607	0.0155516
685.685	0.0159471
685.763	0.0160247
685.841	0.0159754
685.919	0.0157437
685.997	0.0155962
686.075	0.0151298
686.154	0.0145850
686.232	0.0139191
686.310	0.0133501
686.388	0.0128078
686.466	0.0122966
686.544	0.0119244
686.622	0.0120153
686.700	0.0120609
686.779	0.0123547
686.857	0.0128741
686.935	0.0134694
687.013	0.0143806
687.091	0.0152704
687.169	0.0163322
687.247	0.0173058
687.325	0.0183466
687.404	0.0191884
687.482	0.0198659
687.560	0.0204163
687.638	0.0208163
687.716	0.0208838
687.794	0.0208470
687.872	0.0207492
687.950	0.0202845
688.029	0.0197742
688.107	0.0193000
688.185	0.0187616
688.263	0.0184185
688.341	0.0180064
688.419	0.0179186
688.497	0.0177881
688.575	0.0178171
688.654	0.0180347
688.732	0.0183819
688.810	0.0188632
688.888	0.0194735
688.966	0.0200304
689.044	0.0205898
689.122	0.0208704
689.200	0.0210585
689.279	0.0211011
689.357	0.0209581
689.435	0.0203566
689.513	0.0198014
689.591	0.0187409
689.669	0.0177252
689.747	0.0163548
689.825	0.0148444
689.904	0.0132101
689.982	0.0114667
690.060	0.00983879
690.138	0.00834641
690.216	0.00684166
690.294	0.00557365
690.372	0.00464569
690.450	0.00383224
690.529	0.00344299
690.607	0.00342323
690.685	0.00349632
690.763	0.00395531
690.841	0.00479385
690.919	0.00572395
690.997	0.00683731
691.075	0.00831558
691.154	0.00986176
691.232	0.0115826
691.310	0.0132855
691.388	0.0153175
691.466	0.0174274
691.544	0.0195358
691.622	0.0216293
691.700	0.0234760
691.779	0.0255591
691.857	0.0272086
691.935	0.0285766
692.013	0.0296442
692.091	0.0304871
692.169	0.0310207
692.247	0.0309725
692.325	0.0305489
692.404	0.0297555
692.482	0.0289828
692.560	0.0277695
692.638	0.0262813
692.716	0.0250161
692.794	0.0235725
692.872	0.0223020
692.950	0.0208280
693.029	0.0195588
693.107	0.0184465
693.185	0.0173190
693.263	0.0163660
693.341	0.0154145
693.419	0.0145828
693.497	0.0137353
693.575	0.0129752
693.654	0.0120625
693.732	0.0111425
693.810	0.0106006
693.888	0.00962708
693.966	0.00874969
694.044	0.00793579
694.122	0.00706116
694.200	0.00634102
694.279	0.00560356
694.357	0.00494072
694.435	0.00430321
694.513	0.00376106
694.591	0.00360344
694.669	0.00361427
694.747	0.00383141
694.825	0.00417862
694.904	0.00486137
694.982	0.00584923
695.060	0.00722435
695.138	0.00864853
695.216	0.0105267
695.294	0.0125179
695.372	0.0148099
695.450	0.0172144
695.529	0.0197644
695.607	0.0221455
695.685	0.0245422
695.763	0.0267722
695.841	0.0284583
695.919	0.0297958
695.997	0.0307742
696.075	0.0312646
696.154	0.0312789
696.232	0.0309863
696.310	0.0303775
696.388	0.0292962
696.466	0.0281590
696.544	0.0267793
696.622	0.0254694
696.700	0.0241015
696.779	0.0226891
696.857	0.0212087
696.935	0.0198675
697.013	0.0185043
697.091	0.0172003
697.169	0.0160017
697.247	0.0148439
697.325	0.0137152
697.404	0.0127876
697.482	0.0119982
697.560	0.0111765
697.638	0.0103990
697.716	0.0100095
697.794	0.00963921
697.872	0.00953651
697.950	0.00941910
698.029	0.00915115
698.107	0.00951462
698.185	0.00951912
698.263	0.00961250
698.341	0.00958923
698.419	0.00988678
698.497	0.00978607
698.575	0.00990906
698.654	0.0101728
698.732	0.00992310
698.810	0.0100562
698.888	0.0102586
698.966	0.0102280
699.044	0.0103953
699.122	0.0107267
699.200	0.0110137
699.279	0.0115552
699.357	0.0123075
699.435	0.0132567
699.513	0.0148633
699.591	0.0162178
699.669	0.0177749
699.747	0.0195979
699.825	0.0214597
699.904	0.0231524
699.982	0.0245411
700.060	0.0259109
700.138	0.0268312
700.216	0.0275912
700.294	0.0281527
700.372	0.0281187
700.450	0.0278236
700.529	0.0272910
700.607	0.0263357
700.685	0.0255598
700.763	0.0245383
700.841	0.0233900
700.919	0.0220706
700.997	0.0208313
701.075	0.0196286
701.154	0.0183829
701.232	0.0173576
701.310	0.0164347
701.388	0.0154620
701.466	0.0144891
701.544	0.0135477
701.622	0.0127946
701.700	0.0119547
701.779	0.0112869
701.857	0.0106094
701.935	0.00994110
702.013	0.00941704
702.091	0.00890495
702.169	0.00861938
702.247	0.00818726
702.325	0.00826691
702.404	0.00827232
702.482	0.00835838
702.560	0.00867020
702.638	0.00903320
702.716	0.00934105
702.794	0.00990860
702.872	0.0104972
702.950	0.0111894
703.029	0.0116985
703.107	0.0124858
703.185	0.0131025
703.263	0.0137560
703.341	0.0146899
703.419	0.0154671
703.497	0.0162812
703.575	0.0172854
703.654	0.0181248
703.732	0.0191146
703.810	0.0200737
703.888	0.0210812
703.966	0.0217613
704.044	0.0226298
704.122	0.0233321
704.200	0.0238268
704.279	0.0242372
704.357	0.0245572
704.435	0.0244888
704.513	0.0241657
704.591	0.0237361
704.669	0.0232013
704.747	0.0225803
704.825	0.0214946
704.904	0.0206641
704.982	0.0196482
705.060	0.0185206
705.138	0.0173711
705.216	0.0164814
705.294	0.0154904
705.372	0.0145886
705.450	0.0138866
705.529	0.0132490
705.607	0.0125076
705.685	0.0123029
705.763	0.0119308
705.841	0.0117002
705.919	0.0115929
705.997	0.0117520
706.075	0.0118892
706.154	0.0122942
706.232	0.0123151
706.310	0.0125828
706.388	0.0130345
706.466	0.0134087
706.544	0.0137189
706.622	0.0140518
706.700	0.0140607
706.779	0.0144474
706.857	0.0147689
706.935	0.0150903
707.013	0.0151550
707.091	0.0154821
707.169	0.0158132
707.247	0.0162507
707.325	0.0165755
707.404	0.0169906
707.482	0.0174203
707.560	0.0180479
707.638	0.0183510
707.716	0.0187848
707.794	0.0190614
707.872	0.0194340
707.950	0.0194299
708.029	0.0196397
708.107	0.0196731
708.185	0.0196070
708.263	0.0193506
708.341	0.0191579
708.419	0.0188704
708.497	0.0180762
708.575	0.0177247
708.654	0.0170950
708.732	0.0163940
708.810	0.0157520
708.888	0.0151572
708.966	0.0145822
709.044	0.0138674
709.122	0.0134084
709.200	0.0129493
709.279	0.0123857
709.357	0.0124367
709.435	0.0121857
709.513	0.0122389
709.591	0.0123171
709.669	0.0124802
709.747	0.0129661
709.825	0.0134728
709.904	0.0137946
709.982	0.0142164
710.060	0.0151501
710.138	0.0155313
710.216	0.0159227
710.294	0.0164604
710.372	0.0169508
710.450	0.0175023
710.529	0.0176756
710.607	0.0180686
710.685	0.0181614
710.763	0.0185339
710.841	0.0186166
710.919	0.0187592
710.997	0.0188392
711.075	0.0189317
711.154	0.0190797
711.232	0.0190894
711.310	0.0192600
711.388	0.0192372
711.466	0.0192917
711.544	0.0190944
711.622	0.0191090
711.700	0.0190715
711.779	0.0187856
711.857	0.0186497
711.935	0.0184580
712.013	0.0182887
712.091	0.0180196
712.169	0.0175753
712.247	0.0172556
712.325	0.0169364
712.404	0.0166011
712.482	0.0160876
712.560	0.0158858
712.638	0.0153667
712.716	0.0144767
712.794	0.0141070
712.872	0.0136218
712.950	0.0132541
713.029	0.0126574
713.107	0.0122221
713.185	0.0120162
713.263	0.0117551
713.341	0.0115168
713.419	0.0116780
713.497	0.0117136
713.575	0.0118651
713.654	0.0122540
713.732	0.0126177
713.810	0.0129825
713.888	0.0136166
713.966	0.0140649
714.044	0.0145478
714.122	0.0150443
714.200	0.0155619
714.279	0.0160925
714.357	0.0167360
714.435	0.0171509
714.513	0.0175401
714.591	0.0180793
714.669	0.0186466
714.747	0.0188968
714.825	0.0192509
714.904	0.0195014
714.982	0.0196628
715.060	0.0198194
715.138	0.0199394
715.216	0.0197778
715.294	0.0200007
715.372	0.0197824
715.450	0.0194531
715.529	0.0194860
715.607	0.0193518
715.685	0.0190568
715.763	0.0188879
715.841	0.0185878
715.919	0.0182359
715.997	0.0179035
716.075	0.0175578
716.154	0.0172869
716.232	0.0169686
716.310	0.0166739
716.388	0.0162665
716.466	0.0159792
716.544	0.0156038
716.622	0.0153805
716.700	0.0152071
716.779	0.0149470
716.857	0.0145316
716.935	0.0143298
717.013	0.0140054
717.091	0.0136536
717.169	0.0135112
717.247	0.0133829
717.325	0.0132884
717.404	0.0130283
717.482	0.0131229
717.560	0.0130610
717.638	0.0130046
717.716	0.0129309
717.794	0.0132564
717.872	0.0132845
717.950	0.0135308
718.029	0.0138870
718.107	0.0142529
718.185	0.0145395
718.263	0.0150928
718.341	0.0156400
718.419	0.0161611
718.497	0.0166084
718.575	0.0171036
718.654	0.0176489
718.732	0.0178789
718.810	0.0184294
718.888	0.0188413
718.966	0.0191351
719.044	0.0194173
719.122	0.0197173
719.200	0.0197980
719.279	0.0198199
719.357	0.0197422
719.435	0.0198819
719.513	0.0198000
719.591	0.0193862
719.669	0.0192052
719.747	0.0187793
719.825	0.0182564
719.904	0.0179495
719.982	0.0176111
720.060	0.0170784
720.138	0.0167774
720.216	0.0163766
720.294	0.0160311
720.372	0.0157800
720.450	0.0156820
720.529	0.0154621
720.607	0.0151514
720.685	0.0150375
720.763	0.0149079
720.841	0.0147993
720.919	0.0148209
720.997	0.0146853
721.075	0.0147243
721.154	0.0147003
721.232	0.0145734
721.310	0.0145178
721.388	0.0146609
721.466	0.0145583
721.544	0.0146509
721.622	0.0146708
721.700	0.0147924
721.779	0.0148577
721.857	0.0149095
721.935	0.0152757
722.013	0.0154758
722.091	0.0155910
722.169	0.0158318
722.247	0.0160867
722.325	0.0163937
722.404	0.0165678
722.482	0.0168218
722.560	0.0171012
722.638	0.0173045
722.716	0.0173116
722.794	0.0176122
722.872	0.0179108
722.950	0.0178370
723.029	0.0180099
723.107	0.0182328
723.185	0.0181690
723.263	0.0179847
723.341	0.0178632
723.419	0.0177599
723.497	0.0176502
723.575	0.0172338
723.654	0.0172058
723.732	0.0169396
723.810	0.0167577
723.888	0.0164848
723.966	0.0163746
724.044	0.0161068
724.122	0.0158671
724.200	0.0156381
724.279	0.0156369
724.357	0.0154873
724.435	0.0152468
724.513	0.0151890
724.591	0.0150981
724.669	0.0151098
724.747	0.0151257
724.825	0.0150856
724.904	0.0150436
724.982	0.0150706
725.060	0.0151281
725.138	0.0151041
725.216	0.0150961
725.294	0.0150066
725.372	0.0150933
725.450	0.0152148
725.529	0.0154668
725.607	0.0154422
725.685	0.0156380
725.763	0.0157203
725.841	0.0159955
725.919	0.0162505
725.997	0.0162951
726.075	0.0162965
726.154	0.0163602
726.232	0.0166665
726.310	0.0167864
726.388	0.0168387
726.466	0.0168784
726.544	0.0168443
726.622	0.0170837
726.700	0.0170531
726.779	0.0170526
726.857	0.0172198
726.935	0.0171375
727.013	0.0172527
727.091	0.0172938
727.169	0.0172537
727.247	0.0172935
727.325	0.0172658
727.404	0.0173370
727.482	0.0172166
727.560	0.0173544
727.638	0.0171171
727.716	0.0168819
727.794	0.0169302
727.872	0.0167831
727.950	0.0166553
728.029	0.0164371
728.107	0.0164558
728.185	0.0163486
728.263	0.0161236
728.341	0.0159154
728.419	0.0158376
728.497	0.0156388
728.575	0.0156618
728.654	0.0155977
728.732	0.0152740
728.810	0.0152895
728.888	0.0151279
728.966	0.0151707
729.044	0.0149879
729.122	0.0150794
729.200	0.0150485
729.279	0.0149599
729.357	0.0149091
729.435	0.0149029
729.513	0.0149995
729.591	0.0150949
729.669	0.0153667
729.747	0.0153709
729.825	0.0156377
729.904	0.0156750
729.982	0.0157851
730.060	0.0160841
730.138	0.0161195
730.216	0.0160310
730.294	0.0163621
730.372	0.0164908
730.450	0.0164178
730.529	0.0163792
730.607	0.0162057
730.685	0.0162022
730.763	0.0163251
730.841	0.0161465
730.919	0.0161771
730.997	0.0161458
731.075	0.0162821
731.154	0.0160399
731.232	0.0161185
731.310	0.0161695
731.388	0.0162422
731.466	0.0162405
731.544	0.0162782
731.622	0.0162635
731.700	0.0164120
731.779	0.0164459
731.857	0.0164233
731.935	0.0165522
732.013	0.0166127
732.091	0.0166330
732.169	0.0167327
732.247	0.0167308
732.325	0.0167461
732.404	0.0167374
732.482	0.0169186
732.560	0.0169698
732.638	0.0167731
732.716	0.0168612
732.794	0.0167841
732.872	0.0168154
732.950	0.0167902
733.029	0.0166379
733.107	0.0164897
733.185	0.0164809
733.263	0.0163648
733.341	0.0162996
733.419	0.0162793
733.497	0.0161356
733.575	0.0159476
733.654	0.0159128
733.732	0.0157359
733.810	0.0157887
733.888	0.0157648
733.966	0.0157539
734.044	0.0158074
734.122	0.0158250
734.200	0.0157370
734.279	0.0157883
734.357	0.0159317
734.435	0.0160219
734.513	0.0159169
734.591	0.0160881
734.669	0.0160960
734.747	0.0161134
734.825	0.0162057
734.904	0.0162514
734.982	0.0162098
735.060	0.0161623
735.138	0.0161517
735.216	0.0160293
735.294	0.0161547
735.372	0.0161764
735.450	0.0161945
735.529	0.0162482
735.607	0.0162846
735.685	0.0162754
735.763	0.0161273
735.841	0.0161774
735.919	0.0162054
735.997	0.0162621
736.075	0.0162228
736.154	0.0162757
736.232	0.0163300
736.310	0.0162824
736.388	0.0164970
736.466	0.0165809
736.544	0.0166083
736.622	0.0166895
736.700	0.0168035
736.779	0.0166874
736.857	0.0165778
736.935	0.0167655
737.013	0.0167554
737.091	0.0168037
737.169	0.0166528
737.247	0.0164077
737.325	0.0164660
737.404	0.0164850
737.482	0.0161352
737.560	0.0161466
737.638	0.0159377
737.716	0.0160444
737.794	0.0159581
737.872	0.0157308
737.950	0.0156945
738.029	0.0157455
738.107	0.0157277
738.185	0.0156921
738.263	0.0156452
738.341	0.0157773
738.419	0.0159955
738.497	0.0158918
738.575	0.0160264
738.654	0.0161855
738.732	0.0163279
738.810	0.0163249
738.888	0.0164594
738.966	0.0164545
739.044	0.0164886
739.122	0.0166187
739.200	0.0167056
739.279	0.0166282
739.357	0.0164814
739.435	0.0165573
739.513	0.0165895
739.591	0.0165053
739.669	0.0162934
739.747	0.0162748
739.825	0.0162670
739.904	0.0161092
739.982	0.0161677
740.060	0.0161920
740.138	0.0159656
740.216	0.0160005
740.294	0.0159300
740.372	0.0160300
740.450	0.0160654
740.529	0.0161063
740.607	0.0161941
740.685	0.0164819
740.763	0.0166272
740.841	0.0166610
740.919	0.0168588
740.997	0.0169373
741.075	0.0169818
741.154	0.0168987
741.232	0.0171741
741.310	0.0171492
741.388	0.0169598
741.466	0.0169682
741.544	0.0169194
741.622	0.0166855
741.700	0.0166950
741.779	0.0164307
741.857	0.0162083
741.935	0.0161947
742.013	0.0159482
742.091	0.0158771
742.169	0.0155499
742.247	0.0154861
742.325	0.0155535
742.404	0.0155563
742.482	0.0154478
742.560	0.0155573
742.638	0.0156317
742.716	0.0157051
742.794	0.0158334
742.872	0.0158376
742.950	0.0160686
743.029	0.0160840
743.107	0.0162029
743.185	0.0163475
743.263	0.0163319
743.341	0.0163348
743.419	0.0165736
743.497	0.0163782
743.575	0.0164233
743.654	0.0164408
743.732	0.0163661
743.810	0.0164433
743.888	0.0163982
743.966	0.0163948
744.044	0.0163535
744.122	0.0163795
744.200	0.0163068
744.279	0.0162563
744.357	0.0161644
744.435	0.0161732
744.513	0.0164204
744.591	0.0161324
744.669	0.0163119
744.747	0.0162872
744.825	0.0164338
744.904	0.0164601
744.982	0.0165950
745.060	0.0165175
745.138	0.0167338
745.216	0.0169168
745.294	0.0169683
745.372	0.0169100
745.450	0.0168853
745.529	0.0171516
745.607	0.0169941
745.685	0.0169024
745.763	0.0169194
745.841	0.0168667
745.919	0.0165336
745.997	0.0165683
746.075	0.0164608
746.154	0.0163641
746.232	0.0160550
746.310	0.0159175
746.388	0.0159628
746.466	0.0157676
746.544	0.0157467
746.622	0.0155782
746.700	0.0155724
746.779	0.0154237
746.857	0.0152942
746.935	0.0154912
747.013	0.0155030
747.091	0.0155762
747.169	0.0156058
747.247	0.0156838
747.325	0.0156521
747.404	0.0157982
747.482	0.0158436
747.560	0.0160089
747.638	0.0159705
747.716	0.0160517
747.794	0.0161509
747.872	0.0161078
747.950	0.0161883
748.029	0.0163135
748.107	0.0164001
748.185	0.0163026
748.263	0.0164832
748.341	0.0163066
748.419	0.0162846
748.497	0.0163647
748.575	0.0162762
748.654	0.0164212
748.732	0.0163032
748.810	0.0162581
748.888	0.0164386
748.966	0.0164555
749.044	0.0165549
749.122	0.0166241
749.200	0.0165617
749.279	0.0165862
749.357	0.0168690
749.435	0.0168928
749.513	0.0168307
749.591	0.0168785
749.669	0.0169579
749.747	0.0169481
749.825	0.0168933
749.904	0.0167521
749.982	0.0167368
750.060	0.0166791
750.138	0.0168542
750.216	0.0164657
750.294	0.0163778
750.372	0.0163786
750.450	0.0161449
750.529	0.0159667
750.607	0.0158606
750.685	0.0156668
750.763	0.0155074
750.841	0.0156326
750.919	0.0155189
750.997	0.0154348
751.075	0.0152686
751.154	0.0153640
751.232	0.0154417
751.310	0.0154234
751.388	0.0153970
751.466	0.0154259
751.544	0.0156174
751.622	0.0157955
751.700	0.0158504
751.779	0.0158503
751.857	0.0160715
751.935	0.0161383
752.013	0.0162832
752.091	0.0162188
752.169	0.0164568
752.247	0.0165984
752.325	0.0165678
752.404	0.0165117
752.482	0.0165787
752.560	0.0164909
752.638	0.0163969
752.716	0.0165010
752.794	0.0164176
752.872	0.0164063
752.950	0.0164226
753.029	0.0164468
753.107	0.0164969
753.185	0.0163918
753.263	0.0163406
753.341	0.0165270
753.419	0.0166225
753.497	0.0165700
753.575	0.0166087
753.654	0.0167662
753.732	0.0166685
753.810	0.0165756
753.888	0.0165727
753.966	0.0166331
754.044	0.0164008
754.122	0.0164006
754.200	0.0163014
754.279	0.0162529
754.357	0.0160633
754.435	0.0160596
754.513	0.0157903
754.591	0.0155814
754.669	0.0155569
754.747	0.0157347
754.825	0.0153621
754.904	0.0154505
754.982	0.0153905
755.060	0.0154549
755.138	0.0155283
755.216	0.0155020
755.294	0.0155025
755.372	0.0156291
755.450	0.0159800
755.529	0.0158160
755.607	0.0159321
755.685	0.0162223
755.763	0.0162035
755.841	0.0162433
755.919	0.0163364
755.997	0.0165176
756.075	0.0165800
756.154	0.0165926
756.232	0.0167341
756.310	0.0169030
756.388	0.0167895
756.466	0.0167276
756.544	0.0166899
756.622	0.0166063
756.700	0.0166757
756.779	0.0166129
756.857	0.0165798
756.935	0.0164450
757.013	0.0165437
757.091	0.0165157
757.169	0.0164706
757.247	0.0164611
757.325	0.0164239
757.404	0.0164248
757.482	0.0164187
757.560	0.0164261
757.638	0.0164190
757.716	0.0165114
757.794	0.0163835
757.872	0.0163624
757.950	0.0164666
758.029	0.0165262
758.107	0.0163995
758.185	0.0163731
758.263	0.0162064
758.341	0.0163118
758.419	0.0160408
758.497	0.0159826
758.575	0.0159799
758.654	0.0158984
758.732	0.0159479
758.810	0.0158949
758.888	0.0157948
758.966	0.0158486
759.044	0.0158482
759.122	0.0158081
759.200	0.0156718
759.279	0.0156026
759.357	0.0155956
759.435	0.0158400
759.513	0.0157654
759.591	0.0157832
759.669	0.0159219
759.747	0.0159018
759.825	0.0160352
759.904	0.0160820
759.982	0.0160675
760.060	0.0162961
760.138	0.0163811
760.216	0.0163570
760.294	0.0164087
760.372	0.0164704
760.450	0.0166385
760.529	0.0167633
760.607	0.0167766
760.685	0.0167124
760.763	0.0166254
760.841	0.0165908
760.919	0.0165839
760.997	0.0165892
761.075	0.0166464
761.154	0.0163866
761.232	0.0163766
761.310	0.0162997
761.388	0.0164489
761.466	0.0162922
761.544	0.0163776
761.622	0.0163536
761.700	0.0162767
761.779	0.0163296
761.857	0.0162617
761.935	0.0162120
762.013	0.0163836
762.091	0.0160938
762.169	0.0160993
762.247	0.0160403
762.325	0.0160159
762.404	0.0160466
762.482	0.0159335
762.560	0.0157978
762.638	0.0158665
762.716	0.0159801
762.794	0.0158401
762.872	0.0158667
762.950	0.0159322
763.029	0.0159953
763.107	0.0159641
763.185	0.0160246
763.263	0.0161679
763.341	0.0162414
763.419	0.0162287
763.497	0.0163212
763.575	0.0163052
763.654	0.0164729
763.732	0.0163721
763.810	0.0165835
763.888	0.0166042
763.966	0.0165247
764.044	0.0165907
764.122	0.0166921
764.200	0.0168581
764.279	0.0168897
764.357	0.0167451
764.435	0.0167476
764.513	0.0167722
764.591	0.0169164
764.669	0.0168590
764.747	0.0169625
764.825	0.0168300
764.904	0.0167271
764.982	0.0167130
765.060	0.0167126
765.138	0.0166772
765.216	0.0165785
765.294	0.0165103
765.372	0.0163087
765.450	0.0161643
765.529	0.0161882
765.607	0.0160945
765.685	0.0160154
765.763	0.0159669
765.841	0.0157249
765.919	0.0158215
765.997	0.0157127
766.075	0.0155263
766.154	0.0156732
766.232	0.0157503
766.310	0.0157370
766.388	0.0156830
766.466	0.0158246
766.544	0.0159525
766.622	0.0158746
766.700	0.0158185
766.779	0.0159486
766.857	0.0158722
766.935	0.0158900
767.013	0.0160426
767.091	0.0160927
767.169	0.0161765
767.247	0.0160638
767.325	0.0162027
767.404	0.0161855
767.482	0.0161979
767.560	0.0160274
767.638	0.0164431
767.716	0.0163648
767.794	0.0163669
767.872	0.0164299
767.950	0.0164125
768.029	0.0165079
768.107	0.0166312
768.185	0.0167269
768.263	0.0167733
768.341	0.0168318
768.419	0.0169140
768.497	0.0169245
768.575	0.0168268
768.654	0.0170149
768.732	0.0168571
768.810	0.0169472
768.888	0.0167162
768.966	0.0167471
769.044	0.0167937
769.122	0.0167932
769.200	0.0165979
769.279	0.0166567
769.357	0.0165363
769.435	0.0163120
769.513	0.0160973
769.591	0.0162129
769.669	0.0159874
769.747	0.0160393
769.825	0.0159099
769.904	0.0158493
769.982	0.0157643
770.060	0.0157622
770.138	0.0157404
770.216	0.0156451
770.294	0.0157514
770.372	0.0157503
770.450	0.0156358
770.529	0.0157550
770.607	0.0157623
770.685	0.0156129
770.763	0.0157547
770.841	0.0158727
770.919	0.0158389
770.997	0.0158745
771.075	0.0158093
771.154	0.0158079
771.232	0.0159811
771.310	0.0160860
771.388	0.0158997
771.466	0.0161314
771.544	0.0161732
771.622	0.0161690
771.700	0.0162733
771.779	0.0163850
771.857	0.0163998
771.935	0.0164513
772.013	0.0164330
772.091	0.0165872
772.169	0.0167131
772.247	0.0168570
772.325	0.0166980
772.404	0.0169009
772.482	0.0170411
772.560	0.0169395
772.638	0.0170128
772.716	0.0172279
772.794	0.0171777
772.872	0.0171625
772.950	0.0172334
773.029	0.0170827
773.107	0.0172079
773.185	0.0169376
773.263	0.0169990
773.341	0.0167840
773.419	0.0166297
773.497	0.0165582
773.575	0.0162778
773.654	0.0160791
773.732	0.0160721
773.810	0.0158704
773.888	0.0156893
773.966	0.0155272
774.044	0.0154282
774.122	0.0153819
774.200	0.0152816
774.279	0.0152662
774.357	0.0151784
774.435	0.0151279
774.513	0.0151750
774.591	0.0151868
774.669	0.0152118
774.747	0.0154171
774.825	0.0154004
774.904	0.0155511
774.982	0.0156586
775.060	0.0157255
775.138	0.0157935
775.216	0.0159399
775.294	0.0160184
775.372	0.0161098
775.450	0.0161207
775.529	0.0160915
775.607	0.0164075
775.685	0.0164362
775.763	0.0164816
775.841	0.0163727
775.919	0.0166805
775.997	0.0166734
776.075	0.0167965
776.154	0.0167942
776.232	0.0168121
776.310	0.0169271
776.388	0.0168168
776.466	0.0169598
776.544	0.0170239
776.622	0.0171197
776.700	0.0170512
776.779	0.0169552
776.857	0.0171454
776.935	0.0170720
777.013	0.0171413
777.091	0.0170826
777.169	0.0170647
777.247	0.0169806
777.325	0.0169702
777.404	0.0168363
777.482	0.0165123
777.560	0.0165372
777.638	0.0163808
777.716	0.0161835
777.794	0.0160011
777.872	0.0158720
777.950	0.0157719
778.029	0.0156513
778.107	0.0154570
778.185	0.0154261
778.263	0.0152131
778.341	0.0153608
778.419	0.0152985
778.497	0.0153842
778.575	0.0153669
778.654	0.0153642
778.732	0.0153513
778.810	0.0153427
778.888	0.0154972
778.966	0.0154874
779.044	0.0155653
779.122	0.0158637
779.200	0.0157746
779.279	0.0160571
779.357	0.0160419
779.435	0.0160400
779.513	0.0161234
779.591	0.0160832
779.669	0.0161105
779.747	0.0161843
779.825	0.0161577
779.904	0.0163522
779.982	0.0162868
780.060	0.0163033
780.138	0.0163928
780.216	0.0162872
780.294	0.0165630
780.372	0.0165848
780.450	0.0166231
780.529	0.0166136
780.607	0.0166946
780.685	0.0169204
780.763	0.0169467
780.841	0.0171777
780.919	0.0171700
780.997	0.0170789
781.075	0.0172661
781.154	0.0171883
781.232	0.0172597
781.310	0.0171740
781.388	0.0171147
781.466	0.0171025
781.544	0.0168862
781.622	0.0168774
781.700	0.0169028
781.779	0.0166188
781.857	0.0164877
781.935	0.0165084
782.013	0.0162834
782.091	0.0161871
782.169	0.0159613
782.247	0.0157963
782.325	0.0156140
782.404	0.0156306
782.482	0.0155487
782.560	0.0155630
782.638	0.0151795
782.716	0.0153207
782.794	0.0153371
782.872	0.0152901
782.950	0.0153432
783.029	0.0153618
783.107	0.0154542
783.185	0.0154176
783.263	0.0154934
783.341	0.0154406
783.419	0.0157829
783.497	0.0157340
783.575	0.0157707
783.654	0.0157621
783.732	0.0159599
783.810	0.0160930
783.888	0.0160475
783.966	0.0161618
784.044	0.0162375
784.122	0.0162749
784.200	0.0164758
784.279	0.0162318
784.357	0.0163921
784.435	0.0165318
784.513	0.0166179
784.591	0.0167350
784.669	0.0168487
784.747	0.0169355
784.825	0.0169581
784.904	0.0170582
784.982	0.0172299
785.060	0.0173372
785.138	0.0174371
785.216	0.0174525
785.294	0.0174446
785.372	0.0175106
785.450	0.0175758
785.529	0.0175662
785.607	0.0174006
785.685	0.0172318
785.763	0.0172466
785.841	0.0169850
785.919	0.0167820
785.997	0.0167042
786.075	0.0164250
786.154	0.0162575
786.232	0.0162838
786.310	0.0159267
786.388	0.0157172
786.466	0.0156001
786.544	0.0153722
786.622	0.0151785
786.700	0.0148911
786.779	0.0148971
786.857	0.0148158
786.935	0.0147632
787.013	0.0146574
787.091	0.0145740
787.169	0.0147028
787.247	0.0146889
787.325	0.0146717
787.404	0.0148956
787.482	0.0149807
787.560	0.0151342
787.638	0.0153118
787.716	0.0155582
787.794	0.0157005
787.872	0.0158857
787.950	0.0159074
788.029	0.0161240
788.107	0.0163487
788.185	0.0165877
788.263	0.0168333
788.341	0.0170123
788.419	0.0169601
788.497	0.0171684
788.575	0.0173502
788.654	0.0173532
788.732	0.0175392
788.810	0.0176885
788.888	0.0175828
788.966	0.0176563
789.044	0.0178277
789.122	0.0177034
789.200	0.0177032
789.279	0.0177843
789.357	0.0177185
789.435	0.0177530
789.513	0.0177638
789.591	0.0177633
789.669	0.0175967
789.747	0.0174794
789.825	0.0173636
789.904	0.0174329
789.982	0.0172037
790.060	0.0168688
790.138	0.0167525
790.216	0.0164495
790.294	0.0162839
790.372	0.0160749
790.450	0.0158337
790.529	0.0155854
790.607	0.0152966
790.685	0.0151471
790.763	0.0147919
790.841	0.0146812
790.919	0.0145013
790.997	0.0143713
791.075	0.0142278
791.154	0.0141299
791.232	0.0140585
791.310	0.0140151
791.388	0.0141396
791.466	0.0142556
791.544	0.0145188
791.622	0.0145300
791.700	0.0147758
791.779	0.0150506
791.857	0.0151276
791.935	0.0154177
792.013	0.0158354
792.091	0.0161378
792.169	0.0162663
792.247	0.0165174
792.325	0.0168176
792.404	0.0170778
792.482	0.0171844
792.560	0.0173022
792.638	0.0175508
792.716	0.0176891
792.794	0.0177915
792.872	0.0178847
792.950	0.0177983
793.029	0.0179025
793.107	0.0178674
793.185	0.0178932
793.263	0.0177899
793.341	0.0179374
793.419	0.0178393
793.497	0.0177795
793.575	0.0178200
793.654	0.0176577
793.732	0.0175768
793.810	0.0173203
793.888	0.0172707
793.966	0.0170022
794.044	0.0170269
794.122	0.0169683
794.200	0.0166516
794.279	0.0163997
794.357	0.0162068
794.435	0.0160524
794.513	0.0158129
794.591	0.0156964
794.669	0.0154607
794.747	0.0154482
794.825	0.0150671
794.904	0.0149957
794.982	0.0148647
795.060	0.0148359
795.138	0.0146376
795.216	0.0145193
795.294	0.0144580
795.372	0.0145860
795.450	0.0145284
795.529	0.0146923
795.607	0.0146650
795.685	0.0147407
795.763	0.0149082
795.841	0.0150540
795.919	0.0152505
795.997	0.0155202
796.075	0.0156463
796.154	0.0158247
796.232	0.0161646
796.310	0.0164601
796.388	0.0167178
796.466	0.0167702
796.544	0.0169339
796.622	0.0172117
796.700	0.0172369
796.779	0.0175257
796.857	0.0175247
796.935	0.0176183
797.013	0.0177713
797.091	0.0177853
797.169	0.0178316
797.247	0.0177500
797.325	0.0178469
797.404	0.0176472
797.482	0.0175011
797.560	0.0176469
797.638	0.0175485
797.716	0.0174413
797.794	0.0171857
797.872	0.0173041
797.950	0.0171031
798.029	0.0169009
798.107	0.0168672
798.185	0.0168150
798.263	0.0164581
798.341	0.0165290
798.419	0.0162824
798.497	0.0162403
798.575	0.0158883
798.654	0.0159631
798.732	0.0157135
798.810	0.0155166
798.888	0.0154700
798.966	0.0155413
799.044	0.0153617
799.122	0.0151443
799.200	0.0149070
799.279	0.0151188
799.357	0.0151168
799.435	0.0148722
799.513	0.0149944
799.591	0.0150281
799.669	0.0150144
799.747	0.0151984
799.825	0.0151510
799.904	0.0153215
799.982	0.0153338
800.060	0.0154235
800.138	0.0155692
800.216	0.0158727
800.294	0.0160848
800.372	0.0161573
800.450	0.0162891
800.529	0.0164008
800.607	0.0166436
800.685	0.0166567
800.763	0.0169498
800.841	0.0169364
800.919	0.0172676
800.997	0.0172501
801.075	0.0171964
801.154	0.0172048
801.232	0.0174355
801.310	0.0172742
801.388	0.0172668
801.466	0.0172530
801.544	0.0173455
801.622	0.0172468
801.700	0.0171688
801.779	0.0169901
801.857	0.0171496
801.935	0.0168562
802.013	0.0167570
802.091	0.0168221
802.169	0.0167976
802.247	0.0168112
802.325	0.0165839
802.404	0.0164240
802.482	0.0163246
802.560	0.0163332
802.638	0.0162368
802.716	0.0160577
802.794	0.0162093
802.872	0.0160426
802.950	0.0158580
803.029	0.0158745
803.107	0.0156804
803.185	0.0156148
803.263	0.0156033
803.341	0.0155027
803.419	0.0154922
803.497	0.0154983
803.575	0.0155028
803.654	0.0154754
803.732	0.0154225
803.810	0.0155128
803.888	0.0155344
803.966	0.0155710
804.044	0.0156527
804.122	0.0157627
804.200	0.0157901
804.279	0.0159376
804.357	0.0160281
804.435	0.0159209
804.513	0.0160815
804.591	0.0163374
804.669	0.0163185
804.747	0.0164046
804.825	0.0165000
804.904	0.0164572
804.982	0.0165343
805.060	0.0166010
805.138	0.0168191
805.216	0.0166347
805.294	0.0167676
805.372	0.0167543
805.450	0.0167593
805.529	0.0166402
805.607	0.0167429
805.685	0.0167867
805.763	0.0166930
805.841	0.0166560
805.919	0.0167186
805.997	0.0166994
806.075	0.0166232
806.154	0.0164671
806.232	0.0167025
806.310	0.0167060
806.388	0.0166407
806.466	0.0166010
806.544	0.0165428
806.622	0.0166724
806.700	0.0165212
806.779	0.0164552
806.857	0.0164280
806.935	0.0164921
807.013	0.0164516
807.091	0.0163567
807.169	0.0161701
807.247	0.0162563
807.325	0.0161046
807.404	0.0161954
807.482	0.0161245
807.560	0.0160738
807.638	0.0159336
807.716	0.0158539
807.794	0.0159447
807.872	0.0159307
807.950	0.0160281
808.029	0.0157661
808.107	0.0158302
808.185	0.0159894
808.263	0.0160294
808.341	0.0161149
808.419	0.0159202
808.497	0.0160107
808.575	0.0160503
808.654	0.0160217
808.732	0.0160415
808.810	0.0162793
808.888	0.0161055
808.966	0.0160976
809.044	0.0161617
809.122	0.0163737
809.200	0.0163223
809.279	0.0161965
809.357	0.0163047
809.435	0.0164346
809.513	0.0161458
809.591	0.0162433
809.669	0.0163395
809.747	0.0163006
809.825	0.0162018
809.904	0.0162914
809.982	0.0162649
810.060	0.0164561
810.138	0.0162410
810.216	0.0162701
810.294	0.0163990
810.372	0.0165072
810.450	0.0165511
810.529	0.0164022
810.607	0.0164564
810.685	0.0165273
810.763	0.0164265
810.841	0.0163923
810.919	0.0163638
810.997	0.0164911
811.075	0.0164464
811.154	0.0165646
811.232	0.0165221
811.310	0.0164373
811.388	0.0161858
811.466	0.0162888
811.544	0.0162163
811.622	0.0160632
811.700	0.0161739
811.779	0.0161544
811.857	0.0160713
811.935	0.0160654
812.013	0.0158744
812.091	0.0160388
812.169	0.0159769
812.247	0.0159464
812.325	0.0159518
812.404	0.0160069
812.482	0.0160313
812.560	0.0161180
812.638	0.0160509
812.716	0.0159380
812.794	0.0160728
812.872	0.0162323
812.950	0.0161588
813.029	0.0162749
813.107	0.0162554
813.185	0.0162067
813.263	0.0163509
813.341	0.0164189
813.419	0.0162695
813.497	0.0164497
813.575	0.0164513
813.654	0.0164732
813.732	0.0165038
813.810	0.0163403
813.888	0.0165847
813.966	0.0164202
814.044	0.0165634
814.122	0.0166465
814.200	0.0165268
814.279	0.0165102
814.357	0.0166235
814.435	0.0165395
814.513	0.0167278
814.591	0.0165427
814.669	0.0165996
814.747	0.0166973
814.825	0.0167967
814.904	0.0166834
814.982	0.0166192
815.060	0.0166321
815.138	0.0165012
815.216	0.0166129
815.294	0.0166782
815.372	0.0164056
815.450	0.0161804
815.529	0.0164529
815.607	0.0162309
815.685	0.0163181
815.763	0.0161874
815.841	0.0161138
815.919	0.0161543
815.997	0.0159821
816.075	0.0159032
816.154	0.0160108
816.232	0.0158370
816.310	0.0158131
816.388	0.0158620
816.466	0.0156762
816.544	0.0157861
816.622	0.0157800
816.700	0.0157972
816.779	0.0157728
816.857	0.0157526
816.935	0.0158656
817.013	0.0158694
817.091	0.0158147
817.169	0.0158798
817.247	0.0159215
817.325	0.0158752
817.404	0.0159756
817.482	0.0159422
817.560	0.0160357
817.638	0.0162248
817.716	0.0163345
817.794	0.0162245
817.872	0.0164463
817.950	0.0165408
818.029	0.0165554
818.107	0.0165456
818.185	0.0168056
818.263	0.0166829
818.341	0.0168014
818.419	0.0168086
818.497	0.0168199
818.575	0.0168124
818.654	0.0168211
818.732	0.0169470
818.810	0.0169238
818.888	0.0168525
818.966	0.0168972
819.044	0.0170028
819.122	0.0168546
819.200	0.0168378
819.279	0.0167751
819.357	0.0167020
819.435	0.0166021
819.513	0.0166319
819.591	0.0164095
819.669	0.0164404
819.747	0.0164278
819.825	0.0163206
819.904	0.0162111
819.982	0.0161355
820.060	0.0161895
820.138	0.0160339
820.216	0.0159528
820.294	0.0159695
820.372	0.0158076
820.450	0.0159005
820.529	0.0158640
820.607	0.0155524
820.685	0.0157052
820.763	0.0157609
820.841	0.0156902
820.919	0.0156390
820.997	0.0157820
821.075	0.0157784
821.154	0.0156535
821.232	0.0157390
821.310	0.0158195
821.388	0.0159782
821.466	0.0160368
821.544	0.0158555
821.622	0.0161273
821.700	0.0162006
821.779	0.0162611
821.857	0.0164206
821.935	0.0165076
822.013	0.0164626
822.091	0.0165876
822.169	0.0166602
822.247	0.0167506
822.325	0.0166951
822.404	0.0168210
822.482	0.0167556
822.560	0.0168431
822.638	0.0167725
822.716	0.0166541
822.794	0.0167184
822.872	0.0167218
822.950	0.0167707
823.029	0.0169012
823.107	0.0165486
823.185	0.0165967
823.263	0.0166637
823.341	0.0166556
823.419	0.0164885
823.497	0.0165519
823.575	0.0164944
823.654	0.0163734
823.732	0.0164621
823.810	0.0163693
823.888	0.0162730
823.966	0.0162782
824.044	0.0162758
824.122	0.0161060
824.200	0.0161947
824.279	0.0164427
824.357	0.0161214
824.435	0.0160569
824.513	0.0158878
824.591	0.0160641
824.669	0.0159665
824.747	0.0158739
824.825	0.0158620
824.904	0.0159822
824.982	0.0159766
825.060	0.0157613
825.138	0.0158118
825.216	0.0158562
825.294	0.0158660
825.372	0.0158826
825.450	0.0158949
825.529	0.0159199
825.607	0.0158943
825.685	0.0158808
825.763	0.0160175
825.841	0.0160436
825.919	0.0158820
825.997	0.0160560
826.075	0.0162852
826.154	0.0161686
826.232	0.0160921
826.310	0.0163313
826.388	0.0163331
826.466	0.0163197
826.544	0.0163222
826.622	0.0163542
826.700	0.0164698
826.779	0.0165488
826.857	0.0164783
826.935	0.0164928
827.013	0.0166412
827.091	0.0165201
827.169	0.0165182
827.247	0.0164394
827.325	0.0164847
827.404	0.0167023
827.482	0.0165591
827.560	0.0165488
827.638	0.0165116
827.716	0.0165372
827.794	0.0163917
827.872	0.0164494
827.950	0.0165107
828.029	0.0162408
828.107	0.0163063
828.185	0.0162988
828.263	0.0163157
828.341	0.0163190
828.419	0.0164025
828.497	0.0163972
828.575	0.0162316
828.654	0.0163720
828.732	0.0164155
828.810	0.0163029
828.888	0.0163689
828.966	0.0163203
829.044	0.0161223
829.122	0.0162425
829.200	0.0161874
829.279	0.0161005
829.357	0.0160835
829.435	0.0160838
829.513	0.0160931
829.591	0.0160448
829.669	0.0160555
829.747	0.0158935
829.825	0.0161163
829.904	0.0159952
829.982	0.0159886
830.060	0.0159425
830.138	0.0160647
830.216	0.0160854
830.294	0.0160255
830.372	0.0159689
830.450	0.0161549
830.529	0.0162365
830.607	0.0162715
830.685	0.0162511
830.763	0.0163149
830.841	0.0162935
830.919	0.0163144
830.997	0.0163587
831.075	0.0164837
831.154	0.0163913
831.232	0.0164853
831.310	0.0165554
831.388	0.0164934
831.466	0.0165650
831.544	0.0165266
831.622	0.0165952
831.700	0.0165937
831.779	0.0164818
831.857	0.0165094
831.935	0.0163913
832.013	0.0163366
832.091	0.0162617
832.169	0.0163795
832.247	0.0163126
832.325	0.0162361
832.404	0.0163136
832.482	0.0161229
832.560	0.0162096
832.638	0.0162051
832.716	0.0159985
832.794	0.0159999
832.872	0.0160457
832.950	0.0161457
833.029	0.0160606
833.107	0.0159765
833.185	0.0159572
833.263	0.0160863
833.341	0.0161411
833.419	0.0160085
833.497	0.0160885
833.575	0.0160556
833.654	0.0163037
833.732	0.0160477
833.810	0.0161064
833.888	0.0160788
833.966	0.0162450
834.044	0.0163132
834.122	0.0160912
834.200	0.0162222
834.279	0.0162695
834.357	0.0162186
834.435	0.0162719
834.513	0.0161626
834.591	0.0161311
834.669	0.0160889
834.747	0.0160629
834.825	0.0160868
834.904	0.0161690
834.982	0.0161803
835.060	0.0162421
835.138	0.0161491
835.216	0.0163297
835.294	0.0163183
835.372	0.0162872
835.450	0.0164030
835.529	0.0162833
835.607	0.0164912
835.685	0.0163408
835.763	0.0164590
835.841	0.0163393
835.919	0.0164099
835.997	0.0163358
836.075	0.0162997
836.154	0.0165157
836.232	0.0164506
836.310	0.0162814
836.388	0.0162888
836.466	0.0163221
836.544	0.0162474
836.622	0.0161604
836.700	0.0161901
836.779	0.0164000
836.857	0.0162686
836.935	0.0161525
837.013	0.0162180
837.091	0.0162141
837.169	0.0163754
837.247	0.0163965
837.325	0.0162652
837.404	0.0162368
837.482	0.0163222
837.560	0.0162849
837.638	0.0163800
837.716	0.0162200
837.794	0.0163787
837.872	0.0164325
837.950	0.0163140
838.029	0.0162560
838.107	0.0162988
838.185	0.0162875
838.263	0.0161701
838.341	0.0162097
838.419	0.0161926
838.497	0.0164091
838.575	0.0162206
838.654	0.0162254
838.732	0.0162277
838.810	0.0162641
838.888	0.0161692
838.966	0.0161337
839.044	0.0161829
839.122	0.0162043
839.200	0.0162353
839.279	0.0161872
839.357	0.0162188
839.435	0.0162035
839.513	0.0162345
839.591	0.0162053
839.669	0.0162731
839.747	0.0162563
839.825	0.0162008
839.904	0.0163376
839.982	0.0163506
840.060	0.0164668
840.138	0.0163811
840.216	0.0164696
840.294	0.0164503
840.372	0.0163569
840.450	0.0163949
840.529	0.0163134
840.607	0.0165040
840.685	0.0165719
840.763	0.0163219
840.841	0.0162850
840.919	0.0163456
840.997	0.0162903
841.075	0.0162032
841.154	0.0162222
841.232	0.0162961
841.310	0.0161229
841.388	0.0161416
841.466	0.0162579
841.544	0.0161176
841.622	0.0161953
841.700	0.0161612
841.779	0.0162084
841.857	0.0162328
841.935	0.0162523
842.013	0.0162605
842.091	0.0164156
842.169	0.0162320
842.247	0.0162421
842.325	0.0163628
842.404	0.0161671
842.482	0.0164010
842.560	0.0162917
842.638	0.0164155
842.716	0.0163023
842.794	0.0162742
842.872	0.0162989
842.950	0.0162109
843.029	0.0163591
843.107	0.0163908
843.185	0.0162538
843.263	0.0162421
843.341	0.0161597
843.419	0.0162756
843.497	0.0161842
843.575	0.0163002
843.654	0.0162677
843.732	0.0161920
843.810	0.0162698
843.888	0.0163049
843.966	0.0163110
844.044	0.0162984
844.122	0.0162420
844.200	0.0163255
844.279	0.0163774
844.357	0.0163197
844.435	0.0163242
844.513	0.0164023
844.591	0.0163396
844.669	0.0162854
844.747	0.0162978
844.825	0.0164631
844.904	0.0163548
844.982	0.0163583
845.060	0.0163744
845.138	0.0163834
845.216	0.0163161
845.294	0.0164109
845.372	0.0162119
845.450	0.0162425
845.529	0.0163426
845.607	0.0163261
845.685	0.0162547
845.763	0.0163246
845.841	0.0163008
845.919	0.0163125
845.997	0.0163679
846.075	0.0163860
846.154	0.0162092
846.232	0.0162152
846.310	0.0161321
846.388	0.0163446
846.466	0.0162155
846.544	0.0162402
846.622	0.0162871
846.700	0.0163666
846.779	0.0162809
846.857	0.0163339
846.935	0.0162923
847.013	0.0163181
847.091	0.0162894
847.169	0.0160754
847.247	0.0161445
847.325	0.0162752
847.404	0.0161674
847.482	0.0161244
847.560	0.0162906
847.638	0.0163550
847.716	0.0161729
847.794	0.0161671
847.872	0.0161627
847.950	0.0162080
848.029	0.0161406
848.107	0.0161095
848.185	0.0161283
848.263	0.0161395
848.341	0.0161537
848.419	0.0162671
848.497	0.0160442
848.575	0.0162285
848.654	0.0162799
848.732	0.0160970
848.810	0.0162998
848.888	0.0162328
848.966	0.0162326
849.044	0.0163930
849.122	0.0164253
849.200	0.0164230
849.279	0.0163595
849.357	0.0163676
849.435	0.0164073
849.513	0.0163773
849.591	0.0165225
849.669	0.0164032
849.747	0.0163393
849.825	0.0162936
849.904	0.0162521
849.982	0.0163179
850.060	0.0162747
850.138	0.0163337
850.216	0.0162138
850.294	0.0161927
850.372	0.0160323
850.450	0.0160732
850.529	0.0161506
850.607	0.0161534
850.685	0.0159579
850.763	0.0160499
850.841	0.0160748
850.919	0.0161714
850.997	0.0162006
851.075	0.0161511
851.154	0.0161634
851.232	0.0162411
851.310	0.0162614
851.388	0.0162200
851.466	0.0162117
851.544	0.0162756
851.622	0.0162949
851.700	0.0161430
851.779	0.0162238
851.857	0.0160617
851.935	0.0160967
852.013	0.0162125
852.091	0.0162489
852.169	0.0160938
852.247	0.0161369
852.325	0.0162319
852.404	0.0162389
852.482	0.0161174
852.560	0.0162201
852.638	0.0162798
852.716	0.0161971
852.794	0.0163036
852.872	0.0162835
852.950	0.0162533
853.029	0.0163239
853.107	0.0163772
853.185	0.0164700
853.263	0.0163471
853.341	0.0163291
853.419	0.0163686
853.497	0.0161819
853.575	0.0162678
853.654	0.0162950
853.732	0.0161975
853.810	0.0163329
853.888	0.0162366
853.966	0.0162841
854.044	0.0162191
854.122	0.0164423
854.200	0.0163718
854.279	0.0163499
854.357	0.0161675
854.435	0.0162948
854.513	0.0161337
854.591	0.0163274
854.669	0.0162392
854.747	0.0161918
854.825	0.0162418
854.904	0.0162047
854.982	0.0162742
855.060	0.0162525
855.138	0.0162323
855.216	0.0162963
855.294	0.0161713
855.372	0.0161806
855.450	0.0164256
855.529	0.0163107
855.607	0.0162074
855.685	0.0160868
855.763	0.0161720
855.841	0.0160741
855.919	0.0162514
855.997	0.0160368
856.075	0.0160235
856.154	0.0159440
856.232	0.0158958
856.310	0.0160581
856.388	0.0160609
856.466	0.0160502
856.544	0.0160263
856.622	0.0159774
856.700	0.0160615
856.779	0.0160845
856.857	0.0160970
856.935	0.0158807
857.013	0.0161017
857.091	0.0161617
857.169	0.0160398
857.247	0.0161789
857.325	0.0163174
857.404	0.0162307
857.482	0.0161647
857.560	0.0161884
857.638	0.0162300
857.716	0.0162594
857.794	0.0163009
857.872	0.0163319
857.950	0.0163862
858.029	0.0163789
858.107	0.0162799
858.185	0.0162460
858.263	0.0163131
858.341	0.0162982
858.419	0.0163617
858.497	0.0164726
858.575	0.0163064
858.654	0.0164555
858.732	0.0163619
858.810	0.0163522
858.888	0.0163042
858.966	0.0163679
859.044	0.0162786
859.122	0.0163606
859.200	0.0164074
859.279	0.0162976
859.357	0.0163982
859.435	0.0164363
859.513	0.0163757
859.591	0.0163400
859.669	0.0161974
859.747	0.0163229
859.825	0.0162707
859.904	0.0164465
859.982	0.0163667
860.060	0.0163027
860.138	0.0164275
860.216	0.0163068
860.294	0.0162844
860.372	0.0161985
860.450	0.0161729
860.529	0.0161685
860.607	0.0161222
860.685	0.0162426
860.763	0.0161665
860.841	0.0161766
860.919	0.0160370
860.997	0.0159252
861.075	0.0160800
861.154	0.0160589
861.232	0.0160744
861.310	0.0161779
861.388	0.0161703
861.466	0.0162244
861.544	0.0161725
861.622	0.0162802
861.700	0.0161606
861.779	0.0162977
861.857	0.0161421
861.935	0.0161274
862.013	0.0162103
862.091	0.0161967
862.169	0.0162461
862.247	0.0161541
862.325	0.0161475
862.404	0.0160396
862.482	0.0162849
862.560	0.0162029
862.638	0.0162341
862.716	0.0162875
862.794	0.0162413
862.872	0.0163143
862.950	0.0163187
863.029	0.0163973
863.107	0.0164350
863.185	0.0164664
863.263	0.0165309
863.341	0.0164989
863.419	0.0164320
863.497	0.0165355
863.575	0.0166386
863.654	0.0166022
863.732	0.0165138
863.810	0.0164039
863.888	0.0166447
863.966	0.0166483
864.044	0.0165035
864.122	0.0164474
864.200	0.0164408
864.279	0.0163538
864.357	0.0163298
864.435	0.0163540
864.513	0.0164664
864.591	0.0163594
864.669	0.0162921
864.747	0.0161902
864.825	0.0161081
864.904	0.0160764
864.982	0.0161031
865.060	0.0159717
865.138	0.0160445
865.216	0.0159923
865.294	0.0160515
865.372	0.0160388
865.450	0.0158929
865.529	0.0159420
865.607	0.0159106
865.685	0.0161039
865.763	0.0161383
865.841	0.0159010
865.919	0.0160487
865.997	0.0161706
866.075	0.0161220
866.154	0.0160646
866.232	0.0160661
866.310	0.0161691
866.388	0.0161053
866.466	0.0162405
866.544	0.0161337
866.622	0.0160656
866.700	0.0162429
866.779	0.0162617
866.857	0.0163126
866.935	0.0163419
867.013	0.0163814
867.091	0.0162664
867.169	0.0163951
867.247	0.0163874
867.325	0.0163432
867.404	0.0161906
867.482	0.0164538
867.560	0.0164651
867.638	0.0165009
867.716	0.0166036
867.794	0.0164956
867.872	0.0165779
867.950	0.0165328
868.029	0.0165714
868.107	0.0165096
868.185	0.0165147
868.263	0.0165797
868.341	0.0164583
868.419	0.0164407
868.497	0.0163691
868.575	0.0162909
868.654	0.0164410
868.732	0.0162512
868.810	0.0161054
868.888	0.0160580
868.966	0.0161413
869.044	0.0161736
869.122	0.0161219
869.200	0.0160030
869.279	0.0161243
869.357	0.0160158
869.435	0.0160983
869.513	0.0161882
869.591	0.0161000
869.669	0.0159474
869.747	0.0160328
869.825	0.0160510
869.904	0.0159849
869.982	0.0159467
870.060	0.0160961
870.138	0.0159367
870.216	0.0160625
870.294	0.0160706
870.372	0.0159899
870.450	0.0160479
870.529	0.0159628
870.607	0.0160125
870.685	0.0159551
870.763	0.0160249
870.841	0.0161718
870.919	0.0162057
870.997	0.0161758
871.075	0.0163606
871.154	0.0162935
871.232	0.0164951
871.310	0.0163405
871.388	0.0164754
871.466	0.0165582
871.544	0.0166173
871.622	0.0163722
871.700	0.0165907
871.779	0.0164358
871.857	0.0164097
871.935	0.0163042
872.013	0.0164713
872.091	0.0164329
872.169	0.0164958
872.247	0.0164066
872.325	0.0164465
872.404	0.0164449
872.482	0.0163905
872.560	0.0164102
872.638	0.0163100
872.716	0.0163827
872.794	0.0163271
872.872	0.0163906
872.950	0.0163561
873.029	0.0163246
873.107	0.0162093
873.185	0.0162325
873.263	0.0163036
873.341	0.0160714
873.419	0.0159359
873.497	0.0160217
873.575	0.0161607
873.654	0.0160945
873.732	0.0159185
873.810	0.0158071
873.888	0.0160508
873.966	0.0160576
874.044	0.0157298
874.122	0.0160042
874.200	0.0158971
874.279	0.0159659
874.357	0.0159477
874.435	0.0158516
874.513	0.0157840
874.591	0.0161141
874.669	0.0160870
874.747	0.0160033
874.825	0.0161254
874.904	0.0161961
874.982	0.0163245
875.060	0.0161104
875.138	0.0162563
875.216	0.0162811
875.294	0.0164172
875.372	0.0164477
875.450	0.0163571
875.529	0.0165231
875.607	0.0164426
875.685	0.0166016
875.763	0.0166750
875.841	0.0166945
875.919	0.0166245
875.997	0.0167292
876.075	0.0169334
876.154	0.0168913
876.232	0.0168610
876.310	0.0168834
876.388	0.0168712
876.466	0.0168221
876.544	0.0165968
876.622	0.0165587
876.700	0.0164227
876.779	0.0163474
876.857	0.0162895
876.935	0.0159780
877.013	0.0160051
877.091	0.0158894
877.169	0.0158971
877.247	0.0159565
877.325	0.0159829
877.404	0.0160052
877.482	0.0161471
877.560	0.0162138
877.638	0.0161336
877.716	0.0161484
877.794	0.0161047
877.872	0.0161217
877.950	0.0161471
878.029	0.0161298
878.107	0.0161056
878.185	0.0158574
878.263	0.0158959
878.341	0.0159093
878.419	0.0158684
878.497	0.0157527
878.575	0.0159398
878.654	0.0158542
878.732	0.0159541
878.810	0.0160237
878.888	0.0161326
878.966	0.0161974
879.044	0.0161291
879.122	0.0162866
879.200	0.0162479
879.279	0.0162847
879.357	0.0162766
879.435	0.0161497
879.513	0.0161282
879.591	0.0162857
879.669	0.0163718
879.747	0.0162167
879.825	0.0163078
879.904	0.0163545
879.982	0.0164301
880.060	0.0166479
880.138	0.0168631
880.216	0.0168934
880.294	0.0168497
880.372	0.0168537
880.450	0.0170887
880.529	0.0169047
880.607	0.0171634
880.685	0.0171281
880.763	0.0168980
880.841	0.0168958
880.919	0.0168707
880.997	0.0167741
881.075	0.0165301
881.154	0.0165630
881.232	0.0163838
881.310	0.0161777
881.388	0.0158962
881.466	0.0157396
881.544	0.0156373
881.622	0.0156664
881.700	0.0155251
881.779	0.0154980
881.857	0.0152886
881.935	0.0153015
882.013	0.0152835
882.091	0.0153104
882.169	0.0153682
882.247	0.0154651
882.325	0.0153983
882.404	0.0156199
882.482	0.0158729
882.560	0.0157991
882.638	0.0159104
882.716	0.0161549
882.794	0.0162187
882.872	0.0163563
882.950	0.0163647
883.029	0.0164759
883.107	0.0164780
883.185	0.0166920
883.263	0.0167049
883.341	0.0167102
883.419	0.0168641
883.497	0.0168562
883.575	0.0169221
883.654	0.0169678
883.732	0.0169617
883.810	0.0169852
883.888	0.0167596
883.966	0.0167570
884.044	0.0168134
884.122	0.0166819
884.200	0.0165829
884.279	0.0167282
884.357	0.0166061
884.435	0.0165431
884.513	0.0165141
884.591	0.0164101
884.669	0.0163947
884.747	0.0163071
884.825	0.0164075
884.904	0.0164220
884.982	0.0164288
885.060	0.0163501
885.138	0.0162980
885.216	0.0163171
885.294	0.0163906
885.372	0.0162964
885.450	0.0160252
885.529	0.0160432
885.607	0.0158750
885.685	0.0158434
885.763	0.0157686
885.841	0.0155511
885.919	0.0155840
885.997	0.0155625
886.075	0.0156100
886.154	0.0153426
886.232	0.0154247
886.310	0.0154411
886.388	0.0154611
886.466	0.0155259
886.544	0.0156113
886.622	0.0157690
886.700	0.0159230
886.779	0.0161137
886.857	0.0163085
886.935	0.0164032
887.013	0.0164241
887.091	0.0166166
887.169	0.0168455
887.247	0.0168151
887.325	0.0171351
887.404	0.0171581
887.482	0.0170581
887.560	0.0173119
887.638	0.0171906
887.716	0.0172123
887.794	0.0171617
887.872	0.0169314
887.950	0.0168784
888.029	0.0167967
888.107	0.0166066
888.185	0.0164141
888.263	0.0162417
888.341	0.0160724
888.419	0.0160844
888.497	0.0160825
888.575	0.0157595
888.654	0.0158263
888.732	0.0160736
888.810	0.0160646
888.888	0.0160953
888.966	0.0161402
889.044	0.0160137
889.122	0.0163317
889.200	0.0161894
889.279	0.0160696
889.357	0.0162731
889.435	0.0164005
889.513	0.0162571
889.591	0.0162943
889.669	0.0163049
889.747	0.0160264
889.825	0.0161651
889.904	0.0160620
889.982	0.0159278
890.060	0.0159774
890.138	0.0159960
890.216	0.0160104
890.294	0.0159205
890.372	0.0159195
890.450	0.0157860
890.529	0.0159547
890.607	0.0159427
890.685	0.0159156
890.763	0.0159271
890.841	0.0161729
890.919	0.0162395
890.997	0.0162769
891.075	0.0162564
891.154	0.0163284
891.232	0.0166058
891.310	0.0166634
891.388	0.0166975
891.466	0.0169765
891.544	0.0169676
891.622	0.0171235
891.700	0.0172051
891.779	0.0170430
891.857	0.0170586
891.935	0.0170963
892.013	0.0171320
892.091	0.0171848
892.169	0.0170085
892.247	0.0166655
892.325	0.0166077
892.404	0.0163694
892.482	0.0161909
892.560	0.0160902
892.638	0.0159620
892.716	0.0160114
892.794	0.0159254
892.872	0.0156501
892.950	0.0158937
893.029	0.0158150
893.107	0.0157227
893.185	0.0157619
893.263	0.0158086
893.341	0.0157638
893.419	0.0158887
893.497	0.0158949
893.575	0.0158382
893.654	0.0157881
893.732	0.0158679
893.810	0.0158889
893.888	0.0157500
893.966	0.0157905
894.044	0.0157890
894.122	0.0160086
894.200	0.0161443
894.279	0.0160220
894.357	0.0159816
894.435	0.0159567
894.513	0.0160870
894.591	0.0160990
894.669	0.0162119
894.747	0.0162784
894.825	0.0163933
894.904	0.0163815
894.982	0.0165092
895.060	0.0165263
895.138	0.0166074
895.216	0.0164852
895.294	0.0165632
895.372	0.0167417
895.450	0.0168234
895.529	0.0168166
895.607	0.0166477
895.685	0.0168146
895.763	0.0167358
895.841	0.0167910
895.919	0.0168855
895.997	0.0167575
896.075	0.0167181
896.154	0.0166821
896.232	0.0165745
896.310	0.0164343
896.388	0.0163586
896.466	0.0163811
896.544	0.0162801
896.622	0.0161085
896.700	0.0159756
896.779	0.0158859
896.857	0.0158176
896.935	0.0157079
897.013	0.0158199
897.091	0.0157689
897.169	0.0158523
897.247	0.0157603
897.325	0.0156945
897.404	0.0158491
897.482	0.0158863
897.560	0.0158797
897.638	0.0159560
897.716	0.0160020
897.794	0.0160348
897.872	0.0161156
897.950	0.0162668
898.029	0.0160664
898.107	0.0161686
898.185	0.0161039
898.263	0.0161591
898.341	0.0161490
898.419	0.0160365
898.497	0.0161047
898.575	0.0161633
898.654	0.0160589
898.732	0.0160579
898.810	0.0159556
898.888	0.0161054
898.966	0.0161487
899.044	0.0164088
899.122	0.0163568
899.200	0.0163245
899.279	0.0164357
899.357	0.0164900
899.435	0.0166161
899.513	0.0166261
899.591	0.0165965
899.669	0.0164693
899.747	0.0167238
899.825	0.0167704
899.904	0.0166215
899.982	0.0166441
900.060	0.0165106
900.138	0.0165746
900.216	0.0165291
900.294	0.0164308
900.372	0.0164177
900.450	0.0163590
900.529	0.0163591
900.607	0.0161366
900.685	0.0161071
900.763	0.0159473
900.841	0.0160526
900.919	0.0159095
900.997	0.0159591
901.075	0.0160872
901.154	0.0159251
901.232	0.0159129
901.310	0.0160797
901.388	0.0160346
901.466	0.0161518
901.544	0.0162840
901.622	0.0163016
901.700	0.0163403
901.779	0.0164709
901.857	0.0164507
901.935	0.0165438
902.013	0.0164793
902.091	0.0165733
902.169	0.0165143
902.247	0.0165356
902.325	0.0164939
902.404	0.0163958
902.482	0.0162941
902.560	0.0162883
902.638	0.0162457
902.716	0.0162955
902.794	0.0162965
902.872	0.0161117
902.950	0.0161581
903.029	0.0160726
903.107	0.0160865
903.185	0.0163092
903.263	0.0163396
903.341	0.0161916
903.419	0.0162188
903.497	0.0162192
903.575	0.0162027
903.654	0.0162469
903.732	0.0161549
903.810	0.0160622
903.888	0.0161742
903.966	0.0161143
904.044	0.0161630
904.122	0.0161782
904.200	0.0161759
904.279	0.0162757
904.357	0.0161531
904.435	0.0163692
904.513	0.0162110
904.591	0.0162611
904.669	0.0163047
904.747	0.0163514
904.825	0.0163293
904.904	0.0161922
904.982	0.0162248
905.060	0.0164254
905.138	0.0163519
905.216	0.0163855
905.294	0.0164671
905.372	0.0163463
905.450	0.0164658
905.529	0.0164275
905.607	0.0166373
905.685	0.0165809
905.763	0.0167138
905.841	0.0166604
905.919	0.0166206
905.997	0.0167286
906.075	0.0168064
906.154	0.0165938
906.232	0.0165215
906.310	0.0165487
906.388	0.0166474
906.466	0.0165187
906.544	0.0164174
906.622	0.0163911
906.700	0.0163671
906.779	0.0163161
906.857	0.0161909
906.935	0.0161700
907.013	0.0161256
907.091	0.0161117
907.169	0.0161057
907.247	0.0159622
907.325	0.0157732
907.404	0.0158180
907.482	0.0159557
907.560	0.0156918
907.638	0.0159422
907.716	0.0157758
907.794	0.0157829
907.872	0.0158067
907.950	0.0159084
908.029	0.0159140
908.107	0.0157880
908.185	0.0159287
908.263	0.0160487
908.341	0.0162349
908.419	0.0163607
908.497	0.0162327
908.575	0.0164635
908.654	0.0165255
908.732	0.0165044
908.810	0.0164993
908.888	0.0165510
908.966	0.0165696
909.044	0.0162936
909.122	0.0166629
909.200	0.0166184
909.279	0.0164459
909.357	0.0165388
909.435	0.0164480
909.513	0.0164641
909.591	0.0165031
909.669	0.0163968
909.747	0.0164655
909.825	0.0165572
909.904	0.0164989
909.982	0.0166268
910.060	0.0166170
910.138	0.0164755
910.216	0.0165536
910.294	0.0164311
910.372	0.0164350
910.450	0.0165154
910.529	0.0164315
910.607	0.0165026
910.685	0.0163748
910.763	0.0163998
910.841	0.0162892
910.919	0.0162814
910.997	0.0162262
911.075	0.0162573
911.154	0.0161024
911.232	0.0159315
911.310	0.0160619
911.388	0.0160457
911.466	0.0159559
911.544	0.0159810
911.622	0.0158144
911.700	0.0158704
911.779	0.0158023
911.857	0.0158591
911.935	0.0156844
912.013	0.0157626
912.091	0.0158909
912.169	0.0158553
912.247	0.0159663
912.325	0.0158846
912.404	0.0159447
912.482	0.0159092
912.560	0.0161797
912.638	0.0161163
912.716	0.0162790
912.794	0.0162869
912.872	0.0164091
912.950	0.0163782
913.029	0.0164677
913.107	0.0166058
913.185	0.0166498
913.263	0.0166810
913.341	0.0166331
913.419	0.0166287
913.497	0.0167297
913.575	0.0167288
913.654	0.0166231
913.732	0.0166673
913.810	0.0165748
913.888	0.0165567
913.966	0.0164754
914.044	0.0165356
914.122	0.0164717
914.200	0.0164480
914.279	0.0166515
914.357	0.0164431
914.435	0.0163200
914.513	0.0163446
914.591	0.0163361
914.669	0.0163408
914.747	0.0162532
914.825	0.0161770
914.904	0.0162656
914.982	0.0162468
915.060	0.0162775
915.138	0.0161609
915.216	0.0161411
915.294	0.0161750
915.372	0.0161773
915.450	0.0160947
915.529	0.0160156
915.607	0.0159820
915.685	0.0158595
915.763	0.0158961
915.841	0.0159518
915.919	0.0158794
915.997	0.0158181
916.075	0.0157902
916.154	0.0159564
916.232	0.0160592
916.310	0.0159753
916.388	0.0160011
916.466	0.0159190
916.544	0.0161119
916.622	0.0160462
916.700	0.0160622
916.779	0.0163207
916.857	0.0162320
916.935	0.0162853
917.013	0.0164107
917.091	0.0164281
917.169	0.0162022
917.247	0.0162860
917.325	0.0161718
917.404	0.0163456
917.482	0.0163403
917.560	0.0162582
917.638	0.0164221
917.716	0.0164112
917.794	0.0162686
917.872	0.0164256
917.950	0.0164326
918.029	0.0164468
918.107	0.0164856
918.185	0.0164544
918.263	0.0165805
918.341	0.0165693
918.419	0.0165984
918.497	0.0165507
918.575	0.0166109
918.654	0.0165146
918.732	0.0165397
918.810	0.0165324
918.888	0.0164500
918.966	0.0165295
919.044	0.0163381
919.122	0.0163638
919.200	0.0164136
919.279	0.0162841
919.357	0.0163702
919.435	0.0161697
919.513	0.0160776
919.591	0.0160871
919.669	0.0161147
919.747	0.0160665
919.825	0.0159502
919.904	0.0159189
