06/03/2022	13:50:34	Ver.	4.1	UNKNOWN
Optical Delay	599.988409	Delta X		0.078125	Sweeps	1	Scan Rate	0/0
Coordinates	Axis 1	NaN	Axis 2	NaN	Axis 3	NaN	Axis 4	NaN	Axis 5	NaN	Axis 6	0.000000
TX Power	0.000000	RX Power	0.000000

599.988	0.0167551
600.067	0.0168007
600.145	0.0167206
600.223	0.0167753
600.301	0.0167239
600.379	0.0168243
600.457	0.0168092
600.535	0.0167890
600.613	0.0168292
600.692	0.0166385
600.770	0.0167858
600.848	0.0169265
600.926	0.0167973
601.004	0.0167739
601.082	0.0166930
601.160	0.0167699
601.238	0.0168108
601.317	0.0168353
601.395	0.0167675
601.473	0.0167931
601.551	0.0168774
601.629	0.0166695
601.707	0.0168877
601.785	0.0169278
601.863	0.0167368
601.942	0.0166965
602.020	0.0168387
602.098	0.0168700
602.176	0.0166529
602.254	0.0166570
602.332	0.0168825
602.410	0.0167155
602.488	0.0167589
602.567	0.0167356
602.645	0.0166675
602.723	0.0167224
602.801	0.0167142
602.879	0.0166715
602.957	0.0167593
603.035	0.0167989
603.113	0.0168327
603.192	0.0167523
603.270	0.0168543
603.348	0.0167552
603.426	0.0167124
603.504	0.0167609
603.582	0.0169035
603.660	0.0168999
603.738	0.0167049
603.817	0.0166412
603.895	0.0168700
603.973	0.0167210
604.051	0.0167669
604.129	0.0167896
604.207	0.0167461
604.285	0.0167691
604.363	0.0166067
604.442	0.0166665
604.520	0.0168610
604.598	0.0168038
604.676	0.0168367
604.754	0.0166933
604.832	0.0168180
604.910	0.0166852
604.988	0.0168360
605.067	0.0167187
605.145	0.0167698
605.223	0.0167762
605.301	0.0166968
605.379	0.0167857
605.457	0.0166365
605.535	0.0168127
605.613	0.0168509
605.692	0.0167131
605.770	0.0167008
605.848	0.0167070
605.926	0.0167210
606.004	0.0168568
606.082	0.0168179
606.160	0.0166765
606.238	0.0166974
606.317	0.0168218
606.395	0.0166444
606.473	0.0166972
606.551	0.0167400
606.629	0.0167868
606.707	0.0167748
606.785	0.0168457
606.863	0.0167339
606.942	0.0166741
607.020	0.0168021
607.098	0.0167725
607.176	0.0168442
607.254	0.0168387
607.332	0.0167901
607.410	0.0167694
607.488	0.0166496
607.567	0.0168097
607.645	0.0169071
607.723	0.0167561
607.801	0.0167719
607.879	0.0167319
607.957	0.0167844
608.035	0.0167809
608.113	0.0167883
608.192	0.0168793
608.270	0.0168047
608.348	0.0167013
608.426	0.0167545
608.504	0.0168528
608.582	0.0166972
608.660	0.0168129
608.738	0.0167793
608.817	0.0166214
608.895	0.0167249
608.973	0.0167181
609.051	0.0167432
609.129	0.0166422
609.207	0.0169651
609.285	0.0167530
609.363	0.0166689
609.442	0.0166822
609.520	0.0168433
609.598	0.0167979
609.676	0.0167654
609.754	0.0167767
609.832	0.0166597
609.910	0.0166586
609.988	0.0166895
610.067	0.0168384
610.145	0.0169015
610.223	0.0167495
610.301	0.0167303
610.379	0.0168427
610.457	0.0168253
610.535	0.0167314
610.613	0.0167735
610.692	0.0167891
610.770	0.0168208
610.848	0.0167271
610.926	0.0168246
611.004	0.0166821
611.082	0.0167585
611.160	0.0166643
611.238	0.0167680
611.317	0.0167308
611.395	0.0168657
611.473	0.0167064
611.551	0.0167676
611.629	0.0167509
611.707	0.0168609
611.785	0.0167324
611.863	0.0166477
611.942	0.0169425
612.020	0.0167897
612.098	0.0167229
612.176	0.0168777
612.254	0.0168272
612.332	0.0167510
612.410	0.0166998
612.488	0.0168899
612.567	0.0167194
612.645	0.0165440
612.723	0.0168835
612.801	0.0168031
612.879	0.0167546
612.957	0.0166763
613.035	0.0167534
613.113	0.0167570
613.192	0.0168969
613.270	0.0168096
613.348	0.0168372
613.426	0.0167483
613.504	0.0167811
613.582	0.0168584
613.660	0.0167317
613.738	0.0167637
613.817	0.0166355
613.895	0.0167441
613.973	0.0167532
614.051	0.0166598
614.129	0.0168155
614.207	0.0168298
614.285	0.0169402
614.363	0.0167774
614.442	0.0167094
614.520	0.0167915
614.598	0.0167239
614.676	0.0167673
614.754	0.0167738
614.832	0.0167770
614.910	0.0166535
614.988	0.0167484
615.067	0.0166824
615.145	0.0167982
615.223	0.0168217
615.301	0.0166991
615.379	0.0167616
615.457	0.0166615
615.535	0.0169086
615.613	0.0168684
615.692	0.0167603
615.770	0.0167855
615.848	0.0167509
615.926	0.0168531
616.004	0.0167481
616.082	0.0168219
616.160	0.0168319
616.238	0.0168064
616.317	0.0167278
616.395	0.0167453
616.473	0.0166964
616.551	0.0166700
616.629	0.0168204
616.707	0.0166946
616.785	0.0168390
616.863	0.0168026
616.942	0.0167867
617.020	0.0168279
617.098	0.0167693
617.176	0.0167482
617.254	0.0167384
617.332	0.0167010
617.410	0.0167388
617.488	0.0166502
617.567	0.0169177
617.645	0.0168277
617.723	0.0167949
617.801	0.0167041
617.879	0.0168444
617.957	0.0167346
618.035	0.0167637
618.113	0.0166230
618.192	0.0165678
618.270	0.0166761
618.348	0.0168244
618.426	0.0167911
618.504	0.0167398
618.582	0.0168637
618.660	0.0167236
618.738	0.0168182
618.817	0.0167410
618.895	0.0166022
618.973	0.0167904
619.051	0.0168941
619.129	0.0167925
619.207	0.0167651
619.285	0.0167471
619.363	0.0166563
619.442	0.0168118
619.520	0.0166713
619.598	0.0167207
619.676	0.0168117
619.754	0.0167741
619.832	0.0168075
619.910	0.0167180
619.988	0.0167118
620.067	0.0168985
620.145	0.0168214
620.223	0.0165842
620.301	0.0167683
620.379	0.0168471
620.457	0.0167378
620.535	0.0167362
620.613	0.0167766
620.692	0.0166797
620.770	0.0167690
620.848	0.0167343
620.926	0.0167303
621.004	0.0167585
621.082	0.0166952
621.160	0.0168502
621.238	0.0168743
621.317	0.0167607
621.395	0.0168843
621.473	0.0167029
621.551	0.0167431
621.629	0.0167126
621.707	0.0167574
621.785	0.0167085
621.863	0.0167102
621.942	0.0168561
622.020	0.0168248
622.098	0.0167716
622.176	0.0166441
622.254	0.0166936
622.332	0.0169413
622.410	0.0167290
622.488	0.0167041
622.567	0.0166854
622.645	0.0167280
622.723	0.0168642
622.801	0.0167655
622.879	0.0168266
622.957	0.0167781
623.035	0.0166940
623.113	0.0167207
623.192	0.0167172
623.270	0.0167706
623.348	0.0166841
623.426	0.0167901
623.504	0.0167805
623.582	0.0168552
623.660	0.0165873
623.738	0.0167226
623.817	0.0168098
623.895	0.0166780
623.973	0.0167086
624.051	0.0166845
624.129	0.0166987
624.207	0.0166892
624.285	0.0166720
624.363	0.0166012
624.442	0.0166763
624.520	0.0167388
624.598	0.0167522
624.676	0.0167043
624.754	0.0167590
624.832	0.0166776
624.910	0.0165911
624.988	0.0167448
625.067	0.0168678
625.145	0.0166811
625.223	0.0167770
625.301	0.0167587
625.379	0.0166626
625.457	0.0167744
625.535	0.0167400
625.613	0.0169042
625.692	0.0166821
625.770	0.0166263
625.848	0.0168427
625.926	0.0169084
626.004	0.0167549
626.082	0.0166286
626.160	0.0165913
626.238	0.0168198
626.317	0.0168173
626.395	0.0166497
626.473	0.0166833
626.551	0.0167339
626.629	0.0167271
626.707	0.0166736
626.785	0.0166286
626.863	0.0167101
626.942	0.0167917
627.020	0.0167613
627.098	0.0167362
627.176	0.0167967
627.254	0.0166570
627.332	0.0168116
627.410	0.0167604
627.488	0.0168875
627.567	0.0166344
627.645	0.0166155
627.723	0.0167112
627.801	0.0167507
627.879	0.0167592
627.957	0.0167456
628.035	0.0167117
628.113	0.0167075
628.192	0.0167380
628.270	0.0166488
628.348	0.0166900
628.426	0.0167641
628.504	0.0168029
628.582	0.0168265
628.660	0.0168487
628.738	0.0166864
628.817	0.0167587
628.895	0.0167779
628.973	0.0168074
629.051	0.0166947
629.129	0.0166835
629.207	0.0167346
629.285	0.0166943
629.363	0.0168046
629.442	0.0169077
629.520	0.0166905
629.598	0.0168468
629.676	0.0166740
629.754	0.0167084
629.832	0.0167902
629.910	0.0167101
629.988	0.0167218
630.067	0.0167806
630.145	0.0169080
630.223	0.0167950
630.301	0.0167723
630.379	0.0167160
630.457	0.0167052
630.535	0.0167761
630.613	0.0168662
630.692	0.0167167
630.770	0.0168107
630.848	0.0167849
630.926	0.0166838
631.004	0.0167763
631.082	0.0167433
631.160	0.0167116
631.238	0.0166570
631.317	0.0167955
631.395	0.0167526
631.473	0.0167871
631.551	0.0166527
631.629	0.0167800
631.707	0.0167401
631.785	0.0167307
631.863	0.0166857
631.942	0.0168252
632.020	0.0166711
632.098	0.0167852
632.176	0.0168240
632.254	0.0168319
632.332	0.0166991
632.410	0.0167763
632.488	0.0167232
632.567	0.0167986
632.645	0.0167905
632.723	0.0167736
632.801	0.0169109
632.879	0.0169100
632.957	0.0168318
633.035	0.0166935
633.113	0.0166805
633.192	0.0167855
633.270	0.0167376
633.348	0.0168491
633.426	0.0167082
633.504	0.0167149
633.582	0.0169086
633.660	0.0167570
633.738	0.0167941
633.817	0.0168003
633.895	0.0167615
633.973	0.0168166
634.051	0.0167380
634.129	0.0168494
634.207	0.0167876
634.285	0.0165849
634.363	0.0167766
634.442	0.0169835
634.520	0.0166615
634.598	0.0166734
634.676	0.0167935
634.754	0.0168158
634.832	0.0167693
634.910	0.0166773
634.988	0.0167198
635.067	0.0167985
635.145	0.0166312
635.223	0.0166693
635.301	0.0166768
635.379	0.0167396
635.457	0.0167458
635.535	0.0166628
635.613	0.0166333
635.692	0.0167843
635.770	0.0168181
635.848	0.0166426
635.926	0.0166576
636.004	0.0167167
636.082	0.0167868
636.160	0.0168042
636.238	0.0167043
636.317	0.0167492
636.395	0.0166598
636.473	0.0167352
636.551	0.0168642
636.629	0.0167480
636.707	0.0167402
636.785	0.0168776
636.863	0.0167618
636.942	0.0166817
637.020	0.0167192
637.098	0.0166902
637.176	0.0167338
637.254	0.0168016
637.332	0.0167625
637.410	0.0165876
637.488	0.0168185
637.567	0.0166843
637.645	0.0167180
637.723	0.0167583
637.801	0.0167679
637.879	0.0168262
637.957	0.0168813
638.035	0.0167374
638.113	0.0166893
638.192	0.0167597
638.270	0.0166713
638.348	0.0168088
638.426	0.0166924
638.504	0.0166638
638.582	0.0168252
638.660	0.0166772
638.738	0.0167353
638.817	0.0168432
638.895	0.0167576
638.973	0.0166920
639.051	0.0166644
639.129	0.0168636
639.207	0.0168400
639.285	0.0166962
639.363	0.0167887
639.442	0.0167359
639.520	0.0167570
639.598	0.0167635
639.676	0.0167737
639.754	0.0166475
639.832	0.0167161
639.910	0.0166945
639.988	0.0169781
640.067	0.0167831
640.145	0.0167339
640.223	0.0168324
640.301	0.0167506
640.379	0.0166769
640.457	0.0167999
640.535	0.0166747
640.613	0.0166624
640.692	0.0167481
640.770	0.0168051
640.848	0.0167362
640.926	0.0166837
641.004	0.0167884
641.082	0.0168570
641.160	0.0167522
641.238	0.0167759
641.317	0.0167590
641.395	0.0167603
641.473	0.0168614
641.551	0.0166538
641.629	0.0167509
641.707	0.0166909
641.785	0.0166102
641.863	0.0167328
641.942	0.0167443
642.020	0.0167812
642.098	0.0168063
642.176	0.0167790
642.254	0.0168108
642.332	0.0167207
642.410	0.0167110
642.488	0.0167133
642.567	0.0167699
642.645	0.0168290
642.723	0.0168101
642.801	0.0167124
642.879	0.0168091
642.957	0.0167439
643.035	0.0168204
643.113	0.0167599
643.192	0.0167399
643.270	0.0167879
643.348	0.0168198
643.426	0.0166477
643.504	0.0167333
643.582	0.0166695
643.660	0.0167722
643.738	0.0166789
643.817	0.0166999
643.895	0.0168671
643.973	0.0168478
644.051	0.0166566
644.129	0.0167361
644.207	0.0167269
644.285	0.0166871
644.363	0.0166891
644.442	0.0168420
644.520	0.0167879
644.598	0.0168994
644.676	0.0168285
644.754	0.0167629
644.832	0.0168096
644.910	0.0166827
644.988	0.0167879
645.067	0.0166810
645.145	0.0167289
645.223	0.0167263
645.301	0.0168544
645.379	0.0168587
645.457	0.0167839
645.535	0.0167710
645.613	0.0168066
645.692	0.0167566
645.770	0.0166496
645.848	0.0166328
645.926	0.0167206
646.004	0.0168092
646.082	0.0167799
646.160	0.0168465
646.238	0.0168262
646.317	0.0167524
646.395	0.0167489
646.473	0.0167415
646.551	0.0168494
646.629	0.0167957
646.707	0.0167133
646.785	0.0166385
646.863	0.0168091
646.942	0.0167560
647.020	0.0167352
647.098	0.0167471
647.176	0.0168352
647.254	0.0167609
647.332	0.0168974
647.410	0.0167463
647.488	0.0168071
647.567	0.0168325
647.645	0.0167054
647.723	0.0166919
647.801	0.0167159
647.879	0.0167300
647.957	0.0167333
648.035	0.0168607
648.113	0.0167217
648.192	0.0167086
648.270	0.0167986
648.348	0.0167387
648.426	0.0167710
648.504	0.0167095
648.582	0.0167365
648.660	0.0168475
648.738	0.0166537
648.817	0.0168121
648.895	0.0166779
648.973	0.0166434
649.051	0.0168050
649.129	0.0168292
649.207	0.0167455
649.285	0.0167580
649.363	0.0168209
649.442	0.0168199
649.520	0.0167638
649.598	0.0167506
649.676	0.0167350
649.754	0.0166919
649.832	0.0166910
649.910	0.0168176
649.988	0.0167915
650.067	0.0167663
650.145	0.0167940
650.223	0.0167661
650.301	0.0168063
650.379	0.0167525
650.457	0.0167252
650.535	0.0167239
650.613	0.0165928
650.692	0.0167276
650.770	0.0168415
650.848	0.0169004
650.926	0.0166669
651.004	0.0167150
651.082	0.0167814
651.160	0.0168250
651.238	0.0167452
651.317	0.0168664
651.395	0.0167874
651.473	0.0167332
651.551	0.0167432
651.629	0.0168249
651.707	0.0168650
651.785	0.0167882
651.863	0.0167121
651.942	0.0168389
652.020	0.0165484
652.098	0.0167117
652.176	0.0168493
652.254	0.0167525
652.332	0.0167157
652.410	0.0166475
652.488	0.0167317
652.567	0.0168053
652.645	0.0167423
652.723	0.0168439
652.801	0.0167372
652.879	0.0167175
652.957	0.0166530
653.035	0.0167801
653.113	0.0168204
653.192	0.0167702
653.270	0.0167677
653.348	0.0167056
653.426	0.0167210
653.504	0.0167551
653.582	0.0168150
653.660	0.0167229
653.738	0.0166711
653.817	0.0167397
653.895	0.0167809
653.973	0.0167406
654.051	0.0167542
654.129	0.0167951
654.207	0.0167527
654.285	0.0166528
654.363	0.0167489
654.442	0.0166966
654.520	0.0166988
654.598	0.0167097
654.676	0.0167456
654.754	0.0167097
654.832	0.0165717
654.910	0.0166245
654.988	0.0167134
655.067	0.0166883
655.145	0.0165798
655.223	0.0167462
655.301	0.0168504
655.379	0.0167818
655.457	0.0167395
655.535	0.0166949
655.613	0.0166348
655.692	0.0167230
655.770	0.0166769
655.848	0.0166168
655.926	0.0167117
656.004	0.0166911
656.082	0.0167480
656.160	0.0167182
656.238	0.0168451
656.317	0.0167307
656.395	0.0167564
656.473	0.0167901
656.551	0.0167850
656.629	0.0167515
656.707	0.0168312
656.785	0.0167219
656.863	0.0168399
656.942	0.0168346
657.020	0.0167744
657.098	0.0167408
657.176	0.0166788
657.254	0.0166973
657.332	0.0167616
657.410	0.0167200
657.488	0.0165565
657.567	0.0166747
657.645	0.0167494
657.723	0.0168777
657.801	0.0166689
657.879	0.0167130
657.957	0.0166795
658.035	0.0167293
658.113	0.0168094
658.192	0.0167268
658.270	0.0167130
658.348	0.0167825
658.426	0.0167060
658.504	0.0168358
658.582	0.0167672
658.660	0.0168855
658.738	0.0167536
658.817	0.0167914
658.895	0.0167747
658.973	0.0167390
659.051	0.0168578
659.129	0.0168286
659.207	0.0167380
659.285	0.0166012
659.363	0.0168543
659.442	0.0167301
659.520	0.0167296
659.598	0.0167781
659.676	0.0166651
659.754	0.0167621
659.832	0.0166791
659.910	0.0167134
659.988	0.0167445
660.067	0.0168347
660.145	0.0166405
660.223	0.0168606
660.301	0.0167191
660.379	0.0167915
660.457	0.0167902
660.535	0.0166835
660.613	0.0166009
660.692	0.0168212
660.770	0.0166623
660.848	0.0166710
660.926	0.0167075
661.004	0.0167696
661.082	0.0168159
661.160	0.0165886
661.238	0.0167477
661.317	0.0168948
661.395	0.0167993
661.473	0.0168313
661.551	0.0167470
661.629	0.0168814
661.707	0.0167947
661.785	0.0167805
661.863	0.0167708
661.942	0.0167501
662.020	0.0167450
662.098	0.0167852
662.176	0.0168590
662.254	0.0169230
662.332	0.0168153
662.410	0.0166306
662.488	0.0167027
662.567	0.0167709
662.645	0.0167688
662.723	0.0168773
662.801	0.0168538
662.879	0.0166975
662.957	0.0168600
663.035	0.0168540
663.113	0.0168074
663.192	0.0166897
663.270	0.0167580
663.348	0.0167603
663.426	0.0168893
663.504	0.0167825
663.582	0.0167513
663.660	0.0168090
663.738	0.0168650
663.817	0.0168804
663.895	0.0168092
663.973	0.0167580
664.051	0.0166293
664.129	0.0167690
664.207	0.0168949
664.285	0.0167764
664.363	0.0167683
664.442	0.0166692
664.520	0.0168809
664.598	0.0167339
664.676	0.0167616
664.754	0.0168592
664.832	0.0169063
664.910	0.0168688
664.988	0.0167596
665.067	0.0168309
665.145	0.0168657
665.223	0.0168092
665.301	0.0166126
665.379	0.0166380
665.457	0.0166441
665.535	0.0167248
665.613	0.0168098
665.692	0.0168335
665.770	0.0167322
665.848	0.0167219
665.926	0.0167700
666.004	0.0168501
666.082	0.0167388
666.160	0.0168492
666.238	0.0167106
666.317	0.0168360
666.395	0.0166743
666.473	0.0168515
666.551	0.0168040
666.629	0.0167661
666.707	0.0168224
666.785	0.0165829
666.863	0.0168307
666.942	0.0167252
667.020	0.0168414
667.098	0.0168308
667.176	0.0167770
667.254	0.0167947
667.332	0.0168231
667.410	0.0166666
667.488	0.0167921
667.567	0.0168037
667.645	0.0167887
667.723	0.0169275
667.801	0.0168723
667.879	0.0167513
667.957	0.0167078
668.035	0.0166692
668.113	0.0167298
668.192	0.0169415
668.270	0.0168797
668.348	0.0168732
668.426	0.0167771
668.504	0.0167856
668.582	0.0167555
668.660	0.0166922
668.738	0.0166328
668.817	0.0167450
668.895	0.0166856
668.973	0.0166670
669.051	0.0166900
669.129	0.0167089
669.207	0.0167097
669.285	0.0166959
669.363	0.0167129
669.442	0.0167869
669.520	0.0168442
669.598	0.0167667
669.676	0.0166869
669.754	0.0167699
669.832	0.0168735
669.910	0.0168189
669.988	0.0167181
670.067	0.0168201
670.145	0.0167541
670.223	0.0168475
670.301	0.0168266
670.379	0.0167105
670.457	0.0167710
670.535	0.0167404
670.613	0.0167075
670.692	0.0168466
670.770	0.0167963
670.848	0.0167709
670.926	0.0168241
671.004	0.0166750
671.082	0.0167252
671.160	0.0167624
671.238	0.0166351
671.317	0.0168920
671.395	0.0167255
671.473	0.0168151
671.551	0.0166341
671.629	0.0167683
671.707	0.0168121
671.785	0.0168439
671.863	0.0168415
671.942	0.0166570
672.020	0.0165680
672.098	0.0166645
672.176	0.0167787
672.254	0.0166202
672.332	0.0167068
672.410	0.0167487
672.488	0.0167457
672.567	0.0167960
672.645	0.0167421
672.723	0.0166572
672.801	0.0168322
672.879	0.0167599
672.957	0.0167953
673.035	0.0167223
673.113	0.0169056
673.192	0.0167481
673.270	0.0166853
673.348	0.0167754
673.426	0.0166848
673.504	0.0168581
673.582	0.0168400
673.660	0.0167876
673.738	0.0167418
673.817	0.0167648
673.895	0.0166917
673.973	0.0168745
674.051	0.0166859
674.129	0.0167323
674.207	0.0167061
674.285	0.0168145
674.363	0.0167679
674.442	0.0166749
674.520	0.0167546
674.598	0.0166827
674.676	0.0167602
674.754	0.0167972
674.832	0.0167619
674.910	0.0167658
674.988	0.0167689
675.067	0.0166671
675.145	0.0167778
675.223	0.0167654
675.301	0.0168275
675.379	0.0167962
675.457	0.0166442
675.535	0.0167429
675.613	0.0167753
675.692	0.0167385
675.770	0.0167660
675.848	0.0167306
675.926	0.0169834
676.004	0.0167413
676.082	0.0167564
676.160	0.0167931
676.238	0.0167467
676.317	0.0167522
676.395	0.0167629
676.473	0.0166306
676.551	0.0167860
676.629	0.0167184
676.707	0.0166895
676.785	0.0167610
676.863	0.0167413
676.942	0.0167410
677.020	0.0166566
677.098	0.0167913
677.176	0.0168550
677.254	0.0166740
677.332	0.0167341
677.410	0.0167964
677.488	0.0167117
677.567	0.0166870
677.645	0.0166899
677.723	0.0167389
677.801	0.0167741
677.879	0.0166672
677.957	0.0167724
678.035	0.0167624
678.113	0.0168235
678.192	0.0167061
678.270	0.0167432
678.348	0.0166702
678.426	0.0167664
678.504	0.0167636
678.582	0.0166618
678.660	0.0167720
678.738	0.0167221
678.817	0.0166120
678.895	0.0167519
678.973	0.0168665
679.051	0.0168375
679.129	0.0167695
679.207	0.0167811
679.285	0.0167027
679.363	0.0166682
679.442	0.0168610
679.520	0.0167233
679.598	0.0165892
679.676	0.0167684
679.754	0.0167539
679.832	0.0167522
679.910	0.0168097
679.988	0.0168313
680.067	0.0167373
680.145	0.0166884
680.223	0.0166875
680.301	0.0167222
680.379	0.0168221
680.457	0.0166743
680.535	0.0168278
680.613	0.0167781
680.692	0.0167356
680.770	0.0168147
680.848	0.0167686
680.926	0.0167654
681.004	0.0167477
681.082	0.0166566
681.160	0.0167752
681.238	0.0166530
681.317	0.0168867
681.395	0.0166983
681.473	0.0167705
681.551	0.0167541
681.629	0.0168508
681.707	0.0167593
681.785	0.0167862
681.863	0.0167846
681.942	0.0167944
682.020	0.0167267
682.098	0.0167473
682.176	0.0167818
682.254	0.0167655
682.332	0.0167624
682.410	0.0168005
682.488	0.0167423
682.567	0.0168275
682.645	0.0168560
682.723	0.0167498
682.801	0.0166895
682.879	0.0166940
682.957	0.0167915
683.035	0.0167512
683.113	0.0167339
683.192	0.0169544
683.270	0.0168968
683.348	0.0167672
683.426	0.0168237
683.504	0.0166869
683.582	0.0166656
683.660	0.0167530
683.738	0.0168504
683.817	0.0167494
683.895	0.0169306
683.973	0.0167611
684.051	0.0168533
684.129	0.0169834
684.207	0.0168158
684.285	0.0168503
684.363	0.0167285
684.442	0.0167783
684.520	0.0168393
684.598	0.0167630
684.676	0.0167789
684.754	0.0168899
684.832	0.0168641
684.910	0.0167023
684.988	0.0167846
685.067	0.0167944
685.145	0.0168262
685.223	0.0167940
685.301	0.0168011
685.379	0.0168545
685.457	0.0167430
685.535	0.0168582
685.613	0.0167738
685.692	0.0167421
685.770	0.0167856
685.848	0.0168188
685.926	0.0168922
686.004	0.0168049
686.082	0.0167395
686.160	0.0167987
686.238	0.0168101
686.317	0.0169720
686.395	0.0167201
686.473	0.0167552
686.551	0.0166909
686.629	0.0166402
686.707	0.0167746
686.785	0.0166700
686.863	0.0168238
686.942	0.0166776
687.020	0.0167713
687.098	0.0167590
687.176	0.0167382
687.254	0.0167015
687.332	0.0168999
687.410	0.0169695
687.488	0.0167893
687.567	0.0166459
687.645	0.0168002
687.723	0.0167672
687.801	0.0167650
687.879	0.0167551
687.957	0.0168417
688.035	0.0167126
688.113	0.0167325
688.192	0.0167884
688.270	0.0167657
688.348	0.0168951
688.426	0.0167931
688.504	0.0165343
688.582	0.0167332
688.660	0.0167380
688.738	0.0168664
688.817	0.0166912
688.895	0.0166487
688.973	0.0167421
689.051	0.0167908
689.129	0.0167754
689.207	0.0167641
689.285	0.0167036
689.363	0.0167899
689.442	0.0167876
689.520	0.0168291
689.598	0.0168015
689.676	0.0167296
689.754	0.0166927
689.832	0.0166299
689.910	0.0168197
689.988	0.0166737
690.067	0.0167159
690.145	0.0169439
690.223	0.0167468
690.301	0.0166901
690.379	0.0166212
690.457	0.0167018
690.535	0.0167367
690.613	0.0168282
690.692	0.0167145
690.770	0.0166800
690.848	0.0167228
690.926	0.0167973
691.004	0.0167150
691.082	0.0166994
691.160	0.0166763
691.238	0.0167317
691.317	0.0167161
691.395	0.0167264
691.473	0.0165525
691.551	0.0166920
691.629	0.0168645
691.707	0.0167745
691.785	0.0168214
691.863	0.0168553
691.942	0.0168184
692.020	0.0168143
692.098	0.0169269
692.176	0.0169257
692.254	0.0168991
692.332	0.0167408
692.410	0.0166386
692.488	0.0165694
692.567	0.0166628
692.645	0.0166134
692.723	0.0166518
692.801	0.0166351
692.879	0.0167288
692.957	0.0166631
693.035	0.0169520
693.113	0.0169875
693.192	0.0169376
693.270	0.0170427
693.348	0.0170105
693.426	0.0169915
693.504	0.0167389
693.582	0.0167005
693.660	0.0166880
693.738	0.0166396
693.817	0.0164644
693.895	0.0166052
693.973	0.0165743
694.051	0.0167133
694.129	0.0167069
694.207	0.0167223
694.285	0.0168929
694.363	0.0168792
694.442	0.0169559
694.520	0.0171228
694.598	0.0171298
694.676	0.0168495
694.754	0.0171029
694.832	0.0169758
694.910	0.0169406
694.988	0.0169338
695.067	0.0169568
695.145	0.0166492
695.223	0.0165955
695.301	0.0165954
695.379	0.0163284
695.457	0.0164424
695.535	0.0166621
695.613	0.0165797
695.692	0.0164292
695.770	0.0165974
695.848	0.0167215
695.926	0.0165779
696.004	0.0167013
696.082	0.0167115
696.160	0.0169069
696.238	0.0168505
696.317	0.0167900
696.395	0.0168320
696.473	0.0168732
696.551	0.0169243
696.629	0.0168377
696.707	0.0168401
696.785	0.0167462
696.863	0.0168810
696.942	0.0168292
697.020	0.0168353
697.098	0.0169254
697.176	0.0167589
697.254	0.0168349
697.332	0.0168425
697.410	0.0170010
697.488	0.0169488
697.567	0.0169190
697.645	0.0169469
697.723	0.0169502
697.801	0.0168658
697.879	0.0167857
697.957	0.0168683
698.035	0.0168282
698.113	0.0168541
698.192	0.0167456
698.270	0.0167193
698.348	0.0166957
698.426	0.0165810
698.504	0.0166771
698.582	0.0164226
698.660	0.0165517
698.738	0.0165169
698.817	0.0165839
698.895	0.0165760
698.973	0.0164751
699.051	0.0164891
699.129	0.0164375
699.207	0.0166167
699.285	0.0167056
699.363	0.0166669
699.442	0.0168494
699.520	0.0169219
699.598	0.0168638
699.676	0.0169745
699.754	0.0170128
699.832	0.0170226
699.910	0.0170004
699.988	0.0170225
700.067	0.0169407
700.145	0.0169295
700.223	0.0169660
700.301	0.0168749
700.379	0.0168059
700.457	0.0167020
700.535	0.0167940
700.613	0.0168708
700.692	0.0166772
700.770	0.0167193
700.848	0.0167117
700.926	0.0167416
701.004	0.0166384
701.082	0.0167708
701.160	0.0167516
701.238	0.0167678
701.317	0.0166305
701.395	0.0165913
701.473	0.0166671
701.551	0.0167389
701.629	0.0166358
701.707	0.0167937
701.785	0.0166786
701.863	0.0167115
701.942	0.0167954
702.020	0.0168551
702.098	0.0167178
702.176	0.0166697
702.254	0.0166889
702.332	0.0166014
702.410	0.0166121
702.488	0.0167352
702.567	0.0167010
702.645	0.0166901
702.723	0.0167039
702.801	0.0167609
702.879	0.0165726
702.957	0.0168217
703.035	0.0168264
703.113	0.0167429
703.192	0.0167255
703.270	0.0168417
703.348	0.0168410
703.426	0.0168235
703.504	0.0169257
703.582	0.0168969
703.660	0.0168484
703.738	0.0167930
703.817	0.0169350
703.895	0.0169427
703.973	0.0168897
704.051	0.0169050
704.129	0.0169125
704.207	0.0167722
704.285	0.0167081
704.363	0.0168740
704.442	0.0168949
704.520	0.0167509
704.598	0.0167888
704.676	0.0167140
704.754	0.0168136
704.832	0.0167401
704.910	0.0166254
704.988	0.0167301
705.067	0.0165881
705.145	0.0166251
705.223	0.0165678
705.301	0.0166441
705.379	0.0167081
705.457	0.0167304
705.535	0.0166373
705.613	0.0166413
705.692	0.0166145
705.770	0.0167687
705.848	0.0166849
705.926	0.0167286
706.004	0.0166960
706.082	0.0166354
706.160	0.0166067
706.238	0.0166595
706.317	0.0167904
706.395	0.0166547
706.473	0.0166643
706.551	0.0167606
706.629	0.0166731
706.707	0.0166599
706.785	0.0166768
706.863	0.0166521
706.942	0.0167049
707.020	0.0166719
707.098	0.0167419
707.176	0.0167265
707.254	0.0166769
707.332	0.0166356
707.410	0.0166415
707.488	0.0167493
707.567	0.0167004
707.645	0.0168937
707.723	0.0168116
707.801	0.0168228
707.879	0.0168136
707.957	0.0167719
708.035	0.0169771
708.113	0.0168611
708.192	0.0168760
708.270	0.0168070
708.348	0.0166905
708.426	0.0167916
708.504	0.0167492
708.582	0.0168640
708.660	0.0168999
708.738	0.0168819
708.817	0.0165993
708.895	0.0165978
708.973	0.0166757
709.051	0.0165849
709.129	0.0166833
709.207	0.0167094
709.285	0.0166792
709.363	0.0166224
709.442	0.0166991
709.520	0.0166738
709.598	0.0167106
709.676	0.0167802
709.754	0.0165238
709.832	0.0166647
709.910	0.0167009
709.988	0.0169115
710.067	0.0166726
710.145	0.0165485
710.223	0.0166444
710.301	0.0167924
710.379	0.0166263
710.457	0.0166454
710.535	0.0167196
710.613	0.0167320
710.692	0.0167042
710.770	0.0168079
710.848	0.0167422
710.926	0.0166552
711.004	0.0167147
711.082	0.0167716
711.160	0.0166969
711.238	0.0168473
711.317	0.0168417
711.395	0.0168273
711.473	0.0167253
711.551	0.0168089
711.629	0.0167967
711.707	0.0168494
711.785	0.0167452
711.863	0.0168173
711.942	0.0167464
712.020	0.0168375
712.098	0.0167889
712.176	0.0167467
712.254	0.0168658
712.332	0.0168774
712.410	0.0169072
712.488	0.0168996
712.567	0.0168397
712.645	0.0167408
712.723	0.0168432
712.801	0.0168789
712.879	0.0167293
712.957	0.0166499
713.035	0.0168678
713.113	0.0166855
713.192	0.0167120
713.270	0.0167418
713.348	0.0166483
713.426	0.0166991
713.504	0.0166933
713.582	0.0166665
713.660	0.0168372
713.738	0.0168156
713.817	0.0168098
713.895	0.0167913
713.973	0.0167445
714.051	0.0167394
714.129	0.0167697
714.207	0.0166882
714.285	0.0167919
714.363	0.0167743
714.442	0.0167464
714.520	0.0168405
714.598	0.0168314
714.676	0.0168341
714.754	0.0167594
714.832	0.0166780
714.910	0.0166779
714.988	0.0166656
715.067	0.0167980
715.145	0.0167280
715.223	0.0166906
715.301	0.0167190
715.379	0.0165195
715.457	0.0166972
715.535	0.0168517
715.613	0.0167263
715.692	0.0166515
715.770	0.0167591
715.848	0.0168388
715.926	0.0167020
716.004	0.0167422
716.082	0.0167366
716.160	0.0165247
716.238	0.0167333
716.317	0.0167439
716.395	0.0167809
716.473	0.0167433
716.551	0.0166673
716.629	0.0168015
716.707	0.0167751
716.785	0.0167451
716.863	0.0166550
716.942	0.0167173
717.020	0.0166739
717.098	0.0166281
717.176	0.0166899
717.254	0.0166940
717.332	0.0167362
717.410	0.0166796
717.488	0.0167708
717.567	0.0166373
717.645	0.0166691
717.723	0.0167229
717.801	0.0165649
717.879	0.0166636
717.957	0.0167146
718.035	0.0166266
718.113	0.0166897
718.192	0.0167989
718.270	0.0167272
718.348	0.0166763
718.426	0.0167400
718.504	0.0167589
718.582	0.0168641
718.660	0.0168389
718.738	0.0169232
718.817	0.0167496
718.895	0.0169637
718.973	0.0170110
719.051	0.0168515
719.129	0.0169909
719.207	0.0168947
719.285	0.0169116
719.363	0.0168552
719.442	0.0169103
719.520	0.0167850
719.598	0.0168198
719.676	0.0167811
719.754	0.0168737
719.832	0.0166539
719.910	0.0166882
719.988	0.0167230
720.067	0.0167846
720.145	0.0167453
720.223	0.0165784
720.301	0.0167546
720.379	0.0168846
720.457	0.0167881
720.535	0.0168498
720.613	0.0168742
720.692	0.0167975
720.770	0.0168336
720.848	0.0168303
720.926	0.0168808
721.004	0.0167036
721.082	0.0166990
721.160	0.0167407
721.238	0.0167504
721.317	0.0167064
721.395	0.0167660
721.473	0.0167970
721.551	0.0168645
721.629	0.0167120
721.707	0.0166360
721.785	0.0166714
721.863	0.0168494
721.942	0.0166575
722.020	0.0166953
722.098	0.0169076
722.176	0.0167484
722.254	0.0167595
722.332	0.0168640
722.410	0.0168121
722.488	0.0168239
722.567	0.0167357
722.645	0.0167893
722.723	0.0169234
722.801	0.0168262
722.879	0.0168837
722.957	0.0168714
723.035	0.0170230
723.113	0.0169900
723.192	0.0168040
723.270	0.0167706
723.348	0.0166228
723.426	0.0168082
723.504	0.0167011
723.582	0.0166137
723.660	0.0168131
723.738	0.0167693
723.817	0.0166671
723.895	0.0166325
723.973	0.0166376
724.051	0.0167833
724.129	0.0166650
724.207	0.0166138
724.285	0.0166816
724.363	0.0168171
724.442	0.0167167
724.520	0.0167802
724.598	0.0168485
724.676	0.0168004
724.754	0.0167232
724.832	0.0168119
724.910	0.0168051
724.988	0.0167293
725.067	0.0168968
725.145	0.0167118
725.223	0.0167801
725.301	0.0167342
725.379	0.0166872
725.457	0.0168098
725.535	0.0167018
725.613	0.0167198
725.692	0.0168353
725.770	0.0167869
725.848	0.0166099
725.926	0.0166380
726.004	0.0167828
726.082	0.0167255
726.160	0.0168222
726.238	0.0168065
726.317	0.0167197
726.395	0.0166319
726.473	0.0167871
726.551	0.0168373
726.629	0.0168124
726.707	0.0167437
726.785	0.0167789
726.863	0.0168024
726.942	0.0167700
727.020	0.0166811
727.098	0.0166091
727.176	0.0167232
727.254	0.0167364
727.332	0.0167252
727.410	0.0167466
727.488	0.0167954
727.567	0.0167759
727.645	0.0166644
727.723	0.0167216
727.801	0.0168119
727.879	0.0167030
727.957	0.0166521
728.035	0.0167103
728.113	0.0168035
728.192	0.0168806
728.270	0.0166788
728.348	0.0166660
728.426	0.0168245
728.504	0.0168572
728.582	0.0167323
728.660	0.0166816
728.738	0.0167185
728.817	0.0167675
728.895	0.0166232
728.973	0.0166911
729.051	0.0167091
729.129	0.0166192
729.207	0.0167007
729.285	0.0166343
729.363	0.0166989
729.442	0.0165265
729.520	0.0167493
729.598	0.0167872
729.676	0.0167374
729.754	0.0167200
729.832	0.0167991
729.910	0.0167025
729.988	0.0165690
730.067	0.0167311
730.145	0.0165921
730.223	0.0167445
730.301	0.0167685
730.379	0.0168033
730.457	0.0166864
730.535	0.0167915
730.613	0.0168502
730.692	0.0168063
730.770	0.0167641
730.848	0.0168028
730.926	0.0168032
731.004	0.0168017
731.082	0.0168227
731.160	0.0168581
731.238	0.0167553
731.317	0.0166809
731.395	0.0168022
731.473	0.0168206
731.551	0.0167416
731.629	0.0167467
731.707	0.0167515
731.785	0.0166885
731.863	0.0166253
731.942	0.0168420
732.020	0.0168412
732.098	0.0166245
732.176	0.0166370
732.254	0.0166234
732.332	0.0167189
732.410	0.0167842
732.488	0.0168785
732.567	0.0168211
732.645	0.0168356
732.723	0.0167103
732.801	0.0168170
732.879	0.0168033
732.957	0.0167240
733.035	0.0168746
733.113	0.0168967
733.192	0.0169219
733.270	0.0168155
733.348	0.0167848
733.426	0.0169228
733.504	0.0167658
733.582	0.0166173
733.660	0.0166518
733.738	0.0167986
733.817	0.0167551
733.895	0.0167694
733.973	0.0167297
734.051	0.0167231
734.129	0.0167822
734.207	0.0168949
734.285	0.0168459
734.363	0.0168787
734.442	0.0168031
734.520	0.0167628
734.598	0.0167056
734.676	0.0167422
734.754	0.0168810
734.832	0.0167557
734.910	0.0166828
734.988	0.0167182
735.067	0.0168888
735.145	0.0168243
735.223	0.0167999
735.301	0.0169125
735.379	0.0166962
735.457	0.0165773
735.535	0.0167642
735.613	0.0166838
735.692	0.0167620
735.770	0.0166954
735.848	0.0167365
735.926	0.0168098
736.004	0.0166821
736.082	0.0166827
736.160	0.0167269
736.238	0.0168751
736.317	0.0168526
736.395	0.0166890
736.473	0.0166731
736.551	0.0168192
736.629	0.0167020
736.707	0.0166132
736.785	0.0167335
736.863	0.0165789
736.942	0.0167946
737.020	0.0166277
737.098	0.0168367
737.176	0.0166652
737.254	0.0167294
737.332	0.0167405
737.410	0.0167488
737.488	0.0166530
737.567	0.0167669
737.645	0.0168079
737.723	0.0166778
737.801	0.0168630
737.879	0.0168896
737.957	0.0167941
738.035	0.0167817
738.113	0.0168398
738.192	0.0168970
738.270	0.0167771
738.348	0.0167085
738.426	0.0166933
738.504	0.0169518
738.582	0.0169470
738.660	0.0169040
738.738	0.0168081
738.817	0.0166881
738.895	0.0167902
738.973	0.0168087
739.051	0.0166856
739.129	0.0166106
739.207	0.0167896
739.285	0.0168212
739.363	0.0168083
739.442	0.0166936
739.520	0.0168909
739.598	0.0167606
739.676	0.0166987
739.754	0.0167800
739.832	0.0166293
739.910	0.0168048
739.988	0.0168417
740.067	0.0167607
740.145	0.0166022
740.223	0.0167788
740.301	0.0168172
740.379	0.0167293
740.457	0.0167875
740.535	0.0169096
740.613	0.0167722
740.692	0.0167239
740.770	0.0167212
740.848	0.0167038
740.926	0.0167532
741.004	0.0166725
741.082	0.0166231
741.160	0.0167989
741.238	0.0167477
741.317	0.0166953
741.395	0.0166594
741.473	0.0168262
741.551	0.0166422
741.629	0.0167125
741.707	0.0166634
741.785	0.0165703
741.863	0.0167353
741.942	0.0167085
742.020	0.0167275
742.098	0.0167193
742.176	0.0166650
742.254	0.0165480
742.332	0.0166692
742.410	0.0166191
742.488	0.0167387
742.567	0.0166984
742.645	0.0166592
742.723	0.0165670
742.801	0.0166898
742.879	0.0167773
742.957	0.0167992
743.035	0.0168681
743.113	0.0168308
743.192	0.0167351
743.270	0.0167123
743.348	0.0166515
743.426	0.0167277
743.504	0.0167264
743.582	0.0168790
743.660	0.0167056
743.738	0.0167602
743.817	0.0168167
743.895	0.0166975
743.973	0.0168034
744.051	0.0167047
744.129	0.0166599
744.207	0.0168075
744.285	0.0166767
744.363	0.0167809
744.442	0.0166625
744.520	0.0167396
744.598	0.0168329
744.676	0.0168376
744.754	0.0166920
744.832	0.0166799
744.910	0.0167522
744.988	0.0167518
745.067	0.0167255
745.145	0.0167221
745.223	0.0168092
745.301	0.0166824
745.379	0.0166377
745.457	0.0167480
745.535	0.0168169
745.613	0.0167381
745.692	0.0166595
745.770	0.0166749
745.848	0.0165479
745.926	0.0167095
746.004	0.0166622
746.082	0.0167540
746.160	0.0167250
746.238	0.0167258
746.317	0.0167278
746.395	0.0168220
746.473	0.0166966
746.551	0.0166645
746.629	0.0167432
746.707	0.0167067
746.785	0.0166927
746.863	0.0166761
746.942	0.0166973
747.020	0.0166911
747.098	0.0165952
747.176	0.0166549
747.254	0.0169666
747.332	0.0167757
747.410	0.0167860
747.488	0.0167551
747.567	0.0168771
747.645	0.0166229
747.723	0.0167267
747.801	0.0167408
747.879	0.0167847
747.957	0.0167839
748.035	0.0167336
748.113	0.0168262
748.192	0.0167310
748.270	0.0167634
748.348	0.0167625
748.426	0.0166974
748.504	0.0166459
748.582	0.0166284
748.660	0.0166833
748.738	0.0167188
748.817	0.0166406
748.895	0.0166284
748.973	0.0167320
749.051	0.0167200
749.129	0.0167406
749.207	0.0168143
749.285	0.0167640
749.363	0.0168572
749.442	0.0166972
749.520	0.0166205
749.598	0.0168731
749.676	0.0167558
749.754	0.0166415
749.832	0.0169073
749.910	0.0168149
749.988	0.0166470
750.067	0.0167687
750.145	0.0167508
750.223	0.0167031
750.301	0.0168417
750.379	0.0166589
750.457	0.0167450
750.535	0.0165714
750.613	0.0167740
750.692	0.0168037
750.770	0.0166343
750.848	0.0167691
750.926	0.0168644
751.004	0.0167307
751.082	0.0166591
751.160	0.0168664
751.238	0.0168003
751.317	0.0166114
751.395	0.0168180
751.473	0.0167747
751.551	0.0166858
751.629	0.0167161
751.707	0.0166000
751.785	0.0167217
751.863	0.0168572
751.942	0.0167208
752.020	0.0167178
752.098	0.0167977
752.176	0.0167265
752.254	0.0166929
752.332	0.0166652
752.410	0.0167790
752.488	0.0166663
752.567	0.0167896
752.645	0.0166688
752.723	0.0166962
752.801	0.0167186
752.879	0.0168453
752.957	0.0167836
753.035	0.0168579
753.113	0.0167329
753.192	0.0166974
753.270	0.0167882
753.348	0.0168115
753.426	0.0167038
753.504	0.0168037
753.582	0.0167471
753.660	0.0167036
753.738	0.0166904
753.817	0.0169043
753.895	0.0167440
753.973	0.0166869
754.051	0.0167760
754.129	0.0166400
754.207	0.0167218
754.285	0.0167556
754.363	0.0167852
754.442	0.0166467
754.520	0.0167678
754.598	0.0166738
754.676	0.0167424
754.754	0.0165916
754.832	0.0167149
754.910	0.0168615
754.988	0.0167749
755.067	0.0167410
755.145	0.0166633
755.223	0.0167558
755.301	0.0166042
755.379	0.0166395
755.457	0.0167365
755.535	0.0166945
755.613	0.0167632
755.692	0.0166611
755.770	0.0166982
755.848	0.0167983
755.926	0.0168179
756.004	0.0167361
756.082	0.0168302
756.160	0.0168757
756.238	0.0168441
756.317	0.0167626
756.395	0.0167955
756.473	0.0166857
756.551	0.0166347
756.629	0.0167726
756.707	0.0166310
756.785	0.0166036
756.863	0.0167121
756.942	0.0167182
757.020	0.0167594
757.098	0.0167161
757.176	0.0166536
757.254	0.0166464
757.332	0.0165663
757.410	0.0166281
757.488	0.0166883
757.567	0.0166171
757.645	0.0167678
757.723	0.0167046
757.801	0.0168061
757.879	0.0167838
757.957	0.0167251
758.035	0.0167414
758.113	0.0168057
758.192	0.0168555
758.270	0.0168691
758.348	0.0167279
758.426	0.0166935
758.504	0.0167648
758.582	0.0168349
758.660	0.0168285
758.738	0.0169346
758.817	0.0166912
758.895	0.0167589
758.973	0.0166999
759.051	0.0166180
759.129	0.0167522
759.207	0.0167128
759.285	0.0167378
759.363	0.0168088
759.442	0.0168945
759.520	0.0167597
759.598	0.0168093
759.676	0.0168548
759.754	0.0168166
759.832	0.0168478
759.910	0.0168699
759.988	0.0169314
760.067	0.0168279
760.145	0.0168845
760.223	0.0168896
760.301	0.0167915
760.379	0.0167643
760.457	0.0167400
760.535	0.0167799
760.613	0.0166903
760.692	0.0168043
760.770	0.0167951
760.848	0.0166656
760.926	0.0167033
761.004	0.0167155
761.082	0.0167087
761.160	0.0167438
761.238	0.0167605
761.317	0.0166656
761.395	0.0168300
761.473	0.0166937
761.551	0.0167793
761.629	0.0168263
761.707	0.0168843
761.785	0.0167258
761.863	0.0168008
761.942	0.0167655
762.020	0.0167998
762.098	0.0168334
762.176	0.0167611
762.254	0.0167873
762.332	0.0167447
762.410	0.0168047
762.488	0.0167593
762.567	0.0167395
762.645	0.0167348
762.723	0.0167899
762.801	0.0167513
762.879	0.0168496
762.957	0.0167721
763.035	0.0168125
763.113	0.0167901
763.192	0.0168257
763.270	0.0169608
763.348	0.0168580
763.426	0.0167646
763.504	0.0168571
763.582	0.0169018
763.660	0.0167929
763.738	0.0168075
763.817	0.0168177
763.895	0.0168427
763.973	0.0168661
764.051	0.0168406
764.129	0.0167475
764.207	0.0167321
764.285	0.0169266
764.363	0.0167946
764.442	0.0167387
764.520	0.0166807
764.598	0.0166429
764.676	0.0167577
764.754	0.0167593
764.832	0.0165584
764.910	0.0167044
764.988	0.0167136
765.067	0.0168158
765.145	0.0166802
765.223	0.0167518
765.301	0.0167237
765.379	0.0167464
765.457	0.0167908
765.535	0.0167364
765.613	0.0167654
765.692	0.0167587
765.770	0.0167362
765.848	0.0166927
765.926	0.0167718
766.004	0.0167152
766.082	0.0167553
766.160	0.0168566
766.238	0.0169091
766.317	0.0167582
766.395	0.0166805
766.473	0.0167110
766.551	0.0165870
766.629	0.0166435
766.707	0.0167915
766.785	0.0167274
766.863	0.0167343
766.942	0.0167760
767.020	0.0167082
767.098	0.0166972
767.176	0.0166862
767.254	0.0166682
767.332	0.0166787
767.410	0.0168192
767.488	0.0166727
767.567	0.0166222
767.645	0.0166862
767.723	0.0167727
767.801	0.0167649
767.879	0.0165707
767.957	0.0166068
768.035	0.0167034
768.113	0.0167605
768.192	0.0167807
768.270	0.0167406
768.348	0.0168304
768.426	0.0166974
768.504	0.0168050
768.582	0.0166642
768.660	0.0166464
768.738	0.0167478
768.817	0.0167979
768.895	0.0168051
768.973	0.0166507
769.051	0.0167515
769.129	0.0167847
769.207	0.0167223
769.285	0.0165931
769.363	0.0166284
769.442	0.0166643
769.520	0.0167661
769.598	0.0167580
769.676	0.0168513
769.754	0.0168040
769.832	0.0167140
769.910	0.0166641
769.988	0.0166269
770.067	0.0168472
770.145	0.0167357
770.223	0.0166559
770.301	0.0167915
770.379	0.0168037
770.457	0.0168279
770.535	0.0168375
770.613	0.0167815
770.692	0.0168203
770.770	0.0168844
770.848	0.0167443
770.926	0.0167632
771.004	0.0167512
771.082	0.0167981
771.160	0.0167221
771.238	0.0167435
771.317	0.0166659
771.395	0.0168443
771.473	0.0166513
771.551	0.0164941
771.629	0.0167142
771.707	0.0166945
771.785	0.0166891
771.863	0.0166734
771.942	0.0167276
772.020	0.0166408
772.098	0.0167490
772.176	0.0168535
772.254	0.0168332
772.332	0.0167455
772.410	0.0166988
772.488	0.0167886
772.567	0.0167957
772.645	0.0166393
772.723	0.0167922
772.801	0.0167067
772.879	0.0167215
772.957	0.0166214
773.035	0.0167215
773.113	0.0167438
773.192	0.0168203
773.270	0.0166669
773.348	0.0167446
773.426	0.0168325
773.504	0.0166808
773.582	0.0166740
773.660	0.0168481
773.738	0.0167422
773.817	0.0167412
773.895	0.0167692
773.973	0.0167574
774.051	0.0168909
774.129	0.0167825
774.207	0.0166240
774.285	0.0166141
774.363	0.0166004
774.442	0.0168511
774.520	0.0166409
774.598	0.0167348
774.676	0.0167033
774.754	0.0169373
774.832	0.0167636
774.910	0.0165891
774.988	0.0167086
775.067	0.0168508
775.145	0.0168646
775.223	0.0168866
775.301	0.0167382
775.379	0.0167172
775.457	0.0166715
775.535	0.0166398
775.613	0.0168156
775.692	0.0166296
775.770	0.0165914
775.848	0.0166356
775.926	0.0167643
776.004	0.0167807
776.082	0.0165851
776.160	0.0166395
776.238	0.0166719
776.317	0.0167105
776.395	0.0166206
776.473	0.0166747
776.551	0.0167252
776.629	0.0167157
776.707	0.0165995
776.785	0.0165948
776.863	0.0166605
776.942	0.0167799
777.020	0.0168226
777.098	0.0167104
777.176	0.0167030
777.254	0.0167700
777.332	0.0165664
777.410	0.0168259
777.488	0.0169010
777.567	0.0169143
777.645	0.0166673
777.723	0.0166763
777.801	0.0166889
777.879	0.0167594
777.957	0.0168096
778.035	0.0167904
778.113	0.0166968
778.192	0.0168035
778.270	0.0167388
778.348	0.0167323
778.426	0.0167823
778.504	0.0165830
778.582	0.0166805
778.660	0.0167934
778.738	0.0166390
778.817	0.0167475
778.895	0.0168789
778.973	0.0166838
779.051	0.0167989
779.129	0.0166467
779.207	0.0168132
779.285	0.0168420
779.363	0.0167226
779.442	0.0166261
779.520	0.0167227
779.598	0.0166995
779.676	0.0167296
779.754	0.0167461
779.832	0.0166750
779.910	0.0166647
779.988	0.0167678
780.067	0.0167405
780.145	0.0167227
780.223	0.0167149
780.301	0.0168848
780.379	0.0166150
780.457	0.0166778
780.535	0.0167230
780.613	0.0168967
780.692	0.0167019
780.770	0.0166154
780.848	0.0168193
780.926	0.0167830
781.004	0.0167742
781.082	0.0167017
781.160	0.0167432
781.238	0.0167294
781.317	0.0167518
781.395	0.0167474
781.473	0.0167746
781.551	0.0167513
781.629	0.0166837
781.707	0.0167175
781.785	0.0167013
781.863	0.0168368
781.942	0.0168714
782.020	0.0168295
782.098	0.0167017
782.176	0.0167657
782.254	0.0166759
782.332	0.0167512
782.410	0.0167924
782.488	0.0167483
782.567	0.0166964
782.645	0.0166946
782.723	0.0167364
782.801	0.0167418
782.879	0.0167862
782.957	0.0166206
783.035	0.0168690
783.113	0.0166060
783.192	0.0165739
783.270	0.0165936
783.348	0.0166734
783.426	0.0167491
783.504	0.0167886
783.582	0.0167526
783.660	0.0167247
783.738	0.0167000
783.817	0.0166875
783.895	0.0168371
783.973	0.0168456
784.051	0.0166046
784.129	0.0166859
784.207	0.0168043
784.285	0.0167429
784.363	0.0167023
784.442	0.0167834
784.520	0.0167652
784.598	0.0166737
784.676	0.0167196
784.754	0.0168375
784.832	0.0167139
784.910	0.0167785
784.988	0.0168341
785.067	0.0168865
785.145	0.0167515
785.223	0.0167855
785.301	0.0167128
785.379	0.0167402
785.457	0.0167788
785.535	0.0168021
785.613	0.0166645
785.692	0.0167674
785.770	0.0168970
785.848	0.0168678
785.926	0.0167460
786.004	0.0167303
786.082	0.0167474
786.160	0.0167917
786.238	0.0167208
786.317	0.0167638
786.395	0.0166585
786.473	0.0167376
786.551	0.0167665
786.629	0.0167844
786.707	0.0167099
786.785	0.0166431
786.863	0.0166513
786.942	0.0168449
787.020	0.0167682
787.098	0.0167178
787.176	0.0168330
787.254	0.0167658
787.332	0.0167984
787.410	0.0167680
787.488	0.0168706
787.567	0.0167145
787.645	0.0167845
787.723	0.0167007
787.801	0.0167294
787.879	0.0166655
787.957	0.0168344
788.035	0.0166488
788.113	0.0168118
788.192	0.0168826
788.270	0.0168356
788.348	0.0167270
788.426	0.0165272
788.504	0.0167719
788.582	0.0168491
788.660	0.0168299
788.738	0.0167005
788.817	0.0167200
788.895	0.0167039
788.973	0.0167107
789.051	0.0166459
789.129	0.0168049
789.207	0.0167078
789.285	0.0167223
789.363	0.0167597
789.442	0.0167865
789.520	0.0167784
789.598	0.0167229
789.676	0.0168170
789.754	0.0168150
789.832	0.0167558
789.910	0.0167492
789.988	0.0168085
790.067	0.0167624
790.145	0.0167661
790.223	0.0168880
790.301	0.0167963
790.379	0.0167818
790.457	0.0168784
790.535	0.0167876
790.613	0.0166650
790.692	0.0167649
790.770	0.0167004
790.848	0.0168631
790.926	0.0168985
791.004	0.0167409
791.082	0.0167569
791.160	0.0167223
791.238	0.0167878
791.317	0.0167426
791.395	0.0167035
791.473	0.0167308
791.551	0.0167560
791.629	0.0166730
791.707	0.0166718
791.785	0.0167776
791.863	0.0167534
791.942	0.0167651
792.020	0.0167753
792.098	0.0166138
792.176	0.0166631
792.254	0.0167886
792.332	0.0169038
792.410	0.0168962
792.488	0.0167408
792.567	0.0167670
792.645	0.0166892
792.723	0.0167381
792.801	0.0167023
792.879	0.0168000
792.957	0.0167982
793.035	0.0167796
793.113	0.0167642
793.192	0.0168409
793.270	0.0167612
793.348	0.0167871
793.426	0.0168382
793.504	0.0168501
793.582	0.0168536
793.660	0.0168279
793.738	0.0168596
793.817	0.0167706
793.895	0.0167950
793.973	0.0168739
794.051	0.0167580
794.129	0.0167230
794.207	0.0168021
794.285	0.0167122
794.363	0.0167648
794.442	0.0168575
794.520	0.0168624
794.598	0.0168423
794.676	0.0166384
794.754	0.0166066
794.832	0.0167242
794.910	0.0168624
794.988	0.0168158
795.067	0.0167556
795.145	0.0167432
795.223	0.0167986
795.301	0.0169757
795.379	0.0167642
795.457	0.0168156
795.535	0.0167483
795.613	0.0168114
795.692	0.0169009
795.770	0.0167744
795.848	0.0167089
795.926	0.0167723
796.004	0.0168349
796.082	0.0167740
796.160	0.0168459
796.238	0.0167999
796.317	0.0167320
796.395	0.0168020
796.473	0.0168376
796.551	0.0167165
796.629	0.0169115
796.707	0.0167761
796.785	0.0167976
796.863	0.0167442
796.942	0.0167029
797.020	0.0168009
797.098	0.0168181
797.176	0.0167629
797.254	0.0167644
797.332	0.0167018
797.410	0.0167479
797.488	0.0167507
797.567	0.0167350
797.645	0.0167667
797.723	0.0166848
797.801	0.0167262
797.879	0.0167400
797.957	0.0167360
798.035	0.0167062
798.113	0.0168476
798.192	0.0167332
798.270	0.0167609
798.348	0.0168195
798.426	0.0168082
798.504	0.0168045
798.582	0.0167416
798.660	0.0166963
798.738	0.0166801
798.817	0.0167840
798.895	0.0167487
798.973	0.0166756
799.051	0.0166631
799.129	0.0167580
799.207	0.0167254
799.285	0.0167667
799.363	0.0165799
799.442	0.0167168
799.520	0.0166218
799.598	0.0166920
799.676	0.0167540
799.754	0.0168450
799.832	0.0166431
799.910	0.0165955
799.988	0.0167147
800.067	0.0165870
800.145	0.0167331
800.223	0.0168050
800.301	0.0168223
800.379	0.0167655
800.457	0.0166588
800.535	0.0167783
800.613	0.0167228
800.692	0.0166383
800.770	0.0167192
800.848	0.0167085
800.926	0.0167391
801.004	0.0168250
801.082	0.0166016
801.160	0.0166750
801.238	0.0167487
801.317	0.0168476
801.395	0.0165590
801.473	0.0166499
801.551	0.0167133
801.629	0.0166930
801.707	0.0166593
801.785	0.0168029
801.863	0.0168193
801.942	0.0166689
802.020	0.0167535
802.098	0.0167193
802.176	0.0168537
802.254	0.0167741
802.332	0.0166465
802.410	0.0167563
802.488	0.0167313
802.567	0.0167522
802.645	0.0166266
802.723	0.0166396
802.801	0.0167396
802.879	0.0167542
802.957	0.0166928
803.035	0.0169479
803.113	0.0168037
803.192	0.0167371
803.270	0.0167556
803.348	0.0167238
803.426	0.0167442
803.504	0.0168292
803.582	0.0167467
803.660	0.0167838
803.738	0.0168221
803.817	0.0167509
803.895	0.0166833
803.973	0.0168870
804.051	0.0168321
804.129	0.0168173
804.207	0.0166520
804.285	0.0167811
804.363	0.0167366
804.442	0.0167786
804.520	0.0167864
804.598	0.0167154
804.676	0.0167162
804.754	0.0166054
804.832	0.0166219
804.910	0.0167690
804.988	0.0168439
805.067	0.0167393
805.145	0.0166349
805.223	0.0167608
805.301	0.0166787
805.379	0.0168053
805.457	0.0168434
805.535	0.0169199
805.613	0.0167760
805.692	0.0167908
805.770	0.0166668
805.848	0.0167155
805.926	0.0167835
806.004	0.0167234
806.082	0.0167815
806.160	0.0167261
806.238	0.0168058
806.317	0.0167798
806.395	0.0167112
806.473	0.0167342
806.551	0.0166691
806.629	0.0168073
806.707	0.0167767
806.785	0.0167538
806.863	0.0168298
806.942	0.0167140
807.020	0.0167610
807.098	0.0167265
807.176	0.0166528
807.254	0.0167489
807.332	0.0166814
807.410	0.0166454
807.488	0.0167747
807.567	0.0168431
807.645	0.0166705
807.723	0.0167049
807.801	0.0167039
807.879	0.0166995
807.957	0.0167958
808.035	0.0166784
808.113	0.0166192
808.192	0.0166672
808.270	0.0167201
808.348	0.0167854
808.426	0.0168205
808.504	0.0168172
808.582	0.0167917
808.660	0.0167534
808.738	0.0166477
808.817	0.0166591
808.895	0.0166645
808.973	0.0168791
809.051	0.0169291
809.129	0.0167012
809.207	0.0167343
809.285	0.0167498
809.363	0.0168980
809.442	0.0167403
809.520	0.0168268
809.598	0.0167236
809.676	0.0167165
809.754	0.0167104
809.832	0.0167781
809.910	0.0167175
809.988	0.0166238
810.067	0.0167149
810.145	0.0166446
810.223	0.0166419
810.301	0.0167236
810.379	0.0166689
810.457	0.0166808
810.535	0.0167345
810.613	0.0166785
810.692	0.0166327
810.770	0.0168504
810.848	0.0167564
810.926	0.0167086
811.004	0.0168158
811.082	0.0167061
811.160	0.0167770
811.238	0.0167071
811.317	0.0167902
811.395	0.0166126
811.473	0.0167323
811.551	0.0166351
811.629	0.0167937
811.707	0.0168455
811.785	0.0167673
811.863	0.0165901
811.942	0.0167136
812.020	0.0167448
812.098	0.0167789
812.176	0.0166593
812.254	0.0167284
812.332	0.0166927
812.410	0.0166759
812.488	0.0167854
812.567	0.0167434
812.645	0.0167340
812.723	0.0167202
812.801	0.0167519
812.879	0.0167039
812.957	0.0167804
813.035	0.0166003
813.113	0.0165866
813.192	0.0166656
813.270	0.0167325
813.348	0.0167999
813.426	0.0168296
813.504	0.0168167
813.582	0.0168441
813.660	0.0167274
813.738	0.0167838
813.817	0.0167673
813.895	0.0167786
813.973	0.0168183
814.051	0.0166956
814.129	0.0166618
814.207	0.0166618
814.285	0.0167645
814.363	0.0167088
814.442	0.0168510
814.520	0.0166974
814.598	0.0166960
814.676	0.0167581
814.754	0.0167760
814.832	0.0167455
814.910	0.0167979
814.988	0.0167336
815.067	0.0167287
815.145	0.0168222
815.223	0.0167896
815.301	0.0166858
815.379	0.0166032
815.457	0.0167030
815.535	0.0167169
815.613	0.0167233
815.692	0.0168019
815.770	0.0167509
815.848	0.0166387
815.926	0.0167269
816.004	0.0167023
816.082	0.0167233
816.160	0.0167201
816.238	0.0167856
816.317	0.0168304
816.395	0.0167859
816.473	0.0167144
816.551	0.0167496
816.629	0.0166965
816.707	0.0167350
816.785	0.0168061
816.863	0.0167846
816.942	0.0167094
817.020	0.0168009
817.098	0.0167226
817.176	0.0168182
817.254	0.0166984
817.332	0.0168067
817.410	0.0168734
817.488	0.0168199
817.567	0.0168187
817.645	0.0168448
817.723	0.0166814
817.801	0.0166496
817.879	0.0167129
817.957	0.0166125
818.035	0.0166345
818.113	0.0166540
818.192	0.0168935
818.270	0.0166930
818.348	0.0167628
818.426	0.0168319
818.504	0.0167519
818.582	0.0167939
818.660	0.0167891
818.738	0.0167136
818.817	0.0167251
818.895	0.0167485
818.973	0.0166915
819.051	0.0168941
819.129	0.0167783
819.207	0.0167541
819.285	0.0168503
819.363	0.0167865
819.442	0.0166803
819.520	0.0168154
819.598	0.0166886
819.676	0.0167532
819.754	0.0166927
819.832	0.0167840
819.910	0.0167165
819.988	0.0167722
820.067	0.0166470
820.145	0.0167059
820.223	0.0166915
820.301	0.0167196
820.379	0.0167243
820.457	0.0168334
820.535	0.0167094
820.613	0.0167102
820.692	0.0167481
820.770	0.0167137
820.848	0.0166183
820.926	0.0167894
821.004	0.0166619
821.082	0.0167004
821.160	0.0166400
821.238	0.0167151
821.317	0.0166634
821.395	0.0166562
821.473	0.0167380
821.551	0.0167493
821.629	0.0166814
821.707	0.0167739
821.785	0.0166706
821.863	0.0165887
821.942	0.0167539
822.020	0.0167945
822.098	0.0168317
822.176	0.0167550
822.254	0.0167788
822.332	0.0167127
822.410	0.0167419
822.488	0.0166560
822.567	0.0166988
822.645	0.0167788
822.723	0.0168284
822.801	0.0166748
822.879	0.0167071
822.957	0.0168336
823.035	0.0166302
823.113	0.0167565
823.192	0.0167284
823.270	0.0167323
823.348	0.0168067
823.426	0.0168295
823.504	0.0167816
823.582	0.0167741
823.660	0.0168002
823.738	0.0167051
823.817	0.0167059
823.895	0.0166280
823.973	0.0166891
824.051	0.0167065
824.129	0.0167892
824.207	0.0167262
824.285	0.0167626
824.363	0.0167444
824.442	0.0167284
824.520	0.0166419
824.598	0.0167588
824.676	0.0166543
824.754	0.0169121
824.832	0.0166800
824.910	0.0166795
824.988	0.0168450
825.067	0.0167134
825.145	0.0166347
825.223	0.0166367
825.301	0.0168092
825.379	0.0167638
825.457	0.0166150
825.535	0.0167117
825.613	0.0167804
825.692	0.0167876
825.770	0.0167669
825.848	0.0166168
825.926	0.0166698
826.004	0.0165512
826.082	0.0166841
826.160	0.0168389
826.238	0.0167513
826.317	0.0166762
826.395	0.0167524
826.473	0.0166365
826.551	0.0166187
826.629	0.0167958
826.707	0.0167319
826.785	0.0167014
826.863	0.0167025
826.942	0.0166955
827.020	0.0167793
827.098	0.0167044
827.176	0.0167386
827.254	0.0169080
827.332	0.0167577
827.410	0.0167236
827.488	0.0166270
827.567	0.0166399
827.645	0.0168092
827.723	0.0167246
827.801	0.0166325
827.879	0.0167146
827.957	0.0168353
828.035	0.0167249
828.113	0.0166609
828.192	0.0166920
828.270	0.0166220
828.348	0.0166418
828.426	0.0168319
828.504	0.0166997
828.582	0.0166666
828.660	0.0167256
828.738	0.0167065
828.817	0.0166800
828.895	0.0168314
828.973	0.0167736
829.051	0.0167852
829.129	0.0167846
829.207	0.0167436
829.285	0.0167248
829.363	0.0166696
829.442	0.0166520
829.520	0.0167886
829.598	0.0167820
829.676	0.0167465
829.754	0.0167461
829.832	0.0166703
829.910	0.0167215
829.988	0.0167616
830.067	0.0167767
830.145	0.0167576
830.223	0.0166936
830.301	0.0167039
830.379	0.0167102
830.457	0.0168762
830.535	0.0167824
830.613	0.0167825
830.692	0.0168273
830.770	0.0168377
830.848	0.0167645
830.926	0.0166896
831.004	0.0166635
831.082	0.0166769
831.160	0.0166200
831.238	0.0167687
831.317	0.0168485
831.395	0.0166881
831.473	0.0168535
831.551	0.0168427
831.629	0.0167281
831.707	0.0167503
831.785	0.0167471
831.863	0.0167898
831.942	0.0168568
832.020	0.0166782
832.098	0.0165791
832.176	0.0167307
832.254	0.0166917
832.332	0.0167571
832.410	0.0168226
832.488	0.0168054
832.567	0.0167427
832.645	0.0166782
832.723	0.0168237
832.801	0.0167241
832.879	0.0166899
832.957	0.0167052
833.035	0.0166814
833.113	0.0168221
833.192	0.0166469
833.270	0.0167822
833.348	0.0168338
833.426	0.0167242
833.504	0.0167934
833.582	0.0168051
833.660	0.0168107
833.738	0.0167832
833.817	0.0168153
833.895	0.0167248
833.973	0.0166933
834.051	0.0167786
834.129	0.0168926
834.207	0.0169090
834.285	0.0168052
834.363	0.0169040
834.442	0.0167792
834.520	0.0167558
834.598	0.0168829
834.676	0.0167969
834.754	0.0169002
834.832	0.0166813
834.910	0.0168179
834.988	0.0168838
835.067	0.0168555
835.145	0.0167644
835.223	0.0167577
835.301	0.0168372
835.379	0.0168029
835.457	0.0165658
835.535	0.0166760
835.613	0.0167010
835.692	0.0167114
835.770	0.0167184
835.848	0.0168074
835.926	0.0167770
836.004	0.0168236
836.082	0.0166257
836.160	0.0166793
836.238	0.0166961
836.317	0.0167721
836.395	0.0168193
836.473	0.0168043
836.551	0.0166880
836.629	0.0168045
836.707	0.0166767
836.785	0.0167775
836.863	0.0168101
836.942	0.0167329
837.020	0.0168187
837.098	0.0166135
837.176	0.0166605
837.254	0.0166956
837.332	0.0166513
837.410	0.0166375
837.488	0.0166282
837.567	0.0166489
837.645	0.0167516
837.723	0.0167532
837.801	0.0166480
837.879	0.0167484
837.957	0.0167298
838.035	0.0166834
838.113	0.0167834
838.192	0.0168035
838.270	0.0167373
838.348	0.0167823
838.426	0.0167532
838.504	0.0167517
838.582	0.0168123
838.660	0.0166907
838.738	0.0168073
838.817	0.0168103
838.895	0.0166512
838.973	0.0165615
839.051	0.0165782
839.129	0.0164872
839.207	0.0166098
839.285	0.0165910
839.363	0.0166183
839.442	0.0166550
839.520	0.0167015
839.598	0.0167474
839.676	0.0166682
839.754	0.0167820
839.832	0.0165323
839.910	0.0166850
839.988	0.0166094
840.067	0.0166210
840.145	0.0166248
840.223	0.0167818
840.301	0.0168111
840.379	0.0167657
840.457	0.0166805
840.535	0.0167022
840.613	0.0166954
840.692	0.0167232
840.770	0.0168566
840.848	0.0168435
840.926	0.0167384
841.004	0.0167530
841.082	0.0167875
841.160	0.0166411
841.238	0.0165514
841.317	0.0168458
841.395	0.0168089
841.473	0.0166966
841.551	0.0167976
841.629	0.0166983
841.707	0.0166231
841.785	0.0168052
841.863	0.0166805
841.942	0.0167992
842.020	0.0167039
842.098	0.0167863
842.176	0.0167571
842.254	0.0168024
842.332	0.0167540
842.410	0.0167339
842.488	0.0168675
842.567	0.0167384
842.645	0.0170045
842.723	0.0168095
842.801	0.0166756
842.879	0.0168075
842.957	0.0167971
843.035	0.0165643
843.113	0.0166803
843.192	0.0167252
843.270	0.0168266
843.348	0.0167188
843.426	0.0166364
843.504	0.0168446
843.582	0.0167465
843.660	0.0167897
843.738	0.0166696
843.817	0.0166825
843.895	0.0166747
843.973	0.0167362
844.051	0.0167376
844.129	0.0166911
844.207	0.0166840
844.285	0.0166575
844.363	0.0167474
844.442	0.0168056
844.520	0.0168024
844.598	0.0166213
844.676	0.0165179
844.754	0.0167464
844.832	0.0166750
844.910	0.0166927
844.988	0.0166942
845.067	0.0166747
845.145	0.0168176
845.223	0.0167433
845.301	0.0168043
845.379	0.0168826
845.457	0.0167039
845.535	0.0168100
845.613	0.0168027
845.692	0.0168002
845.770	0.0168073
845.848	0.0168821
845.926	0.0167249
846.004	0.0166616
846.082	0.0168434
846.160	0.0168085
846.238	0.0167043
846.317	0.0167370
846.395	0.0168011
846.473	0.0168076
846.551	0.0167729
846.629	0.0167423
846.707	0.0167527
846.785	0.0167110
846.863	0.0168703
846.942	0.0166536
847.020	0.0167263
847.098	0.0168327
847.176	0.0168752
847.254	0.0167262
847.332	0.0168222
847.410	0.0167285
847.488	0.0166702
847.567	0.0168316
847.645	0.0166613
847.723	0.0166795
847.801	0.0167889
847.879	0.0167339
847.957	0.0165682
848.035	0.0166639
848.113	0.0168931
848.192	0.0168658
848.270	0.0166732
848.348	0.0168092
848.426	0.0167236
848.504	0.0167599
848.582	0.0166851
848.660	0.0168067
848.738	0.0167771
848.817	0.0167497
848.895	0.0166767
848.973	0.0167096
849.051	0.0166106
849.129	0.0167279
849.207	0.0167651
849.285	0.0167164
849.363	0.0168986
849.442	0.0168521
849.520	0.0166866
849.598	0.0167358
849.676	0.0167395
849.754	0.0166943
849.832	0.0167707
849.910	0.0168064
849.988	0.0167923
850.067	0.0168088
850.145	0.0168341
850.223	0.0167381
850.301	0.0166979
850.379	0.0167004
850.457	0.0166701
850.535	0.0167186
850.613	0.0167489
850.692	0.0167876
850.770	0.0168561
850.848	0.0168148
850.926	0.0167508
851.004	0.0167986
851.082	0.0167746
851.160	0.0166383
851.238	0.0168475
851.317	0.0168285
851.395	0.0168119
851.473	0.0167801
851.551	0.0168039
851.629	0.0167891
851.707	0.0167123
851.785	0.0166951
851.863	0.0166646
851.942	0.0166828
852.020	0.0167547
852.098	0.0167609
852.176	0.0167791
852.254	0.0166694
852.332	0.0167362
852.410	0.0167850
852.488	0.0168955
852.567	0.0168103
852.645	0.0167123
852.723	0.0167604
852.801	0.0167030
852.879	0.0166844
852.957	0.0168020
853.035	0.0168508
853.113	0.0167953
853.192	0.0167059
853.270	0.0167755
853.348	0.0167257
853.426	0.0167355
853.504	0.0167889
853.582	0.0166412
853.660	0.0167207
853.738	0.0167256
853.817	0.0167735
853.895	0.0168096
853.973	0.0167374
854.051	0.0167242
854.129	0.0167216
854.207	0.0168836
854.285	0.0167472
854.363	0.0167174
854.442	0.0167872
854.520	0.0168154
854.598	0.0167500
854.676	0.0167952
854.754	0.0167035
854.832	0.0167897
854.910	0.0167331
854.988	0.0167614
855.067	0.0168417
855.145	0.0167274
855.223	0.0167142
855.301	0.0167628
855.379	0.0166991
855.457	0.0168353
855.535	0.0166933
855.613	0.0166472
855.692	0.0167206
855.770	0.0168542
855.848	0.0168330
855.926	0.0166550
856.004	0.0168746
856.082	0.0168658
856.160	0.0169081
856.238	0.0168182
856.317	0.0168959
856.395	0.0169110
856.473	0.0166929
856.551	0.0166844
856.629	0.0167163
856.707	0.0167809
856.785	0.0167399
856.863	0.0167182
856.942	0.0168777
857.020	0.0165580
857.098	0.0167746
857.176	0.0167722
857.254	0.0168278
857.332	0.0168133
857.410	0.0167770
857.488	0.0167726
857.567	0.0167784
857.645	0.0168654
857.723	0.0168022
857.801	0.0168099
857.879	0.0167670
857.957	0.0166518
858.035	0.0165784
858.113	0.0167327
858.192	0.0167735
858.270	0.0167173
858.348	0.0168573
858.426	0.0168867
858.504	0.0167655
858.582	0.0166567
858.660	0.0166200
858.738	0.0166948
858.817	0.0167204
858.895	0.0167155
858.973	0.0167807
859.051	0.0167542
859.129	0.0167017
859.207	0.0166554
859.285	0.0167333
859.363	0.0167659
859.442	0.0167997
859.520	0.0166530
859.598	0.0166180
859.676	0.0167760
859.754	0.0165974
859.832	0.0166149
859.910	0.0167137
859.988	0.0168232
860.067	0.0166914
860.145	0.0167061
860.223	0.0167197
860.301	0.0166943
860.379	0.0167689
860.457	0.0167571
860.535	0.0167556
860.613	0.0167686
860.692	0.0166677
860.770	0.0168023
860.848	0.0167389
860.926	0.0168362
861.004	0.0167168
861.082	0.0167326
861.160	0.0167534
861.238	0.0168032
861.317	0.0167310
861.395	0.0168142
861.473	0.0167769
861.551	0.0167204
861.629	0.0167284
861.707	0.0167837
861.785	0.0167361
861.863	0.0168573
861.942	0.0168520
862.020	0.0166998
862.098	0.0168784
862.176	0.0168132
862.254	0.0168320
862.332	0.0168194
862.410	0.0168154
862.488	0.0167088
862.567	0.0166936
862.645	0.0167889
862.723	0.0168409
862.801	0.0167282
862.879	0.0166304
862.957	0.0167113
863.035	0.0167446
863.113	0.0167160
863.192	0.0167961
863.270	0.0167361
863.348	0.0167417
863.426	0.0167011
863.504	0.0166156
863.582	0.0167430
863.660	0.0166746
863.738	0.0167334
863.817	0.0168065
863.895	0.0167805
863.973	0.0168272
864.051	0.0168162
864.129	0.0168283
864.207	0.0167195
864.285	0.0167580
864.363	0.0167466
864.442	0.0167942
864.520	0.0167467
864.598	0.0167391
864.676	0.0167988
864.754	0.0168359
864.832	0.0166034
864.910	0.0166262
864.988	0.0168576
865.067	0.0168562
865.145	0.0167086
865.223	0.0166342
865.301	0.0168578
865.379	0.0167493
865.457	0.0166553
865.535	0.0167192
865.613	0.0166480
865.692	0.0168810
865.770	0.0167877
865.848	0.0167136
865.926	0.0168245
866.004	0.0166623
866.082	0.0167213
866.160	0.0168161
866.238	0.0167481
866.317	0.0167163
866.395	0.0165842
866.473	0.0167389
866.551	0.0168137
866.629	0.0167994
866.707	0.0166838
866.785	0.0166642
866.863	0.0165871
866.942	0.0165914
867.020	0.0166788
867.098	0.0168382
867.176	0.0168021
867.254	0.0167152
867.332	0.0167465
867.410	0.0166479
867.488	0.0167081
867.567	0.0166966
867.645	0.0168340
867.723	0.0166825
867.801	0.0166029
867.879	0.0167324
867.957	0.0167986
868.035	0.0168121
868.113	0.0167430
868.192	0.0166508
868.270	0.0166518
868.348	0.0167480
868.426	0.0167337
868.504	0.0169244
868.582	0.0167432
868.660	0.0167405
868.738	0.0167444
868.817	0.0169112
868.895	0.0168218
868.973	0.0167992
869.051	0.0168497
869.129	0.0167233
869.207	0.0168812
869.285	0.0168191
869.363	0.0167391
869.442	0.0168452
869.520	0.0167151
869.598	0.0166795
869.676	0.0167918
869.754	0.0167659
869.832	0.0166807
869.910	0.0167760
869.988	0.0167578
870.067	0.0168075
870.145	0.0168144
870.223	0.0168089
870.301	0.0167793
870.379	0.0167762
870.457	0.0167350
870.535	0.0166698
870.613	0.0167974
870.692	0.0166999
870.770	0.0167022
870.848	0.0168530
870.926	0.0167611
871.004	0.0166878
871.082	0.0167767
871.160	0.0167622
871.238	0.0167685
871.317	0.0166682
871.395	0.0167278
871.473	0.0167159
871.551	0.0168545
871.629	0.0167677
871.707	0.0166504
871.785	0.0167300
871.863	0.0168166
871.942	0.0167498
872.020	0.0168524
872.098	0.0166790
872.176	0.0167725
872.254	0.0167686
872.332	0.0168986
872.410	0.0167448
872.488	0.0167268
872.567	0.0168053
872.645	0.0168231
872.723	0.0165656
872.801	0.0167890
872.879	0.0168678
872.957	0.0168090
873.035	0.0167754
873.113	0.0167220
873.192	0.0167433
873.270	0.0168109
873.348	0.0168219
873.426	0.0168288
873.504	0.0169073
873.582	0.0167947
873.660	0.0167111
873.738	0.0167823
873.817	0.0165834
873.895	0.0166457
873.973	0.0167313
874.051	0.0168282
874.129	0.0167226
874.207	0.0167442
874.285	0.0167137
874.363	0.0167910
874.442	0.0167150
874.520	0.0167082
874.598	0.0168124
874.676	0.0168472
874.754	0.0166982
874.832	0.0166599
874.910	0.0167679
874.988	0.0168340
875.067	0.0167384
875.145	0.0167097
875.223	0.0167976
875.301	0.0166555
875.379	0.0166982
875.457	0.0168031
875.535	0.0167557
875.613	0.0167877
875.692	0.0167860
875.770	0.0167180
875.848	0.0166927
875.926	0.0167797
876.004	0.0167672
876.082	0.0167848
876.160	0.0168163
876.238	0.0167535
876.317	0.0167859
876.395	0.0169076
876.473	0.0167737
876.551	0.0166709
876.629	0.0168546
876.707	0.0166965
876.785	0.0167307
876.863	0.0168457
876.942	0.0167533
877.020	0.0166485
877.098	0.0167541
877.176	0.0167731
877.254	0.0167512
877.332	0.0166625
877.410	0.0167120
877.488	0.0167598
877.567	0.0168186
877.645	0.0168136
877.723	0.0167355
877.801	0.0167113
877.879	0.0166434
877.957	0.0167863
878.035	0.0167150
878.113	0.0168311
878.192	0.0168523
878.270	0.0166613
878.348	0.0168423
878.426	0.0168457
878.504	0.0166841
878.582	0.0167458
878.660	0.0168341
878.738	0.0168670
878.817	0.0166587
878.895	0.0167318
878.973	0.0168845
879.051	0.0167809
879.129	0.0168353
879.207	0.0167133
879.285	0.0166565
879.363	0.0165239
879.442	0.0167262
879.520	0.0167324
879.598	0.0167921
879.676	0.0167539
879.754	0.0167851
879.832	0.0168012
879.910	0.0167435
879.988	0.0167860
880.067	0.0167942
880.145	0.0167576
880.223	0.0165850
880.301	0.0166446
880.379	0.0168289
880.457	0.0168063
880.535	0.0166401
880.613	0.0166933
880.692	0.0167675
880.770	0.0167525
880.848	0.0167509
880.926	0.0168485
881.004	0.0168329
881.082	0.0167715
881.160	0.0167992
881.238	0.0169128
881.317	0.0168163
881.395	0.0167239
881.473	0.0168019
881.551	0.0167924
881.629	0.0168203
881.707	0.0167500
881.785	0.0168353
881.863	0.0166237
881.942	0.0167755
882.020	0.0167870
882.098	0.0167966
882.176	0.0167075
882.254	0.0169246
882.332	0.0167998
882.410	0.0168649
882.488	0.0166697
882.567	0.0167063
882.645	0.0167136
882.723	0.0167855
882.801	0.0168899
882.879	0.0169836
882.957	0.0168153
883.035	0.0166322
883.113	0.0168013
883.192	0.0167075
883.270	0.0166159
883.348	0.0167771
883.426	0.0167097
883.504	0.0167878
883.582	0.0167513
883.660	0.0167382
883.738	0.0167461
883.817	0.0167442
883.895	0.0166759
883.973	0.0168413
884.051	0.0166953
884.129	0.0166794
884.207	0.0167567
884.285	0.0168099
884.363	0.0167744
884.442	0.0167776
884.520	0.0168010
884.598	0.0168288
884.676	0.0167844
884.754	0.0167574
884.832	0.0167637
884.910	0.0168999
884.988	0.0168727
885.067	0.0166972
885.145	0.0167577
885.223	0.0167595
885.301	0.0167944
885.379	0.0167743
885.457	0.0167031
885.535	0.0167449
885.613	0.0166837
885.692	0.0167274
885.770	0.0167353
885.848	0.0166758
885.926	0.0168588
886.004	0.0168105
886.082	0.0168195
886.160	0.0168085
886.238	0.0166645
886.317	0.0167659
886.395	0.0167619
886.473	0.0167589
886.551	0.0167416
886.629	0.0167252
886.707	0.0168360
886.785	0.0167184
886.863	0.0167115
886.942	0.0167130
887.020	0.0167335
887.098	0.0167463
887.176	0.0167221
887.254	0.0166811
887.332	0.0167147
887.410	0.0167086
887.488	0.0167277
887.567	0.0167181
887.645	0.0168526
887.723	0.0169709
887.801	0.0167948
887.879	0.0168519
887.957	0.0167510
888.035	0.0165376
888.113	0.0168333
888.192	0.0168118
888.270	0.0168011
888.348	0.0167693
888.426	0.0167851
888.504	0.0166350
888.582	0.0167356
888.660	0.0168425
888.738	0.0166181
888.817	0.0167493
888.895	0.0167773
888.973	0.0167296
889.051	0.0166998
889.129	0.0167825
889.207	0.0167719
889.285	0.0168196
889.363	0.0167712
889.442	0.0167779
889.520	0.0167285
889.598	0.0167994
889.676	0.0166742
889.754	0.0167072
889.832	0.0168989
889.910	0.0167039
889.988	0.0167879
890.067	0.0167155
890.145	0.0168308
890.223	0.0169496
890.301	0.0168485
890.379	0.0168913
890.457	0.0167996
890.535	0.0166946
890.613	0.0167430
890.692	0.0168546
890.770	0.0167738
890.848	0.0168877
890.926	0.0167722
891.004	0.0167290
891.082	0.0167255
891.160	0.0167848
891.238	0.0168965
891.317	0.0168153
891.395	0.0168326
891.473	0.0168598
891.551	0.0167076
891.629	0.0167480
891.707	0.0168775
891.785	0.0168004
891.863	0.0166797
891.942	0.0167223
892.020	0.0167333
892.098	0.0168739
892.176	0.0167899
892.254	0.0167355
892.332	0.0166119
892.410	0.0166019
892.488	0.0166852
892.567	0.0166402
892.645	0.0166759
892.723	0.0167214
892.801	0.0167239
892.879	0.0168137
892.957	0.0167236
893.035	0.0167958
893.113	0.0167939
893.192	0.0166120
893.270	0.0166929
893.348	0.0166454
893.426	0.0168588
893.504	0.0167242
893.582	0.0167967
893.660	0.0168572
893.738	0.0167729
893.817	0.0167378
893.895	0.0168010
893.973	0.0169189
894.051	0.0168654
894.129	0.0167895
894.207	0.0166566
894.285	0.0168856
894.363	0.0168776
894.442	0.0168134
894.520	0.0167335
894.598	0.0168021
894.676	0.0167950
894.754	0.0166885
894.832	0.0167854
894.910	0.0167979
894.988	0.0167249
895.067	0.0167188
895.145	0.0168623
895.223	0.0167650
895.301	0.0168559
895.379	0.0167783
895.457	0.0166385
895.535	0.0167326
895.613	0.0168916
895.692	0.0168380
895.770	0.0167236
895.848	0.0167682
895.926	0.0166631
896.004	0.0166750
896.082	0.0168539
896.160	0.0167689
896.238	0.0166898
896.317	0.0166251
896.395	0.0165562
896.473	0.0166563
896.551	0.0168584
896.629	0.0167702
896.707	0.0166273
896.785	0.0166220
896.863	0.0167015
896.942	0.0166875
897.020	0.0166923
897.098	0.0167341
897.176	0.0167794
897.254	0.0167491
897.332	0.0167290
897.410	0.0167686
897.488	0.0166200
897.567	0.0167864
897.645	0.0168765
897.723	0.0167880
897.801	0.0167369
897.879	0.0167530
897.957	0.0167120
898.035	0.0168431
898.113	0.0167721
898.192	0.0168895
898.270	0.0167975
898.348	0.0168155
898.426	0.0169199
898.504	0.0168745
898.582	0.0167850
898.660	0.0168353
898.738	0.0168363
898.817	0.0168230
898.895	0.0167567
898.973	0.0168059
899.051	0.0168185
899.129	0.0167271
899.207	0.0167819
899.285	0.0168884
899.363	0.0167065
899.442	0.0168002
899.520	0.0167789
899.598	0.0167876
899.676	0.0167769
899.754	0.0166424
899.832	0.0167159
899.910	0.0167883
899.988	0.0166685
900.067	0.0167242
900.145	0.0168173
900.223	0.0167621
900.301	0.0169683
900.379	0.0169274
900.457	0.0167879
900.535	0.0167627
900.613	0.0167430
900.692	0.0167600
900.770	0.0168970
900.848	0.0167734
900.926	0.0168123
901.004	0.0168710
901.082	0.0167859
901.160	0.0167437
901.238	0.0167435
901.317	0.0167437
901.395	0.0167384
901.473	0.0167652
901.551	0.0168149
901.629	0.0167294
901.707	0.0168188
901.785	0.0167965
901.863	0.0168369
901.942	0.0167636
902.020	0.0168079
902.098	0.0167023
902.176	0.0167011
902.254	0.0167719
902.332	0.0167413
902.410	0.0168112
902.488	0.0168180
902.567	0.0167269
902.645	0.0167399
902.723	0.0167461
902.801	0.0168481
902.879	0.0167213
902.957	0.0167557
903.035	0.0166690
903.113	0.0168193
903.192	0.0167374
903.270	0.0168211
903.348	0.0166124
903.426	0.0166224
903.504	0.0166168
903.582	0.0167638
903.660	0.0166988
903.738	0.0167558
903.817	0.0167100
903.895	0.0165977
903.973	0.0166580
904.051	0.0167904
904.129	0.0167393
904.207	0.0168124
904.285	0.0167046
904.363	0.0167271
904.442	0.0165829
904.520	0.0167012
904.598	0.0167278
904.676	0.0168683
904.754	0.0167886
904.832	0.0167950
904.910	0.0168188
904.988	0.0168706
905.067	0.0167580
905.145	0.0166368
905.223	0.0168995
905.301	0.0167191
905.379	0.0167830
905.457	0.0167645
905.535	0.0167214
905.613	0.0167277
905.692	0.0167205
905.770	0.0167755
905.848	0.0168482
905.926	0.0167239
906.004	0.0166750
906.082	0.0168665
906.160	0.0168435
906.238	0.0167456
906.317	0.0169370
906.395	0.0166603
906.473	0.0166142
906.551	0.0167156
906.629	0.0166610
906.707	0.0166596
906.785	0.0167499
906.863	0.0168320
906.942	0.0166935
907.020	0.0167795
907.098	0.0168600
907.176	0.0167579
907.254	0.0167381
907.332	0.0167013
907.410	0.0167915
907.488	0.0167480
907.567	0.0167180
907.645	0.0167979
907.723	0.0166990
907.801	0.0167501
907.879	0.0167340
907.957	0.0167584
908.035	0.0166550
908.113	0.0166969
908.192	0.0168053
908.270	0.0167602
908.348	0.0166006
908.426	0.0168179
908.504	0.0166993
908.582	0.0166788
908.660	0.0167021
908.738	0.0167632
908.817	0.0167051
908.895	0.0168237
908.973	0.0167044
909.051	0.0167899
909.129	0.0167925
909.207	0.0168555
909.285	0.0167031
909.363	0.0166383
909.442	0.0166417
909.520	0.0166782
909.598	0.0165961
909.676	0.0167300
909.754	0.0167963
909.832	0.0167284
909.910	0.0166696
909.988	0.0167448
910.067	0.0166825
910.145	0.0166692
910.223	0.0166603
910.301	0.0168014
910.379	0.0167246
910.457	0.0166789
910.535	0.0167031
910.613	0.0167888
910.692	0.0166412
910.770	0.0167029
910.848	0.0166872
910.926	0.0166641
911.004	0.0168029
911.082	0.0167906
911.160	0.0166660
911.238	0.0167500
911.317	0.0165106
911.395	0.0167536
911.473	0.0168634
911.551	0.0167125
911.629	0.0166237
911.707	0.0166945
911.785	0.0167589
911.863	0.0168712
911.942	0.0167584
912.020	0.0166579
912.098	0.0166991
912.176	0.0167419
912.254	0.0167741
912.332	0.0166216
912.410	0.0166949
912.488	0.0167871
912.567	0.0167638
912.645	0.0167430
912.723	0.0168314
912.801	0.0167355
912.879	0.0165723
912.957	0.0165912
913.035	0.0167760
913.113	0.0167380
913.192	0.0167145
913.270	0.0166865
913.348	0.0166135
913.426	0.0167611
913.504	0.0167439
913.582	0.0167844
913.660	0.0167061
913.738	0.0167823
913.817	0.0168806
913.895	0.0169399
913.973	0.0168121
914.051	0.0167358
914.129	0.0166241
914.207	0.0168430
914.285	0.0167532
914.363	0.0168274
914.442	0.0168530
914.520	0.0167982
914.598	0.0167418
914.676	0.0166528
914.754	0.0166885
914.832	0.0166572
914.910	0.0167868
914.988	0.0168343
915.067	0.0167165
915.145	0.0167904
915.223	0.0167220
915.301	0.0168920
915.379	0.0168611
915.457	0.0165643
915.535	0.0167851
915.613	0.0168091
915.692	0.0168008
915.770	0.0167996
915.848	0.0168555
915.926	0.0168579
916.004	0.0167705
916.082	0.0167924
916.160	0.0167256
916.238	0.0167750
916.317	0.0169358
916.395	0.0168246
916.473	0.0167565
916.551	0.0168698
916.629	0.0167837
916.707	0.0167918
916.785	0.0166936
916.863	0.0166137
916.942	0.0167345
917.020	0.0168386
917.098	0.0168536
917.176	0.0166974
917.254	0.0166443
917.332	0.0167588
917.410	0.0166049
917.488	0.0166887
917.567	0.0168102
917.645	0.0167013
917.723	0.0167682
917.801	0.0168049
917.879	0.0166671
917.957	0.0168524
918.035	0.0166917
918.113	0.0167430
918.192	0.0167298
918.270	0.0168278
918.348	0.0166624
918.426	0.0167979
918.504	0.0168267
918.582	0.0167118
918.660	0.0167420
918.738	0.0166592
918.817	0.0167783
918.895	0.0167438
918.973	0.0167414
919.051	0.0168247
919.129	0.0165962
919.207	0.0169180
919.285	0.0167722
919.363	0.0167268
919.442	0.0166644
919.520	0.0166930
919.598	0.0167912
919.676	0.0167917
919.754	0.0167467
919.832	0.0166981
919.910	0.0167046
