06/03/2022	14:06:05	Ver.	4.1	UNKNOWN
Optical Delay	599.981738	Delta X		0.078125	Sweeps	1	Scan Rate	0/0
Coordinates	Axis 1	NaN	Axis 2	NaN	Axis 3	NaN	Axis 4	NaN	Axis 5	NaN	Axis 6	0.000000
TX Power	0.000000	RX Power	0.000000

599.982	0.0164465
600.060	0.0164747
600.138	0.0163062
600.216	0.0164919
600.294	0.0163934
600.372	0.0163918
600.450	0.0165023
600.529	0.0164565
600.607	0.0164442
600.685	0.0165482
600.763	0.0164918
600.841	0.0163078
600.919	0.0163958
600.997	0.0165586
601.075	0.0163631
601.154	0.0164235
601.232	0.0164319
601.310	0.0163863
601.388	0.0162569
601.466	0.0164202
601.544	0.0164567
601.622	0.0164567
601.700	0.0164250
601.779	0.0165450
601.857	0.0163320
601.935	0.0163972
602.013	0.0164825
602.091	0.0163910
602.169	0.0164419
602.247	0.0164565
602.325	0.0164463
602.404	0.0164268
602.482	0.0164219
602.560	0.0164384
602.638	0.0164963
602.716	0.0162198
602.794	0.0164995
602.872	0.0164473
602.950	0.0164635
603.029	0.0163725
603.107	0.0165116
603.185	0.0165228
603.263	0.0164445
603.341	0.0165691
603.419	0.0163178
603.497	0.0165247
603.575	0.0164765
603.654	0.0163834
603.732	0.0164304
603.810	0.0164248
603.888	0.0163919
603.966	0.0163624
604.044	0.0164668
604.122	0.0164022
604.200	0.0163750
604.279	0.0165343
604.357	0.0163327
604.435	0.0165187
604.513	0.0165440
604.591	0.0165002
604.669	0.0162666
604.747	0.0163744
604.825	0.0165828
604.904	0.0165071
604.982	0.0164435
605.060	0.0164548
605.138	0.0164941
605.216	0.0163726
605.294	0.0163391
605.372	0.0164326
605.450	0.0163422
605.529	0.0165752
605.607	0.0164652
605.685	0.0162922
605.763	0.0164123
605.841	0.0164390
605.919	0.0164114
605.997	0.0164654
606.075	0.0163676
606.154	0.0163058
606.232	0.0164565
606.310	0.0164690
606.388	0.0163045
606.466	0.0163530
606.544	0.0164053
606.622	0.0164361
606.700	0.0163424
606.779	0.0163749
606.857	0.0163718
606.935	0.0164939
607.013	0.0164100
607.091	0.0164239
607.169	0.0164558
607.247	0.0163425
607.325	0.0164234
607.404	0.0163937
607.482	0.0163554
607.560	0.0164477
607.638	0.0164477
607.716	0.0165768
607.794	0.0164654
607.872	0.0163303
607.950	0.0163821
608.029	0.0164063
608.107	0.0164115
608.185	0.0164216
608.263	0.0164590
608.341	0.0164980
608.419	0.0163835
608.497	0.0163422
608.575	0.0166003
608.654	0.0163728
608.732	0.0164938
608.810	0.0166098
608.888	0.0164192
608.966	0.0162336
609.044	0.0163717
609.122	0.0165121
609.200	0.0164558
609.279	0.0164335
609.357	0.0164327
609.435	0.0164005
609.513	0.0163734
609.591	0.0162734
609.669	0.0163767
609.747	0.0164304
609.825	0.0164700
609.904	0.0163423
609.982	0.0164396
610.060	0.0164103
610.138	0.0165165
610.216	0.0164529
610.294	0.0163725
610.372	0.0163936
610.450	0.0163822
610.529	0.0164549
610.607	0.0165322
610.685	0.0163363
610.763	0.0163659
610.841	0.0162390
610.919	0.0164359
610.997	0.0164418
611.075	0.0164540
611.154	0.0163824
611.232	0.0163982
611.310	0.0162580
611.388	0.0163931
611.466	0.0165419
611.544	0.0163451
611.622	0.0163537
611.700	0.0163632
611.779	0.0163921
611.857	0.0164495
611.935	0.0164597
612.013	0.0163468
612.091	0.0163346
612.169	0.0164175
612.247	0.0163808
612.325	0.0164409
612.404	0.0164036
612.482	0.0163838
612.560	0.0163049
612.638	0.0164435
612.716	0.0164317
612.794	0.0163659
612.872	0.0162801
612.950	0.0163718
613.029	0.0162861
613.107	0.0162901
613.185	0.0163124
613.263	0.0163267
613.341	0.0163206
613.419	0.0164207
613.497	0.0162951
613.575	0.0161653
613.654	0.0162848
613.732	0.0162731
613.810	0.0163255
613.888	0.0164296
613.966	0.0164187
614.044	0.0163828
614.122	0.0162448
614.200	0.0163483
614.279	0.0164169
614.357	0.0165010
614.435	0.0165205
614.513	0.0164621
614.591	0.0162598
614.669	0.0164902
614.747	0.0165158
614.825	0.0164716
614.904	0.0164082
614.982	0.0164554
615.060	0.0164465
615.138	0.0163880
615.216	0.0165850
615.294	0.0164209
615.372	0.0164683
615.450	0.0163339
615.529	0.0164222
615.607	0.0163443
615.685	0.0164001
615.763	0.0165039
615.841	0.0164395
615.919	0.0163902
615.997	0.0164278
616.075	0.0164302
616.154	0.0164224
616.232	0.0162027
616.310	0.0163668
616.388	0.0165487
616.466	0.0163277
616.544	0.0163996
616.622	0.0162781
616.700	0.0164250
616.779	0.0164755
616.857	0.0163816
616.935	0.0165480
617.013	0.0163474
617.091	0.0162232
617.169	0.0165346
617.247	0.0163723
617.325	0.0163484
617.404	0.0163525
617.482	0.0163074
617.560	0.0163683
617.638	0.0162583
617.716	0.0163913
617.794	0.0163535
617.872	0.0163022
617.950	0.0162665
618.029	0.0164293
618.107	0.0163520
618.185	0.0162292
618.263	0.0162537
618.341	0.0163343
618.419	0.0164069
618.497	0.0163063
618.575	0.0162963
618.654	0.0164436
618.732	0.0164024
618.810	0.0164570
618.888	0.0163953
618.966	0.0163127
619.044	0.0164214
619.122	0.0164863
619.200	0.0165018
619.279	0.0164783
619.357	0.0163661
619.435	0.0165264
619.513	0.0165249
619.591	0.0164681
619.669	0.0166405
619.747	0.0165770
619.825	0.0164749
619.904	0.0164939
619.982	0.0164857
620.060	0.0164276
620.138	0.0165026
620.216	0.0164986
620.294	0.0164029
620.372	0.0162813
620.450	0.0165170
620.529	0.0164377
620.607	0.0164008
620.685	0.0162917
620.763	0.0163982
620.841	0.0164278
620.919	0.0164224
620.997	0.0163258
621.075	0.0162576
621.154	0.0163012
621.232	0.0165274
621.310	0.0163909
621.388	0.0164714
621.466	0.0164995
621.544	0.0163878
621.622	0.0163426
621.700	0.0163721
621.779	0.0162581
621.857	0.0163317
621.935	0.0164732
622.013	0.0165719
622.091	0.0164350
622.169	0.0163608
622.247	0.0163879
622.325	0.0164087
622.404	0.0163914
622.482	0.0164159
622.560	0.0165071
622.638	0.0163440
622.716	0.0163002
622.794	0.0164153
622.872	0.0164430
622.950	0.0162747
623.029	0.0162890
623.107	0.0163023
623.185	0.0164349
623.263	0.0164322
623.341	0.0164072
623.419	0.0162712
623.497	0.0162329
623.575	0.0164228
623.654	0.0163909
623.732	0.0163662
623.810	0.0163639
623.888	0.0164712
623.966	0.0163908
624.044	0.0163134
624.122	0.0164903
624.200	0.0163992
624.279	0.0165874
624.357	0.0164835
624.435	0.0163532
624.513	0.0164282
624.591	0.0165890
624.669	0.0164169
624.747	0.0164729
624.825	0.0164632
624.904	0.0164400
624.982	0.0164702
625.060	0.0163651
625.138	0.0164533
625.216	0.0162962
625.294	0.0164310
625.372	0.0165168
625.450	0.0163623
625.529	0.0163435
625.607	0.0164539
625.685	0.0162775
625.763	0.0163847
625.841	0.0163992
625.919	0.0163229
625.997	0.0163864
626.075	0.0164814
626.154	0.0164488
626.232	0.0163756
626.310	0.0164989
626.388	0.0165042
626.466	0.0163453
626.544	0.0164239
626.622	0.0164631
626.700	0.0163806
626.779	0.0163831
626.857	0.0164439
626.935	0.0163546
627.013	0.0164382
627.091	0.0164296
627.169	0.0163257
627.247	0.0164082
627.325	0.0164841
627.404	0.0164056
627.482	0.0163979
627.560	0.0164078
627.638	0.0162605
627.716	0.0164015
627.794	0.0163847
627.872	0.0163008
627.950	0.0164155
628.029	0.0163255
628.107	0.0163460
628.185	0.0164954
628.263	0.0163239
628.341	0.0163457
628.419	0.0164981
628.497	0.0164996
628.575	0.0164777
628.654	0.0164165
628.732	0.0164940
628.810	0.0163964
628.888	0.0164817
628.966	0.0164252
629.044	0.0164470
629.122	0.0165215
629.200	0.0164779
629.279	0.0163735
629.357	0.0164345
629.435	0.0163763
629.513	0.0163773
629.591	0.0164564
629.669	0.0164358
629.747	0.0164051
629.825	0.0163681
629.904	0.0163403
629.982	0.0163986
630.060	0.0163097
630.138	0.0163508
630.216	0.0163499
630.294	0.0163591
630.372	0.0163529
630.450	0.0164642
630.529	0.0164734
630.607	0.0164017
630.685	0.0162415
630.763	0.0163691
630.841	0.0164605
630.919	0.0162516
630.997	0.0164055
631.075	0.0165147
631.154	0.0164593
631.232	0.0164340
631.310	0.0163938
631.388	0.0164292
631.466	0.0165247
631.544	0.0163978
631.622	0.0163007
631.700	0.0163798
631.779	0.0163139
631.857	0.0163273
631.935	0.0165382
632.013	0.0164248
632.091	0.0163223
632.169	0.0163857
632.247	0.0163645
632.325	0.0163419
632.404	0.0163785
632.482	0.0164754
632.560	0.0163944
632.638	0.0162197
632.716	0.0163910
632.794	0.0164973
632.872	0.0163565
632.950	0.0162752
633.029	0.0162611
633.107	0.0164419
633.185	0.0163474
633.263	0.0164613
633.341	0.0163771
633.419	0.0164104
633.497	0.0164207
633.575	0.0163953
633.654	0.0163725
633.732	0.0162941
633.810	0.0164434
633.888	0.0165237
633.966	0.0164363
634.044	0.0165136
634.122	0.0163869
634.200	0.0163864
634.279	0.0163393
634.357	0.0163316
634.435	0.0164553
634.513	0.0165445
634.591	0.0163371
634.669	0.0163799
634.747	0.0163281
634.825	0.0163839
634.904	0.0162965
634.982	0.0162661
635.060	0.0163640
635.138	0.0164310
635.216	0.0164940
635.294	0.0164834
635.372	0.0163695
635.450	0.0164585
635.529	0.0164843
635.607	0.0163760
635.685	0.0163791
635.763	0.0164422
635.841	0.0163921
635.919	0.0163788
635.997	0.0164520
636.075	0.0163870
636.154	0.0164240
636.232	0.0164625
636.310	0.0164712
636.388	0.0162746
636.466	0.0163979
636.544	0.0162632
636.622	0.0164252
636.700	0.0164154
636.779	0.0165178
636.857	0.0163217
636.935	0.0164158
637.013	0.0164314
637.091	0.0163497
637.169	0.0163797
637.247	0.0164889
637.325	0.0163618
637.404	0.0162548
637.482	0.0164884
637.560	0.0163871
637.638	0.0164088
637.716	0.0164085
637.794	0.0164207
637.872	0.0163680
637.950	0.0164438
638.029	0.0164245
638.107	0.0165373
638.185	0.0163943
638.263	0.0164703
638.341	0.0163657
638.419	0.0165127
638.497	0.0165288
638.575	0.0163229
638.654	0.0163368
638.732	0.0163632
638.810	0.0163484
638.888	0.0163742
638.966	0.0162341
639.044	0.0164714
639.122	0.0163581
639.200	0.0163457
639.279	0.0163897
639.357	0.0163735
639.435	0.0164680
639.513	0.0163446
639.591	0.0163185
639.669	0.0165202
639.747	0.0163596
639.825	0.0162085
639.904	0.0164046
639.982	0.0163703
640.060	0.0164532
640.138	0.0164169
640.216	0.0164424
640.294	0.0163534
640.372	0.0163557
640.450	0.0164258
640.529	0.0163522
640.607	0.0164204
640.685	0.0163602
640.763	0.0164060
640.841	0.0162646
640.919	0.0163451
640.997	0.0163654
641.075	0.0163524
641.154	0.0164759
641.232	0.0163955
641.310	0.0164248
641.388	0.0162824
641.466	0.0163759
641.544	0.0165366
641.622	0.0163339
641.700	0.0164063
641.779	0.0163722
641.857	0.0163945
641.935	0.0164124
642.013	0.0162910
642.091	0.0163203
642.169	0.0163995
642.247	0.0162558
642.325	0.0164012
642.404	0.0163953
642.482	0.0163787
642.560	0.0165668
642.638	0.0164506
642.716	0.0164977
642.794	0.0163577
642.872	0.0164467
642.950	0.0165157
643.029	0.0163775
643.107	0.0164218
643.185	0.0164133
643.263	0.0162492
643.341	0.0164185
643.419	0.0163705
643.497	0.0164058
643.575	0.0164614
643.654	0.0163450
643.732	0.0164974
643.810	0.0164679
643.888	0.0163640
643.966	0.0163844
644.044	0.0164410
644.122	0.0164465
644.200	0.0164003
644.279	0.0163538
644.357	0.0163133
644.435	0.0164410
644.513	0.0165165
644.591	0.0163349
644.669	0.0165300
644.747	0.0164061
644.825	0.0164479
644.904	0.0164122
644.982	0.0162418
645.060	0.0164484
645.138	0.0164478
645.216	0.0164686
645.294	0.0164310
645.372	0.0164961
645.450	0.0163521
645.529	0.0163382
645.607	0.0164845
645.685	0.0165109
645.763	0.0163663
645.841	0.0163948
645.919	0.0164727
645.997	0.0162827
646.075	0.0164105
646.154	0.0164508
646.232	0.0163849
646.310	0.0164240
646.388	0.0164563
646.466	0.0163893
646.544	0.0163704
646.622	0.0162746
646.700	0.0165569
646.779	0.0164601
646.857	0.0164389
646.935	0.0163525
647.013	0.0163502
647.091	0.0163358
647.169	0.0163485
647.247	0.0162852
647.325	0.0165051
647.404	0.0164337
647.482	0.0163320
647.560	0.0162846
647.638	0.0163293
647.716	0.0165752
647.794	0.0163976
647.872	0.0163554
647.950	0.0163320
648.029	0.0163985
648.107	0.0163437
648.185	0.0164967
648.263	0.0163545
648.341	0.0163878
648.419	0.0164223
648.497	0.0163273
648.575	0.0162472
648.654	0.0164466
648.732	0.0164834
648.810	0.0162775
648.888	0.0162812
648.966	0.0164251
649.044	0.0164025
649.122	0.0162016
649.200	0.0164683
649.279	0.0164085
649.357	0.0163698
649.435	0.0164069
649.513	0.0163892
649.591	0.0163846
649.669	0.0163412
649.747	0.0162972
649.825	0.0164346
649.904	0.0163244
649.982	0.0163293
650.060	0.0164174
650.138	0.0163940
650.216	0.0165649
650.294	0.0164767
650.372	0.0164371
650.450	0.0163561
650.529	0.0162424
650.607	0.0163219
650.685	0.0165076
650.763	0.0163506
650.841	0.0164259
650.919	0.0163206
650.997	0.0164233
651.075	0.0164965
651.154	0.0165053
651.232	0.0164839
651.310	0.0164522
651.388	0.0164359
651.466	0.0162988
651.544	0.0163293
651.622	0.0163928
651.700	0.0165401
651.779	0.0163203
651.857	0.0164855
651.935	0.0164787
652.013	0.0164686
652.091	0.0164813
652.169	0.0163799
652.247	0.0162742
652.325	0.0163341
652.404	0.0163583
652.482	0.0163116
652.560	0.0164387
652.638	0.0163702
652.716	0.0163544
652.794	0.0162187
652.872	0.0162297
652.950	0.0162887
653.029	0.0162963
653.107	0.0162694
653.185	0.0163792
653.263	0.0163161
653.341	0.0162992
653.419	0.0163352
653.497	0.0164100
653.575	0.0164138
653.654	0.0164479
653.732	0.0164571
653.810	0.0163683
653.888	0.0162820
653.966	0.0163808
654.044	0.0164547
654.122	0.0163371
654.200	0.0163689
654.279	0.0164342
654.357	0.0164945
654.435	0.0164216
654.513	0.0163361
654.591	0.0163673
654.669	0.0163548
654.747	0.0163270
654.825	0.0164063
654.904	0.0163287
654.982	0.0163866
655.060	0.0163371
655.138	0.0163560
655.216	0.0164095
655.294	0.0164594
655.372	0.0163025
655.450	0.0163236
655.529	0.0164719
655.607	0.0163911
655.685	0.0163953
655.763	0.0164649
655.841	0.0163994
655.919	0.0164065
655.997	0.0165294
656.075	0.0166120
656.154	0.0163711
656.232	0.0163441
656.310	0.0164182
656.388	0.0164053
656.466	0.0164441
656.544	0.0163746
656.622	0.0162844
656.700	0.0162882
656.779	0.0163983
656.857	0.0164098
656.935	0.0164357
657.013	0.0162780
657.091	0.0164243
657.169	0.0163269
657.247	0.0162544
657.325	0.0163271
657.404	0.0162586
657.482	0.0163312
657.560	0.0163205
657.638	0.0164631
657.716	0.0163240
657.794	0.0162881
657.872	0.0164436
657.950	0.0164407
658.029	0.0162749
658.107	0.0162373
658.185	0.0162550
658.263	0.0164405
658.341	0.0162863
658.419	0.0163893
658.497	0.0162402
658.575	0.0162169
658.654	0.0164555
658.732	0.0163515
658.810	0.0162926
658.888	0.0163947
658.966	0.0163400
659.044	0.0163635
659.122	0.0163536
659.200	0.0164914
659.279	0.0164523
659.357	0.0162069
659.435	0.0164043
659.513	0.0164074
659.591	0.0164008
659.669	0.0164917
659.747	0.0163097
659.825	0.0162833
659.904	0.0163287
659.982	0.0165480
660.060	0.0164367
660.138	0.0162910
660.216	0.0162994
660.294	0.0162439
660.372	0.0163294
660.450	0.0163383
660.529	0.0163531
660.607	0.0162641
660.685	0.0162459
660.763	0.0163003
660.841	0.0162933
660.919	0.0163640
660.997	0.0163403
661.075	0.0163747
661.154	0.0162463
661.232	0.0163662
661.310	0.0164982
661.388	0.0165395
661.466	0.0165968
661.544	0.0164680
661.622	0.0164368
661.700	0.0163650
661.779	0.0163569
661.857	0.0164068
661.935	0.0162892
662.013	0.0163250
662.091	0.0165044
662.169	0.0162725
662.247	0.0161419
662.325	0.0161609
662.404	0.0162199
662.482	0.0162262
662.560	0.0162883
662.638	0.0163852
662.716	0.0162966
662.794	0.0163351
662.872	0.0164670
662.950	0.0164954
663.029	0.0164496
663.107	0.0164259
663.185	0.0165931
663.263	0.0166772
663.341	0.0164996
663.419	0.0163497
663.497	0.0163711
663.575	0.0162903
663.654	0.0162415
663.732	0.0163382
663.810	0.0162214
663.888	0.0162325
663.966	0.0163097
664.044	0.0162703
664.122	0.0163790
664.200	0.0164107
664.279	0.0162732
664.357	0.0164394
664.435	0.0164427
664.513	0.0162505
664.591	0.0164448
664.669	0.0165464
664.747	0.0162959
664.825	0.0164918
664.904	0.0164635
664.982	0.0163251
665.060	0.0163619
665.138	0.0163441
665.216	0.0163857
665.294	0.0164129
665.372	0.0163131
665.450	0.0162229
665.529	0.0163702
665.607	0.0164946
665.685	0.0162646
665.763	0.0163383
665.841	0.0163033
665.919	0.0163183
665.997	0.0164008
666.075	0.0163692
666.154	0.0163439
666.232	0.0163168
666.310	0.0163529
666.388	0.0164189
666.466	0.0164666
666.544	0.0164155
666.622	0.0163229
666.700	0.0163461
666.779	0.0162463
666.857	0.0163651
666.935	0.0163531
667.013	0.0163296
667.091	0.0162870
667.169	0.0164520
667.247	0.0165120
667.325	0.0163633
667.404	0.0164176
667.482	0.0163140
667.560	0.0164699
667.638	0.0165222
667.716	0.0165456
667.794	0.0164824
667.872	0.0163889
667.950	0.0162241
668.029	0.0163219
668.107	0.0163847
668.185	0.0164090
668.263	0.0165234
668.341	0.0163329
668.419	0.0163065
668.497	0.0164329
668.575	0.0164143
668.654	0.0163346
668.732	0.0163874
668.810	0.0164709
668.888	0.0163937
668.966	0.0164635
669.044	0.0163064
669.122	0.0163589
669.200	0.0162986
669.279	0.0162073
669.357	0.0163600
669.435	0.0162197
669.513	0.0162365
669.591	0.0163090
669.669	0.0162508
669.747	0.0162626
669.825	0.0162368
669.904	0.0162318
669.982	0.0162668
670.060	0.0163432
670.138	0.0162844
670.216	0.0163509
670.294	0.0165111
670.372	0.0166520
670.450	0.0166664
670.529	0.0163622
670.607	0.0164365
670.685	0.0166271
670.763	0.0166882
670.841	0.0165828
670.919	0.0166894
670.997	0.0166374
671.075	0.0165919
671.154	0.0165035
671.232	0.0164413
671.310	0.0164745
671.388	0.0164404
671.466	0.0163080
671.544	0.0163091
671.622	0.0163887
671.700	0.0163610
671.779	0.0163074
671.857	0.0163201
671.935	0.0162632
672.013	0.0162079
672.091	0.0162322
672.169	0.0162025
672.247	0.0161621
672.325	0.0161839
672.404	0.0160996
672.482	0.0161549
672.560	0.0163025
672.638	0.0162847
672.716	0.0162698
672.794	0.0163341
672.872	0.0163802
672.950	0.0164697
673.029	0.0164141
673.107	0.0165630
673.185	0.0167358
673.263	0.0167027
673.341	0.0167046
673.419	0.0167770
673.497	0.0167274
673.575	0.0167485
673.654	0.0167017
673.732	0.0166476
673.810	0.0164694
673.888	0.0164345
673.966	0.0164660
674.044	0.0165133
674.122	0.0165102
674.200	0.0164233
674.279	0.0163381
674.357	0.0162367
674.435	0.0164280
674.513	0.0163280
674.591	0.0162974
674.669	0.0163368
674.747	0.0164761
674.825	0.0164906
674.904	0.0165371
674.982	0.0166541
675.060	0.0165020
675.138	0.0166660
675.216	0.0167341
675.294	0.0165245
675.372	0.0164190
675.450	0.0164771
675.529	0.0165492
675.607	0.0163779
675.685	0.0162991
675.763	0.0163063
675.841	0.0164314
675.919	0.0163637
675.997	0.0164129
676.075	0.0166215
676.154	0.0166521
676.232	0.0167454
676.310	0.0166916
676.388	0.0166022
676.466	0.0166606
676.544	0.0167032
676.622	0.0164383
676.700	0.0163574
676.779	0.0162687
676.857	0.0160945
676.935	0.0160283
677.013	0.0159518
677.091	0.0160621
677.169	0.0157299
677.247	0.0158060
677.325	0.0158987
677.404	0.0160635
677.482	0.0162550
677.560	0.0164179
677.638	0.0165194
677.716	0.0165604
677.794	0.0165398
677.872	0.0166837
677.950	0.0165520
678.029	0.0162936
678.107	0.0160618
678.185	0.0159679
678.263	0.0157676
678.341	0.0157748
678.419	0.0156343
678.497	0.0156497
678.575	0.0157323
678.654	0.0158977
678.732	0.0160947
678.810	0.0160216
678.888	0.0165698
678.966	0.0168408
679.044	0.0169026
679.122	0.0170782
679.200	0.0173373
679.279	0.0173544
679.357	0.0172997
679.435	0.0173789
679.513	0.0173945
679.591	0.0174177
679.669	0.0175143
679.747	0.0175568
679.825	0.0175114
679.904	0.0175137
679.982	0.0171983
680.060	0.0172095
680.138	0.0170022
680.216	0.0166797
680.294	0.0163187
680.372	0.0160921
680.450	0.0158315
680.529	0.0154610
680.607	0.0153279
680.685	0.0154107
680.763	0.0153998
680.841	0.0156287
680.919	0.0156864
680.997	0.0160770
681.075	0.0163378
681.154	0.0167033
681.232	0.0171967
681.310	0.0174329
681.388	0.0178059
681.466	0.0179120
681.544	0.0179598
681.622	0.0179472
681.700	0.0176193
681.779	0.0175198
681.857	0.0169785
681.935	0.0164811
682.013	0.0158990
682.091	0.0154105
682.169	0.0148693
682.247	0.0142413
682.325	0.0138075
682.404	0.0134177
682.482	0.0134401
682.560	0.0133150
682.638	0.0131179
682.716	0.0132885
682.794	0.0137189
682.872	0.0138710
682.950	0.0142924
683.029	0.0145203
683.107	0.0147820
683.185	0.0149419
683.263	0.0151463
683.341	0.0154012
683.419	0.0155479
683.497	0.0159705
683.575	0.0163783
683.654	0.0169183
683.732	0.0175947
683.810	0.0180791
683.888	0.0188029
683.966	0.0194981
684.044	0.0201492
684.122	0.0206369
684.200	0.0207903
684.279	0.0209064
684.357	0.0209866
684.435	0.0208382
684.513	0.0206028
684.591	0.0200785
684.669	0.0195210
684.747	0.0189494
684.825	0.0183334
684.904	0.0175576
684.982	0.0170145
685.060	0.0164262
685.138	0.0156818
685.216	0.0151319
685.294	0.0146617
685.372	0.0142319
685.450	0.0139165
685.529	0.0135760
685.607	0.0137379
685.685	0.0135953
685.763	0.0136937
685.841	0.0138213
685.919	0.0142025
685.997	0.0143376
686.075	0.0146740
686.154	0.0149775
686.232	0.0152325
686.310	0.0155795
686.388	0.0159113
686.466	0.0161694
686.544	0.0163180
686.622	0.0165909
686.700	0.0168729
686.779	0.0169286
686.857	0.0169843
686.935	0.0171512
687.013	0.0172142
687.091	0.0175870
687.169	0.0174644
687.247	0.0175024
687.325	0.0176807
687.404	0.0176640
687.482	0.0175304
687.560	0.0173027
687.638	0.0170947
687.716	0.0168785
687.794	0.0163493
687.872	0.0156330
687.950	0.0149564
688.029	0.0142066
688.107	0.0135215
688.185	0.0126215
688.263	0.0117959
688.341	0.0111384
688.419	0.0108359
688.497	0.0104179
688.575	0.0104317
688.654	0.0106362
688.732	0.0109324
688.810	0.0115438
688.888	0.0123679
688.966	0.0134793
689.044	0.0146832
689.122	0.0158636
689.200	0.0173074
689.279	0.0185708
689.357	0.0201140
689.435	0.0210913
689.513	0.0221491
689.591	0.0229563
689.669	0.0234547
689.747	0.0237852
689.825	0.0239622
689.904	0.0237071
689.982	0.0233645
690.060	0.0226751
690.138	0.0218933
690.216	0.0213385
690.294	0.0206181
690.372	0.0199903
690.450	0.0195947
690.529	0.0193267
690.607	0.0189280
690.685	0.0187249
690.763	0.0187227
690.841	0.0186044
690.919	0.0183904
690.997	0.0181440
691.075	0.0179774
691.154	0.0178553
691.232	0.0176815
691.310	0.0174458
691.388	0.0170434
691.466	0.0165689
691.544	0.0163033
691.622	0.0156979
691.700	0.0150791
691.779	0.0144244
691.857	0.0137367
691.935	0.0128445
692.013	0.0120658
692.091	0.0110973
692.169	0.0100659
692.247	0.00939789
692.325	0.00866524
692.404	0.00802826
692.482	0.00751541
692.560	0.00705223
692.638	0.00656075
692.716	0.00638908
692.794	0.00615417
692.872	0.00596710
692.950	0.00614853
693.029	0.00635399
693.107	0.00670235
693.185	0.00727142
693.263	0.00834282
693.341	0.00949394
693.419	0.0108088
693.497	0.0124764
693.575	0.0144334
693.654	0.0165155
693.732	0.0186033
693.810	0.0208160
693.888	0.0231396
693.966	0.0253272
694.044	0.0273006
694.122	0.0288728
694.200	0.0303005
694.279	0.0313493
694.357	0.0320285
694.435	0.0320670
694.513	0.0319703
694.591	0.0313523
694.669	0.0302666
694.747	0.0291714
694.825	0.0273753
694.904	0.0258393
694.982	0.0242950
695.060	0.0225855
695.138	0.0212569
695.216	0.0199825
695.294	0.0187111
695.372	0.0176620
695.450	0.0167223
695.529	0.0158089
695.607	0.0149224
695.685	0.0142361
695.763	0.0137557
695.841	0.0132497
695.919	0.0127530
695.997	0.0124847
696.075	0.0121900
696.154	0.0119620
696.232	0.0116690
696.310	0.0113425
696.388	0.0111317
696.466	0.0109556
696.544	0.0108090
696.622	0.0103534
696.700	0.00989540
696.779	0.00951935
696.857	0.00920357
696.935	0.00864616
697.013	0.00799171
697.091	0.00754982
697.169	0.00701050
697.247	0.00651672
697.325	0.00621178
697.404	0.00580276
697.482	0.00572296
697.560	0.00574951
697.638	0.00598175
697.716	0.00651283
697.794	0.00749893
697.872	0.00881203
697.950	0.0101828
698.029	0.0121268
698.107	0.0141494
698.185	0.0163264
698.263	0.0184785
698.341	0.0207885
698.419	0.0230245
698.497	0.0252715
698.575	0.0274389
698.654	0.0291991
698.732	0.0306884
698.810	0.0317957
698.888	0.0326309
698.966	0.0330695
699.044	0.0329651
699.122	0.0323434
699.200	0.0317766
699.279	0.0305608
699.357	0.0290955
699.435	0.0273293
699.513	0.0254658
699.591	0.0233121
699.669	0.0213170
699.747	0.0191679
699.825	0.0173627
699.904	0.0156081
699.982	0.0141346
700.060	0.0127867
700.138	0.0116272
700.216	0.0108952
700.294	0.0101958
700.372	0.00959152
700.450	0.00942444
700.529	0.00904472
700.607	0.00916367
700.685	0.00940102
700.763	0.00943832
700.841	0.00981880
700.919	0.0101701
700.997	0.0107201
701.075	0.0108914
701.154	0.0112791
701.232	0.0116618
701.310	0.0120049
701.388	0.0123531
701.466	0.0127952
701.544	0.0131084
701.622	0.0133341
701.700	0.0133166
701.779	0.0133438
701.857	0.0133630
701.935	0.0132404
702.013	0.0132038
702.091	0.0127624
702.169	0.0128461
702.247	0.0127126
702.325	0.0125762
702.404	0.0126835
702.482	0.0130543
702.560	0.0135097
702.638	0.0141480
702.716	0.0149428
702.794	0.0161147
702.872	0.0172692
702.950	0.0186304
703.029	0.0202211
703.107	0.0216458
703.185	0.0230241
703.263	0.0242655
703.341	0.0254930
703.419	0.0264077
703.497	0.0268365
703.575	0.0271269
703.654	0.0268214
703.732	0.0263052
703.810	0.0255028
703.888	0.0244092
703.966	0.0231004
704.044	0.0217949
704.122	0.0203690
704.200	0.0190196
704.279	0.0175700
704.357	0.0162609
704.435	0.0153142
704.513	0.0145691
704.591	0.0139163
704.669	0.0133009
704.747	0.0128594
704.825	0.0126880
704.904	0.0126638
704.982	0.0127528
705.060	0.0126826
705.138	0.0127543
705.216	0.0127990
705.294	0.0130940
705.372	0.0132111
705.450	0.0133428
705.529	0.0135675
705.607	0.0138956
705.685	0.0140428
705.763	0.0142373
705.841	0.0143533
705.919	0.0146895
705.997	0.0146490
706.075	0.0147842
706.154	0.0147949
706.232	0.0148496
706.310	0.0148068
706.388	0.0147089
706.466	0.0144505
706.544	0.0143136
706.622	0.0141722
706.700	0.0139381
706.779	0.0136317
706.857	0.0134758
706.935	0.0131442
707.013	0.0131545
707.091	0.0129935
707.169	0.0129975
707.247	0.0133315
707.325	0.0135567
707.404	0.0140454
707.482	0.0146691
707.560	0.0153889
707.638	0.0162765
707.716	0.0172904
707.794	0.0182279
707.872	0.0190462
707.950	0.0198663
708.029	0.0207808
708.107	0.0214507
708.185	0.0221076
708.263	0.0226344
708.341	0.0230720
708.419	0.0232072
708.497	0.0230706
708.575	0.0226704
708.654	0.0222498
708.732	0.0217412
708.810	0.0208538
708.888	0.0201859
708.966	0.0193391
709.044	0.0185892
709.122	0.0179522
709.200	0.0172314
709.279	0.0167117
709.357	0.0163318
709.435	0.0161367
709.513	0.0159742
709.591	0.0160197
709.669	0.0157453
709.747	0.0159353
709.825	0.0158406
709.904	0.0157157
709.982	0.0156026
710.060	0.0155994
710.138	0.0154511
710.216	0.0152974
710.294	0.0150326
710.372	0.0149654
710.450	0.0146283
710.529	0.0144685
710.607	0.0141943
710.685	0.0139050
710.763	0.0135174
710.841	0.0133892
710.919	0.0132833
710.997	0.0131108
711.075	0.0131057
711.154	0.0127110
711.232	0.0126082
711.310	0.0125132
711.388	0.0123421
711.466	0.0121765
711.544	0.0121689
711.622	0.0120015
711.700	0.0120287
711.779	0.0122207
711.857	0.0122606
711.935	0.0127639
712.013	0.0131721
712.091	0.0138455
712.169	0.0146913
712.247	0.0153276
712.325	0.0161854
712.404	0.0170104
712.482	0.0179018
712.560	0.0187432
712.638	0.0195586
712.716	0.0202499
712.794	0.0207876
712.872	0.0212977
712.950	0.0215634
713.029	0.0216891
713.107	0.0219962
713.185	0.0217092
713.263	0.0216270
713.341	0.0212318
713.419	0.0208616
713.497	0.0201536
713.575	0.0198389
713.654	0.0194093
713.732	0.0189418
713.810	0.0185622
713.888	0.0182656
713.966	0.0179376
714.044	0.0177493
714.122	0.0174216
714.200	0.0171300
714.279	0.0171325
714.357	0.0168173
714.435	0.0165234
714.513	0.0165401
714.591	0.0163956
714.669	0.0160401
714.747	0.0158543
714.825	0.0156879
714.904	0.0153593
714.982	0.0151766
715.060	0.0149638
715.138	0.0147783
715.216	0.0145814
715.294	0.0145015
715.372	0.0141755
715.450	0.0140443
715.529	0.0138538
715.607	0.0138683
715.685	0.0136066
715.763	0.0135136
715.841	0.0134077
715.919	0.0133250
715.997	0.0133389
716.075	0.0132845
716.154	0.0132311
716.232	0.0132735
716.310	0.0135275
716.388	0.0136953
716.466	0.0139909
716.544	0.0141830
716.622	0.0147397
716.700	0.0152151
716.779	0.0158315
716.857	0.0164573
716.935	0.0168643
717.013	0.0175687
717.091	0.0180770
717.169	0.0185416
717.247	0.0190664
717.325	0.0193842
717.404	0.0197076
717.482	0.0198560
717.560	0.0201788
717.638	0.0200800
717.716	0.0198569
717.794	0.0198184
717.872	0.0194672
717.950	0.0190660
718.029	0.0189146
718.107	0.0182549
718.185	0.0177567
718.263	0.0172900
718.341	0.0168264
718.419	0.0165983
718.497	0.0163635
718.575	0.0160069
718.654	0.0158401
718.732	0.0157846
718.810	0.0157418
718.888	0.0155627
718.966	0.0156167
719.044	0.0157114
719.122	0.0156169
719.200	0.0158260
719.279	0.0157744
719.357	0.0156258
719.435	0.0155782
719.513	0.0156320
719.591	0.0156177
719.669	0.0156678
719.747	0.0154832
719.825	0.0155582
719.904	0.0154030
719.982	0.0155708
720.060	0.0155624
720.138	0.0154877
720.216	0.0155570
720.294	0.0156808
720.372	0.0156165
720.450	0.0156609
720.529	0.0158353
720.607	0.0158395
720.685	0.0156380
720.763	0.0157957
720.841	0.0156316
720.919	0.0154577
720.997	0.0155914
721.075	0.0159203
721.154	0.0157578
721.232	0.0158284
721.310	0.0160081
721.388	0.0163723
721.466	0.0167474
721.544	0.0168795
721.622	0.0171079
721.700	0.0175394
721.779	0.0176708
721.857	0.0180060
721.935	0.0181612
722.013	0.0182323
722.091	0.0186204
722.169	0.0184153
722.247	0.0183368
722.325	0.0181679
722.404	0.0179089
722.482	0.0178516
722.560	0.0173248
722.638	0.0169357
722.716	0.0165942
722.794	0.0162979
722.872	0.0160679
722.950	0.0158944
723.029	0.0156857
723.107	0.0154827
723.185	0.0155630
723.263	0.0157154
723.341	0.0156375
723.419	0.0155545
723.497	0.0156749
723.575	0.0159212
723.654	0.0161504
723.732	0.0161825
723.810	0.0164357
723.888	0.0164318
723.966	0.0164685
724.044	0.0164397
724.122	0.0165009
724.200	0.0163812
724.279	0.0162319
724.357	0.0161989
724.435	0.0160040
724.513	0.0156569
724.591	0.0157880
724.669	0.0156711
724.747	0.0154962
724.825	0.0154937
724.904	0.0154757
724.982	0.0156337
725.060	0.0157162
725.138	0.0156853
725.216	0.0156340
725.294	0.0157893
725.372	0.0157907
725.450	0.0161327
725.529	0.0161296
725.607	0.0161946
725.685	0.0163506
725.763	0.0165257
725.841	0.0165836
725.919	0.0166219
725.997	0.0168792
726.075	0.0169222
726.154	0.0171882
726.232	0.0172652
726.310	0.0174287
726.388	0.0175558
726.466	0.0175573
726.544	0.0177370
726.622	0.0176868
726.700	0.0176093
726.779	0.0176218
726.857	0.0174139
726.935	0.0172586
727.013	0.0171021
727.091	0.0167661
727.169	0.0165655
727.247	0.0162926
727.325	0.0160811
727.404	0.0157506
727.482	0.0156332
727.560	0.0155112
727.638	0.0152907
727.716	0.0151996
727.794	0.0153610
727.872	0.0154880
727.950	0.0154932
728.029	0.0156948
728.107	0.0158230
728.185	0.0160285
728.263	0.0160303
728.341	0.0160732
728.419	0.0162153
728.497	0.0162563
728.575	0.0163145
728.654	0.0162691
728.732	0.0162585
728.810	0.0162218
728.888	0.0160735
728.966	0.0159243
729.044	0.0158969
729.122	0.0156934
729.200	0.0156831
729.279	0.0157401
729.357	0.0156355
729.435	0.0156154
729.513	0.0156604
729.591	0.0156374
729.669	0.0157771
729.747	0.0160457
729.825	0.0160542
729.904	0.0161185
729.982	0.0162911
730.060	0.0163280
730.138	0.0165630
730.216	0.0167012
730.294	0.0167917
730.372	0.0169504
730.450	0.0169604
730.529	0.0172089
730.607	0.0173024
730.685	0.0174004
730.763	0.0175677
730.841	0.0175465
730.919	0.0177406
730.997	0.0176311
731.075	0.0175349
731.154	0.0177864
731.232	0.0178833
731.310	0.0176789
731.388	0.0177431
731.466	0.0176050
731.544	0.0174187
731.622	0.0174087
731.700	0.0170776
731.779	0.0168123
731.857	0.0165369
731.935	0.0162345
732.013	0.0160532
732.091	0.0158179
732.169	0.0156673
732.247	0.0153931
732.325	0.0153120
732.404	0.0151972
732.482	0.0151080
732.560	0.0150469
732.638	0.0150605
732.716	0.0152615
732.794	0.0153028
732.872	0.0153366
732.950	0.0155504
733.029	0.0155113
733.107	0.0155158
733.185	0.0158843
733.263	0.0158350
733.341	0.0158252
733.419	0.0160248
733.497	0.0160155
733.575	0.0158875
733.654	0.0158749
733.732	0.0158641
733.810	0.0158823
733.888	0.0159155
733.966	0.0160738
734.044	0.0160269
734.122	0.0161173
734.200	0.0162470
734.279	0.0162665
734.357	0.0162253
734.435	0.0164445
734.513	0.0165919
734.591	0.0167880
734.669	0.0168523
734.747	0.0167234
734.825	0.0169838
734.904	0.0169956
734.982	0.0169800
735.060	0.0170158
735.138	0.0170324
735.216	0.0169653
735.294	0.0170915
735.372	0.0169865
735.450	0.0169547
735.529	0.0168687
735.607	0.0166461
735.685	0.0165618
735.763	0.0166084
735.841	0.0164653
735.919	0.0163943
735.997	0.0164573
736.075	0.0162866
736.154	0.0164290
736.232	0.0163874
736.310	0.0164126
736.388	0.0163986
736.466	0.0163334
736.544	0.0164276
736.622	0.0163643
736.700	0.0163678
736.779	0.0164970
736.857	0.0164456
736.935	0.0165350
737.013	0.0164551
737.091	0.0164803
737.169	0.0163754
737.247	0.0164577
737.325	0.0163448
737.404	0.0162978
737.482	0.0162450
737.560	0.0163042
737.638	0.0161725
737.716	0.0160059
737.794	0.0162933
737.872	0.0163821
737.950	0.0162536
738.029	0.0162521
738.107	0.0163902
738.185	0.0162225
738.263	0.0163050
738.341	0.0163132
738.419	0.0162878
738.497	0.0164799
738.575	0.0163457
738.654	0.0163354
738.732	0.0164736
738.810	0.0166427
738.888	0.0167278
738.966	0.0167390
739.044	0.0166247
739.122	0.0167337
739.200	0.0166120
739.279	0.0166859
739.357	0.0169592
739.435	0.0169450
739.513	0.0167998
739.591	0.0167792
739.669	0.0167970
739.747	0.0168137
739.825	0.0166913
739.904	0.0166567
739.982	0.0165958
740.060	0.0164911
740.138	0.0165500
740.216	0.0164224
740.294	0.0163538
740.372	0.0162571
740.450	0.0162559
740.529	0.0161186
740.607	0.0159789
740.685	0.0159791
740.763	0.0160574
740.841	0.0159518
740.919	0.0158086
740.997	0.0159820
741.075	0.0159603
741.154	0.0160735
741.232	0.0161565
741.310	0.0161135
741.388	0.0159963
741.466	0.0160656
741.544	0.0162044
741.622	0.0162357
741.700	0.0161761
741.779	0.0161537
741.857	0.0161211
741.935	0.0163012
742.013	0.0162132
742.091	0.0161607
742.169	0.0162307
742.247	0.0162773
742.325	0.0162301
742.404	0.0164140
742.482	0.0163300
742.560	0.0163148
742.638	0.0164119
742.716	0.0165086
742.794	0.0164125
742.872	0.0165388
742.950	0.0165812
743.029	0.0167947
743.107	0.0169717
743.185	0.0168414
743.263	0.0168233
743.341	0.0169845
743.419	0.0170181
743.497	0.0171021
743.575	0.0171371
743.654	0.0171103
743.732	0.0171422
743.810	0.0170088
743.888	0.0170232
743.966	0.0168941
744.044	0.0168956
744.122	0.0168314
744.200	0.0167973
744.279	0.0166487
744.357	0.0166160
744.435	0.0165991
744.513	0.0165021
744.591	0.0166449
744.669	0.0164406
744.747	0.0163457
744.825	0.0162605
744.904	0.0162830
744.982	0.0163797
745.060	0.0163442
745.138	0.0163377
745.216	0.0162590
745.294	0.0163184
745.372	0.0161900
745.450	0.0159864
745.529	0.0159279
745.607	0.0160040
745.685	0.0158970
745.763	0.0159493
745.841	0.0158533
745.919	0.0156868
745.997	0.0158732
746.075	0.0157220
746.154	0.0157211
746.232	0.0155943
746.310	0.0157288
746.388	0.0156782
746.466	0.0157343
746.544	0.0157327
746.622	0.0158477
746.700	0.0158875
746.779	0.0159911
746.857	0.0159438
746.935	0.0161767
747.013	0.0161782
747.091	0.0163116
747.169	0.0164783
747.247	0.0165099
747.325	0.0168102
747.404	0.0166665
747.482	0.0169730
747.560	0.0170252
747.638	0.0170540
747.716	0.0171661
747.794	0.0172798
747.872	0.0173125
747.950	0.0172791
748.029	0.0171198
748.107	0.0171430
748.185	0.0171231
748.263	0.0170761
748.341	0.0171510
748.419	0.0170790
748.497	0.0169627
748.575	0.0167941
748.654	0.0167726
748.732	0.0164906
748.810	0.0165004
748.888	0.0165781
748.966	0.0163409
749.044	0.0162288
749.122	0.0162535
749.200	0.0160511
749.279	0.0160386
749.357	0.0159975
749.435	0.0158951
749.513	0.0158057
749.591	0.0157987
749.669	0.0156789
749.747	0.0157766
749.825	0.0156705
749.904	0.0155946
749.982	0.0156473
750.060	0.0155096
750.138	0.0157069
750.216	0.0157060
750.294	0.0156629
750.372	0.0158349
750.450	0.0160069
750.529	0.0159705
750.607	0.0159629
750.685	0.0160723
750.763	0.0161790
750.841	0.0163644
750.919	0.0162400
750.997	0.0163667
751.075	0.0163918
751.154	0.0164648
751.232	0.0166043
751.310	0.0166040
751.388	0.0167664
751.466	0.0166562
751.544	0.0167932
751.622	0.0166273
751.700	0.0167564
751.779	0.0169230
751.857	0.0168137
751.935	0.0167707
752.013	0.0168082
752.091	0.0167934
752.169	0.0167738
752.247	0.0167599
752.325	0.0167660
752.404	0.0166769
752.482	0.0165726
752.560	0.0165403
752.638	0.0165964
752.716	0.0165143
752.794	0.0164445
752.872	0.0165066
752.950	0.0163924
753.029	0.0163949
753.107	0.0163155
753.185	0.0161555
753.263	0.0164348
753.341	0.0163905
753.419	0.0161238
753.497	0.0162822
753.575	0.0164430
753.654	0.0163410
753.732	0.0162939
753.810	0.0163454
753.888	0.0164397
753.966	0.0164250
754.044	0.0162411
754.122	0.0162930
754.200	0.0163969
754.279	0.0162772
754.357	0.0162456
754.435	0.0162533
754.513	0.0162558
754.591	0.0162071
754.669	0.0163361
754.747	0.0160631
754.825	0.0161560
754.904	0.0160007
754.982	0.0161592
755.060	0.0164854
755.138	0.0162994
755.216	0.0161633
755.294	0.0163242
755.372	0.0161800
755.450	0.0163091
755.529	0.0164678
755.607	0.0164009
755.685	0.0165575
755.763	0.0166204
755.841	0.0165268
755.919	0.0165742
755.997	0.0166244
756.075	0.0166206
756.154	0.0166082
756.232	0.0165588
756.310	0.0165711
756.388	0.0165603
756.466	0.0163370
756.544	0.0164157
756.622	0.0164145
756.700	0.0163020
756.779	0.0163017
756.857	0.0162350
756.935	0.0160581
757.013	0.0162821
757.091	0.0160031
757.169	0.0161117
757.247	0.0160980
757.325	0.0161816
757.404	0.0161591
757.482	0.0161312
757.560	0.0161929
757.638	0.0161734
757.716	0.0163030
757.794	0.0162786
757.872	0.0162495
757.950	0.0162543
758.029	0.0163573
758.107	0.0164230
758.185	0.0163359
758.263	0.0162978
758.341	0.0165100
758.419	0.0165693
758.497	0.0163499
758.575	0.0165154
758.654	0.0165726
758.732	0.0164677
758.810	0.0165002
758.888	0.0164682
758.966	0.0165484
759.044	0.0163093
759.122	0.0163459
759.200	0.0162566
759.279	0.0162070
759.357	0.0162723
759.435	0.0163726
759.513	0.0162698
759.591	0.0162568
759.669	0.0164156
759.747	0.0163420
759.825	0.0163599
759.904	0.0164279
759.982	0.0165322
760.060	0.0166367
760.138	0.0165287
760.216	0.0165287
760.294	0.0164023
760.372	0.0164425
760.450	0.0164822
760.529	0.0164744
760.607	0.0163091
760.685	0.0164255
760.763	0.0163574
760.841	0.0163838
760.919	0.0161915
760.997	0.0163566
761.075	0.0162601
761.154	0.0163432
761.232	0.0162489
761.310	0.0164120
761.388	0.0164686
761.466	0.0164994
761.544	0.0167123
761.622	0.0165916
761.700	0.0165857
761.779	0.0167506
761.857	0.0168689
761.935	0.0167717
762.013	0.0167016
762.091	0.0167764
762.169	0.0167553
762.247	0.0166516
762.325	0.0166057
762.404	0.0167189
762.482	0.0166583
762.560	0.0162953
762.638	0.0163741
762.716	0.0164722
762.794	0.0165062
762.872	0.0163992
762.950	0.0163116
763.029	0.0162534
763.107	0.0161864
763.185	0.0161975
763.263	0.0162456
763.341	0.0163131
763.419	0.0162872
763.497	0.0162903
763.575	0.0163080
763.654	0.0164550
763.732	0.0164443
763.810	0.0163992
763.888	0.0164404
763.966	0.0164720
764.044	0.0164354
764.122	0.0163540
764.200	0.0163434
764.279	0.0163284
764.357	0.0162092
764.435	0.0162218
764.513	0.0162473
764.591	0.0162496
764.669	0.0163058
764.747	0.0161243
764.825	0.0162343
764.904	0.0162011
764.982	0.0162045
765.060	0.0161952
765.138	0.0162048
765.216	0.0162451
765.294	0.0162962
765.372	0.0163564
765.450	0.0163234
765.529	0.0162563
765.607	0.0163342
765.685	0.0164482
765.763	0.0163835
765.841	0.0164989
765.919	0.0166152
765.997	0.0165864
766.075	0.0165294
766.154	0.0167317
766.232	0.0167830
766.310	0.0166676
766.388	0.0165640
766.466	0.0166036
766.544	0.0167248
766.622	0.0165466
766.700	0.0165490
766.779	0.0166891
766.857	0.0166438
766.935	0.0166952
767.013	0.0165913
767.091	0.0165527
767.169	0.0166010
767.247	0.0165838
767.325	0.0166330
767.404	0.0165686
767.482	0.0165864
767.560	0.0165178
767.638	0.0165698
767.716	0.0166100
767.794	0.0165360
767.872	0.0165769
767.950	0.0165554
768.029	0.0164450
768.107	0.0164406
768.185	0.0164529
768.263	0.0163673
768.341	0.0165488
768.419	0.0163985
768.497	0.0163813
768.575	0.0163904
768.654	0.0162997
768.732	0.0163435
768.810	0.0161714
768.888	0.0162752
768.966	0.0162115
769.044	0.0161504
769.122	0.0162723
769.200	0.0161697
769.279	0.0161362
769.357	0.0160960
769.435	0.0160738
769.513	0.0159554
769.591	0.0160716
769.669	0.0159594
769.747	0.0160145
769.825	0.0162244
769.904	0.0161673
769.982	0.0162612
770.060	0.0163064
770.138	0.0163969
770.216	0.0164604
770.294	0.0166491
770.372	0.0166116
770.450	0.0166635
770.529	0.0167181
770.607	0.0168129
770.685	0.0169752
770.763	0.0168615
770.841	0.0169788
770.919	0.0169921
770.997	0.0171297
771.075	0.0169921
771.154	0.0170647
771.232	0.0170173
771.310	0.0168477
771.388	0.0168506
771.466	0.0167564
771.544	0.0168490
771.622	0.0167373
771.700	0.0164880
771.779	0.0165085
771.857	0.0164389
771.935	0.0161174
772.013	0.0162118
772.091	0.0161708
772.169	0.0160155
772.247	0.0159023
772.325	0.0160128
772.404	0.0156953
772.482	0.0157079
772.560	0.0158701
772.638	0.0156940
772.716	0.0157073
772.794	0.0156922
772.872	0.0158004
772.950	0.0157815
773.029	0.0157742
773.107	0.0159484
773.185	0.0160511
773.263	0.0159487
773.341	0.0159086
773.419	0.0159452
773.497	0.0160473
773.575	0.0161266
773.654	0.0161697
773.732	0.0162497
773.810	0.0160698
773.888	0.0161712
773.966	0.0164079
774.044	0.0163025
774.122	0.0163220
774.200	0.0163720
774.279	0.0165179
774.357	0.0166307
774.435	0.0165047
774.513	0.0167236
774.591	0.0167415
774.669	0.0167387
774.747	0.0169752
774.825	0.0168551
774.904	0.0169702
774.982	0.0168930
775.060	0.0169878
775.138	0.0169001
775.216	0.0170369
775.294	0.0171809
775.372	0.0170330
775.450	0.0169395
775.529	0.0169386
775.607	0.0170947
775.685	0.0168401
775.763	0.0167243
775.841	0.0168999
775.919	0.0167977
775.997	0.0167108
776.075	0.0166032
776.154	0.0166025
776.232	0.0162920
776.310	0.0161833
776.388	0.0162468
776.466	0.0159826
776.544	0.0159406
776.622	0.0159474
776.700	0.0158157
776.779	0.0157005
776.857	0.0157193
776.935	0.0156492
777.013	0.0158182
777.091	0.0157475
777.169	0.0157642
777.247	0.0158112
777.325	0.0158459
777.404	0.0159435
777.482	0.0159684
777.560	0.0159870
777.638	0.0160652
777.716	0.0160876
777.794	0.0161842
777.872	0.0162573
777.950	0.0163396
778.029	0.0162723
778.107	0.0163464
778.185	0.0164570
778.263	0.0164247
778.341	0.0164260
778.419	0.0164048
778.497	0.0164891
778.575	0.0164885
778.654	0.0164938
778.732	0.0164320
778.810	0.0164316
778.888	0.0164335
778.966	0.0165234
779.044	0.0166731
779.122	0.0166332
779.200	0.0167017
779.279	0.0168243
779.357	0.0169005
779.435	0.0167815
779.513	0.0168544
779.591	0.0168954
779.669	0.0169939
779.747	0.0168237
779.825	0.0169581
779.904	0.0170616
779.982	0.0169643
780.060	0.0169760
780.138	0.0169456
780.216	0.0168330
780.294	0.0167520
780.372	0.0167492
780.450	0.0164819
780.529	0.0164389
780.607	0.0164069
780.685	0.0164215
780.763	0.0160854
780.841	0.0161050
780.919	0.0160421
780.997	0.0159830
781.075	0.0158774
781.154	0.0158537
781.232	0.0157592
781.310	0.0157016
781.388	0.0157040
781.466	0.0155482
781.544	0.0156839
781.622	0.0158517
781.700	0.0157430
781.779	0.0157653
781.857	0.0158955
781.935	0.0158245
782.013	0.0158988
782.091	0.0159817
782.169	0.0160532
782.247	0.0160941
782.325	0.0161540
782.404	0.0162142
782.482	0.0162390
782.560	0.0163731
782.638	0.0163828
782.716	0.0165231
782.794	0.0165318
782.872	0.0166116
782.950	0.0166000
783.029	0.0166955
783.107	0.0167959
783.185	0.0167380
783.263	0.0168280
783.341	0.0168690
783.419	0.0168829
783.497	0.0168952
783.575	0.0169172
783.654	0.0170033
783.732	0.0170440
783.810	0.0169574
783.888	0.0171140
783.966	0.0170576
784.044	0.0170642
784.122	0.0170117
784.200	0.0167512
784.279	0.0167097
784.357	0.0167739
784.435	0.0167496
784.513	0.0164912
784.591	0.0165213
784.669	0.0164404
784.747	0.0163119
784.825	0.0161645
784.904	0.0161513
784.982	0.0159639
785.060	0.0159246
785.138	0.0159282
785.216	0.0158496
785.294	0.0158276
785.372	0.0156680
785.450	0.0157238
785.529	0.0157883
785.607	0.0157664
785.685	0.0156748
785.763	0.0158436
785.841	0.0157957
785.919	0.0159830
785.997	0.0159394
786.075	0.0159966
786.154	0.0160095
786.232	0.0161497
786.310	0.0162030
786.388	0.0163046
786.466	0.0163023
786.544	0.0163975
786.622	0.0164631
786.700	0.0165002
786.779	0.0166554
786.857	0.0166613
786.935	0.0166267
787.013	0.0167175
787.091	0.0167774
787.169	0.0169455
787.247	0.0169656
787.325	0.0170930
787.404	0.0169942
787.482	0.0171877
787.560	0.0172573
787.638	0.0171588
787.716	0.0172628
787.794	0.0171194
787.872	0.0171938
787.950	0.0172563
788.029	0.0170197
788.107	0.0169056
788.185	0.0169243
788.263	0.0168497
788.341	0.0166275
788.419	0.0165965
788.497	0.0164534
788.575	0.0164513
788.654	0.0161929
788.732	0.0160760
788.810	0.0158122
788.888	0.0156897
788.966	0.0156530
789.044	0.0155538
789.122	0.0155377
789.200	0.0154681
789.279	0.0152886
789.357	0.0152565
789.435	0.0152905
789.513	0.0151541
789.591	0.0151015
789.669	0.0151178
789.747	0.0151658
789.825	0.0153986
789.904	0.0154459
789.982	0.0153033
790.060	0.0154427
790.138	0.0155943
790.216	0.0158105
790.294	0.0160899
790.372	0.0160358
790.450	0.0163069
790.529	0.0165024
790.607	0.0167617
790.685	0.0169227
790.763	0.0170714
790.841	0.0171505
790.919	0.0173482
790.997	0.0173827
791.075	0.0174683
791.154	0.0175659
791.232	0.0176235
791.310	0.0176174
791.388	0.0177297
791.466	0.0175958
791.544	0.0175768
791.622	0.0176585
791.700	0.0176218
791.779	0.0175367
791.857	0.0175181
791.935	0.0173222
792.013	0.0175201
792.091	0.0173323
792.169	0.0171177
792.247	0.0170815
792.325	0.0170477
792.404	0.0168493
792.482	0.0167620
792.560	0.0166474
792.638	0.0164551
792.716	0.0163168
792.794	0.0162632
792.872	0.0161828
792.950	0.0158582
793.029	0.0157729
793.107	0.0156408
793.185	0.0156219
793.263	0.0155328
793.341	0.0152135
793.419	0.0149834
793.497	0.0149484
793.575	0.0148033
793.654	0.0148127
793.732	0.0146471
793.810	0.0146273
793.888	0.0148147
793.966	0.0147338
794.044	0.0147124
794.122	0.0148724
794.200	0.0151089
794.279	0.0153130
794.357	0.0153055
794.435	0.0154905
794.513	0.0155963
794.591	0.0160434
794.669	0.0161520
794.747	0.0164761
794.825	0.0167221
794.904	0.0166598
794.982	0.0169565
795.060	0.0171561
795.138	0.0173447
795.216	0.0174956
795.294	0.0175348
795.372	0.0177744
795.450	0.0178878
795.529	0.0178981
795.607	0.0177872
795.685	0.0180291
795.763	0.0179211
795.841	0.0180170
795.919	0.0179464
795.997	0.0177306
796.075	0.0177764
796.154	0.0175641
796.232	0.0174605
796.310	0.0176437
796.388	0.0172746
796.466	0.0171899
796.544	0.0170420
796.622	0.0170305
796.700	0.0168917
796.779	0.0166734
796.857	0.0165560
796.935	0.0163776
797.013	0.0162643
797.091	0.0161259
797.169	0.0159073
797.247	0.0159136
797.325	0.0159391
797.404	0.0157536
797.482	0.0156231
797.560	0.0155688
797.638	0.0153599
797.716	0.0154401
797.794	0.0152390
797.872	0.0151685
797.950	0.0152672
798.029	0.0150776
798.107	0.0151022
798.185	0.0151343
798.263	0.0151198
798.341	0.0149117
798.419	0.0150660
798.497	0.0150716
798.575	0.0151320
798.654	0.0152096
798.732	0.0153557
798.810	0.0154561
798.888	0.0154800
798.966	0.0156313
799.044	0.0158056
799.122	0.0160733
799.200	0.0162717
799.279	0.0164517
799.357	0.0165669
799.435	0.0166128
799.513	0.0168139
799.591	0.0169923
799.669	0.0171785
799.747	0.0173437
799.825	0.0174319
799.904	0.0175705
799.982	0.0176604
800.060	0.0175169
800.138	0.0175772
800.216	0.0177559
800.294	0.0176884
800.372	0.0176879
800.450	0.0177110
800.529	0.0175816
800.607	0.0174484
800.685	0.0174753
800.763	0.0173938
800.841	0.0172272
800.919	0.0171760
800.997	0.0170928
801.075	0.0168853
801.154	0.0169413
801.232	0.0166808
801.310	0.0165424
801.388	0.0164039
801.466	0.0164515
801.544	0.0161744
801.622	0.0161414
801.700	0.0160920
801.779	0.0159457
801.857	0.0158373
801.935	0.0158625
802.013	0.0157508
802.091	0.0156804
802.169	0.0156613
802.247	0.0155922
802.325	0.0155060
802.404	0.0154814
802.482	0.0155200
802.560	0.0155078
802.638	0.0155714
802.716	0.0154218
802.794	0.0155594
802.872	0.0155102
802.950	0.0155921
803.029	0.0154999
803.107	0.0156906
803.185	0.0155845
803.263	0.0157478
803.341	0.0157248
803.419	0.0155712
803.497	0.0157327
803.575	0.0158434
803.654	0.0157217
803.732	0.0161098
803.810	0.0160119
803.888	0.0160603
803.966	0.0163977
804.044	0.0166363
804.122	0.0166695
804.200	0.0166443
804.279	0.0168969
804.357	0.0169791
804.435	0.0170892
804.513	0.0172090
804.591	0.0171823
804.669	0.0173209
804.747	0.0172715
804.825	0.0174054
804.904	0.0173624
804.982	0.0172634
805.060	0.0173785
805.138	0.0173299
805.216	0.0171738
805.294	0.0171834
805.372	0.0171623
805.450	0.0167327
805.529	0.0167962
805.607	0.0168173
805.685	0.0166830
805.763	0.0165176
805.841	0.0165037
805.919	0.0163830
805.997	0.0163393
806.075	0.0162563
806.154	0.0160999
806.232	0.0160080
806.310	0.0162372
806.388	0.0161842
806.466	0.0160532
806.544	0.0159161
806.622	0.0159689
806.700	0.0160777
806.779	0.0160108
806.857	0.0159835
806.935	0.0158494
807.013	0.0159282
807.091	0.0159075
807.169	0.0158974
807.247	0.0158814
807.325	0.0158082
807.404	0.0157084
807.482	0.0158226
807.560	0.0159247
807.638	0.0159483
807.716	0.0158479
807.794	0.0159250
807.872	0.0161431
807.950	0.0160272
808.029	0.0161676
808.107	0.0161094
808.185	0.0161634
808.263	0.0162746
808.341	0.0161572
808.419	0.0164051
808.497	0.0164922
808.575	0.0166121
808.654	0.0167377
808.732	0.0166388
808.810	0.0167182
808.888	0.0167043
808.966	0.0167537
809.044	0.0168000
809.122	0.0168311
809.200	0.0167415
809.279	0.0168684
809.357	0.0169037
809.435	0.0168165
809.513	0.0168229
809.591	0.0167476
809.669	0.0168777
809.747	0.0167432
809.825	0.0167184
809.904	0.0166849
809.982	0.0166979
810.060	0.0166090
810.138	0.0166614
810.216	0.0166284
810.294	0.0165915
810.372	0.0164984
810.450	0.0164121
810.529	0.0163528
810.607	0.0163256
810.685	0.0164648
810.763	0.0164341
810.841	0.0163439
810.919	0.0163358
810.997	0.0163840
811.075	0.0163744
811.154	0.0163293
811.232	0.0162271
811.310	0.0162501
811.388	0.0161938
811.466	0.0162346
811.544	0.0161214
811.622	0.0160748
811.700	0.0162333
811.779	0.0161873
811.857	0.0163049
811.935	0.0161304
812.013	0.0160590
812.091	0.0162614
812.169	0.0161891
812.247	0.0163351
812.325	0.0163047
812.404	0.0164363
812.482	0.0163749
812.560	0.0163485
812.638	0.0165041
812.716	0.0164384
812.794	0.0164339
812.872	0.0164146
812.950	0.0165461
813.029	0.0165366
813.107	0.0164993
813.185	0.0164111
813.263	0.0166569
813.341	0.0164965
813.419	0.0162962
813.497	0.0164815
813.575	0.0164956
813.654	0.0164218
813.732	0.0162949
813.810	0.0163224
813.888	0.0165216
813.966	0.0163068
814.044	0.0162746
814.122	0.0162439
814.200	0.0162370
814.279	0.0160871
814.357	0.0160852
814.435	0.0162951
814.513	0.0161926
814.591	0.0160432
814.669	0.0162229
814.747	0.0161890
814.825	0.0162679
814.904	0.0162003
814.982	0.0162314
815.060	0.0161996
815.138	0.0163133
815.216	0.0162444
815.294	0.0164017
815.372	0.0163826
815.450	0.0163046
815.529	0.0165312
815.607	0.0165274
815.685	0.0165168
815.763	0.0165551
815.841	0.0166685
815.919	0.0166335
815.997	0.0168199
816.075	0.0168404
816.154	0.0167316
816.232	0.0168578
816.310	0.0168595
816.388	0.0167826
816.466	0.0167866
816.544	0.0169078
816.622	0.0169079
816.700	0.0169453
816.779	0.0170382
816.857	0.0169147
816.935	0.0168073
817.013	0.0168412
817.091	0.0169051
817.169	0.0168053
817.247	0.0166989
817.325	0.0166271
817.404	0.0164870
817.482	0.0164822
817.560	0.0164765
817.638	0.0164191
817.716	0.0163979
817.794	0.0163628
817.872	0.0162347
817.950	0.0163213
818.029	0.0162881
818.107	0.0160970
818.185	0.0160549
818.263	0.0160979
818.341	0.0160297
818.419	0.0161012
818.497	0.0160235
818.575	0.0159913
818.654	0.0158971
818.732	0.0158842
818.810	0.0158949
818.888	0.0157976
818.966	0.0158824
819.044	0.0157670
819.122	0.0157877
819.200	0.0157990
819.279	0.0159227
819.357	0.0158250
819.435	0.0158434
819.513	0.0158304
819.591	0.0158178
819.669	0.0160851
819.747	0.0159707
819.825	0.0159748
819.904	0.0160972
819.982	0.0162161
820.060	0.0163245
820.138	0.0162930
820.216	0.0164450
820.294	0.0164841
820.372	0.0167490
820.450	0.0167002
820.529	0.0167181
820.607	0.0166326
820.685	0.0167954
820.763	0.0168004
820.841	0.0169115
820.919	0.0168385
820.997	0.0168794
821.075	0.0169204
821.154	0.0168909
821.232	0.0169273
821.310	0.0169159
821.388	0.0169426
821.466	0.0169382
821.544	0.0167484
821.622	0.0168182
821.700	0.0167076
821.779	0.0166727
821.857	0.0167497
821.935	0.0168542
822.013	0.0167110
822.091	0.0166234
822.169	0.0165638
822.247	0.0164986
822.325	0.0164754
822.404	0.0164316
822.482	0.0164353
822.560	0.0164752
822.638	0.0162960
822.716	0.0163073
822.794	0.0162247
822.872	0.0162513
822.950	0.0161980
823.029	0.0161628
823.107	0.0160956
823.185	0.0160790
823.263	0.0159723
823.341	0.0160932
823.419	0.0159343
823.497	0.0159612
823.575	0.0158125
823.654	0.0157783
823.732	0.0157679
823.810	0.0158672
823.888	0.0157683
823.966	0.0157156
824.044	0.0158758
824.122	0.0156320
824.200	0.0157475
824.279	0.0158905
824.357	0.0158373
824.435	0.0158364
824.513	0.0160747
824.591	0.0161433
824.669	0.0162402
824.747	0.0162310
824.825	0.0164454
824.904	0.0164500
824.982	0.0164917
825.060	0.0165483
825.138	0.0166345
825.216	0.0167022
825.294	0.0167087
825.372	0.0168330
825.450	0.0167392
825.529	0.0168513
825.607	0.0170061
825.685	0.0169289
825.763	0.0168292
825.841	0.0168066
825.919	0.0169011
825.997	0.0167664
826.075	0.0168156
826.154	0.0167255
826.232	0.0166145
826.310	0.0164939
826.388	0.0165342
826.466	0.0165929
826.544	0.0165972
826.622	0.0164322
826.700	0.0164344
826.779	0.0165768
826.857	0.0163869
826.935	0.0164410
827.013	0.0165929
827.091	0.0164923
827.169	0.0164755
827.247	0.0163547
827.325	0.0164176
827.404	0.0162759
827.482	0.0163979
827.560	0.0164400
827.638	0.0162389
827.716	0.0163148
827.794	0.0162208
827.872	0.0162676
827.950	0.0160423
828.029	0.0162079
828.107	0.0163557
828.185	0.0159660
828.263	0.0160556
828.341	0.0160257
828.419	0.0159908
828.497	0.0158881
828.575	0.0159176
828.654	0.0159697
828.732	0.0157861
828.810	0.0157793
828.888	0.0157310
828.966	0.0158121
829.044	0.0158618
829.122	0.0158053
829.200	0.0158473
829.279	0.0159078
829.357	0.0159159
829.435	0.0160315
829.513	0.0161305
829.591	0.0163040
829.669	0.0162585
829.747	0.0162868
829.825	0.0162667
829.904	0.0165135
829.982	0.0165859
830.060	0.0165939
830.138	0.0166518
830.216	0.0168024
830.294	0.0167027
830.372	0.0167237
830.450	0.0168813
830.529	0.0168390
830.607	0.0168052
830.685	0.0169640
830.763	0.0167345
830.841	0.0166624
830.919	0.0167363
830.997	0.0166710
831.075	0.0166450
831.154	0.0164294
831.232	0.0165498
831.310	0.0165623
831.388	0.0165014
831.466	0.0164067
831.544	0.0163859
831.622	0.0162471
831.700	0.0163320
831.779	0.0163743
831.857	0.0163638
831.935	0.0164728
832.013	0.0163564
832.091	0.0161883
832.169	0.0163622
832.247	0.0163869
832.325	0.0162932
832.404	0.0163754
832.482	0.0165842
832.560	0.0164951
832.638	0.0163357
832.716	0.0163610
832.794	0.0163782
832.872	0.0164196
832.950	0.0163438
833.029	0.0163140
833.107	0.0162311
833.185	0.0163246
833.263	0.0162457
833.341	0.0163299
833.419	0.0162094
833.497	0.0161881
833.575	0.0163872
833.654	0.0161878
833.732	0.0160357
833.810	0.0162067
833.888	0.0163715
833.966	0.0163609
834.044	0.0163663
834.122	0.0164155
834.200	0.0163737
834.279	0.0164474
834.357	0.0164730
834.435	0.0164491
834.513	0.0165732
834.591	0.0165878
834.669	0.0165553
834.747	0.0164985
834.825	0.0165809
834.904	0.0165633
834.982	0.0166537
835.060	0.0165142
835.138	0.0165734
835.216	0.0165286
835.294	0.0163764
835.372	0.0164265
835.450	0.0163589
835.529	0.0164481
835.607	0.0163653
835.685	0.0163313
835.763	0.0162968
835.841	0.0164177
835.919	0.0162463
835.997	0.0161842
836.075	0.0162302
836.154	0.0162666
836.232	0.0162044
836.310	0.0161549
836.388	0.0162380
836.466	0.0162548
836.544	0.0161964
836.622	0.0163268
836.700	0.0162831
836.779	0.0162733
836.857	0.0162016
836.935	0.0163540
837.013	0.0163031
837.091	0.0163708
837.169	0.0164885
837.247	0.0164721
837.325	0.0164536
837.404	0.0164702
837.482	0.0165089
837.560	0.0165212
837.638	0.0165449
837.716	0.0165662
837.794	0.0166767
837.872	0.0166003
837.950	0.0165645
838.029	0.0165831
838.107	0.0165699
838.185	0.0165614
838.263	0.0166660
838.341	0.0165357
838.419	0.0164247
838.497	0.0165810
838.575	0.0165910
838.654	0.0166047
838.732	0.0164282
838.810	0.0165874
838.888	0.0167676
838.966	0.0165282
839.044	0.0166022
839.122	0.0165578
839.200	0.0164806
839.279	0.0166154
839.357	0.0164709
839.435	0.0163834
839.513	0.0164812
839.591	0.0163244
839.669	0.0162713
839.747	0.0162608
839.825	0.0161763
839.904	0.0160210
839.982	0.0161261
840.060	0.0162000
840.138	0.0160564
840.216	0.0160690
840.294	0.0160535
840.372	0.0161520
840.450	0.0160903
840.529	0.0161641
840.607	0.0160499
840.685	0.0162084
840.763	0.0161871
840.841	0.0161226
840.919	0.0162716
840.997	0.0162279
841.075	0.0164326
841.154	0.0162936
841.232	0.0163678
841.310	0.0163715
841.388	0.0164957
841.466	0.0164546
841.544	0.0164793
841.622	0.0164629
841.700	0.0164581
841.779	0.0164305
841.857	0.0163855
841.935	0.0164374
842.013	0.0164156
842.091	0.0164833
842.169	0.0166176
842.247	0.0164833
842.325	0.0165652
842.404	0.0164722
842.482	0.0165279
842.560	0.0164495
842.638	0.0165384
842.716	0.0165987
842.794	0.0164325
842.872	0.0165011
842.950	0.0165546
843.029	0.0165023
843.107	0.0165797
843.185	0.0166207
843.263	0.0165834
843.341	0.0164136
843.419	0.0165879
843.497	0.0166388
843.575	0.0164690
843.654	0.0165530
843.732	0.0165617
843.810	0.0165498
843.888	0.0164658
843.966	0.0165619
844.044	0.0163391
844.122	0.0165363
844.200	0.0165408
844.279	0.0162058
844.357	0.0163496
844.435	0.0163341
844.513	0.0162933
844.591	0.0162437
844.669	0.0162159
844.747	0.0161772
844.825	0.0161646
844.904	0.0160776
844.982	0.0161772
845.060	0.0161252
845.138	0.0160616
845.216	0.0161533
845.294	0.0162069
845.372	0.0161903
845.450	0.0162043
845.529	0.0162318
845.607	0.0161320
845.685	0.0161768
845.763	0.0162104
845.841	0.0161723
845.919	0.0163217
845.997	0.0162472
846.075	0.0163029
846.154	0.0162695
846.232	0.0163112
846.310	0.0162402
846.388	0.0163574
846.466	0.0164568
846.544	0.0164313
846.622	0.0163245
846.700	0.0164373
846.779	0.0164458
846.857	0.0164890
846.935	0.0166106
847.013	0.0166436
847.091	0.0166197
847.169	0.0166056
847.247	0.0165961
847.325	0.0165736
847.404	0.0167826
847.482	0.0167889
847.560	0.0167792
847.638	0.0167397
847.716	0.0167620
847.794	0.0167258
847.872	0.0166412
847.950	0.0167763
848.029	0.0166530
848.107	0.0165596
848.185	0.0167700
848.263	0.0166120
848.341	0.0164670
848.419	0.0164790
848.497	0.0165166
848.575	0.0164102
848.654	0.0163815
848.732	0.0163657
848.810	0.0162933
848.888	0.0164330
848.966	0.0162661
849.044	0.0161737
849.122	0.0160823
849.200	0.0162219
849.279	0.0163007
849.357	0.0162059
849.435	0.0162218
849.513	0.0163876
849.591	0.0162540
849.669	0.0162269
849.747	0.0162880
849.825	0.0161401
849.904	0.0161202
849.982	0.0161485
850.060	0.0161470
850.138	0.0160708
850.216	0.0162167
850.294	0.0161012
850.372	0.0161835
850.450	0.0161307
850.529	0.0161204
850.607	0.0161742
850.685	0.0162440
850.763	0.0162610
850.841	0.0162750
850.919	0.0162289
850.997	0.0163421
851.075	0.0163799
851.154	0.0164212
851.232	0.0165110
851.310	0.0164713
851.388	0.0165137
851.466	0.0164673
851.544	0.0165601
851.622	0.0166805
851.700	0.0165399
851.779	0.0167187
851.857	0.0165055
851.935	0.0168102
852.013	0.0167641
852.091	0.0167154
852.169	0.0167070
852.247	0.0166653
852.325	0.0166230
852.404	0.0166095
852.482	0.0164425
852.560	0.0166472
852.638	0.0166709
852.716	0.0165739
852.794	0.0165836
852.872	0.0165112
852.950	0.0164822
853.029	0.0163602
853.107	0.0164658
853.185	0.0164033
853.263	0.0164790
853.341	0.0162663
853.419	0.0164760
853.497	0.0163092
853.575	0.0163499
853.654	0.0162734
853.732	0.0161539
853.810	0.0162199
853.888	0.0163767
853.966	0.0162489
854.044	0.0162698
854.122	0.0163632
854.200	0.0162735
854.279	0.0161510
854.357	0.0163032
854.435	0.0162532
854.513	0.0162457
854.591	0.0161977
854.669	0.0162623
854.747	0.0162830
854.825	0.0161478
854.904	0.0161479
854.982	0.0160115
855.060	0.0161491
855.138	0.0162044
855.216	0.0161942
855.294	0.0162953
855.372	0.0162519
855.450	0.0163498
855.529	0.0162610
855.607	0.0163362
855.685	0.0164583
855.763	0.0164552
855.841	0.0162632
855.919	0.0164944
855.997	0.0164269
856.075	0.0165678
856.154	0.0165349
856.232	0.0166180
856.310	0.0166277
856.388	0.0167117
856.466	0.0165008
856.544	0.0165257
856.622	0.0166541
856.700	0.0165485
856.779	0.0166474
856.857	0.0166232
856.935	0.0165742
857.013	0.0165146
857.091	0.0166358
857.169	0.0165332
857.247	0.0166263
857.325	0.0164836
857.404	0.0165646
857.482	0.0165349
857.560	0.0166211
857.638	0.0165963
857.716	0.0165901
857.794	0.0167053
857.872	0.0165839
857.950	0.0167095
858.029	0.0166490
858.107	0.0166817
858.185	0.0164894
858.263	0.0164771
858.341	0.0164643
858.419	0.0164288
858.497	0.0164282
858.575	0.0163056
858.654	0.0163313
858.732	0.0164886
858.810	0.0163274
858.888	0.0162256
858.966	0.0162054
859.044	0.0161625
859.122	0.0161500
859.200	0.0161230
859.279	0.0161169
859.357	0.0161237
859.435	0.0163141
859.513	0.0163258
859.591	0.0161597
859.669	0.0161417
859.747	0.0161639
859.825	0.0163708
859.904	0.0163724
859.982	0.0164104
860.060	0.0163985
860.138	0.0163554
860.216	0.0163634
860.294	0.0163846
860.372	0.0162913
860.450	0.0163952
860.529	0.0163390
860.607	0.0164167
860.685	0.0163936
860.763	0.0164375
860.841	0.0164661
860.919	0.0163396
860.997	0.0163060
861.075	0.0163556
861.154	0.0164256
861.232	0.0163643
861.310	0.0164893
861.388	0.0163821
861.466	0.0164339
861.544	0.0164233
861.622	0.0164323
861.700	0.0164716
861.779	0.0166033
861.857	0.0165604
861.935	0.0164951
862.013	0.0165495
862.091	0.0164356
862.169	0.0166105
862.247	0.0165392
862.325	0.0166154
862.404	0.0166590
862.482	0.0168021
862.560	0.0167487
862.638	0.0166776
862.716	0.0164299
862.794	0.0165005
862.872	0.0164561
862.950	0.0165065
863.029	0.0165073
863.107	0.0164985
863.185	0.0162827
863.263	0.0162720
863.341	0.0163602
863.419	0.0161769
863.497	0.0162441
863.575	0.0162596
863.654	0.0160765
863.732	0.0162221
863.810	0.0161473
863.888	0.0162431
863.966	0.0161880
864.044	0.0162414
864.122	0.0162032
864.200	0.0162649
864.279	0.0163826
864.357	0.0161949
864.435	0.0164088
864.513	0.0162887
864.591	0.0162518
864.669	0.0164760
864.747	0.0165041
864.825	0.0164354
864.904	0.0165225
864.982	0.0165648
865.060	0.0166191
865.138	0.0164882
865.216	0.0165527
865.294	0.0165448
865.372	0.0164001
865.450	0.0163763
865.529	0.0164711
865.607	0.0164659
865.685	0.0163670
865.763	0.0163264
865.841	0.0162957
865.919	0.0164012
865.997	0.0163434
866.075	0.0165797
866.154	0.0164230
866.232	0.0163837
866.310	0.0164513
866.388	0.0164177
866.466	0.0164019
866.544	0.0165217
866.622	0.0164537
866.700	0.0165344
866.779	0.0165359
866.857	0.0165687
866.935	0.0164194
867.013	0.0166427
867.091	0.0164488
867.169	0.0164233
867.247	0.0165065
867.325	0.0164737
867.404	0.0163830
867.482	0.0162773
867.560	0.0163607
867.638	0.0163812
867.716	0.0162811
867.794	0.0160899
867.872	0.0160577
867.950	0.0160590
868.029	0.0160528
868.107	0.0160487
868.185	0.0160253
868.263	0.0160920
868.341	0.0159931
868.419	0.0160567
868.497	0.0160619
868.575	0.0160238
868.654	0.0160233
868.732	0.0160590
868.810	0.0160268
868.888	0.0162315
868.966	0.0161315
869.044	0.0162510
869.122	0.0163938
869.200	0.0164017
869.279	0.0164429
869.357	0.0165198
869.435	0.0166359
869.513	0.0165676
869.591	0.0166611
869.669	0.0165591
869.747	0.0167743
869.825	0.0166885
869.904	0.0166796
869.982	0.0166895
870.060	0.0164799
870.138	0.0164863
870.216	0.0164987
870.294	0.0165594
870.372	0.0165945
870.450	0.0165487
870.529	0.0163720
870.607	0.0164058
870.685	0.0166630
870.763	0.0166293
870.841	0.0166489
870.919	0.0167951
870.997	0.0167696
871.075	0.0167377
871.154	0.0167249
871.232	0.0167151
871.310	0.0167771
871.388	0.0165976
871.466	0.0166061
871.544	0.0168161
871.622	0.0166826
871.700	0.0165662
871.779	0.0166140
871.857	0.0165780
871.935	0.0164990
872.013	0.0164032
872.091	0.0164986
872.169	0.0161992
872.247	0.0161227
872.325	0.0162710
872.404	0.0159998
872.482	0.0160371
872.560	0.0159733
872.638	0.0160064
872.716	0.0159067
872.794	0.0159144
872.872	0.0159888
872.950	0.0160425
873.029	0.0160349
873.107	0.0161226
873.185	0.0161022
873.263	0.0161324
873.341	0.0161749
873.419	0.0162360
873.497	0.0162562
873.575	0.0163074
873.654	0.0161655
873.732	0.0162449
873.810	0.0162093
873.888	0.0162605
873.966	0.0163077
874.044	0.0161575
874.122	0.0163835
874.200	0.0164276
874.279	0.0164404
874.357	0.0166241
874.435	0.0165181
874.513	0.0165623
874.591	0.0167632
874.669	0.0167191
874.747	0.0167402
874.825	0.0167641
874.904	0.0168000
874.982	0.0167700
875.060	0.0166790
875.138	0.0167106
875.216	0.0166071
875.294	0.0166112
875.372	0.0166186
875.450	0.0165453
875.529	0.0164394
875.607	0.0164012
875.685	0.0164666
875.763	0.0164031
875.841	0.0166102
875.919	0.0164831
875.997	0.0164825
876.075	0.0164555
876.154	0.0164820
876.232	0.0165317
876.310	0.0166011
876.388	0.0164306
876.466	0.0164028
876.544	0.0163219
876.622	0.0162336
876.700	0.0162954
876.779	0.0162202
876.857	0.0162518
876.935	0.0162325
877.013	0.0162687
877.091	0.0162406
877.169	0.0161983
877.247	0.0163526
877.325	0.0163123
877.404	0.0162495
877.482	0.0162139
877.560	0.0162559
877.638	0.0163196
877.716	0.0162916
877.794	0.0163181
877.872	0.0160412
877.950	0.0162006
878.029	0.0162320
878.107	0.0161508
878.185	0.0161941
878.263	0.0161456
878.341	0.0162026
878.419	0.0162731
878.497	0.0162844
878.575	0.0164318
878.654	0.0165227
878.732	0.0165433
878.810	0.0165197
878.888	0.0165897
878.966	0.0167579
879.044	0.0167815
879.122	0.0166159
879.200	0.0167203
879.279	0.0166448
879.357	0.0166187
879.435	0.0166905
879.513	0.0165761
879.591	0.0164910
879.669	0.0163587
879.747	0.0164096
879.825	0.0164149
879.904	0.0164033
879.982	0.0163828
880.060	0.0162424
880.138	0.0162245
880.216	0.0160744
880.294	0.0161028
880.372	0.0160711
880.450	0.0160420
880.529	0.0161967
880.607	0.0162508
880.685	0.0162013
880.763	0.0161718
880.841	0.0163632
880.919	0.0164465
880.997	0.0165108
881.075	0.0165498
881.154	0.0163855
881.232	0.0165807
881.310	0.0165012
881.388	0.0166276
881.466	0.0165691
881.544	0.0164247
881.622	0.0166625
881.700	0.0167339
881.779	0.0166148
881.857	0.0166442
881.935	0.0165939
882.013	0.0167080
882.091	0.0166084
882.169	0.0164508
882.247	0.0164547
882.325	0.0164339
882.404	0.0166115
882.482	0.0165594
882.560	0.0165189
882.638	0.0166331
882.716	0.0166583
882.794	0.0166017
882.872	0.0166181
882.950	0.0165071
883.029	0.0164301
883.107	0.0165325
883.185	0.0164384
883.263	0.0164453
883.341	0.0163721
883.419	0.0163085
883.497	0.0162980
883.575	0.0162885
883.654	0.0161929
883.732	0.0162746
883.810	0.0161732
883.888	0.0161502
883.966	0.0161670
884.044	0.0160839
884.122	0.0160857
884.200	0.0160044
884.279	0.0160770
884.357	0.0159687
884.435	0.0158826
884.513	0.0160504
884.591	0.0159549
884.669	0.0158966
884.747	0.0158749
884.825	0.0159857
884.904	0.0159949
884.982	0.0160717
885.060	0.0161098
885.138	0.0162365
885.216	0.0163548
885.294	0.0164969
885.372	0.0164692
885.450	0.0165181
885.529	0.0167670
885.607	0.0168134
885.685	0.0170078
885.763	0.0171589
885.841	0.0171745
885.919	0.0172047
885.997	0.0172651
886.075	0.0172137
886.154	0.0171790
886.232	0.0171199
886.310	0.0170428
886.388	0.0169064
886.466	0.0169090
886.544	0.0168301
886.622	0.0165626
886.700	0.0162585
886.779	0.0163541
886.857	0.0163177
886.935	0.0163231
887.013	0.0162521
887.091	0.0162135
887.169	0.0162057
887.247	0.0162149
887.325	0.0163053
887.404	0.0162932
887.482	0.0161633
887.560	0.0163319
887.638	0.0163037
887.716	0.0163146
887.794	0.0162096
887.872	0.0161866
887.950	0.0160274
888.029	0.0160256
888.107	0.0159886
888.185	0.0160732
888.263	0.0161216
888.341	0.0161535
888.419	0.0160390
888.497	0.0161728
888.575	0.0162138
888.654	0.0160706
888.732	0.0160518
888.810	0.0159209
888.888	0.0160751
888.966	0.0160678
889.044	0.0158714
889.122	0.0158401
889.200	0.0159084
889.279	0.0159016
889.357	0.0159090
889.435	0.0159246
889.513	0.0159433
889.591	0.0160664
889.669	0.0161136
889.747	0.0162836
889.825	0.0162891
889.904	0.0164283
889.982	0.0166900
890.060	0.0167332
890.138	0.0169104
890.216	0.0170280
890.294	0.0172466
890.372	0.0173468
890.450	0.0173588
890.529	0.0173682
890.607	0.0173970
890.685	0.0174100
890.763	0.0173696
890.841	0.0173869
890.919	0.0172044
890.997	0.0171426
891.075	0.0169215
891.154	0.0168064
891.232	0.0166636
891.310	0.0165812
891.388	0.0163784
891.466	0.0161843
891.544	0.0159363
891.622	0.0158605
891.700	0.0158376
891.779	0.0157148
891.857	0.0158112
891.935	0.0157214
892.013	0.0157207
892.091	0.0156875
892.169	0.0157348
892.247	0.0157781
892.325	0.0159047
892.404	0.0159612
892.482	0.0159222
892.560	0.0160895
892.638	0.0162060
892.716	0.0162857
892.794	0.0162312
892.872	0.0163951
892.950	0.0164173
893.029	0.0163669
893.107	0.0163773
893.185	0.0162993
893.263	0.0165971
893.341	0.0163864
893.419	0.0165701
893.497	0.0164728
893.575	0.0163844
893.654	0.0164423
893.732	0.0165267
893.810	0.0164920
893.888	0.0163961
893.966	0.0163947
894.044	0.0164157
894.122	0.0164075
894.200	0.0162284
894.279	0.0163173
894.357	0.0162314
894.435	0.0162628
894.513	0.0164758
894.591	0.0163795
894.669	0.0165382
894.747	0.0166532
894.825	0.0166051
894.904	0.0167108
894.982	0.0168132
895.060	0.0167826
895.138	0.0168240
895.216	0.0167881
895.294	0.0168586
895.372	0.0168924
895.450	0.0168364
895.529	0.0167572
895.607	0.0168145
895.685	0.0167154
895.763	0.0165143
895.841	0.0164875
895.919	0.0165179
895.997	0.0161517
896.075	0.0161475
896.154	0.0160453
896.232	0.0160406
896.310	0.0161995
896.388	0.0160291
896.466	0.0159540
896.544	0.0159637
896.622	0.0160204
896.700	0.0162815
896.779	0.0162144
896.857	0.0161717
896.935	0.0162501
897.013	0.0163265
897.091	0.0160738
897.169	0.0162261
897.247	0.0164087
897.325	0.0165243
897.404	0.0163328
897.482	0.0163911
897.560	0.0165627
897.638	0.0164265
897.716	0.0163830
897.794	0.0165994
897.872	0.0166347
897.950	0.0165591
898.029	0.0165708
898.107	0.0167242
898.185	0.0167917
898.263	0.0166634
898.341	0.0164903
898.419	0.0165878
898.497	0.0165831
898.575	0.0165604
898.654	0.0166119
898.732	0.0164930
898.810	0.0164170
898.888	0.0164280
898.966	0.0163869
899.044	0.0164305
899.122	0.0164739
899.200	0.0164169
899.279	0.0162990
899.357	0.0163569
899.435	0.0165038
899.513	0.0165410
899.591	0.0165200
899.669	0.0165450
899.747	0.0165433
899.825	0.0165212
899.904	0.0163506
899.982	0.0164759
900.060	0.0164722
900.138	0.0162797
900.216	0.0163749
900.294	0.0163658
900.372	0.0162297
900.450	0.0162452
900.529	0.0162723
900.607	0.0161832
900.685	0.0162381
900.763	0.0158475
900.841	0.0158989
900.919	0.0159231
900.997	0.0159933
901.075	0.0161793
901.154	0.0161050
901.232	0.0161780
901.310	0.0162938
901.388	0.0163221
901.466	0.0162773
901.544	0.0163513
901.622	0.0165102
901.700	0.0165971
901.779	0.0165643
901.857	0.0167132
901.935	0.0166194
902.013	0.0166150
902.091	0.0166327
902.169	0.0163976
902.247	0.0165729
902.325	0.0166611
902.404	0.0164275
902.482	0.0165215
902.560	0.0165526
902.638	0.0165532
902.716	0.0164499
902.794	0.0164936
902.872	0.0164602
902.950	0.0165137
903.029	0.0164799
903.107	0.0164571
903.185	0.0164626
903.263	0.0164810
903.341	0.0165186
903.419	0.0165130
903.497	0.0164194
903.575	0.0164235
903.654	0.0164546
903.732	0.0164851
903.810	0.0164646
903.888	0.0163410
903.966	0.0164921
904.044	0.0165237
904.122	0.0166149
904.200	0.0163889
904.279	0.0165524
904.357	0.0165231
904.435	0.0163565
904.513	0.0164495
904.591	0.0164587
904.669	0.0164121
904.747	0.0163100
904.825	0.0163089
904.904	0.0163817
904.982	0.0162711
905.060	0.0163291
905.138	0.0161542
905.216	0.0162160
905.294	0.0161188
905.372	0.0161130
905.450	0.0161915
905.529	0.0160661
905.607	0.0160017
905.685	0.0159858
905.763	0.0160385
905.841	0.0160335
905.919	0.0161742
905.997	0.0162916
906.075	0.0162919
906.154	0.0161547
906.232	0.0163493
906.310	0.0163416
906.388	0.0164333
906.466	0.0164304
906.544	0.0166203
906.622	0.0166211
906.700	0.0166853
906.779	0.0166290
906.857	0.0166585
906.935	0.0166938
907.013	0.0167409
907.091	0.0167992
907.169	0.0168125
907.247	0.0165963
907.325	0.0168436
907.404	0.0166447
907.482	0.0165537
907.560	0.0165197
907.638	0.0164583
907.716	0.0164028
907.794	0.0165089
907.872	0.0163778
907.950	0.0162476
908.029	0.0163058
908.107	0.0164072
908.185	0.0162635
908.263	0.0164462
908.341	0.0163969
908.419	0.0163791
908.497	0.0163876
908.575	0.0164357
908.654	0.0164035
908.732	0.0164945
908.810	0.0163820
908.888	0.0164598
908.966	0.0164277
909.044	0.0164845
909.122	0.0164381
909.200	0.0163496
909.279	0.0163743
909.357	0.0163787
909.435	0.0163307
909.513	0.0163019
909.591	0.0162555
909.669	0.0161451
909.747	0.0162610
909.825	0.0162503
909.904	0.0159926
909.982	0.0161088
910.060	0.0159940
910.138	0.0159457
910.216	0.0159228
910.294	0.0159264
910.372	0.0160811
910.450	0.0160631
910.529	0.0161025
910.607	0.0160572
910.685	0.0162208
910.763	0.0162906
910.841	0.0163407
910.919	0.0164291
910.997	0.0164288
911.075	0.0165210
911.154	0.0166338
911.232	0.0167427
911.310	0.0164893
911.388	0.0166198
911.466	0.0166770
911.544	0.0168501
911.622	0.0166180
911.700	0.0166607
911.779	0.0166299
911.857	0.0166501
911.935	0.0166362
912.013	0.0165350
912.091	0.0166064
912.169	0.0165112
912.247	0.0163378
912.325	0.0164250
912.404	0.0164674
912.482	0.0163835
912.560	0.0162721
912.638	0.0163960
912.716	0.0162540
912.794	0.0162136
912.872	0.0163103
912.950	0.0163771
913.029	0.0164120
913.107	0.0164053
913.185	0.0164360
913.263	0.0165018
913.341	0.0164787
913.419	0.0164951
913.497	0.0164689
913.575	0.0164510
913.654	0.0165488
913.732	0.0165700
913.810	0.0165077
913.888	0.0164113
913.966	0.0162904
914.044	0.0162239
914.122	0.0162368
914.200	0.0162602
914.279	0.0160809
914.357	0.0161572
914.435	0.0161140
914.513	0.0160963
914.591	0.0160620
914.669	0.0162556
914.747	0.0160628
914.825	0.0160469
914.904	0.0160805
914.982	0.0161154
915.060	0.0161143
915.138	0.0161330
915.216	0.0162415
915.294	0.0161388
915.372	0.0162589
915.450	0.0163290
915.529	0.0164284
915.607	0.0164989
915.685	0.0165897
915.763	0.0165096
915.841	0.0165311
915.919	0.0166191
915.997	0.0166042
916.075	0.0166520
916.154	0.0166933
916.232	0.0167121
916.310	0.0166272
916.388	0.0166176
916.466	0.0165687
916.544	0.0165421
916.622	0.0165538
916.700	0.0166449
916.779	0.0165437
916.857	0.0166130
916.935	0.0163562
917.013	0.0164902
917.091	0.0164745
917.169	0.0164395
917.247	0.0164855
917.325	0.0165690
917.404	0.0164587
917.482	0.0165648
917.560	0.0164165
917.638	0.0163081
917.716	0.0163975
917.794	0.0163971
917.872	0.0163126
917.950	0.0163932
918.029	0.0164780
918.107	0.0164404
918.185	0.0163987
918.263	0.0164121
918.341	0.0164149
918.419	0.0163540
918.497	0.0163006
918.575	0.0163729
918.654	0.0163724
918.732	0.0162486
918.810	0.0161615
918.888	0.0162268
918.966	0.0161623
919.044	0.0162393
919.122	0.0163698
919.200	0.0161980
919.279	0.0162407
919.357	0.0162223
919.435	0.0161793
919.513	0.0162392
919.591	0.0161751
919.669	0.0163208
919.747	0.0162279
919.825	0.0162502
919.904	0.0163528
