06/03/2022	14:07:10	Ver.	4.1	UNKNOWN
Optical Delay	599.981738	Delta X		0.078125	Sweeps	1	Scan Rate	0/0
Coordinates	Axis 1	NaN	Axis 2	NaN	Axis 3	NaN	Axis 4	NaN	Axis 5	NaN	Axis 6	0.000000
TX Power	0.000000	RX Power	0.000000

599.982	0.0166072
600.060	0.0166741
600.138	0.0166479
600.216	0.0166118
600.294	0.0164117
600.372	0.0165743
600.450	0.0165446
600.529	0.0165814
600.607	0.0167155
600.685	0.0164832
600.763	0.0164435
600.841	0.0165450
600.919	0.0165101
600.997	0.0165519
601.075	0.0166534
601.154	0.0166177
601.232	0.0166755
601.310	0.0166271
601.388	0.0168181
601.466	0.0166106
601.544	0.0167161
601.622	0.0166714
601.700	0.0164209
601.779	0.0165515
601.857	0.0167074
601.935	0.0165068
602.013	0.0165154
602.091	0.0167007
602.169	0.0166154
602.247	0.0165840
602.325	0.0166902
602.404	0.0165379
602.482	0.0165125
602.560	0.0166489
602.638	0.0166265
602.716	0.0167082
602.794	0.0166344
602.872	0.0164985
602.950	0.0164722
603.029	0.0166163
603.107	0.0166277
603.185	0.0167156
603.263	0.0167104
603.341	0.0166898
603.419	0.0167317
603.497	0.0166386
603.575	0.0165831
603.654	0.0166021
603.732	0.0165890
603.810	0.0167248
603.888	0.0165366
603.966	0.0166315
604.044	0.0165478
604.122	0.0166888
604.200	0.0166467
604.279	0.0166492
604.357	0.0165871
604.435	0.0166869
604.513	0.0165443
604.591	0.0165583
604.669	0.0165958
604.747	0.0166492
604.825	0.0165113
604.904	0.0166378
604.982	0.0164951
605.060	0.0166068
605.138	0.0167131
605.216	0.0165210
605.294	0.0165845
605.372	0.0165508
605.450	0.0166605
605.529	0.0165019
605.607	0.0165244
605.685	0.0166645
605.763	0.0165702
605.841	0.0165350
605.919	0.0166401
605.997	0.0165768
606.075	0.0164751
606.154	0.0165720
606.232	0.0165665
606.310	0.0164946
606.388	0.0163934
606.466	0.0166070
606.544	0.0166883
606.622	0.0167628
606.700	0.0165763
606.779	0.0166192
606.857	0.0165260
606.935	0.0166538
607.013	0.0166636
607.091	0.0166566
607.169	0.0165511
607.247	0.0166331
607.325	0.0165273
607.404	0.0166261
607.482	0.0167103
607.560	0.0165995
607.638	0.0165683
607.716	0.0166154
607.794	0.0166950
607.872	0.0164963
607.950	0.0166015
608.029	0.0165671
608.107	0.0164738
608.185	0.0164594
608.263	0.0166352
608.341	0.0165024
608.419	0.0165608
608.497	0.0166428
608.575	0.0165635
608.654	0.0166765
608.732	0.0166284
608.810	0.0165321
608.888	0.0166123
608.966	0.0165313
609.044	0.0166315
609.122	0.0166637
609.200	0.0166392
609.279	0.0164767
609.357	0.0166924
609.435	0.0165527
609.513	0.0164873
609.591	0.0166478
609.669	0.0165691
609.747	0.0165302
609.825	0.0166425
609.904	0.0166400
609.982	0.0166395
610.060	0.0165813
610.138	0.0164439
610.216	0.0165647
610.294	0.0165969
610.372	0.0164757
610.450	0.0166064
610.529	0.0165942
610.607	0.0166086
610.685	0.0165501
610.763	0.0166477
610.841	0.0164067
610.919	0.0165238
610.997	0.0166451
611.075	0.0165327
611.154	0.0166601
611.232	0.0165074
611.310	0.0165669
611.388	0.0166642
611.466	0.0166131
611.544	0.0165533
611.622	0.0166433
611.700	0.0166035
611.779	0.0163743
611.857	0.0164783
611.935	0.0165524
612.013	0.0165272
612.091	0.0166033
612.169	0.0164828
612.247	0.0165777
612.325	0.0166472
612.404	0.0166143
612.482	0.0167181
612.560	0.0165451
612.638	0.0164548
612.716	0.0164854
612.794	0.0165845
612.872	0.0166144
612.950	0.0166472
613.029	0.0166251
613.107	0.0164821
613.185	0.0166848
613.263	0.0166103
613.341	0.0165764
613.419	0.0166888
613.497	0.0166151
613.575	0.0166007
613.654	0.0164447
613.732	0.0167077
613.810	0.0166573
613.888	0.0166623
613.966	0.0166752
614.044	0.0166203
614.122	0.0165778
614.200	0.0166240
614.279	0.0168212
614.357	0.0168142
614.435	0.0165299
614.513	0.0165002
614.591	0.0166341
614.669	0.0165989
614.747	0.0167037
614.825	0.0166002
614.904	0.0166728
614.982	0.0165836
615.060	0.0165346
615.138	0.0164858
615.216	0.0165977
615.294	0.0167419
615.372	0.0165952
615.450	0.0166303
615.529	0.0165738
615.607	0.0165896
615.685	0.0165628
615.763	0.0167419
615.841	0.0166461
615.919	0.0165915
615.997	0.0165430
616.075	0.0165757
616.154	0.0167371
616.232	0.0165446
616.310	0.0164954
616.388	0.0166861
616.466	0.0166284
616.544	0.0164855
616.622	0.0165714
616.700	0.0165884
616.779	0.0167271
616.857	0.0165516
616.935	0.0165714
617.013	0.0165182
617.091	0.0166434
617.169	0.0167004
617.247	0.0166488
617.325	0.0165807
617.404	0.0165183
617.482	0.0166290
617.560	0.0166268
617.638	0.0166232
617.716	0.0166409
617.794	0.0165993
617.872	0.0167320
617.950	0.0165935
618.029	0.0165064
618.107	0.0165372
618.185	0.0165820
618.263	0.0167305
618.341	0.0166235
618.419	0.0166876
618.497	0.0167949
618.575	0.0166205
618.654	0.0165501
618.732	0.0167902
618.810	0.0167595
618.888	0.0165528
618.966	0.0167817
619.044	0.0167413
619.122	0.0166875
619.200	0.0166847
619.279	0.0165739
619.357	0.0166589
619.435	0.0166394
619.513	0.0165081
619.591	0.0166443
619.669	0.0167007
619.747	0.0165762
619.825	0.0165285
619.904	0.0165604
619.982	0.0165639
620.060	0.0165874
620.138	0.0164342
620.216	0.0166216
620.294	0.0166025
620.372	0.0165195
620.450	0.0166544
620.529	0.0165876
620.607	0.0165239
620.685	0.0165503
620.763	0.0164342
620.841	0.0167104
620.919	0.0166975
620.997	0.0165874
621.075	0.0165410
621.154	0.0164796
621.232	0.0167200
621.310	0.0166077
621.388	0.0166077
621.466	0.0165366
621.544	0.0165716
621.622	0.0166019
621.700	0.0165444
621.779	0.0166455
621.857	0.0166042
621.935	0.0164300
622.013	0.0166988
622.091	0.0166943
622.169	0.0166485
622.247	0.0166238
622.325	0.0165018
622.404	0.0165865
622.482	0.0166847
622.560	0.0166479
622.638	0.0164377
622.716	0.0166530
622.794	0.0165820
622.872	0.0167239
622.950	0.0167167
623.029	0.0165697
623.107	0.0166055
623.185	0.0164797
623.263	0.0166839
623.341	0.0166077
623.419	0.0167623
623.497	0.0165800
623.575	0.0166321
623.654	0.0167020
623.732	0.0166430
623.810	0.0165945
623.888	0.0168072
623.966	0.0166275
624.044	0.0166685
624.122	0.0166550
624.200	0.0166870
624.279	0.0166374
624.357	0.0166270
624.435	0.0167035
624.513	0.0165696
624.591	0.0165836
624.669	0.0166822
624.747	0.0166036
624.825	0.0164839
624.904	0.0164764
624.982	0.0164446
625.060	0.0165344
625.138	0.0165834
625.216	0.0167211
625.294	0.0165514
625.372	0.0165202
625.450	0.0165749
625.529	0.0165731
625.607	0.0165419
625.685	0.0164623
625.763	0.0165498
625.841	0.0165443
625.919	0.0166528
625.997	0.0165943
626.075	0.0166117
626.154	0.0165653
626.232	0.0166113
626.310	0.0165997
626.388	0.0165535
626.466	0.0165485
626.544	0.0165970
626.622	0.0165582
626.700	0.0166369
626.779	0.0165459
626.857	0.0165353
626.935	0.0166711
627.013	0.0166871
627.091	0.0166740
627.169	0.0166878
627.247	0.0165318
627.325	0.0165762
627.404	0.0167771
627.482	0.0166298
627.560	0.0165918
627.638	0.0165699
627.716	0.0166798
627.794	0.0166042
627.872	0.0167100
627.950	0.0165989
628.029	0.0164968
628.107	0.0166582
628.185	0.0167034
628.263	0.0164941
628.341	0.0166073
628.419	0.0168174
628.497	0.0165058
628.575	0.0166312
628.654	0.0165952
628.732	0.0166213
628.810	0.0165980
628.888	0.0165135
628.966	0.0166341
629.044	0.0166314
629.122	0.0166046
629.200	0.0166877
629.279	0.0165937
629.357	0.0167019
629.435	0.0166144
629.513	0.0164679
629.591	0.0165483
629.669	0.0166940
629.747	0.0166534
629.825	0.0167122
629.904	0.0165911
629.982	0.0164998
630.060	0.0166708
630.138	0.0166482
630.216	0.0167505
630.294	0.0166112
630.372	0.0167158
630.450	0.0166151
630.529	0.0166457
630.607	0.0164880
630.685	0.0165646
630.763	0.0165738
630.841	0.0166351
630.919	0.0166693
630.997	0.0166369
631.075	0.0166157
631.154	0.0164208
631.232	0.0165789
631.310	0.0166337
631.388	0.0164448
631.466	0.0166623
631.544	0.0166249
631.622	0.0166241
631.700	0.0165400
631.779	0.0166682
631.857	0.0166955
631.935	0.0166525
632.013	0.0165466
632.091	0.0165896
632.169	0.0165479
632.247	0.0165288
632.325	0.0166589
632.404	0.0166486
632.482	0.0165359
632.560	0.0165221
632.638	0.0165714
632.716	0.0166051
632.794	0.0166561
632.872	0.0166213
632.950	0.0166671
633.029	0.0165550
633.107	0.0166099
633.185	0.0165611
633.263	0.0166502
633.341	0.0165695
633.419	0.0165401
633.497	0.0166084
633.575	0.0165496
633.654	0.0165734
633.732	0.0167065
633.810	0.0166158
633.888	0.0165865
633.966	0.0166997
634.044	0.0166906
634.122	0.0167370
634.200	0.0165904
634.279	0.0165463
634.357	0.0166037
634.435	0.0166556
634.513	0.0165598
634.591	0.0164922
634.669	0.0166827
634.747	0.0165688
634.825	0.0165462
634.904	0.0165982
634.982	0.0164339
635.060	0.0165488
635.138	0.0166370
635.216	0.0165905
635.294	0.0164706
635.372	0.0165627
635.450	0.0167056
635.529	0.0165450
635.607	0.0164311
635.685	0.0165958
635.763	0.0166839
635.841	0.0165076
635.919	0.0166116
635.997	0.0165244
636.075	0.0165788
636.154	0.0166074
636.232	0.0166599
636.310	0.0165350
636.388	0.0165020
636.466	0.0166273
636.544	0.0167582
636.622	0.0166094
636.700	0.0166689
636.779	0.0165784
636.857	0.0164756
636.935	0.0165626
637.013	0.0166640
637.091	0.0166273
637.169	0.0165997
637.247	0.0166634
637.325	0.0165582
637.404	0.0165823
637.482	0.0166185
637.560	0.0164790
637.638	0.0165975
637.716	0.0166609
637.794	0.0165028
637.872	0.0165644
637.950	0.0166232
638.029	0.0165817
638.107	0.0166106
638.185	0.0166009
638.263	0.0164920
638.341	0.0165597
638.419	0.0164973
638.497	0.0167078
638.575	0.0165722
638.654	0.0166586
638.732	0.0166884
638.810	0.0166607
638.888	0.0166345
638.966	0.0166705
639.044	0.0166231
639.122	0.0165956
639.200	0.0166594
639.279	0.0165539
639.357	0.0165269
639.435	0.0165755
639.513	0.0165816
639.591	0.0166199
639.669	0.0165174
639.747	0.0165715
639.825	0.0164503
639.904	0.0164826
639.982	0.0165762
640.060	0.0166027
640.138	0.0166140
640.216	0.0165343
640.294	0.0163960
640.372	0.0165733
640.450	0.0165431
640.529	0.0164234
640.607	0.0165439
640.685	0.0164736
640.763	0.0165792
640.841	0.0164647
640.919	0.0164645
640.997	0.0165339
641.075	0.0165287
641.154	0.0165009
641.232	0.0165067
641.310	0.0166130
641.388	0.0164706
641.466	0.0165208
641.544	0.0165823
641.622	0.0165789
641.700	0.0164671
641.779	0.0164365
641.857	0.0163587
641.935	0.0166071
642.013	0.0167020
642.091	0.0165159
642.169	0.0165377
642.247	0.0166107
642.325	0.0165917
642.404	0.0166781
642.482	0.0165908
642.560	0.0164952
642.638	0.0165144
642.716	0.0166756
642.794	0.0164848
642.872	0.0165559
642.950	0.0166199
643.029	0.0166247
643.107	0.0166510
643.185	0.0167817
643.263	0.0166321
643.341	0.0165835
643.419	0.0165887
643.497	0.0166520
643.575	0.0165993
643.654	0.0165873
643.732	0.0167107
643.810	0.0166000
643.888	0.0166705
643.966	0.0166054
644.044	0.0164888
644.122	0.0167279
644.200	0.0166911
644.279	0.0166103
644.357	0.0166222
644.435	0.0165959
644.513	0.0166508
644.591	0.0165237
644.669	0.0164992
644.747	0.0164796
644.825	0.0165904
644.904	0.0165833
644.982	0.0165314
645.060	0.0165690
645.138	0.0166137
645.216	0.0166533
645.294	0.0165372
645.372	0.0165319
645.450	0.0165420
645.529	0.0166287
645.607	0.0166802
645.685	0.0164668
645.763	0.0166002
645.841	0.0166377
645.919	0.0165796
645.997	0.0166405
646.075	0.0166851
646.154	0.0165395
646.232	0.0165535
646.310	0.0166483
646.388	0.0166239
646.466	0.0166442
646.544	0.0165484
646.622	0.0165368
646.700	0.0165121
646.779	0.0167260
646.857	0.0167579
646.935	0.0165170
647.013	0.0165626
647.091	0.0166676
647.169	0.0165363
647.247	0.0165510
647.325	0.0167433
647.404	0.0167147
647.482	0.0165159
647.560	0.0165446
647.638	0.0165172
647.716	0.0165705
647.794	0.0166378
647.872	0.0166273
647.950	0.0165725
648.029	0.0164936
648.107	0.0165959
648.185	0.0165546
648.263	0.0166784
648.341	0.0165779
648.419	0.0165276
648.497	0.0165919
648.575	0.0165723
648.654	0.0166608
648.732	0.0164928
648.810	0.0165923
648.888	0.0164841
648.966	0.0165763
649.044	0.0166521
649.122	0.0165710
649.200	0.0166776
649.279	0.0165499
649.357	0.0164124
649.435	0.0164606
649.513	0.0166279
649.591	0.0165839
649.669	0.0165960
649.747	0.0166341
649.825	0.0164789
649.904	0.0164642
649.982	0.0165613
650.060	0.0166013
650.138	0.0165127
650.216	0.0166254
650.294	0.0166881
650.372	0.0166090
650.450	0.0165460
650.529	0.0167374
650.607	0.0167277
650.685	0.0165560
650.763	0.0166498
650.841	0.0165536
650.919	0.0166031
650.997	0.0166432
651.075	0.0166146
651.154	0.0166753
651.232	0.0166319
651.310	0.0167004
651.388	0.0166610
651.466	0.0166304
651.544	0.0166791
651.622	0.0164662
651.700	0.0167657
651.779	0.0165908
651.857	0.0165096
651.935	0.0165625
652.013	0.0165571
652.091	0.0166563
652.169	0.0166680
652.247	0.0166102
652.325	0.0166411
652.404	0.0164920
652.482	0.0166592
652.560	0.0167336
652.638	0.0166195
652.716	0.0166408
652.794	0.0165602
652.872	0.0166429
652.950	0.0166449
653.029	0.0165474
653.107	0.0165034
653.185	0.0165386
653.263	0.0166026
653.341	0.0166511
653.419	0.0165096
653.497	0.0165594
653.575	0.0166713
653.654	0.0166316
653.732	0.0165321
653.810	0.0165655
653.888	0.0166174
653.966	0.0166715
654.044	0.0166427
654.122	0.0164687
654.200	0.0165374
654.279	0.0165016
654.357	0.0165143
654.435	0.0165283
654.513	0.0166311
654.591	0.0165282
654.669	0.0164021
654.747	0.0165267
654.825	0.0165155
654.904	0.0165263
654.982	0.0166541
655.060	0.0166840
655.138	0.0166377
655.216	0.0164858
655.294	0.0166724
655.372	0.0166394
655.450	0.0165872
655.529	0.0164776
655.607	0.0165614
655.685	0.0165279
655.763	0.0165053
655.841	0.0166768
655.919	0.0166070
655.997	0.0165147
656.075	0.0163104
656.154	0.0165528
656.232	0.0165138
656.310	0.0165145
656.388	0.0165775
656.466	0.0167060
656.544	0.0166499
656.622	0.0166257
656.700	0.0165169
656.779	0.0165937
656.857	0.0166409
656.935	0.0167039
657.013	0.0165588
657.091	0.0165476
657.169	0.0167287
657.247	0.0167341
657.325	0.0168120
657.404	0.0165743
657.482	0.0165473
657.560	0.0165147
657.638	0.0165259
657.716	0.0165032
657.794	0.0164401
657.872	0.0163626
657.950	0.0164896
658.029	0.0165970
658.107	0.0166031
658.185	0.0166978
658.263	0.0166930
658.341	0.0167279
658.419	0.0167393
658.497	0.0167068
658.575	0.0166389
658.654	0.0167347
658.732	0.0167686
658.810	0.0166727
658.888	0.0165585
658.966	0.0166431
659.044	0.0165813
659.122	0.0165463
659.200	0.0164867
659.279	0.0164688
659.357	0.0164443
659.435	0.0165361
659.513	0.0164984
659.591	0.0164104
659.669	0.0165550
659.747	0.0165529
659.825	0.0165387
659.904	0.0166761
659.982	0.0166817
660.060	0.0167697
660.138	0.0166775
660.216	0.0166334
660.294	0.0166141
660.372	0.0166438
660.450	0.0166783
660.529	0.0165831
660.607	0.0164816
660.685	0.0165320
660.763	0.0164417
660.841	0.0164161
660.919	0.0165288
660.997	0.0165694
661.075	0.0165302
661.154	0.0164685
661.232	0.0164881
661.310	0.0164518
661.388	0.0165608
661.466	0.0164736
661.544	0.0164680
661.622	0.0164658
661.700	0.0165241
661.779	0.0164901
661.857	0.0165091
661.935	0.0164626
662.013	0.0164021
662.091	0.0163561
662.169	0.0165531
662.247	0.0165079
662.325	0.0165516
662.404	0.0166541
662.482	0.0166811
662.560	0.0165862
662.638	0.0167081
662.716	0.0166387
662.794	0.0166056
662.872	0.0166123
662.950	0.0167113
663.029	0.0166772
663.107	0.0166978
663.185	0.0166190
663.263	0.0165617
663.341	0.0165404
663.419	0.0165801
663.497	0.0164407
663.575	0.0166376
663.654	0.0164473
663.732	0.0163686
663.810	0.0164053
663.888	0.0165166
663.966	0.0166656
664.044	0.0165497
664.122	0.0164490
664.200	0.0164500
664.279	0.0165960
664.357	0.0166334
664.435	0.0167434
664.513	0.0167671
664.591	0.0164536
664.669	0.0165607
664.747	0.0165232
664.825	0.0166296
664.904	0.0164797
664.982	0.0165260
665.060	0.0165827
665.138	0.0165736
665.216	0.0165096
665.294	0.0164350
665.372	0.0163634
665.450	0.0165703
665.529	0.0165234
665.607	0.0165391
665.685	0.0165429
665.763	0.0165018
665.841	0.0164580
665.919	0.0164043
665.997	0.0166208
666.075	0.0167166
666.154	0.0166522
666.232	0.0163412
666.310	0.0164907
666.388	0.0165175
666.466	0.0163617
666.544	0.0166125
666.622	0.0163705
666.700	0.0163898
666.779	0.0164495
666.857	0.0164725
666.935	0.0165455
667.013	0.0164732
667.091	0.0165597
667.169	0.0166368
667.247	0.0165134
667.325	0.0165230
667.404	0.0165515
667.482	0.0165969
667.560	0.0165103
667.638	0.0166078
667.716	0.0166965
667.794	0.0165947
667.872	0.0167432
667.950	0.0165366
668.029	0.0166379
668.107	0.0166615
668.185	0.0165662
668.263	0.0167178
668.341	0.0166477
668.419	0.0166331
668.497	0.0166547
668.575	0.0168079
668.654	0.0168265
668.732	0.0167664
668.810	0.0167913
668.888	0.0168488
668.966	0.0167589
669.044	0.0165791
669.122	0.0166193
669.200	0.0164639
669.279	0.0163348
669.357	0.0163456
669.435	0.0163538
669.513	0.0162641
669.591	0.0161576
669.669	0.0161808
669.747	0.0161134
669.825	0.0162341
669.904	0.0163203
669.982	0.0163206
670.060	0.0163513
670.138	0.0163844
670.216	0.0164791
670.294	0.0165397
670.372	0.0165854
670.450	0.0167139
670.529	0.0167041
670.607	0.0168591
670.685	0.0167702
670.763	0.0167616
670.841	0.0168190
670.919	0.0167660
670.997	0.0165845
671.075	0.0167757
671.154	0.0168681
671.232	0.0167818
671.310	0.0165911
671.388	0.0166685
671.466	0.0165797
671.544	0.0166113
671.622	0.0166640
671.700	0.0166622
671.779	0.0165723
671.857	0.0165450
671.935	0.0165289
672.013	0.0165210
672.091	0.0167315
672.169	0.0165918
672.247	0.0165654
672.325	0.0166197
672.404	0.0166772
672.482	0.0166005
672.560	0.0166425
672.638	0.0167210
672.716	0.0167400
672.794	0.0167388
672.872	0.0167455
672.950	0.0167527
673.029	0.0167183
673.107	0.0168682
673.185	0.0167097
673.263	0.0166338
673.341	0.0166923
673.419	0.0166154
673.497	0.0165724
673.575	0.0165123
673.654	0.0165294
673.732	0.0165542
673.810	0.0165144
673.888	0.0163523
673.966	0.0163356
674.044	0.0163341
674.122	0.0164049
674.200	0.0164107
674.279	0.0163391
674.357	0.0163117
674.435	0.0163160
674.513	0.0163409
674.591	0.0165293
674.669	0.0164215
674.747	0.0162793
674.825	0.0166191
674.904	0.0166381
674.982	0.0165773
675.060	0.0166312
675.138	0.0167921
675.216	0.0168967
675.294	0.0169398
675.372	0.0166957
675.450	0.0167580
675.529	0.0168890
675.607	0.0167095
675.685	0.0166702
675.763	0.0166319
675.841	0.0165706
675.919	0.0165315
675.997	0.0164555
676.075	0.0164599
676.154	0.0164854
676.232	0.0166388
676.310	0.0164411
676.388	0.0166348
676.466	0.0168734
676.544	0.0169968
676.622	0.0170611
676.700	0.0171513
676.779	0.0172594
676.857	0.0172166
676.935	0.0172100
677.013	0.0169907
677.091	0.0167271
677.169	0.0165138
677.247	0.0162789
677.325	0.0159719
677.404	0.0157868
677.482	0.0157067
677.560	0.0156455
677.638	0.0157894
677.716	0.0157018
677.794	0.0159193
677.872	0.0161246
677.950	0.0164397
678.029	0.0167523
678.107	0.0171124
678.185	0.0173608
678.263	0.0176583
678.341	0.0178405
678.419	0.0178027
678.497	0.0179413
678.575	0.0178903
678.654	0.0178308
678.732	0.0176778
678.810	0.0174020
678.888	0.0174242
678.966	0.0173768
679.044	0.0170242
679.122	0.0169801
679.200	0.0170174
679.279	0.0168610
679.357	0.0164928
679.435	0.0162218
679.513	0.0159602
679.591	0.0157413
679.669	0.0153830
679.747	0.0149169
679.825	0.0145792
679.904	0.0143567
679.982	0.0140050
680.060	0.0141154
680.138	0.0142249
680.216	0.0143977
680.294	0.0148261
680.372	0.0153886
680.450	0.0159448
680.529	0.0162998
680.607	0.0169005
680.685	0.0174950
680.763	0.0176797
680.841	0.0179646
680.919	0.0179707
680.997	0.0177663
681.075	0.0176131
681.154	0.0172912
681.232	0.0171042
681.310	0.0167023
681.388	0.0163728
681.466	0.0159992
681.544	0.0158691
681.622	0.0158227
681.700	0.0157921
681.779	0.0158935
681.857	0.0159772
681.935	0.0163087
682.013	0.0167568
682.091	0.0171352
682.169	0.0176110
682.247	0.0180544
682.325	0.0183450
682.404	0.0187139
682.482	0.0188702
682.560	0.0188515
682.638	0.0189461
682.716	0.0188041
682.794	0.0184425
682.872	0.0179937
682.950	0.0174644
683.029	0.0170351
683.107	0.0167741
683.185	0.0163287
683.263	0.0161800
683.341	0.0161763
683.419	0.0163624
683.497	0.0165617
683.575	0.0167399
683.654	0.0169862
683.732	0.0172897
683.810	0.0173596
683.888	0.0174303
683.966	0.0173085
684.044	0.0171352
684.122	0.0167493
684.200	0.0162733
684.279	0.0156158
684.357	0.0150608
684.435	0.0144378
684.513	0.0138434
684.591	0.0133407
684.669	0.0130108
684.747	0.0129934
684.825	0.0128883
684.904	0.0131978
684.982	0.0133738
685.060	0.0139069
685.138	0.0143186
685.216	0.0149128
685.294	0.0153347
685.372	0.0157597
685.450	0.0159769
685.529	0.0162891
685.607	0.0167049
685.685	0.0168493
685.763	0.0168945
685.841	0.0169922
685.919	0.0169846
685.997	0.0170146
686.075	0.0170088
686.154	0.0170072
686.232	0.0169970
686.310	0.0171275
686.388	0.0172500
686.466	0.0172047
686.544	0.0174223
686.622	0.0176386
686.700	0.0178241
686.779	0.0178760
686.857	0.0179948
686.935	0.0179120
687.013	0.0178680
687.091	0.0176808
687.169	0.0175575
687.247	0.0174504
687.325	0.0174236
687.404	0.0172605
687.482	0.0171600
687.560	0.0173058
687.638	0.0174396
687.716	0.0175399
687.794	0.0177824
687.872	0.0179010
687.950	0.0180522
688.029	0.0182674
688.107	0.0181591
688.185	0.0180993
688.263	0.0179726
688.341	0.0177223
688.419	0.0175843
688.497	0.0172598
688.575	0.0169688
688.654	0.0167412
688.732	0.0164526
688.810	0.0162942
688.888	0.0161619
688.966	0.0160316
689.044	0.0159634
689.122	0.0159249
689.200	0.0159792
689.279	0.0160625
689.357	0.0161054
689.435	0.0160043
689.513	0.0160731
689.591	0.0160737
689.669	0.0160716
689.747	0.0158019
689.825	0.0158506
689.904	0.0156234
689.982	0.0154633
690.060	0.0154968
690.138	0.0156127
690.216	0.0155079
690.294	0.0157884
690.372	0.0160560
690.450	0.0161510
690.529	0.0165548
690.607	0.0168151
690.685	0.0172868
690.763	0.0175031
690.841	0.0176746
690.919	0.0177271
690.997	0.0175596
691.075	0.0171750
691.154	0.0166492
691.232	0.0158073
691.310	0.0149001
691.388	0.0139677
691.466	0.0127866
691.544	0.0118244
691.622	0.0109041
691.700	0.0100960
691.779	0.00940742
691.857	0.00879761
691.935	0.00872971
692.013	0.00888336
692.091	0.00912590
692.169	0.00986328
692.247	0.0108516
692.325	0.0119640
692.404	0.0134219
692.482	0.0148887
692.560	0.0163590
692.638	0.0180457
692.716	0.0196629
692.794	0.0211823
692.872	0.0227673
692.950	0.0239964
693.029	0.0250886
693.107	0.0261105
693.185	0.0269139
693.263	0.0274162
693.341	0.0277927
693.419	0.0278547
693.497	0.0277425
693.575	0.0272696
693.654	0.0266669
693.732	0.0259013
693.810	0.0247549
693.888	0.0235186
693.966	0.0223407
694.044	0.0210081
694.122	0.0196432
694.200	0.0183270
694.279	0.0174506
694.357	0.0164789
694.435	0.0156548
694.513	0.0150241
694.591	0.0146912
694.669	0.0139163
694.747	0.0134874
694.825	0.0131031
694.904	0.0124394
694.982	0.0119259
695.060	0.0115230
695.138	0.0112188
695.216	0.0108614
695.294	0.0107216
695.372	0.0105383
695.450	0.0103514
695.529	0.0104888
695.607	0.0103339
695.685	0.0102245
695.763	0.0103556
695.841	0.0105379
695.919	0.0108659
695.997	0.0109297
696.075	0.0109769
696.154	0.0110331
696.232	0.0109329
696.310	0.0110667
696.388	0.0105860
696.466	0.0102754
696.544	0.00995255
696.622	0.00985954
696.700	0.00965569
696.779	0.00959549
696.857	0.00996262
696.935	0.0103759
697.013	0.0109761
697.091	0.0118023
697.169	0.0130557
697.247	0.0145969
697.325	0.0161374
697.404	0.0180043
697.482	0.0199007
697.560	0.0218453
697.638	0.0235869
697.716	0.0253947
697.794	0.0270251
697.872	0.0283955
697.950	0.0294311
698.029	0.0301969
698.107	0.0306318
698.185	0.0308155
698.263	0.0305843
698.341	0.0300790
698.419	0.0292639
698.497	0.0284438
698.575	0.0272110
698.654	0.0260950
698.732	0.0248221
698.810	0.0234871
698.888	0.0220353
698.966	0.0206734
699.044	0.0192895
699.122	0.0181582
699.200	0.0171220
699.279	0.0158735
699.357	0.0150189
699.435	0.0140481
699.513	0.0133138
699.591	0.0125442
699.669	0.0118462
699.747	0.0109778
699.825	0.0104727
699.904	0.0100832
699.982	0.00955475
700.060	0.00935440
700.138	0.00928749
700.216	0.00913368
700.294	0.00920868
700.372	0.00940216
700.450	0.00980759
700.529	0.00990669
700.607	0.0102023
700.685	0.0105270
700.763	0.0108907
700.841	0.0112368
700.919	0.0114703
700.997	0.0116758
701.075	0.0118136
701.154	0.0118813
701.232	0.0117583
701.310	0.0116971
701.388	0.0115657
701.466	0.0112080
701.544	0.0111328
701.622	0.0110740
701.700	0.0113304
701.779	0.0115529
701.857	0.0120116
701.935	0.0126347
702.013	0.0137003
702.091	0.0147302
702.169	0.0158736
702.247	0.0172917
702.325	0.0187814
702.404	0.0204475
702.482	0.0220409
702.560	0.0236580
702.638	0.0251597
702.716	0.0262590
702.794	0.0274501
702.872	0.0281581
702.950	0.0285065
703.029	0.0286192
703.107	0.0284844
703.185	0.0280268
703.263	0.0273722
703.341	0.0265216
703.419	0.0254805
703.497	0.0243506
703.575	0.0233735
703.654	0.0220522
703.732	0.0207483
703.810	0.0196510
703.888	0.0185125
703.966	0.0173793
704.044	0.0164494
704.122	0.0157213
704.200	0.0147852
704.279	0.0140736
704.357	0.0135612
704.435	0.0127699
704.513	0.0123612
704.591	0.0118202
704.669	0.0113413
704.747	0.0110123
704.825	0.0107705
704.904	0.0105547
704.982	0.0104730
705.060	0.0106843
705.138	0.0109078
705.216	0.0112537
705.294	0.0115907
705.372	0.0119051
705.450	0.0125391
705.529	0.0130947
705.607	0.0136749
705.685	0.0141216
705.763	0.0146227
705.841	0.0149365
705.919	0.0153143
705.997	0.0154093
706.075	0.0153755
706.154	0.0153482
706.232	0.0151976
706.310	0.0149109
706.388	0.0145471
706.466	0.0143578
706.544	0.0139309
706.622	0.0136501
706.700	0.0137243
706.779	0.0136581
706.857	0.0138525
706.935	0.0140995
707.013	0.0144754
707.091	0.0152036
707.169	0.0158324
707.247	0.0167572
707.325	0.0176442
707.404	0.0185892
707.482	0.0197589
707.560	0.0209536
707.638	0.0218990
707.716	0.0227979
707.794	0.0238106
707.872	0.0242323
707.950	0.0245409
708.029	0.0246309
708.107	0.0245524
708.185	0.0241235
708.263	0.0237021
708.341	0.0229427
708.419	0.0221873
708.497	0.0214780
708.575	0.0206892
708.654	0.0196057
708.732	0.0188630
708.810	0.0180937
708.888	0.0171514
708.966	0.0166656
709.044	0.0161058
709.122	0.0155360
709.200	0.0151360
709.279	0.0147441
709.357	0.0147056
709.435	0.0142715
709.513	0.0140408
709.591	0.0140728
709.669	0.0136900
709.747	0.0136024
709.825	0.0134631
709.904	0.0132518
709.982	0.0130946
710.060	0.0131663
710.138	0.0130190
710.216	0.0128294
710.294	0.0129562
710.372	0.0130624
710.450	0.0130734
710.529	0.0131509
710.607	0.0132433
710.685	0.0132633
710.763	0.0133052
710.841	0.0133996
710.919	0.0133807
710.997	0.0135680
711.075	0.0135023
711.154	0.0134852
711.232	0.0136351
711.310	0.0137489
711.388	0.0140006
711.466	0.0140938
711.544	0.0141595
711.622	0.0144772
711.700	0.0147864
711.779	0.0151948
711.857	0.0158510
711.935	0.0163020
712.013	0.0167960
712.091	0.0173746
712.169	0.0179890
712.247	0.0187679
712.325	0.0196309
712.404	0.0202721
712.482	0.0209010
712.560	0.0216360
712.638	0.0222203
712.716	0.0228667
712.794	0.0231045
712.872	0.0232262
712.950	0.0232920
713.029	0.0230173
713.107	0.0226660
713.185	0.0222978
713.263	0.0218410
713.341	0.0212634
713.419	0.0204740
713.497	0.0196404
713.575	0.0189503
713.654	0.0181404
713.732	0.0174023
713.810	0.0167416
713.888	0.0162717
713.966	0.0157781
714.044	0.0154478
714.122	0.0150735
714.200	0.0146863
714.279	0.0144304
714.357	0.0143201
714.435	0.0143067
714.513	0.0142647
714.591	0.0143021
714.669	0.0143775
714.747	0.0142204
714.825	0.0141525
714.904	0.0142334
714.982	0.0142815
715.060	0.0141724
715.138	0.0141245
715.216	0.0143042
715.294	0.0142851
715.372	0.0143732
715.450	0.0143102
715.529	0.0143470
715.607	0.0141560
715.685	0.0141018
715.763	0.0138754
715.841	0.0136237
715.919	0.0135071
715.997	0.0134652
716.075	0.0133706
716.154	0.0134264
716.232	0.0133964
716.310	0.0135297
716.388	0.0135846
716.466	0.0138724
716.544	0.0142542
716.622	0.0145222
716.700	0.0150283
716.779	0.0156413
716.857	0.0162005
716.935	0.0167192
717.013	0.0173376
717.091	0.0181375
717.169	0.0188124
717.247	0.0194337
717.325	0.0202562
717.404	0.0206146
717.482	0.0209578
717.560	0.0214433
717.638	0.0214469
717.716	0.0215205
717.794	0.0214022
717.872	0.0212804
717.950	0.0209270
718.029	0.0205560
718.107	0.0201132
718.185	0.0196509
718.263	0.0190049
718.341	0.0184598
718.419	0.0178889
718.497	0.0172964
718.575	0.0166965
718.654	0.0161960
718.732	0.0157394
718.810	0.0155193
718.888	0.0152360
718.966	0.0150788
719.044	0.0150315
719.122	0.0147442
719.200	0.0148568
719.279	0.0149696
719.357	0.0149293
719.435	0.0149687
719.513	0.0150449
719.591	0.0152637
719.669	0.0151865
719.747	0.0154677
719.825	0.0155171
719.904	0.0155644
719.982	0.0157112
720.060	0.0158138
720.138	0.0159486
720.216	0.0159287
720.294	0.0161620
720.372	0.0163402
720.450	0.0162641
720.529	0.0162666
720.607	0.0163216
720.685	0.0164675
720.763	0.0164369
720.841	0.0163821
720.919	0.0163444
720.997	0.0163155
721.075	0.0161549
721.154	0.0160209
721.232	0.0158194
721.310	0.0156493
721.388	0.0154755
721.466	0.0153879
721.544	0.0153054
721.622	0.0153790
721.700	0.0154366
721.779	0.0154236
721.857	0.0155641
721.935	0.0159473
722.013	0.0161916
722.091	0.0164359
722.169	0.0168079
722.247	0.0170795
722.325	0.0175156
722.404	0.0179240
722.482	0.0180997
722.560	0.0182999
722.638	0.0185956
722.716	0.0184992
722.794	0.0185085
722.872	0.0185026
722.950	0.0184309
723.029	0.0182630
723.107	0.0181026
723.185	0.0177180
723.263	0.0172758
723.341	0.0170289
723.419	0.0165323
723.497	0.0163095
723.575	0.0159061
723.654	0.0156443
723.732	0.0153307
723.810	0.0151027
723.888	0.0151200
723.966	0.0150356
724.044	0.0149438
724.122	0.0150685
724.200	0.0152998
724.279	0.0154669
724.357	0.0155188
724.435	0.0157655
724.513	0.0158768
724.591	0.0161121
724.669	0.0163389
724.747	0.0165202
724.825	0.0167040
724.904	0.0169082
724.982	0.0169509
725.060	0.0171189
725.138	0.0171717
725.216	0.0171000
725.294	0.0172291
725.372	0.0172829
725.450	0.0171996
725.529	0.0172393
725.607	0.0174575
725.685	0.0174496
725.763	0.0175254
725.841	0.0173531
725.919	0.0171961
725.997	0.0171056
726.075	0.0170273
726.154	0.0168216
726.232	0.0165992
726.310	0.0162792
726.388	0.0162463
726.466	0.0158319
726.544	0.0159394
726.622	0.0158228
726.700	0.0156126
726.779	0.0156042
726.857	0.0155163
726.935	0.0154005
727.013	0.0156206
727.091	0.0158466
727.169	0.0159451
727.247	0.0161620
727.325	0.0164549
727.404	0.0167303
727.482	0.0168824
727.560	0.0173033
727.638	0.0174483
727.716	0.0175292
727.794	0.0176341
727.872	0.0176162
727.950	0.0176050
728.029	0.0174823
728.107	0.0174249
728.185	0.0171974
728.263	0.0170128
728.341	0.0168444
728.419	0.0165804
728.497	0.0165725
728.575	0.0164044
728.654	0.0160708
728.732	0.0158616
728.810	0.0157788
728.888	0.0159418
728.966	0.0159027
729.044	0.0160572
729.122	0.0161402
729.200	0.0162925
729.279	0.0165245
729.357	0.0166643
729.435	0.0168067
729.513	0.0169418
729.591	0.0171191
729.669	0.0172311
729.747	0.0174100
729.825	0.0172884
729.904	0.0172173
729.982	0.0173539
730.060	0.0172670
730.138	0.0171239
730.216	0.0169386
730.294	0.0168001
730.372	0.0166136
730.450	0.0165908
730.529	0.0166086
730.607	0.0163988
730.685	0.0162374
730.763	0.0160860
730.841	0.0161902
730.919	0.0159944
730.997	0.0159560
731.075	0.0160110
731.154	0.0160212
731.232	0.0159774
731.310	0.0161525
731.388	0.0160362
731.466	0.0162408
731.544	0.0163698
731.622	0.0165067
731.700	0.0164051
731.779	0.0165017
731.857	0.0167419
731.935	0.0167167
732.013	0.0166618
732.091	0.0167241
732.169	0.0167574
732.247	0.0167035
732.325	0.0167760
732.404	0.0165746
732.482	0.0167364
732.560	0.0166921
732.638	0.0165770
732.716	0.0165370
732.794	0.0163705
732.872	0.0163535
732.950	0.0164044
733.029	0.0163205
733.107	0.0164208
733.185	0.0163820
733.263	0.0163839
733.341	0.0163117
733.419	0.0164871
733.497	0.0165498
733.575	0.0165252
733.654	0.0164383
733.732	0.0165709
733.810	0.0166911
733.888	0.0166154
733.966	0.0167496
734.044	0.0166341
734.122	0.0166433
734.200	0.0165906
734.279	0.0166530
734.357	0.0166455
734.435	0.0169327
734.513	0.0167811
734.591	0.0167793
734.669	0.0167978
734.747	0.0169030
734.825	0.0169841
734.904	0.0170264
734.982	0.0172007
735.060	0.0171594
735.138	0.0170614
735.216	0.0172034
735.294	0.0172856
735.372	0.0172192
735.450	0.0170589
735.529	0.0169034
735.607	0.0170473
735.685	0.0170592
735.763	0.0168858
735.841	0.0165412
735.919	0.0164776
735.997	0.0164001
736.075	0.0163043
736.154	0.0161819
736.232	0.0160497
736.310	0.0159837
736.388	0.0159678
736.466	0.0159306
736.544	0.0158057
736.622	0.0158646
736.700	0.0158086
736.779	0.0158125
736.857	0.0158900
736.935	0.0159525
737.013	0.0160545
737.091	0.0162380
737.169	0.0163061
737.247	0.0164698
737.325	0.0165598
737.404	0.0167606
737.482	0.0167675
737.560	0.0169091
737.638	0.0169444
737.716	0.0170367
737.794	0.0171025
737.872	0.0170971
737.950	0.0172826
738.029	0.0171712
738.107	0.0171898
738.185	0.0171941
738.263	0.0171725
738.341	0.0169895
738.419	0.0169130
738.497	0.0168879
738.575	0.0168102
738.654	0.0166630
738.732	0.0162357
738.810	0.0163206
738.888	0.0163162
738.966	0.0162156
739.044	0.0160808
739.122	0.0160505
739.200	0.0160307
739.279	0.0160335
739.357	0.0160362
739.435	0.0160986
739.513	0.0160706
739.591	0.0162114
739.669	0.0162392
739.747	0.0161793
739.825	0.0161827
739.904	0.0164553
739.982	0.0164676
740.060	0.0164509
740.138	0.0165468
740.216	0.0165054
740.294	0.0166398
740.372	0.0166299
740.450	0.0165378
740.529	0.0166619
740.607	0.0167091
740.685	0.0165668
740.763	0.0164158
740.841	0.0164589
740.919	0.0164576
740.997	0.0166085
741.075	0.0163901
741.154	0.0162885
741.232	0.0162350
741.310	0.0162283
741.388	0.0162088
741.466	0.0161650
741.544	0.0161793
741.622	0.0161655
741.700	0.0162313
741.779	0.0162479
741.857	0.0163196
741.935	0.0164019
742.013	0.0165979
742.091	0.0166559
742.169	0.0167728
742.247	0.0168356
742.325	0.0169562
742.404	0.0169675
742.482	0.0170770
742.560	0.0172161
742.638	0.0173791
742.716	0.0172691
742.794	0.0173798
742.872	0.0175298
742.950	0.0173497
743.029	0.0174696
743.107	0.0175045
743.185	0.0173985
743.263	0.0174606
743.341	0.0173373
743.419	0.0173123
743.497	0.0170355
743.575	0.0170513
743.654	0.0169622
743.732	0.0169086
743.810	0.0166798
743.888	0.0166830
743.966	0.0165198
744.044	0.0164611
744.122	0.0162965
744.200	0.0164326
744.279	0.0164893
744.357	0.0163751
744.435	0.0163201
744.513	0.0163042
744.591	0.0163439
744.669	0.0162572
744.747	0.0161858
744.825	0.0159821
744.904	0.0160463
744.982	0.0159366
745.060	0.0157599
745.138	0.0157082
745.216	0.0155926
745.294	0.0155173
745.372	0.0156361
745.450	0.0153293
745.529	0.0152445
745.607	0.0152416
745.685	0.0153767
745.763	0.0154475
745.841	0.0153128
745.919	0.0155717
745.997	0.0156105
746.075	0.0158675
746.154	0.0160844
746.232	0.0161745
746.310	0.0162595
746.388	0.0164716
746.466	0.0167583
746.544	0.0167484
746.622	0.0170403
746.700	0.0171098
746.779	0.0172744
746.857	0.0173191
746.935	0.0175258
747.013	0.0176336
747.091	0.0176705
747.169	0.0175957
747.247	0.0175306
747.325	0.0175719
747.404	0.0172817
747.482	0.0172067
747.560	0.0172340
747.638	0.0171018
747.716	0.0169981
747.794	0.0168085
747.872	0.0168405
747.950	0.0167599
748.029	0.0166891
748.107	0.0166882
748.185	0.0165542
748.263	0.0164995
748.341	0.0163590
748.419	0.0162833
748.497	0.0163265
748.575	0.0163252
748.654	0.0162026
748.732	0.0162247
748.810	0.0162482
748.888	0.0163369
748.966	0.0163007
749.044	0.0162268
749.122	0.0162152
749.200	0.0162164
749.279	0.0162921
749.357	0.0163412
749.435	0.0162794
749.513	0.0163906
749.591	0.0165323
749.669	0.0166528
749.747	0.0166360
749.825	0.0168517
749.904	0.0168835
749.982	0.0168411
750.060	0.0168274
750.138	0.0168804
750.216	0.0169301
750.294	0.0169312
750.372	0.0168568
750.450	0.0169156
750.529	0.0168593
750.607	0.0167953
750.685	0.0168401
750.763	0.0165653
750.841	0.0167228
750.919	0.0166460
750.997	0.0165314
751.075	0.0165575
751.154	0.0164729
751.232	0.0164505
751.310	0.0162523
751.388	0.0163204
751.466	0.0162325
751.544	0.0161707
751.622	0.0161057
751.700	0.0161541
751.779	0.0161590
751.857	0.0162212
751.935	0.0163116
752.013	0.0163124
752.091	0.0163837
752.169	0.0164657
752.247	0.0165829
752.325	0.0165296
752.404	0.0165637
752.482	0.0166790
752.560	0.0167307
752.638	0.0166913
752.716	0.0166834
752.794	0.0167554
752.872	0.0168394
752.950	0.0167168
753.029	0.0167295
753.107	0.0166737
753.185	0.0167396
753.263	0.0165446
753.341	0.0166653
753.419	0.0167841
753.497	0.0167114
753.575	0.0165851
753.654	0.0166714
753.732	0.0166596
753.810	0.0166142
753.888	0.0166785
753.966	0.0167178
754.044	0.0166422
754.122	0.0165816
754.200	0.0165546
754.279	0.0164368
754.357	0.0167026
754.435	0.0166508
754.513	0.0165318
754.591	0.0166065
754.669	0.0166775
754.747	0.0166362
754.825	0.0166598
754.904	0.0167718
754.982	0.0169227
755.060	0.0168820
755.138	0.0168193
755.216	0.0168667
755.294	0.0168291
755.372	0.0168833
755.450	0.0167426
755.529	0.0167723
755.607	0.0166430
755.685	0.0165051
755.763	0.0164606
755.841	0.0163826
755.919	0.0163442
755.997	0.0163028
756.075	0.0162212
756.154	0.0160663
756.232	0.0160892
756.310	0.0161459
756.388	0.0162194
756.466	0.0161253
756.544	0.0162295
756.622	0.0163457
756.700	0.0163566
756.779	0.0164398
756.857	0.0165507
756.935	0.0166837
757.013	0.0167860
757.091	0.0166972
757.169	0.0167889
757.247	0.0168272
757.325	0.0168625
757.404	0.0169199
757.482	0.0168356
757.560	0.0168817
757.638	0.0167284
757.716	0.0167337
757.794	0.0167863
757.872	0.0165826
757.950	0.0165971
758.029	0.0165570
758.107	0.0165647
758.185	0.0165256
758.263	0.0165011
758.341	0.0165667
758.419	0.0163486
758.497	0.0163805
758.575	0.0165532
758.654	0.0163647
758.732	0.0164176
758.810	0.0163519
758.888	0.0164619
758.966	0.0164757
759.044	0.0165218
759.122	0.0166095
759.200	0.0165963
759.279	0.0166801
759.357	0.0167616
759.435	0.0166675
759.513	0.0166275
759.591	0.0167413
759.669	0.0168082
759.747	0.0166895
759.825	0.0166650
759.904	0.0167426
759.982	0.0169151
760.060	0.0168134
760.138	0.0166943
760.216	0.0166689
760.294	0.0166228
760.372	0.0165881
760.450	0.0164720
760.529	0.0164940
760.607	0.0165177
760.685	0.0165061
760.763	0.0164741
760.841	0.0164088
760.919	0.0164265
760.997	0.0165519
761.075	0.0165277
761.154	0.0164434
761.232	0.0167036
761.310	0.0165903
761.388	0.0165538
761.466	0.0167270
761.544	0.0166111
761.622	0.0166636
761.700	0.0166657
761.779	0.0168465
761.857	0.0168580
761.935	0.0167747
762.013	0.0166637
762.091	0.0166425
762.169	0.0166207
762.247	0.0165929
762.325	0.0165823
762.404	0.0167081
762.482	0.0166771
762.560	0.0166038
762.638	0.0164983
762.716	0.0165497
762.794	0.0164748
762.872	0.0165656
762.950	0.0165700
763.029	0.0167026
763.107	0.0165572
763.185	0.0166789
763.263	0.0166312
763.341	0.0166451
763.419	0.0167693
763.497	0.0166362
763.575	0.0166415
763.654	0.0165498
763.732	0.0164086
763.810	0.0164803
763.888	0.0163568
763.966	0.0162839
764.044	0.0162844
764.122	0.0162221
764.200	0.0161683
764.279	0.0161902
764.357	0.0161536
764.435	0.0162108
764.513	0.0161517
764.591	0.0162278
764.669	0.0163087
764.747	0.0163204
764.825	0.0163950
764.904	0.0166463
764.982	0.0164144
765.060	0.0163642
765.138	0.0165420
765.216	0.0167368
765.294	0.0166297
765.372	0.0167251
765.450	0.0167505
765.529	0.0166906
765.607	0.0165804
765.685	0.0168061
765.763	0.0167980
765.841	0.0168118
765.919	0.0167979
765.997	0.0168671
766.075	0.0168153
766.154	0.0167400
766.232	0.0166834
766.310	0.0168431
766.388	0.0167362
766.466	0.0166888
766.544	0.0166251
766.622	0.0166571
766.700	0.0166552
766.779	0.0167705
766.857	0.0169118
766.935	0.0168081
767.013	0.0169090
767.091	0.0169445
767.169	0.0168736
767.247	0.0170998
767.325	0.0169364
767.404	0.0170122
767.482	0.0169756
767.560	0.0167860
767.638	0.0167741
767.716	0.0166730
767.794	0.0166711
767.872	0.0165259
767.950	0.0164065
768.029	0.0164639
768.107	0.0162943
768.185	0.0162487
768.263	0.0160937
768.341	0.0161548
768.419	0.0161380
768.497	0.0160249
768.575	0.0162613
768.654	0.0159814
768.732	0.0160187
768.810	0.0158631
768.888	0.0159062
768.966	0.0160635
769.044	0.0162416
769.122	0.0162673
769.200	0.0163493
769.279	0.0163657
769.357	0.0165028
769.435	0.0164139
769.513	0.0164828
769.591	0.0165955
769.669	0.0167953
769.747	0.0166398
769.825	0.0167441
769.904	0.0170045
769.982	0.0169193
770.060	0.0169102
770.138	0.0169242
770.216	0.0169868
770.294	0.0171489
770.372	0.0170065
770.450	0.0168967
770.529	0.0169386
770.607	0.0169545
770.685	0.0168912
770.763	0.0168845
770.841	0.0170415
770.919	0.0168848
770.997	0.0167178
771.075	0.0166000
771.154	0.0167958
771.232	0.0168172
771.310	0.0165945
771.388	0.0167420
771.466	0.0165423
771.544	0.0166292
771.622	0.0164009
771.700	0.0163474
771.779	0.0163897
771.857	0.0164729
771.935	0.0164263
772.013	0.0163247
772.091	0.0163311
772.169	0.0162611
772.247	0.0162675
772.325	0.0161529
772.404	0.0161377
772.482	0.0161428
772.560	0.0162173
772.638	0.0162354
772.716	0.0161920
772.794	0.0161376
772.872	0.0161957
772.950	0.0164706
773.029	0.0165221
773.107	0.0163776
773.185	0.0164021
773.263	0.0165965
773.341	0.0167145
773.419	0.0166554
773.497	0.0166199
773.575	0.0166452
773.654	0.0168455
773.732	0.0167757
773.810	0.0169155
773.888	0.0168953
773.966	0.0169815
774.044	0.0168755
774.122	0.0170566
774.200	0.0170131
774.279	0.0169694
774.357	0.0171500
774.435	0.0170168
774.513	0.0169197
774.591	0.0170299
774.669	0.0171054
774.747	0.0172092
774.825	0.0170551
774.904	0.0169959
774.982	0.0169746
775.060	0.0169012
775.138	0.0168214
775.216	0.0169959
775.294	0.0169176
775.372	0.0168724
775.450	0.0167809
775.529	0.0166279
775.607	0.0166050
775.685	0.0165223
775.763	0.0162497
775.841	0.0163716
775.919	0.0163860
775.997	0.0163717
776.075	0.0163094
776.154	0.0162642
776.232	0.0161929
776.310	0.0163657
776.388	0.0163551
776.466	0.0163437
776.544	0.0162288
776.622	0.0162563
776.700	0.0163280
776.779	0.0163763
776.857	0.0163515
776.935	0.0163482
777.013	0.0163660
777.091	0.0165395
777.169	0.0164410
777.247	0.0163442
777.325	0.0164451
777.404	0.0165102
777.482	0.0163738
777.560	0.0165947
777.638	0.0164342
777.716	0.0165441
777.794	0.0165257
777.872	0.0165288
777.950	0.0164992
778.029	0.0165301
778.107	0.0166103
778.185	0.0166824
778.263	0.0167613
778.341	0.0167651
778.419	0.0168791
778.497	0.0169957
778.575	0.0169479
778.654	0.0169624
778.732	0.0170192
778.810	0.0171059
778.888	0.0170916
778.966	0.0170444
779.044	0.0170100
779.122	0.0169750
779.200	0.0170168
779.279	0.0171389
779.357	0.0168256
779.435	0.0170003
779.513	0.0169540
779.591	0.0167960
779.669	0.0167612
779.747	0.0165858
779.825	0.0165813
779.904	0.0164935
779.982	0.0165000
780.060	0.0166454
780.138	0.0166300
780.216	0.0164671
780.294	0.0165164
780.372	0.0164705
780.450	0.0163881
780.529	0.0163322
780.607	0.0161728
780.685	0.0161507
780.763	0.0161037
780.841	0.0161227
780.919	0.0160047
780.997	0.0159806
781.075	0.0160488
781.154	0.0160780
781.232	0.0160845
781.310	0.0160246
781.388	0.0161356
781.466	0.0161806
781.544	0.0162967
781.622	0.0165173
781.700	0.0164196
781.779	0.0164220
781.857	0.0163635
781.935	0.0165044
782.013	0.0166061
782.091	0.0166128
782.169	0.0167431
782.247	0.0167513
782.325	0.0167371
782.404	0.0166158
782.482	0.0168856
782.560	0.0167943
782.638	0.0169155
782.716	0.0170766
782.794	0.0169698
782.872	0.0169349
782.950	0.0169746
783.029	0.0171513
783.107	0.0170465
783.185	0.0170513
783.263	0.0171334
783.341	0.0170300
783.419	0.0170065
783.497	0.0170969
783.575	0.0170164
783.654	0.0170039
783.732	0.0170099
783.810	0.0170055
783.888	0.0169551
783.966	0.0168719
784.044	0.0167233
784.122	0.0166078
784.200	0.0166986
784.279	0.0165971
784.357	0.0166695
784.435	0.0164658
784.513	0.0164861
784.591	0.0163361
784.669	0.0164140
784.747	0.0163306
784.825	0.0162313
784.904	0.0161935
784.982	0.0161150
785.060	0.0162556
785.138	0.0162286
785.216	0.0160155
785.294	0.0160738
785.372	0.0161092
785.450	0.0161698
785.529	0.0163673
785.607	0.0162287
785.685	0.0162086
785.763	0.0162423
785.841	0.0163568
785.919	0.0164672
785.997	0.0163623
786.075	0.0164058
786.154	0.0163960
786.232	0.0164980
786.310	0.0165426
786.388	0.0166317
786.466	0.0167307
786.544	0.0166818
786.622	0.0167252
786.700	0.0167989
786.779	0.0168492
786.857	0.0168457
786.935	0.0169869
787.013	0.0170261
787.091	0.0169296
787.169	0.0167982
787.247	0.0168430
787.325	0.0168879
787.404	0.0169369
787.482	0.0168914
787.560	0.0168837
787.638	0.0165836
787.716	0.0167101
787.794	0.0167582
787.872	0.0165230
787.950	0.0165169
788.029	0.0165317
788.107	0.0164664
788.185	0.0163776
788.263	0.0163756
788.341	0.0164275
788.419	0.0162575
788.497	0.0163710
788.575	0.0163544
788.654	0.0162429
788.732	0.0160769
788.810	0.0162321
788.888	0.0162443
788.966	0.0162508
789.044	0.0162613
789.122	0.0162768
789.200	0.0163209
789.279	0.0162858
789.357	0.0163366
789.435	0.0165268
789.513	0.0166987
789.591	0.0167256
789.669	0.0167142
789.747	0.0169995
789.825	0.0169303
789.904	0.0168609
789.982	0.0169987
790.060	0.0171698
790.138	0.0171033
790.216	0.0169730
790.294	0.0171076
790.372	0.0172280
790.450	0.0171527
790.529	0.0170718
790.607	0.0171402
790.685	0.0171007
790.763	0.0169099
790.841	0.0168973
790.919	0.0170222
790.997	0.0168600
791.075	0.0168442
791.154	0.0167529
791.232	0.0166587
791.310	0.0165521
791.388	0.0165097
791.466	0.0164861
791.544	0.0162888
791.622	0.0163271
791.700	0.0163078
791.779	0.0163325
791.857	0.0162473
791.935	0.0162138
792.013	0.0161124
792.091	0.0161102
792.169	0.0163129
792.247	0.0162276
792.325	0.0162022
792.404	0.0162450
792.482	0.0161673
792.560	0.0161452
792.638	0.0161014
792.716	0.0159877
792.794	0.0161335
792.872	0.0160104
792.950	0.0159066
793.029	0.0158492
793.107	0.0159740
793.185	0.0158921
793.263	0.0159013
793.341	0.0158391
793.419	0.0158928
793.497	0.0159169
793.575	0.0160469
793.654	0.0160625
793.732	0.0162050
793.810	0.0164152
793.888	0.0164228
793.966	0.0163850
794.044	0.0166998
794.122	0.0168604
794.200	0.0168510
794.279	0.0171344
794.357	0.0172623
794.435	0.0171313
794.513	0.0174908
794.591	0.0176586
794.669	0.0175080
794.747	0.0173770
794.825	0.0176555
794.904	0.0176664
794.982	0.0176983
795.060	0.0176612
795.138	0.0175208
795.216	0.0176888
795.294	0.0174517
795.372	0.0175629
795.450	0.0173486
795.529	0.0172269
795.607	0.0170898
795.685	0.0171494
795.763	0.0170438
795.841	0.0168823
795.919	0.0167828
795.997	0.0164629
796.075	0.0165044
796.154	0.0163047
796.232	0.0162951
796.310	0.0160701
796.388	0.0161356
796.466	0.0160757
796.544	0.0158991
796.622	0.0157529
796.700	0.0158878
796.779	0.0158899
796.857	0.0156765
796.935	0.0156725
797.013	0.0156777
797.091	0.0157665
797.169	0.0155177
797.247	0.0158163
797.325	0.0157821
797.404	0.0155831
797.482	0.0157191
797.560	0.0156945
797.638	0.0156551
797.716	0.0157835
797.794	0.0158826
797.872	0.0158432
797.950	0.0158826
798.029	0.0160786
798.107	0.0160660
798.185	0.0160279
798.263	0.0160320
798.341	0.0163158
798.419	0.0164241
798.497	0.0165397
798.575	0.0167580
798.654	0.0168439
798.732	0.0169103
798.810	0.0171803
798.888	0.0173145
798.966	0.0173061
799.044	0.0175417
799.122	0.0175768
799.200	0.0178817
799.279	0.0178289
799.357	0.0177984
799.435	0.0178945
799.513	0.0179230
799.591	0.0177918
799.669	0.0179989
799.747	0.0179404
799.825	0.0178978
799.904	0.0179034
799.982	0.0178136
800.060	0.0176644
800.138	0.0177121
800.216	0.0174828
800.294	0.0172691
800.372	0.0171310
800.450	0.0171218
800.529	0.0168278
800.607	0.0166476
800.685	0.0165143
800.763	0.0163489
800.841	0.0162565
800.919	0.0162148
800.997	0.0160751
801.075	0.0159865
801.154	0.0159299
801.232	0.0158031
801.310	0.0157825
801.388	0.0156979
801.466	0.0155965
801.544	0.0155712
801.622	0.0156612
801.700	0.0156456
801.779	0.0155582
801.857	0.0156509
801.935	0.0157005
802.013	0.0155891
802.091	0.0157885
802.169	0.0157592
802.247	0.0157157
802.325	0.0157047
802.404	0.0159699
802.482	0.0159853
802.560	0.0159898
802.638	0.0158470
802.716	0.0160631
802.794	0.0162260
802.872	0.0163374
802.950	0.0163580
803.029	0.0164051
803.107	0.0164764
803.185	0.0166595
803.263	0.0165630
803.341	0.0167449
803.419	0.0168953
803.497	0.0168253
803.575	0.0167696
803.654	0.0169730
803.732	0.0170626
803.810	0.0170385
803.888	0.0171365
803.966	0.0173112
804.044	0.0172784
804.122	0.0172385
804.200	0.0173049
804.279	0.0174415
804.357	0.0173399
804.435	0.0174303
804.513	0.0175552
804.591	0.0173545
804.669	0.0174519
804.747	0.0173598
804.825	0.0171931
804.904	0.0173639
804.982	0.0171055
805.060	0.0170731
805.138	0.0169746
805.216	0.0171214
805.294	0.0169567
805.372	0.0166792
805.450	0.0167910
805.529	0.0166302
805.607	0.0166673
805.685	0.0165399
805.763	0.0164229
805.841	0.0162669
805.919	0.0163712
805.997	0.0163515
806.075	0.0163304
806.154	0.0163678
806.232	0.0162516
806.310	0.0162755
806.388	0.0161638
806.466	0.0162566
806.544	0.0162260
806.622	0.0162415
806.700	0.0161021
806.779	0.0161126
806.857	0.0160654
806.935	0.0159550
807.013	0.0159177
807.091	0.0158624
807.169	0.0159152
807.247	0.0158703
807.325	0.0157203
807.404	0.0159385
807.482	0.0158937
807.560	0.0157556
807.638	0.0160106
807.716	0.0159618
807.794	0.0160742
807.872	0.0161971
807.950	0.0163537
808.029	0.0163802
808.107	0.0165721
808.185	0.0168319
808.263	0.0169415
808.341	0.0169047
808.419	0.0169204
808.497	0.0171073
808.575	0.0171188
808.654	0.0172064
808.732	0.0172359
808.810	0.0171733
808.888	0.0172977
808.966	0.0170867
809.044	0.0170799
809.122	0.0169912
809.200	0.0169640
809.279	0.0171011
809.357	0.0169972
809.435	0.0168614
809.513	0.0168501
809.591	0.0167503
809.669	0.0166593
809.747	0.0167261
809.825	0.0166034
809.904	0.0165646
809.982	0.0165536
810.060	0.0165508
810.138	0.0164719
810.216	0.0165160
810.294	0.0165092
810.372	0.0164945
810.450	0.0164696
810.529	0.0166190
810.607	0.0165575
810.685	0.0164128
810.763	0.0165827
810.841	0.0166537
810.919	0.0166316
810.997	0.0165954
811.075	0.0166096
811.154	0.0165652
811.232	0.0165135
811.310	0.0164736
811.388	0.0165021
811.466	0.0162694
811.544	0.0164743
811.622	0.0164006
811.700	0.0163215
811.779	0.0163732
811.857	0.0161610
811.935	0.0161977
812.013	0.0162020
812.091	0.0162089
812.169	0.0161868
812.247	0.0161911
812.325	0.0162930
812.404	0.0161600
812.482	0.0162132
812.560	0.0161121
812.638	0.0163122
812.716	0.0161510
812.794	0.0162349
812.872	0.0164681
812.950	0.0163323
813.029	0.0164588
813.107	0.0164702
813.185	0.0164301
813.263	0.0165108
813.341	0.0165387
813.419	0.0165872
813.497	0.0167134
813.575	0.0165622
813.654	0.0167032
813.732	0.0168857
813.810	0.0167683
813.888	0.0168089
813.966	0.0168819
814.044	0.0168007
814.122	0.0167409
814.200	0.0169122
814.279	0.0168110
814.357	0.0168934
814.435	0.0167447
814.513	0.0168157
814.591	0.0168713
814.669	0.0168153
814.747	0.0167537
814.825	0.0169614
814.904	0.0168613
814.982	0.0168078
815.060	0.0168676
815.138	0.0167203
815.216	0.0168541
815.294	0.0167964
815.372	0.0169062
815.450	0.0168945
815.529	0.0167983
815.607	0.0167152
815.685	0.0167148
815.763	0.0166862
815.841	0.0167963
815.919	0.0166714
815.997	0.0167908
816.075	0.0167519
816.154	0.0166842
816.232	0.0166890
816.310	0.0166344
816.388	0.0166022
816.466	0.0167670
816.544	0.0165388
816.622	0.0164705
816.700	0.0164887
816.779	0.0163461
816.857	0.0164239
816.935	0.0163025
817.013	0.0162837
817.091	0.0162185
817.169	0.0162491
817.247	0.0162458
817.325	0.0162565
817.404	0.0161770
817.482	0.0161933
817.560	0.0161419
817.638	0.0160847
817.716	0.0160551
817.794	0.0160190
817.872	0.0161430
817.950	0.0160211
818.029	0.0159229
818.107	0.0158706
818.185	0.0159572
818.263	0.0158772
818.341	0.0158049
818.419	0.0159207
818.497	0.0158430
818.575	0.0159772
818.654	0.0159249
818.732	0.0159775
818.810	0.0160406
818.888	0.0162627
818.966	0.0163818
819.044	0.0164829
819.122	0.0164604
819.200	0.0168192
819.279	0.0168846
819.357	0.0167397
819.435	0.0170265
819.513	0.0171247
819.591	0.0171516
819.669	0.0171373
819.747	0.0172919
819.825	0.0173559
819.904	0.0173412
819.982	0.0174285
820.060	0.0173482
820.138	0.0174113
820.216	0.0174795
820.294	0.0173638
820.372	0.0172720
820.450	0.0171431
820.529	0.0171303
820.607	0.0170306
820.685	0.0171236
820.763	0.0168915
820.841	0.0169119
820.919	0.0167622
820.997	0.0167809
821.075	0.0165968
821.154	0.0165755
821.232	0.0166443
821.310	0.0164908
821.388	0.0164545
821.466	0.0164336
821.544	0.0163695
821.622	0.0163863
821.700	0.0163506
821.779	0.0163136
821.857	0.0162470
821.935	0.0162648
822.013	0.0163341
822.091	0.0162897
822.169	0.0163024
822.247	0.0162305
822.325	0.0162203
822.404	0.0163203
822.482	0.0161601
822.560	0.0161809
822.638	0.0162770
822.716	0.0161105
822.794	0.0161567
822.872	0.0161870
822.950	0.0160569
823.029	0.0161296
823.107	0.0161009
823.185	0.0162054
823.263	0.0163123
823.341	0.0161147
823.419	0.0161495
823.497	0.0162377
823.575	0.0162298
823.654	0.0161713
823.732	0.0164132
823.810	0.0164271
823.888	0.0165565
823.966	0.0164725
824.044	0.0164085
824.122	0.0166058
824.200	0.0167033
824.279	0.0168327
824.357	0.0167484
824.435	0.0167842
824.513	0.0169253
824.591	0.0168520
824.669	0.0168948
824.747	0.0169365
824.825	0.0170238
824.904	0.0168808
824.982	0.0169962
825.060	0.0170014
825.138	0.0170578
825.216	0.0170175
825.294	0.0170181
825.372	0.0169941
825.450	0.0169268
825.529	0.0169231
825.607	0.0169049
825.685	0.0169897
825.763	0.0169285
825.841	0.0169348
825.919	0.0168511
825.997	0.0167253
826.075	0.0167157
826.154	0.0168356
826.232	0.0167385
826.310	0.0166328
826.388	0.0166648
826.466	0.0165307
826.544	0.0164874
826.622	0.0165780
826.700	0.0163702
826.779	0.0163895
826.857	0.0164771
826.935	0.0163296
827.013	0.0163081
827.091	0.0162201
827.169	0.0162097
827.247	0.0161494
827.325	0.0161979
827.404	0.0162253
827.482	0.0161855
827.560	0.0161853
827.638	0.0163002
827.716	0.0161607
827.794	0.0161990
827.872	0.0162653
827.950	0.0161485
828.029	0.0161703
828.107	0.0161581
828.185	0.0162579
828.263	0.0162417
828.341	0.0162778
828.419	0.0162553
828.497	0.0164138
828.575	0.0162321
828.654	0.0164765
828.732	0.0165378
828.810	0.0164956
828.888	0.0165741
828.966	0.0166784
829.044	0.0166883
829.122	0.0165800
829.200	0.0166789
829.279	0.0167410
829.357	0.0168012
829.435	0.0167104
829.513	0.0168222
829.591	0.0168489
829.669	0.0168022
829.747	0.0168369
829.825	0.0171944
829.904	0.0170207
829.982	0.0169166
830.060	0.0168184
830.138	0.0168144
830.216	0.0168798
830.294	0.0168307
830.372	0.0167742
830.450	0.0167992
830.529	0.0166721
830.607	0.0167960
830.685	0.0167441
830.763	0.0167187
830.841	0.0166828
830.919	0.0166576
830.997	0.0166662
831.075	0.0165961
831.154	0.0163878
831.232	0.0164935
831.310	0.0164352
831.388	0.0163917
831.466	0.0164036
831.544	0.0164301
831.622	0.0164207
831.700	0.0164600
831.779	0.0165157
831.857	0.0163315
831.935	0.0163757
832.013	0.0163711
832.091	0.0165809
832.169	0.0164852
832.247	0.0165349
832.325	0.0164333
832.404	0.0165464
832.482	0.0164255
832.560	0.0164642
832.638	0.0164053
832.716	0.0164373
832.794	0.0163013
832.872	0.0164516
832.950	0.0164405
833.029	0.0164915
833.107	0.0162717
833.185	0.0162994
833.263	0.0164617
833.341	0.0163756
833.419	0.0164271
833.497	0.0165971
833.575	0.0164822
833.654	0.0165419
833.732	0.0165416
833.810	0.0165215
833.888	0.0165446
833.966	0.0165120
834.044	0.0167088
834.122	0.0166315
834.200	0.0166686
834.279	0.0167183
834.357	0.0166622
834.435	0.0168240
834.513	0.0167458
834.591	0.0167239
834.669	0.0168148
834.747	0.0167984
834.825	0.0168848
834.904	0.0168375
834.982	0.0167895
835.060	0.0167499
835.138	0.0166525
835.216	0.0166322
835.294	0.0166218
835.372	0.0167148
835.450	0.0165929
835.529	0.0165293
835.607	0.0164349
835.685	0.0167193
835.763	0.0166381
835.841	0.0166032
835.919	0.0166631
835.997	0.0166383
836.075	0.0166743
836.154	0.0165968
836.232	0.0164400
836.310	0.0166766
836.388	0.0167024
836.466	0.0166574
836.544	0.0166341
836.622	0.0166436
836.700	0.0167960
836.779	0.0166988
836.857	0.0167540
836.935	0.0167761
837.013	0.0167678
837.091	0.0168620
837.169	0.0167365
837.247	0.0165747
837.325	0.0166600
837.404	0.0166022
837.482	0.0164221
837.560	0.0163905
837.638	0.0165034
837.716	0.0164819
837.794	0.0163884
837.872	0.0164997
837.950	0.0165540
838.029	0.0164449
838.107	0.0164536
838.185	0.0163294
838.263	0.0165240
838.341	0.0165453
838.419	0.0163715
838.497	0.0164760
838.575	0.0166335
838.654	0.0165733
838.732	0.0164346
838.810	0.0166414
838.888	0.0165810
838.966	0.0165821
839.044	0.0165036
839.122	0.0163879
839.200	0.0166264
839.279	0.0163810
839.357	0.0164390
839.435	0.0165212
839.513	0.0164969
839.591	0.0165134
839.669	0.0165137
839.747	0.0163844
839.825	0.0165214
839.904	0.0164436
839.982	0.0165833
840.060	0.0165934
840.138	0.0164685
840.216	0.0165913
840.294	0.0165730
840.372	0.0165662
840.450	0.0165894
840.529	0.0166605
840.607	0.0166770
840.685	0.0166444
840.763	0.0167177
840.841	0.0167665
840.919	0.0166719
840.997	0.0166358
841.075	0.0167730
841.154	0.0167127
841.232	0.0167830
841.310	0.0167562
841.388	0.0168451
841.466	0.0168009
841.544	0.0166856
841.622	0.0167438
841.700	0.0168143
841.779	0.0169431
841.857	0.0167539
841.935	0.0167357
842.013	0.0168009
842.091	0.0166760
842.169	0.0166205
842.247	0.0166273
842.325	0.0166434
842.404	0.0165057
842.482	0.0167134
842.560	0.0165809
842.638	0.0165311
842.716	0.0166159
842.794	0.0165700
842.872	0.0165373
842.950	0.0165312
843.029	0.0165441
843.107	0.0165350
843.185	0.0165496
843.263	0.0164975
843.341	0.0165149
843.419	0.0165899
843.497	0.0165520
843.575	0.0165636
843.654	0.0164877
843.732	0.0164294
843.810	0.0164462
843.888	0.0164906
843.966	0.0164606
844.044	0.0164282
844.122	0.0165025
844.200	0.0165156
844.279	0.0163429
844.357	0.0163495
844.435	0.0165103
844.513	0.0164750
844.591	0.0163383
844.669	0.0166293
844.747	0.0165286
844.825	0.0166517
844.904	0.0166164
844.982	0.0165447
845.060	0.0164686
845.138	0.0164542
845.216	0.0165344
845.294	0.0166754
845.372	0.0166248
845.450	0.0165134
845.529	0.0167177
845.607	0.0166354
845.685	0.0166214
845.763	0.0165288
845.841	0.0167192
845.919	0.0166360
845.997	0.0165990
846.075	0.0168298
846.154	0.0167447
846.232	0.0168363
846.310	0.0167764
846.388	0.0168810
846.466	0.0169067
846.544	0.0168838
846.622	0.0169212
846.700	0.0169175
846.779	0.0168082
846.857	0.0169551
846.935	0.0168151
847.013	0.0167965
847.091	0.0169335
847.169	0.0168353
847.247	0.0168048
847.325	0.0167803
847.404	0.0168034
847.482	0.0168165
847.560	0.0167187
847.638	0.0167450
847.716	0.0165505
847.794	0.0165782
847.872	0.0164745
847.950	0.0164784
848.029	0.0164040
848.107	0.0163077
848.185	0.0163065
848.263	0.0163276
848.341	0.0163942
848.419	0.0163127
848.497	0.0163359
848.575	0.0162619
848.654	0.0161985
848.732	0.0162633
848.810	0.0163573
848.888	0.0163341
848.966	0.0162696
849.044	0.0162345
849.122	0.0164017
849.200	0.0163126
849.279	0.0163561
849.357	0.0164261
849.435	0.0164867
849.513	0.0164667
849.591	0.0164871
849.669	0.0163670
849.747	0.0165244
849.825	0.0165411
849.904	0.0165225
849.982	0.0164404
850.060	0.0165416
850.138	0.0166155
850.216	0.0166664
850.294	0.0165623
850.372	0.0167044
850.450	0.0167957
850.529	0.0167797
850.607	0.0167929
850.685	0.0168580
850.763	0.0169425
850.841	0.0168414
850.919	0.0168394
850.997	0.0168455
851.075	0.0168442
851.154	0.0168503
851.232	0.0168023
851.310	0.0168307
851.388	0.0169535
851.466	0.0169955
851.544	0.0168653
851.622	0.0168704
851.700	0.0167324
851.779	0.0167365
851.857	0.0168218
851.935	0.0168104
852.013	0.0167402
852.091	0.0166654
852.169	0.0165896
852.247	0.0168123
852.325	0.0167154
852.404	0.0166661
852.482	0.0168423
852.560	0.0168639
852.638	0.0166091
852.716	0.0165410
852.794	0.0166425
852.872	0.0166376
852.950	0.0165420
853.029	0.0163423
853.107	0.0165488
853.185	0.0164594
853.263	0.0165529
853.341	0.0164845
853.419	0.0163110
853.497	0.0163455
853.575	0.0166118
853.654	0.0164590
853.732	0.0162545
853.810	0.0163176
853.888	0.0163960
853.966	0.0162147
854.044	0.0160642
854.122	0.0163100
854.200	0.0163179
854.279	0.0163087
854.357	0.0162541
854.435	0.0162247
854.513	0.0163140
854.591	0.0163731
854.669	0.0164509
854.747	0.0164204
854.825	0.0163433
854.904	0.0164946
854.982	0.0165681
855.060	0.0166138
855.138	0.0166745
855.216	0.0166260
855.294	0.0168126
855.372	0.0167497
855.450	0.0167673
855.529	0.0168058
855.607	0.0168089
855.685	0.0167521
855.763	0.0168185
855.841	0.0166984
855.919	0.0168063
855.997	0.0167817
856.075	0.0168256
856.154	0.0168008
856.232	0.0167983
856.310	0.0167345
856.388	0.0167337
856.466	0.0168274
856.544	0.0167200
856.622	0.0166668
856.700	0.0169415
856.779	0.0169521
856.857	0.0169260
856.935	0.0168130
857.013	0.0168980
857.091	0.0168109
857.169	0.0168428
857.247	0.0168894
857.325	0.0167779
857.404	0.0168390
857.482	0.0168362
857.560	0.0168295
857.638	0.0167605
857.716	0.0168478
857.794	0.0167298
857.872	0.0166465
857.950	0.0167085
858.029	0.0166269
858.107	0.0167187
858.185	0.0166668
858.263	0.0166333
858.341	0.0166445
858.419	0.0163688
858.497	0.0164339
858.575	0.0163530
858.654	0.0163321
858.732	0.0163766
858.810	0.0164017
858.888	0.0164088
858.966	0.0163078
859.044	0.0163708
859.122	0.0165790
859.200	0.0164120
859.279	0.0164379
859.357	0.0165146
859.435	0.0166111
859.513	0.0165176
859.591	0.0165352
859.669	0.0166403
859.747	0.0166476
859.825	0.0165623
859.904	0.0165309
859.982	0.0165021
860.060	0.0165316
860.138	0.0165018
860.216	0.0166991
860.294	0.0166017
860.372	0.0166470
860.450	0.0166378
860.529	0.0164467
860.607	0.0164855
860.685	0.0166763
860.763	0.0165881
860.841	0.0167190
860.919	0.0168438
860.997	0.0165857
861.075	0.0167085
861.154	0.0169617
861.232	0.0168711
861.310	0.0167215
861.388	0.0167444
861.466	0.0168114
861.544	0.0168879
861.622	0.0168961
861.700	0.0168220
861.779	0.0168612
861.857	0.0168475
861.935	0.0166931
862.013	0.0167775
862.091	0.0166815
862.169	0.0166438
862.247	0.0166273
862.325	0.0165801
862.404	0.0167286
862.482	0.0166514
862.560	0.0165643
862.638	0.0165864
862.716	0.0164350
862.794	0.0163907
862.872	0.0165553
862.950	0.0163349
863.029	0.0164324
863.107	0.0164232
863.185	0.0164266
863.263	0.0165435
863.341	0.0164527
863.419	0.0163124
863.497	0.0164972
863.575	0.0165842
863.654	0.0165639
863.732	0.0166721
863.810	0.0167984
863.888	0.0166473
863.966	0.0166603
864.044	0.0166669
864.122	0.0168144
864.200	0.0169331
864.279	0.0165945
864.357	0.0168724
864.435	0.0168334
864.513	0.0167803
864.591	0.0166431
864.669	0.0165379
864.747	0.0167418
864.825	0.0167419
864.904	0.0166418
864.982	0.0165668
865.060	0.0165037
865.138	0.0165753
865.216	0.0167051
865.294	0.0165763
865.372	0.0165861
865.450	0.0166095
865.529	0.0166107
865.607	0.0165118
865.685	0.0166759
865.763	0.0166018
865.841	0.0166389
865.919	0.0165839
865.997	0.0166525
866.075	0.0166134
866.154	0.0166862
866.232	0.0168177
866.310	0.0166928
866.388	0.0164922
866.466	0.0166479
866.544	0.0166530
866.622	0.0165533
866.700	0.0164339
866.779	0.0163902
866.857	0.0165919
866.935	0.0165901
867.013	0.0164178
867.091	0.0164209
867.169	0.0164719
867.247	0.0164629
867.325	0.0164265
867.404	0.0163190
867.482	0.0163227
867.560	0.0163583
867.638	0.0161850
867.716	0.0163313
867.794	0.0162962
867.872	0.0162973
867.950	0.0164569
868.029	0.0164623
868.107	0.0162486
868.185	0.0164567
868.263	0.0166506
868.341	0.0166856
868.419	0.0167205
868.497	0.0167682
868.575	0.0167886
868.654	0.0168864
868.732	0.0167704
868.810	0.0168764
868.888	0.0168991
868.966	0.0167977
869.044	0.0168230
869.122	0.0166443
869.200	0.0168137
869.279	0.0168338
869.357	0.0167838
869.435	0.0166959
869.513	0.0168219
869.591	0.0167712
869.669	0.0168111
869.747	0.0168461
869.825	0.0167855
869.904	0.0168786
869.982	0.0169543
870.060	0.0168623
870.138	0.0168322
870.216	0.0167781
870.294	0.0167799
870.372	0.0168229
870.450	0.0166610
870.529	0.0166611
870.607	0.0166033
870.685	0.0167568
870.763	0.0165561
870.841	0.0165356
870.919	0.0165819
870.997	0.0164361
871.075	0.0166547
871.154	0.0164216
871.232	0.0165199
871.310	0.0166025
871.388	0.0164262
871.466	0.0164761
871.544	0.0164273
871.622	0.0163190
871.700	0.0161657
871.779	0.0161960
871.857	0.0162247
871.935	0.0161227
872.013	0.0161095
872.091	0.0161977
872.169	0.0162596
872.247	0.0162000
872.325	0.0164078
872.404	0.0165027
872.482	0.0163650
872.560	0.0165566
872.638	0.0164280
872.716	0.0164838
872.794	0.0164304
872.872	0.0165033
872.950	0.0164690
873.029	0.0163898
873.107	0.0163297
873.185	0.0163757
873.263	0.0164803
873.341	0.0166069
873.419	0.0166209
873.497	0.0167944
873.575	0.0167412
873.654	0.0166952
873.732	0.0167463
873.810	0.0169615
873.888	0.0170757
873.966	0.0169959
874.044	0.0169699
874.122	0.0171390
874.200	0.0171123
874.279	0.0170775
874.357	0.0170096
874.435	0.0169885
874.513	0.0169927
874.591	0.0168775
874.669	0.0168620
874.747	0.0168324
874.825	0.0168089
874.904	0.0168253
874.982	0.0167419
875.060	0.0167225
875.138	0.0167255
875.216	0.0165739
875.294	0.0165977
875.372	0.0166518
875.450	0.0167342
875.529	0.0168032
875.607	0.0167570
875.685	0.0167096
875.763	0.0166306
875.841	0.0166553
875.919	0.0164846
875.997	0.0164944
876.075	0.0164063
876.154	0.0164091
876.232	0.0161903
876.310	0.0159499
876.388	0.0159275
876.466	0.0159173
876.544	0.0158799
876.622	0.0157889
876.700	0.0158825
876.779	0.0160772
876.857	0.0162049
876.935	0.0162619
877.013	0.0163640
877.091	0.0162864
877.169	0.0163699
877.247	0.0165600
877.325	0.0165092
877.404	0.0165825
877.482	0.0167010
877.560	0.0167030
877.638	0.0166241
877.716	0.0166685
877.794	0.0167990
877.872	0.0168764
877.950	0.0168373
878.029	0.0169048
878.107	0.0169449
878.185	0.0170396
878.263	0.0172363
878.341	0.0171169
878.419	0.0169099
878.497	0.0170000
878.575	0.0169843
878.654	0.0167877
878.732	0.0168148
878.810	0.0168810
878.888	0.0167836
878.966	0.0168822
879.044	0.0166748
879.122	0.0164864
879.200	0.0164535
879.279	0.0164928
879.357	0.0165573
879.435	0.0163600
879.513	0.0162859
879.591	0.0162978
879.669	0.0164468
879.747	0.0165102
879.825	0.0165694
879.904	0.0166682
879.982	0.0165324
880.060	0.0166277
880.138	0.0165581
880.216	0.0165850
880.294	0.0166970
880.372	0.0166435
880.450	0.0167563
880.529	0.0167152
880.607	0.0166444
880.685	0.0166192
880.763	0.0168859
880.841	0.0167520
880.919	0.0167699
880.997	0.0168787
881.075	0.0168811
881.154	0.0166925
881.232	0.0167797
881.310	0.0166652
881.388	0.0165164
881.466	0.0166111
881.544	0.0166357
881.622	0.0164703
881.700	0.0163201
881.779	0.0161636
881.857	0.0163231
881.935	0.0162006
882.013	0.0162425
882.091	0.0161700
882.169	0.0161949
882.247	0.0161636
882.325	0.0163057
882.404	0.0163114
882.482	0.0163943
882.560	0.0164457
882.638	0.0165668
882.716	0.0166219
882.794	0.0166982
882.872	0.0167366
882.950	0.0167509
883.029	0.0166990
883.107	0.0167506
883.185	0.0164970
883.263	0.0164207
883.341	0.0164363
883.419	0.0165940
883.497	0.0164034
883.575	0.0163855
883.654	0.0164926
883.732	0.0164851
883.810	0.0165138
883.888	0.0164373
883.966	0.0163724
884.044	0.0166253
884.122	0.0166570
884.200	0.0167165
884.279	0.0166315
884.357	0.0167373
884.435	0.0166979
884.513	0.0167216
884.591	0.0168563
884.669	0.0170290
884.747	0.0169282
884.825	0.0170071
884.904	0.0169877
884.982	0.0170426
885.060	0.0169874
885.138	0.0168182
885.216	0.0169437
885.294	0.0169688
885.372	0.0170200
885.450	0.0169658
885.529	0.0168784
885.607	0.0169078
885.685	0.0167814
885.763	0.0166972
885.841	0.0166888
885.919	0.0165325
885.997	0.0165129
886.075	0.0164763
886.154	0.0165053
886.232	0.0164025
886.310	0.0164772
886.388	0.0163754
886.466	0.0162044
886.544	0.0162282
886.622	0.0162420
886.700	0.0161090
886.779	0.0159593
886.857	0.0160081
886.935	0.0160479
887.013	0.0160179
887.091	0.0159424
887.169	0.0159903
887.247	0.0159135
887.325	0.0159948
887.404	0.0161285
887.482	0.0163014
887.560	0.0163635
887.638	0.0163400
887.716	0.0164155
887.794	0.0165687
887.872	0.0166347
887.950	0.0166309
888.029	0.0168249
888.107	0.0166114
888.185	0.0165847
888.263	0.0166462
888.341	0.0165398
888.419	0.0163804
888.497	0.0164661
888.575	0.0163163
888.654	0.0163088
888.732	0.0163952
888.810	0.0162556
888.888	0.0165112
888.966	0.0165446
889.044	0.0165530
889.122	0.0167008
889.200	0.0169392
889.279	0.0170650
889.357	0.0172504
889.435	0.0172694
889.513	0.0173911
889.591	0.0174443
889.669	0.0174427
889.747	0.0174687
889.825	0.0174001
889.904	0.0172675
889.982	0.0172352
890.060	0.0173252
890.138	0.0172181
890.216	0.0170982
890.294	0.0169590
890.372	0.0167409
890.450	0.0166249
890.529	0.0166090
890.607	0.0165070
890.685	0.0164458
890.763	0.0162856
890.841	0.0163546
890.919	0.0163522
890.997	0.0162752
891.075	0.0162653
891.154	0.0161543
891.232	0.0160989
891.310	0.0159352
891.388	0.0160317
891.466	0.0160040
891.544	0.0159180
891.622	0.0160144
891.700	0.0159980
891.779	0.0158847
891.857	0.0160294
891.935	0.0160713
892.013	0.0161254
892.091	0.0159845
892.169	0.0161495
892.247	0.0163918
892.325	0.0162871
892.404	0.0164111
892.482	0.0167080
892.560	0.0167524
892.638	0.0165613
892.716	0.0166881
892.794	0.0166390
892.872	0.0168020
892.950	0.0166222
893.029	0.0167204
893.107	0.0166368
893.185	0.0167447
893.263	0.0164558
893.341	0.0164671
893.419	0.0164821
893.497	0.0163966
893.575	0.0164193
893.654	0.0165893
893.732	0.0165878
893.810	0.0166418
893.888	0.0167777
893.966	0.0166294
894.044	0.0167246
894.122	0.0167672
894.200	0.0169491
894.279	0.0170472
894.357	0.0169262
894.435	0.0170933
894.513	0.0172134
894.591	0.0171626
894.669	0.0172448
894.747	0.0172924
894.825	0.0173421
894.904	0.0172581
894.982	0.0171421
895.060	0.0171019
895.138	0.0169942
895.216	0.0169329
895.294	0.0166631
895.372	0.0165959
895.450	0.0165113
895.529	0.0163166
895.607	0.0161670
895.685	0.0161456
895.763	0.0161043
895.841	0.0162286
895.919	0.0160023
895.997	0.0161109
896.075	0.0160294
896.154	0.0161106
896.232	0.0161422
896.310	0.0161058
896.388	0.0161835
896.466	0.0162474
896.544	0.0161976
896.622	0.0162500
896.700	0.0164966
896.779	0.0164555
896.857	0.0166703
896.935	0.0165165
897.013	0.0165285
897.091	0.0166837
897.169	0.0167079
897.247	0.0167245
897.325	0.0167705
897.404	0.0168938
897.482	0.0170539
897.560	0.0169627
897.638	0.0169626
897.716	0.0169021
897.794	0.0168804
897.872	0.0169054
897.950	0.0168845
898.029	0.0168204
898.107	0.0167786
898.185	0.0164635
898.263	0.0165948
898.341	0.0165249
898.419	0.0163102
898.497	0.0163075
898.575	0.0163031
898.654	0.0162428
898.732	0.0163297
898.810	0.0162737
898.888	0.0162840
898.966	0.0162527
899.044	0.0163658
899.122	0.0164774
899.200	0.0165809
899.279	0.0167596
899.357	0.0168208
899.435	0.0170312
899.513	0.0170657
899.591	0.0172302
899.669	0.0170998
899.747	0.0170950
899.825	0.0172706
899.904	0.0170993
899.982	0.0171744
900.060	0.0170564
900.138	0.0170422
900.216	0.0166315
900.294	0.0166806
900.372	0.0166228
900.450	0.0163560
900.529	0.0164342
900.607	0.0161884
900.685	0.0161032
900.763	0.0160920
900.841	0.0161403
900.919	0.0161140
900.997	0.0161799
901.075	0.0161967
901.154	0.0162877
901.232	0.0161684
901.310	0.0164611
901.388	0.0164999
901.466	0.0165343
901.544	0.0165190
901.622	0.0167083
901.700	0.0166310
901.779	0.0165326
901.857	0.0165892
901.935	0.0168147
902.013	0.0166286
902.091	0.0167950
902.169	0.0168013
902.247	0.0166685
902.325	0.0167358
902.404	0.0167482
902.482	0.0168156
902.560	0.0166752
902.638	0.0168132
902.716	0.0166885
902.794	0.0166693
902.872	0.0167413
902.950	0.0166850
903.029	0.0165267
903.107	0.0166136
903.185	0.0164072
903.263	0.0164860
903.341	0.0163230
903.419	0.0162287
903.497	0.0163033
903.575	0.0162806
903.654	0.0162478
903.732	0.0162092
903.810	0.0161177
903.888	0.0162376
903.966	0.0162489
904.044	0.0162533
904.122	0.0163510
904.200	0.0164875
904.279	0.0165359
904.357	0.0165679
904.435	0.0167709
904.513	0.0167988
904.591	0.0168187
904.669	0.0169159
904.747	0.0169244
904.825	0.0168702
904.904	0.0168945
904.982	0.0168112
905.060	0.0169382
905.138	0.0165917
905.216	0.0167105
905.294	0.0167741
905.372	0.0166035
905.450	0.0165089
905.529	0.0164584
905.607	0.0164514
905.685	0.0164036
905.763	0.0165214
905.841	0.0165305
905.919	0.0164474
905.997	0.0165150
906.075	0.0164095
906.154	0.0166125
906.232	0.0166917
906.310	0.0167579
906.388	0.0167552
906.466	0.0167789
906.544	0.0168292
906.622	0.0167171
906.700	0.0167050
906.779	0.0166540
906.857	0.0166521
906.935	0.0166074
907.013	0.0166056
907.091	0.0166080
907.169	0.0167624
907.247	0.0167260
907.325	0.0166586
907.404	0.0165025
907.482	0.0166290
907.560	0.0166182
907.638	0.0166870
907.716	0.0164986
907.794	0.0164843
907.872	0.0164451
907.950	0.0164215
908.029	0.0164431
908.107	0.0162873
908.185	0.0161839
908.263	0.0163193
908.341	0.0162277
908.419	0.0162137
908.497	0.0162653
908.575	0.0160374
908.654	0.0162695
908.732	0.0163027
908.810	0.0162794
908.888	0.0163680
908.966	0.0164388
909.044	0.0164911
909.122	0.0164765
909.200	0.0165661
909.279	0.0166459
909.357	0.0166210
909.435	0.0168281
909.513	0.0167180
909.591	0.0166435
909.669	0.0166473
909.747	0.0166602
909.825	0.0167876
909.904	0.0167976
909.982	0.0166796
910.060	0.0165221
910.138	0.0165508
910.216	0.0166080
910.294	0.0165641
910.372	0.0165800
910.450	0.0166474
910.529	0.0165897
910.607	0.0165276
910.685	0.0167232
910.763	0.0167583
910.841	0.0167467
910.919	0.0169061
910.997	0.0168322
911.075	0.0167970
911.154	0.0168935
911.232	0.0170351
911.310	0.0169158
911.388	0.0169473
911.466	0.0168092
911.544	0.0167729
911.622	0.0168590
911.700	0.0168626
911.779	0.0168584
911.857	0.0166657
911.935	0.0166402
912.013	0.0166167
912.091	0.0165142
912.169	0.0167201
912.247	0.0166051
912.325	0.0163680
912.404	0.0163808
912.482	0.0165453
912.560	0.0166561
912.638	0.0165262
912.716	0.0164731
912.794	0.0165192
912.872	0.0165063
912.950	0.0164587
913.029	0.0164990
913.107	0.0163396
913.185	0.0164223
913.263	0.0163504
913.341	0.0163098
913.419	0.0162934
913.497	0.0162991
913.575	0.0162423
913.654	0.0162071
913.732	0.0162617
913.810	0.0162730
913.888	0.0162714
913.966	0.0164533
914.044	0.0162640
914.122	0.0164478
914.200	0.0165405
914.279	0.0164811
914.357	0.0166431
914.435	0.0167186
914.513	0.0166663
914.591	0.0167455
914.669	0.0166792
914.747	0.0167879
914.825	0.0167194
914.904	0.0166669
914.982	0.0166536
915.060	0.0166234
915.138	0.0166128
915.216	0.0166688
915.294	0.0165844
915.372	0.0165904
915.450	0.0164152
915.529	0.0164946
915.607	0.0165943
915.685	0.0165864
915.763	0.0166584
915.841	0.0166209
915.919	0.0167232
915.997	0.0166760
916.075	0.0168513
916.154	0.0168909
916.232	0.0167871
916.310	0.0168082
916.388	0.0168493
916.466	0.0169211
916.544	0.0168404
916.622	0.0168116
916.700	0.0168300
916.779	0.0168591
916.857	0.0168452
916.935	0.0168049
917.013	0.0166367
917.091	0.0167877
917.169	0.0166628
917.247	0.0166743
917.325	0.0168039
917.404	0.0165951
917.482	0.0165015
917.560	0.0165137
917.638	0.0163906
917.716	0.0164194
917.794	0.0164721
917.872	0.0164713
917.950	0.0164752
918.029	0.0162446
918.107	0.0161913
918.185	0.0162139
918.263	0.0160543
918.341	0.0161071
918.419	0.0160726
918.497	0.0162274
918.575	0.0162406
918.654	0.0161865
918.732	0.0160862
918.810	0.0163745
918.888	0.0162831
918.966	0.0164661
919.044	0.0164275
919.122	0.0167213
919.200	0.0165941
919.279	0.0168076
919.357	0.0168755
919.435	0.0167985
919.513	0.0168417
919.591	0.0168118
919.669	0.0167683
919.747	0.0169799
919.825	0.0168338
919.904	0.0168137
