06/03/2022	14:07:25	Ver.	4.1	UNKNOWN
Optical Delay	599.981738	Delta X		0.078125	Sweeps	1	Scan Rate	0/0
Coordinates	Axis 1	NaN	Axis 2	NaN	Axis 3	NaN	Axis 4	NaN	Axis 5	NaN	Axis 6	0.000000
TX Power	0.000000	RX Power	0.000000

599.982	0.0163269
600.060	0.0163023
600.138	0.0163123
600.216	0.0164000
600.294	0.0163506
600.372	0.0163567
600.450	0.0163522
600.529	0.0164208
600.607	0.0163679
600.685	0.0163720
600.763	0.0162724
600.841	0.0162845
600.919	0.0162798
600.997	0.0163277
601.075	0.0163363
601.154	0.0162711
601.232	0.0164179
601.310	0.0163343
601.388	0.0162765
601.466	0.0161627
601.544	0.0163129
601.622	0.0162738
601.700	0.0164721
601.779	0.0162688
601.857	0.0162158
601.935	0.0163846
602.013	0.0163451
602.091	0.0162677
602.169	0.0164071
602.247	0.0163174
602.325	0.0162666
602.404	0.0163487
602.482	0.0164060
602.560	0.0162935
602.638	0.0163498
602.716	0.0161825
602.794	0.0162694
602.872	0.0163943
602.950	0.0162808
603.029	0.0163011
603.107	0.0163898
603.185	0.0162212
603.263	0.0161069
603.341	0.0163219
603.419	0.0164471
603.497	0.0162564
603.575	0.0163290
603.654	0.0163229
603.732	0.0161933
603.810	0.0163927
603.888	0.0163961
603.966	0.0163390
604.044	0.0163622
604.122	0.0163065
604.200	0.0162572
604.279	0.0161847
604.357	0.0162807
604.435	0.0164857
604.513	0.0162002
604.591	0.0162184
604.669	0.0163348
604.747	0.0163063
604.825	0.0163100
604.904	0.0164648
604.982	0.0163640
605.060	0.0163279
605.138	0.0163151
605.216	0.0161568
605.294	0.0162687
605.372	0.0161877
605.450	0.0162871
605.529	0.0162422
605.607	0.0163274
605.685	0.0163146
605.763	0.0162335
605.841	0.0162788
605.919	0.0163430
605.997	0.0163499
606.075	0.0163131
606.154	0.0163933
606.232	0.0162724
606.310	0.0162814
606.388	0.0162769
606.466	0.0163442
606.544	0.0162568
606.622	0.0163394
606.700	0.0162591
606.779	0.0161973
606.857	0.0162507
606.935	0.0162984
607.013	0.0163076
607.091	0.0163953
607.169	0.0162498
607.247	0.0163415
607.325	0.0163931
607.404	0.0163689
607.482	0.0162584
607.560	0.0162251
607.638	0.0162612
607.716	0.0163199
607.794	0.0161890
607.872	0.0162652
607.950	0.0165136
608.029	0.0164242
608.107	0.0162434
608.185	0.0162790
608.263	0.0162746
608.341	0.0163076
608.419	0.0163756
608.497	0.0163731
608.575	0.0163741
608.654	0.0161620
608.732	0.0162511
608.810	0.0163466
608.888	0.0163548
608.966	0.0163704
609.044	0.0163011
609.122	0.0162106
609.200	0.0161724
609.279	0.0162563
609.357	0.0161520
609.435	0.0161716
609.513	0.0162516
609.591	0.0161777
609.669	0.0161898
609.747	0.0162622
609.825	0.0163638
609.904	0.0162396
609.982	0.0162157
610.060	0.0162497
610.138	0.0161534
610.216	0.0162448
610.294	0.0164092
610.372	0.0163176
610.450	0.0162894
610.529	0.0162203
610.607	0.0163432
610.685	0.0162537
610.763	0.0162433
610.841	0.0163168
610.919	0.0161931
610.997	0.0162122
611.075	0.0163469
611.154	0.0161787
611.232	0.0162431
611.310	0.0164063
611.388	0.0163454
611.466	0.0163560
611.544	0.0164155
611.622	0.0162003
611.700	0.0163208
611.779	0.0163739
611.857	0.0162702
611.935	0.0163145
612.013	0.0163044
612.091	0.0162198
612.169	0.0163512
612.247	0.0163709
612.325	0.0163123
612.404	0.0163724
612.482	0.0163718
612.560	0.0163373
612.638	0.0162881
612.716	0.0162643
612.794	0.0162665
612.872	0.0162358
612.950	0.0164227
613.029	0.0164263
613.107	0.0162464
613.185	0.0161776
613.263	0.0161863
613.341	0.0163766
613.419	0.0162984
613.497	0.0162225
613.575	0.0163206
613.654	0.0163483
613.732	0.0162544
613.810	0.0162580
613.888	0.0164470
613.966	0.0164459
614.044	0.0162682
614.122	0.0162793
614.200	0.0163100
614.279	0.0163384
614.357	0.0164474
614.435	0.0162838
614.513	0.0163571
614.591	0.0162312
614.669	0.0163978
614.747	0.0162692
614.825	0.0162746
614.904	0.0164129
614.982	0.0164605
615.060	0.0162811
615.138	0.0163003
615.216	0.0161934
615.294	0.0162855
615.372	0.0163228
615.450	0.0163008
615.529	0.0161428
615.607	0.0163197
615.685	0.0163049
615.763	0.0163054
615.841	0.0163513
615.919	0.0161898
615.997	0.0161691
616.075	0.0163482
616.154	0.0163373
616.232	0.0162572
616.310	0.0163152
616.388	0.0162722
616.466	0.0163749
616.544	0.0162577
616.622	0.0162671
616.700	0.0162625
616.779	0.0162655
616.857	0.0162141
616.935	0.0163005
617.013	0.0162347
617.091	0.0162743
617.169	0.0162215
617.247	0.0162807
617.325	0.0163216
617.404	0.0162251
617.482	0.0163270
617.560	0.0162916
617.638	0.0162975
617.716	0.0162750
617.794	0.0163116
617.872	0.0160971
617.950	0.0162164
618.029	0.0162218
618.107	0.0163225
618.185	0.0161967
618.263	0.0163544
618.341	0.0163587
618.419	0.0163429
618.497	0.0163790
618.575	0.0162226
618.654	0.0162650
618.732	0.0164466
618.810	0.0163825
618.888	0.0164695
618.966	0.0164565
619.044	0.0163261
619.122	0.0163988
619.200	0.0164373
619.279	0.0162013
619.357	0.0164574
619.435	0.0164584
619.513	0.0164240
619.591	0.0162731
619.669	0.0162244
619.747	0.0163020
619.825	0.0164279
619.904	0.0162175
619.982	0.0162631
620.060	0.0162892
620.138	0.0163345
620.216	0.0162611
620.294	0.0161906
620.372	0.0161699
620.450	0.0163374
620.529	0.0163665
620.607	0.0162447
620.685	0.0162799
620.763	0.0163487
620.841	0.0163480
620.919	0.0162333
620.997	0.0162860
621.075	0.0162939
621.154	0.0162897
621.232	0.0162952
621.310	0.0162653
621.388	0.0162509
621.466	0.0163598
621.544	0.0163423
621.622	0.0164063
621.700	0.0164043
621.779	0.0162402
621.857	0.0162705
621.935	0.0162509
622.013	0.0163072
622.091	0.0162256
622.169	0.0162188
622.247	0.0163953
622.325	0.0162468
622.404	0.0162659
622.482	0.0163197
622.560	0.0162334
622.638	0.0162348
622.716	0.0164013
622.794	0.0162689
622.872	0.0162021
622.950	0.0163418
623.029	0.0162214
623.107	0.0163020
623.185	0.0163131
623.263	0.0162628
623.341	0.0163550
623.419	0.0163587
623.497	0.0162458
623.575	0.0163125
623.654	0.0162521
623.732	0.0164969
623.810	0.0162187
623.888	0.0162776
623.966	0.0163715
624.044	0.0163432
624.122	0.0165372
624.200	0.0164923
624.279	0.0163232
624.357	0.0164010
624.435	0.0164246
624.513	0.0164170
624.591	0.0164027
624.669	0.0164630
624.747	0.0162846
624.825	0.0162825
624.904	0.0162737
624.982	0.0163998
625.060	0.0163859
625.138	0.0163370
625.216	0.0162289
625.294	0.0163515
625.372	0.0164177
625.450	0.0162204
625.529	0.0163843
625.607	0.0161785
625.685	0.0163404
625.763	0.0163393
625.841	0.0163161
625.919	0.0162714
625.997	0.0162009
626.075	0.0163784
626.154	0.0163300
626.232	0.0161503
626.310	0.0162466
626.388	0.0162306
626.466	0.0161272
626.544	0.0162530
626.622	0.0162367
626.700	0.0161354
626.779	0.0162042
626.857	0.0163690
626.935	0.0162285
627.013	0.0163238
627.091	0.0162338
627.169	0.0163219
627.247	0.0163998
627.325	0.0162999
627.404	0.0162518
627.482	0.0162871
627.560	0.0163243
627.638	0.0162978
627.716	0.0163622
627.794	0.0161794
627.872	0.0163604
627.950	0.0162190
628.029	0.0163615
628.107	0.0163412
628.185	0.0163103
628.263	0.0164505
628.341	0.0164043
628.419	0.0164030
628.497	0.0163242
628.575	0.0163432
628.654	0.0162962
628.732	0.0162739
628.810	0.0164206
628.888	0.0162799
628.966	0.0163522
629.044	0.0164128
629.122	0.0162411
629.200	0.0163124
629.279	0.0162916
629.357	0.0163868
629.435	0.0164479
629.513	0.0162187
629.591	0.0163345
629.669	0.0163583
629.747	0.0163305
629.825	0.0163029
629.904	0.0163884
629.982	0.0163425
630.060	0.0162808
630.138	0.0162714
630.216	0.0163669
630.294	0.0163644
630.372	0.0162984
630.450	0.0163874
630.529	0.0163540
630.607	0.0163334
630.685	0.0163589
630.763	0.0162529
630.841	0.0161289
630.919	0.0163690
630.997	0.0162722
631.075	0.0163107
631.154	0.0164500
631.232	0.0162244
631.310	0.0163302
631.388	0.0163037
631.466	0.0161162
631.544	0.0162736
631.622	0.0163741
631.700	0.0163234
631.779	0.0163110
631.857	0.0163250
631.935	0.0162890
632.013	0.0162939
632.091	0.0163921
632.169	0.0163778
632.247	0.0163125
632.325	0.0164185
632.404	0.0163555
632.482	0.0161508
632.560	0.0163072
632.638	0.0162798
632.716	0.0162338
632.794	0.0162203
632.872	0.0163434
632.950	0.0163592
633.029	0.0163327
633.107	0.0162637
633.185	0.0163593
633.263	0.0163673
633.341	0.0163196
633.419	0.0163140
633.497	0.0162068
633.575	0.0164217
633.654	0.0163359
633.732	0.0163089
633.810	0.0163190
633.888	0.0164182
633.966	0.0162748
634.044	0.0162590
634.122	0.0162763
634.200	0.0162640
634.279	0.0163261
634.357	0.0162172
634.435	0.0163676
634.513	0.0162759
634.591	0.0164177
634.669	0.0162786
634.747	0.0162313
634.825	0.0163128
634.904	0.0163171
634.982	0.0161703
635.060	0.0163451
635.138	0.0162381
635.216	0.0161797
635.294	0.0163213
635.372	0.0161717
635.450	0.0162114
635.529	0.0163790
635.607	0.0162797
635.685	0.0162557
635.763	0.0163100
635.841	0.0161871
635.919	0.0162444
635.997	0.0162731
636.075	0.0162634
636.154	0.0162872
636.232	0.0162084
636.310	0.0162741
636.388	0.0163023
636.466	0.0162514
636.544	0.0164087
636.622	0.0163412
636.700	0.0161922
636.779	0.0162035
636.857	0.0162836
636.935	0.0162392
637.013	0.0162027
637.091	0.0162818
637.169	0.0163299
637.247	0.0161655
637.325	0.0163748
637.404	0.0164005
637.482	0.0163826
637.560	0.0162419
637.638	0.0162797
637.716	0.0163953
637.794	0.0163145
637.872	0.0163504
637.950	0.0163462
638.029	0.0162389
638.107	0.0163239
638.185	0.0162846
638.263	0.0162666
638.341	0.0163205
638.419	0.0163721
638.497	0.0162640
638.575	0.0162088
638.654	0.0163240
638.732	0.0162333
638.810	0.0163017
638.888	0.0163014
638.966	0.0162992
639.044	0.0162856
639.122	0.0162457
639.200	0.0163867
639.279	0.0162866
639.357	0.0162517
639.435	0.0163641
639.513	0.0162718
639.591	0.0163027
639.669	0.0162421
639.747	0.0162696
639.825	0.0162151
639.904	0.0162327
639.982	0.0162294
640.060	0.0163258
640.138	0.0162935
640.216	0.0162379
640.294	0.0163077
640.372	0.0163274
640.450	0.0163361
640.529	0.0163802
640.607	0.0163525
640.685	0.0162928
640.763	0.0164449
640.841	0.0163848
640.919	0.0163372
640.997	0.0163154
641.075	0.0164878
641.154	0.0165052
641.232	0.0163059
641.310	0.0161976
641.388	0.0164140
641.466	0.0163480
641.544	0.0163467
641.622	0.0162702
641.700	0.0164001
641.779	0.0163419
641.857	0.0163100
641.935	0.0162351
642.013	0.0162829
642.091	0.0163643
642.169	0.0161799
642.247	0.0161731
642.325	0.0163401
642.404	0.0163198
642.482	0.0162561
642.560	0.0163091
642.638	0.0163963
642.716	0.0162708
642.794	0.0162811
642.872	0.0163437
642.950	0.0161563
643.029	0.0163463
643.107	0.0163982
643.185	0.0163188
643.263	0.0162645
643.341	0.0162250
643.419	0.0162669
643.497	0.0163557
643.575	0.0163693
643.654	0.0163801
643.732	0.0163858
643.810	0.0162308
643.888	0.0163155
643.966	0.0164358
644.044	0.0164206
644.122	0.0163258
644.200	0.0162994
644.279	0.0163811
644.357	0.0163136
644.435	0.0163605
644.513	0.0163867
644.591	0.0162620
644.669	0.0163474
644.747	0.0163886
644.825	0.0164438
644.904	0.0163128
644.982	0.0163578
645.060	0.0162785
645.138	0.0162898
645.216	0.0162825
645.294	0.0163123
645.372	0.0162257
645.450	0.0163451
645.529	0.0162444
645.607	0.0164055
645.685	0.0165308
645.763	0.0164436
645.841	0.0162950
645.919	0.0163704
645.997	0.0162099
646.075	0.0164327
646.154	0.0165364
646.232	0.0164565
646.310	0.0163593
646.388	0.0163144
646.466	0.0163109
646.544	0.0162572
646.622	0.0164320
646.700	0.0163977
646.779	0.0162338
646.857	0.0164230
646.935	0.0164309
647.013	0.0162804
647.091	0.0164038
647.169	0.0163949
647.247	0.0162878
647.325	0.0162033
647.404	0.0163172
647.482	0.0163939
647.560	0.0162489
647.638	0.0164017
647.716	0.0163809
647.794	0.0163454
647.872	0.0163118
647.950	0.0163275
648.029	0.0163478
648.107	0.0164513
648.185	0.0163917
648.263	0.0162920
648.341	0.0163723
648.419	0.0163336
648.497	0.0163201
648.575	0.0164256
648.654	0.0164329
648.732	0.0163109
648.810	0.0162414
648.888	0.0163148
648.966	0.0163090
649.044	0.0164053
649.122	0.0164291
649.200	0.0163826
649.279	0.0162714
649.357	0.0164642
649.435	0.0163931
649.513	0.0164262
649.591	0.0163438
649.669	0.0162451
649.747	0.0163292
649.825	0.0163308
649.904	0.0162919
649.982	0.0164507
650.060	0.0162144
650.138	0.0161957
650.216	0.0162952
650.294	0.0162211
650.372	0.0163535
650.450	0.0163130
650.529	0.0162783
650.607	0.0162884
650.685	0.0163451
650.763	0.0162405
650.841	0.0162922
650.919	0.0162925
650.997	0.0163101
651.075	0.0162524
651.154	0.0163232
651.232	0.0164337
651.310	0.0162508
651.388	0.0161897
651.466	0.0162347
651.544	0.0163377
651.622	0.0162605
651.700	0.0162753
651.779	0.0162986
651.857	0.0162594
651.935	0.0162327
652.013	0.0162358
652.091	0.0163056
652.169	0.0162887
652.247	0.0163623
652.325	0.0162756
652.404	0.0162873
652.482	0.0162379
652.560	0.0163097
652.638	0.0163053
652.716	0.0162713
652.794	0.0161973
652.872	0.0163777
652.950	0.0163539
653.029	0.0164525
653.107	0.0162917
653.185	0.0164169
653.263	0.0163651
653.341	0.0164373
653.419	0.0163511
653.497	0.0162439
653.575	0.0162518
653.654	0.0162628
653.732	0.0163625
653.810	0.0164063
653.888	0.0163601
653.966	0.0163293
654.044	0.0162434
654.122	0.0163139
654.200	0.0163889
654.279	0.0163799
654.357	0.0164037
654.435	0.0164494
654.513	0.0163915
654.591	0.0164044
654.669	0.0164920
654.747	0.0162992
654.825	0.0163113
654.904	0.0163823
654.982	0.0163736
655.060	0.0163645
655.138	0.0164251
655.216	0.0163674
655.294	0.0162604
655.372	0.0163300
655.450	0.0162869
655.529	0.0162231
655.607	0.0163536
655.685	0.0161148
655.763	0.0162849
655.841	0.0163618
655.919	0.0162653
655.997	0.0164516
656.075	0.0164041
656.154	0.0163857
656.232	0.0164648
656.310	0.0165887
656.388	0.0163799
656.466	0.0162723
656.544	0.0162346
656.622	0.0163597
656.700	0.0163389
656.779	0.0162023
656.857	0.0162444
656.935	0.0162294
657.013	0.0162992
657.091	0.0162180
657.169	0.0160611
657.247	0.0161828
657.325	0.0161371
657.404	0.0161282
657.482	0.0162480
657.560	0.0163709
657.638	0.0162896
657.716	0.0163660
657.794	0.0163433
657.872	0.0163584
657.950	0.0163712
658.029	0.0164964
658.107	0.0164151
658.185	0.0162895
658.263	0.0164329
658.341	0.0162054
658.419	0.0163438
658.497	0.0162573
658.575	0.0164307
658.654	0.0161929
658.732	0.0161415
658.810	0.0162367
658.888	0.0161179
658.966	0.0163082
659.044	0.0163349
659.122	0.0163079
659.200	0.0163164
659.279	0.0164149
659.357	0.0162348
659.435	0.0162982
659.513	0.0163924
659.591	0.0163541
659.669	0.0162807
659.747	0.0164024
659.825	0.0163558
659.904	0.0162675
659.982	0.0161543
660.060	0.0160419
660.138	0.0160056
660.216	0.0162033
660.294	0.0160954
660.372	0.0161326
660.450	0.0162222
660.529	0.0163545
660.607	0.0162214
660.685	0.0162468
660.763	0.0162940
660.841	0.0162897
660.919	0.0162477
660.997	0.0161555
661.075	0.0163074
661.154	0.0162781
661.232	0.0162517
661.310	0.0164008
661.388	0.0160456
661.466	0.0160917
661.544	0.0162116
661.622	0.0163466
661.700	0.0162733
661.779	0.0162615
661.857	0.0163722
661.935	0.0163869
662.013	0.0162484
662.091	0.0162477
662.169	0.0164151
662.247	0.0162955
662.325	0.0164073
662.404	0.0163636
662.482	0.0162270
662.560	0.0164333
662.638	0.0162824
662.716	0.0161691
662.794	0.0161936
662.872	0.0161845
662.950	0.0161945
663.029	0.0162195
663.107	0.0160921
663.185	0.0161268
663.263	0.0162529
663.341	0.0161873
663.419	0.0163074
663.497	0.0162926
663.575	0.0162464
663.654	0.0164220
663.732	0.0163388
663.810	0.0164425
663.888	0.0162907
663.966	0.0164243
664.044	0.0163622
664.122	0.0163730
664.200	0.0163263
664.279	0.0162531
664.357	0.0163568
664.435	0.0162044
664.513	0.0162073
664.591	0.0161676
664.669	0.0161969
664.747	0.0163501
664.825	0.0162489
664.904	0.0162114
664.982	0.0161344
665.060	0.0162206
665.138	0.0161051
665.216	0.0162962
665.294	0.0163932
665.372	0.0163581
665.450	0.0164239
665.529	0.0163344
665.607	0.0163664
665.685	0.0164331
665.763	0.0163039
665.841	0.0164732
665.919	0.0164861
665.997	0.0162939
666.075	0.0163382
666.154	0.0162652
666.232	0.0162561
666.310	0.0161354
666.388	0.0162556
666.466	0.0161102
666.544	0.0162128
666.622	0.0161763
666.700	0.0163013
666.779	0.0162682
666.857	0.0163400
666.935	0.0163428
667.013	0.0163065
667.091	0.0164643
667.169	0.0165005
667.247	0.0163967
667.325	0.0164540
667.404	0.0164695
667.482	0.0165144
667.560	0.0164131
667.638	0.0163169
667.716	0.0164102
667.794	0.0165215
667.872	0.0164735
667.950	0.0165045
668.029	0.0165047
668.107	0.0165636
668.185	0.0166637
668.263	0.0165546
668.341	0.0166271
668.419	0.0165839
668.497	0.0166512
668.575	0.0165982
668.654	0.0164946
668.732	0.0163651
668.810	0.0161666
668.888	0.0163338
668.966	0.0163055
669.044	0.0162268
669.122	0.0161322
669.200	0.0159235
669.279	0.0159275
669.357	0.0159086
669.435	0.0159617
669.513	0.0160438
669.591	0.0159911
669.669	0.0161670
669.747	0.0162138
669.825	0.0160542
669.904	0.0164148
669.982	0.0163357
670.060	0.0164474
670.138	0.0164070
670.216	0.0165796
670.294	0.0164874
670.372	0.0165454
670.450	0.0163513
670.529	0.0163847
670.607	0.0164263
670.685	0.0163104
670.763	0.0164815
670.841	0.0163531
670.919	0.0165287
670.997	0.0163660
671.075	0.0163863
671.154	0.0165760
671.232	0.0165157
671.310	0.0164085
671.388	0.0164429
671.466	0.0163760
671.544	0.0163394
671.622	0.0163566
671.700	0.0163612
671.779	0.0164851
671.857	0.0164108
671.935	0.0164715
672.013	0.0163713
672.091	0.0164707
672.169	0.0164332
672.247	0.0164335
672.325	0.0164014
672.404	0.0164436
672.482	0.0164661
672.560	0.0164738
672.638	0.0164742
672.716	0.0164902
672.794	0.0163513
672.872	0.0165794
672.950	0.0164489
673.029	0.0163788
673.107	0.0164358
673.185	0.0165076
673.263	0.0163757
673.341	0.0162237
673.419	0.0164167
673.497	0.0161373
673.575	0.0161954
673.654	0.0162050
673.732	0.0160295
673.810	0.0160004
673.888	0.0161154
673.966	0.0161913
674.044	0.0161508
674.122	0.0160754
674.200	0.0161439
674.279	0.0161349
674.357	0.0160330
674.435	0.0161614
674.513	0.0162057
674.591	0.0162157
674.669	0.0161794
674.747	0.0162911
674.825	0.0163834
674.904	0.0162926
674.982	0.0162919
675.060	0.0164413
675.138	0.0164943
675.216	0.0165111
675.294	0.0167486
675.372	0.0168147
675.450	0.0168366
675.529	0.0166943
675.607	0.0167939
675.685	0.0167043
675.763	0.0166411
675.841	0.0166872
675.919	0.0166323
675.997	0.0165958
676.075	0.0164748
676.154	0.0160526
676.232	0.0161835
676.310	0.0161887
676.388	0.0159381
676.466	0.0159809
676.544	0.0160809
676.622	0.0162389
676.700	0.0162159
676.779	0.0164072
676.857	0.0166955
676.935	0.0168203
677.013	0.0167676
677.091	0.0167970
677.169	0.0166884
677.247	0.0167359
677.325	0.0165524
677.404	0.0162820
677.482	0.0160740
677.560	0.0158565
677.638	0.0157905
677.716	0.0156001
677.794	0.0156989
677.872	0.0154633
677.950	0.0156441
678.029	0.0158993
678.107	0.0160152
678.185	0.0163415
678.263	0.0164851
678.341	0.0170041
678.419	0.0172916
678.497	0.0174847
678.575	0.0174875
678.654	0.0175877
678.732	0.0175884
678.810	0.0176363
678.888	0.0174889
678.966	0.0173682
679.044	0.0170776
679.122	0.0168002
679.200	0.0167374
679.279	0.0165984
679.357	0.0163184
679.435	0.0160715
679.513	0.0161864
679.591	0.0158765
679.669	0.0158041
679.747	0.0153532
679.825	0.0151585
679.904	0.0149537
679.982	0.0145735
680.060	0.0144234
680.138	0.0142304
680.216	0.0140948
680.294	0.0140510
680.372	0.0140592
680.450	0.0140842
680.529	0.0145645
680.607	0.0147429
680.685	0.0154230
680.763	0.0158802
680.841	0.0164907
680.919	0.0169459
680.997	0.0173197
681.075	0.0179310
681.154	0.0180099
681.232	0.0180706
681.310	0.0179904
681.388	0.0179698
681.466	0.0176302
681.544	0.0174279
681.622	0.0171986
681.700	0.0169489
681.779	0.0167957
681.857	0.0166133
681.935	0.0164739
682.013	0.0163922
682.091	0.0165172
682.169	0.0164297
682.247	0.0164777
682.325	0.0166251
682.404	0.0167321
682.482	0.0168508
682.560	0.0170895
682.638	0.0172957
682.716	0.0173808
682.794	0.0174512
682.872	0.0174953
682.950	0.0174323
683.029	0.0171849
683.107	0.0171365
683.185	0.0167847
683.263	0.0166238
683.341	0.0163800
683.419	0.0160189
683.497	0.0157603
683.575	0.0155640
683.654	0.0155302
683.732	0.0156116
683.810	0.0155051
683.888	0.0157940
683.966	0.0160500
684.044	0.0165792
684.122	0.0166893
684.200	0.0169672
684.279	0.0169614
684.357	0.0168613
684.435	0.0166510
684.513	0.0161717
684.591	0.0158902
684.669	0.0153903
684.747	0.0148614
684.825	0.0143986
684.904	0.0141212
684.982	0.0137346
685.060	0.0134863
685.138	0.0134215
685.216	0.0133525
685.294	0.0134902
685.372	0.0138155
685.450	0.0140238
685.529	0.0143167
685.607	0.0146574
685.685	0.0152283
685.763	0.0153359
685.841	0.0157891
685.919	0.0162136
685.997	0.0165768
686.075	0.0165569
686.154	0.0169310
686.232	0.0168438
686.310	0.0167887
686.388	0.0167532
686.466	0.0167468
686.544	0.0167133
686.622	0.0167002
686.700	0.0167817
686.779	0.0171782
686.857	0.0173605
686.935	0.0178152
687.013	0.0181743
687.091	0.0185162
687.169	0.0190066
687.247	0.0195591
687.325	0.0197395
687.404	0.0197320
687.482	0.0196883
687.560	0.0198578
687.638	0.0194021
687.716	0.0190469
687.794	0.0185021
687.872	0.0180583
687.950	0.0177530
688.029	0.0172759
688.107	0.0168616
688.185	0.0165528
688.263	0.0161793
688.341	0.0159238
688.419	0.0156986
688.497	0.0155740
688.575	0.0152703
688.654	0.0151647
688.732	0.0151019
688.810	0.0149812
688.888	0.0149890
688.966	0.0147973
689.044	0.0146829
689.122	0.0145835
689.200	0.0146717
689.279	0.0146339
689.357	0.0146433
689.435	0.0148811
689.513	0.0149992
689.591	0.0152464
689.669	0.0156715
689.747	0.0157466
689.825	0.0161345
689.904	0.0162314
689.982	0.0163972
690.060	0.0164824
690.138	0.0164954
690.216	0.0164337
690.294	0.0164509
690.372	0.0164154
690.450	0.0163248
690.529	0.0162968
690.607	0.0163240
690.685	0.0161867
690.763	0.0162288
690.841	0.0163510
690.919	0.0164144
690.997	0.0163853
691.075	0.0166309
691.154	0.0166200
691.232	0.0167479
691.310	0.0165574
691.388	0.0164203
691.466	0.0158911
691.544	0.0155500
691.622	0.0148295
691.700	0.0141808
691.779	0.0133942
691.857	0.0124218
691.935	0.0118635
692.013	0.0111422
692.091	0.0105893
692.169	0.0102738
692.247	0.0100169
692.325	0.0102715
692.404	0.0107306
692.482	0.0114133
692.560	0.0123052
692.638	0.0135139
692.716	0.0148972
692.794	0.0162315
692.872	0.0176548
692.950	0.0192581
693.029	0.0206477
693.107	0.0221519
693.185	0.0232247
693.263	0.0242609
693.341	0.0250745
693.419	0.0257038
693.497	0.0260203
693.575	0.0262973
693.654	0.0262997
693.732	0.0261885
693.810	0.0258208
693.888	0.0250586
693.966	0.0241094
694.044	0.0232048
694.122	0.0219718
694.200	0.0208135
694.279	0.0194527
694.357	0.0181818
694.435	0.0169891
694.513	0.0158403
694.591	0.0149457
694.669	0.0141330
694.747	0.0136208
694.825	0.0131483
694.904	0.0128265
694.982	0.0126646
695.060	0.0124302
695.138	0.0122978
695.216	0.0118870
695.294	0.0117171
695.372	0.0118929
695.450	0.0116759
695.529	0.0116294
695.607	0.0115914
695.685	0.0115170
695.763	0.0114034
695.841	0.0112406
695.919	0.0111622
695.997	0.0110031
696.075	0.0107809
696.154	0.0107442
696.232	0.0107092
696.310	0.0108667
696.388	0.0109151
696.466	0.0108423
696.544	0.0110426
696.622	0.0107913
696.700	0.0107713
696.779	0.0105610
696.857	0.0103928
696.935	0.0104210
697.013	0.0102017
697.091	0.0102723
697.169	0.0103664
697.247	0.0107253
697.325	0.0115403
697.404	0.0123944
697.482	0.0135567
697.560	0.0152080
697.638	0.0169016
697.716	0.0187795
697.794	0.0208542
697.872	0.0230621
697.950	0.0252407
698.029	0.0270562
698.107	0.0287122
698.185	0.0300362
698.263	0.0312214
698.341	0.0315768
698.419	0.0317145
698.497	0.0314300
698.575	0.0307905
698.654	0.0298920
698.732	0.0285365
698.810	0.0272650
698.888	0.0256813
698.966	0.0240967
699.044	0.0224974
699.122	0.0207098
699.200	0.0191668
699.279	0.0178230
699.357	0.0164480
699.435	0.0151638
699.513	0.0141283
699.591	0.0132424
699.669	0.0125210
699.747	0.0120182
699.825	0.0115298
699.904	0.0111890
699.982	0.0108058
700.060	0.0105338
700.138	0.0101911
700.216	0.0101078
700.294	0.00985420
700.372	0.00993935
700.450	0.00976898
700.529	0.00960411
700.607	0.00990555
700.685	0.00997902
700.763	0.0100129
700.841	0.0100769
700.919	0.0102666
700.997	0.0105637
701.075	0.0109955
701.154	0.0113355
701.232	0.0115485
701.310	0.0119724
701.388	0.0120136
701.466	0.0120463
701.544	0.0121069
701.622	0.0120615
701.700	0.0119168
701.779	0.0118823
701.857	0.0116917
701.935	0.0113403
702.013	0.0115764
702.091	0.0117261
702.169	0.0118293
702.247	0.0124700
702.325	0.0131692
702.404	0.0141147
702.482	0.0152635
702.560	0.0167426
702.638	0.0182288
702.716	0.0198122
702.794	0.0216384
702.872	0.0232145
702.950	0.0246645
703.029	0.0260205
703.107	0.0270724
703.185	0.0277901
703.263	0.0283169
703.341	0.0283650
703.419	0.0282597
703.497	0.0279665
703.575	0.0272170
703.654	0.0263855
703.732	0.0256450
703.810	0.0246161
703.888	0.0235361
703.966	0.0224639
704.044	0.0214092
704.122	0.0202747
704.200	0.0191640
704.279	0.0181974
704.357	0.0173088
704.435	0.0162405
704.513	0.0155202
704.591	0.0144950
704.669	0.0138197
704.747	0.0129375
704.825	0.0123137
704.904	0.0117908
704.982	0.0112296
705.060	0.0107262
705.138	0.0102608
705.216	0.00985878
705.294	0.00989426
705.372	0.00988899
705.450	0.00983849
705.529	0.0100347
705.607	0.0103809
705.685	0.0105484
705.763	0.0109029
705.841	0.0114975
705.919	0.0118574
705.997	0.0124880
706.075	0.0130415
706.154	0.0132587
706.232	0.0137141
706.310	0.0141290
706.388	0.0144449
706.466	0.0145840
706.544	0.0147643
706.622	0.0147164
706.700	0.0148006
706.779	0.0144079
706.857	0.0142770
706.935	0.0142403
707.013	0.0140990
707.091	0.0140958
707.169	0.0141632
707.247	0.0142581
707.325	0.0145216
707.404	0.0149177
707.482	0.0155148
707.560	0.0160835
707.638	0.0168412
707.716	0.0177405
707.794	0.0187896
707.872	0.0198066
707.950	0.0209278
708.029	0.0220646
708.107	0.0229047
708.185	0.0235114
708.263	0.0241852
708.341	0.0243291
708.419	0.0241958
708.497	0.0242793
708.575	0.0237757
708.654	0.0233685
708.732	0.0228030
708.810	0.0221541
708.888	0.0214590
708.966	0.0206593
709.044	0.0198402
709.122	0.0190051
709.200	0.0182652
709.279	0.0175268
709.357	0.0166061
709.435	0.0158964
709.513	0.0151923
709.591	0.0147793
709.669	0.0142370
709.747	0.0138060
709.825	0.0134956
709.904	0.0131142
709.982	0.0126110
710.060	0.0121243
710.138	0.0121366
710.216	0.0119151
710.294	0.0116860
710.372	0.0118138
710.450	0.0118772
710.529	0.0120064
710.607	0.0122005
710.685	0.0124128
710.763	0.0127010
710.841	0.0127304
710.919	0.0129482
710.997	0.0131570
711.075	0.0134084
711.154	0.0134713
711.232	0.0135963
711.310	0.0138499
711.388	0.0137533
711.466	0.0139254
711.544	0.0139434
711.622	0.0140950
711.700	0.0142711
711.779	0.0143250
711.857	0.0143980
711.935	0.0146995
712.013	0.0149065
712.091	0.0153461
712.169	0.0156931
712.247	0.0160300
712.325	0.0164272
712.404	0.0168452
712.482	0.0172604
712.560	0.0178818
712.638	0.0184892
712.716	0.0189642
712.794	0.0196638
712.872	0.0201412
712.950	0.0207236
713.029	0.0213770
713.107	0.0217754
713.185	0.0220802
713.263	0.0222822
713.341	0.0227075
713.419	0.0225535
713.497	0.0222318
713.575	0.0220093
713.654	0.0213998
713.732	0.0209684
713.810	0.0201780
713.888	0.0195457
713.966	0.0187994
714.044	0.0182619
714.122	0.0174290
714.200	0.0167632
714.279	0.0161481
714.357	0.0157907
714.435	0.0153169
714.513	0.0149480
714.591	0.0146552
714.669	0.0141953
714.747	0.0141706
714.825	0.0139786
714.904	0.0138856
714.982	0.0138299
715.060	0.0137713
715.138	0.0136828
715.216	0.0136818
715.294	0.0134625
715.372	0.0135481
715.450	0.0135813
715.529	0.0134701
715.607	0.0133244
715.685	0.0136281
715.763	0.0136542
715.841	0.0135326
715.919	0.0135850
715.997	0.0135613
716.075	0.0136108
716.154	0.0133178
716.232	0.0134427
716.310	0.0134278
716.388	0.0131532
716.466	0.0132611
716.544	0.0134091
716.622	0.0134323
716.700	0.0137364
716.779	0.0139618
716.857	0.0142187
716.935	0.0144263
717.013	0.0147655
717.091	0.0152139
717.169	0.0157529
717.247	0.0161409
717.325	0.0168615
717.404	0.0173269
717.482	0.0177772
717.560	0.0184779
717.638	0.0190011
717.716	0.0195415
717.794	0.0196789
717.872	0.0201524
717.950	0.0204411
718.029	0.0205968
718.107	0.0206562
718.185	0.0207465
718.263	0.0206836
718.341	0.0205171
718.419	0.0203250
718.497	0.0199654
718.575	0.0196509
718.654	0.0193958
718.732	0.0187157
718.810	0.0181638
718.888	0.0177952
718.966	0.0172513
719.044	0.0166711
719.122	0.0162017
719.200	0.0157490
719.279	0.0156212
719.357	0.0151746
719.435	0.0148624
719.513	0.0149240
719.591	0.0147740
719.669	0.0146320
719.747	0.0145205
719.825	0.0147178
719.904	0.0146067
719.982	0.0148820
720.060	0.0147896
720.138	0.0149736
720.216	0.0151728
720.294	0.0150934
720.372	0.0153362
720.450	0.0155477
720.529	0.0156086
720.607	0.0156684
720.685	0.0158353
720.763	0.0159520
720.841	0.0160303
720.919	0.0162219
720.997	0.0161496
721.075	0.0160778
721.154	0.0159703
721.232	0.0160677
721.310	0.0158793
721.388	0.0157879
721.466	0.0157349
721.544	0.0155148
721.622	0.0153045
721.700	0.0152670
721.779	0.0150661
721.857	0.0149051
721.935	0.0148016
722.013	0.0147685
722.091	0.0148225
722.169	0.0149116
722.247	0.0150288
722.325	0.0152953
722.404	0.0153714
722.482	0.0156203
722.560	0.0159377
722.638	0.0162335
722.716	0.0165953
722.794	0.0170853
722.872	0.0172681
722.950	0.0175788
723.029	0.0180032
723.107	0.0181081
723.185	0.0183150
723.263	0.0184174
723.341	0.0184155
723.419	0.0184124
723.497	0.0183609
723.575	0.0182132
723.654	0.0181497
723.732	0.0177779
723.810	0.0173656
723.888	0.0169810
723.966	0.0167908
724.044	0.0162885
724.122	0.0158731
724.200	0.0153924
724.279	0.0152267
724.357	0.0151606
724.435	0.0148959
724.513	0.0147166
724.591	0.0147661
724.669	0.0147931
724.747	0.0148621
724.825	0.0151503
724.904	0.0152759
724.982	0.0156113
725.060	0.0156279
725.138	0.0159032
725.216	0.0161720
725.294	0.0162582
725.372	0.0165303
725.450	0.0166340
725.529	0.0169486
725.607	0.0170899
725.685	0.0171832
725.763	0.0171535
725.841	0.0173301
725.919	0.0173898
725.997	0.0172733
726.075	0.0173649
726.154	0.0174988
726.232	0.0173447
726.310	0.0170486
726.388	0.0170428
726.466	0.0168243
726.544	0.0167020
726.622	0.0163973
726.700	0.0160319
726.779	0.0158475
726.857	0.0155059
726.935	0.0153633
727.013	0.0151295
727.091	0.0149443
727.169	0.0149303
727.247	0.0149680
727.325	0.0150539
727.404	0.0151350
727.482	0.0153822
727.560	0.0156411
727.638	0.0157508
727.716	0.0161852
727.794	0.0163601
727.872	0.0166268
727.950	0.0167797
728.029	0.0171761
728.107	0.0172115
728.185	0.0173124
728.263	0.0175777
728.341	0.0173502
728.419	0.0171394
728.497	0.0170718
728.575	0.0169095
728.654	0.0167155
728.732	0.0165647
728.810	0.0163321
728.888	0.0161823
728.966	0.0159954
729.044	0.0158425
729.122	0.0158351
729.200	0.0157810
729.279	0.0157452
729.357	0.0156625
729.435	0.0159095
729.513	0.0160162
729.591	0.0160267
729.669	0.0163890
729.747	0.0163086
729.825	0.0166115
729.904	0.0166875
729.982	0.0167566
730.060	0.0168489
730.138	0.0169579
730.216	0.0168397
730.294	0.0168371
730.372	0.0168356
730.450	0.0168250
730.529	0.0167043
730.607	0.0166940
730.685	0.0165824
730.763	0.0163680
730.841	0.0162759
730.919	0.0163260
730.997	0.0161279
731.075	0.0161224
731.154	0.0161178
731.232	0.0160222
731.310	0.0159100
731.388	0.0158459
731.466	0.0157857
731.544	0.0158298
731.622	0.0158586
731.700	0.0158916
731.779	0.0158092
731.857	0.0159554
731.935	0.0159548
732.013	0.0159510
732.091	0.0157960
732.169	0.0159876
732.247	0.0159216
732.325	0.0159137
732.404	0.0158414
732.482	0.0157808
732.560	0.0159225
732.638	0.0160171
732.716	0.0160332
732.794	0.0161101
732.872	0.0162614
732.950	0.0162817
733.029	0.0164469
733.107	0.0164249
733.185	0.0164557
733.263	0.0165800
733.341	0.0166723
733.419	0.0168233
733.497	0.0166908
733.575	0.0167728
733.654	0.0167809
733.732	0.0167621
733.810	0.0167529
733.888	0.0165472
733.966	0.0165589
734.044	0.0165411
734.122	0.0163734
734.200	0.0161942
734.279	0.0161607
734.357	0.0161520
734.435	0.0160685
734.513	0.0160204
734.591	0.0159264
734.669	0.0159411
734.747	0.0161088
734.825	0.0162082
734.904	0.0163828
734.982	0.0164142
735.060	0.0167789
735.138	0.0168673
735.216	0.0169735
735.294	0.0171435
735.372	0.0171944
735.450	0.0171929
735.529	0.0172632
735.607	0.0172250
735.685	0.0169031
735.763	0.0168554
735.841	0.0168065
735.919	0.0165922
735.997	0.0164435
736.075	0.0162942
736.154	0.0160966
736.232	0.0160033
736.310	0.0157364
736.388	0.0157111
736.466	0.0157043
736.544	0.0154996
736.622	0.0154487
736.700	0.0153421
736.779	0.0155687
736.857	0.0154901
736.935	0.0156526
737.013	0.0155319
737.091	0.0155952
737.169	0.0157881
737.247	0.0160153
737.325	0.0160269
737.404	0.0161655
737.482	0.0160838
737.560	0.0161993
737.638	0.0163979
737.716	0.0164120
737.794	0.0164574
737.872	0.0165175
737.950	0.0164326
738.029	0.0167245
738.107	0.0166723
738.185	0.0168391
738.263	0.0168006
738.341	0.0168922
738.419	0.0169460
738.497	0.0169872
738.575	0.0168956
738.654	0.0168991
738.732	0.0166565
738.810	0.0166846
738.888	0.0167891
738.966	0.0164220
739.044	0.0162920
739.122	0.0162401
739.200	0.0160538
739.279	0.0158089
739.357	0.0157681
739.435	0.0156171
739.513	0.0155377
739.591	0.0154781
739.669	0.0155183
739.747	0.0155816
739.825	0.0156444
739.904	0.0157305
739.982	0.0158804
740.060	0.0160207
740.138	0.0160495
740.216	0.0161694
740.294	0.0164552
740.372	0.0165277
740.450	0.0165088
740.529	0.0167704
740.607	0.0168800
740.685	0.0168343
740.763	0.0166991
740.841	0.0167693
740.919	0.0166827
740.997	0.0164934
741.075	0.0163247
741.154	0.0162432
741.232	0.0160506
741.310	0.0159721
741.388	0.0157462
741.466	0.0157196
741.544	0.0158261
741.622	0.0157223
741.700	0.0155711
741.779	0.0155441
741.857	0.0154870
741.935	0.0156656
742.013	0.0156313
742.091	0.0157758
742.169	0.0159309
742.247	0.0161516
742.325	0.0162193
742.404	0.0163531
742.482	0.0166180
742.560	0.0166538
742.638	0.0168179
742.716	0.0167467
742.794	0.0169910
742.872	0.0168839
742.950	0.0169682
743.029	0.0169660
743.107	0.0170651
743.185	0.0169907
743.263	0.0168999
743.341	0.0170486
743.419	0.0172134
743.497	0.0171404
743.575	0.0169621
743.654	0.0169160
743.732	0.0169828
743.810	0.0168640
743.888	0.0168899
743.966	0.0167878
744.044	0.0167738
744.122	0.0167126
744.200	0.0166186
744.279	0.0165752
744.357	0.0164838
744.435	0.0163076
744.513	0.0162784
744.591	0.0162587
744.669	0.0160491
744.747	0.0159656
744.825	0.0159902
744.904	0.0161384
744.982	0.0159667
745.060	0.0157585
745.138	0.0155853
745.216	0.0154862
745.294	0.0153984
745.372	0.0152458
745.450	0.0153809
745.529	0.0152314
745.607	0.0152225
745.685	0.0152189
745.763	0.0151721
745.841	0.0151594
745.919	0.0152411
745.997	0.0151803
746.075	0.0153485
746.154	0.0154178
746.232	0.0155898
746.310	0.0154105
746.388	0.0156588
746.466	0.0157976
746.544	0.0159660
746.622	0.0160233
746.700	0.0161705
746.779	0.0163329
746.857	0.0165524
746.935	0.0166039
747.013	0.0166639
747.091	0.0168615
747.169	0.0170683
747.247	0.0168721
747.325	0.0170647
747.404	0.0170545
747.482	0.0170573
747.560	0.0171830
747.638	0.0170610
747.716	0.0169492
747.794	0.0168070
747.872	0.0168613
747.950	0.0167547
748.029	0.0166735
748.107	0.0165789
748.185	0.0165983
748.263	0.0165706
748.341	0.0163657
748.419	0.0164380
748.497	0.0164165
748.575	0.0164837
748.654	0.0162880
748.732	0.0161439
748.810	0.0163556
748.888	0.0164097
748.966	0.0164558
749.044	0.0164767
749.122	0.0164727
749.200	0.0164140
749.279	0.0162794
749.357	0.0164270
749.435	0.0163205
749.513	0.0162851
749.591	0.0163336
749.669	0.0162776
749.747	0.0161384
749.825	0.0161161
749.904	0.0161469
749.982	0.0162086
750.060	0.0163982
750.138	0.0162939
750.216	0.0162258
750.294	0.0163506
750.372	0.0164056
750.450	0.0164294
750.529	0.0163554
750.607	0.0164438
750.685	0.0166805
750.763	0.0165901
750.841	0.0165472
750.919	0.0166087
750.997	0.0163509
751.075	0.0164345
751.154	0.0164275
751.232	0.0163710
751.310	0.0162867
751.388	0.0160670
751.466	0.0160284
751.544	0.0160657
751.622	0.0159988
751.700	0.0158376
751.779	0.0158054
751.857	0.0157178
751.935	0.0158382
752.013	0.0158091
752.091	0.0157242
752.169	0.0158078
752.247	0.0158662
752.325	0.0159383
752.404	0.0161799
752.482	0.0160115
752.560	0.0161237
752.638	0.0162457
752.716	0.0163130
752.794	0.0164094
752.872	0.0164582
752.950	0.0165603
753.029	0.0163770
753.107	0.0166199
753.185	0.0165271
753.263	0.0163914
753.341	0.0165740
753.419	0.0165226
753.497	0.0164225
753.575	0.0163426
753.654	0.0162842
753.732	0.0163190
753.810	0.0161745
753.888	0.0163023
753.966	0.0163385
754.044	0.0163017
754.122	0.0163373
754.200	0.0162804
754.279	0.0163449
754.357	0.0163280
754.435	0.0162807
754.513	0.0162424
754.591	0.0162552
754.669	0.0162601
754.747	0.0164628
754.825	0.0163445
754.904	0.0163123
754.982	0.0164648
755.060	0.0164785
755.138	0.0164567
755.216	0.0165208
755.294	0.0164375
755.372	0.0164970
755.450	0.0165895
755.529	0.0165094
755.607	0.0165497
755.685	0.0166423
755.763	0.0164083
755.841	0.0165386
755.919	0.0165358
755.997	0.0162682
756.075	0.0161967
756.154	0.0163026
756.232	0.0161080
756.310	0.0160462
756.388	0.0160932
756.466	0.0161100
756.544	0.0160217
756.622	0.0160149
756.700	0.0159500
756.779	0.0159864
756.857	0.0161570
756.935	0.0160731
757.013	0.0161163
757.091	0.0162471
757.169	0.0163369
757.247	0.0163696
757.325	0.0165206
757.404	0.0165079
757.482	0.0165272
757.560	0.0164147
757.638	0.0166013
757.716	0.0166229
757.794	0.0164648
757.872	0.0163876
757.950	0.0165768
758.029	0.0165083
758.107	0.0164126
758.185	0.0164046
758.263	0.0163081
758.341	0.0163346
758.419	0.0162328
758.497	0.0161996
758.575	0.0161208
758.654	0.0160874
758.732	0.0159946
758.810	0.0160038
758.888	0.0159337
758.966	0.0158680
759.044	0.0162306
759.122	0.0161269
759.200	0.0162811
759.279	0.0161392
759.357	0.0162539
759.435	0.0161347
759.513	0.0162732
759.591	0.0163814
759.669	0.0164025
759.747	0.0164272
759.825	0.0163771
759.904	0.0163602
759.982	0.0165076
760.060	0.0166137
760.138	0.0165191
760.216	0.0165005
760.294	0.0165896
760.372	0.0166325
760.450	0.0165094
760.529	0.0164945
760.607	0.0164056
760.685	0.0163925
760.763	0.0165614
760.841	0.0164561
760.919	0.0163321
760.997	0.0164070
761.075	0.0161968
761.154	0.0161916
761.232	0.0163721
761.310	0.0163084
761.388	0.0162489
761.466	0.0163850
761.544	0.0162371
761.622	0.0162627
761.700	0.0162237
761.779	0.0161204
761.857	0.0161729
761.935	0.0161456
762.013	0.0162923
762.091	0.0162936
762.169	0.0162965
762.247	0.0163323
762.325	0.0163496
762.404	0.0163717
762.482	0.0163927
762.560	0.0164445
762.638	0.0163175
762.716	0.0163713
762.794	0.0161948
762.872	0.0163332
762.950	0.0162203
763.029	0.0163611
763.107	0.0164901
763.185	0.0162607
763.263	0.0162543
763.341	0.0162647
763.419	0.0162710
763.497	0.0161757
763.575	0.0162861
763.654	0.0163550
763.732	0.0163440
763.810	0.0163293
763.888	0.0161485
763.966	0.0161528
764.044	0.0161462
764.122	0.0160142
764.200	0.0160416
764.279	0.0162210
764.357	0.0161095
764.435	0.0160799
764.513	0.0161451
764.591	0.0160143
764.669	0.0160052
764.747	0.0160610
764.825	0.0161269
764.904	0.0161924
764.982	0.0162241
765.060	0.0163326
765.138	0.0162210
765.216	0.0162084
765.294	0.0163350
765.372	0.0164310
765.450	0.0164349
765.529	0.0163867
765.607	0.0163303
765.685	0.0163405
765.763	0.0163306
765.841	0.0165288
765.919	0.0163602
765.997	0.0164291
766.075	0.0162930
766.154	0.0162792
766.232	0.0163125
766.310	0.0164339
766.388	0.0164424
766.466	0.0164903
766.544	0.0165230
766.622	0.0163727
766.700	0.0164738
766.779	0.0164215
766.857	0.0164535
766.935	0.0166142
767.013	0.0165258
767.091	0.0165634
767.169	0.0166673
767.247	0.0167769
767.325	0.0167516
767.404	0.0167317
767.482	0.0167389
767.560	0.0166122
767.638	0.0167114
767.716	0.0166367
767.794	0.0165090
767.872	0.0165511
767.950	0.0164650
768.029	0.0163608
768.107	0.0164397
768.185	0.0163364
768.263	0.0160288
768.341	0.0160420
768.419	0.0159644
768.497	0.0160867
768.575	0.0158704
768.654	0.0158580
768.732	0.0159409
768.810	0.0158338
768.888	0.0158040
768.966	0.0157813
769.044	0.0158128
769.122	0.0158591
769.200	0.0158990
769.279	0.0160038
769.357	0.0159132
769.435	0.0158264
769.513	0.0160313
769.591	0.0160594
769.669	0.0159350
769.747	0.0161209
769.825	0.0162465
769.904	0.0163153
769.982	0.0163326
770.060	0.0163033
770.138	0.0161404
770.216	0.0165022
770.294	0.0164994
770.372	0.0164934
770.450	0.0165716
770.529	0.0167002
770.607	0.0167049
770.685	0.0167710
770.763	0.0168589
770.841	0.0167430
770.919	0.0168552
770.997	0.0169318
771.075	0.0166965
771.154	0.0166376
771.232	0.0167007
771.310	0.0168817
771.388	0.0164857
771.466	0.0166074
771.544	0.0163528
771.622	0.0164187
771.700	0.0162296
771.779	0.0161880
771.857	0.0160669
771.935	0.0161669
772.013	0.0158807
772.091	0.0159055
772.169	0.0159479
772.247	0.0158501
772.325	0.0158832
772.404	0.0159113
772.482	0.0159140
772.560	0.0159518
772.638	0.0159750
772.716	0.0159033
772.794	0.0160001
772.872	0.0161115
772.950	0.0160973
773.029	0.0160694
773.107	0.0161479
773.185	0.0162595
773.263	0.0162382
773.341	0.0161636
773.419	0.0163001
773.497	0.0163059
773.575	0.0163673
773.654	0.0162299
773.732	0.0162771
773.810	0.0165095
773.888	0.0164160
773.966	0.0164956
774.044	0.0163464
774.122	0.0165310
774.200	0.0165692
774.279	0.0165385
774.357	0.0164164
774.435	0.0166128
774.513	0.0166962
774.591	0.0165450
774.669	0.0167519
774.747	0.0165984
774.825	0.0165944
774.904	0.0165440
774.982	0.0166266
775.060	0.0166576
775.138	0.0165468
775.216	0.0165042
775.294	0.0166369
775.372	0.0167078
775.450	0.0166166
775.529	0.0164165
775.607	0.0165536
775.685	0.0164288
775.763	0.0164241
775.841	0.0163293
775.919	0.0162541
775.997	0.0161866
776.075	0.0160630
776.154	0.0159220
776.232	0.0160403
776.310	0.0159898
776.388	0.0158053
776.466	0.0159496
776.544	0.0156829
776.622	0.0158814
776.700	0.0159327
776.779	0.0158971
776.857	0.0158617
776.935	0.0160043
777.013	0.0158929
777.091	0.0159669
777.169	0.0160051
777.247	0.0161423
777.325	0.0162563
777.404	0.0160049
777.482	0.0161848
777.560	0.0162128
777.638	0.0161352
777.716	0.0161999
777.794	0.0162913
777.872	0.0161645
777.950	0.0162588
778.029	0.0162383
778.107	0.0162738
778.185	0.0162984
778.263	0.0162308
778.341	0.0162040
778.419	0.0163662
778.497	0.0163247
778.575	0.0165359
778.654	0.0165683
778.732	0.0165917
778.810	0.0165764
778.888	0.0166594
778.966	0.0167017
779.044	0.0166569
779.122	0.0166088
779.200	0.0165252
779.279	0.0165845
779.357	0.0167059
779.435	0.0166358
779.513	0.0164751
779.591	0.0166003
779.669	0.0165240
779.747	0.0164974
779.825	0.0164654
779.904	0.0164283
779.982	0.0164085
780.060	0.0163437
780.138	0.0162543
780.216	0.0163014
780.294	0.0162372
780.372	0.0163065
780.450	0.0163708
780.529	0.0161133
780.607	0.0161288
780.685	0.0161440
780.763	0.0160834
780.841	0.0159817
780.919	0.0159583
780.997	0.0159554
781.075	0.0157734
781.154	0.0158192
781.232	0.0158427
781.310	0.0157343
781.388	0.0158150
781.466	0.0157816
781.544	0.0157739
781.622	0.0157156
781.700	0.0158714
781.779	0.0159293
781.857	0.0160480
781.935	0.0161110
782.013	0.0161937
782.091	0.0160979
782.169	0.0161646
782.247	0.0161378
782.325	0.0161652
782.404	0.0163175
782.482	0.0161874
782.560	0.0164216
782.638	0.0164835
782.716	0.0164840
782.794	0.0164251
782.872	0.0166287
782.950	0.0166074
783.029	0.0166988
783.107	0.0166873
783.185	0.0167675
783.263	0.0167724
783.341	0.0167813
783.419	0.0168790
783.497	0.0169823
783.575	0.0168186
783.654	0.0168343
783.732	0.0169868
783.810	0.0167728
783.888	0.0168704
783.966	0.0169025
784.044	0.0168163
784.122	0.0166979
784.200	0.0166853
784.279	0.0164269
784.357	0.0163928
784.435	0.0163627
784.513	0.0162374
784.591	0.0161602
784.669	0.0160866
784.747	0.0159629
784.825	0.0159013
784.904	0.0158791
784.982	0.0159741
785.060	0.0157071
785.138	0.0157510
785.216	0.0156892
785.294	0.0156599
785.372	0.0155273
785.450	0.0157219
785.529	0.0156858
785.607	0.0156450
785.685	0.0156431
785.763	0.0156670
785.841	0.0159394
785.919	0.0159254
785.997	0.0158941
786.075	0.0160565
786.154	0.0160925
786.232	0.0160284
786.310	0.0159580
786.388	0.0160925
786.466	0.0162334
786.544	0.0162650
786.622	0.0162082
786.700	0.0163023
786.779	0.0162108
786.857	0.0163213
786.935	0.0165378
787.013	0.0164072
787.091	0.0164938
787.169	0.0165427
787.247	0.0164901
787.325	0.0165501
787.404	0.0165571
787.482	0.0166090
787.560	0.0167007
787.638	0.0166402
787.716	0.0166350
787.794	0.0166667
787.872	0.0168038
787.950	0.0167427
788.029	0.0164765
788.107	0.0165652
788.185	0.0163721
788.263	0.0162096
788.341	0.0162467
788.419	0.0161593
788.497	0.0161829
788.575	0.0162348
788.654	0.0159857
788.732	0.0159656
788.810	0.0158408
788.888	0.0159270
788.966	0.0159034
789.044	0.0158884
789.122	0.0161797
789.200	0.0158829
789.279	0.0160385
789.357	0.0161452
789.435	0.0161902
789.513	0.0161714
789.591	0.0163016
789.669	0.0163159
789.747	0.0163978
789.825	0.0164643
789.904	0.0165028
789.982	0.0166177
790.060	0.0165427
790.138	0.0164665
790.216	0.0165657
790.294	0.0164608
790.372	0.0166575
790.450	0.0165517
790.529	0.0167253
790.607	0.0167573
790.685	0.0164031
790.763	0.0164352
790.841	0.0165439
790.919	0.0167376
790.997	0.0165218
791.075	0.0164964
791.154	0.0164977
791.232	0.0164440
791.310	0.0165064
791.388	0.0163743
791.466	0.0164443
791.544	0.0164462
791.622	0.0164422
791.700	0.0162364
791.779	0.0163001
791.857	0.0162443
791.935	0.0161475
792.013	0.0159984
792.091	0.0162401
792.169	0.0160686
792.247	0.0157912
792.325	0.0159256
792.404	0.0159570
792.482	0.0159112
792.560	0.0158510
792.638	0.0159579
792.716	0.0160252
792.794	0.0158726
792.872	0.0158043
792.950	0.0157830
793.029	0.0157592
793.107	0.0157921
793.185	0.0157967
793.263	0.0157432
793.341	0.0158659
793.419	0.0158238
793.497	0.0159049
793.575	0.0158010
793.654	0.0158123
793.732	0.0158690
793.810	0.0159471
793.888	0.0159113
793.966	0.0161208
794.044	0.0161948
794.122	0.0162927
794.200	0.0163882
794.279	0.0164324
794.357	0.0165635
794.435	0.0166459
794.513	0.0168455
794.591	0.0170117
794.669	0.0169894
794.747	0.0171350
794.825	0.0171327
794.904	0.0173053
794.982	0.0172054
795.060	0.0172913
795.138	0.0172005
795.216	0.0172814
795.294	0.0172844
795.372	0.0172055
795.450	0.0172076
795.529	0.0170976
795.607	0.0169997
795.685	0.0170964
795.763	0.0169753
795.841	0.0168843
795.919	0.0167191
795.997	0.0166264
796.075	0.0164533
796.154	0.0164017
796.232	0.0163448
796.310	0.0162920
796.388	0.0161079
796.466	0.0160599
796.544	0.0158579
796.622	0.0158966
796.700	0.0158022
796.779	0.0156829
796.857	0.0155897
796.935	0.0156768
797.013	0.0155696
797.091	0.0156692
797.169	0.0155199
797.247	0.0154736
797.325	0.0154096
797.404	0.0155202
797.482	0.0155034
797.560	0.0154573
797.638	0.0155257
797.716	0.0155686
797.794	0.0156142
797.872	0.0154980
797.950	0.0155330
798.029	0.0155924
798.107	0.0157138
798.185	0.0156252
798.263	0.0156676
798.341	0.0158344
798.419	0.0158710
798.497	0.0160307
798.575	0.0160976
798.654	0.0161028
798.732	0.0160745
798.810	0.0164371
798.888	0.0163491
798.966	0.0164784
799.044	0.0165291
799.122	0.0167417
799.200	0.0167726
799.279	0.0169394
799.357	0.0169828
799.435	0.0169441
799.513	0.0172446
799.591	0.0174324
799.669	0.0174490
799.747	0.0174037
799.825	0.0175478
799.904	0.0174853
799.982	0.0175242
800.060	0.0176767
800.138	0.0176831
800.216	0.0175391
800.294	0.0173943
800.372	0.0172958
800.450	0.0172908
800.529	0.0171587
800.607	0.0169605
800.685	0.0169099
800.763	0.0168881
800.841	0.0166259
800.919	0.0164484
800.997	0.0163760
801.075	0.0161428
801.154	0.0159036
801.232	0.0158836
801.310	0.0157630
801.388	0.0156409
801.466	0.0156248
801.544	0.0155100
801.622	0.0153016
801.700	0.0154745
801.779	0.0153754
801.857	0.0153854
801.935	0.0153465
802.013	0.0154476
802.091	0.0154251
802.169	0.0153783
802.247	0.0154411
802.325	0.0154700
802.404	0.0154995
802.482	0.0154334
802.560	0.0154878
802.638	0.0154841
802.716	0.0154681
802.794	0.0156356
802.872	0.0156831
802.950	0.0156072
803.029	0.0157321
803.107	0.0159247
803.185	0.0158621
803.263	0.0158461
803.341	0.0161390
803.419	0.0162857
803.497	0.0162624
803.575	0.0162791
803.654	0.0163700
803.732	0.0163343
803.810	0.0162941
803.888	0.0164065
803.966	0.0164768
804.044	0.0165327
804.122	0.0165681
804.200	0.0166557
804.279	0.0166489
804.357	0.0168827
804.435	0.0170112
804.513	0.0170040
804.591	0.0171922
804.669	0.0171630
804.747	0.0171645
804.825	0.0172393
804.904	0.0172005
804.982	0.0171667
805.060	0.0171608
805.138	0.0173050
805.216	0.0171170
805.294	0.0170504
805.372	0.0169572
805.450	0.0167077
805.529	0.0167305
805.607	0.0166855
805.685	0.0165479
805.763	0.0164849
805.841	0.0165425
805.919	0.0163669
805.997	0.0162160
806.075	0.0162415
806.154	0.0163467
806.232	0.0162547
806.310	0.0161034
806.388	0.0160423
806.466	0.0159570
806.544	0.0159934
806.622	0.0159636
806.700	0.0159354
806.779	0.0159228
806.857	0.0158123
806.935	0.0157690
807.013	0.0157066
807.091	0.0156139
807.169	0.0155682
807.247	0.0155047
807.325	0.0155204
807.404	0.0154729
807.482	0.0154585
807.560	0.0155289
807.638	0.0155336
807.716	0.0154337
807.794	0.0156117
807.872	0.0157259
807.950	0.0157679
808.029	0.0159261
808.107	0.0160251
808.185	0.0162931
808.263	0.0162747
808.341	0.0163013
808.419	0.0164497
808.497	0.0163865
808.575	0.0166076
808.654	0.0166471
808.732	0.0167348
808.810	0.0167134
808.888	0.0167266
808.966	0.0168084
809.044	0.0167601
809.122	0.0167376
809.200	0.0166415
809.279	0.0167242
809.357	0.0166607
809.435	0.0167996
809.513	0.0164927
809.591	0.0166434
809.669	0.0165272
809.747	0.0164395
809.825	0.0165073
809.904	0.0165825
809.982	0.0164484
810.060	0.0163206
810.138	0.0165092
810.216	0.0164730
810.294	0.0164578
810.372	0.0164821
810.450	0.0162801
810.529	0.0164027
810.607	0.0163662
810.685	0.0164359
810.763	0.0161904
810.841	0.0163035
810.919	0.0162788
810.997	0.0165128
811.075	0.0163446
811.154	0.0162477
811.232	0.0164554
811.310	0.0163209
811.388	0.0163167
811.466	0.0162896
811.544	0.0161462
811.622	0.0162556
811.700	0.0160799
811.779	0.0162242
811.857	0.0160836
811.935	0.0160453
812.013	0.0159994
812.091	0.0158012
812.169	0.0158272
812.247	0.0158968
812.325	0.0157991
812.404	0.0159383
812.482	0.0157974
812.560	0.0158383
812.638	0.0157786
812.716	0.0157869
812.794	0.0159315
812.872	0.0160125
812.950	0.0159042
813.029	0.0158150
813.107	0.0159651
813.185	0.0160735
813.263	0.0161579
813.341	0.0161588
813.419	0.0162463
813.497	0.0162009
813.575	0.0164125
813.654	0.0164164
813.732	0.0163795
813.810	0.0164540
813.888	0.0164952
813.966	0.0164928
814.044	0.0166463
814.122	0.0165302
814.200	0.0166216
814.279	0.0166047
814.357	0.0166872
814.435	0.0166266
814.513	0.0166409
814.591	0.0165642
814.669	0.0166422
814.747	0.0166479
814.825	0.0165539
814.904	0.0166116
814.982	0.0167078
815.060	0.0165623
815.138	0.0166405
815.216	0.0165813
815.294	0.0164938
815.372	0.0165757
815.450	0.0165331
815.529	0.0165818
815.607	0.0164732
815.685	0.0164292
815.763	0.0163985
815.841	0.0164153
815.919	0.0165235
815.997	0.0164038
816.075	0.0163684
816.154	0.0164714
816.232	0.0163526
816.310	0.0162186
816.388	0.0163776
816.466	0.0165578
816.544	0.0164820
816.622	0.0163324
816.700	0.0163876
816.779	0.0163622
816.857	0.0162363
816.935	0.0163558
817.013	0.0162196
817.091	0.0162603
817.169	0.0162206
817.247	0.0160164
817.325	0.0160426
817.404	0.0159715
817.482	0.0161395
817.560	0.0159346
817.638	0.0159837
817.716	0.0158497
817.794	0.0158205
817.872	0.0159721
817.950	0.0157819
818.029	0.0156793
818.107	0.0156530
818.185	0.0156910
818.263	0.0156805
818.341	0.0156940
818.419	0.0157897
818.497	0.0156639
818.575	0.0156155
818.654	0.0156890
818.732	0.0156109
818.810	0.0156440
818.888	0.0157677
818.966	0.0158973
819.044	0.0158565
819.122	0.0159382
819.200	0.0160847
819.279	0.0161270
819.357	0.0162098
819.435	0.0164417
819.513	0.0165484
819.591	0.0166342
819.669	0.0166544
819.747	0.0168127
819.825	0.0169645
819.904	0.0168880
819.982	0.0170692
820.060	0.0170377
820.138	0.0169588
820.216	0.0170176
820.294	0.0170969
820.372	0.0171386
820.450	0.0170109
820.529	0.0170676
820.607	0.0169464
820.685	0.0169511
820.763	0.0167381
820.841	0.0167733
820.919	0.0166200
820.997	0.0165861
821.075	0.0165258
821.154	0.0164767
821.232	0.0164698
821.310	0.0163026
821.388	0.0163026
821.466	0.0163331
821.544	0.0162914
821.622	0.0162704
821.700	0.0161601
821.779	0.0162856
821.857	0.0163667
821.935	0.0161486
822.013	0.0160310
822.091	0.0161332
822.169	0.0162894
822.247	0.0162831
822.325	0.0161803
822.404	0.0162022
822.482	0.0161392
822.560	0.0160381
822.638	0.0160917
822.716	0.0160632
822.794	0.0158987
822.872	0.0159251
822.950	0.0159148
823.029	0.0158491
823.107	0.0158943
823.185	0.0158266
823.263	0.0158720
823.341	0.0158348
823.419	0.0157286
823.497	0.0157339
823.575	0.0157121
823.654	0.0157596
823.732	0.0158862
823.810	0.0159789
823.888	0.0159501
823.966	0.0160839
824.044	0.0160704
824.122	0.0162280
824.200	0.0161165
824.279	0.0160702
824.357	0.0161655
824.435	0.0162351
824.513	0.0163623
824.591	0.0164653
824.669	0.0163964
824.747	0.0163284
824.825	0.0164314
824.904	0.0165948
824.982	0.0166034
825.060	0.0166709
825.138	0.0167461
825.216	0.0166730
825.294	0.0166825
825.372	0.0168188
825.450	0.0166426
825.529	0.0167309
825.607	0.0167543
825.685	0.0168138
825.763	0.0167161
825.841	0.0168227
825.919	0.0166832
825.997	0.0166052
826.075	0.0165261
826.154	0.0165824
826.232	0.0167239
826.310	0.0165016
826.388	0.0164370
826.466	0.0163466
826.544	0.0163399
826.622	0.0162569
826.700	0.0161554
826.779	0.0163068
826.857	0.0162437
826.935	0.0159880
827.013	0.0159686
827.091	0.0160326
827.169	0.0161855
827.247	0.0160581
827.325	0.0159049
827.404	0.0158482
827.482	0.0158465
827.560	0.0160925
827.638	0.0160219
827.716	0.0159539
827.794	0.0159225
827.872	0.0159974
827.950	0.0160562
828.029	0.0159553
828.107	0.0159601
828.185	0.0161279
828.263	0.0160424
828.341	0.0159534
828.419	0.0160471
828.497	0.0160799
828.575	0.0161412
828.654	0.0160062
828.732	0.0161135
828.810	0.0162718
828.888	0.0161507
828.966	0.0161977
829.044	0.0161575
829.122	0.0162146
829.200	0.0162398
829.279	0.0162648
829.357	0.0163969
829.435	0.0165377
829.513	0.0164601
829.591	0.0163459
829.669	0.0165343
829.747	0.0164337
829.825	0.0164271
829.904	0.0166814
829.982	0.0166589
830.060	0.0165929
830.138	0.0166249
830.216	0.0167164
830.294	0.0167288
830.372	0.0165462
830.450	0.0166454
830.529	0.0168072
830.607	0.0167612
830.685	0.0166525
830.763	0.0166113
830.841	0.0166698
830.919	0.0166030
830.997	0.0164960
831.075	0.0164825
831.154	0.0164336
831.232	0.0163490
831.310	0.0164427
831.388	0.0162981
831.466	0.0162422
831.544	0.0162230
831.622	0.0162649
831.700	0.0162619
831.779	0.0161336
831.857	0.0160644
831.935	0.0160438
832.013	0.0161631
832.091	0.0161622
832.169	0.0160434
832.247	0.0162186
832.325	0.0160094
832.404	0.0160214
832.482	0.0161649
832.560	0.0161139
832.638	0.0160648
832.716	0.0160355
832.794	0.0160240
832.872	0.0161905
832.950	0.0159667
833.029	0.0160219
833.107	0.0161398
833.185	0.0160070
833.263	0.0161557
833.341	0.0160801
833.419	0.0159579
833.497	0.0159461
833.575	0.0160280
833.654	0.0161068
833.732	0.0162697
833.810	0.0161192
833.888	0.0161813
833.966	0.0160976
834.044	0.0162794
834.122	0.0162898
834.200	0.0162303
834.279	0.0163888
834.357	0.0163560
834.435	0.0163609
834.513	0.0164025
834.591	0.0163513
834.669	0.0164851
834.747	0.0165115
834.825	0.0165012
834.904	0.0164885
834.982	0.0164037
835.060	0.0165762
835.138	0.0165134
835.216	0.0165521
835.294	0.0165576
835.372	0.0165900
835.450	0.0165100
835.529	0.0164266
835.607	0.0164338
835.685	0.0163473
835.763	0.0162930
835.841	0.0164239
835.919	0.0163855
835.997	0.0163245
836.075	0.0162477
836.154	0.0162674
836.232	0.0163198
836.310	0.0163840
836.388	0.0162894
836.466	0.0164773
836.544	0.0163297
836.622	0.0162788
836.700	0.0163852
836.779	0.0164365
836.857	0.0164120
836.935	0.0162149
837.013	0.0164381
837.091	0.0164455
837.169	0.0164510
837.247	0.0163834
837.325	0.0163984
837.404	0.0162513
837.482	0.0162421
837.560	0.0162993
837.638	0.0163186
837.716	0.0163051
837.794	0.0162045
837.872	0.0162622
837.950	0.0161948
838.029	0.0160551
838.107	0.0161135
838.185	0.0160556
838.263	0.0160273
838.341	0.0162833
838.419	0.0161198
838.497	0.0160787
838.575	0.0161343
838.654	0.0162078
838.732	0.0160828
838.810	0.0161918
838.888	0.0161940
838.966	0.0161151
839.044	0.0162189
839.122	0.0162020
839.200	0.0159962
839.279	0.0160949
839.357	0.0162320
839.435	0.0159912
839.513	0.0160027
839.591	0.0162119
839.669	0.0161699
839.747	0.0163114
839.825	0.0162205
839.904	0.0161895
839.982	0.0161252
840.060	0.0162468
840.138	0.0162149
840.216	0.0162263
840.294	0.0163857
840.372	0.0162176
840.450	0.0162773
840.529	0.0162537
840.607	0.0163206
840.685	0.0163358
840.763	0.0163032
840.841	0.0162879
840.919	0.0163725
840.997	0.0164470
841.075	0.0163799
841.154	0.0164726
841.232	0.0164590
841.310	0.0163969
841.388	0.0165208
841.466	0.0164700
841.544	0.0165008
841.622	0.0165934
841.700	0.0165139
841.779	0.0166199
841.857	0.0164713
841.935	0.0164722
842.013	0.0163982
842.091	0.0164342
842.169	0.0164693
842.247	0.0163631
842.325	0.0164681
842.404	0.0164518
842.482	0.0164833
842.560	0.0161633
842.638	0.0163373
842.716	0.0163438
842.794	0.0162029
842.872	0.0162230
842.950	0.0162321
843.029	0.0161164
843.107	0.0160495
843.185	0.0159946
843.263	0.0160191
843.341	0.0160195
843.419	0.0159378
843.497	0.0161143
843.575	0.0160584
843.654	0.0161022
843.732	0.0160655
843.810	0.0162025
843.888	0.0161818
843.966	0.0162312
844.044	0.0161553
844.122	0.0161218
844.200	0.0161179
844.279	0.0162576
844.357	0.0161269
844.435	0.0161945
844.513	0.0160889
844.591	0.0162692
844.669	0.0161281
844.747	0.0161376
844.825	0.0161580
844.904	0.0163236
844.982	0.0164063
845.060	0.0161076
845.138	0.0162786
845.216	0.0163870
845.294	0.0163039
845.372	0.0163663
845.450	0.0163158
845.529	0.0163460
845.607	0.0162408
845.685	0.0163798
845.763	0.0162925
845.841	0.0163343
845.919	0.0163493
845.997	0.0162732
846.075	0.0164024
846.154	0.0164284
846.232	0.0165104
846.310	0.0163846
846.388	0.0164026
846.466	0.0165141
846.544	0.0165705
846.622	0.0164503
846.700	0.0165358
846.779	0.0165491
846.857	0.0166006
846.935	0.0165888
847.013	0.0166048
847.091	0.0166454
847.169	0.0166811
847.247	0.0166254
847.325	0.0165365
847.404	0.0165701
847.482	0.0164743
847.560	0.0164776
847.638	0.0163621
847.716	0.0164331
847.794	0.0164920
847.872	0.0164559
847.950	0.0162569
848.029	0.0161736
848.107	0.0161726
848.185	0.0160755
848.263	0.0160704
848.341	0.0158971
848.419	0.0160410
848.497	0.0161288
848.575	0.0158896
848.654	0.0159184
848.732	0.0158197
848.810	0.0158277
848.888	0.0157806
848.966	0.0159591
849.044	0.0159256
849.122	0.0160239
849.200	0.0161059
849.279	0.0161180
849.357	0.0160174
849.435	0.0160892
849.513	0.0161129
849.591	0.0160737
849.669	0.0161217
849.747	0.0163618
849.825	0.0162486
849.904	0.0160776
849.982	0.0161803
850.060	0.0162434
850.138	0.0162901
850.216	0.0162466
850.294	0.0163667
850.372	0.0162525
850.450	0.0162849
850.529	0.0162000
850.607	0.0164108
850.685	0.0165271
850.763	0.0164502
850.841	0.0163815
850.919	0.0164566
850.997	0.0165263
851.075	0.0165066
851.154	0.0165936
851.232	0.0165982
851.310	0.0165659
851.388	0.0164241
851.466	0.0166203
851.544	0.0165472
851.622	0.0167360
851.700	0.0164632
851.779	0.0164827
851.857	0.0165524
851.935	0.0165160
852.013	0.0165298
852.091	0.0164947
852.169	0.0164935
852.247	0.0166072
852.325	0.0165380
852.404	0.0165501
852.482	0.0164347
852.560	0.0163866
852.638	0.0163520
852.716	0.0165231
852.794	0.0163384
852.872	0.0163580
852.950	0.0163946
853.029	0.0164529
853.107	0.0162351
853.185	0.0163219
853.263	0.0163647
853.341	0.0162662
853.419	0.0163040
853.497	0.0162662
853.575	0.0161781
853.654	0.0161543
853.732	0.0160979
853.810	0.0159785
853.888	0.0160526
853.966	0.0159127
854.044	0.0159653
854.122	0.0160121
854.200	0.0159836
854.279	0.0159962
854.357	0.0160245
854.435	0.0158918
854.513	0.0158128
854.591	0.0160010
854.669	0.0161179
854.747	0.0161601
854.825	0.0160393
854.904	0.0161111
854.982	0.0161197
855.060	0.0160893
855.138	0.0162405
855.216	0.0161912
855.294	0.0162818
855.372	0.0163248
855.450	0.0162958
855.529	0.0164355
855.607	0.0162998
855.685	0.0163675
855.763	0.0164037
855.841	0.0164132
855.919	0.0164819
855.997	0.0166322
856.075	0.0165078
856.154	0.0164847
856.232	0.0164639
856.310	0.0166219
856.388	0.0165373
856.466	0.0164967
856.544	0.0164346
856.622	0.0167018
856.700	0.0165723
856.779	0.0163637
856.857	0.0164560
856.935	0.0165263
857.013	0.0164654
857.091	0.0165578
857.169	0.0167352
857.247	0.0166034
857.325	0.0165910
857.404	0.0166038
857.482	0.0165354
857.560	0.0165894
857.638	0.0165766
857.716	0.0165507
857.794	0.0164124
857.872	0.0165475
857.950	0.0165361
858.029	0.0165324
858.107	0.0163743
858.185	0.0164164
858.263	0.0165145
858.341	0.0164624
858.419	0.0162582
858.497	0.0163638
858.575	0.0161948
858.654	0.0160883
858.732	0.0160979
858.810	0.0161420
858.888	0.0162591
858.966	0.0161253
859.044	0.0161118
859.122	0.0161748
859.200	0.0161199
859.279	0.0160993
859.357	0.0161658
859.435	0.0162061
859.513	0.0161773
859.591	0.0162391
859.669	0.0162297
859.747	0.0160674
859.825	0.0162407
859.904	0.0163728
859.982	0.0162640
860.060	0.0163051
860.138	0.0163026
860.216	0.0162939
860.294	0.0163042
860.372	0.0163017
860.450	0.0163743
860.529	0.0161776
860.607	0.0162383
860.685	0.0165091
860.763	0.0163703
860.841	0.0162296
860.919	0.0165141
860.997	0.0163075
861.075	0.0162276
861.154	0.0162365
861.232	0.0161934
861.310	0.0163017
861.388	0.0163456
861.466	0.0163617
861.544	0.0164005
861.622	0.0163205
861.700	0.0163216
861.779	0.0163715
861.857	0.0164158
861.935	0.0163160
862.013	0.0165170
862.091	0.0164245
862.169	0.0164265
862.247	0.0163142
862.325	0.0164383
862.404	0.0162909
862.482	0.0163640
862.560	0.0163100
862.638	0.0163345
862.716	0.0161070
862.794	0.0163068
862.872	0.0164294
862.950	0.0163432
863.029	0.0163226
863.107	0.0162669
863.185	0.0162487
863.263	0.0162703
863.341	0.0163366
863.419	0.0163157
863.497	0.0163522
863.575	0.0162953
863.654	0.0162746
863.732	0.0162711
863.810	0.0163857
863.888	0.0162356
863.966	0.0164410
864.044	0.0162661
864.122	0.0163770
864.200	0.0163561
864.279	0.0163040
864.357	0.0162521
864.435	0.0163844
864.513	0.0164882
864.591	0.0164455
864.669	0.0163046
864.747	0.0164335
864.825	0.0165075
864.904	0.0162930
864.982	0.0163219
865.060	0.0162980
865.138	0.0162758
865.216	0.0162418
865.294	0.0163909
865.372	0.0163648
865.450	0.0162131
865.529	0.0163557
865.607	0.0162066
865.685	0.0162933
865.763	0.0164109
865.841	0.0161537
865.919	0.0162475
865.997	0.0164279
866.075	0.0165443
866.154	0.0163345
866.232	0.0164613
866.310	0.0165144
866.388	0.0163933
866.466	0.0163791
866.544	0.0163930
866.622	0.0161866
866.700	0.0161964
866.779	0.0162997
866.857	0.0160696
866.935	0.0163945
867.013	0.0162925
867.091	0.0161975
867.169	0.0160024
867.247	0.0161179
867.325	0.0162244
867.404	0.0160931
867.482	0.0161380
867.560	0.0160590
867.638	0.0160918
867.716	0.0160292
867.794	0.0160768
867.872	0.0160798
867.950	0.0160671
868.029	0.0159901
868.107	0.0160634
868.185	0.0161110
868.263	0.0160966
868.341	0.0161143
868.419	0.0161704
868.497	0.0162460
868.575	0.0162903
868.654	0.0163390
868.732	0.0165070
868.810	0.0163614
868.888	0.0164619
868.966	0.0164984
869.044	0.0165200
869.122	0.0166121
869.200	0.0166335
869.279	0.0164548
869.357	0.0165107
869.435	0.0164726
869.513	0.0163428
869.591	0.0163975
869.669	0.0165005
869.747	0.0164196
869.825	0.0163860
869.904	0.0163360
869.982	0.0162502
870.060	0.0164238
870.138	0.0163924
870.216	0.0163251
870.294	0.0163879
870.372	0.0163807
870.450	0.0164085
870.529	0.0164458
870.607	0.0163016
870.685	0.0162581
870.763	0.0163652
870.841	0.0163790
870.919	0.0162713
870.997	0.0163689
871.075	0.0163342
871.154	0.0162334
871.232	0.0163893
871.310	0.0162380
871.388	0.0163503
871.466	0.0163593
871.544	0.0162887
871.622	0.0162258
871.700	0.0162867
871.779	0.0161082
871.857	0.0161175
871.935	0.0160713
872.013	0.0159500
872.091	0.0160102
872.169	0.0157912
872.247	0.0159561
872.325	0.0158822
872.404	0.0158498
872.482	0.0159089
872.560	0.0160366
872.638	0.0160763
872.716	0.0160782
872.794	0.0160481
872.872	0.0161276
872.950	0.0160377
873.029	0.0162591
873.107	0.0161623
873.185	0.0162334
873.263	0.0162890
873.341	0.0162358
873.419	0.0162704
873.497	0.0161876
873.575	0.0163005
873.654	0.0164620
873.732	0.0163501
873.810	0.0165868
873.888	0.0165576
873.966	0.0165672
874.044	0.0166930
874.122	0.0166989
874.200	0.0167451
874.279	0.0167487
874.357	0.0167752
874.435	0.0168085
874.513	0.0168022
874.591	0.0166721
874.669	0.0166618
874.747	0.0167765
874.825	0.0167116
874.904	0.0166801
874.982	0.0165868
875.060	0.0164761
875.138	0.0164175
875.216	0.0165353
875.294	0.0164831
875.372	0.0163326
875.450	0.0163277
875.529	0.0161139
875.607	0.0162404
875.685	0.0163185
875.763	0.0162708
875.841	0.0163954
875.919	0.0163538
875.997	0.0162912
876.075	0.0162752
876.154	0.0161493
876.232	0.0160783
876.310	0.0159650
876.388	0.0160958
876.466	0.0160544
876.544	0.0158533
876.622	0.0157939
876.700	0.0158707
876.779	0.0157660
876.857	0.0157439
876.935	0.0158932
877.013	0.0158859
877.091	0.0158894
877.169	0.0159687
877.247	0.0159569
877.325	0.0160835
877.404	0.0161964
877.482	0.0160875
877.560	0.0161745
877.638	0.0161015
877.716	0.0162474
877.794	0.0161935
877.872	0.0163859
877.950	0.0163579
878.029	0.0164354
878.107	0.0164606
878.185	0.0164252
878.263	0.0165029
878.341	0.0165533
878.419	0.0167554
878.497	0.0165677
878.575	0.0166330
878.654	0.0166278
878.732	0.0167750
878.810	0.0166883
878.888	0.0167072
878.966	0.0166429
879.044	0.0166283
879.122	0.0165763
879.200	0.0165137
879.279	0.0165444
879.357	0.0164843
879.435	0.0163969
879.513	0.0163267
879.591	0.0161911
879.669	0.0162634
879.747	0.0161217
879.825	0.0161079
879.904	0.0161253
879.982	0.0160915
880.060	0.0160235
880.138	0.0162242
880.216	0.0160264
880.294	0.0162176
880.372	0.0162223
880.450	0.0164886
880.529	0.0164530
880.607	0.0164079
880.685	0.0163728
880.763	0.0163983
880.841	0.0164665
880.919	0.0165350
880.997	0.0164692
881.075	0.0165739
881.154	0.0163371
881.232	0.0163954
881.310	0.0164706
881.388	0.0163778
881.466	0.0163416
881.544	0.0163611
881.622	0.0162906
881.700	0.0160096
881.779	0.0161185
881.857	0.0161780
881.935	0.0159943
882.013	0.0159566
882.091	0.0158807
882.169	0.0158498
882.247	0.0158514
882.325	0.0159222
882.404	0.0157983
882.482	0.0159044
882.560	0.0158322
882.638	0.0159254
882.716	0.0160829
882.794	0.0162077
882.872	0.0162815
882.950	0.0163626
883.029	0.0164294
883.107	0.0164597
883.185	0.0164659
883.263	0.0165306
883.341	0.0165336
883.419	0.0165108
883.497	0.0166476
883.575	0.0165526
883.654	0.0162650
883.732	0.0163750
883.810	0.0162556
883.888	0.0160596
883.966	0.0162457
884.044	0.0161483
884.122	0.0161755
884.200	0.0162017
884.279	0.0162092
884.357	0.0162132
884.435	0.0162093
884.513	0.0162144
884.591	0.0163122
884.669	0.0164232
884.747	0.0164700
884.825	0.0165185
884.904	0.0165371
884.982	0.0165974
885.060	0.0164954
885.138	0.0163305
885.216	0.0164559
885.294	0.0165546
885.372	0.0165565
885.450	0.0165750
885.529	0.0165861
885.607	0.0165357
885.685	0.0166078
885.763	0.0165549
885.841	0.0164770
885.919	0.0165990
885.997	0.0164315
886.075	0.0164713
886.154	0.0164334
886.232	0.0163650
886.310	0.0162988
886.388	0.0161758
886.466	0.0163422
886.544	0.0161118
886.622	0.0161350
886.700	0.0160776
886.779	0.0161108
886.857	0.0159303
886.935	0.0159573
887.013	0.0159429
887.091	0.0158505
887.169	0.0159571
887.247	0.0159061
887.325	0.0158739
887.404	0.0158309
887.482	0.0158306
887.560	0.0159898
887.638	0.0158459
887.716	0.0160074
887.794	0.0161446
887.872	0.0161494
887.950	0.0161829
888.029	0.0161505
888.107	0.0161700
888.185	0.0162803
888.263	0.0162421
888.341	0.0163366
888.419	0.0162346
888.497	0.0162001
888.575	0.0162261
888.654	0.0162956
888.732	0.0162389
888.810	0.0160471
888.888	0.0160899
888.966	0.0161053
889.044	0.0162415
889.122	0.0163088
889.200	0.0162543
889.279	0.0163129
889.357	0.0164843
889.435	0.0165051
889.513	0.0166096
889.591	0.0168645
889.669	0.0168887
889.747	0.0169749
889.825	0.0170425
889.904	0.0172230
889.982	0.0173208
890.060	0.0172710
890.138	0.0172878
890.216	0.0170920
890.294	0.0169562
890.372	0.0169504
890.450	0.0167868
890.529	0.0166267
890.607	0.0165078
890.685	0.0163575
890.763	0.0164098
890.841	0.0161827
890.919	0.0160670
890.997	0.0160683
891.075	0.0160210
891.154	0.0160044
891.232	0.0159574
891.310	0.0157841
891.388	0.0158279
891.466	0.0158409
891.544	0.0157207
891.622	0.0158185
891.700	0.0156592
891.779	0.0156232
891.857	0.0157993
891.935	0.0156551
892.013	0.0155975
892.091	0.0156956
892.169	0.0157344
892.247	0.0157752
892.325	0.0158926
892.404	0.0159245
892.482	0.0160062
892.560	0.0160297
892.638	0.0161710
892.716	0.0161949
892.794	0.0164636
892.872	0.0165052
892.950	0.0164671
893.029	0.0166605
893.107	0.0165073
893.185	0.0164388
893.263	0.0165825
893.341	0.0165034
893.419	0.0164470
893.497	0.0162333
893.575	0.0162726
893.654	0.0162408
893.732	0.0160339
893.810	0.0159780
893.888	0.0159180
893.966	0.0159887
894.044	0.0160690
894.122	0.0161073
894.200	0.0161932
894.279	0.0162891
894.357	0.0164103
894.435	0.0166151
894.513	0.0166885
894.591	0.0166664
894.669	0.0168916
894.747	0.0169295
894.825	0.0170460
894.904	0.0171407
894.982	0.0171892
895.060	0.0170528
895.138	0.0169913
895.216	0.0170356
895.294	0.0167986
895.372	0.0167722
895.450	0.0167975
895.529	0.0164798
895.607	0.0162147
895.685	0.0161707
895.763	0.0161794
895.841	0.0162903
895.919	0.0160679
895.997	0.0159010
896.075	0.0158430
896.154	0.0157773
896.232	0.0158921
896.310	0.0157476
896.388	0.0158215
896.466	0.0156062
896.544	0.0158026
896.622	0.0158038
896.700	0.0157364
896.779	0.0157729
896.857	0.0158302
896.935	0.0159095
897.013	0.0159075
897.091	0.0157805
897.169	0.0160609
897.247	0.0162221
897.325	0.0160847
897.404	0.0163210
897.482	0.0164794
897.560	0.0164520
897.638	0.0165064
897.716	0.0166898
897.794	0.0167077
897.872	0.0167936
897.950	0.0166636
898.029	0.0167371
898.107	0.0166517
898.185	0.0166058
898.263	0.0166473
898.341	0.0165796
898.419	0.0163372
898.497	0.0162046
898.575	0.0162605
898.654	0.0161961
898.732	0.0159414
898.810	0.0159306
898.888	0.0159010
898.966	0.0159399
899.044	0.0158800
899.122	0.0159128
899.200	0.0158537
899.279	0.0160404
899.357	0.0161270
899.435	0.0161938
899.513	0.0161057
899.591	0.0164187
899.669	0.0165328
899.747	0.0164674
899.825	0.0167543
899.904	0.0168221
899.982	0.0169252
900.060	0.0169128
900.138	0.0169870
900.216	0.0167687
900.294	0.0168213
900.372	0.0168180
900.450	0.0166826
900.529	0.0165786
900.607	0.0162794
900.685	0.0162696
900.763	0.0162265
900.841	0.0160148
900.919	0.0159664
900.997	0.0158672
901.075	0.0159420
901.154	0.0157993
901.232	0.0157536
901.310	0.0157397
901.388	0.0159532
901.466	0.0158994
901.544	0.0160220
901.622	0.0159606
901.700	0.0159373
901.779	0.0160722
901.857	0.0161323
901.935	0.0162289
902.013	0.0162443
902.091	0.0162647
902.169	0.0163528
902.247	0.0162899
902.325	0.0164402
902.404	0.0164011
902.482	0.0163919
902.560	0.0164274
902.638	0.0164322
902.716	0.0166187
902.794	0.0166164
902.872	0.0165141
902.950	0.0165549
903.029	0.0165317
903.107	0.0165208
903.185	0.0164654
903.263	0.0163767
903.341	0.0162563
903.419	0.0162665
903.497	0.0162720
903.575	0.0161876
903.654	0.0161248
903.732	0.0159253
903.810	0.0160204
903.888	0.0158165
903.966	0.0159232
904.044	0.0158743
904.122	0.0158205
904.200	0.0158671
904.279	0.0159473
904.357	0.0159371
904.435	0.0161258
904.513	0.0161594
904.591	0.0161818
904.669	0.0163653
904.747	0.0164867
904.825	0.0164058
904.904	0.0167385
904.982	0.0167471
905.060	0.0167108
905.138	0.0167583
905.216	0.0168310
905.294	0.0168211
905.372	0.0167395
905.450	0.0166004
905.529	0.0165855
905.607	0.0162865
905.685	0.0164951
905.763	0.0163211
905.841	0.0162260
905.919	0.0161175
905.997	0.0162331
906.075	0.0161617
906.154	0.0161225
906.232	0.0161307
906.310	0.0161608
906.388	0.0161237
906.466	0.0162301
906.544	0.0161797
906.622	0.0164633
906.700	0.0164442
906.779	0.0164983
906.857	0.0165775
906.935	0.0164975
907.013	0.0164791
907.091	0.0163425
907.169	0.0163667
907.247	0.0162678
907.325	0.0164207
907.404	0.0161969
907.482	0.0161570
907.560	0.0162814
907.638	0.0162135
907.716	0.0163129
907.794	0.0162076
907.872	0.0162270
907.950	0.0160185
908.029	0.0162469
908.107	0.0162108
908.185	0.0160390
908.263	0.0162424
908.341	0.0161024
908.419	0.0160870
908.497	0.0160274
908.575	0.0160468
908.654	0.0160086
908.732	0.0159100
908.810	0.0158925
908.888	0.0160129
908.966	0.0159446
909.044	0.0159306
909.122	0.0159142
909.200	0.0161212
909.279	0.0160645
909.357	0.0160847
909.435	0.0162137
909.513	0.0162925
909.591	0.0163673
909.669	0.0164021
909.747	0.0164517
909.825	0.0164336
909.904	0.0166638
909.982	0.0165528
910.060	0.0166156
910.138	0.0164796
910.216	0.0167420
910.294	0.0164561
910.372	0.0165268
910.450	0.0164155
910.529	0.0166205
910.607	0.0164941
910.685	0.0164127
910.763	0.0165041
910.841	0.0162879
910.919	0.0163249
910.997	0.0165358
911.075	0.0163002
911.154	0.0165108
911.232	0.0163773
911.310	0.0164530
911.388	0.0165429
911.466	0.0164643
911.544	0.0165356
911.622	0.0163863
911.700	0.0166180
911.779	0.0164602
911.857	0.0164453
911.935	0.0164327
912.013	0.0164867
912.091	0.0164116
912.169	0.0163309
912.247	0.0164923
912.325	0.0164104
912.404	0.0162495
912.482	0.0162334
912.560	0.0161298
912.638	0.0161698
912.716	0.0161526
912.794	0.0162054
912.872	0.0163715
912.950	0.0163060
913.029	0.0161705
913.107	0.0162126
913.185	0.0162416
913.263	0.0161787
913.341	0.0160212
913.419	0.0162753
913.497	0.0160844
913.575	0.0161507
913.654	0.0161428
913.732	0.0159999
913.810	0.0159220
913.888	0.0159731
913.966	0.0158256
914.044	0.0158217
914.122	0.0159455
914.200	0.0159906
914.279	0.0160043
914.357	0.0160438
914.435	0.0160139
914.513	0.0162474
914.591	0.0163295
914.669	0.0163117
914.747	0.0164397
914.825	0.0163658
914.904	0.0164494
914.982	0.0165258
915.060	0.0165784
915.138	0.0165594
915.216	0.0165340
915.294	0.0165379
915.372	0.0165608
915.450	0.0163917
915.529	0.0163749
915.607	0.0163689
915.685	0.0163731
915.763	0.0163203
915.841	0.0164383
915.919	0.0162354
915.997	0.0162843
916.075	0.0164445
916.154	0.0165163
916.232	0.0163140
916.310	0.0164160
916.388	0.0164857
916.466	0.0165319
916.544	0.0165122
916.622	0.0165876
916.700	0.0166596
916.779	0.0165588
916.857	0.0164957
916.935	0.0164799
917.013	0.0164467
917.091	0.0165396
917.169	0.0163441
917.247	0.0165009
917.325	0.0164331
917.404	0.0164939
917.482	0.0162037
917.560	0.0162907
917.638	0.0162492
917.716	0.0162256
917.794	0.0161340
917.872	0.0160449
917.950	0.0160795
918.029	0.0160075
918.107	0.0160070
918.185	0.0158935
918.263	0.0158699
918.341	0.0160410
918.419	0.0158931
918.497	0.0159855
918.575	0.0159711
918.654	0.0158992
918.732	0.0160032
918.810	0.0160499
918.888	0.0160225
918.966	0.0160641
919.044	0.0159786
919.122	0.0160506
919.200	0.0160538
919.279	0.0160904
919.357	0.0160886
919.435	0.0162869
919.513	0.0162796
919.591	0.0163985
919.669	0.0163937
919.747	0.0164063
919.825	0.0164755
919.904	0.0163985
