06/03/2022	14:07:40	Ver.	4.1	UNKNOWN
Optical Delay	599.981738	Delta X		0.078125	Sweeps	1	Scan Rate	0/0
Coordinates	Axis 1	NaN	Axis 2	NaN	Axis 3	NaN	Axis 4	NaN	Axis 5	NaN	Axis 6	0.000000
TX Power	0.000000	RX Power	0.000000

599.982	0.0165398
600.060	0.0165496
600.138	0.0164339
600.216	0.0166011
600.294	0.0165222
600.372	0.0165869
600.450	0.0164845
600.529	0.0164069
600.607	0.0166373
600.685	0.0165155
600.763	0.0164711
600.841	0.0164877
600.919	0.0166106
600.997	0.0165497
601.075	0.0166859
601.154	0.0165634
601.232	0.0166213
601.310	0.0165608
601.388	0.0165369
601.466	0.0165350
601.544	0.0166262
601.622	0.0165635
601.700	0.0165276
601.779	0.0164731
601.857	0.0164654
601.935	0.0166689
602.013	0.0165353
602.091	0.0165636
602.169	0.0165423
602.247	0.0165780
602.325	0.0166459
602.404	0.0166610
602.482	0.0165119
602.560	0.0165847
602.638	0.0166117
602.716	0.0164710
602.794	0.0165867
602.872	0.0165694
602.950	0.0164606
603.029	0.0165234
603.107	0.0165921
603.185	0.0165812
603.263	0.0165939
603.341	0.0166240
603.419	0.0164641
603.497	0.0165501
603.575	0.0166560
603.654	0.0165804
603.732	0.0165852
603.810	0.0165502
603.888	0.0166364
603.966	0.0164857
604.044	0.0165566
604.122	0.0164874
604.200	0.0165321
604.279	0.0165206
604.357	0.0165519
604.435	0.0164389
604.513	0.0165317
604.591	0.0164906
604.669	0.0164162
604.747	0.0165907
604.825	0.0165504
604.904	0.0165194
604.982	0.0166051
605.060	0.0163902
605.138	0.0164199
605.216	0.0166289
605.294	0.0165536
605.372	0.0165224
605.450	0.0165298
605.529	0.0166003
605.607	0.0165065
605.685	0.0164418
605.763	0.0165689
605.841	0.0165481
605.919	0.0165204
605.997	0.0163519
606.075	0.0164167
606.154	0.0163685
606.232	0.0165262
606.310	0.0165133
606.388	0.0164872
606.466	0.0165683
606.544	0.0165093
606.622	0.0165587
606.700	0.0164595
606.779	0.0164990
606.857	0.0165343
606.935	0.0164639
607.013	0.0165002
607.091	0.0165472
607.169	0.0165207
607.247	0.0164690
607.325	0.0165589
607.404	0.0165884
607.482	0.0164471
607.560	0.0166785
607.638	0.0164955
607.716	0.0165855
607.794	0.0165969
607.872	0.0164854
607.950	0.0164961
608.029	0.0166036
608.107	0.0166648
608.185	0.0165092
608.263	0.0164297
608.341	0.0165878
608.419	0.0166177
608.497	0.0163659
608.575	0.0165287
608.654	0.0165642
608.732	0.0165320
608.810	0.0166109
608.888	0.0165099
608.966	0.0165921
609.044	0.0165493
609.122	0.0166421
609.200	0.0165065
609.279	0.0164895
609.357	0.0165347
609.435	0.0164287
609.513	0.0165096
609.591	0.0166705
609.669	0.0165716
609.747	0.0165993
609.825	0.0165934
609.904	0.0166349
609.982	0.0164612
610.060	0.0164954
610.138	0.0165436
610.216	0.0166649
610.294	0.0165373
610.372	0.0165890
610.450	0.0165901
610.529	0.0165776
610.607	0.0165552
610.685	0.0164885
610.763	0.0165387
610.841	0.0164059
610.919	0.0166117
610.997	0.0164151
611.075	0.0164775
611.154	0.0165784
611.232	0.0165040
611.310	0.0165584
611.388	0.0165488
611.466	0.0164713
611.544	0.0164237
611.622	0.0166685
611.700	0.0165638
611.779	0.0165074
611.857	0.0164907
611.935	0.0165711
612.013	0.0165005
612.091	0.0166096
612.169	0.0164459
612.247	0.0165132
612.325	0.0163522
612.404	0.0165021
612.482	0.0165379
612.560	0.0165150
612.638	0.0165208
612.716	0.0165316
612.794	0.0165485
612.872	0.0165077
612.950	0.0165481
613.029	0.0165320
613.107	0.0164452
613.185	0.0164651
613.263	0.0165035
613.341	0.0165850
613.419	0.0165592
613.497	0.0164985
613.575	0.0165405
613.654	0.0166112
613.732	0.0165686
613.810	0.0165343
613.888	0.0165620
613.966	0.0166798
614.044	0.0166692
614.122	0.0165250
614.200	0.0165179
614.279	0.0166033
614.357	0.0166566
614.435	0.0165991
614.513	0.0165288
614.591	0.0164912
614.669	0.0166009
614.747	0.0164919
614.825	0.0165338
614.904	0.0165742
614.982	0.0165434
615.060	0.0165672
615.138	0.0166214
615.216	0.0165155
615.294	0.0164442
615.372	0.0164997
615.450	0.0165822
615.529	0.0166444
615.607	0.0165771
615.685	0.0165479
615.763	0.0165117
615.841	0.0166120
615.919	0.0165623
615.997	0.0163799
616.075	0.0165775
616.154	0.0165521
616.232	0.0165665
616.310	0.0164787
616.388	0.0165696
616.466	0.0166165
616.544	0.0165675
616.622	0.0164481
616.700	0.0165388
616.779	0.0165353
616.857	0.0165463
616.935	0.0165428
617.013	0.0164886
617.091	0.0165047
617.169	0.0164721
617.247	0.0166473
617.325	0.0165195
617.404	0.0166018
617.482	0.0165054
617.560	0.0165213
617.638	0.0164628
617.716	0.0164523
617.794	0.0165224
617.872	0.0165236
617.950	0.0166823
618.029	0.0166738
618.107	0.0166193
618.185	0.0166999
618.263	0.0166250
618.341	0.0166167
618.419	0.0167411
618.497	0.0164877
618.575	0.0166066
618.654	0.0167231
618.732	0.0165382
618.810	0.0166077
618.888	0.0165279
618.966	0.0164423
619.044	0.0166344
619.122	0.0165224
619.200	0.0164691
619.279	0.0163969
619.357	0.0164498
619.435	0.0165368
619.513	0.0165237
619.591	0.0165386
619.669	0.0164905
619.747	0.0164909
619.825	0.0166153
619.904	0.0164462
619.982	0.0167304
620.060	0.0166227
620.138	0.0164164
620.216	0.0164093
620.294	0.0164674
620.372	0.0164785
620.450	0.0164738
620.529	0.0165034
620.607	0.0164315
620.685	0.0165812
620.763	0.0164093
620.841	0.0164652
620.919	0.0166434
620.997	0.0165390
621.075	0.0164304
621.154	0.0165395
621.232	0.0164581
621.310	0.0164930
621.388	0.0165916
621.466	0.0165370
621.544	0.0166119
621.622	0.0165100
621.700	0.0164736
621.779	0.0165228
621.857	0.0165556
621.935	0.0164912
622.013	0.0165545
622.091	0.0165530
622.169	0.0164879
622.247	0.0164476
622.325	0.0165270
622.404	0.0165765
622.482	0.0164544
622.560	0.0166162
622.638	0.0165735
622.716	0.0165340
622.794	0.0165445
622.872	0.0165180
622.950	0.0164600
623.029	0.0165639
623.107	0.0165473
623.185	0.0166400
623.263	0.0164153
623.341	0.0164009
623.419	0.0166340
623.497	0.0165453
623.575	0.0165719
623.654	0.0165154
623.732	0.0165845
623.810	0.0166505
623.888	0.0166183
623.966	0.0164283
624.044	0.0166339
624.122	0.0165235
624.200	0.0166248
624.279	0.0165688
624.357	0.0164831
624.435	0.0165147
624.513	0.0165017
624.591	0.0166006
624.669	0.0166853
624.747	0.0164895
624.825	0.0164787
624.904	0.0164556
624.982	0.0164729
625.060	0.0163959
625.138	0.0165520
625.216	0.0165603
625.294	0.0164933
625.372	0.0165981
625.450	0.0165480
625.529	0.0164435
625.607	0.0165068
625.685	0.0165528
625.763	0.0164922
625.841	0.0165313
625.919	0.0165664
625.997	0.0164835
626.075	0.0164804
626.154	0.0163748
626.232	0.0164993
626.310	0.0166075
626.388	0.0164322
626.466	0.0165047
626.544	0.0164803
626.622	0.0165588
626.700	0.0165725
626.779	0.0165202
626.857	0.0164939
626.935	0.0164213
627.013	0.0164314
627.091	0.0165244
627.169	0.0166362
627.247	0.0164935
627.325	0.0164955
627.404	0.0165750
627.482	0.0164907
627.560	0.0164935
627.638	0.0165331
627.716	0.0166037
627.794	0.0164127
627.872	0.0164604
627.950	0.0165611
628.029	0.0165975
628.107	0.0164740
628.185	0.0165723
628.263	0.0165945
628.341	0.0166037
628.419	0.0166032
628.497	0.0165865
628.575	0.0166061
628.654	0.0165753
628.732	0.0165817
628.810	0.0165678
628.888	0.0165154
628.966	0.0165700
629.044	0.0167181
629.122	0.0165182
629.200	0.0163860
629.279	0.0164487
629.357	0.0165324
629.435	0.0166006
629.513	0.0165291
629.591	0.0164915
629.669	0.0165120
629.747	0.0165327
629.825	0.0164754
629.904	0.0164764
629.982	0.0164451
630.060	0.0164491
630.138	0.0166413
630.216	0.0163913
630.294	0.0164779
630.372	0.0164868
630.450	0.0164714
630.529	0.0164219
630.607	0.0164609
630.685	0.0164213
630.763	0.0166802
630.841	0.0166057
630.919	0.0164292
630.997	0.0164204
631.075	0.0166036
631.154	0.0166448
631.232	0.0165188
631.310	0.0163123
631.388	0.0166079
631.466	0.0165955
631.544	0.0164964
631.622	0.0165480
631.700	0.0164230
631.779	0.0166272
631.857	0.0164602
631.935	0.0166203
632.013	0.0164774
632.091	0.0165038
632.169	0.0165113
632.247	0.0164990
632.325	0.0164675
632.404	0.0165622
632.482	0.0166647
632.560	0.0164765
632.638	0.0165481
632.716	0.0166644
632.794	0.0164609
632.872	0.0165559
632.950	0.0165375
633.029	0.0165596
633.107	0.0165582
633.185	0.0165240
633.263	0.0167011
633.341	0.0164256
633.419	0.0164353
633.497	0.0165060
633.575	0.0166992
633.654	0.0166001
633.732	0.0165675
633.810	0.0165599
633.888	0.0165588
633.966	0.0165370
634.044	0.0165752
634.122	0.0165685
634.200	0.0165098
634.279	0.0165465
634.357	0.0165247
634.435	0.0166621
634.513	0.0164912
634.591	0.0164947
634.669	0.0165739
634.747	0.0164492
634.825	0.0164095
634.904	0.0165768
634.982	0.0165935
635.060	0.0165369
635.138	0.0163828
635.216	0.0165400
635.294	0.0165636
635.372	0.0164428
635.450	0.0164717
635.529	0.0166316
635.607	0.0164883
635.685	0.0164491
635.763	0.0165120
635.841	0.0165690
635.919	0.0164892
635.997	0.0164019
636.075	0.0165691
636.154	0.0165663
636.232	0.0166121
636.310	0.0165769
636.388	0.0165086
636.466	0.0165321
636.544	0.0165498
636.622	0.0165583
636.700	0.0165556
636.779	0.0165118
636.857	0.0165370
636.935	0.0165308
637.013	0.0165776
637.091	0.0166016
637.169	0.0164693
637.247	0.0165022
637.325	0.0165646
637.404	0.0165707
637.482	0.0164864
637.560	0.0165327
637.638	0.0165338
637.716	0.0165136
637.794	0.0165721
637.872	0.0165459
637.950	0.0164645
638.029	0.0163312
638.107	0.0167066
638.185	0.0164674
638.263	0.0165484
638.341	0.0165628
638.419	0.0165759
638.497	0.0165301
638.575	0.0165938
638.654	0.0165834
638.732	0.0164771
638.810	0.0164792
638.888	0.0165706
638.966	0.0166846
639.044	0.0163576
639.122	0.0163687
639.200	0.0167384
639.279	0.0165961
639.357	0.0165304
639.435	0.0164752
639.513	0.0164468
639.591	0.0166476
639.669	0.0163779
639.747	0.0165574
639.825	0.0164987
639.904	0.0164314
639.982	0.0165927
640.060	0.0165881
640.138	0.0165218
640.216	0.0164983
640.294	0.0165753
640.372	0.0166674
640.450	0.0164983
640.529	0.0166494
640.607	0.0165921
640.685	0.0163303
640.763	0.0165205
640.841	0.0165211
640.919	0.0165443
640.997	0.0164396
641.075	0.0165549
641.154	0.0164673
641.232	0.0166624
641.310	0.0166430
641.388	0.0165474
641.466	0.0165610
641.544	0.0165169
641.622	0.0164024
641.700	0.0164619
641.779	0.0165626
641.857	0.0165072
641.935	0.0164423
642.013	0.0165073
642.091	0.0165334
642.169	0.0165503
642.247	0.0165221
642.325	0.0167223
642.404	0.0166479
642.482	0.0167435
642.560	0.0164949
642.638	0.0164919
642.716	0.0165091
642.794	0.0164376
642.872	0.0167440
642.950	0.0166008
643.029	0.0164978
643.107	0.0165855
643.185	0.0165578
643.263	0.0164814
643.341	0.0165565
643.419	0.0165109
643.497	0.0165466
643.575	0.0166051
643.654	0.0166044
643.732	0.0165481
643.810	0.0165952
643.888	0.0166341
643.966	0.0165993
644.044	0.0165124
644.122	0.0164929
644.200	0.0165442
644.279	0.0165214
644.357	0.0165405
644.435	0.0164430
644.513	0.0165453
644.591	0.0167097
644.669	0.0166578
644.747	0.0164554
644.825	0.0165350
644.904	0.0165720
644.982	0.0165838
645.060	0.0166661
645.138	0.0165549
645.216	0.0166042
645.294	0.0165616
645.372	0.0166781
645.450	0.0166041
645.529	0.0166177
645.607	0.0165125
645.685	0.0165371
645.763	0.0166661
645.841	0.0166364
645.919	0.0164857
645.997	0.0166203
646.075	0.0165731
646.154	0.0165615
646.232	0.0165362
646.310	0.0165711
646.388	0.0166288
646.466	0.0165217
646.544	0.0164867
646.622	0.0165356
646.700	0.0164756
646.779	0.0165070
646.857	0.0167099
646.935	0.0165496
647.013	0.0164251
647.091	0.0165123
647.169	0.0164175
647.247	0.0163634
647.325	0.0164699
647.404	0.0165716
647.482	0.0165614
647.560	0.0164508
647.638	0.0164256
647.716	0.0165442
647.794	0.0165542
647.872	0.0164951
647.950	0.0165466
648.029	0.0164417
648.107	0.0165440
648.185	0.0166750
648.263	0.0165401
648.341	0.0167234
648.419	0.0165668
648.497	0.0166736
648.575	0.0165250
648.654	0.0166199
648.732	0.0164506
648.810	0.0166961
648.888	0.0166943
648.966	0.0166109
649.044	0.0165023
649.122	0.0165413
649.200	0.0165497
649.279	0.0165192
649.357	0.0166019
649.435	0.0164944
649.513	0.0165147
649.591	0.0164452
649.669	0.0164053
649.747	0.0165468
649.825	0.0165054
649.904	0.0164960
649.982	0.0165315
650.060	0.0164824
650.138	0.0165324
650.216	0.0163907
650.294	0.0164733
650.372	0.0165795
650.450	0.0165495
650.529	0.0164840
650.607	0.0165685
650.685	0.0165067
650.763	0.0165568
650.841	0.0166102
650.919	0.0165889
650.997	0.0165221
651.075	0.0164872
651.154	0.0164781
651.232	0.0165888
651.310	0.0166270
651.388	0.0165930
651.466	0.0165720
651.544	0.0165503
651.622	0.0166079
651.700	0.0165625
651.779	0.0165319
651.857	0.0164422
651.935	0.0165145
652.013	0.0166011
652.091	0.0165526
652.169	0.0164663
652.247	0.0164716
652.325	0.0164690
652.404	0.0164662
652.482	0.0164169
652.560	0.0165620
652.638	0.0167220
652.716	0.0165266
652.794	0.0164684
652.872	0.0166846
652.950	0.0165182
653.029	0.0165347
653.107	0.0166418
653.185	0.0166256
653.263	0.0165302
653.341	0.0165530
653.419	0.0165919
653.497	0.0166064
653.575	0.0165932
653.654	0.0164635
653.732	0.0164884
653.810	0.0165491
653.888	0.0164577
653.966	0.0164621
654.044	0.0165392
654.122	0.0164192
654.200	0.0164438
654.279	0.0163202
654.357	0.0163702
654.435	0.0165772
654.513	0.0165249
654.591	0.0165566
654.669	0.0165955
654.747	0.0167232
654.825	0.0165189
654.904	0.0166609
654.982	0.0165657
655.060	0.0165054
655.138	0.0166001
655.216	0.0165457
655.294	0.0164510
655.372	0.0165931
655.450	0.0166454
655.529	0.0164564
655.607	0.0164602
655.685	0.0164532
655.763	0.0163543
655.841	0.0163457
655.919	0.0164557
655.997	0.0164805
656.075	0.0164717
656.154	0.0164805
656.232	0.0165263
656.310	0.0165293
656.388	0.0167307
656.466	0.0166039
656.544	0.0165333
656.622	0.0166275
656.700	0.0166769
656.779	0.0165523
656.857	0.0166245
656.935	0.0166238
657.013	0.0165434
657.091	0.0165157
657.169	0.0165012
657.247	0.0163943
657.325	0.0165267
657.404	0.0163727
657.482	0.0164445
657.560	0.0164035
657.638	0.0163158
657.716	0.0165134
657.794	0.0166179
657.872	0.0166014
657.950	0.0165005
658.029	0.0165325
658.107	0.0165572
658.185	0.0165842
658.263	0.0165695
658.341	0.0166051
658.419	0.0164539
658.497	0.0165710
658.575	0.0164956
658.654	0.0164713
658.732	0.0164790
658.810	0.0163793
658.888	0.0165784
658.966	0.0164001
659.044	0.0164793
659.122	0.0165582
659.200	0.0164143
659.279	0.0164392
659.357	0.0163854
659.435	0.0164912
659.513	0.0164420
659.591	0.0165559
659.669	0.0164469
659.747	0.0165003
659.825	0.0164973
659.904	0.0163860
659.982	0.0164330
660.060	0.0163892
660.138	0.0164730
660.216	0.0165073
660.294	0.0164715
660.372	0.0165847
660.450	0.0166302
660.529	0.0165123
660.607	0.0165543
660.685	0.0165796
660.763	0.0165269
660.841	0.0166164
660.919	0.0165351
660.997	0.0166193
661.075	0.0166171
661.154	0.0166522
661.232	0.0165095
661.310	0.0163412
661.388	0.0163899
661.466	0.0164254
661.544	0.0164470
661.622	0.0164994
661.700	0.0165707
661.779	0.0166499
661.857	0.0165259
661.935	0.0163934
662.013	0.0164542
662.091	0.0164689
662.169	0.0166217
662.247	0.0166368
662.325	0.0165968
662.404	0.0165445
662.482	0.0165765
662.560	0.0165813
662.638	0.0165818
662.716	0.0165026
662.794	0.0164830
662.872	0.0165874
662.950	0.0165607
663.029	0.0166009
663.107	0.0165412
663.185	0.0163634
663.263	0.0165812
663.341	0.0164944
663.419	0.0163988
663.497	0.0164559
663.575	0.0164929
663.654	0.0164399
663.732	0.0165345
663.810	0.0164889
663.888	0.0165246
663.966	0.0165204
664.044	0.0166288
664.122	0.0166737
664.200	0.0166093
664.279	0.0167244
664.357	0.0166206
664.435	0.0166335
664.513	0.0167396
664.591	0.0167789
664.669	0.0166612
664.747	0.0166599
664.825	0.0166306
664.904	0.0166987
664.982	0.0166041
665.060	0.0166484
665.138	0.0165923
665.216	0.0167013
665.294	0.0166026
665.372	0.0164925
665.450	0.0165190
665.529	0.0165043
665.607	0.0164573
665.685	0.0163564
665.763	0.0163840
665.841	0.0164387
665.919	0.0164478
665.997	0.0164416
666.075	0.0165296
666.154	0.0165821
666.232	0.0165300
666.310	0.0166562
666.388	0.0167388
666.466	0.0167451
666.544	0.0165808
666.622	0.0165716
666.700	0.0166286
666.779	0.0167240
666.857	0.0166977
666.935	0.0168585
667.013	0.0167989
667.091	0.0167219
667.169	0.0167374
667.247	0.0167510
667.325	0.0167978
667.404	0.0166285
667.482	0.0165931
667.560	0.0166908
667.638	0.0166880
667.716	0.0165426
667.794	0.0166154
667.872	0.0165245
667.950	0.0165475
668.029	0.0164753
668.107	0.0165489
668.185	0.0165237
668.263	0.0163171
668.341	0.0163792
668.419	0.0164383
668.497	0.0164432
668.575	0.0162571
668.654	0.0163503
668.732	0.0163670
668.810	0.0163544
668.888	0.0164845
668.966	0.0164043
669.044	0.0164268
669.122	0.0165213
669.200	0.0165508
669.279	0.0163949
669.357	0.0166473
669.435	0.0165844
669.513	0.0165273
669.591	0.0166467
669.669	0.0166080
669.747	0.0165724
669.825	0.0165613
669.904	0.0167191
669.982	0.0167535
670.060	0.0166640
670.138	0.0166763
670.216	0.0166669
670.294	0.0166689
670.372	0.0167669
670.450	0.0166882
670.529	0.0166303
670.607	0.0165659
670.685	0.0166794
670.763	0.0166621
670.841	0.0165733
670.919	0.0165868
670.997	0.0166058
671.075	0.0165110
671.154	0.0165591
671.232	0.0164732
671.310	0.0165025
671.388	0.0166116
671.466	0.0165482
671.544	0.0165295
671.622	0.0165662
671.700	0.0165170
671.779	0.0166365
671.857	0.0165741
671.935	0.0166537
672.013	0.0166926
672.091	0.0167157
672.169	0.0168018
672.247	0.0167063
672.325	0.0165665
672.404	0.0165791
672.482	0.0165682
672.560	0.0166319
672.638	0.0166446
672.716	0.0164973
672.794	0.0164635
672.872	0.0163142
672.950	0.0163638
673.029	0.0163465
673.107	0.0163115
673.185	0.0163844
673.263	0.0163450
673.341	0.0160765
673.419	0.0162741
673.497	0.0161710
673.575	0.0162538
673.654	0.0161805
673.732	0.0163482
673.810	0.0162726
673.888	0.0165177
673.966	0.0166386
674.044	0.0165202
674.122	0.0167200
674.200	0.0167373
674.279	0.0166499
674.357	0.0167149
674.435	0.0168718
674.513	0.0168071
674.591	0.0168972
674.669	0.0170418
674.747	0.0170859
674.825	0.0171754
674.904	0.0171096
674.982	0.0171077
675.060	0.0168150
675.138	0.0169404
675.216	0.0167940
675.294	0.0166516
675.372	0.0166972
675.450	0.0164536
675.529	0.0161578
675.607	0.0162207
675.685	0.0159129
675.763	0.0158932
675.841	0.0160403
675.919	0.0160010
675.997	0.0160981
676.075	0.0162295
676.154	0.0165337
676.232	0.0166574
676.310	0.0168040
676.388	0.0169997
676.466	0.0170877
676.544	0.0171378
676.622	0.0171210
676.700	0.0170535
676.779	0.0169710
676.857	0.0168069
676.935	0.0164368
677.013	0.0162851
677.091	0.0160406
677.169	0.0159657
677.247	0.0159529
677.325	0.0159345
677.404	0.0160146
677.482	0.0160941
677.560	0.0162215
677.638	0.0164952
677.716	0.0166097
677.794	0.0169620
677.872	0.0171700
677.950	0.0173069
678.029	0.0174458
678.107	0.0175795
678.185	0.0176389
678.263	0.0176111
678.341	0.0175157
678.419	0.0173043
678.497	0.0172059
678.575	0.0171329
678.654	0.0169181
678.732	0.0167111
678.810	0.0163913
678.888	0.0163358
678.966	0.0161342
679.044	0.0158472
679.122	0.0156767
679.200	0.0153648
679.279	0.0153859
679.357	0.0149221
679.435	0.0147912
679.513	0.0147278
679.591	0.0144218
679.669	0.0144047
679.747	0.0144121
679.825	0.0143976
679.904	0.0146368
679.982	0.0147318
680.060	0.0151679
680.138	0.0155795
680.216	0.0160073
680.294	0.0165845
680.372	0.0172932
680.450	0.0179517
680.529	0.0183788
680.607	0.0186358
680.685	0.0189463
680.763	0.0190781
680.841	0.0189999
680.919	0.0189302
680.997	0.0189227
681.075	0.0184388
681.154	0.0178613
681.232	0.0175875
681.310	0.0173727
681.388	0.0169052
681.466	0.0165591
681.544	0.0165327
681.622	0.0165145
681.700	0.0165214
681.779	0.0163879
681.857	0.0164741
681.935	0.0164313
682.013	0.0165788
682.091	0.0166646
682.169	0.0167348
682.247	0.0168992
682.325	0.0168756
682.404	0.0170029
682.482	0.0169867
682.560	0.0168983
682.638	0.0167554
682.716	0.0167043
682.794	0.0164346
682.872	0.0163197
682.950	0.0160521
683.029	0.0157445
683.107	0.0155873
683.185	0.0156969
683.263	0.0155964
683.341	0.0158022
683.419	0.0159492
683.497	0.0161787
683.575	0.0164835
683.654	0.0167846
683.732	0.0169337
683.810	0.0170039
683.888	0.0170280
683.966	0.0170201
684.044	0.0167750
684.122	0.0164448
684.200	0.0161102
684.279	0.0159099
684.357	0.0154834
684.435	0.0152161
684.513	0.0148403
684.591	0.0147556
684.669	0.0146649
684.747	0.0145695
684.825	0.0142631
684.904	0.0143044
684.982	0.0142939
685.060	0.0143075
685.138	0.0143162
685.216	0.0144492
685.294	0.0148431
685.372	0.0149401
685.450	0.0155190
685.529	0.0158943
685.607	0.0162274
685.685	0.0165530
685.763	0.0169977
685.841	0.0173331
685.919	0.0173923
685.997	0.0175916
686.075	0.0178938
686.154	0.0180281
686.232	0.0182511
686.310	0.0184783
686.388	0.0186745
686.466	0.0191060
686.544	0.0195045
686.622	0.0200181
686.700	0.0202438
686.779	0.0208321
686.857	0.0211156
686.935	0.0212957
687.013	0.0213956
687.091	0.0210677
687.169	0.0206672
687.247	0.0201517
687.325	0.0195037
687.404	0.0185490
687.482	0.0175700
687.560	0.0167724
687.638	0.0157705
687.716	0.0148686
687.794	0.0143492
687.872	0.0137424
687.950	0.0133425
688.029	0.0133340
688.107	0.0133690
688.185	0.0134219
688.263	0.0135403
688.341	0.0135819
688.419	0.0137704
688.497	0.0138612
688.575	0.0142796
688.654	0.0144217
688.732	0.0143768
688.810	0.0146476
688.888	0.0148661
688.966	0.0151822
689.044	0.0154780
689.122	0.0158701
689.200	0.0162981
689.279	0.0165791
689.357	0.0169548
689.435	0.0172894
689.513	0.0174021
689.591	0.0176379
689.669	0.0175500
689.747	0.0177801
689.825	0.0176746
689.904	0.0176344
689.982	0.0176205
690.060	0.0175855
690.138	0.0175611
690.216	0.0175253
690.294	0.0173019
690.372	0.0170937
690.450	0.0169572
690.529	0.0167533
690.607	0.0165536
690.685	0.0162275
690.763	0.0161541
690.841	0.0157006
690.919	0.0153498
690.997	0.0149672
691.075	0.0146416
691.154	0.0143090
691.232	0.0137894
691.310	0.0132887
691.388	0.0130779
691.466	0.0128000
691.544	0.0124548
691.622	0.0122376
691.700	0.0123537
691.779	0.0123293
691.857	0.0126376
691.935	0.0132700
692.013	0.0141656
692.091	0.0149278
692.169	0.0159473
692.247	0.0170232
692.325	0.0184670
692.404	0.0192857
692.482	0.0204173
692.560	0.0214926
692.638	0.0223531
692.716	0.0229800
692.794	0.0236691
692.872	0.0243233
692.950	0.0245313
693.029	0.0247114
693.107	0.0248597
693.185	0.0246440
693.263	0.0243763
693.341	0.0239793
693.419	0.0232255
693.497	0.0222511
693.575	0.0214609
693.654	0.0202972
693.732	0.0190338
693.810	0.0178546
693.888	0.0166360
693.966	0.0156998
694.044	0.0145573
694.122	0.0138091
694.200	0.0133018
694.279	0.0128191
694.357	0.0126825
694.435	0.0126559
694.513	0.0125761
694.591	0.0125311
694.669	0.0123069
694.747	0.0124930
694.825	0.0125035
694.904	0.0125810
694.982	0.0126720
695.060	0.0124785
695.138	0.0126344
695.216	0.0126904
695.294	0.0125562
695.372	0.0123569
695.450	0.0123566
695.529	0.0122317
695.607	0.0119718
695.685	0.0119599
695.763	0.0120512
695.841	0.0118599
695.919	0.0119019
695.997	0.0120755
696.075	0.0119820
696.154	0.0119295
696.232	0.0118202
696.310	0.0117780
696.388	0.0115252
696.466	0.0113219
696.544	0.0113369
696.622	0.0113290
696.700	0.0115287
696.779	0.0119013
696.857	0.0124061
696.935	0.0132837
697.013	0.0144955
697.091	0.0160299
697.169	0.0177008
697.247	0.0196117
697.325	0.0216647
697.404	0.0237640
697.482	0.0256447
697.560	0.0274854
697.638	0.0292560
697.716	0.0305570
697.794	0.0314894
697.872	0.0318536
697.950	0.0321400
698.029	0.0316825
698.107	0.0309547
698.185	0.0298975
698.263	0.0285512
698.341	0.0269515
698.419	0.0253418
698.497	0.0235791
698.575	0.0218645
698.654	0.0200668
698.732	0.0182605
698.810	0.0167153
698.888	0.0153963
698.966	0.0140514
699.044	0.0130687
699.122	0.0121242
699.200	0.0114014
699.279	0.0108326
699.357	0.0103748
699.435	0.0100462
699.513	0.0100375
699.591	0.00979614
699.669	0.00973824
699.747	0.00962868
699.825	0.00971985
699.904	0.00968765
699.982	0.00981995
700.060	0.00995918
700.138	0.0103544
700.216	0.0105120
700.294	0.0108690
700.372	0.0111841
700.450	0.0115153
700.529	0.0118248
700.607	0.0122514
700.685	0.0123403
700.763	0.0125843
700.841	0.0126356
700.919	0.0128483
700.997	0.0129171
701.075	0.0126667
701.154	0.0126025
701.232	0.0126048
701.310	0.0123738
701.388	0.0123010
701.466	0.0121182
701.544	0.0121750
701.622	0.0124370
701.700	0.0126756
701.779	0.0131659
701.857	0.0138128
701.935	0.0145598
702.013	0.0156941
702.091	0.0168739
702.169	0.0184129
702.247	0.0198689
702.325	0.0214059
702.404	0.0229054
702.482	0.0243278
702.560	0.0255423
702.638	0.0264599
702.716	0.0274319
702.794	0.0278957
702.872	0.0280873
702.950	0.0280869
703.029	0.0279919
703.107	0.0276033
703.185	0.0269460
703.263	0.0263064
703.341	0.0253680
703.419	0.0244800
703.497	0.0236131
703.575	0.0224957
703.654	0.0212636
703.732	0.0201874
703.810	0.0191472
703.888	0.0181021
703.966	0.0172014
704.044	0.0161442
704.122	0.0152195
704.200	0.0142556
704.279	0.0133598
704.357	0.0126012
704.435	0.0117549
704.513	0.0110735
704.591	0.0105251
704.669	0.0100611
704.747	0.00976547
704.825	0.00970505
704.904	0.00955200
704.982	0.00947502
705.060	0.00983543
705.138	0.0102841
705.216	0.0105764
705.294	0.0109280
705.372	0.0112351
705.450	0.0117753
705.529	0.0122672
705.607	0.0127940
705.685	0.0130157
705.763	0.0133348
705.841	0.0138015
705.919	0.0140000
705.997	0.0142458
706.075	0.0144289
706.154	0.0147202
706.232	0.0146097
706.310	0.0145892
706.388	0.0146370
706.466	0.0144319
706.544	0.0143719
706.622	0.0145124
706.700	0.0145295
706.779	0.0146732
706.857	0.0148054
706.935	0.0150859
707.013	0.0155505
707.091	0.0159785
707.169	0.0166985
707.247	0.0175621
707.325	0.0184304
707.404	0.0195324
707.482	0.0206235
707.560	0.0217783
707.638	0.0228456
707.716	0.0235715
707.794	0.0242711
707.872	0.0248465
707.950	0.0250197
708.029	0.0249139
708.107	0.0247572
708.185	0.0245284
708.263	0.0241075
708.341	0.0235119
708.419	0.0228930
708.497	0.0221014
708.575	0.0213191
708.654	0.0204912
708.732	0.0195603
708.810	0.0186057
708.888	0.0176559
708.966	0.0168071
709.044	0.0159470
709.122	0.0150758
709.200	0.0143750
709.279	0.0138374
709.357	0.0133167
709.435	0.0128687
709.513	0.0122000
709.591	0.0119733
709.669	0.0115252
709.747	0.0113798
709.825	0.0114039
709.904	0.0111516
709.982	0.0113895
710.060	0.0118108
710.138	0.0120656
710.216	0.0121714
710.294	0.0126725
710.372	0.0130666
710.450	0.0132846
710.529	0.0133492
710.607	0.0136983
710.685	0.0138187
710.763	0.0139707
710.841	0.0140866
710.919	0.0143139
710.997	0.0144875
711.075	0.0145470
711.154	0.0146709
711.232	0.0147704
711.310	0.0148221
711.388	0.0151731
711.466	0.0154076
711.544	0.0154890
711.622	0.0158554
711.700	0.0159695
711.779	0.0162621
711.857	0.0165969
711.935	0.0167773
712.013	0.0170607
712.091	0.0175093
712.169	0.0177290
712.247	0.0181472
712.325	0.0187883
712.404	0.0192686
712.482	0.0199679
712.560	0.0205932
712.638	0.0211259
712.716	0.0217857
712.794	0.0220640
712.872	0.0223507
712.950	0.0226167
713.029	0.0226733
713.107	0.0226640
713.185	0.0222453
713.263	0.0219408
713.341	0.0213993
713.419	0.0208178
713.497	0.0200646
713.575	0.0194889
713.654	0.0186723
713.732	0.0178640
713.810	0.0172876
713.888	0.0164402
713.966	0.0160059
714.044	0.0154430
714.122	0.0149565
714.200	0.0147657
714.279	0.0145992
714.357	0.0144051
714.435	0.0141801
714.513	0.0140638
714.591	0.0139422
714.669	0.0139703
714.747	0.0138017
714.825	0.0136945
714.904	0.0136745
714.982	0.0138626
715.060	0.0135995
715.138	0.0134460
715.216	0.0135636
715.294	0.0134424
715.372	0.0132427
715.450	0.0133044
715.529	0.0133186
715.607	0.0131707
715.685	0.0132048
715.763	0.0134163
715.841	0.0134626
715.919	0.0136918
715.997	0.0136423
716.075	0.0140427
716.154	0.0143150
716.232	0.0143807
716.310	0.0148124
716.388	0.0151439
716.466	0.0154205
716.544	0.0156187
716.622	0.0161050
716.700	0.0165169
716.779	0.0167856
716.857	0.0171259
716.935	0.0175337
717.013	0.0178581
717.091	0.0181303
717.169	0.0184705
717.247	0.0187495
717.325	0.0191021
717.404	0.0192418
717.482	0.0195595
717.560	0.0197903
717.638	0.0199673
717.716	0.0200925
717.794	0.0201762
717.872	0.0202893
717.950	0.0202200
718.029	0.0200503
718.107	0.0199722
718.185	0.0199880
718.263	0.0194321
718.341	0.0192189
718.419	0.0188334
718.497	0.0182625
718.575	0.0178945
718.654	0.0175111
718.732	0.0171739
718.810	0.0167478
718.888	0.0162845
718.966	0.0160942
719.044	0.0158137
719.122	0.0158047
719.200	0.0155449
719.279	0.0154782
719.357	0.0154506
719.435	0.0153058
719.513	0.0154253
719.591	0.0154607
719.669	0.0153671
719.747	0.0155355
719.825	0.0154715
719.904	0.0153020
719.982	0.0153103
720.060	0.0153544
720.138	0.0155197
720.216	0.0154813
720.294	0.0156051
720.372	0.0155805
720.450	0.0156845
720.529	0.0156737
720.607	0.0157487
720.685	0.0157709
720.763	0.0157990
720.841	0.0157192
720.919	0.0156996
720.997	0.0155891
721.075	0.0156982
721.154	0.0156270
721.232	0.0155402
721.310	0.0153434
721.388	0.0154022
721.466	0.0153944
721.544	0.0153192
721.622	0.0151820
721.700	0.0151964
721.779	0.0153387
721.857	0.0155409
721.935	0.0156667
722.013	0.0158323
722.091	0.0160759
722.169	0.0164188
722.247	0.0166051
722.325	0.0166965
722.404	0.0170169
722.482	0.0174430
722.560	0.0175861
722.638	0.0177546
722.716	0.0181347
722.794	0.0180936
722.872	0.0183804
722.950	0.0185488
723.029	0.0185703
723.107	0.0184985
723.185	0.0184466
723.263	0.0182253
723.341	0.0181121
723.419	0.0178988
723.497	0.0176159
723.575	0.0171978
723.654	0.0168945
723.732	0.0164923
723.810	0.0161557
723.888	0.0158769
723.966	0.0156763
724.044	0.0154195
724.122	0.0153980
724.200	0.0153873
724.279	0.0153795
724.357	0.0154541
724.435	0.0155755
724.513	0.0157937
724.591	0.0159324
724.669	0.0162260
724.747	0.0165052
724.825	0.0167903
724.904	0.0170364
724.982	0.0173737
725.060	0.0172952
725.138	0.0175556
725.216	0.0176257
725.294	0.0177922
725.372	0.0177662
725.450	0.0177583
725.529	0.0175534
725.607	0.0176368
725.685	0.0174662
725.763	0.0172429
725.841	0.0171046
725.919	0.0169036
725.997	0.0167024
726.075	0.0162076
726.154	0.0161816
726.232	0.0159618
726.310	0.0156809
726.388	0.0155920
726.466	0.0152884
726.544	0.0151643
726.622	0.0153312
726.700	0.0151435
726.779	0.0151418
726.857	0.0153860
726.935	0.0154674
727.013	0.0157105
727.091	0.0159782
727.169	0.0161296
727.247	0.0163502
727.325	0.0166161
727.404	0.0166376
727.482	0.0168776
727.560	0.0170122
727.638	0.0170886
727.716	0.0173055
727.794	0.0172358
727.872	0.0174225
727.950	0.0172662
728.029	0.0173154
728.107	0.0172507
728.185	0.0171069
728.263	0.0171055
728.341	0.0170499
728.419	0.0168956
728.497	0.0167381
728.575	0.0166457
728.654	0.0166401
728.732	0.0164198
728.810	0.0164684
728.888	0.0163718
728.966	0.0163335
729.044	0.0162771
729.122	0.0163357
729.200	0.0161794
729.279	0.0163034
729.357	0.0163960
729.435	0.0162661
729.513	0.0164168
729.591	0.0164102
729.669	0.0165047
729.747	0.0166368
729.825	0.0167755
729.904	0.0167622
729.982	0.0168932
730.060	0.0169743
730.138	0.0169106
730.216	0.0169527
730.294	0.0168395
730.372	0.0169247
730.450	0.0169392
730.529	0.0169263
730.607	0.0168609
730.685	0.0169163
730.763	0.0167822
730.841	0.0167886
730.919	0.0166870
730.997	0.0167194
731.075	0.0165456
731.154	0.0166264
731.232	0.0165549
731.310	0.0164447
731.388	0.0165160
731.466	0.0163172
731.544	0.0161067
731.622	0.0161641
731.700	0.0159238
731.779	0.0159348
731.857	0.0159023
731.935	0.0158282
732.013	0.0157217
732.091	0.0157628
732.169	0.0158837
732.247	0.0159433
732.325	0.0158660
732.404	0.0159673
732.482	0.0159015
732.560	0.0160287
732.638	0.0161459
732.716	0.0163830
732.794	0.0166116
732.872	0.0167294
732.950	0.0168293
733.029	0.0170885
733.107	0.0171975
733.185	0.0172939
733.263	0.0173400
733.341	0.0173469
733.419	0.0175291
733.497	0.0174088
733.575	0.0174275
733.654	0.0172369
733.732	0.0171059
733.810	0.0169485
733.888	0.0168587
733.966	0.0166658
734.044	0.0165641
734.122	0.0163818
734.200	0.0163802
734.279	0.0164158
734.357	0.0164910
734.435	0.0165025
734.513	0.0164864
734.591	0.0167043
734.669	0.0168052
734.747	0.0169485
734.825	0.0170486
734.904	0.0172659
734.982	0.0172955
735.060	0.0172479
735.138	0.0171906
735.216	0.0172079
735.294	0.0172751
735.372	0.0170327
735.450	0.0170744
735.529	0.0167796
735.607	0.0164096
735.685	0.0165780
735.763	0.0162390
735.841	0.0160692
735.919	0.0159267
735.997	0.0157947
736.075	0.0156612
736.154	0.0156067
736.232	0.0157145
736.310	0.0155547
736.388	0.0156642
736.466	0.0155876
736.544	0.0157067
736.622	0.0158280
736.700	0.0158848
736.779	0.0160321
736.857	0.0162172
736.935	0.0161434
737.013	0.0163904
737.091	0.0165540
737.169	0.0165414
737.247	0.0165153
737.325	0.0166534
737.404	0.0168585
737.482	0.0167805
737.560	0.0170534
737.638	0.0169845
737.716	0.0170753
737.794	0.0170040
737.872	0.0170513
737.950	0.0170596
738.029	0.0171154
738.107	0.0172678
738.185	0.0170555
738.263	0.0171719
738.341	0.0170805
738.419	0.0168354
738.497	0.0168684
738.575	0.0168795
738.654	0.0166019
738.732	0.0165354
738.810	0.0165092
738.888	0.0163155
738.966	0.0162772
739.044	0.0159779
739.122	0.0159550
739.200	0.0159998
739.279	0.0158308
739.357	0.0159649
739.435	0.0160155
739.513	0.0160718
739.591	0.0160667
739.669	0.0163033
739.747	0.0164491
739.825	0.0166523
739.904	0.0166605
739.982	0.0167589
740.060	0.0168587
740.138	0.0168500
740.216	0.0170880
740.294	0.0170673
740.372	0.0169627
740.450	0.0169868
740.529	0.0169133
740.607	0.0168631
740.685	0.0166801
740.763	0.0165242
740.841	0.0165516
740.919	0.0163443
740.997	0.0162020
741.075	0.0162080
741.154	0.0159977
741.232	0.0159422
741.310	0.0159937
741.388	0.0159443
741.466	0.0158878
741.544	0.0159225
741.622	0.0161121
741.700	0.0162053
741.779	0.0161098
741.857	0.0161710
741.935	0.0164832
742.013	0.0165257
742.091	0.0165900
742.169	0.0167857
742.247	0.0168855
742.325	0.0168491
742.404	0.0169788
742.482	0.0171470
742.560	0.0170955
742.638	0.0171921
742.716	0.0172300
742.794	0.0170865
742.872	0.0172317
742.950	0.0173473
743.029	0.0171935
743.107	0.0171648
743.185	0.0172598
743.263	0.0172131
743.341	0.0172405
743.419	0.0171426
743.497	0.0171007
743.575	0.0170564
743.654	0.0169804
743.732	0.0169160
743.810	0.0168507
743.888	0.0167049
743.966	0.0166259
744.044	0.0164431
744.122	0.0164256
744.200	0.0163514
744.279	0.0161578
744.357	0.0161208
744.435	0.0160986
744.513	0.0159064
744.591	0.0157726
744.669	0.0158165
744.747	0.0157457
744.825	0.0155122
744.904	0.0155698
744.982	0.0156601
745.060	0.0154826
745.138	0.0156371
745.216	0.0157273
745.294	0.0158327
745.372	0.0159219
745.450	0.0160283
745.529	0.0161723
745.607	0.0161479
745.685	0.0162810
745.763	0.0163102
745.841	0.0164257
745.919	0.0165111
745.997	0.0164742
746.075	0.0163882
746.154	0.0164772
746.232	0.0166567
746.310	0.0165771
746.388	0.0165055
746.466	0.0166771
746.544	0.0167210
746.622	0.0166483
746.700	0.0166367
746.779	0.0168125
746.857	0.0167739
746.935	0.0167176
747.013	0.0168788
747.091	0.0169967
747.169	0.0169179
747.247	0.0168265
747.325	0.0170692
747.404	0.0171560
747.482	0.0171222
747.560	0.0170081
747.638	0.0170384
747.716	0.0170125
747.794	0.0170695
747.872	0.0169398
747.950	0.0170572
748.029	0.0169033
748.107	0.0168119
748.185	0.0168145
748.263	0.0167444
748.341	0.0167781
748.419	0.0165669
748.497	0.0166827
748.575	0.0166642
748.654	0.0165396
748.732	0.0166792
748.810	0.0166248
748.888	0.0166272
748.966	0.0166430
749.044	0.0166518
749.122	0.0164685
749.200	0.0164818
749.279	0.0167022
749.357	0.0165779
749.435	0.0166038
749.513	0.0167183
749.591	0.0165789
749.669	0.0166457
749.747	0.0166607
749.825	0.0165277
749.904	0.0165331
749.982	0.0167447
750.060	0.0165456
750.138	0.0167382
750.216	0.0166985
750.294	0.0166920
750.372	0.0165944
750.450	0.0165953
750.529	0.0163225
750.607	0.0164525
750.685	0.0165050
750.763	0.0165629
750.841	0.0163136
750.919	0.0164123
750.997	0.0163842
751.075	0.0163792
751.154	0.0162614
751.232	0.0161884
751.310	0.0162178
751.388	0.0160186
751.466	0.0159531
751.544	0.0161920
751.622	0.0160362
751.700	0.0161739
751.779	0.0163747
751.857	0.0162836
751.935	0.0162675
752.013	0.0163187
752.091	0.0164703
752.169	0.0165271
752.247	0.0165909
752.325	0.0166441
752.404	0.0167370
752.482	0.0167307
752.560	0.0167866
752.638	0.0168612
752.716	0.0167599
752.794	0.0168382
752.872	0.0166225
752.950	0.0166235
753.029	0.0166069
753.107	0.0166663
753.185	0.0167193
753.263	0.0166711
753.341	0.0165835
753.419	0.0165349
753.497	0.0166269
753.575	0.0167968
753.654	0.0167224
753.732	0.0166316
753.810	0.0166682
753.888	0.0166730
753.966	0.0169550
754.044	0.0167239
754.122	0.0168996
754.200	0.0169454
754.279	0.0169705
754.357	0.0167950
754.435	0.0168790
754.513	0.0168645
754.591	0.0167766
754.669	0.0166779
754.747	0.0167378
754.825	0.0166653
754.904	0.0167086
754.982	0.0165509
755.060	0.0166697
755.138	0.0166473
755.216	0.0165449
755.294	0.0166418
755.372	0.0165919
755.450	0.0165508
755.529	0.0164481
755.607	0.0164510
755.685	0.0164220
755.763	0.0165127
755.841	0.0163638
755.919	0.0164478
755.997	0.0163004
756.075	0.0164272
756.154	0.0163750
756.232	0.0165245
756.310	0.0164606
756.388	0.0164013
756.466	0.0164848
756.544	0.0167981
756.622	0.0166284
756.700	0.0167559
756.779	0.0167383
756.857	0.0167130
756.935	0.0166839
757.013	0.0168420
757.091	0.0168391
757.169	0.0168566
757.247	0.0167222
757.325	0.0166141
757.404	0.0166478
757.482	0.0167589
757.560	0.0167187
757.638	0.0166324
757.716	0.0166645
757.794	0.0165985
757.872	0.0164438
757.950	0.0164904
758.029	0.0165803
758.107	0.0163992
758.185	0.0163251
758.263	0.0163361
758.341	0.0164405
758.419	0.0163396
758.497	0.0162751
758.575	0.0162879
758.654	0.0163772
758.732	0.0163490
758.810	0.0163788
758.888	0.0163866
758.966	0.0164717
759.044	0.0164111
759.122	0.0164408
759.200	0.0165172
759.279	0.0166072
759.357	0.0164449
759.435	0.0166889
759.513	0.0166641
759.591	0.0166975
759.669	0.0166592
759.747	0.0168072
759.825	0.0168375
759.904	0.0167901
759.982	0.0168787
760.060	0.0168058
760.138	0.0166631
760.216	0.0168408
760.294	0.0168461
760.372	0.0167283
760.450	0.0165897
760.529	0.0166973
760.607	0.0165473
760.685	0.0167406
760.763	0.0164071
760.841	0.0163883
760.919	0.0164039
760.997	0.0165272
761.075	0.0164476
761.154	0.0165972
761.232	0.0164871
761.310	0.0165665
761.388	0.0165756
761.466	0.0166504
761.544	0.0166220
761.622	0.0167368
761.700	0.0167693
761.779	0.0168490
761.857	0.0168207
761.935	0.0167543
762.013	0.0168330
762.091	0.0168690
762.169	0.0166850
762.247	0.0165907
762.325	0.0165809
762.404	0.0168791
762.482	0.0165933
762.560	0.0163788
762.638	0.0164179
762.716	0.0164042
762.794	0.0162689
762.872	0.0162969
762.950	0.0165334
763.029	0.0164050
763.107	0.0161961
763.185	0.0164867
763.263	0.0164787
763.341	0.0163120
763.419	0.0164341
763.497	0.0163103
763.575	0.0164233
763.654	0.0165279
763.732	0.0163993
763.810	0.0164123
763.888	0.0164885
763.966	0.0163876
764.044	0.0166052
764.122	0.0164301
764.200	0.0164965
764.279	0.0164643
764.357	0.0165336
764.435	0.0165052
764.513	0.0165009
764.591	0.0165891
764.669	0.0165200
764.747	0.0165540
764.825	0.0164036
764.904	0.0165678
764.982	0.0165002
765.060	0.0165664
765.138	0.0165868
765.216	0.0164457
765.294	0.0164326
765.372	0.0165069
765.450	0.0165445
765.529	0.0166666
765.607	0.0165907
765.685	0.0165900
765.763	0.0167531
765.841	0.0168484
765.919	0.0167317
765.997	0.0167565
766.075	0.0171053
766.154	0.0168578
766.232	0.0168962
766.310	0.0168822
766.388	0.0169263
766.466	0.0168861
766.544	0.0169265
766.622	0.0169678
766.700	0.0168246
766.779	0.0168280
766.857	0.0168261
766.935	0.0168153
767.013	0.0167496
767.091	0.0167012
767.169	0.0165797
767.247	0.0166476
767.325	0.0166583
767.404	0.0166908
767.482	0.0165636
767.560	0.0165932
767.638	0.0165927
767.716	0.0165425
767.794	0.0164317
767.872	0.0165106
767.950	0.0163569
768.029	0.0163798
768.107	0.0163581
768.185	0.0163080
768.263	0.0162691
768.341	0.0162910
768.419	0.0161429
768.497	0.0161368
768.575	0.0161184
768.654	0.0159698
768.732	0.0159224
768.810	0.0160053
768.888	0.0160128
768.966	0.0160870
769.044	0.0162708
769.122	0.0162131
769.200	0.0161896
769.279	0.0164024
769.357	0.0161768
769.435	0.0164098
769.513	0.0165972
769.591	0.0166845
769.669	0.0166948
769.747	0.0167651
769.825	0.0169099
769.904	0.0169651
769.982	0.0171121
770.060	0.0171696
770.138	0.0171452
770.216	0.0172272
770.294	0.0171597
770.372	0.0171131
770.450	0.0171090
770.529	0.0170528
770.607	0.0170212
770.685	0.0170405
770.763	0.0168533
770.841	0.0168082
770.919	0.0167574
770.997	0.0166792
771.075	0.0166279
771.154	0.0165234
771.232	0.0165582
771.310	0.0163383
771.388	0.0163953
771.466	0.0161810
771.544	0.0161294
771.622	0.0161201
771.700	0.0162550
771.779	0.0161055
771.857	0.0159956
771.935	0.0161228
772.013	0.0162310
772.091	0.0162141
772.169	0.0162553
772.247	0.0163039
772.325	0.0163783
772.404	0.0163277
772.482	0.0164744
772.560	0.0164668
772.638	0.0164267
772.716	0.0166141
772.794	0.0166024
772.872	0.0164751
772.950	0.0165298
773.029	0.0167268
773.107	0.0165402
773.185	0.0164106
773.263	0.0167380
773.341	0.0167400
773.419	0.0167393
773.497	0.0167949
773.575	0.0168223
773.654	0.0167887
773.732	0.0168092
773.810	0.0169039
773.888	0.0169068
773.966	0.0169495
774.044	0.0169077
774.122	0.0169553
774.200	0.0169065
774.279	0.0169327
774.357	0.0168402
774.435	0.0169489
774.513	0.0169171
774.591	0.0167433
774.669	0.0166741
774.747	0.0166558
774.825	0.0169019
774.904	0.0167403
774.982	0.0166334
775.060	0.0164942
775.138	0.0165765
775.216	0.0163767
775.294	0.0164034
775.372	0.0165014
775.450	0.0163578
775.529	0.0163655
775.607	0.0163942
775.685	0.0163531
775.763	0.0162375
775.841	0.0162466
775.919	0.0163097
775.997	0.0162093
776.075	0.0162476
776.154	0.0163626
776.232	0.0162943
776.310	0.0162543
776.388	0.0161737
776.466	0.0162257
776.544	0.0164382
776.622	0.0163853
776.700	0.0163950
776.779	0.0163385
776.857	0.0164557
776.935	0.0165149
777.013	0.0166034
777.091	0.0164029
777.169	0.0166442
777.247	0.0166128
777.325	0.0165421
777.404	0.0166987
777.482	0.0164558
777.560	0.0165362
777.638	0.0165250
777.716	0.0165386
777.794	0.0164873
777.872	0.0165292
777.950	0.0165332
778.029	0.0166415
778.107	0.0166290
778.185	0.0167020
778.263	0.0167111
778.341	0.0168565
778.419	0.0170183
778.497	0.0169232
778.575	0.0168551
778.654	0.0168739
778.732	0.0168960
778.810	0.0168994
778.888	0.0168701
778.966	0.0168503
779.044	0.0168207
779.122	0.0167467
779.200	0.0167394
779.279	0.0167414
779.357	0.0168189
779.435	0.0166867
779.513	0.0167419
779.591	0.0166194
779.669	0.0164843
779.747	0.0164620
779.825	0.0165736
779.904	0.0166261
779.982	0.0164256
780.060	0.0165359
780.138	0.0164932
780.216	0.0164141
780.294	0.0162960
780.372	0.0164077
780.450	0.0163034
780.529	0.0161876
780.607	0.0163818
780.685	0.0161377
780.763	0.0161687
780.841	0.0161614
780.919	0.0161971
780.997	0.0162100
781.075	0.0161333
781.154	0.0160825
781.232	0.0162202
781.310	0.0160565
781.388	0.0162103
781.466	0.0162101
781.544	0.0161848
781.622	0.0162274
781.700	0.0163424
781.779	0.0164669
781.857	0.0165248
781.935	0.0165256
782.013	0.0165057
782.091	0.0167699
782.169	0.0166879
782.247	0.0167182
782.325	0.0167935
782.404	0.0169128
782.482	0.0170121
782.560	0.0170706
782.638	0.0170649
782.716	0.0171130
782.794	0.0171032
782.872	0.0171799
782.950	0.0171358
783.029	0.0171481
783.107	0.0172681
783.185	0.0171844
783.263	0.0171431
783.341	0.0171662
783.419	0.0170865
783.497	0.0168974
783.575	0.0169086
783.654	0.0168350
783.732	0.0169370
783.810	0.0167131
783.888	0.0164747
783.966	0.0165975
784.044	0.0164396
784.122	0.0164278
784.200	0.0163762
784.279	0.0162959
784.357	0.0161197
784.435	0.0161347
784.513	0.0162202
784.591	0.0161384
784.669	0.0161660
784.747	0.0162000
784.825	0.0160861
784.904	0.0160252
784.982	0.0161285
785.060	0.0160484
785.138	0.0158679
785.216	0.0158486
785.294	0.0161481
785.372	0.0159879
785.450	0.0160139
785.529	0.0160457
785.607	0.0162923
785.685	0.0160979
785.763	0.0162392
785.841	0.0163830
785.919	0.0162819
785.997	0.0164427
786.075	0.0164301
786.154	0.0165295
786.232	0.0166417
786.310	0.0165800
786.388	0.0167325
786.466	0.0167136
786.544	0.0168028
786.622	0.0170226
786.700	0.0168397
786.779	0.0171441
786.857	0.0170083
786.935	0.0170183
787.013	0.0168623
787.091	0.0171574
787.169	0.0168766
787.247	0.0169179
787.325	0.0167771
787.404	0.0169305
787.482	0.0169281
787.560	0.0168640
787.638	0.0168218
787.716	0.0168398
787.794	0.0165987
787.872	0.0164412
787.950	0.0164574
788.029	0.0165177
788.107	0.0165977
788.185	0.0163520
788.263	0.0163341
788.341	0.0163625
788.419	0.0163632
788.497	0.0164805
788.575	0.0163511
788.654	0.0164670
788.732	0.0164845
788.810	0.0164774
788.888	0.0165043
788.966	0.0165398
789.044	0.0167415
789.122	0.0166259
789.200	0.0166280
789.279	0.0166357
789.357	0.0167072
789.435	0.0166962
789.513	0.0165868
789.591	0.0166440
789.669	0.0167403
789.747	0.0166142
789.825	0.0165976
789.904	0.0166451
789.982	0.0166737
790.060	0.0167290
790.138	0.0166581
790.216	0.0165630
790.294	0.0166416
790.372	0.0165693
790.450	0.0165596
790.529	0.0166508
790.607	0.0165375
790.685	0.0165287
790.763	0.0166774
790.841	0.0166375
790.919	0.0166227
790.997	0.0165750
791.075	0.0166901
791.154	0.0166376
791.232	0.0166174
791.310	0.0166298
791.388	0.0164011
791.466	0.0164828
791.544	0.0164888
791.622	0.0164300
791.700	0.0164011
791.779	0.0164206
791.857	0.0163793
791.935	0.0164198
792.013	0.0164203
792.091	0.0163657
792.169	0.0161891
792.247	0.0162766
792.325	0.0163303
792.404	0.0163117
792.482	0.0160097
792.560	0.0160930
792.638	0.0161433
792.716	0.0161321
792.794	0.0160736
792.872	0.0160003
792.950	0.0160715
793.029	0.0161600
793.107	0.0162142
793.185	0.0162529
793.263	0.0161917
793.341	0.0162484
793.419	0.0163161
793.497	0.0162565
793.575	0.0164933
793.654	0.0166637
793.732	0.0166904
793.810	0.0168428
793.888	0.0167797
793.966	0.0169876
794.044	0.0171856
794.122	0.0172181
794.200	0.0170547
794.279	0.0171571
794.357	0.0172990
794.435	0.0174406
794.513	0.0172627
794.591	0.0173380
794.669	0.0172739
794.747	0.0174263
794.825	0.0173381
794.904	0.0172691
794.982	0.0172223
795.060	0.0172345
795.138	0.0171932
795.216	0.0168997
795.294	0.0170430
795.372	0.0170971
795.450	0.0168253
795.529	0.0168378
795.607	0.0166458
795.685	0.0166248
795.763	0.0164827
795.841	0.0164517
795.919	0.0164210
795.997	0.0163882
796.075	0.0162577
796.154	0.0161695
796.232	0.0160364
796.310	0.0160867
796.388	0.0159902
796.466	0.0158442
796.544	0.0159339
796.622	0.0159533
796.700	0.0158144
796.779	0.0157877
796.857	0.0158472
796.935	0.0158920
797.013	0.0157257
797.091	0.0156774
797.169	0.0157298
797.247	0.0157436
797.325	0.0159063
797.404	0.0156823
797.482	0.0157977
797.560	0.0158527
797.638	0.0160117
797.716	0.0159444
797.794	0.0160651
797.872	0.0160654
797.950	0.0161216
798.029	0.0161721
798.107	0.0162684
798.185	0.0163836
798.263	0.0163277
798.341	0.0163943
798.419	0.0166978
798.497	0.0166656
798.575	0.0167583
798.654	0.0168684
798.732	0.0170428
798.810	0.0171033
798.888	0.0172609
798.966	0.0173223
799.044	0.0174647
799.122	0.0174850
799.200	0.0175253
799.279	0.0177564
799.357	0.0178386
799.435	0.0178209
799.513	0.0176161
799.591	0.0176160
799.669	0.0176981
799.747	0.0177400
799.825	0.0175916
799.904	0.0175902
799.982	0.0173476
800.060	0.0172371
800.138	0.0172515
800.216	0.0169844
800.294	0.0169026
800.372	0.0167248
800.450	0.0166131
800.529	0.0165309
800.607	0.0163236
800.685	0.0162400
800.763	0.0161415
800.841	0.0160306
800.919	0.0159216
800.997	0.0159171
801.075	0.0157908
801.154	0.0159523
801.232	0.0156856
801.310	0.0157919
801.388	0.0157844
801.466	0.0157661
801.544	0.0156548
801.622	0.0157135
801.700	0.0157254
801.779	0.0157359
801.857	0.0158238
801.935	0.0157238
802.013	0.0157937
802.091	0.0156557
802.169	0.0157933
802.247	0.0157888
802.325	0.0159391
802.404	0.0159261
802.482	0.0160448
802.560	0.0159265
802.638	0.0159989
802.716	0.0161504
802.794	0.0161804
802.872	0.0162321
802.950	0.0162820
803.029	0.0163514
803.107	0.0163654
803.185	0.0165096
803.263	0.0166661
803.341	0.0164803
803.419	0.0166303
803.497	0.0167176
803.575	0.0167924
803.654	0.0168576
803.732	0.0169585
803.810	0.0168908
803.888	0.0170492
803.966	0.0173738
804.044	0.0172392
804.122	0.0173465
804.200	0.0173270
804.279	0.0174431
804.357	0.0175580
804.435	0.0174450
804.513	0.0174581
804.591	0.0174065
804.669	0.0173737
804.747	0.0173676
804.825	0.0173201
804.904	0.0172781
804.982	0.0172316
805.060	0.0170361
805.138	0.0169036
805.216	0.0167674
805.294	0.0167843
805.372	0.0166878
805.450	0.0166506
805.529	0.0166158
805.607	0.0165862
805.685	0.0164930
805.763	0.0165509
805.841	0.0163814
805.919	0.0163337
805.997	0.0163230
806.075	0.0162232
806.154	0.0161459
806.232	0.0160223
806.310	0.0161623
806.388	0.0160184
806.466	0.0159119
806.544	0.0160119
806.622	0.0159177
806.700	0.0157980
806.779	0.0159410
806.857	0.0157972
806.935	0.0158987
807.013	0.0160051
807.091	0.0159162
807.169	0.0158294
807.247	0.0159554
807.325	0.0160860
807.404	0.0160042
807.482	0.0162389
807.560	0.0162540
807.638	0.0162726
807.716	0.0164207
807.794	0.0164962
807.872	0.0165120
807.950	0.0166525
808.029	0.0167113
808.107	0.0167901
808.185	0.0169652
808.263	0.0168633
808.341	0.0169263
808.419	0.0169621
808.497	0.0168697
808.575	0.0168905
808.654	0.0169267
808.732	0.0168620
808.810	0.0167873
808.888	0.0168085
808.966	0.0168891
809.044	0.0169035
809.122	0.0169015
809.200	0.0168559
809.279	0.0168793
809.357	0.0169884
809.435	0.0167856
809.513	0.0170179
809.591	0.0169315
809.669	0.0168864
809.747	0.0168880
809.825	0.0168096
809.904	0.0168123
809.982	0.0168616
810.060	0.0166829
810.138	0.0166279
810.216	0.0167940
810.294	0.0167531
810.372	0.0165725
810.450	0.0165829
810.529	0.0166026
810.607	0.0164305
810.685	0.0165739
810.763	0.0166248
810.841	0.0164778
810.919	0.0164931
810.997	0.0165732
811.075	0.0164010
811.154	0.0164156
811.232	0.0163693
811.310	0.0161659
811.388	0.0163345
811.466	0.0162210
811.544	0.0161467
811.622	0.0162512
811.700	0.0161655
811.779	0.0159842
811.857	0.0161109
811.935	0.0160259
812.013	0.0161179
812.091	0.0162496
812.169	0.0161885
812.247	0.0160536
812.325	0.0160351
812.404	0.0163016
812.482	0.0163340
812.560	0.0162289
812.638	0.0162975
812.716	0.0163847
812.794	0.0163572
812.872	0.0164870
812.950	0.0165907
813.029	0.0165662
813.107	0.0166113
813.185	0.0166277
813.263	0.0166931
813.341	0.0169446
813.419	0.0168337
813.497	0.0168958
813.575	0.0167947
813.654	0.0167588
813.732	0.0168143
813.810	0.0166950
813.888	0.0168619
813.966	0.0168930
814.044	0.0168413
814.122	0.0168156
814.200	0.0166964
814.279	0.0168659
814.357	0.0168531
814.435	0.0167958
814.513	0.0168030
814.591	0.0169733
814.669	0.0168599
814.747	0.0168713
814.825	0.0169031
814.904	0.0168843
814.982	0.0167574
815.060	0.0167112
815.138	0.0169501
815.216	0.0166685
815.294	0.0168243
815.372	0.0167426
815.450	0.0166756
815.529	0.0166575
815.607	0.0165324
815.685	0.0165914
815.763	0.0165505
815.841	0.0165502
815.919	0.0166190
815.997	0.0166128
816.075	0.0166620
816.154	0.0165967
816.232	0.0165180
816.310	0.0166772
816.388	0.0167350
816.466	0.0164368
816.544	0.0164309
816.622	0.0164883
816.700	0.0163889
816.779	0.0163595
816.857	0.0163085
816.935	0.0162629
817.013	0.0161356
817.091	0.0160379
817.169	0.0161089
817.247	0.0161749
817.325	0.0160355
817.404	0.0159335
817.482	0.0159737
817.560	0.0159892
817.638	0.0158661
817.716	0.0160241
817.794	0.0157886
817.872	0.0158838
817.950	0.0159294
818.029	0.0159461
818.107	0.0158588
818.185	0.0160003
818.263	0.0160218
818.341	0.0160079
818.419	0.0162025
818.497	0.0162070
818.575	0.0163313
818.654	0.0164423
818.732	0.0164909
818.810	0.0164929
818.888	0.0168017
818.966	0.0168323
819.044	0.0168036
819.122	0.0168928
819.200	0.0169769
819.279	0.0169739
819.357	0.0170858
819.435	0.0171600
819.513	0.0172048
819.591	0.0172440
819.669	0.0172206
819.747	0.0173441
819.825	0.0173155
819.904	0.0171724
819.982	0.0173154
820.060	0.0171570
820.138	0.0171217
820.216	0.0170434
820.294	0.0169820
820.372	0.0169325
820.450	0.0168724
820.529	0.0168633
820.607	0.0167406
820.685	0.0167127
820.763	0.0165964
820.841	0.0164804
820.919	0.0164821
820.997	0.0166655
821.075	0.0165163
821.154	0.0166186
821.232	0.0165898
821.310	0.0165272
821.388	0.0164945
821.466	0.0164827
821.544	0.0163803
821.622	0.0164861
821.700	0.0164933
821.779	0.0164307
821.857	0.0164203
821.935	0.0163922
822.013	0.0163976
822.091	0.0162496
822.169	0.0161554
822.247	0.0161838
822.325	0.0161589
822.404	0.0160851
822.482	0.0160680
822.560	0.0160489
822.638	0.0159621
822.716	0.0160979
822.794	0.0160251
822.872	0.0158393
822.950	0.0161038
823.029	0.0159637
823.107	0.0159085
823.185	0.0159821
823.263	0.0159070
823.341	0.0160977
823.419	0.0161625
823.497	0.0161102
823.575	0.0162529
823.654	0.0163300
823.732	0.0162962
823.810	0.0164210
823.888	0.0163548
823.966	0.0163593
824.044	0.0164349
824.122	0.0165769
824.200	0.0166833
824.279	0.0166782
824.357	0.0169418
824.435	0.0169080
824.513	0.0169636
824.591	0.0168309
824.669	0.0170115
824.747	0.0169850
824.825	0.0170229
824.904	0.0171832
824.982	0.0172092
825.060	0.0172621
825.138	0.0171503
825.216	0.0169867
825.294	0.0170576
825.372	0.0169450
825.450	0.0169500
825.529	0.0169147
825.607	0.0168613
825.685	0.0168652
825.763	0.0167432
825.841	0.0166080
825.919	0.0166569
825.997	0.0165148
826.075	0.0165395
826.154	0.0164509
826.232	0.0164360
826.310	0.0165452
826.388	0.0164124
826.466	0.0164093
826.544	0.0164495
826.622	0.0164745
826.700	0.0162492
826.779	0.0163239
826.857	0.0163712
826.935	0.0162887
827.013	0.0164227
827.091	0.0163780
827.169	0.0162921
827.247	0.0164034
827.325	0.0162997
827.404	0.0162708
827.482	0.0163099
827.560	0.0163689
827.638	0.0163060
827.716	0.0163491
827.794	0.0163068
827.872	0.0163206
827.950	0.0162241
828.029	0.0163504
828.107	0.0163290
828.185	0.0163489
828.263	0.0163458
828.341	0.0163821
828.419	0.0164396
828.497	0.0163302
828.575	0.0163966
828.654	0.0165592
828.732	0.0164636
828.810	0.0164619
828.888	0.0164214
828.966	0.0164055
829.044	0.0167073
829.122	0.0166631
829.200	0.0167206
829.279	0.0166558
829.357	0.0165954
829.435	0.0167255
829.513	0.0169415
829.591	0.0167007
829.669	0.0169233
829.747	0.0169198
829.825	0.0169241
829.904	0.0170433
829.982	0.0169897
830.060	0.0168708
830.138	0.0168688
830.216	0.0168568
830.294	0.0169124
830.372	0.0168871
830.450	0.0168814
830.529	0.0166608
830.607	0.0169490
830.685	0.0166435
830.763	0.0166248
830.841	0.0165804
830.919	0.0165028
830.997	0.0164747
831.075	0.0164359
831.154	0.0164049
831.232	0.0164811
831.310	0.0165270
831.388	0.0164162
831.466	0.0163450
831.544	0.0163788
831.622	0.0163766
831.700	0.0164002
831.779	0.0162911
831.857	0.0162242
831.935	0.0162796
832.013	0.0162742
832.091	0.0161102
832.169	0.0162924
832.247	0.0162511
832.325	0.0162801
832.404	0.0163503
832.482	0.0161764
832.560	0.0162667
832.638	0.0162623
832.716	0.0162333
832.794	0.0163897
832.872	0.0162341
832.950	0.0164471
833.029	0.0162162
833.107	0.0163864
833.185	0.0163977
833.263	0.0164247
833.341	0.0164890
833.419	0.0165531
833.497	0.0164877
833.575	0.0164849
833.654	0.0166563
833.732	0.0166837
833.810	0.0165895
833.888	0.0167030
833.966	0.0166235
834.044	0.0167686
834.122	0.0167141
834.200	0.0166481
834.279	0.0167136
834.357	0.0167042
834.435	0.0167101
834.513	0.0167778
834.591	0.0167810
834.669	0.0168975
834.747	0.0167094
834.825	0.0167588
834.904	0.0168761
834.982	0.0167934
835.060	0.0167988
835.138	0.0168684
835.216	0.0166982
835.294	0.0167441
835.372	0.0167289
835.450	0.0167783
835.529	0.0167071
835.607	0.0166458
835.685	0.0167049
835.763	0.0167927
835.841	0.0165099
835.919	0.0164849
835.997	0.0166174
836.075	0.0166678
836.154	0.0165573
836.232	0.0165670
836.310	0.0166386
836.388	0.0165774
836.466	0.0166576
836.544	0.0165735
836.622	0.0166254
836.700	0.0165166
836.779	0.0164788
836.857	0.0166428
836.935	0.0166263
837.013	0.0166147
837.091	0.0164828
837.169	0.0165408
837.247	0.0165065
837.325	0.0163831
837.404	0.0163265
837.482	0.0162812
837.560	0.0161593
837.638	0.0162981
837.716	0.0162601
837.794	0.0162794
837.872	0.0164386
837.950	0.0163963
838.029	0.0162282
838.107	0.0162710
838.185	0.0163902
838.263	0.0164769
838.341	0.0164275
838.419	0.0163837
838.497	0.0164973
838.575	0.0165853
838.654	0.0164989
838.732	0.0164559
838.810	0.0165106
838.888	0.0165164
838.966	0.0164227
839.044	0.0164840
839.122	0.0164960
839.200	0.0164001
839.279	0.0165133
839.357	0.0164361
839.435	0.0165816
839.513	0.0165276
839.591	0.0164432
839.669	0.0164912
839.747	0.0163837
839.825	0.0166550
839.904	0.0167292
839.982	0.0166724
840.060	0.0166270
840.138	0.0165929
840.216	0.0166548
840.294	0.0167406
840.372	0.0167123
840.450	0.0167495
840.529	0.0166537
840.607	0.0168813
840.685	0.0168642
840.763	0.0168683
840.841	0.0167815
840.919	0.0167700
840.997	0.0169329
841.075	0.0168932
841.154	0.0168364
841.232	0.0169586
841.310	0.0168845
841.388	0.0167406
841.466	0.0166218
841.544	0.0166464
841.622	0.0166877
841.700	0.0167093
841.779	0.0166498
841.857	0.0166757
841.935	0.0165029
842.013	0.0165631
842.091	0.0164499
842.169	0.0164169
842.247	0.0164632
842.325	0.0164935
842.404	0.0164716
842.482	0.0164206
842.560	0.0163499
842.638	0.0162809
842.716	0.0162308
842.794	0.0162067
842.872	0.0160973
842.950	0.0162128
843.029	0.0161246
843.107	0.0161875
843.185	0.0162027
843.263	0.0163712
843.341	0.0163519
843.419	0.0161767
843.497	0.0163833
843.575	0.0163931
843.654	0.0164237
843.732	0.0163188
843.810	0.0163644
843.888	0.0163908
843.966	0.0164724
844.044	0.0165654
844.122	0.0164204
844.200	0.0164589
844.279	0.0165498
844.357	0.0165753
844.435	0.0164651
844.513	0.0165878
844.591	0.0165504
844.669	0.0164933
844.747	0.0165329
844.825	0.0164651
844.904	0.0164758
844.982	0.0164556
845.060	0.0164114
845.138	0.0166586
845.216	0.0167184
845.294	0.0166547
845.372	0.0164896
845.450	0.0165443
845.529	0.0165795
845.607	0.0167575
845.685	0.0167090
845.763	0.0166684
845.841	0.0167658
845.919	0.0168252
845.997	0.0169061
846.075	0.0168593
846.154	0.0167290
846.232	0.0168462
846.310	0.0169697
846.388	0.0170655
846.466	0.0168672
846.544	0.0169426
846.622	0.0168430
846.700	0.0168825
846.779	0.0168142
846.857	0.0168917
846.935	0.0169161
847.013	0.0166646
847.091	0.0166980
847.169	0.0166757
847.247	0.0167113
847.325	0.0165752
847.404	0.0165656
847.482	0.0164409
847.560	0.0162807
847.638	0.0162903
847.716	0.0163778
847.794	0.0163052
847.872	0.0162863
847.950	0.0161479
848.029	0.0160211
848.107	0.0160031
848.185	0.0162401
848.263	0.0161584
848.341	0.0161727
848.419	0.0162873
848.497	0.0161225
848.575	0.0161517
848.654	0.0162181
848.732	0.0162985
848.810	0.0162569
848.888	0.0163025
848.966	0.0164088
849.044	0.0163990
849.122	0.0164318
849.200	0.0165517
849.279	0.0165148
849.357	0.0164404
849.435	0.0164713
849.513	0.0165346
849.591	0.0165550
849.669	0.0166438
849.747	0.0165356
849.825	0.0164378
849.904	0.0165245
849.982	0.0163830
850.060	0.0164513
850.138	0.0166332
850.216	0.0167110
850.294	0.0166344
850.372	0.0168383
850.450	0.0166789
850.529	0.0168017
850.607	0.0168227
850.685	0.0168769
850.763	0.0168756
850.841	0.0169455
850.919	0.0170068
850.997	0.0168562
851.075	0.0167008
851.154	0.0168230
851.232	0.0167648
851.310	0.0168354
851.388	0.0167822
851.466	0.0168119
851.544	0.0169288
851.622	0.0168432
851.700	0.0167724
851.779	0.0166415
851.857	0.0167609
851.935	0.0166700
852.013	0.0168828
852.091	0.0167400
852.169	0.0167231
852.247	0.0165740
852.325	0.0166760
852.404	0.0166236
852.482	0.0165297
852.560	0.0165491
852.638	0.0165231
852.716	0.0166405
852.794	0.0165452
852.872	0.0164261
852.950	0.0163586
853.029	0.0163584
853.107	0.0163974
853.185	0.0163617
853.263	0.0162313
853.341	0.0162540
853.419	0.0161704
853.497	0.0161412
853.575	0.0162467
853.654	0.0162144
853.732	0.0162666
853.810	0.0161752
853.888	0.0161108
853.966	0.0162606
854.044	0.0162697
854.122	0.0161483
854.200	0.0162267
854.279	0.0163152
854.357	0.0164399
854.435	0.0165308
854.513	0.0164494
854.591	0.0163235
854.669	0.0164448
854.747	0.0164916
854.825	0.0165075
854.904	0.0165705
854.982	0.0165698
855.060	0.0167202
855.138	0.0166104
855.216	0.0167685
855.294	0.0167560
855.372	0.0167107
855.450	0.0166226
855.529	0.0167499
855.607	0.0167432
855.685	0.0167526
855.763	0.0167447
855.841	0.0166595
855.919	0.0167677
855.997	0.0168193
856.075	0.0168147
856.154	0.0167798
856.232	0.0166462
856.310	0.0167742
856.388	0.0168507
856.466	0.0166222
856.544	0.0168729
856.622	0.0169059
856.700	0.0166972
856.779	0.0168587
856.857	0.0167358
856.935	0.0167067
857.013	0.0168393
857.091	0.0168295
857.169	0.0168829
857.247	0.0169228
857.325	0.0168932
857.404	0.0167903
857.482	0.0167901
857.560	0.0168036
857.638	0.0167805
857.716	0.0168579
857.794	0.0166003
857.872	0.0167159
857.950	0.0164796
858.029	0.0164541
858.107	0.0165178
858.185	0.0164782
858.263	0.0162895
858.341	0.0163588
858.419	0.0163282
858.497	0.0161147
858.575	0.0163242
858.654	0.0161715
858.732	0.0161008
858.810	0.0163209
858.888	0.0163512
858.966	0.0163036
859.044	0.0163035
859.122	0.0163273
859.200	0.0162717
859.279	0.0164002
859.357	0.0163610
859.435	0.0164112
859.513	0.0164535
859.591	0.0165200
859.669	0.0165020
859.747	0.0163356
859.825	0.0165896
859.904	0.0166391
859.982	0.0167004
860.060	0.0165209
860.138	0.0166151
860.216	0.0166367
860.294	0.0165650
860.372	0.0167075
860.450	0.0166327
860.529	0.0165828
860.607	0.0167123
860.685	0.0167458
860.763	0.0167103
860.841	0.0165371
860.919	0.0167264
860.997	0.0165472
861.075	0.0166547
861.154	0.0166143
861.232	0.0165822
861.310	0.0166655
861.388	0.0164570
861.466	0.0164639
861.544	0.0165087
861.622	0.0166181
861.700	0.0165379
861.779	0.0167094
861.857	0.0166013
861.935	0.0165627
862.013	0.0165562
862.091	0.0165120
862.169	0.0164870
862.247	0.0166637
862.325	0.0167136
862.404	0.0165990
862.482	0.0164577
862.560	0.0164619
862.638	0.0166212
862.716	0.0165387
862.794	0.0165925
862.872	0.0165607
862.950	0.0165635
863.029	0.0164068
863.107	0.0165667
863.185	0.0164631
863.263	0.0164839
863.341	0.0164407
863.419	0.0166013
863.497	0.0165586
863.575	0.0165027
863.654	0.0163802
863.732	0.0165409
863.810	0.0166182
863.888	0.0165314
863.966	0.0165044
864.044	0.0165198
864.122	0.0165304
864.200	0.0165324
864.279	0.0166415
864.357	0.0166196
864.435	0.0165035
864.513	0.0165800
864.591	0.0164689
864.669	0.0165269
864.747	0.0164959
864.825	0.0164290
864.904	0.0164331
864.982	0.0164716
865.060	0.0165437
865.138	0.0164410
865.216	0.0164658
865.294	0.0162550
865.372	0.0166267
865.450	0.0166492
865.529	0.0165968
865.607	0.0165894
865.685	0.0165261
865.763	0.0166213
865.841	0.0166290
865.919	0.0166006
865.997	0.0164970
866.075	0.0165606
866.154	0.0166171
866.232	0.0165012
866.310	0.0163889
866.388	0.0165015
866.466	0.0164945
866.544	0.0163856
866.622	0.0163363
866.700	0.0164911
866.779	0.0163291
866.857	0.0164191
866.935	0.0164261
867.013	0.0163638
867.091	0.0164052
867.169	0.0163770
867.247	0.0162305
867.325	0.0163355
867.404	0.0163379
867.482	0.0164063
867.560	0.0163396
867.638	0.0163391
867.716	0.0163931
867.794	0.0165540
867.872	0.0165457
867.950	0.0165536
868.029	0.0166287
868.107	0.0166759
868.185	0.0166440
868.263	0.0167196
868.341	0.0166667
868.419	0.0168180
868.497	0.0167284
868.575	0.0166740
868.654	0.0168774
868.732	0.0166794
868.810	0.0167134
868.888	0.0167303
868.966	0.0165018
869.044	0.0164548
869.122	0.0166851
869.200	0.0166756
869.279	0.0166197
869.357	0.0166421
869.435	0.0165759
869.513	0.0164803
869.591	0.0166755
869.669	0.0166057
869.747	0.0166834
869.825	0.0166974
869.904	0.0165642
869.982	0.0166632
870.060	0.0167287
870.138	0.0165945
870.216	0.0166000
870.294	0.0167380
870.372	0.0166177
870.450	0.0165461
870.529	0.0164736
870.607	0.0165878
870.685	0.0166222
870.763	0.0166066
870.841	0.0164950
870.919	0.0167019
870.997	0.0166599
871.075	0.0164552
871.154	0.0164200
871.232	0.0163610
871.310	0.0163203
871.388	0.0162852
871.466	0.0163787
871.544	0.0162541
871.622	0.0162690
871.700	0.0162556
871.779	0.0162351
871.857	0.0160397
871.935	0.0161219
872.013	0.0162447
872.091	0.0163560
872.169	0.0164137
872.247	0.0163737
872.325	0.0163766
872.404	0.0163988
872.482	0.0164748
872.560	0.0163275
872.638	0.0164656
872.716	0.0165440
872.794	0.0166409
872.872	0.0164231
872.950	0.0164516
873.029	0.0166187
873.107	0.0166557
873.185	0.0167324
873.263	0.0167963
873.341	0.0166380
873.419	0.0166772
873.497	0.0169993
873.575	0.0169199
873.654	0.0170769
873.732	0.0171065
873.810	0.0169899
873.888	0.0169901
873.966	0.0169556
874.044	0.0170866
874.122	0.0169788
874.200	0.0169596
874.279	0.0169361
874.357	0.0168706
874.435	0.0167544
874.513	0.0168275
874.591	0.0166213
874.669	0.0165235
874.747	0.0164551
874.825	0.0163720
874.904	0.0164637
874.982	0.0165147
875.060	0.0162494
875.138	0.0164526
875.216	0.0163994
875.294	0.0164865
875.372	0.0164301
875.450	0.0163967
875.529	0.0162847
875.607	0.0163700
875.685	0.0163739
875.763	0.0164347
875.841	0.0162119
875.919	0.0162487
875.997	0.0163670
876.075	0.0164330
876.154	0.0162918
876.232	0.0161886
876.310	0.0162664
876.388	0.0163927
876.466	0.0162164
876.544	0.0162370
876.622	0.0162166
876.700	0.0163168
876.779	0.0162565
876.857	0.0161652
876.935	0.0164005
877.013	0.0163277
877.091	0.0163489
877.169	0.0163504
877.247	0.0165504
877.325	0.0164099
877.404	0.0164018
877.482	0.0165981
877.560	0.0166023
877.638	0.0167290
877.716	0.0167381
877.794	0.0167843
877.872	0.0167459
877.950	0.0169395
878.029	0.0169768
878.107	0.0168614
878.185	0.0167801
878.263	0.0168738
878.341	0.0168648
878.419	0.0166838
878.497	0.0166806
878.575	0.0168368
878.654	0.0168124
878.732	0.0167377
878.810	0.0167799
878.888	0.0167670
878.966	0.0167744
879.044	0.0164645
879.122	0.0165533
879.200	0.0165049
879.279	0.0165219
879.357	0.0164300
879.435	0.0165849
879.513	0.0164645
879.591	0.0163425
879.669	0.0164655
879.747	0.0164508
879.825	0.0164637
879.904	0.0165180
879.982	0.0165284
880.060	0.0167228
880.138	0.0166428
880.216	0.0167869
880.294	0.0168001
880.372	0.0167159
880.450	0.0166567
880.529	0.0167032
880.607	0.0165952
880.685	0.0165082
880.763	0.0164809
880.841	0.0164648
880.919	0.0164803
880.997	0.0164141
881.075	0.0164333
881.154	0.0164526
881.232	0.0163891
881.310	0.0163807
881.388	0.0162665
881.466	0.0163152
881.544	0.0163603
881.622	0.0162535
881.700	0.0162576
881.779	0.0161003
881.857	0.0160308
881.935	0.0160480
882.013	0.0161070
882.091	0.0162280
882.169	0.0163447
882.247	0.0164409
882.325	0.0163349
882.404	0.0163459
882.482	0.0165131
882.560	0.0166427
882.638	0.0165919
882.716	0.0166870
882.794	0.0167553
882.872	0.0167770
882.950	0.0168035
883.029	0.0166583
883.107	0.0167828
883.185	0.0168208
883.263	0.0168199
883.341	0.0165198
883.419	0.0166730
883.497	0.0166091
883.575	0.0166429
883.654	0.0165290
883.732	0.0165211
883.810	0.0165096
883.888	0.0165101
883.966	0.0165422
884.044	0.0166756
884.122	0.0167139
884.200	0.0165995
884.279	0.0166377
884.357	0.0167047
884.435	0.0167564
884.513	0.0167969
884.591	0.0167153
884.669	0.0165823
884.747	0.0166934
884.825	0.0165942
884.904	0.0167410
884.982	0.0165795
885.060	0.0168157
885.138	0.0167374
885.216	0.0167856
885.294	0.0166638
885.372	0.0165689
885.450	0.0166306
885.529	0.0165742
885.607	0.0165441
885.685	0.0165184
885.763	0.0165856
885.841	0.0164284
885.919	0.0163202
885.997	0.0164688
886.075	0.0163707
886.154	0.0163948
886.232	0.0163325
886.310	0.0161922
886.388	0.0163016
886.466	0.0163218
886.544	0.0163488
886.622	0.0162831
886.700	0.0162743
886.779	0.0161127
886.857	0.0162377
886.935	0.0160956
887.013	0.0162276
887.091	0.0162133
887.169	0.0161549
887.247	0.0163078
887.325	0.0164234
887.404	0.0164612
887.482	0.0164182
887.560	0.0163403
887.638	0.0164292
887.716	0.0164615
887.794	0.0165868
887.872	0.0165895
887.950	0.0165089
888.029	0.0165833
888.107	0.0165943
888.185	0.0165353
888.263	0.0165660
888.341	0.0165719
888.419	0.0166015
888.497	0.0165837
888.575	0.0165305
888.654	0.0166196
888.732	0.0166817
888.810	0.0166599
888.888	0.0166010
888.966	0.0168095
889.044	0.0168629
889.122	0.0171278
889.200	0.0170543
889.279	0.0171479
889.357	0.0172847
889.435	0.0173833
889.513	0.0172976
889.591	0.0174071
889.669	0.0174237
889.747	0.0173750
889.825	0.0171394
889.904	0.0172468
889.982	0.0171429
890.060	0.0168358
890.138	0.0167857
890.216	0.0166581
890.294	0.0165735
890.372	0.0163913
890.450	0.0162602
890.529	0.0163503
890.607	0.0162263
890.685	0.0160894
890.763	0.0161440
890.841	0.0160633
890.919	0.0159850
890.997	0.0159091
891.075	0.0159727
891.154	0.0158508
891.232	0.0159903
891.310	0.0159707
891.388	0.0158858
891.466	0.0159933
891.544	0.0159232
891.622	0.0160430
891.700	0.0160087
891.779	0.0160340
891.857	0.0162692
891.935	0.0161660
892.013	0.0163824
892.091	0.0164261
892.169	0.0165267
892.247	0.0166613
892.325	0.0167277
892.404	0.0168134
892.482	0.0168550
892.560	0.0167721
892.638	0.0167976
892.716	0.0167212
892.794	0.0167259
892.872	0.0167834
892.950	0.0166288
893.029	0.0166134
893.107	0.0163857
893.185	0.0163481
893.263	0.0162805
893.341	0.0163807
893.419	0.0163290
893.497	0.0161930
893.575	0.0163499
893.654	0.0163771
893.732	0.0163182
893.810	0.0164414
893.888	0.0165575
893.966	0.0166823
894.044	0.0169023
894.122	0.0169685
894.200	0.0170907
894.279	0.0172427
894.357	0.0171478
894.435	0.0172781
894.513	0.0173576
894.591	0.0173682
894.669	0.0172165
894.747	0.0172186
894.825	0.0173270
894.904	0.0170567
894.982	0.0169102
895.060	0.0167249
895.138	0.0168266
895.216	0.0166049
895.294	0.0163193
895.372	0.0164371
895.450	0.0163384
895.529	0.0162480
895.607	0.0162307
895.685	0.0161565
895.763	0.0160774
895.841	0.0160925
895.919	0.0159887
895.997	0.0160188
896.075	0.0159903
896.154	0.0159888
896.232	0.0159860
896.310	0.0161036
896.388	0.0161909
896.466	0.0160406
896.544	0.0161561
896.622	0.0161118
896.700	0.0162185
896.779	0.0163646
896.857	0.0162725
896.935	0.0165422
897.013	0.0165180
897.091	0.0167269
897.169	0.0166763
897.247	0.0167955
897.325	0.0168942
897.404	0.0168533
897.482	0.0168719
897.560	0.0169184
897.638	0.0168069
897.716	0.0167273
897.794	0.0169164
897.872	0.0167888
897.950	0.0165002
898.029	0.0165950
898.107	0.0165903
898.185	0.0164268
898.263	0.0163625
898.341	0.0163507
898.419	0.0161433
898.497	0.0161630
898.575	0.0161497
898.654	0.0160533
898.732	0.0160683
898.810	0.0161291
898.888	0.0159430
898.966	0.0162158
899.044	0.0164782
899.122	0.0165328
899.200	0.0166616
899.279	0.0166389
899.357	0.0169674
899.435	0.0170338
899.513	0.0170899
899.591	0.0172615
899.669	0.0173373
899.747	0.0173753
899.825	0.0170071
899.904	0.0171342
899.982	0.0171039
900.060	0.0167844
900.138	0.0166078
900.216	0.0165909
900.294	0.0164291
900.372	0.0162742
900.450	0.0163867
900.529	0.0163091
900.607	0.0162189
900.685	0.0161787
900.763	0.0161043
900.841	0.0161448
900.919	0.0162111
900.997	0.0161519
901.075	0.0161373
901.154	0.0162811
901.232	0.0163317
901.310	0.0162398
901.388	0.0162800
901.466	0.0164014
901.544	0.0163779
901.622	0.0164185
901.700	0.0165184
901.779	0.0164405
901.857	0.0166821
901.935	0.0165356
902.013	0.0165705
902.091	0.0166695
902.169	0.0166440
902.247	0.0168887
902.325	0.0166692
902.404	0.0167471
902.482	0.0168011
902.560	0.0169598
902.638	0.0168041
902.716	0.0167348
902.794	0.0167424
902.872	0.0164719
902.950	0.0164558
903.029	0.0165874
903.107	0.0164520
903.185	0.0162927
903.263	0.0163692
903.341	0.0162514
903.419	0.0162197
903.497	0.0162231
903.575	0.0161389
903.654	0.0161147
903.732	0.0162129
903.810	0.0163096
903.888	0.0161479
903.966	0.0163239
904.044	0.0163729
904.122	0.0165812
904.200	0.0166208
904.279	0.0167333
904.357	0.0169611
904.435	0.0170319
904.513	0.0170146
904.591	0.0170734
904.669	0.0171069
904.747	0.0170660
904.825	0.0171782
904.904	0.0171406
904.982	0.0169817
905.060	0.0170078
905.138	0.0168070
905.216	0.0168266
905.294	0.0166312
905.372	0.0165853
905.450	0.0165527
905.529	0.0163942
905.607	0.0164286
905.685	0.0163271
905.763	0.0164246
905.841	0.0163964
905.919	0.0165401
905.997	0.0165582
906.075	0.0165298
906.154	0.0164579
906.232	0.0165021
906.310	0.0165187
906.388	0.0165573
906.466	0.0166620
906.544	0.0166042
906.622	0.0166608
906.700	0.0165555
906.779	0.0164207
906.857	0.0165065
906.935	0.0164925
907.013	0.0167135
907.091	0.0165112
907.169	0.0163682
907.247	0.0165308
907.325	0.0165629
907.404	0.0164497
907.482	0.0165459
907.560	0.0165757
907.638	0.0164770
907.716	0.0165508
907.794	0.0164139
907.872	0.0164072
907.950	0.0164854
908.029	0.0164340
908.107	0.0163967
908.185	0.0163001
908.263	0.0162865
908.341	0.0161315
908.419	0.0162076
908.497	0.0161430
908.575	0.0161555
908.654	0.0161526
908.732	0.0162032
908.810	0.0161013
908.888	0.0163235
908.966	0.0163245
909.044	0.0164457
909.122	0.0165195
909.200	0.0165083
909.279	0.0166291
909.357	0.0167776
909.435	0.0167876
909.513	0.0167409
909.591	0.0168314
909.669	0.0170448
909.747	0.0170325
909.825	0.0168771
909.904	0.0169406
909.982	0.0168889
910.060	0.0168724
910.138	0.0168650
910.216	0.0167979
910.294	0.0167528
910.372	0.0167482
910.450	0.0166766
910.529	0.0167238
910.607	0.0166974
910.685	0.0165978
910.763	0.0166773
910.841	0.0167577
910.919	0.0166963
910.997	0.0166637
911.075	0.0166306
911.154	0.0165864
911.232	0.0165530
911.310	0.0167445
911.388	0.0166228
911.466	0.0165511
911.544	0.0167194
911.622	0.0166011
911.700	0.0164837
911.779	0.0166307
911.857	0.0165253
911.935	0.0164948
912.013	0.0165375
912.091	0.0165809
912.169	0.0164130
912.247	0.0163529
912.325	0.0165417
912.404	0.0165534
912.482	0.0166148
912.560	0.0165571
912.638	0.0165858
912.716	0.0163137
912.794	0.0164809
912.872	0.0164833
912.950	0.0163911
913.029	0.0163864
913.107	0.0163759
913.185	0.0163572
913.263	0.0162343
913.341	0.0161334
913.419	0.0162244
913.497	0.0162006
913.575	0.0160450
913.654	0.0161252
913.732	0.0161298
913.810	0.0161927
913.888	0.0162624
913.966	0.0163855
914.044	0.0162501
914.122	0.0162647
914.200	0.0164960
914.279	0.0166049
914.357	0.0166805
914.435	0.0165936
914.513	0.0165919
914.591	0.0166988
914.669	0.0167499
914.747	0.0167919
914.825	0.0167918
914.904	0.0168668
914.982	0.0168422
915.060	0.0167110
915.138	0.0167207
915.216	0.0167468
915.294	0.0169086
915.372	0.0166231
915.450	0.0167731
915.529	0.0166196
915.607	0.0165913
915.685	0.0166213
915.763	0.0167017
915.841	0.0166029
915.919	0.0166052
915.997	0.0167500
916.075	0.0167699
916.154	0.0167292
916.232	0.0168609
916.310	0.0167779
916.388	0.0168330
916.466	0.0167661
916.544	0.0166957
916.622	0.0167126
916.700	0.0166535
916.779	0.0167066
916.857	0.0168326
916.935	0.0164947
917.013	0.0164309
917.091	0.0165497
917.169	0.0165341
917.247	0.0165250
917.325	0.0163499
917.404	0.0163128
917.482	0.0164362
917.560	0.0163103
917.638	0.0162660
917.716	0.0163062
917.794	0.0162052
917.872	0.0163348
917.950	0.0163069
918.029	0.0162165
918.107	0.0162678
918.185	0.0163192
918.263	0.0162872
918.341	0.0162109
918.419	0.0163454
918.497	0.0163174
918.575	0.0163263
918.654	0.0164349
918.732	0.0163047
918.810	0.0162697
918.888	0.0164321
918.966	0.0163643
919.044	0.0165295
919.122	0.0165392
919.200	0.0166159
919.279	0.0167007
919.357	0.0166657
919.435	0.0167482
919.513	0.0166270
919.591	0.0166755
919.669	0.0166560
919.747	0.0167231
919.825	0.0166914
919.904	0.0166254
