06/03/2022	14:08:35	Ver.	4.1	UNKNOWN
Optical Delay	599.981738	Delta X		0.078125	Sweeps	1	Scan Rate	0/0
Coordinates	Axis 1	NaN	Axis 2	NaN	Axis 3	NaN	Axis 4	NaN	Axis 5	NaN	Axis 6	0.000000
TX Power	0.000000	RX Power	0.000000

599.982	0.0166164
600.060	0.0166035
600.138	0.0165147
600.216	0.0166298
600.294	0.0166750
600.372	0.0167310
600.450	0.0166273
600.529	0.0166869
600.607	0.0165527
600.685	0.0166747
600.763	0.0167523
600.841	0.0166692
600.919	0.0166269
600.997	0.0165189
601.075	0.0163991
601.154	0.0165396
601.232	0.0166130
601.310	0.0167690
601.388	0.0165716
601.466	0.0166058
601.544	0.0165191
601.622	0.0166470
601.700	0.0166377
601.779	0.0167516
601.857	0.0165779
601.935	0.0165925
602.013	0.0165528
602.091	0.0165524
602.169	0.0167151
602.247	0.0166743
602.325	0.0166805
602.404	0.0164830
602.482	0.0165501
602.560	0.0165956
602.638	0.0165328
602.716	0.0165831
602.794	0.0165442
602.872	0.0165832
602.950	0.0167884
603.029	0.0166404
603.107	0.0166091
603.185	0.0166277
603.263	0.0166009
603.341	0.0165396
603.419	0.0166422
603.497	0.0164905
603.575	0.0167148
603.654	0.0165720
603.732	0.0165483
603.810	0.0166552
603.888	0.0166673
603.966	0.0166545
604.044	0.0166581
604.122	0.0166142
604.200	0.0165572
604.279	0.0166738
604.357	0.0167055
604.435	0.0166984
604.513	0.0166635
604.591	0.0166119
604.669	0.0167435
604.747	0.0165881
604.825	0.0166487
604.904	0.0166405
604.982	0.0165426
605.060	0.0164527
605.138	0.0165585
605.216	0.0166069
605.294	0.0165290
605.372	0.0165261
605.450	0.0165447
605.529	0.0166088
605.607	0.0165839
605.685	0.0166759
605.763	0.0165642
605.841	0.0166042
605.919	0.0165159
605.997	0.0164483
606.075	0.0167114
606.154	0.0168132
606.232	0.0165165
606.310	0.0164727
606.388	0.0167292
606.466	0.0166937
606.544	0.0165133
606.622	0.0167705
606.700	0.0167892
606.779	0.0164558
606.857	0.0166041
606.935	0.0166468
607.013	0.0167178
607.091	0.0166409
607.169	0.0166914
607.247	0.0166335
607.325	0.0166021
607.404	0.0167413
607.482	0.0165083
607.560	0.0167197
607.638	0.0165612
607.716	0.0165362
607.794	0.0164086
607.872	0.0166992
607.950	0.0164738
608.029	0.0164340
608.107	0.0164982
608.185	0.0165066
608.263	0.0166808
608.341	0.0165976
608.419	0.0165186
608.497	0.0165340
608.575	0.0164720
608.654	0.0166606
608.732	0.0164339
608.810	0.0165585
608.888	0.0165919
608.966	0.0165862
609.044	0.0164917
609.122	0.0165420
609.200	0.0166173
609.279	0.0166533
609.357	0.0166119
609.435	0.0166151
609.513	0.0166656
609.591	0.0166939
609.669	0.0166433
609.747	0.0166704
609.825	0.0165758
609.904	0.0166051
609.982	0.0165990
610.060	0.0166354
610.138	0.0165112
610.216	0.0165839
610.294	0.0166999
610.372	0.0165046
610.450	0.0166018
610.529	0.0165911
610.607	0.0165807
610.685	0.0165277
610.763	0.0167243
610.841	0.0167773
610.919	0.0166175
610.997	0.0164827
611.075	0.0166003
611.154	0.0166315
611.232	0.0165672
611.310	0.0166978
611.388	0.0166282
611.466	0.0165813
611.544	0.0165527
611.622	0.0165236
611.700	0.0165260
611.779	0.0166650
611.857	0.0167513
611.935	0.0165429
612.013	0.0166663
612.091	0.0167018
612.169	0.0165410
612.247	0.0165923
612.325	0.0166345
612.404	0.0165998
612.482	0.0166121
612.560	0.0166492
612.638	0.0166382
612.716	0.0166483
612.794	0.0167282
612.872	0.0166282
612.950	0.0166648
613.029	0.0166487
613.107	0.0167020
613.185	0.0167140
613.263	0.0165717
613.341	0.0165902
613.419	0.0166544
613.497	0.0166372
613.575	0.0165746
613.654	0.0165082
613.732	0.0165951
613.810	0.0165422
613.888	0.0166007
613.966	0.0166547
614.044	0.0166214
614.122	0.0166415
614.200	0.0165886
614.279	0.0164839
614.357	0.0164802
614.435	0.0166084
614.513	0.0167478
614.591	0.0166020
614.669	0.0165281
614.747	0.0166199
614.825	0.0165373
614.904	0.0165519
614.982	0.0165810
615.060	0.0166298
615.138	0.0166410
615.216	0.0164731
615.294	0.0164893
615.372	0.0166795
615.450	0.0166380
615.529	0.0167059
615.607	0.0166546
615.685	0.0165995
615.763	0.0165277
615.841	0.0166039
615.919	0.0165833
615.997	0.0166257
616.075	0.0166010
616.154	0.0167217
616.232	0.0165800
616.310	0.0165569
616.388	0.0166241
616.466	0.0166184
616.544	0.0164985
616.622	0.0165342
616.700	0.0167297
616.779	0.0166730
616.857	0.0167116
616.935	0.0165374
617.013	0.0165353
617.091	0.0165525
617.169	0.0166398
617.247	0.0164684
617.325	0.0167019
617.404	0.0167640
617.482	0.0165196
617.560	0.0166479
617.638	0.0167838
617.716	0.0165897
617.794	0.0166589
617.872	0.0167096
617.950	0.0167453
618.029	0.0168390
618.107	0.0166679
618.185	0.0167359
618.263	0.0165948
618.341	0.0164956
618.419	0.0165294
618.497	0.0166574
618.575	0.0166411
618.654	0.0165308
618.732	0.0165196
618.810	0.0166267
618.888	0.0165292
618.966	0.0165810
619.044	0.0166721
619.122	0.0166250
619.200	0.0167063
619.279	0.0166474
619.357	0.0165353
619.435	0.0166724
619.513	0.0165022
619.591	0.0164343
619.669	0.0165733
619.747	0.0165009
619.825	0.0166824
619.904	0.0165859
619.982	0.0166315
620.060	0.0165859
620.138	0.0165871
620.216	0.0166728
620.294	0.0165804
620.372	0.0166938
620.450	0.0166724
620.529	0.0166022
620.607	0.0166817
620.685	0.0166231
620.763	0.0165587
620.841	0.0166066
620.919	0.0165919
620.997	0.0165607
621.075	0.0166669
621.154	0.0165446
621.232	0.0167027
621.310	0.0167254
621.388	0.0166412
621.466	0.0165871
621.544	0.0165413
621.622	0.0165636
621.700	0.0165355
621.779	0.0167119
621.857	0.0168313
621.935	0.0166442
622.013	0.0164576
622.091	0.0167163
622.169	0.0166618
622.247	0.0166537
622.325	0.0166410
622.404	0.0166841
622.482	0.0166481
622.560	0.0166420
622.638	0.0166998
622.716	0.0166864
622.794	0.0167108
622.872	0.0165929
622.950	0.0166689
623.029	0.0166949
623.107	0.0166190
623.185	0.0168016
623.263	0.0166398
623.341	0.0165192
623.419	0.0165863
623.497	0.0166093
623.575	0.0165308
623.654	0.0165508
623.732	0.0165653
623.810	0.0166699
623.888	0.0166355
623.966	0.0165643
624.044	0.0165949
624.122	0.0166746
624.200	0.0164780
624.279	0.0165547
624.357	0.0166037
624.435	0.0165186
624.513	0.0164985
624.591	0.0166132
624.669	0.0166502
624.747	0.0164980
624.825	0.0166338
624.904	0.0166057
624.982	0.0166304
625.060	0.0166428
625.138	0.0167705
625.216	0.0166039
625.294	0.0166537
625.372	0.0166779
625.450	0.0165486
625.529	0.0165759
625.607	0.0167383
625.685	0.0166035
625.763	0.0166801
625.841	0.0167010
625.919	0.0166876
625.997	0.0165994
626.075	0.0165601
626.154	0.0167278
626.232	0.0167323
626.310	0.0165617
626.388	0.0165701
626.466	0.0167683
626.544	0.0166898
626.622	0.0167540
626.700	0.0166549
626.779	0.0165987
626.857	0.0167108
626.935	0.0167318
627.013	0.0166929
627.091	0.0168430
627.169	0.0167079
627.247	0.0167339
627.325	0.0166771
627.404	0.0166093
627.482	0.0167039
627.560	0.0166808
627.638	0.0167999
627.716	0.0167598
627.794	0.0167768
627.872	0.0166933
627.950	0.0167351
628.029	0.0167866
628.107	0.0166914
628.185	0.0168344
628.263	0.0167773
628.341	0.0167293
628.419	0.0166285
628.497	0.0166398
628.575	0.0166811
628.654	0.0167763
628.732	0.0166884
628.810	0.0167022
628.888	0.0166518
628.966	0.0167219
629.044	0.0165981
629.122	0.0166526
629.200	0.0167556
629.279	0.0166326
629.357	0.0165499
629.435	0.0165749
629.513	0.0166364
629.591	0.0165627
629.669	0.0165594
629.747	0.0166620
629.825	0.0165125
629.904	0.0165865
629.982	0.0167120
630.060	0.0167343
630.138	0.0165717
630.216	0.0166140
630.294	0.0166599
630.372	0.0166620
630.450	0.0165839
630.529	0.0166624
630.607	0.0165355
630.685	0.0167095
630.763	0.0166866
630.841	0.0165619
630.919	0.0166853
630.997	0.0166623
631.075	0.0165854
631.154	0.0166220
631.232	0.0167082
631.310	0.0165523
631.388	0.0166552
631.466	0.0166342
631.544	0.0166435
631.622	0.0165763
631.700	0.0165857
631.779	0.0165376
631.857	0.0165826
631.935	0.0166873
632.013	0.0166281
632.091	0.0165641
632.169	0.0166709
632.247	0.0166495
632.325	0.0166891
632.404	0.0166923
632.482	0.0165372
632.560	0.0165618
632.638	0.0166414
632.716	0.0166327
632.794	0.0166558
632.872	0.0166232
632.950	0.0166987
633.029	0.0165368
633.107	0.0165179
633.185	0.0166137
633.263	0.0166085
633.341	0.0164698
633.419	0.0165778
633.497	0.0165410
633.575	0.0166693
633.654	0.0164433
633.732	0.0165434
633.810	0.0166298
633.888	0.0166173
633.966	0.0165078
634.044	0.0166134
634.122	0.0165752
634.200	0.0164626
634.279	0.0165247
634.357	0.0165307
634.435	0.0166724
634.513	0.0166222
634.591	0.0165824
634.669	0.0165455
634.747	0.0165655
634.825	0.0166562
634.904	0.0165020
634.982	0.0165699
635.060	0.0165108
635.138	0.0165131
635.216	0.0166070
635.294	0.0166863
635.372	0.0164120
635.450	0.0165875
635.529	0.0165593
635.607	0.0165031
635.685	0.0167591
635.763	0.0165881
635.841	0.0166148
635.919	0.0166415
635.997	0.0164519
636.075	0.0165747
636.154	0.0165326
636.232	0.0166221
636.310	0.0165905
636.388	0.0165733
636.466	0.0164526
636.544	0.0165671
636.622	0.0166763
636.700	0.0165398
636.779	0.0165244
636.857	0.0165607
636.935	0.0165877
637.013	0.0165762
637.091	0.0165998
637.169	0.0165699
637.247	0.0164302
637.325	0.0166586
637.404	0.0164554
637.482	0.0165350
637.560	0.0165865
637.638	0.0165763
637.716	0.0167156
637.794	0.0166016
637.872	0.0166136
637.950	0.0165621
638.029	0.0165617
638.107	0.0166129
638.185	0.0166680
638.263	0.0165920
638.341	0.0164659
638.419	0.0166397
638.497	0.0165576
638.575	0.0165230
638.654	0.0165640
638.732	0.0166186
638.810	0.0165874
638.888	0.0165638
638.966	0.0165562
639.044	0.0166682
639.122	0.0165754
639.200	0.0165591
639.279	0.0166598
639.357	0.0167217
639.435	0.0164812
639.513	0.0165646
639.591	0.0165678
639.669	0.0165662
639.747	0.0165271
639.825	0.0165324
639.904	0.0166618
639.982	0.0167519
640.060	0.0167289
640.138	0.0165892
640.216	0.0165192
640.294	0.0166132
640.372	0.0166601
640.450	0.0167000
640.529	0.0165778
640.607	0.0166160
640.685	0.0165807
640.763	0.0165871
640.841	0.0166963
640.919	0.0165575
640.997	0.0166358
641.075	0.0166231
641.154	0.0165406
641.232	0.0165487
641.310	0.0166621
641.388	0.0166594
641.466	0.0166511
641.544	0.0165885
641.622	0.0166512
641.700	0.0166481
641.779	0.0166173
641.857	0.0165899
641.935	0.0166908
642.013	0.0166959
642.091	0.0167445
642.169	0.0166472
642.247	0.0166110
642.325	0.0168007
642.404	0.0166820
642.482	0.0167441
642.560	0.0167065
642.638	0.0167407
642.716	0.0166303
642.794	0.0165459
642.872	0.0165688
642.950	0.0167063
643.029	0.0168021
643.107	0.0166330
643.185	0.0166989
643.263	0.0166280
643.341	0.0165871
643.419	0.0167905
643.497	0.0166830
643.575	0.0165124
643.654	0.0165592
643.732	0.0166396
643.810	0.0166975
643.888	0.0165801
643.966	0.0166225
644.044	0.0168185
644.122	0.0165993
644.200	0.0166106
644.279	0.0165718
644.357	0.0165327
644.435	0.0166704
644.513	0.0166395
644.591	0.0167190
644.669	0.0165900
644.747	0.0167126
644.825	0.0165514
644.904	0.0165530
644.982	0.0168119
645.060	0.0166774
645.138	0.0168251
645.216	0.0167559
645.294	0.0166713
645.372	0.0166040
645.450	0.0166759
645.529	0.0167087
645.607	0.0166756
645.685	0.0166458
645.763	0.0167100
645.841	0.0165482
645.919	0.0165942
645.997	0.0166681
646.075	0.0167480
646.154	0.0165878
646.232	0.0166444
646.310	0.0166309
646.388	0.0167215
646.466	0.0166149
646.544	0.0167461
646.622	0.0166594
646.700	0.0166534
646.779	0.0165501
646.857	0.0165989
646.935	0.0164714
647.013	0.0166930
647.091	0.0166779
647.169	0.0166542
647.247	0.0166168
647.325	0.0165124
647.404	0.0166638
647.482	0.0165487
647.560	0.0166321
647.638	0.0166365
647.716	0.0167423
647.794	0.0166679
647.872	0.0166170
647.950	0.0166422
648.029	0.0165846
648.107	0.0165573
648.185	0.0166961
648.263	0.0167056
648.341	0.0166499
648.419	0.0165842
648.497	0.0166295
648.575	0.0166597
648.654	0.0166467
648.732	0.0166279
648.810	0.0164845
648.888	0.0165140
648.966	0.0166348
649.044	0.0165023
649.122	0.0165738
649.200	0.0165733
649.279	0.0166174
649.357	0.0165760
649.435	0.0166069
649.513	0.0165997
649.591	0.0165430
649.669	0.0165579
649.747	0.0166974
649.825	0.0166307
649.904	0.0166344
649.982	0.0166167
650.060	0.0167392
650.138	0.0167570
650.216	0.0165217
650.294	0.0164983
650.372	0.0165205
650.450	0.0165389
650.529	0.0166035
650.607	0.0166351
650.685	0.0165790
650.763	0.0166907
650.841	0.0167426
650.919	0.0167118
650.997	0.0168208
651.075	0.0167931
651.154	0.0168986
651.232	0.0168529
651.310	0.0168317
651.388	0.0166308
651.466	0.0165561
651.544	0.0165708
651.622	0.0166309
651.700	0.0166184
651.779	0.0164577
651.857	0.0164081
651.935	0.0164138
652.013	0.0163512
652.091	0.0163458
652.169	0.0163181
652.247	0.0164568
652.325	0.0164120
652.404	0.0167911
652.482	0.0169225
652.560	0.0168497
652.638	0.0170918
652.716	0.0169930
652.794	0.0170168
652.872	0.0169743
652.950	0.0169441
653.029	0.0168678
653.107	0.0166599
653.185	0.0164066
653.263	0.0165594
653.341	0.0162453
653.419	0.0161868
653.497	0.0160966
653.575	0.0158022
653.654	0.0159144
653.732	0.0159785
653.810	0.0162600
653.888	0.0163186
653.966	0.0167698
654.044	0.0170570
654.122	0.0171668
654.200	0.0175027
654.279	0.0172880
654.357	0.0173966
654.435	0.0172276
654.513	0.0172836
654.591	0.0169531
654.669	0.0168513
654.747	0.0166984
654.825	0.0164616
654.904	0.0163629
654.982	0.0160281
655.060	0.0158922
655.138	0.0160110
655.216	0.0156625
655.294	0.0157894
655.372	0.0159794
655.450	0.0161530
655.529	0.0160999
655.607	0.0164053
655.685	0.0168144
655.763	0.0169738
655.841	0.0171806
655.919	0.0172677
655.997	0.0171303
656.075	0.0172289
656.154	0.0172657
656.232	0.0170564
656.310	0.0167332
656.388	0.0165726
656.466	0.0163072
656.544	0.0162333
656.622	0.0161201
656.700	0.0161325
656.779	0.0160546
656.857	0.0161797
656.935	0.0161744
657.013	0.0162619
657.091	0.0163799
657.169	0.0164471
657.247	0.0166215
657.325	0.0166496
657.404	0.0166832
657.482	0.0168192
657.560	0.0167433
657.638	0.0166554
657.716	0.0166273
657.794	0.0166442
657.872	0.0166039
657.950	0.0166598
658.029	0.0165584
658.107	0.0166917
658.185	0.0167664
658.263	0.0167683
658.341	0.0166682
658.419	0.0169025
658.497	0.0169260
658.575	0.0168140
658.654	0.0167402
658.732	0.0167319
658.810	0.0166628
658.888	0.0164690
658.966	0.0163239
659.044	0.0162144
659.122	0.0160246
659.200	0.0159776
659.279	0.0161200
659.357	0.0160217
659.435	0.0159846
659.513	0.0162148
659.591	0.0162424
659.669	0.0164689
659.747	0.0165649
659.825	0.0168347
659.904	0.0170012
659.982	0.0169955
660.060	0.0171600
660.138	0.0170710
660.216	0.0171060
660.294	0.0171294
660.372	0.0169607
660.450	0.0168261
660.529	0.0166562
660.607	0.0164964
660.685	0.0165511
660.763	0.0163051
660.841	0.0162852
660.919	0.0162359
660.997	0.0161502
661.075	0.0160262
661.154	0.0161806
661.232	0.0161448
661.310	0.0162796
661.388	0.0162883
661.466	0.0164154
661.544	0.0165002
661.622	0.0166881
661.700	0.0167731
661.779	0.0169263
661.857	0.0169939
661.935	0.0170521
662.013	0.0170860
662.091	0.0169072
662.169	0.0170041
662.247	0.0169096
662.325	0.0168978
662.404	0.0168140
662.482	0.0165086
662.560	0.0165372
662.638	0.0164696
662.716	0.0163636
662.794	0.0162486
662.872	0.0164095
662.950	0.0163309
663.029	0.0164124
663.107	0.0165710
663.185	0.0165654
663.263	0.0167511
663.341	0.0169512
663.419	0.0170004
663.497	0.0170742
663.575	0.0169492
663.654	0.0169341
663.732	0.0168378
663.810	0.0167657
663.888	0.0166496
663.966	0.0164955
664.044	0.0164378
664.122	0.0163696
664.200	0.0162578
664.279	0.0163642
664.357	0.0163315
664.435	0.0163680
664.513	0.0164789
664.591	0.0165923
664.669	0.0164464
664.747	0.0166402
664.825	0.0165749
664.904	0.0165847
664.982	0.0165610
665.060	0.0165002
665.138	0.0164460
665.216	0.0164622
665.294	0.0163645
665.372	0.0162849
665.450	0.0164198
665.529	0.0163593
665.607	0.0164035
665.685	0.0166221
665.763	0.0168368
665.841	0.0170855
665.919	0.0171347
665.997	0.0171803
666.075	0.0172918
666.154	0.0173551
666.232	0.0174883
666.310	0.0173844
666.388	0.0173888
666.466	0.0174628
666.544	0.0173122
666.622	0.0172744
666.700	0.0169866
666.779	0.0166272
666.857	0.0164114
666.935	0.0163594
667.013	0.0160526
667.091	0.0157276
667.169	0.0156658
667.247	0.0155225
667.325	0.0155511
667.404	0.0154633
667.482	0.0155431
667.560	0.0156927
667.638	0.0158940
667.716	0.0160477
667.794	0.0160487
667.872	0.0163000
667.950	0.0164890
668.029	0.0164590
668.107	0.0166568
668.185	0.0167283
668.263	0.0169540
668.341	0.0169337
668.419	0.0171494
668.497	0.0170523
668.575	0.0171072
668.654	0.0170932
668.732	0.0169742
668.810	0.0171687
668.888	0.0171577
668.966	0.0171870
669.044	0.0172495
669.122	0.0173706
669.200	0.0172692
669.279	0.0172478
669.357	0.0173747
669.435	0.0173710
669.513	0.0173463
669.591	0.0172070
669.669	0.0172853
669.747	0.0169891
669.825	0.0171007
669.904	0.0170116
669.982	0.0168373
670.060	0.0167641
670.138	0.0166517
670.216	0.0166367
670.294	0.0164342
670.372	0.0161710
670.450	0.0162019
670.529	0.0160654
670.607	0.0158759
670.685	0.0158821
670.763	0.0158677
670.841	0.0158384
670.919	0.0158193
670.997	0.0157882
671.075	0.0159122
671.154	0.0160651
671.232	0.0161369
671.310	0.0161568
671.388	0.0163313
671.466	0.0162593
671.544	0.0164095
671.622	0.0167149
671.700	0.0167341
671.779	0.0165433
671.857	0.0167606
671.935	0.0167638
672.013	0.0167008
672.091	0.0164826
672.169	0.0164687
672.247	0.0164122
672.325	0.0162585
672.404	0.0162997
672.482	0.0164747
672.560	0.0163527
672.638	0.0164720
672.716	0.0164341
672.794	0.0164218
672.872	0.0167142
672.950	0.0169131
673.029	0.0169998
673.107	0.0170253
673.185	0.0171506
673.263	0.0170073
673.341	0.0172002
673.419	0.0173375
673.497	0.0174483
673.575	0.0175889
673.654	0.0175280
673.732	0.0176857
673.810	0.0175475
673.888	0.0176345
673.966	0.0175660
674.044	0.0175377
674.122	0.0172942
674.200	0.0172264
674.279	0.0171871
674.357	0.0168916
674.435	0.0167308
674.513	0.0163451
674.591	0.0161372
674.669	0.0158475
674.747	0.0157398
674.825	0.0155952
674.904	0.0154440
674.982	0.0153593
675.060	0.0155098
675.138	0.0155517
675.216	0.0158099
675.294	0.0159367
675.372	0.0162141
675.450	0.0163141
675.529	0.0165199
675.607	0.0165649
675.685	0.0166463
675.763	0.0165244
675.841	0.0164395
675.919	0.0162568
675.997	0.0161126
676.075	0.0160398
676.154	0.0160267
676.232	0.0159697
676.310	0.0160518
676.388	0.0160122
676.466	0.0162173
676.544	0.0163966
676.622	0.0165949
676.700	0.0168794
676.779	0.0173346
676.857	0.0176353
676.935	0.0177801
677.013	0.0179285
677.091	0.0181335
677.169	0.0180278
677.247	0.0180821
677.325	0.0180000
677.404	0.0179256
677.482	0.0176166
677.560	0.0174432
677.638	0.0170892
677.716	0.0168534
677.794	0.0165906
677.872	0.0161742
677.950	0.0159740
678.029	0.0153981
678.107	0.0152396
678.185	0.0147949
678.263	0.0146787
678.341	0.0144559
678.419	0.0140598
678.497	0.0139443
678.575	0.0137983
678.654	0.0138152
678.732	0.0137124
678.810	0.0137246
678.888	0.0141857
678.966	0.0142789
679.044	0.0146203
679.122	0.0151347
679.200	0.0158295
679.279	0.0164831
679.357	0.0172777
679.435	0.0180801
679.513	0.0187143
679.591	0.0196428
679.669	0.0202798
679.747	0.0209348
679.825	0.0209869
679.904	0.0214062
679.982	0.0215646
680.060	0.0213521
680.138	0.0209190
680.216	0.0204908
680.294	0.0200054
680.372	0.0193711
680.450	0.0185077
680.529	0.0178571
680.607	0.0172404
680.685	0.0167432
680.763	0.0162855
680.841	0.0158405
680.919	0.0155125
680.997	0.0152211
681.075	0.0149203
681.154	0.0147871
681.232	0.0145655
681.310	0.0143756
681.388	0.0142226
681.466	0.0140084
681.544	0.0140112
681.622	0.0138985
681.700	0.0138674
681.779	0.0137633
681.857	0.0138221
681.935	0.0138042
682.013	0.0138021
682.091	0.0138980
682.169	0.0139482
682.247	0.0140849
682.325	0.0144546
682.404	0.0149043
682.482	0.0152841
682.560	0.0157235
682.638	0.0164065
682.716	0.0170108
682.794	0.0175551
682.872	0.0179814
682.950	0.0184283
683.029	0.0187214
683.107	0.0188703
683.185	0.0189655
683.263	0.0188683
683.341	0.0185471
683.419	0.0181406
683.497	0.0177280
683.575	0.0175180
683.654	0.0172149
683.732	0.0167601
683.810	0.0162625
683.888	0.0160445
683.966	0.0156041
684.044	0.0152352
684.122	0.0148491
684.200	0.0143846
684.279	0.0142220
684.357	0.0140080
684.435	0.0139764
684.513	0.0142093
684.591	0.0142785
684.669	0.0144375
684.747	0.0147831
684.825	0.0154542
684.904	0.0159772
684.982	0.0164505
685.060	0.0170873
685.138	0.0176301
685.216	0.0181779
685.294	0.0186880
685.372	0.0193009
685.450	0.0199345
685.529	0.0205527
685.607	0.0211877
685.685	0.0218879
685.763	0.0224769
685.841	0.0229300
685.919	0.0234254
685.997	0.0237448
686.075	0.0237007
686.154	0.0237119
686.232	0.0232085
686.310	0.0226045
686.388	0.0218955
686.466	0.0207056
686.544	0.0192681
686.622	0.0178166
686.700	0.0164259
686.779	0.0146753
686.857	0.0131148
686.935	0.0118945
687.013	0.0107195
687.091	0.00993301
687.169	0.00947159
687.247	0.00888489
687.325	0.00861847
687.404	0.00859169
687.482	0.00868233
687.560	0.00875259
687.638	0.00905525
687.716	0.00937683
687.794	0.00984406
687.872	0.0103800
687.950	0.0111667
688.029	0.0120393
688.107	0.0130470
688.185	0.0139774
688.263	0.0151095
688.341	0.0161951
688.419	0.0172198
688.497	0.0182238
688.575	0.0190042
688.654	0.0193832
688.732	0.0199506
688.810	0.0204311
688.888	0.0204901
688.966	0.0207545
689.044	0.0208188
689.122	0.0209129
689.200	0.0209196
689.279	0.0210294
689.357	0.0208576
689.435	0.0205162
689.513	0.0202361
689.591	0.0200281
689.669	0.0193782
689.747	0.0187415
689.825	0.0181146
689.904	0.0173685
689.982	0.0166325
690.060	0.0157698
690.138	0.0150694
690.216	0.0144027
690.294	0.0136591
690.372	0.0130415
690.450	0.0125615
690.529	0.0123475
690.607	0.0120398
690.685	0.0120649
690.763	0.0120984
690.841	0.0125289
690.919	0.0130549
690.997	0.0138170
691.075	0.0148589
691.154	0.0159976
691.232	0.0172855
691.310	0.0185828
691.388	0.0199414
691.466	0.0213422
691.544	0.0225614
691.622	0.0235264
691.700	0.0244984
691.779	0.0250674
691.857	0.0255157
691.935	0.0256187
692.013	0.0254632
692.091	0.0252638
692.169	0.0247274
692.247	0.0238302
692.325	0.0229140
692.404	0.0218269
692.482	0.0204817
692.560	0.0191798
692.638	0.0178417
692.716	0.0165040
692.794	0.0151563
692.872	0.0137219
692.950	0.0123974
693.029	0.0112836
693.107	0.0103111
693.185	0.00943901
693.263	0.00893433
693.341	0.00884911
693.419	0.00871361
693.497	0.00896797
693.575	0.00920334
693.654	0.00985184
693.732	0.0103004
693.810	0.0108596
693.888	0.0114083
693.966	0.0118279
694.044	0.0124432
694.122	0.0130348
694.200	0.0134419
694.279	0.0142202
694.357	0.0144763
694.435	0.0146655
694.513	0.0150632
694.591	0.0154348
694.669	0.0155110
694.747	0.0156164
694.825	0.0157471
694.904	0.0156247
694.982	0.0155702
695.060	0.0154885
695.138	0.0150932
695.216	0.0148641
695.294	0.0146614
695.372	0.0143220
695.450	0.0139198
695.529	0.0138394
695.607	0.0138090
695.685	0.0138422
695.763	0.0140288
695.841	0.0143224
695.919	0.0147402
695.997	0.0155796
696.075	0.0164537
696.154	0.0177044
696.232	0.0190618
696.310	0.0207489
696.388	0.0223527
696.466	0.0240911
696.544	0.0259351
696.622	0.0273182
696.700	0.0289582
696.779	0.0298805
696.857	0.0308012
696.935	0.0310493
697.013	0.0310194
697.091	0.0305033
697.169	0.0296576
697.247	0.0285224
697.325	0.0269567
697.404	0.0252912
697.482	0.0236125
697.560	0.0216546
697.638	0.0199379
697.716	0.0181338
697.794	0.0161873
697.872	0.0146747
697.950	0.0131547
698.029	0.0118080
698.107	0.0106443
698.185	0.00988625
698.263	0.00932121
698.341	0.00896004
698.419	0.00865479
698.497	0.00861511
698.575	0.00837067
698.654	0.00844971
698.732	0.00863457
698.810	0.00891167
698.888	0.00907784
698.966	0.00937790
699.044	0.00965027
699.122	0.00996880
699.200	0.0102798
699.279	0.0107085
699.357	0.0111574
699.435	0.0116087
699.513	0.0122012
699.591	0.0124565
699.669	0.0130058
699.747	0.0133841
699.825	0.0135665
699.904	0.0140409
699.982	0.0141820
700.060	0.0141788
700.138	0.0141925
700.216	0.0142439
700.294	0.0140674
700.372	0.0137999
700.450	0.0138224
700.529	0.0135287
700.607	0.0134693
700.685	0.0137412
700.763	0.0137119
700.841	0.0140691
700.919	0.0144709
700.997	0.0152779
701.075	0.0161840
701.154	0.0170844
701.232	0.0182319
701.310	0.0195560
701.388	0.0208094
701.466	0.0222369
701.544	0.0236565
701.622	0.0248257
701.700	0.0258723
701.779	0.0266412
701.857	0.0272816
701.935	0.0275912
702.013	0.0277325
702.091	0.0275951
702.169	0.0271771
702.247	0.0266423
702.325	0.0260303
702.404	0.0251095
702.482	0.0242264
702.560	0.0232293
702.638	0.0221499
702.716	0.0212282
702.794	0.0200584
702.872	0.0189888
702.950	0.0182593
703.029	0.0171297
703.107	0.0165914
703.185	0.0157677
703.263	0.0149969
703.341	0.0144518
703.419	0.0139406
703.497	0.0134264
703.575	0.0129487
703.654	0.0124478
703.732	0.0123038
703.810	0.0118027
703.888	0.0112166
703.966	0.0110432
704.044	0.0107315
704.122	0.0106145
704.200	0.0105505
704.279	0.0105901
704.357	0.0107067
704.435	0.0106997
704.513	0.0111732
704.591	0.0111253
704.669	0.0115721
704.747	0.0118211
704.825	0.0122073
704.904	0.0125178
704.982	0.0128147
705.060	0.0130214
705.138	0.0134334
705.216	0.0138042
705.294	0.0138483
705.372	0.0140835
705.450	0.0141459
705.529	0.0142187
705.607	0.0144753
705.685	0.0144574
705.763	0.0145329
705.841	0.0147762
705.919	0.0150287
705.997	0.0151076
706.075	0.0154517
706.154	0.0157824
706.232	0.0163567
706.310	0.0168992
706.388	0.0177865
706.466	0.0183385
706.544	0.0193703
706.622	0.0203238
706.700	0.0213980
706.779	0.0222471
706.857	0.0231721
706.935	0.0236584
707.013	0.0240639
707.091	0.0244256
707.169	0.0242207
707.247	0.0241343
707.325	0.0238663
707.404	0.0233858
707.482	0.0227271
707.560	0.0219778
707.638	0.0214986
707.716	0.0205764
707.794	0.0200477
707.872	0.0192564
707.950	0.0185867
708.029	0.0180630
708.107	0.0174465
708.185	0.0169791
708.263	0.0162917
708.341	0.0159944
708.419	0.0157332
708.497	0.0153435
708.575	0.0150816
708.654	0.0148462
708.732	0.0144889
708.810	0.0144708
708.888	0.0141586
708.966	0.0140194
709.044	0.0138524
709.122	0.0136052
709.200	0.0136281
709.279	0.0135049
709.357	0.0132510
709.435	0.0133264
709.513	0.0132438
709.591	0.0131927
709.669	0.0130450
709.747	0.0130409
709.825	0.0130502
709.904	0.0128963
709.982	0.0129203
710.060	0.0131107
710.138	0.0131876
710.216	0.0132808
710.294	0.0135330
710.372	0.0141016
710.450	0.0141509
710.529	0.0146766
710.607	0.0149740
710.685	0.0153461
710.763	0.0157575
710.841	0.0160753
710.919	0.0165598
710.997	0.0167850
711.075	0.0170385
711.154	0.0173952
711.232	0.0176769
711.310	0.0179840
711.388	0.0182360
711.466	0.0187359
711.544	0.0189288
711.622	0.0193216
711.700	0.0197622
711.779	0.0199793
711.857	0.0204218
711.935	0.0205320
712.013	0.0207281
712.091	0.0207043
712.169	0.0207216
712.247	0.0205786
712.325	0.0203735
712.404	0.0201908
712.482	0.0198601
712.560	0.0196037
712.638	0.0192139
712.716	0.0188074
712.794	0.0184035
712.872	0.0178817
712.950	0.0174589
713.029	0.0172776
713.107	0.0172150
713.185	0.0169593
713.263	0.0169495
713.341	0.0167594
713.419	0.0168470
713.497	0.0166880
713.575	0.0166576
713.654	0.0165945
713.732	0.0165104
713.810	0.0161474
713.888	0.0159557
713.966	0.0155847
714.044	0.0153354
714.122	0.0148795
714.200	0.0144836
714.279	0.0142562
714.357	0.0137359
714.435	0.0133076
714.513	0.0130445
714.591	0.0127294
714.669	0.0125299
714.747	0.0123750
714.825	0.0122701
714.904	0.0121751
714.982	0.0124415
715.060	0.0125684
715.138	0.0128741
715.216	0.0133660
715.294	0.0138288
715.372	0.0142306
715.450	0.0148952
715.529	0.0151365
715.607	0.0157095
715.685	0.0163342
715.763	0.0167858
715.841	0.0173763
715.919	0.0176575
715.997	0.0182211
716.075	0.0185028
716.154	0.0187843
716.232	0.0189694
716.310	0.0191621
716.388	0.0191920
716.466	0.0193302
716.544	0.0192886
716.622	0.0190292
716.700	0.0190153
716.779	0.0190502
716.857	0.0187191
716.935	0.0187338
717.013	0.0186153
717.091	0.0185528
717.169	0.0184155
717.247	0.0182104
717.325	0.0179535
717.404	0.0177616
717.482	0.0174419
717.560	0.0173073
717.638	0.0170848
717.716	0.0170241
717.794	0.0168936
717.872	0.0167883
717.950	0.0168270
718.029	0.0168310
718.107	0.0169608
718.185	0.0169778
718.263	0.0170239
718.341	0.0170561
718.419	0.0169732
718.497	0.0170496
718.575	0.0173984
718.654	0.0173403
718.732	0.0172916
718.810	0.0175231
718.888	0.0174947
718.966	0.0174701
719.044	0.0172602
719.122	0.0172501
719.200	0.0170445
719.279	0.0168683
719.357	0.0167017
719.435	0.0164397
719.513	0.0162105
719.591	0.0159601
719.669	0.0156447
719.747	0.0155558
719.825	0.0154717
719.904	0.0152409
719.982	0.0149338
720.060	0.0147048
720.138	0.0146141
720.216	0.0144753
720.294	0.0143283
720.372	0.0142568
720.450	0.0142602
720.529	0.0142043
720.607	0.0139733
720.685	0.0140227
720.763	0.0142580
720.841	0.0144558
720.919	0.0145420
720.997	0.0146278
721.075	0.0150214
721.154	0.0152416
721.232	0.0155944
721.310	0.0159747
721.388	0.0164248
721.466	0.0168093
721.544	0.0171967
721.622	0.0174989
721.700	0.0177090
721.779	0.0179910
721.857	0.0182051
721.935	0.0182037
722.013	0.0184447
722.091	0.0185969
722.169	0.0184712
722.247	0.0183806
722.325	0.0182873
722.404	0.0180478
722.482	0.0179951
722.560	0.0174522
722.638	0.0173179
722.716	0.0168520
722.794	0.0165993
722.872	0.0164349
722.950	0.0161298
723.029	0.0158330
723.107	0.0156549
723.185	0.0157680
723.263	0.0158143
723.341	0.0157862
723.419	0.0158691
723.497	0.0161267
723.575	0.0163763
723.654	0.0167384
723.732	0.0169572
723.810	0.0174133
723.888	0.0177982
723.966	0.0179352
724.044	0.0182613
724.122	0.0186306
724.200	0.0185958
724.279	0.0187024
724.357	0.0188079
724.435	0.0187514
724.513	0.0185081
724.591	0.0183067
724.669	0.0182645
724.747	0.0180250
724.825	0.0175137
724.904	0.0172763
724.982	0.0167359
725.060	0.0166366
725.138	0.0161073
725.216	0.0157958
725.294	0.0154472
725.372	0.0151826
725.450	0.0148640
725.529	0.0147205
725.607	0.0145666
725.685	0.0145084
725.763	0.0145205
725.841	0.0145992
725.919	0.0146989
725.997	0.0147765
726.075	0.0151070
726.154	0.0152532
726.232	0.0156114
726.310	0.0158498
726.388	0.0159866
726.466	0.0162621
726.544	0.0166696
726.622	0.0167096
726.700	0.0168581
726.779	0.0168511
726.857	0.0170863
726.935	0.0170853
727.013	0.0172344
727.091	0.0171107
727.169	0.0171706
727.247	0.0172210
727.325	0.0171879
727.404	0.0171715
727.482	0.0170731
727.560	0.0171460
727.638	0.0171846
727.716	0.0170734
727.794	0.0169584
727.872	0.0170041
727.950	0.0170222
728.029	0.0170792
728.107	0.0168558
728.185	0.0170542
728.263	0.0170274
728.341	0.0167532
728.419	0.0168038
728.497	0.0165753
728.575	0.0164359
728.654	0.0164040
728.732	0.0163319
728.810	0.0161806
728.888	0.0161418
728.966	0.0161846
729.044	0.0161618
729.122	0.0160682
729.200	0.0161278
729.279	0.0162707
729.357	0.0163823
729.435	0.0163297
729.513	0.0165251
729.591	0.0166310
729.669	0.0167505
729.747	0.0168430
729.825	0.0170428
729.904	0.0170818
729.982	0.0171671
730.060	0.0172263
730.138	0.0172411
730.216	0.0174349
730.294	0.0173753
730.372	0.0173238
730.450	0.0173692
730.529	0.0172596
730.607	0.0170180
730.685	0.0170376
730.763	0.0168151
730.841	0.0166411
730.919	0.0164381
730.997	0.0164374
731.075	0.0161624
731.154	0.0160572
731.232	0.0162035
731.310	0.0157866
731.388	0.0157184
731.466	0.0159070
731.544	0.0158866
731.622	0.0157438
731.700	0.0158217
731.779	0.0158656
731.857	0.0158848
731.935	0.0158710
732.013	0.0160757
732.091	0.0162749
732.169	0.0163404
732.247	0.0165031
732.325	0.0165211
732.404	0.0167931
732.482	0.0168649
732.560	0.0170396
732.638	0.0172121
732.716	0.0172145
732.794	0.0173830
732.872	0.0174255
732.950	0.0173849
733.029	0.0175613
733.107	0.0174991
733.185	0.0175942
733.263	0.0174924
733.341	0.0175655
733.419	0.0174328
733.497	0.0174469
733.575	0.0175989
733.654	0.0175363
733.732	0.0172298
733.810	0.0172228
733.888	0.0172532
733.966	0.0171631
734.044	0.0170490
734.122	0.0169381
734.200	0.0168385
734.279	0.0165303
734.357	0.0166009
734.435	0.0164268
734.513	0.0162251
734.591	0.0160722
734.669	0.0159122
734.747	0.0157880
734.825	0.0155858
734.904	0.0156788
734.982	0.0154865
735.060	0.0156191
735.138	0.0156002
735.216	0.0156938
735.294	0.0157148
735.372	0.0156395
735.450	0.0159538
735.529	0.0160055
735.607	0.0160056
735.685	0.0164412
735.763	0.0163963
735.841	0.0165234
735.919	0.0166587
735.997	0.0167999
736.075	0.0167679
736.154	0.0169662
736.232	0.0170661
736.310	0.0170036
736.388	0.0169028
736.466	0.0169142
736.544	0.0169316
736.622	0.0168810
736.700	0.0167944
736.779	0.0166379
736.857	0.0167353
736.935	0.0166499
737.013	0.0164758
737.091	0.0163750
737.169	0.0164361
737.247	0.0163379
737.325	0.0160821
737.404	0.0161607
737.482	0.0160658
737.560	0.0158625
737.638	0.0160863
737.716	0.0161207
737.794	0.0159272
737.872	0.0159318
737.950	0.0159547
738.029	0.0158784
738.107	0.0161449
738.185	0.0164201
738.263	0.0164362
738.341	0.0165522
738.419	0.0167093
738.497	0.0168243
738.575	0.0168620
738.654	0.0171461
738.732	0.0171410
738.810	0.0173074
738.888	0.0173141
738.966	0.0174332
739.044	0.0174319
739.122	0.0175850
739.200	0.0174680
739.279	0.0173074
739.357	0.0172736
739.435	0.0173442
739.513	0.0171796
739.591	0.0170864
739.669	0.0171741
739.747	0.0168546
739.825	0.0167934
739.904	0.0166268
739.982	0.0166033
740.060	0.0166152
740.138	0.0163776
740.216	0.0164041
740.294	0.0162711
740.372	0.0163335
740.450	0.0160303
740.529	0.0160657
740.607	0.0160220
740.685	0.0161081
740.763	0.0161769
740.841	0.0161227
740.919	0.0162393
740.997	0.0162676
741.075	0.0163036
741.154	0.0165753
741.232	0.0163961
741.310	0.0165573
741.388	0.0166619
741.466	0.0166575
741.544	0.0167266
741.622	0.0169047
741.700	0.0168578
741.779	0.0168118
741.857	0.0169447
741.935	0.0170432
742.013	0.0169418
742.091	0.0169457
742.169	0.0171078
742.247	0.0169432
742.325	0.0171047
742.404	0.0170848
742.482	0.0170666
742.560	0.0168636
742.638	0.0168518
742.716	0.0168314
742.794	0.0167238
742.872	0.0166340
742.950	0.0163509
743.029	0.0163716
743.107	0.0163961
743.185	0.0162971
743.263	0.0159966
743.341	0.0161535
743.419	0.0160062
743.497	0.0158295
743.575	0.0158096
743.654	0.0158528
743.732	0.0155877
743.810	0.0156517
743.888	0.0156481
743.966	0.0156584
744.044	0.0157947
744.122	0.0156457
744.200	0.0159126
744.279	0.0160430
744.357	0.0160326
744.435	0.0161613
744.513	0.0163497
744.591	0.0164584
744.669	0.0165553
744.747	0.0167252
744.825	0.0166086
744.904	0.0169617
744.982	0.0170393
745.060	0.0172113
745.138	0.0172033
745.216	0.0173402
745.294	0.0174220
745.372	0.0172430
745.450	0.0172132
745.529	0.0172459
745.607	0.0170358
745.685	0.0170042
745.763	0.0170123
745.841	0.0169463
745.919	0.0168779
745.997	0.0168602
746.075	0.0167176
746.154	0.0167322
746.232	0.0165498
746.310	0.0164587
746.388	0.0163951
746.466	0.0164506
746.544	0.0165627
746.622	0.0165882
746.700	0.0164797
746.779	0.0166551
746.857	0.0166212
746.935	0.0166912
747.013	0.0166423
747.091	0.0167061
747.169	0.0169598
747.247	0.0168068
747.325	0.0167939
747.404	0.0168145
747.482	0.0169436
747.560	0.0169372
747.638	0.0169362
747.716	0.0170387
747.794	0.0170065
747.872	0.0171256
747.950	0.0171674
748.029	0.0170715
748.107	0.0169948
748.185	0.0170611
748.263	0.0170719
748.341	0.0170067
748.419	0.0169878
748.497	0.0171558
748.575	0.0169131
748.654	0.0167634
748.732	0.0167508
748.810	0.0166718
748.888	0.0166397
748.966	0.0166553
749.044	0.0164806
749.122	0.0162815
749.200	0.0162740
749.279	0.0163111
749.357	0.0161651
749.435	0.0161301
749.513	0.0160912
749.591	0.0160118
749.669	0.0159316
749.747	0.0160141
749.825	0.0160171
749.904	0.0159020
749.982	0.0160139
750.060	0.0161172
750.138	0.0160543
750.216	0.0161604
750.294	0.0163178
750.372	0.0162776
750.450	0.0163000
750.529	0.0164059
750.607	0.0164690
750.685	0.0167052
750.763	0.0165967
750.841	0.0165569
750.919	0.0167569
750.997	0.0167478
751.075	0.0167937
751.154	0.0167867
751.232	0.0170859
751.310	0.0169078
751.388	0.0169572
751.466	0.0168771
751.544	0.0168539
751.622	0.0168085
751.700	0.0167482
751.779	0.0166528
751.857	0.0166296
751.935	0.0165916
752.013	0.0164478
752.091	0.0163768
752.169	0.0162788
752.247	0.0164187
752.325	0.0163401
752.404	0.0162672
752.482	0.0161536
752.560	0.0163243
752.638	0.0163660
752.716	0.0164412
752.794	0.0164705
752.872	0.0165704
752.950	0.0166171
753.029	0.0166316
753.107	0.0168953
753.185	0.0167796
753.263	0.0166168
753.341	0.0168160
753.419	0.0167081
753.497	0.0167720
753.575	0.0168913
753.654	0.0166739
753.732	0.0167219
753.810	0.0167080
753.888	0.0167478
753.966	0.0168589
754.044	0.0168170
754.122	0.0167755
754.200	0.0167765
754.279	0.0168735
754.357	0.0168835
754.435	0.0169472
754.513	0.0168605
754.591	0.0169181
754.669	0.0165594
754.747	0.0165154
754.825	0.0165992
754.904	0.0165618
754.982	0.0164555
755.060	0.0163950
755.138	0.0163752
755.216	0.0164120
755.294	0.0162766
755.372	0.0163659
755.450	0.0164880
755.529	0.0165078
755.607	0.0165926
755.685	0.0167162
755.763	0.0168602
755.841	0.0168233
755.919	0.0169840
755.997	0.0169054
756.075	0.0170438
756.154	0.0169561
756.232	0.0169924
756.310	0.0168704
756.388	0.0167738
756.466	0.0168779
756.544	0.0166220
756.622	0.0165576
756.700	0.0167483
756.779	0.0166888
756.857	0.0165854
756.935	0.0164110
757.013	0.0163480
757.091	0.0164004
757.169	0.0163477
757.247	0.0162726
757.325	0.0163074
757.404	0.0162652
757.482	0.0162719
757.560	0.0162083
757.638	0.0162666
757.716	0.0161588
757.794	0.0162400
757.872	0.0162680
757.950	0.0163255
758.029	0.0162224
758.107	0.0164411
758.185	0.0162758
758.263	0.0164131
758.341	0.0166064
758.419	0.0165445
758.497	0.0165823
758.575	0.0167382
758.654	0.0166764
758.732	0.0166335
758.810	0.0168087
758.888	0.0168446
758.966	0.0169054
759.044	0.0167364
759.122	0.0167858
759.200	0.0168641
759.279	0.0167577
759.357	0.0166956
759.435	0.0167731
759.513	0.0167010
759.591	0.0165908
759.669	0.0166972
759.747	0.0166209
759.825	0.0165179
759.904	0.0165022
759.982	0.0166051
760.060	0.0167525
760.138	0.0167595
760.216	0.0167075
760.294	0.0166963
760.372	0.0165645
760.450	0.0167616
760.529	0.0166886
760.607	0.0166942
760.685	0.0167222
760.763	0.0166389
760.841	0.0168405
760.919	0.0167722
760.997	0.0166958
761.075	0.0166138
761.154	0.0166518
761.232	0.0164949
761.310	0.0165395
761.388	0.0166595
761.466	0.0164020
761.544	0.0164215
761.622	0.0163305
761.700	0.0163430
761.779	0.0162817
761.857	0.0163139
761.935	0.0164564
762.013	0.0164188
762.091	0.0163896
762.169	0.0164409
762.247	0.0165622
762.325	0.0164148
762.404	0.0165291
762.482	0.0164576
762.560	0.0165252
762.638	0.0167148
762.716	0.0165611
762.794	0.0165843
762.872	0.0167500
762.950	0.0168150
763.029	0.0168564
763.107	0.0169572
763.185	0.0168735
763.263	0.0168385
763.341	0.0169666
763.419	0.0168690
763.497	0.0168941
763.575	0.0168250
763.654	0.0167654
763.732	0.0166585
763.810	0.0167728
763.888	0.0168174
763.966	0.0165189
764.044	0.0164429
764.122	0.0164748
764.200	0.0162550
764.279	0.0163432
764.357	0.0162788
764.435	0.0161790
764.513	0.0161691
764.591	0.0161994
764.669	0.0163039
764.747	0.0161657
764.825	0.0162623
764.904	0.0164492
764.982	0.0164232
765.060	0.0164214
765.138	0.0166678
765.216	0.0168802
765.294	0.0168152
765.372	0.0168848
765.450	0.0169422
765.529	0.0169041
765.607	0.0169314
765.685	0.0169743
765.763	0.0170411
765.841	0.0167589
765.919	0.0169308
765.997	0.0168266
766.075	0.0167596
766.154	0.0167626
766.232	0.0167039
766.310	0.0166688
766.388	0.0165704
766.466	0.0165130
766.544	0.0165305
766.622	0.0165282
766.700	0.0164981
766.779	0.0165659
766.857	0.0164338
766.935	0.0163701
767.013	0.0163028
767.091	0.0162716
767.169	0.0164247
767.247	0.0164458
767.325	0.0163003
767.404	0.0162614
767.482	0.0164167
767.560	0.0162652
767.638	0.0162350
767.716	0.0163436
767.794	0.0162100
767.872	0.0161376
767.950	0.0162447
768.029	0.0162117
768.107	0.0161891
768.185	0.0161359
768.263	0.0161516
768.341	0.0163285
768.419	0.0163071
768.497	0.0163822
768.575	0.0165862
768.654	0.0165958
768.732	0.0167071
768.810	0.0168864
768.888	0.0168879
768.966	0.0170597
769.044	0.0171827
769.122	0.0171979
769.200	0.0172353
769.279	0.0174885
769.357	0.0173381
769.435	0.0173080
769.513	0.0172799
769.591	0.0171310
769.669	0.0172625
769.747	0.0171870
769.825	0.0169889
769.904	0.0167382
769.982	0.0167332
770.060	0.0166678
770.138	0.0164436
770.216	0.0163235
770.294	0.0163358
770.372	0.0163338
770.450	0.0162791
770.529	0.0163275
770.607	0.0162038
770.685	0.0161743
770.763	0.0161700
770.841	0.0162920
770.919	0.0161768
770.997	0.0162862
771.075	0.0164223
771.154	0.0164867
771.232	0.0164639
771.310	0.0164348
771.388	0.0163530
771.466	0.0165392
771.544	0.0166697
771.622	0.0167096
771.700	0.0167583
771.779	0.0167726
771.857	0.0168253
771.935	0.0166387
772.013	0.0168132
772.091	0.0170192
772.169	0.0168687
772.247	0.0167471
772.325	0.0169527
772.404	0.0167770
772.482	0.0167528
772.560	0.0168855
772.638	0.0167973
772.716	0.0168611
772.794	0.0167674
772.872	0.0168385
772.950	0.0168827
773.029	0.0167329
773.107	0.0168712
773.185	0.0169193
773.263	0.0168092
773.341	0.0167877
773.419	0.0169804
773.497	0.0167525
773.575	0.0167928
773.654	0.0167597
773.732	0.0167791
773.810	0.0164337
773.888	0.0164014
773.966	0.0164209
774.044	0.0163718
774.122	0.0162465
774.200	0.0164388
774.279	0.0162601
774.357	0.0161806
774.435	0.0162448
774.513	0.0161578
774.591	0.0161857
774.669	0.0162528
774.747	0.0162933
774.825	0.0162360
774.904	0.0161953
774.982	0.0161911
775.060	0.0163194
775.138	0.0164989
775.216	0.0164421
775.294	0.0164983
775.372	0.0166174
775.450	0.0166653
775.529	0.0165765
775.607	0.0165310
775.685	0.0166465
775.763	0.0168227
775.841	0.0165694
775.919	0.0168106
775.997	0.0168198
776.075	0.0167185
776.154	0.0168571
776.232	0.0168034
776.310	0.0169263
776.388	0.0168571
776.466	0.0169414
776.544	0.0169456
776.622	0.0169637
776.700	0.0169439
776.779	0.0169617
776.857	0.0169479
776.935	0.0168631
777.013	0.0168369
777.091	0.0168919
777.169	0.0168755
777.247	0.0166999
777.325	0.0167012
777.404	0.0168420
777.482	0.0167503
777.560	0.0167615
777.638	0.0167562
777.716	0.0166785
777.794	0.0167238
777.872	0.0168066
777.950	0.0166029
778.029	0.0166495
778.107	0.0165215
778.185	0.0165498
778.263	0.0164330
778.341	0.0164623
778.419	0.0164101
778.497	0.0162762
778.575	0.0163348
778.654	0.0162621
778.732	0.0163923
778.810	0.0162019
778.888	0.0162501
778.966	0.0161713
779.044	0.0160734
779.122	0.0162808
779.200	0.0163594
779.279	0.0163042
779.357	0.0164367
779.435	0.0165302
779.513	0.0164333
779.591	0.0164621
779.669	0.0165302
779.747	0.0165535
779.825	0.0165174
779.904	0.0165559
779.982	0.0166925
780.060	0.0167255
780.138	0.0167791
780.216	0.0167814
780.294	0.0166502
780.372	0.0168841
780.450	0.0168062
780.529	0.0167031
780.607	0.0168762
780.685	0.0169469
780.763	0.0167587
780.841	0.0167434
780.919	0.0167773
780.997	0.0167251
781.075	0.0168802
781.154	0.0166907
781.232	0.0165977
781.310	0.0164782
781.388	0.0166276
781.466	0.0164835
781.544	0.0164867
781.622	0.0165633
781.700	0.0166400
781.779	0.0166071
781.857	0.0166929
781.935	0.0167863
782.013	0.0167786
782.091	0.0167999
782.169	0.0168785
782.247	0.0168145
782.325	0.0169628
782.404	0.0171612
782.482	0.0170503
782.560	0.0168498
782.638	0.0169313
782.716	0.0170420
782.794	0.0168494
782.872	0.0168577
782.950	0.0168204
783.029	0.0167659
783.107	0.0166417
783.185	0.0164687
783.263	0.0163909
783.341	0.0165253
783.419	0.0163322
783.497	0.0163233
783.575	0.0161206
783.654	0.0161662
783.732	0.0161235
783.810	0.0159656
783.888	0.0160163
783.966	0.0161279
784.044	0.0160289
784.122	0.0160674
784.200	0.0159445
784.279	0.0157990
784.357	0.0157462
784.435	0.0159637
784.513	0.0159379
784.591	0.0160480
784.669	0.0158406
784.747	0.0157970
784.825	0.0160873
784.904	0.0160439
784.982	0.0162402
785.060	0.0163594
785.138	0.0164018
785.216	0.0165066
785.294	0.0166206
785.372	0.0167028
785.450	0.0168381
785.529	0.0170384
785.607	0.0171925
785.685	0.0171152
785.763	0.0172493
785.841	0.0172491
785.919	0.0173814
785.997	0.0174763
786.075	0.0172695
786.154	0.0173071
786.232	0.0174216
786.310	0.0171075
786.388	0.0170688
786.466	0.0170477
786.544	0.0169570
786.622	0.0169180
786.700	0.0168438
786.779	0.0168305
786.857	0.0164828
786.935	0.0164897
787.013	0.0165648
787.091	0.0165533
787.169	0.0162267
787.247	0.0164701
787.325	0.0165006
787.404	0.0164435
787.482	0.0164785
787.560	0.0166004
787.638	0.0167588
787.716	0.0166684
787.794	0.0166127
787.872	0.0168365
787.950	0.0169357
788.029	0.0168098
788.107	0.0168803
788.185	0.0170046
788.263	0.0168877
788.341	0.0170623
788.419	0.0169926
788.497	0.0169740
788.575	0.0169613
788.654	0.0167091
788.732	0.0168050
788.810	0.0167636
788.888	0.0167718
788.966	0.0166411
789.044	0.0165272
789.122	0.0164788
789.200	0.0164426
789.279	0.0163622
789.357	0.0164824
789.435	0.0163988
789.513	0.0162202
789.591	0.0161639
789.669	0.0163246
789.747	0.0162230
789.825	0.0161063
789.904	0.0159816
789.982	0.0161414
790.060	0.0162249
790.138	0.0161131
790.216	0.0162969
790.294	0.0160390
790.372	0.0161471
790.450	0.0160519
790.529	0.0160293
790.607	0.0161626
790.685	0.0161594
790.763	0.0160425
790.841	0.0160192
790.919	0.0158617
790.997	0.0160959
791.075	0.0160500
791.154	0.0160012
791.232	0.0161022
791.310	0.0162227
791.388	0.0161486
791.466	0.0162738
791.544	0.0164674
791.622	0.0164677
791.700	0.0164057
791.779	0.0164024
791.857	0.0164253
791.935	0.0165103
792.013	0.0167206
792.091	0.0167558
792.169	0.0168958
792.247	0.0169148
792.325	0.0169270
792.404	0.0170353
792.482	0.0170463
792.560	0.0172035
792.638	0.0173178
792.716	0.0173706
792.794	0.0175172
792.872	0.0175359
792.950	0.0174652
793.029	0.0174448
793.107	0.0174734
793.185	0.0174182
793.263	0.0173439
793.341	0.0173139
793.419	0.0173639
793.497	0.0171927
793.575	0.0172445
793.654	0.0170396
793.732	0.0169417
793.810	0.0168694
793.888	0.0168137
793.966	0.0166576
794.044	0.0168299
794.122	0.0166544
794.200	0.0166981
794.279	0.0165425
794.357	0.0166347
794.435	0.0165083
794.513	0.0166399
794.591	0.0165788
794.669	0.0165431
794.747	0.0165549
794.825	0.0164378
794.904	0.0165069
794.982	0.0164484
795.060	0.0163737
795.138	0.0161798
795.216	0.0161829
795.294	0.0162455
795.372	0.0160794
795.450	0.0159862
795.529	0.0158809
795.607	0.0158072
795.685	0.0157639
795.763	0.0157807
795.841	0.0155951
795.919	0.0156406
795.997	0.0157954
796.075	0.0155740
796.154	0.0155933
796.232	0.0156178
796.310	0.0156886
796.388	0.0157656
796.466	0.0157036
796.544	0.0158488
796.622	0.0159511
796.700	0.0162216
796.779	0.0161395
796.857	0.0161103
796.935	0.0165257
797.013	0.0164215
797.091	0.0164127
797.169	0.0167031
797.247	0.0166267
797.325	0.0168257
797.404	0.0170005
797.482	0.0169568
797.560	0.0172338
797.638	0.0171242
797.716	0.0173144
797.794	0.0175431
797.872	0.0173977
797.950	0.0175932
798.029	0.0176054
798.107	0.0176984
798.185	0.0177937
798.263	0.0177625
798.341	0.0176711
798.419	0.0176164
798.497	0.0175397
798.575	0.0176633
798.654	0.0175155
798.732	0.0174088
798.810	0.0174512
798.888	0.0171955
798.966	0.0171198
799.044	0.0170818
799.122	0.0170087
799.200	0.0169865
799.279	0.0170187
799.357	0.0169863
799.435	0.0168205
799.513	0.0169401
799.591	0.0167707
799.669	0.0166357
799.747	0.0166685
799.825	0.0166477
799.904	0.0165652
799.982	0.0164915
800.060	0.0164382
800.138	0.0162793
800.216	0.0161542
800.294	0.0161649
800.372	0.0160253
800.450	0.0159947
800.529	0.0158627
800.607	0.0158498
800.685	0.0158195
800.763	0.0157265
800.841	0.0157870
800.919	0.0157455
800.997	0.0157339
801.075	0.0158273
801.154	0.0157832
801.232	0.0157738
801.310	0.0157702
801.388	0.0159234
801.466	0.0157881
801.544	0.0159613
801.622	0.0159750
801.700	0.0160144
801.779	0.0159988
801.857	0.0162089
801.935	0.0162730
802.013	0.0163335
802.091	0.0163977
802.169	0.0164565
802.247	0.0164948
802.325	0.0165830
802.404	0.0165577
802.482	0.0168472
802.560	0.0168776
802.638	0.0167796
802.716	0.0169986
802.794	0.0169656
802.872	0.0171176
802.950	0.0169900
803.029	0.0171272
803.107	0.0172398
803.185	0.0172500
803.263	0.0173195
803.341	0.0174194
803.419	0.0173440
803.497	0.0173828
803.575	0.0172640
803.654	0.0172604
803.732	0.0173650
803.810	0.0172245
803.888	0.0171206
803.966	0.0170097
804.044	0.0171641
804.122	0.0169302
804.200	0.0169499
804.279	0.0169551
804.357	0.0168368
804.435	0.0166956
804.513	0.0165578
804.591	0.0166158
804.669	0.0166171
804.747	0.0165397
804.825	0.0163630
804.904	0.0163718
804.982	0.0164532
805.060	0.0163162
805.138	0.0164397
805.216	0.0163628
805.294	0.0161904
805.372	0.0162601
805.450	0.0161649
805.529	0.0162665
805.607	0.0161980
805.685	0.0160104
805.763	0.0160901
805.841	0.0161495
805.919	0.0161259
805.997	0.0161230
806.075	0.0160437
806.154	0.0161283
806.232	0.0162968
806.310	0.0162406
806.388	0.0163843
806.466	0.0164282
806.544	0.0165038
806.622	0.0165099
806.700	0.0166139
806.779	0.0166525
806.857	0.0167512
806.935	0.0167101
807.013	0.0169833
807.091	0.0170139
807.169	0.0169101
807.247	0.0168349
807.325	0.0168078
807.404	0.0169630
807.482	0.0168870
807.560	0.0168374
807.638	0.0168974
807.716	0.0168461
807.794	0.0168410
807.872	0.0167853
807.950	0.0166835
808.029	0.0165359
808.107	0.0166383
808.185	0.0165803
808.263	0.0166840
808.341	0.0167393
808.419	0.0167123
808.497	0.0167308
808.575	0.0167826
808.654	0.0167873
808.732	0.0166838
808.810	0.0166500
808.888	0.0166903
808.966	0.0167978
809.044	0.0167989
809.122	0.0165302
809.200	0.0165895
809.279	0.0165392
809.357	0.0165876
809.435	0.0165832
809.513	0.0165339
809.591	0.0164969
809.669	0.0164530
809.747	0.0164969
809.825	0.0164927
809.904	0.0165512
809.982	0.0164814
810.060	0.0165550
810.138	0.0166473
810.216	0.0166434
810.294	0.0165820
810.372	0.0166564
810.450	0.0165880
810.529	0.0165795
810.607	0.0165867
810.685	0.0165719
810.763	0.0165065
810.841	0.0163646
810.919	0.0163726
810.997	0.0165111
811.075	0.0164043
811.154	0.0163672
811.232	0.0162438
811.310	0.0163295
811.388	0.0164028
811.466	0.0162412
811.544	0.0162582
811.622	0.0162942
811.700	0.0164397
811.779	0.0165379
811.857	0.0166248
811.935	0.0165261
812.013	0.0166325
812.091	0.0168075
812.169	0.0167783
812.247	0.0169806
812.325	0.0169066
812.404	0.0169102
812.482	0.0170624
812.560	0.0169952
812.638	0.0171715
812.716	0.0170564
812.794	0.0170496
812.872	0.0170211
812.950	0.0169171
813.029	0.0170172
813.107	0.0168417
813.185	0.0167208
813.263	0.0168073
813.341	0.0167918
813.419	0.0165115
813.497	0.0164149
813.575	0.0165929
813.654	0.0164387
813.732	0.0165273
813.810	0.0165773
813.888	0.0163559
813.966	0.0162352
814.044	0.0161708
814.122	0.0162133
814.200	0.0161311
814.279	0.0161645
814.357	0.0162526
814.435	0.0161401
814.513	0.0162867
814.591	0.0162784
814.669	0.0163614
814.747	0.0164495
814.825	0.0163919
814.904	0.0164828
814.982	0.0165950
815.060	0.0166930
815.138	0.0168705
815.216	0.0168459
815.294	0.0168740
815.372	0.0169792
815.450	0.0169459
815.529	0.0168643
815.607	0.0168913
815.685	0.0170827
815.763	0.0169447
815.841	0.0168555
815.919	0.0167664
815.997	0.0166866
816.075	0.0167008
816.154	0.0165188
816.232	0.0165266
816.310	0.0164118
816.388	0.0163514
816.466	0.0162511
816.544	0.0161498
816.622	0.0162135
816.700	0.0160840
816.779	0.0159941
816.857	0.0158912
816.935	0.0160098
817.013	0.0159301
817.091	0.0158926
817.169	0.0159912
817.247	0.0158934
817.325	0.0159546
817.404	0.0160295
817.482	0.0161665
817.560	0.0162759
817.638	0.0163737
817.716	0.0164380
817.794	0.0164264
817.872	0.0167123
817.950	0.0167335
818.029	0.0167821
818.107	0.0169661
818.185	0.0169755
818.263	0.0170560
818.341	0.0171831
818.419	0.0171270
818.497	0.0170845
818.575	0.0171597
818.654	0.0172079
818.732	0.0172803
818.810	0.0173092
818.888	0.0171682
818.966	0.0171530
819.044	0.0171735
819.122	0.0169080
819.200	0.0169459
819.279	0.0168794
819.357	0.0167164
819.435	0.0167376
819.513	0.0166206
819.591	0.0165749
819.669	0.0164185
819.747	0.0164831
819.825	0.0162440
819.904	0.0163861
819.982	0.0163879
820.060	0.0163562
820.138	0.0162221
820.216	0.0163921
820.294	0.0164441
820.372	0.0165517
820.450	0.0165150
820.529	0.0165649
820.607	0.0165856
820.685	0.0167146
820.763	0.0166302
820.841	0.0167748
820.919	0.0170005
820.997	0.0168541
821.075	0.0167726
821.154	0.0168980
821.232	0.0167522
821.310	0.0166924
821.388	0.0166007
821.466	0.0165961
821.544	0.0165003
821.622	0.0165212
821.700	0.0165508
821.779	0.0164340
821.857	0.0163847
821.935	0.0164082
822.013	0.0163707
822.091	0.0163815
822.169	0.0163127
822.247	0.0162493
822.325	0.0162348
822.404	0.0163120
822.482	0.0162798
822.560	0.0163789
822.638	0.0165512
822.716	0.0163922
822.794	0.0164892
822.872	0.0162646
822.950	0.0163207
823.029	0.0164858
823.107	0.0163596
823.185	0.0164991
823.263	0.0165472
823.341	0.0165177
823.419	0.0167341
823.497	0.0167596
823.575	0.0168596
823.654	0.0168366
823.732	0.0168834
823.810	0.0168829
823.888	0.0170201
823.966	0.0171152
824.044	0.0171363
824.122	0.0171919
824.200	0.0170682
824.279	0.0170880
824.357	0.0170917
824.435	0.0170343
824.513	0.0169742
824.591	0.0169699
824.669	0.0167606
824.747	0.0167565
824.825	0.0165523
824.904	0.0164767
824.982	0.0163995
825.060	0.0163872
825.138	0.0162936
825.216	0.0162545
825.294	0.0161991
825.372	0.0161265
825.450	0.0161745
825.529	0.0160113
825.607	0.0162045
825.685	0.0161131
825.763	0.0160499
825.841	0.0162900
825.919	0.0161428
825.997	0.0162286
826.075	0.0163857
826.154	0.0164343
826.232	0.0164249
826.310	0.0165041
826.388	0.0165494
826.466	0.0166562
826.544	0.0167046
826.622	0.0165469
826.700	0.0166767
826.779	0.0168095
826.857	0.0167614
826.935	0.0166332
827.013	0.0167368
827.091	0.0167647
827.169	0.0167952
827.247	0.0168307
827.325	0.0167891
827.404	0.0169131
827.482	0.0168790
827.560	0.0167317
827.638	0.0168437
827.716	0.0167965
827.794	0.0168214
827.872	0.0168041
827.950	0.0167666
828.029	0.0168562
828.107	0.0167335
828.185	0.0167693
828.263	0.0166736
828.341	0.0165090
828.419	0.0166623
828.497	0.0166036
828.575	0.0166698
828.654	0.0164607
828.732	0.0164250
828.810	0.0164200
828.888	0.0165663
828.966	0.0164709
829.044	0.0164628
829.122	0.0165147
829.200	0.0166590
829.279	0.0168118
829.357	0.0167840
829.435	0.0165621
829.513	0.0167860
829.591	0.0167227
829.669	0.0166175
829.747	0.0167395
829.825	0.0166852
829.904	0.0167775
829.982	0.0167576
830.060	0.0167426
830.138	0.0165865
830.216	0.0166267
830.294	0.0166167
830.372	0.0166476
830.450	0.0166973
830.529	0.0165900
830.607	0.0165383
830.685	0.0165519
830.763	0.0165513
830.841	0.0165137
830.919	0.0164992
830.997	0.0165383
831.075	0.0164867
831.154	0.0163428
831.232	0.0162358
831.310	0.0164060
831.388	0.0162338
831.466	0.0163566
831.544	0.0161741
831.622	0.0161967
831.700	0.0160122
831.779	0.0161044
831.857	0.0161913
831.935	0.0159959
832.013	0.0161453
832.091	0.0161062
832.169	0.0161633
832.247	0.0160001
832.325	0.0162434
832.404	0.0162765
832.482	0.0163308
832.560	0.0166097
832.638	0.0165688
832.716	0.0165378
832.794	0.0167337
832.872	0.0168652
832.950	0.0168068
833.029	0.0168395
833.107	0.0170235
833.185	0.0170261
833.263	0.0168906
833.341	0.0169511
833.419	0.0169878
833.497	0.0169701
833.575	0.0169901
833.654	0.0169910
833.732	0.0168764
833.810	0.0168277
833.888	0.0168623
833.966	0.0169562
834.044	0.0169061
834.122	0.0169221
834.200	0.0168696
834.279	0.0168047
834.357	0.0168845
834.435	0.0167789
834.513	0.0167375
834.591	0.0167506
834.669	0.0167805
834.747	0.0167237
834.825	0.0168039
834.904	0.0166767
834.982	0.0168073
835.060	0.0167005
835.138	0.0167450
835.216	0.0167742
835.294	0.0166738
835.372	0.0167768
835.450	0.0167477
835.529	0.0167190
835.607	0.0167776
835.685	0.0167553
835.763	0.0166838
835.841	0.0167066
835.919	0.0166106
835.997	0.0166354
836.075	0.0165913
836.154	0.0166206
836.232	0.0166669
836.310	0.0164515
836.388	0.0164838
836.466	0.0165355
836.544	0.0163681
836.622	0.0162251
836.700	0.0162828
836.779	0.0162330
836.857	0.0163517
836.935	0.0162512
837.013	0.0162306
837.091	0.0162666
837.169	0.0162362
837.247	0.0162787
837.325	0.0162230
837.404	0.0163525
837.482	0.0163211
837.560	0.0163133
837.638	0.0163612
837.716	0.0162978
837.794	0.0162669
837.872	0.0163985
837.950	0.0162815
838.029	0.0164143
838.107	0.0162661
838.185	0.0165359
838.263	0.0164944
838.341	0.0165240
838.419	0.0165167
838.497	0.0166367
838.575	0.0167508
838.654	0.0165664
838.732	0.0167126
838.810	0.0167004
838.888	0.0168217
838.966	0.0168023
839.044	0.0168846
839.122	0.0169134
839.200	0.0170835
839.279	0.0169544
839.357	0.0168871
839.435	0.0169524
839.513	0.0168013
839.591	0.0168726
839.669	0.0169809
839.747	0.0169240
839.825	0.0169125
839.904	0.0168427
839.982	0.0168537
840.060	0.0167249
840.138	0.0168105
840.216	0.0168929
840.294	0.0167979
840.372	0.0167537
840.450	0.0167028
840.529	0.0168440
840.607	0.0167072
840.685	0.0165686
840.763	0.0166640
840.841	0.0165245
840.919	0.0165547
840.997	0.0165929
841.075	0.0166586
841.154	0.0165695
841.232	0.0165688
841.310	0.0165393
841.388	0.0167323
841.466	0.0166840
841.544	0.0164336
841.622	0.0165562
841.700	0.0165166
841.779	0.0165339
841.857	0.0165184
841.935	0.0162711
842.013	0.0164639
842.091	0.0164480
842.169	0.0165431
842.247	0.0164790
842.325	0.0163320
842.404	0.0162262
842.482	0.0163933
842.560	0.0165026
842.638	0.0161858
842.716	0.0163580
842.794	0.0164957
842.872	0.0164706
842.950	0.0164639
843.029	0.0163297
843.107	0.0164467
843.185	0.0164860
843.263	0.0165767
843.341	0.0164427
843.419	0.0164368
843.497	0.0164423
843.575	0.0164495
843.654	0.0164969
843.732	0.0166131
843.810	0.0166162
843.888	0.0164647
843.966	0.0164331
844.044	0.0165209
844.122	0.0164749
844.200	0.0165600
844.279	0.0166489
844.357	0.0166241
844.435	0.0166383
844.513	0.0166882
844.591	0.0168452
844.669	0.0168235
844.747	0.0166866
844.825	0.0166632
844.904	0.0169022
844.982	0.0170217
845.060	0.0169142
845.138	0.0167812
845.216	0.0169334
845.294	0.0171992
845.372	0.0170461
845.450	0.0171412
845.529	0.0171874
845.607	0.0171329
845.685	0.0170513
845.763	0.0170023
845.841	0.0172845
845.919	0.0172675
845.997	0.0171172
846.075	0.0171499
846.154	0.0168725
846.232	0.0169305
846.310	0.0167634
846.388	0.0165864
846.466	0.0165776
846.544	0.0165307
846.622	0.0163852
846.700	0.0162972
846.779	0.0163142
846.857	0.0161513
846.935	0.0161310
847.013	0.0162327
847.091	0.0161038
847.169	0.0160976
847.247	0.0160081
847.325	0.0161046
847.404	0.0161146
847.482	0.0160040
847.560	0.0161036
847.638	0.0162280
847.716	0.0162105
847.794	0.0161880
847.872	0.0162785
847.950	0.0161100
848.029	0.0162279
848.107	0.0162732
848.185	0.0163486
848.263	0.0163551
848.341	0.0163559
848.419	0.0163611
848.497	0.0163913
848.575	0.0166507
848.654	0.0166451
848.732	0.0166911
848.810	0.0166903
848.888	0.0167477
848.966	0.0167899
849.044	0.0168134
849.122	0.0169069
849.200	0.0167909
849.279	0.0169106
849.357	0.0168590
849.435	0.0168224
849.513	0.0168639
849.591	0.0167662
849.669	0.0168056
849.747	0.0167752
849.825	0.0168698
849.904	0.0166780
849.982	0.0166937
850.060	0.0166936
850.138	0.0167294
850.216	0.0167503
850.294	0.0166248
850.372	0.0166724
850.450	0.0167493
850.529	0.0167281
850.607	0.0168251
850.685	0.0168180
850.763	0.0169178
850.841	0.0167726
850.919	0.0169113
850.997	0.0170006
851.075	0.0169854
851.154	0.0168235
851.232	0.0169815
851.310	0.0168289
851.388	0.0168680
851.466	0.0168670
851.544	0.0168806
851.622	0.0167959
851.700	0.0167719
851.779	0.0166361
851.857	0.0166178
851.935	0.0164198
852.013	0.0165850
852.091	0.0165879
852.169	0.0165107
852.247	0.0163872
852.325	0.0163918
852.404	0.0163932
852.482	0.0162351
852.560	0.0161813
852.638	0.0162583
852.716	0.0162394
852.794	0.0160897
852.872	0.0161500
852.950	0.0161217
853.029	0.0160474
853.107	0.0162116
853.185	0.0162858
853.263	0.0161866
853.341	0.0161951
853.419	0.0161404
853.497	0.0161301
853.575	0.0164203
853.654	0.0163683
853.732	0.0164784
853.810	0.0166525
853.888	0.0166177
853.966	0.0166736
854.044	0.0167852
854.122	0.0167621
854.200	0.0169035
854.279	0.0168008
854.357	0.0167232
854.435	0.0168774
854.513	0.0167909
854.591	0.0168144
854.669	0.0167007
854.747	0.0167993
854.825	0.0167044
854.904	0.0167636
854.982	0.0168330
855.060	0.0168285
855.138	0.0169052
855.216	0.0167783
855.294	0.0168408
855.372	0.0167955
855.450	0.0167233
855.529	0.0168330
855.607	0.0168580
855.685	0.0167725
855.763	0.0167417
855.841	0.0167474
855.919	0.0166962
855.997	0.0167784
856.075	0.0167824
856.154	0.0168458
856.232	0.0166948
856.310	0.0168185
856.388	0.0168766
856.466	0.0165746
856.544	0.0166825
856.622	0.0167052
856.700	0.0165981
856.779	0.0167474
856.857	0.0166237
856.935	0.0166810
857.013	0.0166966
857.091	0.0166502
857.169	0.0167674
857.247	0.0166105
857.325	0.0167805
857.404	0.0164399
857.482	0.0163913
857.560	0.0164211
857.638	0.0164955
857.716	0.0165408
857.794	0.0164671
857.872	0.0164772
857.950	0.0164850
858.029	0.0163751
858.107	0.0163651
858.185	0.0163533
858.263	0.0163897
858.341	0.0164470
858.419	0.0164327
858.497	0.0164733
858.575	0.0164198
858.654	0.0165447
858.732	0.0164504
858.810	0.0163596
858.888	0.0164542
858.966	0.0165942
859.044	0.0165110
859.122	0.0163802
859.200	0.0164944
859.279	0.0164662
859.357	0.0165465
859.435	0.0165997
859.513	0.0165949
859.591	0.0166350
859.669	0.0167003
859.747	0.0167902
859.825	0.0166589
859.904	0.0167288
859.982	0.0168494
860.060	0.0169350
860.138	0.0169877
860.216	0.0169183
860.294	0.0169688
860.372	0.0169623
860.450	0.0168914
860.529	0.0168499
860.607	0.0169643
860.685	0.0169586
860.763	0.0168520
860.841	0.0170348
860.919	0.0167366
860.997	0.0166748
861.075	0.0166917
861.154	0.0166087
861.232	0.0164873
861.310	0.0165148
861.388	0.0165922
861.466	0.0164599
861.544	0.0163893
861.622	0.0163425
861.700	0.0163517
861.779	0.0164494
861.857	0.0165370
861.935	0.0164520
862.013	0.0163864
862.091	0.0165104
862.169	0.0167002
862.247	0.0165060
862.325	0.0165984
862.404	0.0166479
862.482	0.0164167
862.560	0.0166881
862.638	0.0165538
862.716	0.0165738
862.794	0.0163767
862.872	0.0165766
862.950	0.0164884
863.029	0.0164080
863.107	0.0165206
863.185	0.0165263
863.263	0.0165952
863.341	0.0167224
863.419	0.0166042
863.497	0.0165085
863.575	0.0165439
863.654	0.0165546
863.732	0.0166125
863.810	0.0166354
863.888	0.0166590
863.966	0.0166145
864.044	0.0165784
864.122	0.0166179
864.200	0.0167617
864.279	0.0166613
864.357	0.0165721
864.435	0.0167104
864.513	0.0165092
864.591	0.0165157
864.669	0.0166028
864.747	0.0167242
864.825	0.0166129
864.904	0.0165423
864.982	0.0165790
865.060	0.0167140
865.138	0.0166650
865.216	0.0167123
865.294	0.0167370
865.372	0.0166976
865.450	0.0167381
865.529	0.0168428
865.607	0.0168375
865.685	0.0167767
865.763	0.0165945
865.841	0.0168037
865.919	0.0168909
865.997	0.0167240
866.075	0.0167208
866.154	0.0166602
866.232	0.0165208
866.310	0.0165720
866.388	0.0165934
866.466	0.0164510
866.544	0.0164380
866.622	0.0164262
866.700	0.0163914
866.779	0.0163902
866.857	0.0163608
866.935	0.0164625
867.013	0.0165134
867.091	0.0166626
867.169	0.0166576
867.247	0.0166750
867.325	0.0168372
867.404	0.0167236
867.482	0.0167558
867.560	0.0166774
867.638	0.0168929
867.716	0.0166606
867.794	0.0166799
867.872	0.0167381
867.950	0.0167429
868.029	0.0166231
868.107	0.0167606
868.185	0.0166643
868.263	0.0165488
868.341	0.0165585
868.419	0.0165949
868.497	0.0167159
868.575	0.0166562
868.654	0.0165388
868.732	0.0166821
868.810	0.0165922
868.888	0.0164825
868.966	0.0164671
869.044	0.0165462
869.122	0.0164695
869.200	0.0164151
869.279	0.0163811
869.357	0.0163387
869.435	0.0163177
869.513	0.0164463
869.591	0.0163333
869.669	0.0163891
869.747	0.0164606
869.825	0.0165268
869.904	0.0163176
869.982	0.0165000
870.060	0.0164097
870.138	0.0163955
870.216	0.0164940
870.294	0.0165228
870.372	0.0164806
870.450	0.0165141
870.529	0.0165864
870.607	0.0165182
870.685	0.0165476
870.763	0.0166076
870.841	0.0165846
870.919	0.0167125
870.997	0.0167052
871.075	0.0166656
871.154	0.0168054
871.232	0.0168302
871.310	0.0168099
871.388	0.0169101
871.466	0.0169277
871.544	0.0167488
871.622	0.0170399
871.700	0.0169000
871.779	0.0168150
871.857	0.0168530
871.935	0.0166660
872.013	0.0167286
872.091	0.0166111
872.169	0.0166261
872.247	0.0166114
872.325	0.0165374
872.404	0.0165459
872.482	0.0166133
872.560	0.0166570
872.638	0.0166238
872.716	0.0168069
872.794	0.0167693
872.872	0.0167841
872.950	0.0167065
873.029	0.0166563
873.107	0.0166689
873.185	0.0166792
873.263	0.0165424
873.341	0.0165736
873.419	0.0166425
873.497	0.0165966
873.575	0.0165382
873.654	0.0164753
873.732	0.0164871
873.810	0.0165215
873.888	0.0163567
873.966	0.0164464
874.044	0.0165537
874.122	0.0164164
874.200	0.0164258
874.279	0.0164770
874.357	0.0164731
874.435	0.0166463
874.513	0.0166142
874.591	0.0166760
874.669	0.0167587
874.747	0.0167672
874.825	0.0166850
874.904	0.0166364
874.982	0.0164194
875.060	0.0166221
875.138	0.0163997
875.216	0.0164719
875.294	0.0164189
875.372	0.0162846
875.450	0.0162380
875.529	0.0164200
875.607	0.0163622
875.685	0.0163866
875.763	0.0162440
875.841	0.0163275
875.919	0.0164484
875.997	0.0163022
876.075	0.0162865
876.154	0.0163006
876.232	0.0164245
876.310	0.0162873
876.388	0.0163157
876.466	0.0163097
876.544	0.0163325
876.622	0.0164249
876.700	0.0165146
876.779	0.0163992
876.857	0.0165101
876.935	0.0165955
877.013	0.0166771
877.091	0.0167004
877.169	0.0168546
877.247	0.0170227
877.325	0.0169151
877.404	0.0170415
877.482	0.0172163
877.560	0.0171661
877.638	0.0172121
877.716	0.0171178
877.794	0.0170930
877.872	0.0171720
877.950	0.0172430
878.029	0.0169753
878.107	0.0170441
878.185	0.0169285
878.263	0.0169440
878.341	0.0166832
878.419	0.0166061
878.497	0.0164132
878.575	0.0164260
878.654	0.0162586
878.732	0.0161673
878.810	0.0160365
878.888	0.0160545
878.966	0.0160519
879.044	0.0161668
879.122	0.0159676
879.200	0.0160090
879.279	0.0160732
879.357	0.0161925
879.435	0.0160320
879.513	0.0160813
879.591	0.0161935
879.669	0.0160555
879.747	0.0163230
879.825	0.0162119
879.904	0.0162805
879.982	0.0162999
880.060	0.0164670
880.138	0.0166470
880.216	0.0167584
880.294	0.0168411
880.372	0.0168668
880.450	0.0168472
880.529	0.0169716
880.607	0.0168780
880.685	0.0168907
880.763	0.0169589
880.841	0.0169665
880.919	0.0168195
880.997	0.0167865
881.075	0.0168127
881.154	0.0167957
881.232	0.0166569
881.310	0.0166091
881.388	0.0165852
881.466	0.0165179
881.544	0.0164735
881.622	0.0164695
881.700	0.0164607
881.779	0.0163976
881.857	0.0162611
881.935	0.0163017
882.013	0.0161658
882.091	0.0161089
882.169	0.0162450
882.247	0.0161948
882.325	0.0162885
882.404	0.0163359
882.482	0.0162588
882.560	0.0164319
882.638	0.0164384
882.716	0.0166303
882.794	0.0167384
882.872	0.0167899
882.950	0.0167940
883.029	0.0170207
883.107	0.0170676
883.185	0.0171523
883.263	0.0173500
883.341	0.0174094
883.419	0.0173586
883.497	0.0173753
883.575	0.0172654
883.654	0.0171509
883.732	0.0171346
883.810	0.0169908
883.888	0.0169163
883.966	0.0168375
884.044	0.0167947
884.122	0.0164890
884.200	0.0164877
884.279	0.0164693
884.357	0.0163389
884.435	0.0162967
884.513	0.0161526
884.591	0.0160121
884.669	0.0159929
884.747	0.0160048
884.825	0.0158533
884.904	0.0159342
884.982	0.0160197
885.060	0.0161610
885.138	0.0161929
885.216	0.0161229
885.294	0.0161799
885.372	0.0163573
885.450	0.0163480
885.529	0.0165324
885.607	0.0166577
885.685	0.0165904
885.763	0.0166355
885.841	0.0166721
885.919	0.0168091
885.997	0.0168845
886.075	0.0168842
886.154	0.0168346
886.232	0.0168622
886.310	0.0169324
886.388	0.0168859
886.466	0.0169823
886.544	0.0169050
886.622	0.0168513
886.700	0.0168084
886.779	0.0167254
886.857	0.0168441
886.935	0.0167746
887.013	0.0165804
887.091	0.0166027
887.169	0.0167075
887.247	0.0166372
887.325	0.0165632
887.404	0.0165351
887.482	0.0165089
887.560	0.0165759
887.638	0.0163714
887.716	0.0165701
887.794	0.0165831
887.872	0.0166457
887.950	0.0166510
888.029	0.0167772
888.107	0.0168819
888.185	0.0170476
888.263	0.0170004
888.341	0.0172405
888.419	0.0173074
888.497	0.0171528
888.575	0.0171722
888.654	0.0172192
888.732	0.0171889
888.810	0.0169813
888.888	0.0169643
888.966	0.0169341
889.044	0.0167337
889.122	0.0165269
889.200	0.0165749
889.279	0.0163623
889.357	0.0162672
889.435	0.0163860
889.513	0.0163655
889.591	0.0162310
889.669	0.0162406
889.747	0.0162629
889.825	0.0164234
889.904	0.0163912
889.982	0.0162132
890.060	0.0165220
890.138	0.0164235
890.216	0.0165440
890.294	0.0164264
890.372	0.0163995
890.450	0.0165222
890.529	0.0164777
890.607	0.0165166
890.685	0.0164316
890.763	0.0165202
890.841	0.0166066
890.919	0.0164737
890.997	0.0164731
891.075	0.0165588
891.154	0.0164297
891.232	0.0166209
891.310	0.0167094
891.388	0.0167633
891.466	0.0169350
891.544	0.0169276
891.622	0.0169131
891.700	0.0169623
891.779	0.0170020
891.857	0.0166891
891.935	0.0167599
892.013	0.0166480
892.091	0.0165025
892.169	0.0166073
892.247	0.0165157
892.325	0.0163484
892.404	0.0163265
892.482	0.0163571
892.560	0.0162825
892.638	0.0164155
892.716	0.0164245
892.794	0.0165177
892.872	0.0164534
892.950	0.0165574
893.029	0.0167996
893.107	0.0168260
893.185	0.0171358
893.263	0.0170527
893.341	0.0170832
893.419	0.0170551
893.497	0.0171053
893.575	0.0171832
893.654	0.0172736
893.732	0.0171820
893.810	0.0170176
893.888	0.0169962
893.966	0.0170199
894.044	0.0168186
894.122	0.0166217
894.200	0.0164712
894.279	0.0165114
894.357	0.0165678
894.435	0.0165142
894.513	0.0163112
894.591	0.0163751
894.669	0.0162555
894.747	0.0163412
894.825	0.0162922
894.904	0.0164278
894.982	0.0162122
895.060	0.0162947
895.138	0.0162984
895.216	0.0163202
895.294	0.0162168
895.372	0.0161710
895.450	0.0161777
895.529	0.0159524
895.607	0.0159978
895.685	0.0162373
895.763	0.0160790
895.841	0.0160036
895.919	0.0161773
895.997	0.0163699
896.075	0.0163425
896.154	0.0165173
896.232	0.0165655
896.310	0.0166800
896.388	0.0168159
896.466	0.0168639
896.544	0.0168558
896.622	0.0170047
896.700	0.0170278
896.779	0.0168686
896.857	0.0171447
896.935	0.0170926
897.013	0.0170103
897.091	0.0168198
897.169	0.0169947
897.247	0.0168475
897.325	0.0167538
897.404	0.0167622
897.482	0.0168108
897.560	0.0167348
897.638	0.0166719
897.716	0.0166697
897.794	0.0165955
897.872	0.0165913
897.950	0.0166544
898.029	0.0166059
898.107	0.0166573
898.185	0.0166422
898.263	0.0167062
898.341	0.0166461
898.419	0.0167085
898.497	0.0168629
898.575	0.0168482
898.654	0.0167342
898.732	0.0168327
898.810	0.0166592
898.888	0.0166900
898.966	0.0166448
899.044	0.0165901
899.122	0.0165263
899.200	0.0164514
899.279	0.0164690
899.357	0.0163016
899.435	0.0164757
899.513	0.0162885
899.591	0.0163490
899.669	0.0164281
899.747	0.0162240
899.825	0.0163487
899.904	0.0165422
899.982	0.0165601
900.060	0.0165389
900.138	0.0167046
900.216	0.0166235
900.294	0.0166822
900.372	0.0167295
900.450	0.0167178
900.529	0.0165444
900.607	0.0164178
900.685	0.0165643
900.763	0.0165491
900.841	0.0163554
900.919	0.0162343
900.997	0.0163150
901.075	0.0163658
901.154	0.0163667
901.232	0.0163880
901.310	0.0164372
901.388	0.0164545
901.466	0.0164136
901.544	0.0165115
901.622	0.0164803
901.700	0.0164690
901.779	0.0165729
901.857	0.0165088
901.935	0.0163956
902.013	0.0166057
902.091	0.0165483
902.169	0.0166418
902.247	0.0165425
902.325	0.0165809
902.404	0.0166312
902.482	0.0165245
902.560	0.0165912
902.638	0.0167130
902.716	0.0167434
902.794	0.0165623
902.872	0.0167665
902.950	0.0167322
903.029	0.0167654
903.107	0.0168851
903.185	0.0167951
903.263	0.0167836
903.341	0.0169471
903.419	0.0170490
903.497	0.0171325
903.575	0.0171526
903.654	0.0172247
903.732	0.0172254
903.810	0.0171440
903.888	0.0169798
903.966	0.0171695
904.044	0.0171690
904.122	0.0168092
904.200	0.0168224
904.279	0.0166759
904.357	0.0166246
904.435	0.0166460
904.513	0.0166613
904.591	0.0166114
904.669	0.0164627
904.747	0.0164373
904.825	0.0164833
904.904	0.0166151
904.982	0.0166322
905.060	0.0166511
905.138	0.0166838
905.216	0.0165848
905.294	0.0165388
905.372	0.0166697
905.450	0.0167714
905.529	0.0167587
905.607	0.0167371
905.685	0.0166836
905.763	0.0166208
905.841	0.0166132
905.919	0.0164582
905.997	0.0163585
906.075	0.0164731
906.154	0.0163047
906.232	0.0161887
906.310	0.0161068
906.388	0.0162674
906.466	0.0162552
906.544	0.0162595
906.622	0.0161419
906.700	0.0161877
906.779	0.0164150
906.857	0.0163786
906.935	0.0163685
907.013	0.0164720
907.091	0.0164033
907.169	0.0164240
907.247	0.0165260
907.325	0.0165375
907.404	0.0166827
907.482	0.0165140
907.560	0.0165939
907.638	0.0164130
907.716	0.0163885
907.794	0.0164777
907.872	0.0164113
907.950	0.0164304
908.029	0.0163894
908.107	0.0164167
908.185	0.0164489
908.263	0.0164481
908.341	0.0165474
908.419	0.0165008
908.497	0.0164952
908.575	0.0166214
908.654	0.0167044
908.732	0.0168259
908.810	0.0168634
908.888	0.0168864
908.966	0.0168825
909.044	0.0169485
909.122	0.0168519
909.200	0.0169913
909.279	0.0170690
909.357	0.0171198
909.435	0.0169753
909.513	0.0169759
909.591	0.0170895
909.669	0.0171289
909.747	0.0171203
909.825	0.0171233
909.904	0.0171125
909.982	0.0172917
910.060	0.0172491
910.138	0.0172072
910.216	0.0172179
910.294	0.0171479
910.372	0.0171783
910.450	0.0171548
910.529	0.0170270
910.607	0.0169383
910.685	0.0169906
910.763	0.0167971
910.841	0.0168097
910.919	0.0166788
910.997	0.0165809
911.075	0.0163861
911.154	0.0164081
911.232	0.0162667
911.310	0.0161684
911.388	0.0162635
911.466	0.0162012
911.544	0.0161173
911.622	0.0160223
911.700	0.0161702
911.779	0.0160848
911.857	0.0161520
911.935	0.0161214
912.013	0.0162097
912.091	0.0162332
912.169	0.0162433
912.247	0.0161687
912.325	0.0161362
912.404	0.0163142
912.482	0.0162895
912.560	0.0164287
912.638	0.0164546
912.716	0.0163349
912.794	0.0164317
912.872	0.0164061
912.950	0.0163242
913.029	0.0165598
913.107	0.0165299
913.185	0.0166022
913.263	0.0165049
913.341	0.0165378
913.419	0.0167444
913.497	0.0166110
913.575	0.0167382
913.654	0.0166907
913.732	0.0167603
913.810	0.0166805
913.888	0.0169276
913.966	0.0167781
914.044	0.0167989
914.122	0.0166442
914.200	0.0167352
914.279	0.0167606
914.357	0.0166589
914.435	0.0168208
914.513	0.0168040
914.591	0.0165855
914.669	0.0166479
914.747	0.0167570
914.825	0.0167758
914.904	0.0167986
914.982	0.0168358
915.060	0.0168314
915.138	0.0168401
915.216	0.0170909
915.294	0.0169662
915.372	0.0169495
915.450	0.0169155
915.529	0.0171534
915.607	0.0169931
915.685	0.0170425
915.763	0.0171259
915.841	0.0168293
915.919	0.0169301
915.997	0.0167428
916.075	0.0168094
916.154	0.0167615
916.232	0.0166418
916.310	0.0165552
916.388	0.0165494
916.466	0.0165121
916.544	0.0163721
916.622	0.0164220
916.700	0.0163096
916.779	0.0164114
916.857	0.0163164
916.935	0.0163067
917.013	0.0161411
917.091	0.0163139
917.169	0.0162780
917.247	0.0163412
917.325	0.0163048
917.404	0.0163981
917.482	0.0163544
917.560	0.0164484
917.638	0.0165631
917.716	0.0163847
917.794	0.0164231
917.872	0.0164342
917.950	0.0164018
918.029	0.0166571
918.107	0.0165516
918.185	0.0163952
918.263	0.0166208
918.341	0.0166019
918.419	0.0166900
918.497	0.0166380
918.575	0.0167345
918.654	0.0168832
918.732	0.0168750
918.810	0.0168414
918.888	0.0169532
918.966	0.0168774
919.044	0.0167204
919.122	0.0168912
919.200	0.0168365
919.279	0.0167416
919.357	0.0165742
919.435	0.0167038
919.513	0.0167131
919.591	0.0166859
919.669	0.0166669
919.747	0.0166081
919.825	0.0165726
919.904	0.0165216
