06/03/2022	14:08:50	Ver.	4.1	UNKNOWN
Optical Delay	599.981738	Delta X		0.078125	Sweeps	1	Scan Rate	0/0
Coordinates	Axis 1	NaN	Axis 2	NaN	Axis 3	NaN	Axis 4	NaN	Axis 5	NaN	Axis 6	0.000000
TX Power	0.000000	RX Power	0.000000

599.982	0.0167441
600.060	0.0168027
600.138	0.0167361
600.216	0.0169226
600.294	0.0167137
600.372	0.0167016
600.450	0.0168941
600.529	0.0167163
600.607	0.0166850
600.685	0.0167025
600.763	0.0168504
600.841	0.0166658
600.919	0.0168336
600.997	0.0166986
601.075	0.0167548
601.154	0.0167233
601.232	0.0166640
601.310	0.0166132
601.388	0.0166323
601.466	0.0167596
601.544	0.0166962
601.622	0.0166528
601.700	0.0167621
601.779	0.0166833
601.857	0.0167357
601.935	0.0167521
602.013	0.0167413
602.091	0.0167148
602.169	0.0166901
602.247	0.0168087
602.325	0.0167506
602.404	0.0167638
602.482	0.0165985
602.560	0.0169005
602.638	0.0168140
602.716	0.0166743
602.794	0.0166011
602.872	0.0166466
602.950	0.0167622
603.029	0.0167383
603.107	0.0167313
603.185	0.0167565
603.263	0.0167805
603.341	0.0167963
603.419	0.0165997
603.497	0.0167062
603.575	0.0167839
603.654	0.0167574
603.732	0.0168273
603.810	0.0166976
603.888	0.0166824
603.966	0.0166825
604.044	0.0167545
604.122	0.0167274
604.200	0.0166318
604.279	0.0167041
604.357	0.0166970
604.435	0.0166482
604.513	0.0167152
604.591	0.0166383
604.669	0.0166579
604.747	0.0166747
604.825	0.0167031
604.904	0.0167818
604.982	0.0168810
605.060	0.0168060
605.138	0.0166527
605.216	0.0168805
605.294	0.0166615
605.372	0.0167828
605.450	0.0166931
605.529	0.0166908
605.607	0.0167813
605.685	0.0168497
605.763	0.0167935
605.841	0.0168063
605.919	0.0168192
605.997	0.0168533
606.075	0.0166907
606.154	0.0166826
606.232	0.0168015
606.310	0.0167548
606.388	0.0168264
606.466	0.0167464
606.544	0.0167094
606.622	0.0167169
606.700	0.0167374
606.779	0.0168829
606.857	0.0167467
606.935	0.0165856
607.013	0.0166214
607.091	0.0168273
607.169	0.0167330
607.247	0.0166309
607.325	0.0167313
607.404	0.0166595
607.482	0.0166182
607.560	0.0167318
607.638	0.0166869
607.716	0.0167110
607.794	0.0167526
607.872	0.0167975
607.950	0.0167374
608.029	0.0167695
608.107	0.0167354
608.185	0.0166337
608.263	0.0167243
608.341	0.0167252
608.419	0.0168007
608.497	0.0167014
608.575	0.0167500
608.654	0.0165798
608.732	0.0166567
608.810	0.0168550
608.888	0.0168709
608.966	0.0167909
609.044	0.0167793
609.122	0.0168511
609.200	0.0169484
609.279	0.0166453
609.357	0.0166914
609.435	0.0167693
609.513	0.0168296
609.591	0.0167897
609.669	0.0167343
609.747	0.0167388
609.825	0.0168251
609.904	0.0167764
609.982	0.0167410
610.060	0.0168420
610.138	0.0167592
610.216	0.0166450
610.294	0.0167835
610.372	0.0167003
610.450	0.0166521
610.529	0.0167083
610.607	0.0167559
610.685	0.0166532
610.763	0.0166804
610.841	0.0166582
610.919	0.0167519
610.997	0.0167397
611.075	0.0166239
611.154	0.0166642
611.232	0.0167126
611.310	0.0166798
611.388	0.0167508
611.466	0.0166470
611.544	0.0167451
611.622	0.0167045
611.700	0.0167620
611.779	0.0168263
611.857	0.0168650
611.935	0.0167061
612.013	0.0167406
612.091	0.0168420
612.169	0.0167970
612.247	0.0166782
612.325	0.0168607
612.404	0.0168832
612.482	0.0167568
612.560	0.0166763
612.638	0.0168884
612.716	0.0167934
612.794	0.0168155
612.872	0.0167808
612.950	0.0167612
613.029	0.0167612
613.107	0.0167507
613.185	0.0166506
613.263	0.0167063
613.341	0.0167875
613.419	0.0167110
613.497	0.0169064
613.575	0.0168319
613.654	0.0166677
613.732	0.0165808
613.810	0.0167725
613.888	0.0167381
613.966	0.0166626
614.044	0.0168693
614.122	0.0168073
614.200	0.0167327
614.279	0.0167731
614.357	0.0167594
614.435	0.0167126
614.513	0.0166553
614.591	0.0167273
614.669	0.0166914
614.747	0.0166193
614.825	0.0167418
614.904	0.0167035
614.982	0.0165830
615.060	0.0167189
615.138	0.0168269
615.216	0.0167015
615.294	0.0167847
615.372	0.0169079
615.450	0.0169979
615.529	0.0167903
615.607	0.0167622
615.685	0.0166941
615.763	0.0167924
615.841	0.0166640
615.919	0.0167786
615.997	0.0168026
616.075	0.0166452
616.154	0.0167777
616.232	0.0168166
616.310	0.0168124
616.388	0.0167645
616.466	0.0167265
616.544	0.0168398
616.622	0.0167719
616.700	0.0167164
616.779	0.0166872
616.857	0.0167053
616.935	0.0168600
617.013	0.0168722
617.091	0.0168592
617.169	0.0167909
617.247	0.0166562
617.325	0.0168079
617.404	0.0168457
617.482	0.0168287
617.560	0.0167332
617.638	0.0169006
617.716	0.0167810
617.794	0.0169025
617.872	0.0166822
617.950	0.0168089
618.029	0.0167675
618.107	0.0169561
618.185	0.0168422
618.263	0.0167974
618.341	0.0166569
618.419	0.0167178
618.497	0.0167143
618.575	0.0168784
618.654	0.0166942
618.732	0.0166468
618.810	0.0168072
618.888	0.0168225
618.966	0.0167889
619.044	0.0167511
619.122	0.0167654
619.200	0.0166898
619.279	0.0166352
619.357	0.0167729
619.435	0.0166882
619.513	0.0166736
619.591	0.0167516
619.669	0.0167439
619.747	0.0167741
619.825	0.0167754
619.904	0.0167937
619.982	0.0168429
620.060	0.0167423
620.138	0.0167190
620.216	0.0166469
620.294	0.0168897
620.372	0.0166920
620.450	0.0165208
620.529	0.0168780
620.607	0.0168808
620.685	0.0167661
620.763	0.0168354
620.841	0.0167704
620.919	0.0168882
620.997	0.0168234
621.075	0.0166848
621.154	0.0167456
621.232	0.0167516
621.310	0.0168613
621.388	0.0165859
621.466	0.0168211
621.544	0.0168759
621.622	0.0169042
621.700	0.0167306
621.779	0.0167170
621.857	0.0166827
621.935	0.0167912
622.013	0.0168908
622.091	0.0169067
622.169	0.0167785
622.247	0.0167896
622.325	0.0168011
622.404	0.0169958
622.482	0.0169415
622.560	0.0168627
622.638	0.0168088
622.716	0.0168867
622.794	0.0168588
622.872	0.0167809
622.950	0.0167908
623.029	0.0167777
623.107	0.0167894
623.185	0.0168436
623.263	0.0168534
623.341	0.0168177
623.419	0.0168531
623.497	0.0169431
623.575	0.0166469
623.654	0.0167943
623.732	0.0167661
623.810	0.0167157
623.888	0.0168239
623.966	0.0168266
624.044	0.0168260
624.122	0.0167528
624.200	0.0166766
624.279	0.0167184
624.357	0.0166541
624.435	0.0167486
624.513	0.0167477
624.591	0.0168188
624.669	0.0168037
624.747	0.0167811
624.825	0.0167874
624.904	0.0167739
624.982	0.0166896
625.060	0.0168433
625.138	0.0167226
625.216	0.0167757
625.294	0.0167891
625.372	0.0168243
625.450	0.0167362
625.529	0.0167360
625.607	0.0167677
625.685	0.0166180
625.763	0.0166637
625.841	0.0167191
625.919	0.0168245
625.997	0.0167364
626.075	0.0168915
626.154	0.0167426
626.232	0.0166715
626.310	0.0167002
626.388	0.0166679
626.466	0.0169071
626.544	0.0167730
626.622	0.0166706
626.700	0.0168232
626.779	0.0166827
626.857	0.0167197
626.935	0.0166628
627.013	0.0167165
627.091	0.0166660
627.169	0.0168267
627.247	0.0166975
627.325	0.0165776
627.404	0.0166758
627.482	0.0167151
627.560	0.0167912
627.638	0.0166245
627.716	0.0167884
627.794	0.0167890
627.872	0.0166679
627.950	0.0169141
628.029	0.0167754
628.107	0.0166451
628.185	0.0166583
628.263	0.0167254
628.341	0.0168056
628.419	0.0166659
628.497	0.0167548
628.575	0.0168386
628.654	0.0167472
628.732	0.0166331
628.810	0.0167900
628.888	0.0167489
628.966	0.0167207
629.044	0.0166343
629.122	0.0166407
629.200	0.0165841
629.279	0.0165781
629.357	0.0167113
629.435	0.0166831
629.513	0.0165704
629.591	0.0165953
629.669	0.0167939
629.747	0.0166798
629.825	0.0167297
629.904	0.0166911
629.982	0.0165844
630.060	0.0167355
630.138	0.0167513
630.216	0.0166693
630.294	0.0167255
630.372	0.0168377
630.450	0.0166232
630.529	0.0166658
630.607	0.0167479
630.685	0.0167745
630.763	0.0166415
630.841	0.0167641
630.919	0.0167910
630.997	0.0167036
631.075	0.0167123
631.154	0.0166795
631.232	0.0167416
631.310	0.0166610
631.388	0.0167123
631.466	0.0167750
631.544	0.0167396
631.622	0.0166595
631.700	0.0168250
631.779	0.0167421
631.857	0.0167001
631.935	0.0168359
632.013	0.0166345
632.091	0.0167725
632.169	0.0167644
632.247	0.0166832
632.325	0.0167637
632.404	0.0167176
632.482	0.0166882
632.560	0.0168195
632.638	0.0168433
632.716	0.0168423
632.794	0.0165865
632.872	0.0167316
632.950	0.0166424
633.029	0.0168939
633.107	0.0167698
633.185	0.0167542
633.263	0.0166766
633.341	0.0166747
633.419	0.0167954
633.497	0.0168298
633.575	0.0167251
633.654	0.0167031
633.732	0.0168283
633.810	0.0167726
633.888	0.0168058
633.966	0.0166865
634.044	0.0167252
634.122	0.0167317
634.200	0.0167146
634.279	0.0167642
634.357	0.0167080
634.435	0.0167436
634.513	0.0168534
634.591	0.0167400
634.669	0.0167861
634.747	0.0166699
634.825	0.0167837
634.904	0.0166882
634.982	0.0166708
635.060	0.0167088
635.138	0.0166602
635.216	0.0167994
635.294	0.0167033
635.372	0.0165936
635.450	0.0165767
635.529	0.0167045
635.607	0.0170056
635.685	0.0167565
635.763	0.0166346
635.841	0.0166351
635.919	0.0168108
635.997	0.0167030
636.075	0.0167030
636.154	0.0167870
636.232	0.0167473
636.310	0.0168440
636.388	0.0167458
636.466	0.0166650
636.544	0.0167420
636.622	0.0168324
636.700	0.0166539
636.779	0.0166901
636.857	0.0167982
636.935	0.0167825
637.013	0.0168063
637.091	0.0166882
637.169	0.0167162
637.247	0.0168369
637.325	0.0166029
637.404	0.0166663
637.482	0.0168028
637.560	0.0167094
637.638	0.0168893
637.716	0.0167594
637.794	0.0166960
637.872	0.0167108
637.950	0.0167788
638.029	0.0167164
638.107	0.0168783
638.185	0.0167367
638.263	0.0167832
638.341	0.0167562
638.419	0.0168388
638.497	0.0169868
638.575	0.0168802
638.654	0.0167510
638.732	0.0167945
638.810	0.0167847
638.888	0.0167386
638.966	0.0167484
639.044	0.0168664
639.122	0.0167928
639.200	0.0166500
639.279	0.0168024
639.357	0.0168032
639.435	0.0167181
639.513	0.0168546
639.591	0.0169054
639.669	0.0168312
639.747	0.0167908
639.825	0.0167565
639.904	0.0168358
639.982	0.0167345
640.060	0.0168242
640.138	0.0166122
640.216	0.0168311
640.294	0.0168872
640.372	0.0168768
640.450	0.0167696
640.529	0.0167657
640.607	0.0167552
640.685	0.0167535
640.763	0.0167538
640.841	0.0167039
640.919	0.0167528
640.997	0.0167796
641.075	0.0168288
641.154	0.0168053
641.232	0.0167139
641.310	0.0167436
641.388	0.0167800
641.466	0.0168974
641.544	0.0168962
641.622	0.0168963
641.700	0.0168162
641.779	0.0166355
641.857	0.0167631
641.935	0.0168182
642.013	0.0167567
642.091	0.0168151
642.169	0.0167566
642.247	0.0167319
642.325	0.0168250
642.404	0.0169391
642.482	0.0167494
642.560	0.0168056
642.638	0.0168096
642.716	0.0168780
642.794	0.0168638
642.872	0.0168512
642.950	0.0168102
643.029	0.0168765
643.107	0.0168008
643.185	0.0167847
643.263	0.0166792
643.341	0.0166679
643.419	0.0168810
643.497	0.0168154
643.575	0.0167805
643.654	0.0170620
643.732	0.0166799
643.810	0.0167159
643.888	0.0167714
643.966	0.0167437
644.044	0.0169678
644.122	0.0168388
644.200	0.0168265
644.279	0.0168380
644.357	0.0168094
644.435	0.0169003
644.513	0.0168089
644.591	0.0168085
644.669	0.0168079
644.747	0.0168457
644.825	0.0166803
644.904	0.0166373
644.982	0.0168159
645.060	0.0168624
645.138	0.0167595
645.216	0.0168775
645.294	0.0168717
645.372	0.0168478
645.450	0.0168478
645.529	0.0169790
645.607	0.0168140
645.685	0.0167584
645.763	0.0168108
645.841	0.0168982
645.919	0.0167096
645.997	0.0168329
646.075	0.0167463
646.154	0.0168094
646.232	0.0168583
646.310	0.0167712
646.388	0.0167327
646.466	0.0167331
646.544	0.0167251
646.622	0.0168005
646.700	0.0167057
646.779	0.0167263
646.857	0.0167340
646.935	0.0167535
647.013	0.0168822
647.091	0.0169272
647.169	0.0166972
647.247	0.0166358
647.325	0.0166909
647.404	0.0166909
647.482	0.0168452
647.560	0.0169167
647.638	0.0165762
647.716	0.0166087
647.794	0.0167271
647.872	0.0167152
647.950	0.0167528
648.029	0.0167631
648.107	0.0167462
648.185	0.0167944
648.263	0.0169185
648.341	0.0166838
648.419	0.0166936
648.497	0.0166990
648.575	0.0167368
648.654	0.0167622
648.732	0.0167443
648.810	0.0167719
648.888	0.0166743
648.966	0.0167285
649.044	0.0166480
649.122	0.0167305
649.200	0.0166788
649.279	0.0166087
649.357	0.0167420
649.435	0.0166461
649.513	0.0165938
649.591	0.0168761
649.669	0.0169134
649.747	0.0168953
649.825	0.0168333
649.904	0.0168714
649.982	0.0168385
650.060	0.0167897
650.138	0.0168610
650.216	0.0167829
650.294	0.0167646
650.372	0.0168503
650.450	0.0166848
650.529	0.0166737
650.607	0.0166803
650.685	0.0166071
650.763	0.0166078
650.841	0.0165189
650.919	0.0163974
650.997	0.0163644
651.075	0.0163478
651.154	0.0165219
651.232	0.0166360
651.310	0.0168958
651.388	0.0169859
651.466	0.0170359
651.544	0.0171477
651.622	0.0171795
651.700	0.0170715
651.779	0.0169597
651.857	0.0170066
651.935	0.0169237
652.013	0.0167736
652.091	0.0165206
652.169	0.0163239
652.247	0.0161718
652.325	0.0160584
652.404	0.0160568
652.482	0.0159414
652.560	0.0160462
652.638	0.0160828
652.716	0.0163584
652.794	0.0165372
652.872	0.0169827
652.950	0.0171915
653.029	0.0173491
653.107	0.0173937
653.185	0.0174397
653.263	0.0175253
653.341	0.0174870
653.419	0.0173611
653.497	0.0171249
653.575	0.0167222
653.654	0.0165951
653.732	0.0165029
653.810	0.0162041
653.888	0.0162096
653.966	0.0160898
654.044	0.0157533
654.122	0.0158595
654.200	0.0160297
654.279	0.0159210
654.357	0.0161262
654.435	0.0164977
654.513	0.0166811
654.591	0.0168844
654.669	0.0171548
654.747	0.0174515
654.825	0.0173737
654.904	0.0172103
654.982	0.0172692
655.060	0.0172561
655.138	0.0171274
655.216	0.0168407
655.294	0.0166280
655.372	0.0165953
655.450	0.0163334
655.529	0.0161708
655.607	0.0162313
655.685	0.0163651
655.763	0.0163157
655.841	0.0164520
655.919	0.0164727
655.997	0.0164941
656.075	0.0166069
656.154	0.0167011
656.232	0.0168111
656.310	0.0168429
656.388	0.0169271
656.466	0.0168614
656.544	0.0168574
656.622	0.0169433
656.700	0.0168551
656.779	0.0168378
656.857	0.0167851
656.935	0.0167791
657.013	0.0166936
657.091	0.0169440
657.169	0.0170248
657.247	0.0170290
657.325	0.0170018
657.404	0.0170806
657.482	0.0171703
657.560	0.0171724
657.638	0.0170010
657.716	0.0167686
657.794	0.0167391
657.872	0.0166390
657.950	0.0164159
658.029	0.0162395
658.107	0.0162518
658.185	0.0163951
658.263	0.0163546
658.341	0.0162935
658.419	0.0164226
658.497	0.0164441
658.575	0.0166472
658.654	0.0169402
658.732	0.0168773
658.810	0.0171880
658.888	0.0171386
658.966	0.0173864
659.044	0.0173045
659.122	0.0172628
659.200	0.0171689
659.279	0.0172182
659.357	0.0170190
659.435	0.0167487
659.513	0.0167809
659.591	0.0167397
659.669	0.0166814
659.747	0.0164279
659.825	0.0163107
659.904	0.0163019
659.982	0.0163184
660.060	0.0162888
660.138	0.0163596
660.216	0.0164343
660.294	0.0165557
660.372	0.0167362
660.450	0.0168250
660.529	0.0169530
660.607	0.0170195
660.685	0.0171030
660.763	0.0172410
660.841	0.0172388
660.919	0.0171396
660.997	0.0171329
661.075	0.0171013
661.154	0.0170632
661.232	0.0170084
661.310	0.0168362
661.388	0.0164993
661.466	0.0167180
661.544	0.0164746
661.622	0.0164108
661.700	0.0163971
661.779	0.0163437
661.857	0.0164714
661.935	0.0165462
662.013	0.0166795
662.091	0.0167222
662.169	0.0169468
662.247	0.0169992
662.325	0.0171378
662.404	0.0171386
662.482	0.0172075
662.560	0.0172270
662.638	0.0171201
662.716	0.0170033
662.794	0.0171248
662.872	0.0169485
662.950	0.0168322
663.029	0.0167944
663.107	0.0168626
663.185	0.0167239
663.263	0.0168900
663.341	0.0169035
663.419	0.0167596
663.497	0.0168242
663.575	0.0167787
663.654	0.0166526
663.732	0.0166516
663.810	0.0165512
663.888	0.0165231
663.966	0.0162526
664.044	0.0162581
664.122	0.0162430
664.200	0.0160936
664.279	0.0161671
664.357	0.0163064
664.435	0.0163670
664.513	0.0164793
664.591	0.0165199
664.669	0.0167919
664.747	0.0168376
664.825	0.0169353
664.904	0.0171947
664.982	0.0173734
665.060	0.0174549
665.138	0.0174146
665.216	0.0175488
665.294	0.0175675
665.372	0.0174667
665.450	0.0174970
665.529	0.0173931
665.607	0.0172346
665.685	0.0170856
665.763	0.0168913
665.841	0.0168021
665.919	0.0167503
665.997	0.0165755
666.075	0.0164034
666.154	0.0163597
666.232	0.0163623
666.310	0.0163527
666.388	0.0163624
666.466	0.0164005
666.544	0.0163784
666.622	0.0163288
666.700	0.0163223
666.779	0.0164385
666.857	0.0161908
666.935	0.0162110
667.013	0.0162363
667.091	0.0162827
667.169	0.0161992
667.247	0.0161490
667.325	0.0163940
667.404	0.0162141
667.482	0.0162483
667.560	0.0162799
667.638	0.0164703
667.716	0.0165826
667.794	0.0166564
667.872	0.0167928
667.950	0.0169540
668.029	0.0172372
668.107	0.0173537
668.185	0.0176446
668.263	0.0176511
668.341	0.0176974
668.419	0.0177069
668.497	0.0176755
668.575	0.0176031
668.654	0.0176391
668.732	0.0176420
668.810	0.0176645
668.888	0.0176148
668.966	0.0173442
669.044	0.0173732
669.122	0.0172034
669.200	0.0171374
669.279	0.0168844
669.357	0.0166586
669.435	0.0167061
669.513	0.0165592
669.591	0.0165376
669.669	0.0162914
669.747	0.0162051
669.825	0.0162097
669.904	0.0161095
669.982	0.0160760
670.060	0.0159634
670.138	0.0159766
670.216	0.0160071
670.294	0.0160028
670.372	0.0160215
670.450	0.0161252
670.529	0.0163277
670.607	0.0163391
670.685	0.0165181
670.763	0.0165044
670.841	0.0164219
670.919	0.0166806
670.997	0.0167442
671.075	0.0166711
671.154	0.0166373
671.232	0.0166873
671.310	0.0165286
671.388	0.0163321
671.466	0.0164990
671.544	0.0164370
671.622	0.0165895
671.700	0.0165292
671.779	0.0165314
671.857	0.0166077
671.935	0.0165485
672.013	0.0165456
672.091	0.0166927
672.169	0.0168832
672.247	0.0167290
672.325	0.0167712
672.404	0.0169652
672.482	0.0171335
672.560	0.0173555
672.638	0.0173811
672.716	0.0175967
672.794	0.0175444
672.872	0.0176086
672.950	0.0178606
673.029	0.0178094
673.107	0.0176864
673.185	0.0178199
673.263	0.0177466
673.341	0.0175744
673.419	0.0175437
673.497	0.0174595
673.575	0.0173870
673.654	0.0172794
673.732	0.0169633
673.810	0.0169696
673.888	0.0168715
673.966	0.0164154
674.044	0.0163335
674.122	0.0161274
674.200	0.0160486
674.279	0.0158768
674.357	0.0155296
674.435	0.0152183
674.513	0.0150673
674.591	0.0151525
674.669	0.0151624
674.747	0.0151931
674.825	0.0153759
674.904	0.0155199
674.982	0.0158656
675.060	0.0160657
675.138	0.0164893
675.216	0.0167781
675.294	0.0170262
675.372	0.0172990
675.450	0.0173424
675.529	0.0174411
675.607	0.0175309
675.685	0.0173312
675.763	0.0171893
675.841	0.0171337
675.919	0.0169948
675.997	0.0168809
676.075	0.0165817
676.154	0.0165430
676.232	0.0166791
676.310	0.0164747
676.388	0.0166180
676.466	0.0167901
676.544	0.0170214
676.622	0.0172737
676.700	0.0174651
676.779	0.0176737
676.857	0.0178876
676.935	0.0180172
677.013	0.0180240
677.091	0.0180059
677.169	0.0178725
677.247	0.0176193
677.325	0.0173811
677.404	0.0170014
677.482	0.0166624
677.560	0.0160715
677.638	0.0156243
677.716	0.0152921
677.794	0.0148532
677.872	0.0144488
677.950	0.0141766
678.029	0.0139294
678.107	0.0139370
678.185	0.0139870
678.263	0.0139247
678.341	0.0142030
678.419	0.0146624
678.497	0.0150132
678.575	0.0154025
678.654	0.0157575
678.732	0.0162794
678.810	0.0168988
678.888	0.0176450
678.966	0.0180109
679.044	0.0186499
679.122	0.0192535
679.200	0.0198389
679.279	0.0203728
679.357	0.0205944
679.435	0.0208953
679.513	0.0212457
679.591	0.0211549
679.669	0.0211161
679.747	0.0209584
679.825	0.0205457
679.904	0.0200450
679.982	0.0193215
680.060	0.0186691
680.138	0.0180144
680.216	0.0170605
680.294	0.0163654
680.372	0.0157475
680.450	0.0151144
680.529	0.0145025
680.607	0.0144247
680.685	0.0141221
680.763	0.0139844
680.841	0.0138798
680.919	0.0137322
680.997	0.0137193
681.075	0.0138332
681.154	0.0140372
681.232	0.0140073
681.310	0.0140843
681.388	0.0143443
681.466	0.0143776
681.544	0.0146603
681.622	0.0147845
681.700	0.0148953
681.779	0.0151962
681.857	0.0155143
681.935	0.0156123
682.013	0.0159240
682.091	0.0163400
682.169	0.0165674
682.247	0.0168678
682.325	0.0172194
682.404	0.0176083
682.482	0.0180453
682.560	0.0185692
682.638	0.0187157
682.716	0.0190455
682.794	0.0192438
682.872	0.0192622
682.950	0.0193105
683.029	0.0190077
683.107	0.0188484
683.185	0.0183441
683.263	0.0179297
683.341	0.0173811
683.419	0.0169608
683.497	0.0164280
683.575	0.0158147
683.654	0.0151943
683.732	0.0146068
683.810	0.0142719
683.888	0.0137417
683.966	0.0134355
684.044	0.0130402
684.122	0.0129442
684.200	0.0130669
684.279	0.0133961
684.357	0.0139070
684.435	0.0144199
684.513	0.0151189
684.591	0.0160276
684.669	0.0168564
684.747	0.0178972
684.825	0.0189394
684.904	0.0199693
684.982	0.0208177
685.060	0.0215939
685.138	0.0221722
685.216	0.0228916
685.294	0.0230579
685.372	0.0235033
685.450	0.0236197
685.529	0.0236012
685.607	0.0235157
685.685	0.0233292
685.763	0.0229084
685.841	0.0224274
685.919	0.0217898
685.997	0.0210684
686.075	0.0200333
686.154	0.0189930
686.232	0.0178759
686.310	0.0163435
686.388	0.0151360
686.466	0.0137558
686.544	0.0123216
686.622	0.0109678
686.700	0.00987984
686.779	0.00882629
686.857	0.00822342
686.935	0.00772812
687.013	0.00755646
687.091	0.00753059
687.169	0.00798645
687.247	0.00836250
687.325	0.00889328
687.404	0.00974884
687.482	0.0104269
687.560	0.0114658
687.638	0.0124696
687.716	0.0132703
687.794	0.0143347
687.872	0.0155804
687.950	0.0165578
688.029	0.0176144
688.107	0.0186857
688.185	0.0195088
688.263	0.0202814
688.341	0.0208006
688.419	0.0215858
688.497	0.0219574
688.575	0.0222107
688.654	0.0223620
688.732	0.0223260
688.810	0.0221811
688.888	0.0220190
688.966	0.0215942
689.044	0.0210256
689.122	0.0209216
689.200	0.0203011
689.279	0.0198565
689.357	0.0191154
689.435	0.0186115
689.513	0.0178672
689.591	0.0172345
689.669	0.0164081
689.747	0.0156284
689.825	0.0149416
689.904	0.0142831
689.982	0.0135008
690.060	0.0129891
690.138	0.0124809
690.216	0.0120050
690.294	0.0118306
690.372	0.0121413
690.450	0.0123009
690.529	0.0127561
690.607	0.0134031
690.685	0.0142213
690.763	0.0152013
690.841	0.0162379
690.919	0.0175203
690.997	0.0187495
691.075	0.0199463
691.154	0.0210874
691.232	0.0223303
691.310	0.0234282
691.388	0.0240578
691.466	0.0247912
691.544	0.0251924
691.622	0.0252925
691.700	0.0249886
691.779	0.0245908
691.857	0.0238343
691.935	0.0228562
692.013	0.0219241
692.091	0.0205663
692.169	0.0191608
692.247	0.0179099
692.325	0.0165942
692.404	0.0153933
692.482	0.0140299
692.560	0.0130283
692.638	0.0119534
692.716	0.0110305
692.794	0.00999435
692.872	0.00946419
692.950	0.00908295
693.029	0.00891541
693.107	0.00871071
693.185	0.00900909
693.263	0.00931389
693.341	0.00987320
693.419	0.0105592
693.497	0.0112173
693.575	0.0120451
693.654	0.0128082
693.732	0.0134148
693.810	0.0141527
693.888	0.0147913
693.966	0.0153750
694.044	0.0159006
694.122	0.0161628
694.200	0.0165275
694.279	0.0167078
694.357	0.0169577
694.435	0.0171659
694.513	0.0172984
694.591	0.0172092
694.669	0.0170740
694.747	0.0169028
694.825	0.0166632
694.904	0.0164732
694.982	0.0159823
695.060	0.0156153
695.138	0.0151509
695.216	0.0148770
695.294	0.0144616
695.372	0.0142751
695.450	0.0145207
695.529	0.0145507
695.607	0.0150848
695.685	0.0157029
695.763	0.0161779
695.841	0.0172818
695.919	0.0182963
695.997	0.0195425
696.075	0.0209581
696.154	0.0221980
696.232	0.0237025
696.310	0.0249819
696.388	0.0261753
696.466	0.0272246
696.544	0.0282001
696.622	0.0284821
696.700	0.0287601
696.779	0.0286948
696.857	0.0282352
696.935	0.0273804
697.013	0.0263858
697.091	0.0249698
697.169	0.0237174
697.247	0.0221352
697.325	0.0206941
697.404	0.0189597
697.482	0.0174665
697.560	0.0160374
697.638	0.0146807
697.716	0.0134209
697.794	0.0122388
697.872	0.0113218
697.950	0.0106185
698.029	0.0100417
698.107	0.00969299
698.185	0.00937057
698.263	0.00936279
698.341	0.00932991
698.419	0.00932129
698.497	0.00958374
698.575	0.00969391
698.654	0.00985748
698.732	0.00999283
698.810	0.0102399
698.888	0.0105189
698.966	0.0107160
699.044	0.0108721
699.122	0.0113436
699.200	0.0117949
699.279	0.0122887
699.357	0.0125521
699.435	0.0129376
699.513	0.0132915
699.591	0.0137202
699.669	0.0140053
699.747	0.0143085
699.825	0.0144089
699.904	0.0144926
699.982	0.0148427
700.060	0.0146875
700.138	0.0146791
700.216	0.0146466
700.294	0.0146432
700.372	0.0146489
700.450	0.0146441
700.529	0.0144915
700.607	0.0147028
700.685	0.0151551
700.763	0.0155151
700.841	0.0159889
700.919	0.0170661
700.997	0.0179815
701.075	0.0189307
701.154	0.0204005
701.232	0.0217667
701.310	0.0230956
701.388	0.0245734
701.466	0.0257690
701.544	0.0267278
701.622	0.0273682
701.700	0.0279449
701.779	0.0282088
701.857	0.0282356
701.935	0.0280116
702.013	0.0274030
702.091	0.0268587
702.169	0.0259999
702.247	0.0252216
702.325	0.0241181
702.404	0.0231466
702.482	0.0219379
702.560	0.0207652
702.638	0.0196179
702.716	0.0186155
702.794	0.0176222
702.872	0.0165392
702.950	0.0156318
703.029	0.0149577
703.107	0.0142439
703.185	0.0135247
703.263	0.0127560
703.341	0.0122681
703.419	0.0115620
703.497	0.0112082
703.575	0.0107669
703.654	0.0104137
703.732	0.0103562
703.810	0.0100994
703.888	0.0100071
703.966	0.00996223
704.044	0.0101391
704.122	0.0103008
704.200	0.0106715
704.279	0.0108333
704.357	0.0112783
704.435	0.0117616
704.513	0.0121573
704.591	0.0125248
704.669	0.0129012
704.747	0.0132950
704.825	0.0135897
704.904	0.0137559
704.982	0.0141634
705.060	0.0141178
705.138	0.0142461
705.216	0.0144026
705.294	0.0145823
705.372	0.0146095
705.450	0.0145829
705.529	0.0147070
705.607	0.0149136
705.685	0.0149193
705.763	0.0148512
705.841	0.0152642
705.919	0.0156453
705.997	0.0160521
706.075	0.0166421
706.154	0.0172796
706.232	0.0180143
706.310	0.0189971
706.388	0.0199944
706.466	0.0210900
706.544	0.0220056
706.622	0.0228799
706.700	0.0235947
706.779	0.0240499
706.857	0.0245702
706.935	0.0249334
707.013	0.0247670
707.091	0.0246788
707.169	0.0241571
707.247	0.0237740
707.325	0.0231429
707.404	0.0224947
707.482	0.0218365
707.560	0.0210161
707.638	0.0202248
707.716	0.0194759
707.794	0.0186752
707.872	0.0179333
707.950	0.0175191
708.029	0.0170293
708.107	0.0164756
708.185	0.0160529
708.263	0.0157495
708.341	0.0153015
708.419	0.0152521
708.497	0.0149130
708.575	0.0147627
708.654	0.0144759
708.732	0.0141197
708.810	0.0141106
708.888	0.0138288
708.966	0.0136938
709.044	0.0135395
709.122	0.0133704
709.200	0.0131154
709.279	0.0130791
709.357	0.0128887
709.435	0.0129044
709.513	0.0127602
709.591	0.0124843
709.669	0.0125324
709.747	0.0127775
709.825	0.0126623
709.904	0.0129333
709.982	0.0130908
710.060	0.0134425
710.138	0.0138377
710.216	0.0141714
710.294	0.0146318
710.372	0.0149963
710.450	0.0153503
710.529	0.0157420
710.607	0.0160477
710.685	0.0164240
710.763	0.0168436
710.841	0.0171108
710.919	0.0173102
710.997	0.0174506
711.075	0.0176132
711.154	0.0178341
711.232	0.0179542
711.310	0.0182245
711.388	0.0184534
711.466	0.0186739
711.544	0.0189476
711.622	0.0192758
711.700	0.0195969
711.779	0.0200397
711.857	0.0201379
711.935	0.0202928
712.013	0.0204503
712.091	0.0205331
712.169	0.0205566
712.247	0.0204811
712.325	0.0204729
712.404	0.0201789
712.482	0.0200343
712.560	0.0196465
712.638	0.0193414
712.716	0.0190392
712.794	0.0188110
712.872	0.0183755
712.950	0.0179756
713.029	0.0178932
713.107	0.0174409
713.185	0.0172965
713.263	0.0170428
713.341	0.0168005
713.419	0.0165456
713.497	0.0163451
713.575	0.0159367
713.654	0.0158074
713.732	0.0155136
713.810	0.0151401
713.888	0.0147520
713.966	0.0142910
714.044	0.0141932
714.122	0.0137138
714.200	0.0135387
714.279	0.0132691
714.357	0.0131445
714.435	0.0128625
714.513	0.0126763
714.591	0.0126859
714.669	0.0127715
714.747	0.0128082
714.825	0.0130743
714.904	0.0132499
714.982	0.0137061
715.060	0.0140876
715.138	0.0146429
715.216	0.0150556
715.294	0.0154121
715.372	0.0158879
715.450	0.0164795
715.529	0.0165623
715.607	0.0170116
715.685	0.0173288
715.763	0.0177160
715.841	0.0177653
715.919	0.0178918
715.997	0.0182022
716.075	0.0182254
716.154	0.0182127
716.232	0.0182608
716.310	0.0183409
716.388	0.0183467
716.466	0.0183775
716.544	0.0183628
716.622	0.0182631
716.700	0.0183262
716.779	0.0185428
716.857	0.0184851
716.935	0.0185592
717.013	0.0187033
717.091	0.0186133
717.169	0.0186870
717.247	0.0185196
717.325	0.0183150
717.404	0.0183568
717.482	0.0182107
717.560	0.0180318
717.638	0.0180330
717.716	0.0177955
717.794	0.0175970
717.872	0.0176019
717.950	0.0174008
718.029	0.0172310
718.107	0.0173773
718.185	0.0172425
718.263	0.0172184
718.341	0.0172182
718.419	0.0171684
718.497	0.0173311
718.575	0.0172623
718.654	0.0172652
718.732	0.0172797
718.810	0.0174108
718.888	0.0172042
718.966	0.0170725
719.044	0.0170168
719.122	0.0168696
719.200	0.0166206
719.279	0.0164980
719.357	0.0162660
719.435	0.0159998
719.513	0.0155714
719.591	0.0154620
719.669	0.0152877
719.747	0.0149181
719.825	0.0148352
719.904	0.0146198
719.982	0.0144662
720.060	0.0141367
720.138	0.0140980
720.216	0.0141187
720.294	0.0139303
720.372	0.0140984
720.450	0.0141926
720.529	0.0142433
720.607	0.0143253
720.685	0.0147322
720.763	0.0148510
720.841	0.0151804
720.919	0.0154316
720.997	0.0157411
721.075	0.0162179
721.154	0.0165694
721.232	0.0170128
721.310	0.0173140
721.388	0.0176213
721.466	0.0179484
721.544	0.0181432
721.622	0.0183666
721.700	0.0184402
721.779	0.0185801
721.857	0.0183437
721.935	0.0182525
722.013	0.0182286
722.091	0.0181051
722.169	0.0180454
722.247	0.0176630
722.325	0.0175471
722.404	0.0172597
722.482	0.0171114
722.560	0.0168172
722.638	0.0167119
722.716	0.0164658
722.794	0.0164291
722.872	0.0163760
722.950	0.0164736
723.029	0.0165625
723.107	0.0165041
723.185	0.0165461
723.263	0.0168546
723.341	0.0170766
723.419	0.0173380
723.497	0.0177625
723.575	0.0180325
723.654	0.0181111
723.732	0.0186966
723.810	0.0188154
723.888	0.0188461
723.966	0.0189567
724.044	0.0190101
724.122	0.0190784
724.200	0.0189227
724.279	0.0188609
724.357	0.0185373
724.435	0.0182778
724.513	0.0177832
724.591	0.0174261
724.669	0.0171300
724.747	0.0166510
724.825	0.0161978
724.904	0.0158811
724.982	0.0155399
725.060	0.0153122
725.138	0.0150539
725.216	0.0148369
725.294	0.0147861
725.372	0.0146571
725.450	0.0146842
725.529	0.0148112
725.607	0.0149654
725.685	0.0150842
725.763	0.0152750
725.841	0.0155558
725.919	0.0156275
725.997	0.0159332
726.075	0.0163193
726.154	0.0165766
726.232	0.0167184
726.310	0.0167911
726.388	0.0169123
726.466	0.0169549
726.544	0.0169260
726.622	0.0170618
726.700	0.0169901
726.779	0.0169780
726.857	0.0168880
726.935	0.0169293
727.013	0.0168307
727.091	0.0167659
727.169	0.0169447
727.247	0.0167847
727.325	0.0168375
727.404	0.0168727
727.482	0.0167041
727.560	0.0168488
727.638	0.0169395
727.716	0.0167284
727.794	0.0168264
727.872	0.0170073
727.950	0.0169341
728.029	0.0169323
728.107	0.0166884
728.185	0.0165312
728.263	0.0166826
728.341	0.0164427
728.419	0.0164589
728.497	0.0163954
728.575	0.0160935
728.654	0.0161580
728.732	0.0162082
728.810	0.0161381
728.888	0.0162709
728.966	0.0164082
729.044	0.0165314
729.122	0.0166045
729.200	0.0167499
729.279	0.0169375
729.357	0.0171353
729.435	0.0173470
729.513	0.0174752
729.591	0.0176078
729.669	0.0176835
729.747	0.0178265
729.825	0.0179037
729.904	0.0178181
729.982	0.0178291
730.060	0.0178809
730.138	0.0178469
730.216	0.0176713
730.294	0.0173271
730.372	0.0173534
730.450	0.0171213
730.529	0.0169039
730.607	0.0167211
730.685	0.0165170
730.763	0.0162762
730.841	0.0160682
730.919	0.0160339
730.997	0.0158887
731.075	0.0158832
731.154	0.0156647
731.232	0.0155795
731.310	0.0157074
731.388	0.0156614
731.466	0.0157066
731.544	0.0158210
731.622	0.0158376
731.700	0.0159901
731.779	0.0161031
731.857	0.0161833
731.935	0.0163757
732.013	0.0165634
732.091	0.0166792
732.169	0.0170192
732.247	0.0171212
732.325	0.0171806
732.404	0.0173581
732.482	0.0176024
732.560	0.0177064
732.638	0.0177723
732.716	0.0177646
732.794	0.0178082
732.872	0.0177172
732.950	0.0178340
733.029	0.0177123
733.107	0.0175694
733.185	0.0175391
733.263	0.0174921
733.341	0.0175317
733.419	0.0172517
733.497	0.0171874
733.575	0.0170566
733.654	0.0169633
733.732	0.0168014
733.810	0.0165966
733.888	0.0164088
733.966	0.0164964
734.044	0.0162489
734.122	0.0161345
734.200	0.0160469
734.279	0.0159417
734.357	0.0160183
734.435	0.0158897
734.513	0.0159318
734.591	0.0158921
734.669	0.0160159
734.747	0.0159951
734.825	0.0160720
734.904	0.0161480
734.982	0.0163509
735.060	0.0163148
735.138	0.0163676
735.216	0.0166199
735.294	0.0167715
735.372	0.0167119
735.450	0.0168375
735.529	0.0170166
735.607	0.0168857
735.685	0.0170424
735.763	0.0169014
735.841	0.0170470
735.919	0.0170398
735.997	0.0169344
736.075	0.0170329
736.154	0.0169341
736.232	0.0168081
736.310	0.0168959
736.388	0.0167451
736.466	0.0166239
736.544	0.0166367
736.622	0.0164712
736.700	0.0163895
736.779	0.0163832
736.857	0.0163351
736.935	0.0162456
737.013	0.0160769
737.091	0.0161586
737.169	0.0161201
737.247	0.0160823
737.325	0.0160722
737.404	0.0161821
737.482	0.0162038
737.560	0.0161942
737.638	0.0163042
737.716	0.0164553
737.794	0.0165710
737.872	0.0166275
737.950	0.0168355
738.029	0.0170032
738.107	0.0170741
738.185	0.0171471
738.263	0.0174802
738.341	0.0174758
738.419	0.0176333
738.497	0.0178224
738.575	0.0177128
738.654	0.0176582
738.732	0.0179089
738.810	0.0177434
738.888	0.0176399
738.966	0.0176954
739.044	0.0177277
739.122	0.0174271
739.200	0.0173679
739.279	0.0171956
739.357	0.0169058
739.435	0.0168685
739.513	0.0167561
739.591	0.0165333
739.669	0.0164742
739.747	0.0164106
739.825	0.0164464
739.904	0.0162568
739.982	0.0163762
740.060	0.0162957
740.138	0.0161871
740.216	0.0162323
740.294	0.0161857
740.372	0.0162291
740.450	0.0162543
740.529	0.0164492
740.607	0.0164361
740.685	0.0164204
740.763	0.0165433
740.841	0.0165606
740.919	0.0166728
740.997	0.0168117
741.075	0.0167184
741.154	0.0169160
741.232	0.0169934
741.310	0.0170890
741.388	0.0171643
741.466	0.0171492
741.544	0.0171619
741.622	0.0173389
741.700	0.0173486
741.779	0.0172220
741.857	0.0173524
741.935	0.0174150
742.013	0.0173307
742.091	0.0170785
742.169	0.0171643
742.247	0.0168945
742.325	0.0167625
742.404	0.0166744
742.482	0.0166022
742.560	0.0164031
742.638	0.0162337
742.716	0.0161533
742.794	0.0161288
742.872	0.0160041
742.950	0.0159871
743.029	0.0159441
743.107	0.0159303
743.185	0.0158886
743.263	0.0158749
743.341	0.0160540
743.419	0.0160113
743.497	0.0159861
743.575	0.0160300
743.654	0.0161758
743.732	0.0162119
743.810	0.0162535
743.888	0.0164271
743.966	0.0165598
744.044	0.0167512
744.122	0.0168066
744.200	0.0169704
744.279	0.0169759
744.357	0.0168997
744.435	0.0172594
744.513	0.0173496
744.591	0.0171399
744.669	0.0172208
744.747	0.0172603
744.825	0.0171330
744.904	0.0172428
744.982	0.0170444
745.060	0.0171758
745.138	0.0170688
745.216	0.0168753
745.294	0.0168690
745.372	0.0169788
745.450	0.0168599
745.529	0.0168304
745.607	0.0167503
745.685	0.0168813
745.763	0.0168492
745.841	0.0168421
745.919	0.0168984
745.997	0.0168576
746.075	0.0167528
746.154	0.0168485
746.232	0.0168439
746.310	0.0167352
746.388	0.0168002
746.466	0.0168983
746.544	0.0169133
746.622	0.0168191
746.700	0.0168047
746.779	0.0170953
746.857	0.0169524
746.935	0.0168879
747.013	0.0169003
747.091	0.0170865
747.169	0.0172261
747.247	0.0169322
747.325	0.0171900
747.404	0.0171143
747.482	0.0171184
747.560	0.0169614
747.638	0.0168698
747.716	0.0171669
747.794	0.0170688
747.872	0.0170422
747.950	0.0169247
748.029	0.0168580
748.107	0.0167884
748.185	0.0169377
748.263	0.0168250
748.341	0.0167607
748.419	0.0167139
748.497	0.0166818
748.575	0.0167162
748.654	0.0166403
748.732	0.0164498
748.810	0.0164291
748.888	0.0164933
748.966	0.0164612
749.044	0.0163103
749.122	0.0163596
749.200	0.0162930
749.279	0.0162495
749.357	0.0162167
749.435	0.0162787
749.513	0.0162780
749.591	0.0162951
749.669	0.0163450
749.747	0.0162846
749.825	0.0163667
749.904	0.0164707
749.982	0.0164027
750.060	0.0165092
750.138	0.0166512
750.216	0.0165910
750.294	0.0167246
750.372	0.0167595
750.450	0.0167402
750.529	0.0168500
750.607	0.0169791
750.685	0.0169963
750.763	0.0169312
750.841	0.0169949
750.919	0.0168731
750.997	0.0167786
751.075	0.0168783
751.154	0.0168485
751.232	0.0167574
751.310	0.0167401
751.388	0.0164734
751.466	0.0164626
751.544	0.0164803
751.622	0.0163829
751.700	0.0163132
751.779	0.0163751
751.857	0.0164182
751.935	0.0163745
752.013	0.0163838
752.091	0.0163390
752.169	0.0164420
752.247	0.0163889
752.325	0.0164540
752.404	0.0165698
752.482	0.0166959
752.560	0.0168065
752.638	0.0167598
752.716	0.0167665
752.794	0.0171580
752.872	0.0171941
752.950	0.0171251
753.029	0.0173049
753.107	0.0172569
753.185	0.0172149
753.263	0.0173856
753.341	0.0172459
753.419	0.0172373
753.497	0.0171553
753.575	0.0171805
753.654	0.0170442
753.732	0.0170638
753.810	0.0170284
753.888	0.0168938
753.966	0.0168224
754.044	0.0167685
754.122	0.0168156
754.200	0.0166603
754.279	0.0167959
754.357	0.0168826
754.435	0.0166069
754.513	0.0166940
754.591	0.0167747
754.669	0.0166504
754.747	0.0166180
754.825	0.0165627
754.904	0.0166167
754.982	0.0165083
755.060	0.0165848
755.138	0.0165428
755.216	0.0165869
755.294	0.0164230
755.372	0.0165094
755.450	0.0166348
755.529	0.0167747
755.607	0.0168487
755.685	0.0168095
755.763	0.0169112
755.841	0.0168993
755.919	0.0169846
755.997	0.0169527
756.075	0.0169926
756.154	0.0168495
756.232	0.0169051
756.310	0.0169389
756.388	0.0168410
756.466	0.0167527
756.544	0.0168426
756.622	0.0167657
756.700	0.0164727
756.779	0.0164885
756.857	0.0163732
756.935	0.0162587
757.013	0.0162328
757.091	0.0162688
757.169	0.0161346
757.247	0.0160309
757.325	0.0161150
757.404	0.0161057
757.482	0.0162205
757.560	0.0163353
757.638	0.0163875
757.716	0.0163743
757.794	0.0165751
757.872	0.0168549
757.950	0.0168040
758.029	0.0168625
758.107	0.0169981
758.185	0.0169725
758.263	0.0170340
758.341	0.0169527
758.419	0.0170430
758.497	0.0170148
758.575	0.0170178
758.654	0.0170097
758.732	0.0169470
758.810	0.0168574
758.888	0.0168848
758.966	0.0168391
759.044	0.0167796
759.122	0.0168168
759.200	0.0167338
759.279	0.0167745
759.357	0.0167416
759.435	0.0167223
759.513	0.0165137
759.591	0.0166530
759.669	0.0166340
759.747	0.0166393
759.825	0.0166557
759.904	0.0165652
759.982	0.0166381
760.060	0.0167230
760.138	0.0167380
760.216	0.0167789
760.294	0.0168224
760.372	0.0167719
760.450	0.0168403
760.529	0.0167564
760.607	0.0168301
760.685	0.0168657
760.763	0.0168882
760.841	0.0167182
760.919	0.0167223
760.997	0.0167577
761.075	0.0167552
761.154	0.0167417
761.232	0.0166388
761.310	0.0164743
761.388	0.0165173
761.466	0.0165768
761.544	0.0165353
761.622	0.0165730
761.700	0.0164806
761.779	0.0165548
761.857	0.0165902
761.935	0.0167242
762.013	0.0168246
762.091	0.0168352
762.169	0.0168779
762.247	0.0170509
762.325	0.0171301
762.404	0.0170779
762.482	0.0171250
762.560	0.0171593
762.638	0.0173100
762.716	0.0170664
762.794	0.0171749
762.872	0.0170395
762.950	0.0169944
763.029	0.0168996
763.107	0.0168325
763.185	0.0166061
763.263	0.0167103
763.341	0.0167150
763.419	0.0165196
763.497	0.0163888
763.575	0.0162943
763.654	0.0161663
763.732	0.0161584
763.810	0.0162078
763.888	0.0163648
763.966	0.0162717
764.044	0.0161813
764.122	0.0165624
764.200	0.0165270
764.279	0.0164693
764.357	0.0166114
764.435	0.0167595
764.513	0.0169350
764.591	0.0170021
764.669	0.0170880
764.747	0.0169561
764.825	0.0171129
764.904	0.0170895
764.982	0.0169371
765.060	0.0170312
765.138	0.0169756
765.216	0.0169841
765.294	0.0167240
765.372	0.0167132
765.450	0.0166420
765.529	0.0166892
765.607	0.0167235
765.685	0.0164971
765.763	0.0165408
765.841	0.0165893
765.919	0.0165728
765.997	0.0166390
766.075	0.0167009
766.154	0.0167013
766.232	0.0166718
766.310	0.0167972
766.388	0.0168928
766.466	0.0167247
766.544	0.0168662
766.622	0.0167411
766.700	0.0169239
766.779	0.0168963
766.857	0.0167849
766.935	0.0167808
767.013	0.0166578
767.091	0.0165406
767.169	0.0163977
767.247	0.0163396
767.325	0.0163422
767.404	0.0163979
767.482	0.0163890
767.560	0.0161434
767.638	0.0161046
767.716	0.0163160
767.794	0.0161186
767.872	0.0161613
767.950	0.0162480
768.029	0.0163236
768.107	0.0165923
768.185	0.0165182
768.263	0.0167120
768.341	0.0167068
768.419	0.0168885
768.497	0.0171407
768.575	0.0171098
768.654	0.0172166
768.732	0.0172524
768.810	0.0173720
768.888	0.0172760
768.966	0.0172668
769.044	0.0174647
769.122	0.0174271
769.200	0.0174563
769.279	0.0172362
769.357	0.0173297
769.435	0.0170474
769.513	0.0170697
769.591	0.0170124
769.669	0.0168163
769.747	0.0168275
769.825	0.0168041
769.904	0.0166137
769.982	0.0166115
770.060	0.0165704
770.138	0.0164635
770.216	0.0165984
770.294	0.0164721
770.372	0.0164270
770.450	0.0165528
770.529	0.0164643
770.607	0.0165562
770.685	0.0164524
770.763	0.0165406
770.841	0.0165983
770.919	0.0167332
770.997	0.0166909
771.075	0.0167892
771.154	0.0167805
771.232	0.0167082
771.310	0.0167708
771.388	0.0167339
771.466	0.0168330
771.544	0.0167741
771.622	0.0166678
771.700	0.0165807
771.779	0.0165421
771.857	0.0166697
771.935	0.0166026
772.013	0.0165877
772.091	0.0166527
772.169	0.0165561
772.247	0.0167268
772.325	0.0167141
772.404	0.0168076
772.482	0.0168462
772.560	0.0167351
772.638	0.0168380
772.716	0.0169844
772.794	0.0170026
772.872	0.0169820
772.950	0.0169703
773.029	0.0171194
773.107	0.0169026
773.185	0.0169866
773.263	0.0169697
773.341	0.0169560
773.419	0.0169148
773.497	0.0169379
773.575	0.0167616
773.654	0.0166464
773.732	0.0165060
773.810	0.0165760
773.888	0.0166076
773.966	0.0163921
774.044	0.0165377
774.122	0.0163931
774.200	0.0163932
774.279	0.0164936
774.357	0.0163072
774.435	0.0163468
774.513	0.0163734
774.591	0.0163769
774.669	0.0163522
774.747	0.0164333
774.825	0.0164871
774.904	0.0164625
774.982	0.0165257
775.060	0.0166847
775.138	0.0168687
775.216	0.0167789
775.294	0.0168288
775.372	0.0170092
775.450	0.0170253
775.529	0.0169305
775.607	0.0170883
775.685	0.0169203
775.763	0.0169156
775.841	0.0169856
775.919	0.0167968
775.997	0.0168542
776.075	0.0168386
776.154	0.0168891
776.232	0.0168983
776.310	0.0167619
776.388	0.0166089
776.466	0.0168030
776.544	0.0168373
776.622	0.0167612
776.700	0.0168330
776.779	0.0168572
776.857	0.0168004
776.935	0.0169318
777.013	0.0168434
777.091	0.0168817
777.169	0.0170366
777.247	0.0168597
777.325	0.0168784
777.404	0.0168540
777.482	0.0168625
777.560	0.0168900
777.638	0.0167967
777.716	0.0166254
777.794	0.0166925
777.872	0.0166608
777.950	0.0166940
778.029	0.0165620
778.107	0.0164210
778.185	0.0167465
778.263	0.0163818
778.341	0.0164585
778.419	0.0165110
778.497	0.0165535
778.575	0.0165808
778.654	0.0166378
778.732	0.0166104
778.810	0.0167164
778.888	0.0165647
778.966	0.0165797
779.044	0.0166869
779.122	0.0168304
779.200	0.0166994
779.279	0.0166763
779.357	0.0169408
779.435	0.0166113
779.513	0.0167058
779.591	0.0168594
779.669	0.0167812
779.747	0.0168637
779.825	0.0168257
779.904	0.0167431
779.982	0.0167270
780.060	0.0167184
780.138	0.0167392
780.216	0.0168103
780.294	0.0167541
780.372	0.0167489
780.450	0.0167099
780.529	0.0166599
780.607	0.0167449
780.685	0.0167224
780.763	0.0167345
780.841	0.0168858
780.919	0.0166534
780.997	0.0168111
781.075	0.0168351
781.154	0.0168822
781.232	0.0168834
781.310	0.0169888
781.388	0.0169897
781.466	0.0168602
781.544	0.0169740
781.622	0.0170901
781.700	0.0171960
781.779	0.0172961
781.857	0.0171957
781.935	0.0171636
782.013	0.0172305
782.091	0.0170317
782.169	0.0172412
782.247	0.0171650
782.325	0.0169607
782.404	0.0169674
782.482	0.0168507
782.560	0.0168300
782.638	0.0168652
782.716	0.0168342
782.794	0.0166249
782.872	0.0166419
782.950	0.0164137
783.029	0.0164488
783.107	0.0164771
783.185	0.0163145
783.263	0.0162431
783.341	0.0161490
783.419	0.0160951
783.497	0.0160104
783.575	0.0159256
783.654	0.0158469
783.732	0.0159883
783.810	0.0159414
783.888	0.0159113
783.966	0.0159692
784.044	0.0159943
784.122	0.0161871
784.200	0.0161638
784.279	0.0161910
784.357	0.0161957
784.435	0.0162789
784.513	0.0164435
784.591	0.0165865
784.669	0.0166157
784.747	0.0166537
784.825	0.0164980
784.904	0.0168123
784.982	0.0169318
785.060	0.0170023
785.138	0.0172231
785.216	0.0171914
785.294	0.0172990
785.372	0.0174202
785.450	0.0173582
785.529	0.0173557
785.607	0.0172465
785.685	0.0174014
785.763	0.0174677
785.841	0.0173461
785.919	0.0173557
785.997	0.0172545
786.075	0.0172990
786.154	0.0171025
786.232	0.0170296
786.310	0.0170850
786.388	0.0169482
786.466	0.0169209
786.544	0.0168635
786.622	0.0167578
786.700	0.0166821
786.779	0.0167402
786.857	0.0166503
786.935	0.0164647
787.013	0.0165569
787.091	0.0164859
787.169	0.0166273
787.247	0.0166879
787.325	0.0166653
787.404	0.0168382
787.482	0.0169107
787.560	0.0168292
787.638	0.0168665
787.716	0.0168819
787.794	0.0171645
787.872	0.0171114
787.950	0.0170651
788.029	0.0170813
788.107	0.0171248
788.185	0.0170108
788.263	0.0170132
788.341	0.0172204
788.419	0.0168748
788.497	0.0167644
788.575	0.0167894
788.654	0.0166297
788.732	0.0165797
788.810	0.0166401
788.888	0.0165696
788.966	0.0163887
789.044	0.0162651
789.122	0.0162988
789.200	0.0163900
789.279	0.0161658
789.357	0.0162658
789.435	0.0162302
789.513	0.0162289
789.591	0.0161906
789.669	0.0162216
789.747	0.0163198
789.825	0.0161948
789.904	0.0162746
789.982	0.0161251
790.060	0.0161771
790.138	0.0163461
790.216	0.0163553
790.294	0.0164915
790.372	0.0165917
790.450	0.0164619
790.529	0.0164789
790.607	0.0166864
790.685	0.0165797
790.763	0.0166233
790.841	0.0166403
790.919	0.0167094
790.997	0.0165694
791.075	0.0166856
791.154	0.0165972
791.232	0.0166064
791.310	0.0166405
791.388	0.0166272
791.466	0.0167769
791.544	0.0167909
791.622	0.0166839
791.700	0.0167493
791.779	0.0168598
791.857	0.0169524
791.935	0.0170747
792.013	0.0169607
792.091	0.0172050
792.169	0.0171675
792.247	0.0172870
792.325	0.0175201
792.404	0.0175514
792.482	0.0175026
792.560	0.0174527
792.638	0.0175474
792.716	0.0175633
792.794	0.0175622
792.872	0.0174933
792.950	0.0174195
793.029	0.0174122
793.107	0.0174689
793.185	0.0173600
793.263	0.0173122
793.341	0.0172031
793.419	0.0170950
793.497	0.0169747
793.575	0.0168859
793.654	0.0169083
793.732	0.0167954
793.810	0.0167223
793.888	0.0167598
793.966	0.0166719
794.044	0.0167371
794.122	0.0167278
794.200	0.0165560
794.279	0.0167445
794.357	0.0166707
794.435	0.0166131
794.513	0.0166507
794.591	0.0166956
794.669	0.0165720
794.747	0.0165578
794.825	0.0166568
794.904	0.0165150
794.982	0.0164499
795.060	0.0163219
795.138	0.0161971
795.216	0.0162106
795.294	0.0160725
795.372	0.0159132
795.450	0.0159637
795.529	0.0159421
795.607	0.0157742
795.685	0.0157622
795.763	0.0157372
795.841	0.0158477
795.919	0.0157527
795.997	0.0157342
796.075	0.0156918
796.154	0.0158288
796.232	0.0159463
796.310	0.0160571
796.388	0.0161800
796.466	0.0161806
796.544	0.0163020
796.622	0.0164000
796.700	0.0165707
796.779	0.0165858
796.857	0.0166450
796.935	0.0166887
797.013	0.0167900
797.091	0.0168987
797.169	0.0170151
797.247	0.0170441
797.325	0.0172033
797.404	0.0172585
797.482	0.0173370
797.560	0.0174720
797.638	0.0176382
797.716	0.0177703
797.794	0.0177493
797.872	0.0177466
797.950	0.0178188
798.029	0.0179721
798.107	0.0179459
798.185	0.0178265
798.263	0.0178514
798.341	0.0177197
798.419	0.0176489
798.497	0.0175208
798.575	0.0175232
798.654	0.0174934
798.732	0.0173423
798.810	0.0171950
798.888	0.0171642
798.966	0.0170390
799.044	0.0169913
799.122	0.0170458
799.200	0.0167487
799.279	0.0170686
799.357	0.0169922
799.435	0.0167343
799.513	0.0168382
799.591	0.0167409
799.669	0.0167264
799.747	0.0165022
799.825	0.0165086
799.904	0.0164381
799.982	0.0162692
800.060	0.0164373
800.138	0.0163145
800.216	0.0162499
800.294	0.0160748
800.372	0.0160487
800.450	0.0160773
800.529	0.0159755
800.607	0.0157685
800.685	0.0158145
800.763	0.0157397
800.841	0.0158658
800.919	0.0157561
800.997	0.0158383
801.075	0.0159361
801.154	0.0159453
801.232	0.0158379
801.310	0.0159140
801.388	0.0159959
801.466	0.0161218
801.544	0.0161873
801.622	0.0163152
801.700	0.0164977
801.779	0.0164539
801.857	0.0165204
801.935	0.0166001
802.013	0.0167364
802.091	0.0167940
802.169	0.0167137
802.247	0.0169629
802.325	0.0169985
802.404	0.0171520
802.482	0.0171465
802.560	0.0172401
802.638	0.0173019
802.716	0.0174433
802.794	0.0175168
802.872	0.0174934
802.950	0.0174566
803.029	0.0175666
803.107	0.0175621
803.185	0.0176861
803.263	0.0175532
803.341	0.0175965
803.419	0.0175117
803.497	0.0175010
803.575	0.0174376
803.654	0.0172565
803.732	0.0173425
803.810	0.0172562
803.888	0.0172168
803.966	0.0170892
804.044	0.0170636
804.122	0.0169598
804.200	0.0168199
804.279	0.0167935
804.357	0.0166763
804.435	0.0165804
804.513	0.0165952
804.591	0.0166058
804.669	0.0165335
804.747	0.0165008
804.825	0.0164790
804.904	0.0163361
804.982	0.0165264
805.060	0.0165433
805.138	0.0165244
805.216	0.0164836
805.294	0.0164038
805.372	0.0165111
805.450	0.0165231
805.529	0.0162733
805.607	0.0165321
805.685	0.0164295
805.763	0.0165555
805.841	0.0165495
805.919	0.0164584
805.997	0.0165210
806.075	0.0167005
806.154	0.0164479
806.232	0.0166566
806.310	0.0166837
806.388	0.0166517
806.466	0.0167042
806.544	0.0168760
806.622	0.0168063
806.700	0.0168806
806.779	0.0168571
806.857	0.0167695
806.935	0.0168263
807.013	0.0168648
807.091	0.0167979
807.169	0.0169135
807.247	0.0168788
807.325	0.0168287
807.404	0.0166708
807.482	0.0166006
807.560	0.0167918
807.638	0.0167247
807.716	0.0168238
807.794	0.0166935
807.872	0.0167754
807.950	0.0167420
808.029	0.0168990
808.107	0.0169096
808.185	0.0168826
808.263	0.0169385
808.341	0.0170274
808.419	0.0170815
808.497	0.0171014
808.575	0.0170016
808.654	0.0170648
808.732	0.0170874
808.810	0.0169048
808.888	0.0169103
808.966	0.0167436
809.044	0.0167365
809.122	0.0166185
809.200	0.0166401
809.279	0.0165919
809.357	0.0166178
809.435	0.0165865
809.513	0.0164810
809.591	0.0165183
809.669	0.0165823
809.747	0.0166098
809.825	0.0167593
809.904	0.0166592
809.982	0.0167355
810.060	0.0166989
810.138	0.0167272
810.216	0.0168974
810.294	0.0168303
810.372	0.0168063
810.450	0.0167129
810.529	0.0167199
810.607	0.0166503
810.685	0.0166726
810.763	0.0165719
810.841	0.0166132
810.919	0.0165901
810.997	0.0164950
811.075	0.0163821
811.154	0.0163014
811.232	0.0164503
811.310	0.0163911
811.388	0.0165945
811.466	0.0165367
811.544	0.0165343
811.622	0.0166618
811.700	0.0167036
811.779	0.0168791
811.857	0.0169685
811.935	0.0171002
812.013	0.0171653
812.091	0.0172741
812.169	0.0172898
812.247	0.0172661
812.325	0.0171404
812.404	0.0170532
812.482	0.0172654
812.560	0.0170834
812.638	0.0168886
812.716	0.0168172
812.794	0.0170257
812.872	0.0167589
812.950	0.0166840
813.029	0.0166869
813.107	0.0165807
813.185	0.0165635
813.263	0.0165757
813.341	0.0165881
813.419	0.0165139
813.497	0.0163099
813.575	0.0163720
813.654	0.0164332
813.732	0.0164359
813.810	0.0163489
813.888	0.0163914
813.966	0.0164591
814.044	0.0165822
814.122	0.0165671
814.200	0.0166532
814.279	0.0165130
814.357	0.0168037
814.435	0.0166071
814.513	0.0167181
814.591	0.0168880
814.669	0.0167940
814.747	0.0167933
814.825	0.0168601
814.904	0.0169632
814.982	0.0170915
815.060	0.0171083
815.138	0.0171429
815.216	0.0170222
815.294	0.0170033
815.372	0.0168471
815.450	0.0168715
815.529	0.0168906
815.607	0.0168951
815.685	0.0167339
815.763	0.0167935
815.841	0.0166354
815.919	0.0167199
815.997	0.0164451
816.075	0.0165036
816.154	0.0162807
816.232	0.0162409
816.310	0.0160285
816.388	0.0159737
816.466	0.0160994
816.544	0.0161253
816.622	0.0161443
816.700	0.0160633
816.779	0.0159815
816.857	0.0159978
816.935	0.0162153
817.013	0.0162933
817.091	0.0164186
817.169	0.0164375
817.247	0.0165334
817.325	0.0166614
817.404	0.0169060
817.482	0.0169479
817.560	0.0169101
817.638	0.0171696
817.716	0.0170613
817.794	0.0171562
817.872	0.0171423
817.950	0.0171861
818.029	0.0173798
818.107	0.0173907
818.185	0.0174944
818.263	0.0172941
818.341	0.0172972
818.419	0.0173161
818.497	0.0172921
818.575	0.0172820
818.654	0.0170898
818.732	0.0168964
818.810	0.0169701
818.888	0.0169171
818.966	0.0168730
819.044	0.0168321
819.122	0.0168416
819.200	0.0168175
819.279	0.0165630
819.357	0.0166021
819.435	0.0164850
819.513	0.0165070
819.591	0.0165987
819.669	0.0165292
819.747	0.0163590
819.825	0.0164661
819.904	0.0164516
819.982	0.0165676
820.060	0.0166849
820.138	0.0167271
820.216	0.0167799
820.294	0.0166599
820.372	0.0168262
820.450	0.0169910
820.529	0.0169477
820.607	0.0169154
820.685	0.0168909
820.763	0.0169566
820.841	0.0170455
820.919	0.0169720
820.997	0.0168686
821.075	0.0168909
821.154	0.0168552
821.232	0.0169449
821.310	0.0167553
821.388	0.0166191
821.466	0.0166099
821.544	0.0166498
821.622	0.0165326
821.700	0.0164732
821.779	0.0164858
821.857	0.0163166
821.935	0.0164072
822.013	0.0163276
822.091	0.0162926
822.169	0.0163058
822.247	0.0163336
822.325	0.0163599
822.404	0.0163946
822.482	0.0165083
822.560	0.0164841
822.638	0.0164686
822.716	0.0165697
822.794	0.0165864
822.872	0.0165715
822.950	0.0167215
823.029	0.0167644
823.107	0.0167347
823.185	0.0168389
823.263	0.0168936
823.341	0.0169856
823.419	0.0170303
823.497	0.0171743
823.575	0.0171597
823.654	0.0171809
823.732	0.0172524
823.810	0.0173594
823.888	0.0172572
823.966	0.0172778
824.044	0.0172366
824.122	0.0172003
824.200	0.0170788
824.279	0.0169527
824.357	0.0170045
824.435	0.0168440
824.513	0.0166457
824.591	0.0165832
824.669	0.0166010
824.747	0.0164335
824.825	0.0163247
824.904	0.0164108
824.982	0.0163929
825.060	0.0161339
825.138	0.0163206
825.216	0.0163336
825.294	0.0162506
825.372	0.0162656
825.450	0.0163718
825.529	0.0163467
825.607	0.0164278
825.685	0.0165940
825.763	0.0166347
825.841	0.0167778
825.919	0.0167592
825.997	0.0167878
826.075	0.0168668
826.154	0.0169228
826.232	0.0169950
826.310	0.0169628
826.388	0.0169195
826.466	0.0168021
826.544	0.0167075
826.622	0.0168305
826.700	0.0170286
826.779	0.0168768
826.857	0.0168924
826.935	0.0167290
827.013	0.0168530
827.091	0.0169472
827.169	0.0167387
827.247	0.0168000
827.325	0.0168462
827.404	0.0167081
827.482	0.0166780
827.560	0.0166812
827.638	0.0167289
827.716	0.0167989
827.794	0.0166537
827.872	0.0167001
827.950	0.0165504
828.029	0.0166508
828.107	0.0164474
828.185	0.0166286
828.263	0.0164679
828.341	0.0165292
828.419	0.0168078
828.497	0.0166292
828.575	0.0166067
828.654	0.0166741
828.732	0.0167754
828.810	0.0168711
828.888	0.0167896
828.966	0.0169241
829.044	0.0168328
829.122	0.0169970
829.200	0.0171188
829.279	0.0170279
829.357	0.0170389
829.435	0.0170758
829.513	0.0171456
829.591	0.0170165
829.669	0.0169581
829.747	0.0171311
829.825	0.0170140
829.904	0.0169376
829.982	0.0168990
830.060	0.0167980
830.138	0.0169196
830.216	0.0167413
830.294	0.0167192
830.372	0.0166228
830.450	0.0164810
830.529	0.0165651
830.607	0.0165371
830.685	0.0165591
830.763	0.0164449
830.841	0.0163519
830.919	0.0163148
830.997	0.0164752
831.075	0.0163419
831.154	0.0163123
831.232	0.0163719
831.310	0.0160760
831.388	0.0161114
831.466	0.0162383
831.544	0.0161765
831.622	0.0162447
831.700	0.0163679
831.779	0.0162455
831.857	0.0163494
831.935	0.0164642
832.013	0.0164745
832.091	0.0164603
832.169	0.0165399
832.247	0.0165844
832.325	0.0166370
832.404	0.0167005
832.482	0.0169311
832.560	0.0168812
832.638	0.0168392
832.716	0.0170185
832.794	0.0171680
832.872	0.0171335
832.950	0.0170354
833.029	0.0170809
833.107	0.0171281
833.185	0.0170696
833.263	0.0169059
833.341	0.0170191
833.419	0.0170609
833.497	0.0170995
833.575	0.0169025
833.654	0.0167902
833.732	0.0168559
833.810	0.0168215
833.888	0.0167451
833.966	0.0168664
834.044	0.0169102
834.122	0.0167976
834.200	0.0168648
834.279	0.0168169
834.357	0.0168276
834.435	0.0168828
834.513	0.0168901
834.591	0.0168109
834.669	0.0168656
834.747	0.0170207
834.825	0.0168837
834.904	0.0168761
834.982	0.0168327
835.060	0.0169692
835.138	0.0168723
835.216	0.0168685
835.294	0.0168433
835.372	0.0168243
835.450	0.0168977
835.529	0.0168907
835.607	0.0168402
835.685	0.0168338
835.763	0.0167581
835.841	0.0167771
835.919	0.0168228
835.997	0.0166741
836.075	0.0166729
836.154	0.0166854
836.232	0.0165241
836.310	0.0166039
836.388	0.0164906
836.466	0.0165063
836.544	0.0164680
836.622	0.0165199
836.700	0.0165265
836.779	0.0163715
836.857	0.0164199
836.935	0.0163789
837.013	0.0163245
837.091	0.0164037
837.169	0.0163785
837.247	0.0164419
837.325	0.0163513
837.404	0.0165581
837.482	0.0164476
837.560	0.0164555
837.638	0.0163463
837.716	0.0164831
837.794	0.0166157
837.872	0.0165112
837.950	0.0164801
838.029	0.0166163
838.107	0.0165564
838.185	0.0166390
838.263	0.0166861
838.341	0.0167998
838.419	0.0167947
838.497	0.0167877
838.575	0.0170222
838.654	0.0168449
838.732	0.0168945
838.810	0.0170290
838.888	0.0169899
838.966	0.0170567
839.044	0.0170618
839.122	0.0170508
839.200	0.0170737
839.279	0.0170489
839.357	0.0170842
839.435	0.0169492
839.513	0.0168793
839.591	0.0169409
839.669	0.0169344
839.747	0.0169032
839.825	0.0168578
839.904	0.0167265
839.982	0.0167201
840.060	0.0169009
840.138	0.0169394
840.216	0.0167208
840.294	0.0167942
840.372	0.0167375
840.450	0.0166782
840.529	0.0167964
840.607	0.0167714
840.685	0.0168214
840.763	0.0169844
840.841	0.0168366
840.919	0.0168450
840.997	0.0168433
841.075	0.0167188
841.154	0.0168233
841.232	0.0166763
841.310	0.0167893
841.388	0.0166813
841.466	0.0165566
841.544	0.0165224
841.622	0.0165940
841.700	0.0166666
841.779	0.0164902
841.857	0.0164521
841.935	0.0164760
842.013	0.0163593
842.091	0.0164864
842.169	0.0165342
842.247	0.0165150
842.325	0.0165251
842.404	0.0165221
842.482	0.0163680
842.560	0.0163115
842.638	0.0164468
842.716	0.0165036
842.794	0.0166119
842.872	0.0165486
842.950	0.0166073
843.029	0.0165888
843.107	0.0166185
843.185	0.0166438
843.263	0.0166778
843.341	0.0166216
843.419	0.0165939
843.497	0.0167010
843.575	0.0167213
843.654	0.0167658
843.732	0.0166897
843.810	0.0167368
843.888	0.0166094
843.966	0.0167638
844.044	0.0167782
844.122	0.0168860
844.200	0.0169058
844.279	0.0168527
844.357	0.0168722
844.435	0.0169833
844.513	0.0169908
844.591	0.0171886
844.669	0.0171017
844.747	0.0169513
844.825	0.0171502
844.904	0.0172100
844.982	0.0171094
845.060	0.0171731
845.138	0.0170949
845.216	0.0171156
845.294	0.0170301
845.372	0.0171405
845.450	0.0171166
845.529	0.0170758
845.607	0.0170146
845.685	0.0169447
845.763	0.0169440
845.841	0.0168638
845.919	0.0167766
845.997	0.0169309
846.075	0.0169684
846.154	0.0167180
846.232	0.0167020
846.310	0.0166978
846.388	0.0165749
846.466	0.0164915
846.544	0.0165131
846.622	0.0163627
846.700	0.0163705
846.779	0.0163298
846.857	0.0163185
846.935	0.0162920
847.013	0.0161755
847.091	0.0160783
847.169	0.0160927
847.247	0.0162403
847.325	0.0162206
847.404	0.0162207
847.482	0.0162345
847.560	0.0163921
847.638	0.0164451
847.716	0.0163000
847.794	0.0164411
847.872	0.0164462
847.950	0.0165081
848.029	0.0165119
848.107	0.0166957
848.185	0.0166799
848.263	0.0167976
848.341	0.0167802
848.419	0.0168851
848.497	0.0167575
848.575	0.0167971
848.654	0.0167931
848.732	0.0167242
848.810	0.0166326
848.888	0.0168113
848.966	0.0167984
849.044	0.0167957
849.122	0.0167902
849.200	0.0167922
849.279	0.0169085
849.357	0.0169087
849.435	0.0167455
849.513	0.0169325
849.591	0.0170017
849.669	0.0170183
849.747	0.0170003
849.825	0.0169527
849.904	0.0170226
849.982	0.0170943
850.060	0.0170898
850.138	0.0170177
850.216	0.0169248
850.294	0.0170208
850.372	0.0169684
850.450	0.0169531
850.529	0.0168903
850.607	0.0169924
850.685	0.0170583
850.763	0.0169591
850.841	0.0169257
850.919	0.0168966
850.997	0.0170700
851.075	0.0169347
851.154	0.0170363
851.232	0.0170233
851.310	0.0171739
851.388	0.0170448
851.466	0.0169216
851.544	0.0169291
851.622	0.0168954
851.700	0.0167807
851.779	0.0167886
851.857	0.0167492
851.935	0.0166337
852.013	0.0163401
852.091	0.0163515
852.169	0.0162440
852.247	0.0163330
852.325	0.0162273
852.404	0.0161789
852.482	0.0161019
852.560	0.0160699
852.638	0.0161974
852.716	0.0161524
852.794	0.0161790
852.872	0.0163020
852.950	0.0162342
853.029	0.0161843
853.107	0.0162369
853.185	0.0164883
853.263	0.0165288
853.341	0.0164375
853.419	0.0163580
853.497	0.0164203
853.575	0.0166063
853.654	0.0167452
853.732	0.0167373
853.810	0.0166945
853.888	0.0168154
853.966	0.0168629
854.044	0.0168864
854.122	0.0169421
854.200	0.0169165
854.279	0.0170143
854.357	0.0169199
854.435	0.0169934
854.513	0.0169477
854.591	0.0168706
854.669	0.0169980
854.747	0.0169839
854.825	0.0168396
854.904	0.0169601
854.982	0.0169901
855.060	0.0168659
855.138	0.0168337
855.216	0.0167796
855.294	0.0168778
855.372	0.0168900
855.450	0.0167464
855.529	0.0167287
855.607	0.0167811
855.685	0.0167901
855.763	0.0167218
855.841	0.0168301
855.919	0.0170123
855.997	0.0168696
856.075	0.0169059
856.154	0.0168195
856.232	0.0168241
856.310	0.0168073
856.388	0.0169800
856.466	0.0169814
856.544	0.0168083
856.622	0.0167249
856.700	0.0166897
856.779	0.0168215
856.857	0.0168699
856.935	0.0169059
857.013	0.0167442
857.091	0.0167802
857.169	0.0166831
857.247	0.0167876
857.325	0.0167535
857.404	0.0167931
857.482	0.0167715
857.560	0.0167975
857.638	0.0167163
857.716	0.0164382
857.794	0.0165129
857.872	0.0164365
857.950	0.0164446
858.029	0.0164513
858.107	0.0164889
858.185	0.0161715
858.263	0.0162514
858.341	0.0163496
858.419	0.0163263
858.497	0.0163971
858.575	0.0165002
858.654	0.0163892
858.732	0.0165242
858.810	0.0165791
858.888	0.0165576
858.966	0.0165454
859.044	0.0164962
859.122	0.0166454
859.200	0.0166814
859.279	0.0167503
859.357	0.0168836
859.435	0.0168882
859.513	0.0168653
859.591	0.0168835
859.669	0.0170174
859.747	0.0170589
859.825	0.0170850
859.904	0.0170618
859.982	0.0169927
860.060	0.0170760
860.138	0.0168952
860.216	0.0169858
860.294	0.0168945
860.372	0.0168527
860.450	0.0169648
860.529	0.0168523
860.607	0.0168546
860.685	0.0169342
860.763	0.0167377
860.841	0.0167552
860.919	0.0167857
860.997	0.0167336
861.075	0.0167184
861.154	0.0167607
861.232	0.0168094
861.310	0.0167770
861.388	0.0167997
861.466	0.0166508
861.544	0.0166517
861.622	0.0165112
861.700	0.0165750
861.779	0.0164695
861.857	0.0164455
861.935	0.0166823
862.013	0.0165697
862.091	0.0165402
862.169	0.0166064
862.247	0.0165142
862.325	0.0166660
862.404	0.0166662
862.482	0.0167207
862.560	0.0167302
862.638	0.0168116
862.716	0.0167690
862.794	0.0166763
862.872	0.0166539
862.950	0.0169087
863.029	0.0168516
863.107	0.0168261
863.185	0.0168035
863.263	0.0168759
863.341	0.0167628
863.419	0.0166242
863.497	0.0167457
863.575	0.0166761
863.654	0.0165356
863.732	0.0166650
863.810	0.0165276
863.888	0.0164218
863.966	0.0164108
864.044	0.0165789
864.122	0.0165213
864.200	0.0165838
864.279	0.0165471
864.357	0.0166557
864.435	0.0166798
864.513	0.0168632
864.591	0.0168085
864.669	0.0168638
864.747	0.0169503
864.825	0.0168150
864.904	0.0168787
864.982	0.0168896
865.060	0.0167796
865.138	0.0168349
865.216	0.0168729
865.294	0.0168002
865.372	0.0167013
865.450	0.0167069
865.529	0.0167699
865.607	0.0168237
865.685	0.0167129
865.763	0.0166109
865.841	0.0166103
865.919	0.0167732
865.997	0.0166920
866.075	0.0166402
866.154	0.0166890
866.232	0.0167265
866.310	0.0168302
866.388	0.0167970
866.466	0.0165985
866.544	0.0166150
866.622	0.0166482
866.700	0.0167603
866.779	0.0167954
866.857	0.0166727
866.935	0.0167939
867.013	0.0167137
867.091	0.0168265
867.169	0.0169170
867.247	0.0167638
867.325	0.0167886
867.404	0.0167363
867.482	0.0168664
867.560	0.0167149
867.638	0.0167982
867.716	0.0167400
867.794	0.0167091
867.872	0.0165268
867.950	0.0166330
868.029	0.0166256
868.107	0.0167287
868.185	0.0166238
868.263	0.0168050
868.341	0.0166515
868.419	0.0167734
868.497	0.0168254
868.575	0.0167384
868.654	0.0167332
868.732	0.0166171
868.810	0.0166467
868.888	0.0166940
868.966	0.0167303
869.044	0.0165067
869.122	0.0165846
869.200	0.0166018
869.279	0.0164703
869.357	0.0164275
869.435	0.0165001
869.513	0.0164812
869.591	0.0165672
869.669	0.0165314
869.747	0.0166426
869.825	0.0165601
869.904	0.0166574
869.982	0.0164953
870.060	0.0166824
870.138	0.0166421
870.216	0.0166561
870.294	0.0168211
870.372	0.0167928
870.450	0.0167997
870.529	0.0165847
870.607	0.0168230
870.685	0.0168398
870.763	0.0167432
870.841	0.0168354
870.919	0.0168715
870.997	0.0168605
871.075	0.0167381
871.154	0.0167870
871.232	0.0168493
871.310	0.0169446
871.388	0.0168246
871.466	0.0168800
871.544	0.0168749
871.622	0.0167420
871.700	0.0167246
871.779	0.0167362
871.857	0.0167134
871.935	0.0165443
872.013	0.0167419
872.091	0.0167625
872.169	0.0166658
872.247	0.0166769
872.325	0.0168041
872.404	0.0168469
872.482	0.0168188
872.560	0.0168739
872.638	0.0168042
872.716	0.0169022
872.794	0.0169727
872.872	0.0166822
872.950	0.0167306
873.029	0.0168107
873.107	0.0168048
873.185	0.0166787
873.263	0.0167507
873.341	0.0166734
873.419	0.0165159
873.497	0.0167475
873.575	0.0167561
873.654	0.0166875
873.732	0.0167037
873.810	0.0165750
873.888	0.0166632
873.966	0.0167698
874.044	0.0167505
874.122	0.0166962
874.200	0.0167036
874.279	0.0165997
874.357	0.0166170
874.435	0.0166330
874.513	0.0166647
874.591	0.0166788
874.669	0.0165996
874.747	0.0165917
874.825	0.0166032
874.904	0.0165780
874.982	0.0166461
875.060	0.0165536
875.138	0.0163615
875.216	0.0162150
875.294	0.0163725
875.372	0.0163621
875.450	0.0164475
875.529	0.0164203
875.607	0.0163545
875.685	0.0164171
875.763	0.0163456
875.841	0.0164577
875.919	0.0164349
875.997	0.0165648
876.075	0.0165495
876.154	0.0165966
876.232	0.0165336
876.310	0.0165587
876.388	0.0167431
876.466	0.0167146
876.544	0.0168447
876.622	0.0169161
876.700	0.0168367
876.779	0.0169338
876.857	0.0170687
876.935	0.0169821
877.013	0.0171559
877.091	0.0171194
877.169	0.0172494
877.247	0.0172012
877.325	0.0172296
877.404	0.0171545
877.482	0.0171724
877.560	0.0172146
877.638	0.0172897
877.716	0.0170766
877.794	0.0171027
877.872	0.0170627
877.950	0.0168733
878.029	0.0168331
878.107	0.0167477
878.185	0.0166034
878.263	0.0166172
878.341	0.0163200
878.419	0.0161496
878.497	0.0162009
878.575	0.0161298
878.654	0.0160632
878.732	0.0161739
878.810	0.0160866
878.888	0.0161373
878.966	0.0162434
879.044	0.0162689
879.122	0.0163289
879.200	0.0164359
879.279	0.0164034
879.357	0.0165887
879.435	0.0165032
879.513	0.0166199
879.591	0.0165972
879.669	0.0166340
879.747	0.0167832
879.825	0.0168050
879.904	0.0168065
879.982	0.0169799
880.060	0.0168647
880.138	0.0170296
880.216	0.0170442
880.294	0.0169521
880.372	0.0171460
880.450	0.0171679
880.529	0.0169994
880.607	0.0169974
880.685	0.0169617
880.763	0.0170005
880.841	0.0170031
880.919	0.0169158
880.997	0.0166956
881.075	0.0167318
881.154	0.0166008
881.232	0.0164955
881.310	0.0165020
881.388	0.0164549
881.466	0.0163586
881.544	0.0164387
881.622	0.0163516
881.700	0.0162822
881.779	0.0163506
881.857	0.0163369
881.935	0.0162260
882.013	0.0163689
882.091	0.0164577
882.169	0.0165098
882.247	0.0165587
882.325	0.0164988
882.404	0.0167223
882.482	0.0167056
882.560	0.0168668
882.638	0.0169332
882.716	0.0172041
882.794	0.0172366
882.872	0.0172607
882.950	0.0173827
883.029	0.0174561
883.107	0.0174213
883.185	0.0175171
883.263	0.0174401
883.341	0.0173723
883.419	0.0173730
883.497	0.0171126
883.575	0.0170300
883.654	0.0169263
883.732	0.0170152
883.810	0.0167650
883.888	0.0167974
883.966	0.0165137
884.044	0.0164570
884.122	0.0163664
884.200	0.0161898
884.279	0.0162991
884.357	0.0160686
884.435	0.0159850
884.513	0.0160326
884.591	0.0161073
884.669	0.0162801
884.747	0.0160886
884.825	0.0161661
884.904	0.0162200
884.982	0.0162988
885.060	0.0164488
885.138	0.0164080
885.216	0.0165197
885.294	0.0167307
885.372	0.0166180
885.450	0.0166634
885.529	0.0168768
885.607	0.0168388
885.685	0.0169404
885.763	0.0168140
885.841	0.0169732
885.919	0.0169627
885.997	0.0169741
886.075	0.0167970
886.154	0.0169843
886.232	0.0169415
886.310	0.0169733
886.388	0.0169783
886.466	0.0169039
886.544	0.0168391
886.622	0.0170528
886.700	0.0169047
886.779	0.0168289
886.857	0.0166940
886.935	0.0165260
887.013	0.0166594
887.091	0.0165781
887.169	0.0165640
887.247	0.0165137
887.325	0.0165751
887.404	0.0166138
887.482	0.0166236
887.560	0.0166369
887.638	0.0166697
887.716	0.0167054
887.794	0.0167976
887.872	0.0168799
887.950	0.0169330
888.029	0.0171094
888.107	0.0171635
888.185	0.0171135
888.263	0.0170431
888.341	0.0172153
888.419	0.0172845
888.497	0.0171023
888.575	0.0170424
888.654	0.0170874
888.732	0.0169075
888.810	0.0168398
888.888	0.0167505
888.966	0.0166005
889.044	0.0165421
889.122	0.0166238
889.200	0.0163216
889.279	0.0164134
889.357	0.0164381
889.435	0.0163653
889.513	0.0164639
889.591	0.0165554
889.669	0.0165501
889.747	0.0165550
889.825	0.0165504
889.904	0.0165450
889.982	0.0163867
890.060	0.0166053
890.138	0.0165388
890.216	0.0165499
890.294	0.0164976
890.372	0.0165127
890.450	0.0164453
890.529	0.0165139
890.607	0.0166475
890.685	0.0166438
890.763	0.0166048
890.841	0.0165771
890.919	0.0167219
890.997	0.0166277
891.075	0.0166222
891.154	0.0167833
891.232	0.0168269
891.310	0.0167271
891.388	0.0168540
891.466	0.0169746
891.544	0.0168713
891.622	0.0168376
891.700	0.0166824
891.779	0.0166227
891.857	0.0167497
891.935	0.0166475
892.013	0.0164951
892.091	0.0165825
892.169	0.0166001
892.247	0.0165228
892.325	0.0162605
892.404	0.0163575
892.482	0.0165768
892.560	0.0165633
892.638	0.0166142
892.716	0.0167194
892.794	0.0167982
892.872	0.0168947
892.950	0.0170641
893.029	0.0170957
893.107	0.0172059
893.185	0.0171723
893.263	0.0173183
893.341	0.0173849
893.419	0.0172326
893.497	0.0169662
893.575	0.0170786
893.654	0.0169736
893.732	0.0169036
893.810	0.0167550
893.888	0.0166907
893.966	0.0165903
894.044	0.0166206
894.122	0.0165080
894.200	0.0165354
894.279	0.0165232
894.357	0.0164967
894.435	0.0163673
894.513	0.0164034
894.591	0.0164066
894.669	0.0164778
894.747	0.0164418
894.825	0.0164341
894.904	0.0164777
894.982	0.0163069
895.060	0.0163046
895.138	0.0162592
895.216	0.0163593
895.294	0.0163822
895.372	0.0163859
895.450	0.0164543
895.529	0.0164648
895.607	0.0165505
895.685	0.0164717
895.763	0.0165076
895.841	0.0166359
895.919	0.0166492
895.997	0.0168285
896.075	0.0169330
896.154	0.0168986
896.232	0.0170766
896.310	0.0170798
896.388	0.0170061
896.466	0.0170872
896.544	0.0170715
896.622	0.0170448
896.700	0.0170802
896.779	0.0170116
896.857	0.0170880
896.935	0.0169895
897.013	0.0169473
897.091	0.0168598
897.169	0.0167875
897.247	0.0168406
897.325	0.0167988
897.404	0.0166673
897.482	0.0166212
897.560	0.0166750
897.638	0.0165353
897.716	0.0165996
897.794	0.0166969
897.872	0.0166557
897.950	0.0167924
898.029	0.0168827
898.107	0.0169405
898.185	0.0167828
898.263	0.0168494
898.341	0.0170291
898.419	0.0169853
898.497	0.0169250
898.575	0.0168700
898.654	0.0169114
898.732	0.0167579
898.810	0.0169208
898.888	0.0168355
898.966	0.0167452
899.044	0.0166620
899.122	0.0165376
899.200	0.0164453
899.279	0.0165540
899.357	0.0163976
899.435	0.0164886
899.513	0.0165141
899.591	0.0166168
899.669	0.0165913
899.747	0.0166119
899.825	0.0167246
899.904	0.0168594
899.982	0.0168413
900.060	0.0168094
900.138	0.0168272
900.216	0.0167352
900.294	0.0166950
900.372	0.0166124
900.450	0.0166934
900.529	0.0165424
900.607	0.0164547
900.685	0.0165164
900.763	0.0164708
900.841	0.0164152
900.919	0.0164451
900.997	0.0165378
901.075	0.0165520
901.154	0.0164141
901.232	0.0163483
901.310	0.0164806
901.388	0.0166445
901.466	0.0165190
901.544	0.0166620
901.622	0.0165973
901.700	0.0167452
901.779	0.0167010
901.857	0.0166474
901.935	0.0167675
902.013	0.0167487
902.091	0.0168758
902.169	0.0168230
902.247	0.0166261
902.325	0.0167066
902.404	0.0168693
902.482	0.0168040
902.560	0.0167126
902.638	0.0168076
902.716	0.0169054
902.794	0.0170751
902.872	0.0169341
902.950	0.0171184
903.029	0.0169425
903.107	0.0169718
903.185	0.0171796
903.263	0.0171888
903.341	0.0171239
903.419	0.0173346
903.497	0.0173241
903.575	0.0172546
903.654	0.0171914
903.732	0.0171483
903.810	0.0172881
903.888	0.0170154
903.966	0.0168786
904.044	0.0167686
904.122	0.0167612
904.200	0.0166859
904.279	0.0164657
904.357	0.0165668
904.435	0.0164423
904.513	0.0163689
904.591	0.0164420
904.669	0.0165443
904.747	0.0166086
904.825	0.0165098
904.904	0.0165917
904.982	0.0167159
905.060	0.0167661
905.138	0.0166542
905.216	0.0169173
905.294	0.0168534
905.372	0.0168100
905.450	0.0168025
905.529	0.0166647
905.607	0.0168181
905.685	0.0167698
905.763	0.0167229
905.841	0.0166251
905.919	0.0164583
905.997	0.0164471
906.075	0.0165377
906.154	0.0162505
906.232	0.0162688
906.310	0.0163207
906.388	0.0164346
906.466	0.0164506
906.544	0.0163499
906.622	0.0165057
906.700	0.0165446
906.779	0.0164053
906.857	0.0165303
906.935	0.0166631
907.013	0.0165727
907.091	0.0164651
907.169	0.0165960
907.247	0.0165244
907.325	0.0164869
907.404	0.0165218
907.482	0.0165878
907.560	0.0165141
907.638	0.0165031
907.716	0.0162845
907.794	0.0163947
907.872	0.0162624
907.950	0.0163868
908.029	0.0163366
908.107	0.0165344
908.185	0.0167355
908.263	0.0166087
908.341	0.0167690
908.419	0.0167148
908.497	0.0170589
908.575	0.0170674
908.654	0.0172133
908.732	0.0173281
908.810	0.0173648
908.888	0.0172733
908.966	0.0173211
909.044	0.0173867
909.122	0.0174615
909.200	0.0173016
909.279	0.0172997
909.357	0.0173581
909.435	0.0173557
909.513	0.0174132
909.591	0.0173891
909.669	0.0171729
909.747	0.0172194
909.825	0.0170940
909.904	0.0171159
909.982	0.0171243
910.060	0.0171104
910.138	0.0169332
910.216	0.0169588
910.294	0.0168459
910.372	0.0169061
910.450	0.0168114
910.529	0.0166800
910.607	0.0167352
910.685	0.0167253
910.763	0.0166898
910.841	0.0165701
910.919	0.0164731
910.997	0.0164455
911.075	0.0163486
911.154	0.0161977
911.232	0.0161629
911.310	0.0161895
911.388	0.0162064
911.466	0.0161285
911.544	0.0162703
911.622	0.0163302
911.700	0.0162657
911.779	0.0164456
911.857	0.0162635
911.935	0.0165433
912.013	0.0165328
912.091	0.0164960
912.169	0.0165117
912.247	0.0166668
912.325	0.0166097
912.404	0.0165858
912.482	0.0165538
912.560	0.0164906
912.638	0.0164500
912.716	0.0164470
912.794	0.0164722
912.872	0.0164941
912.950	0.0165022
913.029	0.0166521
913.107	0.0166123
913.185	0.0166930
913.263	0.0166915
913.341	0.0167104
913.419	0.0166267
913.497	0.0168726
913.575	0.0168977
913.654	0.0167675
913.732	0.0168996
913.810	0.0169946
913.888	0.0168581
913.966	0.0168545
914.044	0.0169138
914.122	0.0170083
914.200	0.0169498
914.279	0.0169034
914.357	0.0169994
914.435	0.0170341
914.513	0.0170980
914.591	0.0169051
914.669	0.0169572
914.747	0.0169031
914.825	0.0170185
914.904	0.0169666
914.982	0.0169822
915.060	0.0169484
915.138	0.0171224
915.216	0.0170906
915.294	0.0171606
915.372	0.0171642
915.450	0.0171130
915.529	0.0170284
915.607	0.0171314
915.685	0.0170861
915.763	0.0170698
915.841	0.0169718
915.919	0.0168860
915.997	0.0168666
916.075	0.0166628
916.154	0.0167242
916.232	0.0166656
916.310	0.0163966
916.388	0.0163828
916.466	0.0164600
916.544	0.0163934
916.622	0.0162812
916.700	0.0162379
916.779	0.0161720
916.857	0.0161636
916.935	0.0163483
917.013	0.0162017
917.091	0.0163491
917.169	0.0163928
917.247	0.0164359
917.325	0.0165139
917.404	0.0164791
917.482	0.0166217
917.560	0.0167546
917.638	0.0167651
917.716	0.0167830
917.794	0.0167929
917.872	0.0167520
917.950	0.0169967
918.029	0.0168468
918.107	0.0168655
918.185	0.0167828
918.263	0.0169006
918.341	0.0168816
918.419	0.0168232
918.497	0.0168868
918.575	0.0168651
918.654	0.0167696
918.732	0.0168700
918.810	0.0169385
918.888	0.0168338
918.966	0.0168122
919.044	0.0167948
919.122	0.0168228
919.200	0.0167874
919.279	0.0168434
919.357	0.0169259
919.435	0.0166841
919.513	0.0167542
919.591	0.0168121
919.669	0.0168016
919.747	0.0167978
919.825	0.0168721
919.904	0.0168224
