06/03/2022	14:09:05	Ver.	4.1	UNKNOWN
Optical Delay	599.981738	Delta X		0.078125	Sweeps	1	Scan Rate	0/0
Coordinates	Axis 1	NaN	Axis 2	NaN	Axis 3	NaN	Axis 4	NaN	Axis 5	NaN	Axis 6	0.000000
TX Power	0.000000	RX Power	0.000000

599.982	0.0167079
600.060	0.0167087
600.138	0.0167999
600.216	0.0167303
600.294	0.0168001
600.372	0.0167113
600.450	0.0167678
600.529	0.0168259
600.607	0.0166831
600.685	0.0165364
600.763	0.0168245
600.841	0.0166553
600.919	0.0166483
600.997	0.0166546
601.075	0.0167540
601.154	0.0164981
601.232	0.0166158
601.310	0.0167803
601.388	0.0167262
601.466	0.0167397
601.544	0.0167317
601.622	0.0167381
601.700	0.0167120
601.779	0.0167407
601.857	0.0165873
601.935	0.0167126
602.013	0.0168029
602.091	0.0166550
602.169	0.0167210
602.247	0.0168122
602.325	0.0168423
602.404	0.0166583
602.482	0.0165832
602.560	0.0166759
602.638	0.0167082
602.716	0.0166260
602.794	0.0168309
602.872	0.0166799
602.950	0.0168032
603.029	0.0167509
603.107	0.0167850
603.185	0.0169357
603.263	0.0168903
603.341	0.0166605
603.419	0.0167111
603.497	0.0167994
603.575	0.0167760
603.654	0.0168209
603.732	0.0166611
603.810	0.0167467
603.888	0.0166805
603.966	0.0167031
604.044	0.0166801
604.122	0.0167266
604.200	0.0167519
604.279	0.0168581
604.357	0.0166881
604.435	0.0166955
604.513	0.0167011
604.591	0.0166525
604.669	0.0167767
604.747	0.0167899
604.825	0.0167516
604.904	0.0166212
604.982	0.0167590
605.060	0.0167985
605.138	0.0167645
605.216	0.0167920
605.294	0.0166795
605.372	0.0167833
605.450	0.0166302
605.529	0.0167316
605.607	0.0168165
605.685	0.0166809
605.763	0.0167223
605.841	0.0168063
605.919	0.0168215
605.997	0.0167182
606.075	0.0167633
606.154	0.0167229
606.232	0.0167970
606.310	0.0167764
606.388	0.0167767
606.466	0.0166813
606.544	0.0168397
606.622	0.0166501
606.700	0.0165616
606.779	0.0167448
606.857	0.0167768
606.935	0.0167989
607.013	0.0166993
607.091	0.0167278
607.169	0.0167264
607.247	0.0166925
607.325	0.0166060
607.404	0.0166517
607.482	0.0167171
607.560	0.0164845
607.638	0.0165530
607.716	0.0166606
607.794	0.0169114
607.872	0.0166723
607.950	0.0166068
608.029	0.0168555
608.107	0.0168208
608.185	0.0167820
608.263	0.0166028
608.341	0.0166766
608.419	0.0167014
608.497	0.0167069
608.575	0.0168113
608.654	0.0165958
608.732	0.0165730
608.810	0.0166975
608.888	0.0167181
608.966	0.0168082
609.044	0.0168480
609.122	0.0168751
609.200	0.0166196
609.279	0.0166499
609.357	0.0167509
609.435	0.0166919
609.513	0.0167979
609.591	0.0166811
609.669	0.0166748
609.747	0.0167764
609.825	0.0168459
609.904	0.0166519
609.982	0.0166947
610.060	0.0166706
610.138	0.0167015
610.216	0.0168046
610.294	0.0167110
610.372	0.0167129
610.450	0.0167505
610.529	0.0166300
610.607	0.0166530
610.685	0.0168149
610.763	0.0166824
610.841	0.0167383
610.919	0.0168344
610.997	0.0167395
611.075	0.0166392
611.154	0.0167500
611.232	0.0165751
611.310	0.0167026
611.388	0.0166605
611.466	0.0167628
611.544	0.0167961
611.622	0.0168356
611.700	0.0166984
611.779	0.0167850
611.857	0.0167437
611.935	0.0167173
612.013	0.0167781
612.091	0.0167682
612.169	0.0166915
612.247	0.0166592
612.325	0.0167438
612.404	0.0168166
612.482	0.0167315
612.560	0.0165680
612.638	0.0167442
612.716	0.0168617
612.794	0.0167181
612.872	0.0167340
612.950	0.0167369
613.029	0.0167679
613.107	0.0166229
613.185	0.0165425
613.263	0.0167442
613.341	0.0167023
613.419	0.0166751
613.497	0.0167356
613.575	0.0166682
613.654	0.0166006
613.732	0.0167341
613.810	0.0168391
613.888	0.0167652
613.966	0.0166271
614.044	0.0166257
614.122	0.0167742
614.200	0.0167728
614.279	0.0166730
614.357	0.0167113
614.435	0.0166901
614.513	0.0167127
614.591	0.0167297
614.669	0.0166740
614.747	0.0166948
614.825	0.0167067
614.904	0.0167384
614.982	0.0167765
615.060	0.0166489
615.138	0.0167656
615.216	0.0168279
615.294	0.0167020
615.372	0.0165865
615.450	0.0167871
615.529	0.0167316
615.607	0.0168081
615.685	0.0167564
615.763	0.0168184
615.841	0.0167880
615.919	0.0168093
615.997	0.0168702
616.075	0.0168443
616.154	0.0167461
616.232	0.0167052
616.310	0.0166898
616.388	0.0168384
616.466	0.0167973
616.544	0.0167150
616.622	0.0167162
616.700	0.0167243
616.779	0.0168735
616.857	0.0167989
616.935	0.0168201
617.013	0.0167404
617.091	0.0167625
617.169	0.0168966
617.247	0.0167487
617.325	0.0167889
617.404	0.0168427
617.482	0.0166707
617.560	0.0168855
617.638	0.0168584
617.716	0.0168136
617.794	0.0168768
617.872	0.0168765
617.950	0.0167835
618.029	0.0168873
618.107	0.0167175
618.185	0.0167599
618.263	0.0167005
618.341	0.0167588
618.419	0.0168084
618.497	0.0168566
618.575	0.0166393
618.654	0.0166777
618.732	0.0167516
618.810	0.0167273
618.888	0.0168098
618.966	0.0167835
619.044	0.0167623
619.122	0.0166343
619.200	0.0168483
619.279	0.0168484
619.357	0.0167464
619.435	0.0167310
619.513	0.0167911
619.591	0.0168001
619.669	0.0167850
619.747	0.0168905
619.825	0.0167243
619.904	0.0166842
619.982	0.0167490
620.060	0.0166827
620.138	0.0167206
620.216	0.0167448
620.294	0.0167432
620.372	0.0168085
620.450	0.0167683
620.529	0.0167989
620.607	0.0167607
620.685	0.0168946
620.763	0.0167304
620.841	0.0167200
620.919	0.0166383
620.997	0.0167300
621.075	0.0168180
621.154	0.0168417
621.232	0.0166116
621.310	0.0167453
621.388	0.0168346
621.466	0.0167727
621.544	0.0166515
621.622	0.0167327
621.700	0.0167885
621.779	0.0167395
621.857	0.0167825
621.935	0.0168005
622.013	0.0167431
622.091	0.0167867
622.169	0.0168168
622.247	0.0167181
622.325	0.0166725
622.404	0.0167487
622.482	0.0168681
622.560	0.0168546
622.638	0.0167290
622.716	0.0166161
622.794	0.0168350
622.872	0.0167968
622.950	0.0167124
623.029	0.0166373
623.107	0.0166468
623.185	0.0166673
623.263	0.0166920
623.341	0.0167837
623.419	0.0167043
623.497	0.0167197
623.575	0.0166556
623.654	0.0166885
623.732	0.0166817
623.810	0.0166948
623.888	0.0167899
623.966	0.0166624
624.044	0.0167789
624.122	0.0166850
624.200	0.0165573
624.279	0.0166679
624.357	0.0167320
624.435	0.0167054
624.513	0.0167722
624.591	0.0166875
624.669	0.0165930
624.747	0.0165907
624.825	0.0166582
624.904	0.0166556
624.982	0.0165884
625.060	0.0166316
625.138	0.0167056
625.216	0.0167692
625.294	0.0167688
625.372	0.0167278
625.450	0.0165885
625.529	0.0166410
625.607	0.0167106
625.685	0.0165563
625.763	0.0167027
625.841	0.0166756
625.919	0.0167242
625.997	0.0167577
626.075	0.0167263
626.154	0.0166142
626.232	0.0166423
626.310	0.0165575
626.388	0.0166719
626.466	0.0166877
626.544	0.0166936
626.622	0.0166996
626.700	0.0168239
626.779	0.0165117
626.857	0.0166841
626.935	0.0167208
627.013	0.0166595
627.091	0.0166042
627.169	0.0167792
627.247	0.0166753
627.325	0.0166885
627.404	0.0167424
627.482	0.0167565
627.560	0.0166317
627.638	0.0166244
627.716	0.0167633
627.794	0.0166410
627.872	0.0167630
627.950	0.0168745
628.029	0.0167819
628.107	0.0167338
628.185	0.0168594
628.263	0.0166910
628.341	0.0166825
628.419	0.0166728
628.497	0.0166470
628.575	0.0166575
628.654	0.0168108
628.732	0.0167355
628.810	0.0165765
628.888	0.0166389
628.966	0.0167094
629.044	0.0167523
629.122	0.0167177
629.200	0.0168340
629.279	0.0166908
629.357	0.0167292
629.435	0.0168713
629.513	0.0167355
629.591	0.0166645
629.669	0.0167989
629.747	0.0167028
629.825	0.0167651
629.904	0.0166759
629.982	0.0167198
630.060	0.0168550
630.138	0.0168346
630.216	0.0167749
630.294	0.0166000
630.372	0.0166089
630.450	0.0167681
630.529	0.0167492
630.607	0.0167317
630.685	0.0166917
630.763	0.0167549
630.841	0.0168423
630.919	0.0166970
630.997	0.0166678
631.075	0.0166661
631.154	0.0166375
631.232	0.0168169
631.310	0.0168126
631.388	0.0166916
631.466	0.0167998
631.544	0.0168031
631.622	0.0166825
631.700	0.0167884
631.779	0.0167992
631.857	0.0167175
631.935	0.0168293
632.013	0.0168991
632.091	0.0167539
632.169	0.0166277
632.247	0.0166542
632.325	0.0167739
632.404	0.0167355
632.482	0.0167487
632.560	0.0168600
632.638	0.0168518
632.716	0.0167200
632.794	0.0167465
632.872	0.0166184
632.950	0.0167415
633.029	0.0167953
633.107	0.0168984
633.185	0.0168758
633.263	0.0168233
633.341	0.0167935
633.419	0.0168332
633.497	0.0169320
633.575	0.0168772
633.654	0.0166801
633.732	0.0167001
633.810	0.0168166
633.888	0.0166940
633.966	0.0167821
634.044	0.0168459
634.122	0.0167767
634.200	0.0168712
634.279	0.0167697
634.357	0.0167653
634.435	0.0168666
634.513	0.0168474
634.591	0.0167470
634.669	0.0167039
634.747	0.0167286
634.825	0.0167584
634.904	0.0166652
634.982	0.0168092
635.060	0.0169273
635.138	0.0168447
635.216	0.0167712
635.294	0.0167245
635.372	0.0167299
635.450	0.0167803
635.529	0.0167262
635.607	0.0167110
635.685	0.0168158
635.763	0.0167410
635.841	0.0167520
635.919	0.0168745
635.997	0.0167644
636.075	0.0167314
636.154	0.0167640
636.232	0.0168437
636.310	0.0167294
636.388	0.0168192
636.466	0.0168074
636.544	0.0168353
636.622	0.0167390
636.700	0.0168333
636.779	0.0168443
636.857	0.0167422
636.935	0.0167200
637.013	0.0168542
637.091	0.0167860
637.169	0.0166859
637.247	0.0167702
637.325	0.0167306
637.404	0.0167342
637.482	0.0167249
637.560	0.0168391
637.638	0.0168583
637.716	0.0168142
637.794	0.0167471
637.872	0.0168341
637.950	0.0167011
638.029	0.0167972
638.107	0.0168089
638.185	0.0167678
638.263	0.0168664
638.341	0.0168243
638.419	0.0167358
638.497	0.0168161
638.575	0.0168192
638.654	0.0168073
638.732	0.0168200
638.810	0.0167310
638.888	0.0168455
638.966	0.0167842
639.044	0.0167397
639.122	0.0167920
639.200	0.0167508
639.279	0.0168238
639.357	0.0167587
639.435	0.0167417
639.513	0.0168371
639.591	0.0167778
639.669	0.0167375
639.747	0.0166999
639.825	0.0167693
639.904	0.0168379
639.982	0.0166728
640.060	0.0166835
640.138	0.0167776
640.216	0.0168949
640.294	0.0168510
640.372	0.0167943
640.450	0.0167516
640.529	0.0167391
640.607	0.0167341
640.685	0.0166432
640.763	0.0168348
640.841	0.0168282
640.919	0.0168276
640.997	0.0168290
641.075	0.0169107
641.154	0.0167437
641.232	0.0167278
641.310	0.0167580
641.388	0.0168783
641.466	0.0167963
641.544	0.0168250
641.622	0.0166866
641.700	0.0168461
641.779	0.0167330
641.857	0.0167512
641.935	0.0168645
642.013	0.0167120
642.091	0.0167260
642.169	0.0166366
642.247	0.0167497
642.325	0.0167439
642.404	0.0167849
642.482	0.0167449
642.560	0.0167007
642.638	0.0168020
642.716	0.0167427
642.794	0.0167695
642.872	0.0167786
642.950	0.0167677
643.029	0.0167645
643.107	0.0169047
643.185	0.0166708
643.263	0.0166868
643.341	0.0168745
643.419	0.0168233
643.497	0.0166002
643.575	0.0168270
643.654	0.0168678
643.732	0.0167790
643.810	0.0166286
643.888	0.0167050
643.966	0.0167370
644.044	0.0167277
644.122	0.0165725
644.200	0.0167056
644.279	0.0167097
644.357	0.0166071
644.435	0.0168632
644.513	0.0167673
644.591	0.0167310
644.669	0.0167255
644.747	0.0167051
644.825	0.0168038
644.904	0.0166818
644.982	0.0167284
645.060	0.0167479
645.138	0.0167562
645.216	0.0166504
645.294	0.0167805
645.372	0.0166714
645.450	0.0167387
645.529	0.0167793
645.607	0.0166419
645.685	0.0166908
645.763	0.0168636
645.841	0.0167402
645.919	0.0166871
645.997	0.0166110
646.075	0.0166112
646.154	0.0167062
646.232	0.0166602
646.310	0.0167422
646.388	0.0165293
646.466	0.0165975
646.544	0.0166656
646.622	0.0166534
646.700	0.0166626
646.779	0.0166454
646.857	0.0165495
646.935	0.0167920
647.013	0.0166865
647.091	0.0166556
647.169	0.0166344
647.247	0.0166358
647.325	0.0166729
647.404	0.0167389
647.482	0.0166464
647.560	0.0166214
647.638	0.0166525
647.716	0.0167165
647.794	0.0167091
647.872	0.0166783
647.950	0.0166049
648.029	0.0166971
648.107	0.0165514
648.185	0.0166871
648.263	0.0166184
648.341	0.0166149
648.419	0.0166691
648.497	0.0166273
648.575	0.0166907
648.654	0.0167831
648.732	0.0167137
648.810	0.0167606
648.888	0.0169083
648.966	0.0168675
649.044	0.0167386
649.122	0.0167613
649.200	0.0167888
649.279	0.0166648
649.357	0.0168551
649.435	0.0165816
649.513	0.0166091
649.591	0.0166022
649.669	0.0165754
649.747	0.0165639
649.825	0.0163937
649.904	0.0164317
649.982	0.0163380
650.060	0.0163297
650.138	0.0164981
650.216	0.0166722
650.294	0.0167630
650.372	0.0168048
650.450	0.0170023
650.529	0.0172000
650.607	0.0171297
650.685	0.0170632
650.763	0.0169904
650.841	0.0169167
650.919	0.0169651
650.997	0.0168600
651.075	0.0167352
651.154	0.0163950
651.232	0.0163381
651.310	0.0162663
651.388	0.0159731
651.466	0.0159550
651.544	0.0159937
651.622	0.0161717
651.700	0.0162582
651.779	0.0164735
651.857	0.0169344
651.935	0.0170611
652.013	0.0173072
652.091	0.0174659
652.169	0.0175027
652.247	0.0174961
652.325	0.0174700
652.404	0.0172800
652.482	0.0171404
652.560	0.0168651
652.638	0.0167486
652.716	0.0166086
652.794	0.0162801
652.872	0.0161655
652.950	0.0158924
653.029	0.0157561
653.107	0.0159542
653.185	0.0158548
653.263	0.0159663
653.341	0.0161342
653.419	0.0164335
653.497	0.0164765
653.575	0.0166832
653.654	0.0170768
653.732	0.0173035
653.810	0.0173939
653.888	0.0174121
653.966	0.0173965
654.044	0.0172807
654.122	0.0170919
654.200	0.0169709
654.279	0.0166676
654.357	0.0164722
654.435	0.0164044
654.513	0.0163023
654.591	0.0161971
654.669	0.0161802
654.747	0.0162225
654.825	0.0163522
654.904	0.0164608
654.982	0.0167765
655.060	0.0166280
655.138	0.0168423
655.216	0.0168365
655.294	0.0168830
655.372	0.0170237
655.450	0.0169359
655.529	0.0168024
655.607	0.0168494
655.685	0.0168904
655.763	0.0167413
655.841	0.0168121
655.919	0.0167217
655.997	0.0167588
656.075	0.0167862
656.154	0.0169250
656.232	0.0169348
656.310	0.0169901
656.388	0.0171495
656.466	0.0171338
656.544	0.0171244
656.622	0.0170532
656.700	0.0169518
656.779	0.0168401
656.857	0.0165751
656.935	0.0164435
657.013	0.0163615
657.091	0.0163869
657.169	0.0163441
657.247	0.0162882
657.325	0.0163128
657.404	0.0164752
657.482	0.0164049
657.560	0.0165485
657.638	0.0167415
657.716	0.0168985
657.794	0.0170996
657.872	0.0171797
657.950	0.0172761
658.029	0.0172527
658.107	0.0174065
658.185	0.0172065
658.263	0.0170518
658.341	0.0169507
658.419	0.0168204
658.497	0.0166299
658.575	0.0168230
658.654	0.0165614
658.732	0.0164793
658.810	0.0164960
658.888	0.0163435
658.966	0.0162108
659.044	0.0162715
659.122	0.0164124
659.200	0.0163734
659.279	0.0166988
659.357	0.0166679
659.435	0.0167463
659.513	0.0168044
659.591	0.0169894
659.669	0.0170979
659.747	0.0170767
659.825	0.0170822
659.904	0.0172501
659.982	0.0173766
660.060	0.0171730
660.138	0.0171587
660.216	0.0170489
660.294	0.0169172
660.372	0.0167854
660.450	0.0167506
660.529	0.0166017
660.607	0.0164480
660.685	0.0164378
660.763	0.0164152
660.841	0.0165700
660.919	0.0164542
660.997	0.0164945
661.075	0.0165785
661.154	0.0166827
661.232	0.0169479
661.310	0.0169340
661.388	0.0169684
661.466	0.0170311
661.544	0.0170350
661.622	0.0171243
661.700	0.0169804
661.779	0.0169395
661.857	0.0170211
661.935	0.0167813
662.013	0.0169796
662.091	0.0168747
662.169	0.0168154
662.247	0.0170248
662.325	0.0169217
662.404	0.0168775
662.482	0.0170386
662.560	0.0170994
662.638	0.0170166
662.716	0.0169892
662.794	0.0167384
662.872	0.0167682
662.950	0.0165835
663.029	0.0163699
663.107	0.0162715
663.185	0.0162508
663.263	0.0161485
663.341	0.0159400
663.419	0.0161941
663.497	0.0162035
663.575	0.0163448
663.654	0.0164176
663.732	0.0165614
663.810	0.0166806
663.888	0.0168330
663.966	0.0170033
664.044	0.0171069
664.122	0.0171664
664.200	0.0171280
664.279	0.0173708
664.357	0.0173414
664.435	0.0172560
664.513	0.0173314
664.591	0.0171385
664.669	0.0170985
664.747	0.0170274
664.825	0.0169848
664.904	0.0166636
664.982	0.0167565
665.060	0.0167820
665.138	0.0165798
665.216	0.0166740
665.294	0.0167044
665.372	0.0168148
665.450	0.0170679
665.529	0.0171075
665.607	0.0171480
665.685	0.0169455
665.763	0.0169994
665.841	0.0169936
665.919	0.0168789
665.997	0.0168455
666.075	0.0167941
666.154	0.0164587
666.232	0.0163480
666.310	0.0161588
666.388	0.0158813
666.466	0.0158265
666.544	0.0157068
666.622	0.0154689
666.700	0.0155669
666.779	0.0157312
666.857	0.0157905
666.935	0.0161832
667.013	0.0163583
667.091	0.0164927
667.169	0.0167030
667.247	0.0168603
667.325	0.0171693
667.404	0.0171976
667.482	0.0172894
667.560	0.0175436
667.638	0.0175625
667.716	0.0177523
667.794	0.0178513
667.872	0.0178265
667.950	0.0179096
668.029	0.0177392
668.107	0.0177255
668.185	0.0177734
668.263	0.0175366
668.341	0.0173962
668.419	0.0171349
668.497	0.0170836
668.575	0.0169308
668.654	0.0168764
668.732	0.0167754
668.810	0.0166357
668.888	0.0166085
668.966	0.0165710
669.044	0.0164338
669.122	0.0162387
669.200	0.0161520
669.279	0.0164336
669.357	0.0163361
669.435	0.0162512
669.513	0.0161977
669.591	0.0161960
669.669	0.0162834
669.747	0.0162750
669.825	0.0163510
669.904	0.0161058
669.982	0.0161155
670.060	0.0159879
670.138	0.0161119
670.216	0.0160518
670.294	0.0162206
670.372	0.0162080
670.450	0.0164481
670.529	0.0162979
670.607	0.0165003
670.685	0.0166677
670.763	0.0166322
670.841	0.0166338
670.919	0.0166361
670.997	0.0166006
671.075	0.0166335
671.154	0.0164632
671.232	0.0165488
671.310	0.0166494
671.388	0.0165706
671.466	0.0167604
671.544	0.0165193
671.622	0.0166881
671.700	0.0166739
671.779	0.0168586
671.857	0.0169749
671.935	0.0170084
672.013	0.0170136
672.091	0.0172044
672.169	0.0173818
672.247	0.0174106
672.325	0.0176095
672.404	0.0177698
672.482	0.0177685
672.560	0.0177308
672.638	0.0177602
672.716	0.0178745
672.794	0.0178073
672.872	0.0174745
672.950	0.0175904
673.029	0.0173861
673.107	0.0170429
673.185	0.0170457
673.263	0.0170828
673.341	0.0167989
673.419	0.0167145
673.497	0.0164426
673.575	0.0160445
673.654	0.0160850
673.732	0.0159238
673.810	0.0157883
673.888	0.0157224
673.966	0.0156148
674.044	0.0155918
674.122	0.0153526
674.200	0.0152432
674.279	0.0151936
674.357	0.0154457
674.435	0.0153836
674.513	0.0154331
674.591	0.0156171
674.669	0.0156985
674.747	0.0160435
674.825	0.0164156
674.904	0.0167641
674.982	0.0169862
675.060	0.0171243
675.138	0.0173322
675.216	0.0175244
675.294	0.0177025
675.372	0.0177464
675.450	0.0179742
675.529	0.0176499
675.607	0.0175528
675.685	0.0176212
675.763	0.0175630
675.841	0.0172060
675.919	0.0172147
675.997	0.0170022
676.075	0.0168501
676.154	0.0168960
676.232	0.0167551
676.310	0.0168220
676.388	0.0168672
676.466	0.0169880
676.544	0.0168083
676.622	0.0168184
676.700	0.0169526
676.779	0.0169680
676.857	0.0168940
676.935	0.0168929
677.013	0.0166048
677.091	0.0166315
677.169	0.0163927
677.247	0.0162862
677.325	0.0160941
677.404	0.0157912
677.482	0.0157657
677.560	0.0155518
677.638	0.0153690
677.716	0.0152193
677.794	0.0150075
677.872	0.0150446
677.950	0.0149289
678.029	0.0149369
678.107	0.0152748
678.185	0.0154353
678.263	0.0158363
678.341	0.0160449
678.419	0.0163538
678.497	0.0169305
678.575	0.0174427
678.654	0.0179139
678.732	0.0182781
678.810	0.0187051
678.888	0.0191767
678.966	0.0194648
679.044	0.0195942
679.122	0.0198792
679.200	0.0198975
679.279	0.0198800
679.357	0.0199911
679.435	0.0198898
679.513	0.0196217
679.591	0.0194358
679.669	0.0190236
679.747	0.0186443
679.825	0.0183982
679.904	0.0178181
679.982	0.0174083
680.060	0.0167718
680.138	0.0160020
680.216	0.0154572
680.294	0.0149418
680.372	0.0143980
680.450	0.0139958
680.529	0.0137097
680.607	0.0133154
680.685	0.0133184
680.763	0.0132889
680.841	0.0134819
680.919	0.0135739
680.997	0.0137851
681.075	0.0140080
681.154	0.0144184
681.232	0.0146497
681.310	0.0147897
681.388	0.0150569
681.466	0.0154196
681.544	0.0156478
681.622	0.0159161
681.700	0.0161427
681.779	0.0166912
681.857	0.0170007
681.935	0.0173327
682.013	0.0177795
682.091	0.0181927
682.169	0.0186050
682.247	0.0186148
682.325	0.0189193
682.404	0.0190274
682.482	0.0189298
682.560	0.0189738
682.638	0.0188865
682.716	0.0185001
682.794	0.0183856
682.872	0.0180940
682.950	0.0176582
683.029	0.0172376
683.107	0.0169823
683.185	0.0165048
683.263	0.0161707
683.341	0.0156490
683.419	0.0153429
683.497	0.0149823
683.575	0.0144675
683.654	0.0142789
683.732	0.0140888
683.810	0.0137924
683.888	0.0136681
683.966	0.0138091
684.044	0.0139528
684.122	0.0142983
684.200	0.0146411
684.279	0.0149173
684.357	0.0155176
684.435	0.0163745
684.513	0.0172015
684.591	0.0181503
684.669	0.0189219
684.747	0.0200890
684.825	0.0212003
684.904	0.0218959
684.982	0.0226406
685.060	0.0234206
685.138	0.0240092
685.216	0.0241505
685.294	0.0242295
685.372	0.0240530
685.450	0.0235786
685.529	0.0229517
685.607	0.0221561
685.685	0.0210868
685.763	0.0200414
685.841	0.0188660
685.919	0.0175075
685.997	0.0162905
686.075	0.0151568
686.154	0.0139030
686.232	0.0129192
686.310	0.0118120
686.388	0.0108799
686.466	0.0100513
686.544	0.00942024
686.622	0.00894302
686.700	0.00849937
686.779	0.00825630
686.857	0.00805603
686.935	0.00826553
687.013	0.00865349
687.091	0.00906975
687.169	0.00968925
687.247	0.0103886
687.325	0.0112660
687.404	0.0123415
687.482	0.0134711
687.560	0.0145158
687.638	0.0155924
687.716	0.0167236
687.794	0.0177979
687.872	0.0187563
687.950	0.0198007
688.029	0.0205862
688.107	0.0212522
688.185	0.0218324
688.263	0.0221463
688.341	0.0223631
688.419	0.0225335
688.497	0.0225068
688.575	0.0227193
688.654	0.0225927
688.732	0.0223199
688.810	0.0218025
688.888	0.0214841
688.966	0.0210056
689.044	0.0204059
689.122	0.0195757
689.200	0.0187957
689.279	0.0180470
689.357	0.0170776
689.435	0.0161803
689.513	0.0151234
689.591	0.0145832
689.669	0.0139189
689.747	0.0133123
689.825	0.0130153
689.904	0.0127674
689.982	0.0124708
690.060	0.0125211
690.138	0.0125723
690.216	0.0127646
690.294	0.0130798
690.372	0.0135612
690.450	0.0141734
690.529	0.0149927
690.607	0.0158649
690.685	0.0168731
690.763	0.0179685
690.841	0.0189009
690.919	0.0201398
690.997	0.0211145
691.075	0.0221339
691.154	0.0227972
691.232	0.0236348
691.310	0.0240802
691.388	0.0241971
691.466	0.0242216
691.544	0.0238383
691.622	0.0233280
691.700	0.0223669
691.779	0.0215150
691.857	0.0203921
691.935	0.0190899
692.013	0.0179737
692.091	0.0164863
692.169	0.0150783
692.247	0.0137179
692.325	0.0126002
692.404	0.0114111
692.482	0.0104927
692.560	0.0100159
692.638	0.00926483
692.716	0.00883308
692.794	0.00878632
692.872	0.00874382
692.950	0.00886421
693.029	0.00916298
693.107	0.00975525
693.185	0.0104398
693.263	0.0111145
693.341	0.0118118
693.419	0.0127121
693.497	0.0136056
693.575	0.0144274
693.654	0.0153904
693.732	0.0161893
693.810	0.0167731
693.888	0.0174509
693.966	0.0181329
694.044	0.0185107
694.122	0.0186520
694.200	0.0190003
694.279	0.0190405
694.357	0.0188898
694.435	0.0187072
694.513	0.0186166
694.591	0.0182739
694.669	0.0180199
694.747	0.0173355
694.825	0.0170549
694.904	0.0166711
694.982	0.0162145
695.060	0.0157658
695.138	0.0153587
695.216	0.0149336
695.294	0.0147806
695.372	0.0146909
695.450	0.0148575
695.529	0.0151687
695.607	0.0157699
695.685	0.0163770
695.763	0.0171014
695.841	0.0181104
695.919	0.0192554
695.997	0.0203513
696.075	0.0215069
696.154	0.0226500
696.232	0.0238146
696.310	0.0247220
696.388	0.0253716
696.466	0.0258984
696.544	0.0263051
696.622	0.0263549
696.700	0.0262704
696.779	0.0260334
696.857	0.0252638
696.935	0.0244707
697.013	0.0234036
697.091	0.0221400
697.169	0.0208554
697.247	0.0195861
697.325	0.0183291
697.404	0.0169616
697.482	0.0157531
697.560	0.0146404
697.638	0.0135432
697.716	0.0126349
697.794	0.0120618
697.872	0.0114285
697.950	0.0108234
698.029	0.0106448
698.107	0.0103828
698.185	0.0101368
698.263	0.0101877
698.341	0.0102052
698.419	0.0103060
698.497	0.0102461
698.575	0.0104318
698.654	0.0104147
698.732	0.0104821
698.810	0.0107300
698.888	0.0109568
698.966	0.0112004
699.044	0.0113600
699.122	0.0117609
699.200	0.0120261
699.279	0.0123020
699.357	0.0128734
699.435	0.0134110
699.513	0.0139025
699.591	0.0142302
699.669	0.0146114
699.747	0.0149117
699.825	0.0151474
699.904	0.0154237
699.982	0.0155393
700.060	0.0155177
700.138	0.0154060
700.216	0.0153849
700.294	0.0154211
700.372	0.0152517
700.450	0.0153284
700.529	0.0153715
700.607	0.0155299
700.685	0.0158760
700.763	0.0163275
700.841	0.0169460
700.919	0.0177976
700.997	0.0187962
701.075	0.0201623
701.154	0.0213974
701.232	0.0228856
701.310	0.0241786
701.388	0.0257380
701.466	0.0267355
701.544	0.0277304
701.622	0.0285223
701.700	0.0288120
701.779	0.0288985
701.857	0.0287749
701.935	0.0283005
702.013	0.0274901
702.091	0.0266881
702.169	0.0255602
702.247	0.0244736
702.325	0.0230054
702.404	0.0216379
702.482	0.0202409
702.560	0.0191003
702.638	0.0175869
702.716	0.0165136
702.794	0.0154592
702.872	0.0144070
702.950	0.0136843
703.029	0.0130573
703.107	0.0124712
703.185	0.0117944
703.263	0.0113487
703.341	0.0108086
703.419	0.0104517
703.497	0.0102452
703.575	0.0101978
703.654	0.00990532
703.732	0.00990341
703.810	0.00990753
703.888	0.0101464
703.966	0.0101050
704.044	0.0105479
704.122	0.0107959
704.200	0.0111393
704.279	0.0115467
704.357	0.0118224
704.435	0.0122495
704.513	0.0125919
704.591	0.0130289
704.669	0.0132476
704.747	0.0135326
704.825	0.0138186
704.904	0.0141058
704.982	0.0142785
705.060	0.0144804
705.138	0.0146986
705.216	0.0148044
705.294	0.0148515
705.372	0.0150223
705.450	0.0151981
705.529	0.0152070
705.607	0.0153617
705.685	0.0153280
705.763	0.0154962
705.841	0.0158453
705.919	0.0160796
705.997	0.0166062
706.075	0.0171675
706.154	0.0178143
706.232	0.0185815
706.310	0.0192837
706.388	0.0202602
706.466	0.0212276
706.544	0.0220210
706.622	0.0229189
706.700	0.0233948
706.779	0.0240499
706.857	0.0245676
706.935	0.0247635
707.013	0.0246252
707.091	0.0245359
707.169	0.0240977
707.247	0.0238768
707.325	0.0231813
707.404	0.0224473
707.482	0.0219000
707.560	0.0211659
707.638	0.0203487
707.716	0.0197091
707.794	0.0190607
707.872	0.0183342
707.950	0.0177057
708.029	0.0171697
708.107	0.0166985
708.185	0.0162054
708.263	0.0159380
708.341	0.0153495
708.419	0.0153082
708.497	0.0148859
708.575	0.0145312
708.654	0.0143803
708.732	0.0139028
708.810	0.0135364
708.888	0.0133425
708.966	0.0130483
709.044	0.0125529
709.122	0.0124599
709.200	0.0123237
709.279	0.0120787
709.357	0.0120580
709.435	0.0119536
709.513	0.0119874
709.591	0.0119011
709.669	0.0120569
709.747	0.0123436
709.825	0.0125807
709.904	0.0129050
709.982	0.0133047
710.060	0.0136349
710.138	0.0140792
710.216	0.0144835
710.294	0.0150416
710.372	0.0155344
710.450	0.0158333
710.529	0.0162007
710.607	0.0165765
710.685	0.0168954
710.763	0.0169932
710.841	0.0172111
710.919	0.0172668
710.997	0.0174354
711.075	0.0174001
711.154	0.0173264
711.232	0.0173979
711.310	0.0176347
711.388	0.0177279
711.466	0.0178674
711.544	0.0182529
711.622	0.0184431
711.700	0.0189111
711.779	0.0191503
711.857	0.0195464
711.935	0.0199317
712.013	0.0201894
712.091	0.0204408
712.169	0.0206337
712.247	0.0207861
712.325	0.0208588
712.404	0.0208627
712.482	0.0205589
712.560	0.0205394
712.638	0.0203223
712.716	0.0198201
712.794	0.0194850
712.872	0.0190888
712.950	0.0187378
713.029	0.0183321
713.107	0.0178391
713.185	0.0174331
713.263	0.0171134
713.341	0.0166194
713.419	0.0163417
713.497	0.0158779
713.575	0.0154955
713.654	0.0153551
713.732	0.0150761
713.810	0.0147280
713.888	0.0143153
713.966	0.0140722
714.044	0.0137429
714.122	0.0134650
714.200	0.0134494
714.279	0.0133255
714.357	0.0130935
714.435	0.0131281
714.513	0.0130740
714.591	0.0132812
714.669	0.0133115
714.747	0.0135188
714.825	0.0139197
714.904	0.0141737
714.982	0.0145332
715.060	0.0150352
715.138	0.0153209
715.216	0.0155227
715.294	0.0157802
715.372	0.0160410
715.450	0.0163475
715.529	0.0165958
715.607	0.0167621
715.685	0.0168874
715.763	0.0169038
715.841	0.0171379
715.919	0.0170882
715.997	0.0172216
716.075	0.0172427
716.154	0.0172599
716.232	0.0173845
716.310	0.0174593
716.388	0.0176897
716.466	0.0177737
716.544	0.0179758
716.622	0.0180994
716.700	0.0182957
716.779	0.0184949
716.857	0.0186941
716.935	0.0186838
717.013	0.0188405
717.091	0.0190689
717.169	0.0191344
717.247	0.0190763
717.325	0.0190393
717.404	0.0188045
717.482	0.0189259
717.560	0.0186151
717.638	0.0185013
717.716	0.0181434
717.794	0.0181075
717.872	0.0179372
717.950	0.0177773
718.029	0.0175684
718.107	0.0174745
718.185	0.0173911
718.263	0.0171001
718.341	0.0170213
718.419	0.0170911
718.497	0.0170898
718.575	0.0170479
718.654	0.0170011
718.732	0.0169349
718.810	0.0170834
718.888	0.0169373
718.966	0.0169226
719.044	0.0169294
719.122	0.0166762
719.200	0.0165730
719.279	0.0163673
719.357	0.0160758
719.435	0.0158685
719.513	0.0154145
719.591	0.0151689
719.669	0.0149156
719.747	0.0144736
719.825	0.0142765
719.904	0.0141338
719.982	0.0138525
720.060	0.0137710
720.138	0.0136744
720.216	0.0137356
720.294	0.0137878
720.372	0.0140086
720.450	0.0141693
720.529	0.0145415
720.607	0.0148928
720.685	0.0151067
720.763	0.0153918
720.841	0.0158234
720.919	0.0164002
720.997	0.0164738
721.075	0.0167563
721.154	0.0171848
721.232	0.0175964
721.310	0.0175316
721.388	0.0177087
721.466	0.0179609
721.544	0.0178844
721.622	0.0178087
721.700	0.0177361
721.779	0.0179053
721.857	0.0178236
721.935	0.0176762
722.013	0.0175348
722.091	0.0173970
722.169	0.0173428
722.247	0.0172230
722.325	0.0169560
722.404	0.0167847
722.482	0.0167519
722.560	0.0166734
722.638	0.0166592
722.716	0.0167435
722.794	0.0169294
722.872	0.0168285
722.950	0.0169205
723.029	0.0172649
723.107	0.0173694
723.185	0.0175974
723.263	0.0177396
723.341	0.0180589
723.419	0.0181683
723.497	0.0183895
723.575	0.0186845
723.654	0.0189165
723.732	0.0188951
723.810	0.0189192
723.888	0.0188107
723.966	0.0187646
724.044	0.0187906
724.122	0.0187113
724.200	0.0182771
724.279	0.0179355
724.357	0.0178405
724.435	0.0174142
724.513	0.0170484
724.591	0.0165135
724.669	0.0163142
724.747	0.0159126
724.825	0.0155342
724.904	0.0155024
724.982	0.0153024
725.060	0.0149802
725.138	0.0151239
725.216	0.0148165
725.294	0.0148528
725.372	0.0150296
725.450	0.0151300
725.529	0.0151930
725.607	0.0154238
725.685	0.0154306
725.763	0.0156244
725.841	0.0157836
725.919	0.0159948
725.997	0.0161368
726.075	0.0164200
726.154	0.0164055
726.232	0.0165444
726.310	0.0165717
726.388	0.0164805
726.466	0.0166983
726.544	0.0166222
726.622	0.0164286
726.700	0.0164299
726.779	0.0166137
726.857	0.0164077
726.935	0.0163793
727.013	0.0165817
727.091	0.0165575
727.169	0.0163992
727.247	0.0164217
727.325	0.0166993
727.404	0.0164832
727.482	0.0165958
727.560	0.0168878
727.638	0.0167695
727.716	0.0167150
727.794	0.0166151
727.872	0.0165207
727.950	0.0165756
728.029	0.0166605
728.107	0.0164100
728.185	0.0162816
728.263	0.0161752
728.341	0.0160404
728.419	0.0158518
728.497	0.0158859
728.575	0.0160029
728.654	0.0160462
728.732	0.0162068
728.810	0.0162423
728.888	0.0166075
728.966	0.0167387
729.044	0.0169756
729.122	0.0174235
729.200	0.0177058
729.279	0.0178194
729.357	0.0182428
729.435	0.0184200
729.513	0.0185216
729.591	0.0186141
729.669	0.0187251
729.747	0.0186809
729.825	0.0185320
729.904	0.0184048
729.982	0.0182003
730.060	0.0179329
730.138	0.0176350
730.216	0.0173685
730.294	0.0168964
730.372	0.0165791
730.450	0.0164259
730.529	0.0162326
730.607	0.0159216
730.685	0.0157655
730.763	0.0157233
730.841	0.0155399
730.919	0.0153773
730.997	0.0155369
731.075	0.0155190
731.154	0.0156477
731.232	0.0156398
731.310	0.0156850
731.388	0.0159032
731.466	0.0158844
731.544	0.0158842
731.622	0.0161773
731.700	0.0164922
731.779	0.0164783
731.857	0.0164506
731.935	0.0167623
732.013	0.0169505
732.091	0.0169774
732.169	0.0171915
732.247	0.0172198
732.325	0.0173422
732.404	0.0174246
732.482	0.0175425
732.560	0.0174749
732.638	0.0175059
732.716	0.0175488
732.794	0.0174966
732.872	0.0174928
732.950	0.0174641
733.029	0.0174144
733.107	0.0173001
733.185	0.0172240
733.263	0.0170885
733.341	0.0169231
733.419	0.0169134
733.497	0.0168813
733.575	0.0166277
733.654	0.0164525
733.732	0.0163432
733.810	0.0159973
733.888	0.0161530
733.966	0.0159805
734.044	0.0158429
734.122	0.0156876
734.200	0.0155707
734.279	0.0156380
734.357	0.0156396
734.435	0.0157847
734.513	0.0157449
734.591	0.0160094
734.669	0.0159831
734.747	0.0163921
734.825	0.0165428
734.904	0.0167803
734.982	0.0168896
735.060	0.0170683
735.138	0.0170790
735.216	0.0173011
735.294	0.0173523
735.372	0.0172460
735.450	0.0172189
735.529	0.0173014
735.607	0.0169959
735.685	0.0169820
735.763	0.0170099
735.841	0.0168806
735.919	0.0168504
735.997	0.0166717
736.075	0.0167873
736.154	0.0167558
736.232	0.0166394
736.310	0.0164982
736.388	0.0163328
736.466	0.0164176
736.544	0.0163374
736.622	0.0162856
736.700	0.0162401
736.779	0.0162880
736.857	0.0160938
736.935	0.0159525
737.013	0.0162009
737.091	0.0161284
737.169	0.0159946
737.247	0.0159409
737.325	0.0161764
737.404	0.0163562
737.482	0.0162965
737.560	0.0163332
737.638	0.0165640
737.716	0.0166216
737.794	0.0168678
737.872	0.0167547
737.950	0.0170880
738.029	0.0174057
738.107	0.0175115
738.185	0.0173714
738.263	0.0175885
738.341	0.0177459
738.419	0.0177337
738.497	0.0179217
738.575	0.0179401
738.654	0.0179594
738.732	0.0177219
738.810	0.0176157
738.888	0.0175429
738.966	0.0173660
739.044	0.0175002
739.122	0.0171753
739.200	0.0168775
739.279	0.0168478
739.357	0.0166426
739.435	0.0165865
739.513	0.0163567
739.591	0.0162698
739.669	0.0161858
739.747	0.0160648
739.825	0.0159035
739.904	0.0159064
739.982	0.0159138
740.060	0.0160384
740.138	0.0161329
740.216	0.0162768
740.294	0.0162727
740.372	0.0164262
740.450	0.0164807
740.529	0.0164935
740.607	0.0165536
740.685	0.0166921
740.763	0.0168327
740.841	0.0167881
740.919	0.0168933
740.997	0.0169704
741.075	0.0169030
741.154	0.0170498
741.232	0.0172551
741.310	0.0170079
741.388	0.0170690
741.466	0.0171546
741.544	0.0172599
741.622	0.0172205
741.700	0.0170683
741.779	0.0171236
741.857	0.0170012
741.935	0.0168987
742.013	0.0167989
742.091	0.0168098
742.169	0.0166212
742.247	0.0165276
742.325	0.0164253
742.404	0.0162439
742.482	0.0159734
742.560	0.0159747
742.638	0.0159275
742.716	0.0157194
742.794	0.0157541
742.872	0.0157294
742.950	0.0158319
743.029	0.0159121
743.107	0.0159418
743.185	0.0160902
743.263	0.0161314
743.341	0.0163412
743.419	0.0165028
743.497	0.0164822
743.575	0.0167870
743.654	0.0167341
743.732	0.0168825
743.810	0.0169106
743.888	0.0170338
743.966	0.0168559
744.044	0.0170267
744.122	0.0171855
744.200	0.0171926
744.279	0.0171677
744.357	0.0171221
744.435	0.0170316
744.513	0.0171834
744.591	0.0169595
744.669	0.0169517
744.747	0.0169075
744.825	0.0168115
744.904	0.0168575
744.982	0.0166846
745.060	0.0167763
745.138	0.0168288
745.216	0.0167316
745.294	0.0167627
745.372	0.0168059
745.450	0.0167081
745.529	0.0167117
745.607	0.0168134
745.685	0.0169048
745.763	0.0168764
745.841	0.0169822
745.919	0.0168740
745.997	0.0168618
746.075	0.0168147
746.154	0.0169726
746.232	0.0168642
746.310	0.0169270
746.388	0.0169730
746.466	0.0170888
746.544	0.0169489
746.622	0.0170494
746.700	0.0170026
746.779	0.0169794
746.857	0.0168475
746.935	0.0171202
747.013	0.0170047
747.091	0.0170977
747.169	0.0171642
747.247	0.0171695
747.325	0.0172048
747.404	0.0171108
747.482	0.0170398
747.560	0.0172072
747.638	0.0171363
747.716	0.0169756
747.794	0.0169917
747.872	0.0170383
747.950	0.0169009
748.029	0.0166327
748.107	0.0165859
748.185	0.0166203
748.263	0.0166704
748.341	0.0163841
748.419	0.0164133
748.497	0.0160772
748.575	0.0162405
748.654	0.0161187
748.732	0.0161940
748.810	0.0160626
748.888	0.0159753
748.966	0.0160056
749.044	0.0161859
749.122	0.0160956
749.200	0.0162094
749.279	0.0161609
749.357	0.0163557
749.435	0.0163116
749.513	0.0165277
749.591	0.0166317
749.669	0.0164790
749.747	0.0166544
749.825	0.0166510
749.904	0.0167171
749.982	0.0168900
750.060	0.0168315
750.138	0.0167422
750.216	0.0168695
750.294	0.0169085
750.372	0.0168722
750.450	0.0168725
750.529	0.0168100
750.607	0.0167960
750.685	0.0168725
750.763	0.0167815
750.841	0.0167208
750.919	0.0167493
750.997	0.0166871
751.075	0.0165987
751.154	0.0165354
751.232	0.0165588
751.310	0.0165383
751.388	0.0163579
751.466	0.0163080
751.544	0.0162445
751.622	0.0162605
751.700	0.0162150
751.779	0.0163481
751.857	0.0164565
751.935	0.0164544
752.013	0.0165945
752.091	0.0166895
752.169	0.0168290
752.247	0.0168650
752.325	0.0170016
752.404	0.0168993
752.482	0.0170845
752.560	0.0171364
752.638	0.0172464
752.716	0.0173337
752.794	0.0171555
752.872	0.0171777
752.950	0.0172425
753.029	0.0172081
753.107	0.0172261
753.185	0.0171335
753.263	0.0170116
753.341	0.0170430
753.419	0.0171214
753.497	0.0169821
753.575	0.0171134
753.654	0.0168921
753.732	0.0169907
753.810	0.0169363
753.888	0.0170441
753.966	0.0169669
754.044	0.0169548
754.122	0.0166522
754.200	0.0167514
754.279	0.0166814
754.357	0.0166574
754.435	0.0166616
754.513	0.0166418
754.591	0.0164429
754.669	0.0164169
754.747	0.0164086
754.825	0.0162987
754.904	0.0162663
754.982	0.0160995
755.060	0.0162041
755.138	0.0162847
755.216	0.0163821
755.294	0.0164237
755.372	0.0165355
755.450	0.0166343
755.529	0.0166957
755.607	0.0167619
755.685	0.0167039
755.763	0.0170358
755.841	0.0170428
755.919	0.0169966
755.997	0.0169195
756.075	0.0168737
756.154	0.0170473
756.232	0.0170667
756.310	0.0167233
756.388	0.0167920
756.466	0.0168571
756.544	0.0165604
756.622	0.0165173
756.700	0.0166444
756.779	0.0163529
756.857	0.0162538
756.935	0.0162720
757.013	0.0160874
757.091	0.0161024
757.169	0.0161280
757.247	0.0160693
757.325	0.0160625
757.404	0.0162074
757.482	0.0162911
757.560	0.0162902
757.638	0.0164310
757.716	0.0165777
757.794	0.0167651
757.872	0.0168970
757.950	0.0168472
758.029	0.0171175
758.107	0.0171083
758.185	0.0171389
758.263	0.0171758
758.341	0.0171389
758.419	0.0171998
758.497	0.0171852
758.575	0.0170087
758.654	0.0168060
758.732	0.0166534
758.810	0.0168463
758.888	0.0167953
758.966	0.0166585
759.044	0.0163914
759.122	0.0165240
759.200	0.0164941
759.279	0.0165629
759.357	0.0166106
759.435	0.0168885
759.513	0.0167472
759.591	0.0168010
759.669	0.0167686
759.747	0.0169188
759.825	0.0168534
759.904	0.0169995
759.982	0.0169541
760.060	0.0170150
760.138	0.0168983
760.216	0.0169549
760.294	0.0168485
760.372	0.0167324
760.450	0.0167802
760.529	0.0168128
760.607	0.0166758
760.685	0.0165193
760.763	0.0166329
760.841	0.0163981
760.919	0.0165680
760.997	0.0166283
761.075	0.0165927
761.154	0.0165131
761.232	0.0164842
761.310	0.0166824
761.388	0.0166023
761.466	0.0167867
761.544	0.0168376
761.622	0.0168301
761.700	0.0169563
761.779	0.0170805
761.857	0.0171806
761.935	0.0173433
762.013	0.0171690
762.091	0.0171855
762.169	0.0173202
762.247	0.0171653
762.325	0.0171541
762.404	0.0170558
762.482	0.0169822
762.560	0.0168523
762.638	0.0166721
762.716	0.0167123
762.794	0.0165977
762.872	0.0164490
762.950	0.0164729
763.029	0.0166511
763.107	0.0163912
763.185	0.0162635
763.263	0.0163866
763.341	0.0163831
763.419	0.0165195
763.497	0.0164143
763.575	0.0163389
763.654	0.0164944
763.732	0.0165123
763.810	0.0164788
763.888	0.0165908
763.966	0.0165900
764.044	0.0166135
764.122	0.0166279
764.200	0.0167310
764.279	0.0165836
764.357	0.0167548
764.435	0.0167361
764.513	0.0167355
764.591	0.0166161
764.669	0.0166151
764.747	0.0168696
764.825	0.0168678
764.904	0.0168890
764.982	0.0167686
765.060	0.0167246
765.138	0.0167107
765.216	0.0166857
765.294	0.0167249
765.372	0.0167026
765.450	0.0167471
765.529	0.0167453
765.607	0.0167416
765.685	0.0168172
765.763	0.0166290
765.841	0.0166021
765.919	0.0167094
765.997	0.0167188
766.075	0.0167902
766.154	0.0167906
766.232	0.0169141
766.310	0.0167760
766.388	0.0168475
766.466	0.0168246
766.544	0.0169176
766.622	0.0169678
766.700	0.0168307
766.779	0.0168492
766.857	0.0167264
766.935	0.0166367
767.013	0.0165923
767.091	0.0164532
767.169	0.0164470
767.247	0.0163829
767.325	0.0162952
767.404	0.0163141
767.482	0.0162213
767.560	0.0161374
767.638	0.0161834
767.716	0.0159952
767.794	0.0160979
767.872	0.0161379
767.950	0.0163995
768.029	0.0164679
768.107	0.0166553
768.185	0.0167592
768.263	0.0169296
768.341	0.0171399
768.419	0.0173129
768.497	0.0174659
768.575	0.0174856
768.654	0.0175618
768.732	0.0176099
768.810	0.0175652
768.888	0.0174625
768.966	0.0175391
769.044	0.0174978
769.122	0.0174210
769.200	0.0171930
769.279	0.0171411
769.357	0.0170334
769.435	0.0168265
769.513	0.0166304
769.591	0.0165376
769.669	0.0166176
769.747	0.0164053
769.825	0.0164627
769.904	0.0163883
769.982	0.0163836
770.060	0.0163485
770.138	0.0164211
770.216	0.0163934
770.294	0.0164263
770.372	0.0164961
770.450	0.0166602
770.529	0.0164781
770.607	0.0166087
770.685	0.0165538
770.763	0.0167340
770.841	0.0165961
770.919	0.0166203
770.997	0.0166859
771.075	0.0165696
771.154	0.0164749
771.232	0.0165656
771.310	0.0165139
771.388	0.0164693
771.466	0.0165111
771.544	0.0164948
771.622	0.0163950
771.700	0.0165545
771.779	0.0165659
771.857	0.0166088
771.935	0.0165549
772.013	0.0166264
772.091	0.0169714
772.169	0.0168554
772.247	0.0168311
772.325	0.0170562
772.404	0.0169392
772.482	0.0170994
772.560	0.0171699
772.638	0.0170597
772.716	0.0171490
772.794	0.0173350
772.872	0.0170600
772.950	0.0170818
773.029	0.0170057
773.107	0.0171223
773.185	0.0170267
773.263	0.0168264
773.341	0.0168537
773.419	0.0166212
773.497	0.0165763
773.575	0.0164045
773.654	0.0165159
773.732	0.0163062
773.810	0.0162606
773.888	0.0163497
773.966	0.0164726
774.044	0.0162997
774.122	0.0163847
774.200	0.0164430
774.279	0.0163668
774.357	0.0164678
774.435	0.0165900
774.513	0.0167608
774.591	0.0166817
774.669	0.0167419
774.747	0.0167599
774.825	0.0167419
774.904	0.0168827
774.982	0.0169630
775.060	0.0168049
775.138	0.0169262
775.216	0.0170038
775.294	0.0168365
775.372	0.0169167
775.450	0.0170422
775.529	0.0169344
775.607	0.0169031
775.685	0.0171163
775.763	0.0169723
775.841	0.0168513
775.919	0.0169127
775.997	0.0169397
776.075	0.0168628
776.154	0.0169029
776.232	0.0170309
776.310	0.0166777
776.388	0.0165828
776.466	0.0165788
776.544	0.0164032
776.622	0.0163898
776.700	0.0164475
776.779	0.0165303
776.857	0.0165208
776.935	0.0164427
777.013	0.0166960
777.091	0.0164460
777.169	0.0165717
777.247	0.0167414
777.325	0.0167478
777.404	0.0166645
777.482	0.0166148
777.560	0.0167725
777.638	0.0167866
777.716	0.0167468
777.794	0.0169118
777.872	0.0168611
777.950	0.0166360
778.029	0.0165215
778.107	0.0166859
778.185	0.0168880
778.263	0.0166663
778.341	0.0166886
778.419	0.0166234
778.497	0.0167131
778.575	0.0168078
778.654	0.0166985
778.732	0.0168391
778.810	0.0167861
778.888	0.0166121
778.966	0.0167788
779.044	0.0169350
779.122	0.0168056
779.200	0.0167474
779.279	0.0168511
779.357	0.0168169
779.435	0.0168470
779.513	0.0168842
779.591	0.0168591
779.669	0.0167396
779.747	0.0166499
779.825	0.0168507
779.904	0.0165934
779.982	0.0166896
780.060	0.0167429
780.138	0.0164391
780.216	0.0164752
780.294	0.0166348
780.372	0.0165493
780.450	0.0164721
780.529	0.0163747
780.607	0.0164957
780.685	0.0167494
780.763	0.0165922
780.841	0.0166679
780.919	0.0168533
780.997	0.0167477
781.075	0.0167549
781.154	0.0168047
781.232	0.0168645
781.310	0.0169843
781.388	0.0171478
781.466	0.0170510
781.544	0.0171339
781.622	0.0170502
781.700	0.0173184
781.779	0.0172775
781.857	0.0171671
781.935	0.0172820
782.013	0.0171444
782.091	0.0171227
782.169	0.0170253
782.247	0.0169443
782.325	0.0169107
782.404	0.0169093
782.482	0.0168232
782.560	0.0166204
782.638	0.0166640
782.716	0.0164984
782.794	0.0164291
782.872	0.0163052
782.950	0.0162247
783.029	0.0161089
783.107	0.0161446
783.185	0.0160587
783.263	0.0161304
783.341	0.0162186
783.419	0.0160851
783.497	0.0161621
783.575	0.0160969
783.654	0.0161835
783.732	0.0161186
783.810	0.0161770
783.888	0.0162949
783.966	0.0162336
784.044	0.0162910
784.122	0.0163447
784.200	0.0162865
784.279	0.0164445
784.357	0.0167207
784.435	0.0165186
784.513	0.0167065
784.591	0.0168719
784.669	0.0167912
784.747	0.0168745
784.825	0.0171574
784.904	0.0170421
784.982	0.0171075
785.060	0.0172119
785.138	0.0173906
785.216	0.0174296
785.294	0.0174353
785.372	0.0174808
785.450	0.0174018
785.529	0.0174235
785.607	0.0172963
785.685	0.0173518
785.763	0.0171850
785.841	0.0170691
785.919	0.0170705
785.997	0.0170856
786.075	0.0169588
786.154	0.0168522
786.232	0.0169509
786.310	0.0167156
786.388	0.0166936
786.466	0.0167268
786.544	0.0166375
786.622	0.0166928
786.700	0.0166743
786.779	0.0165607
786.857	0.0167051
786.935	0.0169646
787.013	0.0168966
787.091	0.0168745
787.169	0.0169224
787.247	0.0169658
787.325	0.0170061
787.404	0.0172294
787.482	0.0171400
787.560	0.0170158
787.638	0.0170901
787.716	0.0171400
787.794	0.0170969
787.872	0.0171148
787.950	0.0169829
788.029	0.0170237
788.107	0.0170013
788.185	0.0169627
788.263	0.0166185
788.341	0.0166408
788.419	0.0164610
788.497	0.0164449
788.575	0.0163542
788.654	0.0162923
788.732	0.0161378
788.810	0.0161827
788.888	0.0161597
788.966	0.0159290
789.044	0.0159914
789.122	0.0160567
789.200	0.0160591
789.279	0.0160722
789.357	0.0160590
789.435	0.0160055
789.513	0.0160502
789.591	0.0161443
789.669	0.0161250
789.747	0.0162592
789.825	0.0161653
789.904	0.0163190
789.982	0.0163781
790.060	0.0163478
790.138	0.0163151
790.216	0.0165392
790.294	0.0164703
790.372	0.0164917
790.450	0.0165462
790.529	0.0164836
790.607	0.0166103
790.685	0.0167146
790.763	0.0167710
790.841	0.0167446
790.919	0.0167229
790.997	0.0168715
791.075	0.0168672
791.154	0.0170158
791.232	0.0170544
791.310	0.0169684
791.388	0.0169807
791.466	0.0170502
791.544	0.0171960
791.622	0.0172916
791.700	0.0171875
791.779	0.0171708
791.857	0.0170901
791.935	0.0170954
792.013	0.0172642
792.091	0.0172829
792.169	0.0171706
792.247	0.0171820
792.325	0.0172366
792.404	0.0174557
792.482	0.0173640
792.560	0.0172344
792.638	0.0172985
792.716	0.0174503
792.794	0.0173294
792.872	0.0174586
792.950	0.0172723
793.029	0.0171806
793.107	0.0170965
793.185	0.0170262
793.263	0.0170461
793.341	0.0168617
793.419	0.0168973
793.497	0.0169917
793.575	0.0168250
793.654	0.0167760
793.732	0.0167326
793.810	0.0167181
793.888	0.0167486
793.966	0.0167680
794.044	0.0168166
794.122	0.0166503
794.200	0.0166846
794.279	0.0167400
794.357	0.0166236
794.435	0.0166582
794.513	0.0165681
794.591	0.0165473
794.669	0.0165296
794.747	0.0164457
794.825	0.0164153
794.904	0.0162659
794.982	0.0161906
795.060	0.0163252
795.138	0.0161964
795.216	0.0161875
795.294	0.0160329
795.372	0.0160320
795.450	0.0160083
795.529	0.0160499
795.607	0.0159180
795.685	0.0158835
795.763	0.0159572
795.841	0.0158831
795.919	0.0158786
795.997	0.0160535
796.075	0.0159361
796.154	0.0160309
796.232	0.0162717
796.310	0.0161462
796.388	0.0162805
796.466	0.0162730
796.544	0.0164533
796.622	0.0164812
796.700	0.0166253
796.779	0.0166934
796.857	0.0167958
796.935	0.0169269
797.013	0.0170718
797.091	0.0170163
797.169	0.0172626
797.247	0.0173949
797.325	0.0173787
797.404	0.0174148
797.482	0.0177000
797.560	0.0177216
797.638	0.0176479
797.716	0.0177450
797.794	0.0179045
797.872	0.0177834
797.950	0.0177573
798.029	0.0178867
798.107	0.0177705
798.185	0.0177617
798.263	0.0177091
798.341	0.0175669
798.419	0.0173734
798.497	0.0173590
798.575	0.0174001
798.654	0.0173170
798.732	0.0172224
798.810	0.0172332
798.888	0.0172044
798.966	0.0169553
799.044	0.0170028
799.122	0.0169847
799.200	0.0169586
799.279	0.0168709
799.357	0.0168637
799.435	0.0169172
799.513	0.0167207
799.591	0.0166628
799.669	0.0166693
799.747	0.0165404
799.825	0.0164064
799.904	0.0164430
799.982	0.0163123
800.060	0.0161438
800.138	0.0161463
800.216	0.0159584
800.294	0.0159040
800.372	0.0158514
800.450	0.0157850
800.529	0.0158288
800.607	0.0156240
800.685	0.0155930
800.763	0.0156926
800.841	0.0159018
800.919	0.0158361
800.997	0.0159214
801.075	0.0159557
801.154	0.0158767
801.232	0.0161559
801.310	0.0161568
801.388	0.0160964
801.466	0.0164101
801.544	0.0162982
801.622	0.0163720
801.700	0.0166560
801.779	0.0167426
801.857	0.0167011
801.935	0.0167591
802.013	0.0167402
802.091	0.0170413
802.169	0.0169807
802.247	0.0171407
802.325	0.0171770
802.404	0.0171753
802.482	0.0172073
802.560	0.0173691
802.638	0.0174146
802.716	0.0172995
802.794	0.0173669
802.872	0.0176116
802.950	0.0174404
803.029	0.0174226
803.107	0.0175247
803.185	0.0176742
803.263	0.0176431
803.341	0.0175430
803.419	0.0174477
803.497	0.0174638
803.575	0.0172404
803.654	0.0172278
803.732	0.0172067
803.810	0.0170118
803.888	0.0168249
803.966	0.0169051
804.044	0.0168873
804.122	0.0166943
804.200	0.0165567
804.279	0.0166322
804.357	0.0166911
804.435	0.0164127
804.513	0.0165575
804.591	0.0164462
804.669	0.0164053
804.747	0.0164576
804.825	0.0165154
804.904	0.0164407
804.982	0.0165072
805.060	0.0164167
805.138	0.0163030
805.216	0.0163878
805.294	0.0163664
805.372	0.0164258
805.450	0.0163910
805.529	0.0165289
805.607	0.0163894
805.685	0.0164637
805.763	0.0164494
805.841	0.0164562
805.919	0.0165576
805.997	0.0165006
806.075	0.0165384
806.154	0.0164178
806.232	0.0164228
806.310	0.0164132
806.388	0.0163866
806.466	0.0164199
806.544	0.0164590
806.622	0.0165351
806.700	0.0164639
806.779	0.0165783
806.857	0.0165910
806.935	0.0166083
807.013	0.0166783
807.091	0.0166012
807.169	0.0167889
807.247	0.0167838
807.325	0.0166404
807.404	0.0168375
807.482	0.0167388
807.560	0.0167970
807.638	0.0167074
807.716	0.0168076
807.794	0.0169065
807.872	0.0169175
807.950	0.0168826
808.029	0.0168442
808.107	0.0169411
808.185	0.0170972
808.263	0.0169293
808.341	0.0170380
808.419	0.0169528
808.497	0.0168183
808.575	0.0169441
808.654	0.0170290
808.732	0.0168211
808.810	0.0170000
808.888	0.0169178
808.966	0.0167508
809.044	0.0168800
809.122	0.0167033
809.200	0.0167445
809.279	0.0166550
809.357	0.0165351
809.435	0.0165770
809.513	0.0166954
809.591	0.0167167
809.669	0.0165895
809.747	0.0166286
809.825	0.0165991
809.904	0.0166901
809.982	0.0166917
810.060	0.0166669
810.138	0.0167747
810.216	0.0166454
810.294	0.0165952
810.372	0.0166376
810.450	0.0164727
810.529	0.0165872
810.607	0.0164675
810.685	0.0163502
810.763	0.0164355
810.841	0.0164599
810.919	0.0165217
810.997	0.0163826
811.075	0.0165090
811.154	0.0165068
811.232	0.0165602
811.310	0.0166393
811.388	0.0165848
811.466	0.0167269
811.544	0.0167140
811.622	0.0168700
811.700	0.0169875
811.779	0.0168699
811.857	0.0171333
811.935	0.0172268
812.013	0.0170258
812.091	0.0171779
812.169	0.0170739
812.247	0.0170038
812.325	0.0169560
812.404	0.0171443
812.482	0.0167876
812.560	0.0167303
812.638	0.0167054
812.716	0.0165857
812.794	0.0165019
812.872	0.0164948
812.950	0.0165064
813.029	0.0163786
813.107	0.0164208
813.185	0.0163873
813.263	0.0164978
813.341	0.0163030
813.419	0.0163068
813.497	0.0163803
813.575	0.0165059
813.654	0.0166069
813.732	0.0166571
813.810	0.0166227
813.888	0.0167174
813.966	0.0166744
814.044	0.0166514
814.122	0.0166567
814.200	0.0166645
814.279	0.0168284
814.357	0.0170082
814.435	0.0169337
814.513	0.0170181
814.591	0.0169640
814.669	0.0169855
814.747	0.0170766
814.825	0.0171683
814.904	0.0170499
814.982	0.0169579
815.060	0.0171135
815.138	0.0170647
815.216	0.0170495
815.294	0.0169950
815.372	0.0168334
815.450	0.0168192
815.529	0.0169635
815.607	0.0167364
815.685	0.0165376
815.763	0.0165294
815.841	0.0163815
815.919	0.0161868
815.997	0.0163461
816.075	0.0163229
816.154	0.0161081
816.232	0.0161229
816.310	0.0162218
816.388	0.0160544
816.466	0.0162830
816.544	0.0163226
816.622	0.0163186
816.700	0.0163646
816.779	0.0162922
816.857	0.0164184
816.935	0.0166025
817.013	0.0166447
817.091	0.0167667
817.169	0.0167996
817.247	0.0169296
817.325	0.0171009
817.404	0.0170936
817.482	0.0171085
817.560	0.0171286
817.638	0.0172781
817.716	0.0172328
817.794	0.0172980
817.872	0.0171859
817.950	0.0172283
818.029	0.0171766
818.107	0.0170373
818.185	0.0172893
818.263	0.0171732
818.341	0.0170182
818.419	0.0170658
818.497	0.0169530
818.575	0.0169360
818.654	0.0169112
818.732	0.0168317
818.810	0.0167968
818.888	0.0167580
818.966	0.0167743
819.044	0.0166699
819.122	0.0166586
819.200	0.0166076
819.279	0.0165263
819.357	0.0164581
819.435	0.0165108
819.513	0.0164613
819.591	0.0163541
819.669	0.0164722
819.747	0.0164880
819.825	0.0167056
819.904	0.0164821
819.982	0.0166413
820.060	0.0168988
820.138	0.0168983
820.216	0.0168826
820.294	0.0169378
820.372	0.0170431
820.450	0.0171023
820.529	0.0171796
820.607	0.0170834
820.685	0.0171521
820.763	0.0169881
820.841	0.0170968
820.919	0.0170319
820.997	0.0168487
821.075	0.0167596
821.154	0.0168427
821.232	0.0165093
821.310	0.0165452
821.388	0.0164711
821.466	0.0164232
821.544	0.0162714
821.622	0.0161677
821.700	0.0162524
821.779	0.0162379
821.857	0.0161119
821.935	0.0162150
822.013	0.0161156
822.091	0.0162171
822.169	0.0161802
822.247	0.0162532
822.325	0.0162509
822.404	0.0163755
822.482	0.0163718
822.560	0.0165128
822.638	0.0166855
822.716	0.0167078
822.794	0.0168302
822.872	0.0169003
822.950	0.0169624
823.029	0.0171047
823.107	0.0171519
823.185	0.0169688
823.263	0.0172050
823.341	0.0170816
823.419	0.0173137
823.497	0.0171396
823.575	0.0172025
823.654	0.0171337
823.732	0.0171262
823.810	0.0172527
823.888	0.0171591
823.966	0.0170501
824.044	0.0170562
824.122	0.0170042
824.200	0.0168953
824.279	0.0168397
824.357	0.0166488
824.435	0.0166767
824.513	0.0166375
824.591	0.0164204
824.669	0.0163996
824.747	0.0164091
824.825	0.0163714
824.904	0.0164020
824.982	0.0163735
825.060	0.0162469
825.138	0.0162720
825.216	0.0163586
825.294	0.0164497
825.372	0.0164443
825.450	0.0164347
825.529	0.0165149
825.607	0.0165484
825.685	0.0168017
825.763	0.0167255
825.841	0.0168423
825.919	0.0168939
825.997	0.0169025
826.075	0.0168332
826.154	0.0167389
826.232	0.0169862
826.310	0.0168798
826.388	0.0168842
826.466	0.0169383
826.544	0.0168917
826.622	0.0169173
826.700	0.0168794
826.779	0.0167992
826.857	0.0167998
826.935	0.0168090
827.013	0.0167529
827.091	0.0166679
827.169	0.0167142
827.247	0.0166875
827.325	0.0167978
827.404	0.0167997
827.482	0.0167299
827.560	0.0167406
827.638	0.0166227
827.716	0.0165903
827.794	0.0167466
827.872	0.0166192
827.950	0.0167571
828.029	0.0168215
828.107	0.0166714
828.185	0.0165362
828.263	0.0166272
828.341	0.0166034
828.419	0.0168090
828.497	0.0166080
828.575	0.0166749
828.654	0.0168290
828.732	0.0168933
828.810	0.0169329
828.888	0.0169028
828.966	0.0170126
829.044	0.0170815
829.122	0.0171712
829.200	0.0170918
829.279	0.0170725
829.357	0.0170995
829.435	0.0171155
829.513	0.0170779
829.591	0.0170549
829.669	0.0169511
829.747	0.0168130
829.825	0.0168642
829.904	0.0168875
829.982	0.0167085
830.060	0.0166737
830.138	0.0167390
830.216	0.0166302
830.294	0.0165276
830.372	0.0163928
830.450	0.0164553
830.529	0.0164233
830.607	0.0164560
830.685	0.0164850
830.763	0.0165778
830.841	0.0164278
830.919	0.0162980
830.997	0.0163029
831.075	0.0163198
831.154	0.0162693
831.232	0.0162817
831.310	0.0164397
831.388	0.0164617
831.466	0.0163464
831.544	0.0163092
831.622	0.0164803
831.700	0.0165287
831.779	0.0164118
831.857	0.0165981
831.935	0.0167381
832.013	0.0167995
832.091	0.0168489
832.169	0.0166665
832.247	0.0168827
832.325	0.0169167
832.404	0.0168813
832.482	0.0168955
832.560	0.0168616
832.638	0.0168738
832.716	0.0170274
832.794	0.0171281
832.872	0.0170412
832.950	0.0169733
833.029	0.0170460
833.107	0.0169319
833.185	0.0168277
833.263	0.0168987
833.341	0.0168201
833.419	0.0168660
833.497	0.0169534
833.575	0.0167369
833.654	0.0166811
833.732	0.0167451
833.810	0.0167416
833.888	0.0167531
833.966	0.0165998
834.044	0.0167512
834.122	0.0167548
834.200	0.0167884
834.279	0.0168216
834.357	0.0169080
834.435	0.0169719
834.513	0.0168390
834.591	0.0169009
834.669	0.0170133
834.747	0.0169580
834.825	0.0169334
834.904	0.0169578
834.982	0.0169669
835.060	0.0170496
835.138	0.0169153
835.216	0.0168402
835.294	0.0169669
835.372	0.0167392
835.450	0.0169345
835.529	0.0169617
835.607	0.0168444
835.685	0.0167046
835.763	0.0168096
835.841	0.0166985
835.919	0.0164958
835.997	0.0166115
836.075	0.0167168
836.154	0.0166459
836.232	0.0164915
836.310	0.0164789
836.388	0.0166177
836.466	0.0164771
836.544	0.0166046
836.622	0.0166009
836.700	0.0166388
836.779	0.0165910
836.857	0.0163564
836.935	0.0163734
837.013	0.0164404
837.091	0.0164565
837.169	0.0164427
837.247	0.0162727
837.325	0.0163435
837.404	0.0164030
837.482	0.0164209
837.560	0.0163406
837.638	0.0164459
837.716	0.0164669
837.794	0.0166476
837.872	0.0165775
837.950	0.0167908
838.029	0.0169589
838.107	0.0168675
838.185	0.0169305
838.263	0.0169297
838.341	0.0169622
838.419	0.0171465
838.497	0.0170418
838.575	0.0169273
838.654	0.0173096
838.732	0.0171209
838.810	0.0171956
838.888	0.0172289
838.966	0.0170882
839.044	0.0169821
839.122	0.0170197
839.200	0.0169857
839.279	0.0170154
839.357	0.0169791
839.435	0.0169777
839.513	0.0168504
839.591	0.0170654
839.669	0.0169655
839.747	0.0168734
839.825	0.0169741
839.904	0.0168046
839.982	0.0169948
840.060	0.0168306
840.138	0.0168057
840.216	0.0167649
840.294	0.0168179
840.372	0.0167957
840.450	0.0167861
840.529	0.0169005
840.607	0.0168475
840.685	0.0167995
840.763	0.0166541
840.841	0.0167660
840.919	0.0167690
840.997	0.0167333
841.075	0.0168722
841.154	0.0167632
841.232	0.0166035
841.310	0.0166193
841.388	0.0166566
841.466	0.0165896
841.544	0.0164474
841.622	0.0165422
841.700	0.0166528
841.779	0.0164535
841.857	0.0164671
841.935	0.0164041
842.013	0.0164347
842.091	0.0164865
842.169	0.0165114
842.247	0.0164724
842.325	0.0165355
842.404	0.0165566
842.482	0.0166164
842.560	0.0165213
842.638	0.0165161
842.716	0.0164660
842.794	0.0163448
842.872	0.0164905
842.950	0.0164622
843.029	0.0165430
843.107	0.0165732
843.185	0.0165195
843.263	0.0164816
843.341	0.0167081
843.419	0.0167606
843.497	0.0168190
843.575	0.0168031
843.654	0.0169335
843.732	0.0168189
843.810	0.0169556
843.888	0.0167856
843.966	0.0169443
844.044	0.0168214
844.122	0.0168252
844.200	0.0168473
844.279	0.0167923
844.357	0.0169746
844.435	0.0170137
844.513	0.0169180
844.591	0.0169955
844.669	0.0170715
844.747	0.0169656
844.825	0.0169865
844.904	0.0172017
844.982	0.0171395
845.060	0.0172096
845.138	0.0171953
845.216	0.0171256
845.294	0.0170492
845.372	0.0172620
845.450	0.0171959
845.529	0.0169535
845.607	0.0169769
845.685	0.0169893
845.763	0.0168671
845.841	0.0167036
845.919	0.0166333
845.997	0.0166656
846.075	0.0166069
846.154	0.0167268
846.232	0.0165219
846.310	0.0164047
846.388	0.0164309
846.466	0.0163573
846.544	0.0164022
846.622	0.0163290
846.700	0.0163889
846.779	0.0163266
846.857	0.0163217
846.935	0.0163214
847.013	0.0163959
847.091	0.0164252
847.169	0.0164975
847.247	0.0164774
847.325	0.0165334
847.404	0.0164544
847.482	0.0164774
847.560	0.0164539
847.638	0.0164412
847.716	0.0163884
847.794	0.0163926
847.872	0.0164442
847.950	0.0163291
848.029	0.0163634
848.107	0.0164386
848.185	0.0164707
848.263	0.0164924
848.341	0.0164218
848.419	0.0166254
848.497	0.0167018
848.575	0.0166288
848.654	0.0168744
848.732	0.0168823
848.810	0.0169030
848.888	0.0167764
848.966	0.0168487
849.044	0.0169569
849.122	0.0169852
849.200	0.0170047
849.279	0.0169636
849.357	0.0169617
849.435	0.0169357
849.513	0.0169434
849.591	0.0169180
849.669	0.0169745
849.747	0.0170902
849.825	0.0169244
849.904	0.0170159
849.982	0.0171130
850.060	0.0172055
850.138	0.0172104
850.216	0.0171760
850.294	0.0172005
850.372	0.0172355
850.450	0.0171655
850.529	0.0171984
850.607	0.0172416
850.685	0.0171747
850.763	0.0170643
850.841	0.0170380
850.919	0.0170409
850.997	0.0170567
851.075	0.0169989
851.154	0.0169518
851.232	0.0168735
851.310	0.0169170
851.388	0.0167802
851.466	0.0166248
851.544	0.0166494
851.622	0.0168103
851.700	0.0167019
851.779	0.0166006
851.857	0.0164312
851.935	0.0164870
852.013	0.0164262
852.091	0.0164469
852.169	0.0163438
852.247	0.0162780
852.325	0.0162366
852.404	0.0162037
852.482	0.0161720
852.560	0.0162314
852.638	0.0161225
852.716	0.0162769
852.794	0.0160760
852.872	0.0162093
852.950	0.0163117
853.029	0.0164435
853.107	0.0164645
853.185	0.0164730
853.263	0.0163686
853.341	0.0164857
853.419	0.0167506
853.497	0.0166494
853.575	0.0167446
853.654	0.0167108
853.732	0.0167458
853.810	0.0167859
853.888	0.0168445
853.966	0.0166383
854.044	0.0168182
854.122	0.0167677
854.200	0.0168684
854.279	0.0167721
854.357	0.0167421
854.435	0.0168382
854.513	0.0168823
854.591	0.0169197
854.669	0.0169746
854.747	0.0168467
854.825	0.0168465
854.904	0.0170028
854.982	0.0169582
855.060	0.0167873
855.138	0.0168661
855.216	0.0168745
855.294	0.0169461
855.372	0.0168762
855.450	0.0169066
855.529	0.0168700
855.607	0.0169225
855.685	0.0167738
855.763	0.0169398
855.841	0.0167563
855.919	0.0169875
855.997	0.0169299
856.075	0.0168643
856.154	0.0169529
856.232	0.0169745
856.310	0.0171466
856.388	0.0170193
856.466	0.0170283
856.544	0.0170897
856.622	0.0171022
856.700	0.0169656
856.779	0.0169582
856.857	0.0170245
856.935	0.0169640
857.013	0.0168942
857.091	0.0169159
857.169	0.0167979
857.247	0.0167010
857.325	0.0166963
857.404	0.0165455
857.482	0.0165756
857.560	0.0165141
857.638	0.0163937
857.716	0.0163947
857.794	0.0164458
857.872	0.0164011
857.950	0.0164067
858.029	0.0164161
858.107	0.0164432
858.185	0.0163801
858.263	0.0163544
858.341	0.0163192
858.419	0.0164925
858.497	0.0165343
858.575	0.0166468
858.654	0.0166640
858.732	0.0167506
858.810	0.0168273
858.888	0.0166399
858.966	0.0166904
859.044	0.0167937
859.122	0.0168263
859.200	0.0169543
859.279	0.0169741
859.357	0.0169479
859.435	0.0168317
859.513	0.0168422
859.591	0.0168069
859.669	0.0168806
859.747	0.0169936
859.825	0.0170179
859.904	0.0169896
859.982	0.0169283
860.060	0.0169494
860.138	0.0170676
860.216	0.0169445
860.294	0.0169645
860.372	0.0171027
860.450	0.0169353
860.529	0.0168631
860.607	0.0169788
860.685	0.0168663
860.763	0.0167480
860.841	0.0168237
860.919	0.0166904
860.997	0.0168279
861.075	0.0167548
861.154	0.0166356
861.232	0.0165957
861.310	0.0167458
861.388	0.0166983
861.466	0.0165761
861.544	0.0167206
861.622	0.0167645
861.700	0.0166948
861.779	0.0168810
861.857	0.0167806
861.935	0.0167458
862.013	0.0169366
862.091	0.0168293
862.169	0.0169739
862.247	0.0169606
862.325	0.0168600
862.404	0.0168237
862.482	0.0167225
862.560	0.0167146
862.638	0.0168304
862.716	0.0168408
862.794	0.0166215
862.872	0.0165932
862.950	0.0166710
863.029	0.0165504
863.107	0.0166278
863.185	0.0166310
863.263	0.0165822
863.341	0.0166352
863.419	0.0166033
863.497	0.0165434
863.575	0.0167538
863.654	0.0168605
863.732	0.0167162
863.810	0.0167756
863.888	0.0166316
863.966	0.0167358
864.044	0.0166584
864.122	0.0165332
864.200	0.0166779
864.279	0.0167146
864.357	0.0165987
864.435	0.0166782
864.513	0.0166151
864.591	0.0167143
864.669	0.0166489
864.747	0.0166692
864.825	0.0168248
864.904	0.0166844
864.982	0.0168338
865.060	0.0168117
865.138	0.0168672
865.216	0.0169909
865.294	0.0168843
865.372	0.0168733
865.450	0.0169433
865.529	0.0168540
865.607	0.0167991
865.685	0.0167184
865.763	0.0168177
865.841	0.0168480
865.919	0.0168265
865.997	0.0167500
866.075	0.0168307
866.154	0.0167147
866.232	0.0167025
866.310	0.0166544
866.388	0.0167619
866.466	0.0167333
866.544	0.0167632
866.622	0.0167519
866.700	0.0168053
866.779	0.0168001
866.857	0.0169242
866.935	0.0169527
867.013	0.0168639
867.091	0.0169770
867.169	0.0167987
867.247	0.0168478
867.325	0.0169467
867.404	0.0169353
867.482	0.0168623
867.560	0.0168026
867.638	0.0166732
867.716	0.0167451
867.794	0.0166846
867.872	0.0167725
867.950	0.0166727
868.029	0.0166058
868.107	0.0166341
868.185	0.0164725
868.263	0.0166466
868.341	0.0165971
868.419	0.0165266
868.497	0.0166376
868.575	0.0166104
868.654	0.0165511
868.732	0.0163901
868.810	0.0165385
868.888	0.0165529
868.966	0.0165450
869.044	0.0165285
869.122	0.0165165
869.200	0.0165640
869.279	0.0166182
869.357	0.0166099
869.435	0.0166087
869.513	0.0166508
869.591	0.0166733
869.669	0.0166882
869.747	0.0165825
869.825	0.0166870
869.904	0.0167454
869.982	0.0166947
870.060	0.0167175
870.138	0.0167824
870.216	0.0167264
870.294	0.0167690
870.372	0.0168731
870.450	0.0167520
870.529	0.0167183
870.607	0.0168456
870.685	0.0168617
870.763	0.0167356
870.841	0.0168358
870.919	0.0168142
870.997	0.0168729
871.075	0.0168664
871.154	0.0168944
871.232	0.0169473
871.310	0.0168279
871.388	0.0168552
871.466	0.0169836
871.544	0.0168440
871.622	0.0168489
871.700	0.0168501
871.779	0.0166933
871.857	0.0167081
871.935	0.0167466
872.013	0.0168224
872.091	0.0167443
872.169	0.0166644
872.247	0.0166771
872.325	0.0168245
872.404	0.0167476
872.482	0.0165652
872.560	0.0168042
872.638	0.0169629
872.716	0.0167763
872.794	0.0169810
872.872	0.0170320
872.950	0.0169691
873.029	0.0168963
873.107	0.0168372
873.185	0.0168719
873.263	0.0169466
873.341	0.0169456
873.419	0.0168557
873.497	0.0168702
873.575	0.0167413
873.654	0.0168617
873.732	0.0168924
873.810	0.0168964
873.888	0.0169132
873.966	0.0167992
874.044	0.0168349
874.122	0.0167419
874.200	0.0167844
874.279	0.0166837
874.357	0.0167787
874.435	0.0166454
874.513	0.0167783
874.591	0.0166866
874.669	0.0166182
874.747	0.0164329
874.825	0.0165759
874.904	0.0165453
874.982	0.0164944
875.060	0.0164598
875.138	0.0165396
875.216	0.0164629
875.294	0.0162882
875.372	0.0162442
875.450	0.0163945
875.529	0.0164127
875.607	0.0163765
875.685	0.0163435
875.763	0.0164690
875.841	0.0164375
875.919	0.0163094
875.997	0.0165589
876.075	0.0166165
876.154	0.0166713
876.232	0.0167560
876.310	0.0168700
876.388	0.0168111
876.466	0.0169593
876.544	0.0170386
876.622	0.0171181
876.700	0.0171899
876.779	0.0173150
876.857	0.0172964
876.935	0.0172964
877.013	0.0172598
877.091	0.0172746
877.169	0.0172882
877.247	0.0171166
877.325	0.0170696
877.404	0.0169041
877.482	0.0170126
877.560	0.0167845
877.638	0.0168456
877.716	0.0167696
877.794	0.0167267
877.872	0.0168085
877.950	0.0165943
878.029	0.0165913
878.107	0.0165499
878.185	0.0164906
878.263	0.0164584
878.341	0.0164893
878.419	0.0164064
878.497	0.0163499
878.575	0.0163294
878.654	0.0164304
878.732	0.0163148
878.810	0.0163496
878.888	0.0164012
878.966	0.0165643
879.044	0.0166261
879.122	0.0166199
879.200	0.0166145
879.279	0.0167197
879.357	0.0168212
879.435	0.0167431
879.513	0.0168845
879.591	0.0168318
879.669	0.0168422
879.747	0.0167542
879.825	0.0169009
879.904	0.0167896
879.982	0.0169817
880.060	0.0169444
880.138	0.0169014
880.216	0.0170176
880.294	0.0168295
880.372	0.0169733
880.450	0.0170037
880.529	0.0169497
880.607	0.0169172
880.685	0.0169092
880.763	0.0167775
880.841	0.0167651
880.919	0.0166988
880.997	0.0165932
881.075	0.0166109
881.154	0.0164687
881.232	0.0162782
881.310	0.0162717
881.388	0.0163234
881.466	0.0162720
881.544	0.0162023
881.622	0.0164067
881.700	0.0164837
881.779	0.0163531
881.857	0.0164993
881.935	0.0166659
882.013	0.0165912
882.091	0.0166333
882.169	0.0167599
882.247	0.0168343
882.325	0.0167660
882.404	0.0170212
882.482	0.0171210
882.560	0.0172026
882.638	0.0172828
882.716	0.0171547
882.794	0.0173285
882.872	0.0174479
882.950	0.0172534
883.029	0.0173721
883.107	0.0173680
883.185	0.0172701
883.263	0.0172413
883.341	0.0172285
883.419	0.0169958
883.497	0.0168088
883.575	0.0168404
883.654	0.0167291
883.732	0.0166756
883.810	0.0166344
883.888	0.0164021
883.966	0.0162341
884.044	0.0163673
884.122	0.0163628
884.200	0.0162029
884.279	0.0162762
884.357	0.0162309
884.435	0.0162137
884.513	0.0161462
884.591	0.0162917
884.669	0.0161642
884.747	0.0162463
884.825	0.0164749
884.904	0.0164532
884.982	0.0164832
885.060	0.0165632
885.138	0.0166113
885.216	0.0167737
885.294	0.0167618
885.372	0.0167845
885.450	0.0168621
885.529	0.0171264
885.607	0.0170282
885.685	0.0170220
885.763	0.0170877
885.841	0.0172371
885.919	0.0171461
885.997	0.0170229
886.075	0.0171458
886.154	0.0170706
886.232	0.0170197
886.310	0.0170647
886.388	0.0169482
886.466	0.0168746
886.544	0.0169083
886.622	0.0168488
886.700	0.0167738
886.779	0.0164930
886.857	0.0165472
886.935	0.0165030
887.013	0.0165190
887.091	0.0164164
887.169	0.0164202
887.247	0.0164757
887.325	0.0164843
887.404	0.0163863
887.482	0.0167046
887.560	0.0166560
887.638	0.0166865
887.716	0.0167844
887.794	0.0169514
887.872	0.0169112
887.950	0.0169652
888.029	0.0170961
888.107	0.0172707
888.185	0.0171712
888.263	0.0169621
888.341	0.0170662
888.419	0.0171899
888.497	0.0170484
888.575	0.0169135
888.654	0.0168999
888.732	0.0170757
888.810	0.0168432
888.888	0.0167282
888.966	0.0167027
889.044	0.0166172
889.122	0.0166122
889.200	0.0166763
889.279	0.0167058
889.357	0.0166340
889.435	0.0163674
889.513	0.0165385
889.591	0.0163497
889.669	0.0165473
889.747	0.0165615
889.825	0.0166387
889.904	0.0165116
889.982	0.0164915
890.060	0.0164121
890.138	0.0163953
890.216	0.0164826
890.294	0.0165773
890.372	0.0165145
890.450	0.0165550
890.529	0.0165262
890.607	0.0164817
890.685	0.0164777
890.763	0.0165306
890.841	0.0165979
890.919	0.0165385
890.997	0.0165946
891.075	0.0167607
891.154	0.0166410
891.232	0.0165708
891.310	0.0168260
891.388	0.0167405
891.466	0.0167778
891.544	0.0166305
891.622	0.0167096
891.700	0.0167321
891.779	0.0165979
891.857	0.0165595
891.935	0.0167325
892.013	0.0166389
892.091	0.0165257
892.169	0.0164741
892.247	0.0165971
892.325	0.0166781
892.404	0.0166007
892.482	0.0166669
892.560	0.0166996
892.638	0.0167304
892.716	0.0167668
892.794	0.0168667
892.872	0.0171047
892.950	0.0171501
893.029	0.0173030
893.107	0.0172182
893.185	0.0172729
893.263	0.0173114
893.341	0.0171284
893.419	0.0171538
893.497	0.0170253
893.575	0.0169218
893.654	0.0167445
893.732	0.0168127
893.810	0.0167242
893.888	0.0166409
893.966	0.0164820
894.044	0.0164469
894.122	0.0165257
894.200	0.0165252
894.279	0.0164053
894.357	0.0165242
894.435	0.0165582
894.513	0.0164452
894.591	0.0163828
894.669	0.0163744
894.747	0.0166457
894.825	0.0166801
894.904	0.0165324
894.982	0.0164662
895.060	0.0165686
895.138	0.0165775
895.216	0.0165338
895.294	0.0164988
895.372	0.0164355
895.450	0.0164444
895.529	0.0165997
895.607	0.0164935
895.685	0.0165534
895.763	0.0166978
895.841	0.0167636
895.919	0.0168491
895.997	0.0168435
896.075	0.0168707
896.154	0.0169533
896.232	0.0169350
896.310	0.0170685
896.388	0.0171180
896.466	0.0171390
896.544	0.0171014
896.622	0.0170072
896.700	0.0170686
896.779	0.0169714
896.857	0.0169035
896.935	0.0168316
897.013	0.0165974
897.091	0.0166808
897.169	0.0166942
897.247	0.0166676
897.325	0.0165542
897.404	0.0166347
897.482	0.0167224
897.560	0.0166155
897.638	0.0166374
897.716	0.0166071
897.794	0.0165416
897.872	0.0166543
897.950	0.0166675
898.029	0.0167973
898.107	0.0168240
898.185	0.0168754
898.263	0.0170441
898.341	0.0169549
898.419	0.0170349
898.497	0.0169867
898.575	0.0170947
898.654	0.0168942
898.732	0.0169492
898.810	0.0167845
898.888	0.0167790
898.966	0.0168297
899.044	0.0165849
899.122	0.0166348
899.200	0.0164988
899.279	0.0163981
899.357	0.0165092
899.435	0.0165633
899.513	0.0164983
899.591	0.0166305
899.669	0.0165540
899.747	0.0168206
899.825	0.0166721
899.904	0.0168131
899.982	0.0167673
900.060	0.0167671
900.138	0.0167560
900.216	0.0167372
900.294	0.0167518
900.372	0.0168134
900.450	0.0165790
900.529	0.0166121
900.607	0.0166494
900.685	0.0165860
900.763	0.0165137
900.841	0.0165283
900.919	0.0165271
900.997	0.0166135
901.075	0.0165694
901.154	0.0164743
901.232	0.0165425
901.310	0.0165260
901.388	0.0166607
901.466	0.0166219
901.544	0.0165889
901.622	0.0168060
901.700	0.0168723
901.779	0.0167878
901.857	0.0166414
901.935	0.0168868
902.013	0.0168463
902.091	0.0169162
902.169	0.0168861
902.247	0.0168749
902.325	0.0168851
902.404	0.0170138
902.482	0.0169139
902.560	0.0169558
902.638	0.0170657
902.716	0.0169173
902.794	0.0169207
902.872	0.0169583
902.950	0.0170494
903.029	0.0168822
903.107	0.0170512
903.185	0.0168509
903.263	0.0171780
903.341	0.0171105
903.419	0.0171290
903.497	0.0170264
903.575	0.0170372
903.654	0.0168875
903.732	0.0169276
903.810	0.0169598
903.888	0.0168602
903.966	0.0166365
904.044	0.0166195
904.122	0.0166699
904.200	0.0165151
904.279	0.0164423
904.357	0.0165309
904.435	0.0164619
904.513	0.0164574
904.591	0.0164541
904.669	0.0163448
904.747	0.0165465
904.825	0.0168022
904.904	0.0167675
904.982	0.0168239
905.060	0.0168206
905.138	0.0168837
905.216	0.0170903
905.294	0.0169074
905.372	0.0167586
905.450	0.0167486
905.529	0.0168807
905.607	0.0167107
905.685	0.0167005
905.763	0.0166898
905.841	0.0167155
905.919	0.0165195
905.997	0.0165090
906.075	0.0163832
906.154	0.0164645
906.232	0.0164787
906.310	0.0165052
906.388	0.0164654
906.466	0.0163927
906.544	0.0164149
906.622	0.0166190
906.700	0.0165217
906.779	0.0164421
906.857	0.0165923
906.935	0.0165101
907.013	0.0164967
907.091	0.0164288
907.169	0.0165115
907.247	0.0164041
907.325	0.0163984
907.404	0.0164072
907.482	0.0163451
907.560	0.0164172
907.638	0.0164356
907.716	0.0164536
907.794	0.0162486
907.872	0.0164256
907.950	0.0165888
908.029	0.0166825
908.107	0.0167285
908.185	0.0168623
908.263	0.0169456
908.341	0.0170018
908.419	0.0172559
908.497	0.0173145
908.575	0.0173273
908.654	0.0175035
908.732	0.0176115
908.810	0.0175444
908.888	0.0175143
908.966	0.0176973
909.044	0.0176694
909.122	0.0175697
909.200	0.0174388
909.279	0.0173438
909.357	0.0172805
909.435	0.0173245
909.513	0.0172138
909.591	0.0170027
909.669	0.0170492
909.747	0.0170480
909.825	0.0167915
909.904	0.0169154
909.982	0.0169531
910.060	0.0166777
910.138	0.0167289
910.216	0.0167921
910.294	0.0167510
910.372	0.0166570
910.450	0.0165268
910.529	0.0166016
910.607	0.0166489
910.685	0.0164510
910.763	0.0164709
910.841	0.0165137
910.919	0.0163500
910.997	0.0165042
911.075	0.0164433
911.154	0.0163592
911.232	0.0162782
911.310	0.0163934
911.388	0.0163245
911.466	0.0163734
911.544	0.0163771
911.622	0.0165025
911.700	0.0164059
911.779	0.0165022
911.857	0.0164554
911.935	0.0165455
912.013	0.0165067
912.091	0.0164366
912.169	0.0166291
912.247	0.0164695
912.325	0.0166096
912.404	0.0166119
912.482	0.0166106
912.560	0.0164548
912.638	0.0165033
912.716	0.0166323
912.794	0.0164809
912.872	0.0165089
912.950	0.0165384
913.029	0.0166275
913.107	0.0165622
913.185	0.0166344
913.263	0.0167402
913.341	0.0166944
913.419	0.0165943
913.497	0.0166596
913.575	0.0167673
913.654	0.0168405
913.732	0.0169224
913.810	0.0167789
913.888	0.0169086
913.966	0.0169926
914.044	0.0168906
914.122	0.0170527
914.200	0.0171315
914.279	0.0171242
914.357	0.0171921
914.435	0.0169933
914.513	0.0169696
914.591	0.0170264
914.669	0.0171080
914.747	0.0171395
914.825	0.0171445
914.904	0.0171310
914.982	0.0172133
915.060	0.0171230
915.138	0.0171194
915.216	0.0171511
915.294	0.0170921
915.372	0.0171909
915.450	0.0170724
915.529	0.0171938
915.607	0.0171284
915.685	0.0169256
915.763	0.0170704
915.841	0.0168858
915.919	0.0167317
915.997	0.0166038
916.075	0.0166824
916.154	0.0164352
916.232	0.0164977
916.310	0.0165953
916.388	0.0164371
916.466	0.0163649
916.544	0.0162798
916.622	0.0163598
916.700	0.0164043
916.779	0.0163413
916.857	0.0164511
916.935	0.0163724
917.013	0.0165217
917.091	0.0163922
917.169	0.0165891
917.247	0.0166355
917.325	0.0166487
917.404	0.0166992
917.482	0.0165529
917.560	0.0166422
917.638	0.0168478
917.716	0.0168456
917.794	0.0167707
917.872	0.0167255
917.950	0.0167742
918.029	0.0168270
918.107	0.0168299
918.185	0.0167787
918.263	0.0168214
918.341	0.0167693
918.419	0.0168047
918.497	0.0167231
918.575	0.0167387
918.654	0.0168629
918.732	0.0168622
918.810	0.0166853
918.888	0.0167706
918.966	0.0167843
919.044	0.0167263
919.122	0.0166382
919.200	0.0167188
919.279	0.0168452
919.357	0.0168694
919.435	0.0168465
919.513	0.0167201
919.591	0.0168732
919.669	0.0168238
919.747	0.0168871
919.825	0.0168646
919.904	0.0167216
