06/03/2022	14:10:25	Ver.	4.1	UNKNOWN
Optical Delay	599.981738	Delta X		0.078125	Sweeps	1	Scan Rate	0/0
Coordinates	Axis 1	NaN	Axis 2	NaN	Axis 3	NaN	Axis 4	NaN	Axis 5	NaN	Axis 6	0.000000
TX Power	0.000000	RX Power	0.000000

599.982	0.0165775
600.060	0.0166202
600.138	0.0165989
600.216	0.0165433
600.294	0.0165055
600.372	0.0166013
600.450	0.0165157
600.529	0.0165273
600.607	0.0166830
600.685	0.0164756
600.763	0.0164785
600.841	0.0165016
600.919	0.0165965
600.997	0.0164888
601.075	0.0164255
601.154	0.0164610
601.232	0.0165794
601.310	0.0165398
601.388	0.0164778
601.466	0.0164890
601.544	0.0164293
601.622	0.0164926
601.700	0.0165871
601.779	0.0165839
601.857	0.0165125
601.935	0.0166294
602.013	0.0165935
602.091	0.0164981
602.169	0.0166060
602.247	0.0167251
602.325	0.0165462
602.404	0.0164948
602.482	0.0165652
602.560	0.0165229
602.638	0.0165526
602.716	0.0165871
602.794	0.0165739
602.872	0.0166097
602.950	0.0164525
603.029	0.0165780
603.107	0.0165723
603.185	0.0166927
603.263	0.0166119
603.341	0.0166180
603.419	0.0166593
603.497	0.0166566
603.575	0.0162849
603.654	0.0166223
603.732	0.0165649
603.810	0.0166070
603.888	0.0165720
603.966	0.0165433
604.044	0.0165003
604.122	0.0165164
604.200	0.0166174
604.279	0.0164874
604.357	0.0164947
604.435	0.0164936
604.513	0.0165921
604.591	0.0166268
604.669	0.0165858
604.747	0.0165124
604.825	0.0164397
604.904	0.0166790
604.982	0.0164782
605.060	0.0166462
605.138	0.0167462
605.216	0.0166684
605.294	0.0166525
605.372	0.0165419
605.450	0.0165765
605.529	0.0165884
605.607	0.0165220
605.685	0.0166528
605.763	0.0166843
605.841	0.0166953
605.919	0.0166655
605.997	0.0165797
606.075	0.0165031
606.154	0.0166964
606.232	0.0165614
606.310	0.0166201
606.388	0.0165126
606.466	0.0165823
606.544	0.0166279
606.622	0.0165962
606.700	0.0165614
606.779	0.0166541
606.857	0.0166468
606.935	0.0164622
607.013	0.0166710
607.091	0.0166300
607.169	0.0165277
607.247	0.0165931
607.325	0.0166670
607.404	0.0166815
607.482	0.0165512
607.560	0.0165572
607.638	0.0165691
607.716	0.0166071
607.794	0.0166201
607.872	0.0166757
607.950	0.0166032
608.029	0.0166579
608.107	0.0166793
608.185	0.0165565
608.263	0.0165736
608.341	0.0165625
608.419	0.0164882
608.497	0.0166443
608.575	0.0165469
608.654	0.0165664
608.732	0.0166393
608.810	0.0165638
608.888	0.0165974
608.966	0.0167139
609.044	0.0167172
609.122	0.0166191
609.200	0.0165694
609.279	0.0165771
609.357	0.0166283
609.435	0.0166473
609.513	0.0166003
609.591	0.0165945
609.669	0.0165405
609.747	0.0166373
609.825	0.0166479
609.904	0.0166328
609.982	0.0168113
610.060	0.0165037
610.138	0.0165813
610.216	0.0165707
610.294	0.0166822
610.372	0.0166184
610.450	0.0166016
610.529	0.0166187
610.607	0.0165269
610.685	0.0165379
610.763	0.0165903
610.841	0.0165891
610.919	0.0166651
610.997	0.0165670
611.075	0.0164574
611.154	0.0164819
611.232	0.0167218
611.310	0.0166357
611.388	0.0167106
611.466	0.0165649
611.544	0.0165377
611.622	0.0165751
611.700	0.0167650
611.779	0.0167136
611.857	0.0166640
611.935	0.0165466
612.013	0.0165077
612.091	0.0164982
612.169	0.0166137
612.247	0.0166857
612.325	0.0166792
612.404	0.0165909
612.482	0.0165776
612.560	0.0166454
612.638	0.0167702
612.716	0.0167284
612.794	0.0165669
612.872	0.0166702
612.950	0.0167213
613.029	0.0166115
613.107	0.0166098
613.185	0.0166252
613.263	0.0166740
613.341	0.0166556
613.419	0.0167745
613.497	0.0167720
613.575	0.0166782
613.654	0.0165366
613.732	0.0166258
613.810	0.0166901
613.888	0.0166056
613.966	0.0166772
614.044	0.0166016
614.122	0.0165601
614.200	0.0166393
614.279	0.0166743
614.357	0.0166956
614.435	0.0166713
614.513	0.0166489
614.591	0.0167013
614.669	0.0165394
614.747	0.0166821
614.825	0.0166941
614.904	0.0165434
614.982	0.0165302
615.060	0.0167697
615.138	0.0167283
615.216	0.0166543
615.294	0.0166931
615.372	0.0165802
615.450	0.0166514
615.529	0.0165898
615.607	0.0166057
615.685	0.0166006
615.763	0.0167033
615.841	0.0166537
615.919	0.0166455
615.997	0.0166569
616.075	0.0165826
616.154	0.0165784
616.232	0.0166548
616.310	0.0167976
616.388	0.0166764
616.466	0.0166113
616.544	0.0167340
616.622	0.0165901
616.700	0.0165385
616.779	0.0166066
616.857	0.0166746
616.935	0.0164819
617.013	0.0166053
617.091	0.0166269
617.169	0.0166348
617.247	0.0164695
617.325	0.0166111
617.404	0.0165559
617.482	0.0166364
617.560	0.0166415
617.638	0.0166528
617.716	0.0166698
617.794	0.0164265
617.872	0.0164671
617.950	0.0166935
618.029	0.0165731
618.107	0.0165569
618.185	0.0165603
618.263	0.0164874
618.341	0.0166440
618.419	0.0167063
618.497	0.0165175
618.575	0.0166395
618.654	0.0166022
618.732	0.0165985
618.810	0.0166985
618.888	0.0166283
618.966	0.0166153
619.044	0.0165540
619.122	0.0165963
619.200	0.0166486
619.279	0.0165958
619.357	0.0166146
619.435	0.0167001
619.513	0.0167666
619.591	0.0166400
619.669	0.0166162
619.747	0.0165815
619.825	0.0166082
619.904	0.0166183
619.982	0.0165941
620.060	0.0165971
620.138	0.0167213
620.216	0.0165524
620.294	0.0166181
620.372	0.0166232
620.450	0.0165572
620.529	0.0165258
620.607	0.0165530
620.685	0.0166306
620.763	0.0165629
620.841	0.0164952
620.919	0.0164680
620.997	0.0165797
621.075	0.0164848
621.154	0.0166944
621.232	0.0166209
621.310	0.0165044
621.388	0.0165998
621.466	0.0164862
621.544	0.0164172
621.622	0.0166101
621.700	0.0166146
621.779	0.0166028
621.857	0.0167233
621.935	0.0164984
622.013	0.0165327
622.091	0.0165903
622.169	0.0165154
622.247	0.0166683
622.325	0.0166341
622.404	0.0165411
622.482	0.0165846
622.560	0.0166525
622.638	0.0166013
622.716	0.0165540
622.794	0.0166883
622.872	0.0166127
622.950	0.0166022
623.029	0.0165952
623.107	0.0165018
623.185	0.0164024
623.263	0.0165950
623.341	0.0164854
623.419	0.0164797
623.497	0.0164885
623.575	0.0165354
623.654	0.0164920
623.732	0.0165965
623.810	0.0164249
623.888	0.0165056
623.966	0.0165232
624.044	0.0164216
624.122	0.0165304
624.200	0.0165718
624.279	0.0166734
624.357	0.0164064
624.435	0.0164904
624.513	0.0166650
624.591	0.0165277
624.669	0.0164948
624.747	0.0165781
624.825	0.0165939
624.904	0.0165301
624.982	0.0165673
625.060	0.0165741
625.138	0.0164512
625.216	0.0165284
625.294	0.0165726
625.372	0.0166652
625.450	0.0165580
625.529	0.0165141
625.607	0.0166263
625.685	0.0165787
625.763	0.0165011
625.841	0.0164776
625.919	0.0165581
625.997	0.0164955
626.075	0.0166083
626.154	0.0166098
626.232	0.0165850
626.310	0.0165275
626.388	0.0166151
626.466	0.0165482
626.544	0.0165977
626.622	0.0166820
626.700	0.0165783
626.779	0.0165161
626.857	0.0166089
626.935	0.0164927
627.013	0.0166991
627.091	0.0166620
627.169	0.0165384
627.247	0.0165253
627.325	0.0166236
627.404	0.0165267
627.482	0.0165015
627.560	0.0165347
627.638	0.0165354
627.716	0.0167801
627.794	0.0166480
627.872	0.0164847
627.950	0.0165340
628.029	0.0165470
628.107	0.0166463
628.185	0.0166855
628.263	0.0166512
628.341	0.0165763
628.419	0.0164651
628.497	0.0164691
628.575	0.0167142
628.654	0.0164677
628.732	0.0165516
628.810	0.0166241
628.888	0.0165065
628.966	0.0165911
629.044	0.0165597
629.122	0.0166385
629.200	0.0163844
629.279	0.0165409
629.357	0.0164719
629.435	0.0165415
629.513	0.0166016
629.591	0.0166185
629.669	0.0166479
629.747	0.0165298
629.825	0.0166389
629.904	0.0165385
629.982	0.0166826
630.060	0.0166361
630.138	0.0166438
630.216	0.0165549
630.294	0.0164917
630.372	0.0166174
630.450	0.0164831
630.529	0.0165155
630.607	0.0167496
630.685	0.0166795
630.763	0.0166937
630.841	0.0165337
630.919	0.0166770
630.997	0.0167007
631.075	0.0166444
631.154	0.0165855
631.232	0.0166525
631.310	0.0165965
631.388	0.0165790
631.466	0.0165204
631.544	0.0165163
631.622	0.0167081
631.700	0.0166451
631.779	0.0166128
631.857	0.0166447
631.935	0.0165820
632.013	0.0165561
632.091	0.0165739
632.169	0.0167518
632.247	0.0166489
632.325	0.0167389
632.404	0.0167866
632.482	0.0166777
632.560	0.0165977
632.638	0.0167010
632.716	0.0166312
632.794	0.0166174
632.872	0.0167780
632.950	0.0167222
633.029	0.0166695
633.107	0.0167294
633.185	0.0165784
633.263	0.0166868
633.341	0.0166856
633.419	0.0165584
633.497	0.0165821
633.575	0.0166660
633.654	0.0167189
633.732	0.0167392
633.810	0.0166774
633.888	0.0167706
633.966	0.0166918
634.044	0.0166048
634.122	0.0165472
634.200	0.0166886
634.279	0.0166243
634.357	0.0166628
634.435	0.0166753
634.513	0.0165584
634.591	0.0166067
634.669	0.0166251
634.747	0.0166769
634.825	0.0165479
634.904	0.0166089
634.982	0.0166099
635.060	0.0165440
635.138	0.0166318
635.216	0.0167278
635.294	0.0164707
635.372	0.0167567
635.450	0.0164546
635.529	0.0164902
635.607	0.0166151
635.685	0.0166116
635.763	0.0166334
635.841	0.0166515
635.919	0.0165324
635.997	0.0166286
636.075	0.0166319
636.154	0.0165210
636.232	0.0166112
636.310	0.0167150
636.388	0.0166015
636.466	0.0165756
636.544	0.0165894
636.622	0.0165992
636.700	0.0165401
636.779	0.0164751
636.857	0.0166628
636.935	0.0167004
637.013	0.0167150
637.091	0.0165876
637.169	0.0166564
637.247	0.0165057
637.325	0.0166191
637.404	0.0165798
637.482	0.0166750
637.560	0.0164928
637.638	0.0165606
637.716	0.0166563
637.794	0.0165614
637.872	0.0165198
637.950	0.0166171
638.029	0.0166079
638.107	0.0166667
638.185	0.0165678
638.263	0.0165599
638.341	0.0165884
638.419	0.0166224
638.497	0.0165528
638.575	0.0165787
638.654	0.0165540
638.732	0.0165825
638.810	0.0164661
638.888	0.0165557
638.966	0.0165726
639.044	0.0165927
639.122	0.0166324
639.200	0.0165376
639.279	0.0166544
639.357	0.0165954
639.435	0.0167113
639.513	0.0165979
639.591	0.0166088
639.669	0.0166130
639.747	0.0166785
639.825	0.0166142
639.904	0.0166235
639.982	0.0167731
640.060	0.0166696
640.138	0.0165619
640.216	0.0167503
640.294	0.0166228
640.372	0.0164893
640.450	0.0165622
640.529	0.0167031
640.607	0.0165257
640.685	0.0165406
640.763	0.0165552
640.841	0.0165884
640.919	0.0164804
640.997	0.0166850
641.075	0.0165265
641.154	0.0165202
641.232	0.0166145
641.310	0.0166308
641.388	0.0166703
641.466	0.0166083
641.544	0.0166812
641.622	0.0166910
641.700	0.0166187
641.779	0.0165497
641.857	0.0166345
641.935	0.0164954
642.013	0.0164737
642.091	0.0167027
642.169	0.0166809
642.247	0.0166020
642.325	0.0166950
642.404	0.0166891
642.482	0.0166476
642.560	0.0165530
642.638	0.0168470
642.716	0.0167992
642.794	0.0168539
642.872	0.0168797
642.950	0.0167809
643.029	0.0168159
643.107	0.0166122
643.185	0.0168094
643.263	0.0167859
643.341	0.0165592
643.419	0.0165218
643.497	0.0164515
643.575	0.0163622
643.654	0.0163409
643.732	0.0162862
643.810	0.0163097
643.888	0.0162796
643.966	0.0163573
644.044	0.0165247
644.122	0.0167153
644.200	0.0167196
644.279	0.0169455
644.357	0.0170592
644.435	0.0171795
644.513	0.0169204
644.591	0.0170283
644.669	0.0169939
644.747	0.0168370
644.825	0.0167672
644.904	0.0165796
644.982	0.0163214
645.060	0.0162987
645.138	0.0160378
645.216	0.0159731
645.294	0.0159061
645.372	0.0158721
645.450	0.0159232
645.529	0.0161425
645.607	0.0165887
645.685	0.0167323
645.763	0.0169872
645.841	0.0171667
645.919	0.0173907
645.997	0.0174803
646.075	0.0173812
646.154	0.0172382
646.232	0.0172167
646.310	0.0170198
646.388	0.0167950
646.466	0.0165809
646.544	0.0162629
646.622	0.0161722
646.700	0.0160627
646.779	0.0158801
646.857	0.0157140
646.935	0.0156821
647.013	0.0157732
647.091	0.0157791
647.169	0.0160814
647.247	0.0162282
647.325	0.0164186
647.404	0.0167296
647.482	0.0170487
647.560	0.0173249
647.638	0.0171941
647.716	0.0170866
647.794	0.0172836
647.872	0.0169295
647.950	0.0167987
648.029	0.0167061
648.107	0.0164868
648.185	0.0162817
648.263	0.0161852
648.341	0.0158993
648.419	0.0158701
648.497	0.0159766
648.575	0.0160911
648.654	0.0160919
648.732	0.0163471
648.810	0.0164040
648.888	0.0166113
648.966	0.0166164
649.044	0.0167092
649.122	0.0167208
649.200	0.0167049
649.279	0.0167024
649.357	0.0166206
649.435	0.0167632
649.513	0.0166423
649.591	0.0165221
649.669	0.0164860
649.747	0.0166698
649.825	0.0166832
649.904	0.0167599
649.982	0.0166813
650.060	0.0167384
650.138	0.0168227
650.216	0.0168328
650.294	0.0168616
650.372	0.0168085
650.450	0.0167365
650.529	0.0164565
650.607	0.0165826
650.685	0.0163276
650.763	0.0163103
650.841	0.0161758
650.919	0.0160316
650.997	0.0160221
651.075	0.0160464
651.154	0.0161303
651.232	0.0162497
651.310	0.0163418
651.388	0.0163844
651.466	0.0165035
651.544	0.0167702
651.622	0.0168982
651.700	0.0169683
651.779	0.0169102
651.857	0.0170113
651.935	0.0169762
652.013	0.0170659
652.091	0.0169588
652.169	0.0166927
652.247	0.0164782
652.325	0.0164984
652.404	0.0163843
652.482	0.0163514
652.560	0.0162650
652.638	0.0163321
652.716	0.0162516
652.794	0.0160342
652.872	0.0161210
652.950	0.0161003
653.029	0.0161303
653.107	0.0162836
653.185	0.0163288
653.263	0.0166087
653.341	0.0167188
653.419	0.0166295
653.497	0.0167021
653.575	0.0168322
653.654	0.0170270
653.732	0.0170162
653.810	0.0170107
653.888	0.0169201
653.966	0.0169011
654.044	0.0167733
654.122	0.0166808
654.200	0.0165154
654.279	0.0164781
654.357	0.0162500
654.435	0.0162055
654.513	0.0162237
654.591	0.0162478
654.669	0.0163103
654.747	0.0162589
654.825	0.0163352
654.904	0.0165190
654.982	0.0165892
655.060	0.0164964
655.138	0.0166779
655.216	0.0166647
655.294	0.0168060
655.372	0.0168045
655.450	0.0167580
655.529	0.0166760
655.607	0.0166029
655.685	0.0165182
655.763	0.0164785
655.841	0.0167069
655.919	0.0165006
655.997	0.0164075
656.075	0.0164887
656.154	0.0167517
656.232	0.0167621
656.310	0.0167649
656.388	0.0168300
656.466	0.0169088
656.544	0.0166399
656.622	0.0166017
656.700	0.0165372
656.779	0.0164102
656.857	0.0163087
656.935	0.0160857
657.013	0.0161497
657.091	0.0161371
657.169	0.0160487
657.247	0.0161553
657.325	0.0162321
657.404	0.0164779
657.482	0.0164522
657.560	0.0165718
657.638	0.0167871
657.716	0.0168814
657.794	0.0168999
657.872	0.0169701
657.950	0.0170543
658.029	0.0172223
658.107	0.0170307
658.185	0.0168404
658.263	0.0167902
658.341	0.0167696
658.419	0.0166170
658.497	0.0165762
658.575	0.0164790
658.654	0.0164980
658.732	0.0161948
658.810	0.0161662
658.888	0.0161676
658.966	0.0163952
659.044	0.0163335
659.122	0.0163876
659.200	0.0167169
659.279	0.0167426
659.357	0.0168250
659.435	0.0167898
659.513	0.0168654
659.591	0.0169614
659.669	0.0169271
659.747	0.0169062
659.825	0.0168988
659.904	0.0166594
659.982	0.0165052
660.060	0.0165228
660.138	0.0163493
660.216	0.0163322
660.294	0.0163373
660.372	0.0161134
660.450	0.0162100
660.529	0.0162194
660.607	0.0162590
660.685	0.0164886
660.763	0.0164262
660.841	0.0165318
660.919	0.0166261
660.997	0.0168983
661.075	0.0168884
661.154	0.0169796
661.232	0.0170510
661.310	0.0169689
661.388	0.0171439
661.466	0.0171814
661.544	0.0171745
661.622	0.0170294
661.700	0.0169404
661.779	0.0171244
661.857	0.0169818
661.935	0.0167889
662.013	0.0168451
662.091	0.0167010
662.169	0.0166245
662.247	0.0164768
662.325	0.0164024
662.404	0.0162661
662.482	0.0162436
662.560	0.0162624
662.638	0.0161600
662.716	0.0161993
662.794	0.0160607
662.872	0.0161553
662.950	0.0159810
663.029	0.0162024
663.107	0.0161243
663.185	0.0161901
663.263	0.0161580
663.341	0.0163741
663.419	0.0162977
663.497	0.0166373
663.575	0.0166129
663.654	0.0165744
663.732	0.0165512
663.810	0.0166819
663.888	0.0166255
663.966	0.0167271
664.044	0.0166298
664.122	0.0167080
664.200	0.0168774
664.279	0.0168987
664.357	0.0170512
664.435	0.0173985
664.513	0.0172428
664.591	0.0173973
664.669	0.0174470
664.747	0.0173854
664.825	0.0173483
664.904	0.0171515
664.982	0.0171282
665.060	0.0171342
665.138	0.0169725
665.216	0.0170458
665.294	0.0166890
665.372	0.0166227
665.450	0.0166484
665.529	0.0165814
665.607	0.0163699
665.685	0.0162969
665.763	0.0162762
665.841	0.0160380
665.919	0.0160455
665.997	0.0160719
666.075	0.0160432
666.154	0.0161137
666.232	0.0160027
666.310	0.0159214
666.388	0.0160458
666.466	0.0160328
666.544	0.0161581
666.622	0.0160654
666.700	0.0163168
666.779	0.0162121
666.857	0.0163493
666.935	0.0164912
667.013	0.0165124
667.091	0.0164787
667.169	0.0164716
667.247	0.0165048
667.325	0.0163269
667.404	0.0162157
667.482	0.0162838
667.560	0.0161730
667.638	0.0161156
667.716	0.0161262
667.794	0.0160822
667.872	0.0161191
667.950	0.0161735
668.029	0.0161369
668.107	0.0161976
668.185	0.0164195
668.263	0.0165525
668.341	0.0166172
668.419	0.0168410
668.497	0.0170089
668.575	0.0169891
668.654	0.0171635
668.732	0.0173306
668.810	0.0172392
668.888	0.0174343
668.966	0.0176402
669.044	0.0175379
669.122	0.0173931
669.200	0.0175971
669.279	0.0175108
669.357	0.0175252
669.435	0.0176328
669.513	0.0174509
669.591	0.0174017
669.669	0.0173415
669.747	0.0171615
669.825	0.0172286
669.904	0.0169027
669.982	0.0167285
670.060	0.0165187
670.138	0.0162749
670.216	0.0162023
670.294	0.0160786
670.372	0.0159975
670.450	0.0157236
670.529	0.0156709
670.607	0.0157453
670.685	0.0156203
670.763	0.0154070
670.841	0.0154800
670.919	0.0154797
670.997	0.0155874
671.075	0.0157455
671.154	0.0157258
671.232	0.0158289
671.310	0.0159920
671.388	0.0159856
671.466	0.0160680
671.544	0.0161597
671.622	0.0161601
671.700	0.0164151
671.779	0.0162926
671.857	0.0165238
671.935	0.0166797
672.013	0.0165904
672.091	0.0167308
672.169	0.0167256
672.247	0.0170036
672.325	0.0169858
672.404	0.0171048
672.482	0.0171892
672.560	0.0172916
672.638	0.0173235
672.716	0.0174172
672.794	0.0172958
672.872	0.0171713
672.950	0.0171156
673.029	0.0170651
673.107	0.0168137
673.185	0.0165947
673.263	0.0166826
673.341	0.0165170
673.419	0.0165192
673.497	0.0164306
673.575	0.0164204
673.654	0.0164189
673.732	0.0165555
673.810	0.0166129
673.888	0.0167507
673.966	0.0169238
674.044	0.0169975
674.122	0.0170006
674.200	0.0170092
674.279	0.0168879
674.357	0.0168624
674.435	0.0167544
674.513	0.0164002
674.591	0.0161940
674.669	0.0160789
674.747	0.0158102
674.825	0.0154333
674.904	0.0153800
674.982	0.0153017
675.060	0.0153111
675.138	0.0154453
675.216	0.0154657
675.294	0.0158464
675.372	0.0159736
675.450	0.0163239
675.529	0.0164792
675.607	0.0170373
675.685	0.0174876
675.763	0.0176828
675.841	0.0179932
675.919	0.0183716
675.997	0.0185006
676.075	0.0185609
676.154	0.0185574
676.232	0.0183382
676.310	0.0182096
676.388	0.0181307
676.466	0.0177518
676.544	0.0174158
676.622	0.0168234
676.700	0.0164043
676.779	0.0160413
676.857	0.0155625
676.935	0.0152338
677.013	0.0150384
677.091	0.0147308
677.169	0.0146169
677.247	0.0144331
677.325	0.0147758
677.404	0.0148788
677.482	0.0147759
677.560	0.0151970
677.638	0.0155802
677.716	0.0158094
677.794	0.0162915
677.872	0.0167725
677.950	0.0169173
678.029	0.0170446
678.107	0.0172850
678.185	0.0174114
678.263	0.0172639
678.341	0.0173191
678.419	0.0172466
678.497	0.0172810
678.575	0.0172738
678.654	0.0170296
678.732	0.0169066
678.810	0.0169704
678.888	0.0169180
678.966	0.0166480
679.044	0.0167477
679.122	0.0166443
679.200	0.0166156
679.279	0.0166325
679.357	0.0166180
679.435	0.0167078
679.513	0.0166987
679.591	0.0168141
679.669	0.0166912
679.747	0.0168667
679.825	0.0168631
679.904	0.0165394
679.982	0.0163021
680.060	0.0163056
680.138	0.0160876
680.216	0.0157958
680.294	0.0154157
680.372	0.0149625
680.450	0.0146922
680.529	0.0144916
680.607	0.0144075
680.685	0.0144204
680.763	0.0147318
680.841	0.0150486
680.919	0.0154673
680.997	0.0160480
681.075	0.0164847
681.154	0.0170726
681.232	0.0176173
681.310	0.0179961
681.388	0.0181640
681.466	0.0183032
681.544	0.0184721
681.622	0.0184577
681.700	0.0183849
681.779	0.0184403
681.857	0.0182395
681.935	0.0182598
682.013	0.0183552
682.091	0.0183912
682.169	0.0185769
682.247	0.0187353
682.325	0.0187708
682.404	0.0189908
682.482	0.0189386
682.560	0.0189281
682.638	0.0188889
682.716	0.0187333
682.794	0.0184833
682.872	0.0181501
682.950	0.0177669
683.029	0.0173653
683.107	0.0168380
683.185	0.0162720
683.263	0.0156879
683.341	0.0151142
683.419	0.0145488
683.497	0.0140739
683.575	0.0134982
683.654	0.0130803
683.732	0.0129675
683.810	0.0127328
683.888	0.0126285
683.966	0.0126329
684.044	0.0127934
684.122	0.0130173
684.200	0.0132028
684.279	0.0136464
684.357	0.0138493
684.435	0.0141833
684.513	0.0145079
684.591	0.0147670
684.669	0.0150374
684.747	0.0153052
684.825	0.0155990
684.904	0.0159885
684.982	0.0164222
685.060	0.0166869
685.138	0.0172351
685.216	0.0174870
685.294	0.0177174
685.372	0.0182755
685.450	0.0185422
685.529	0.0188100
685.607	0.0190145
685.685	0.0193293
685.763	0.0195535
685.841	0.0196978
685.919	0.0198387
685.997	0.0198131
686.075	0.0197524
686.154	0.0194090
686.232	0.0190388
686.310	0.0184562
686.388	0.0177925
686.466	0.0170886
686.544	0.0163718
686.622	0.0156199
686.700	0.0151536
686.779	0.0146889
686.857	0.0143539
686.935	0.0142799
687.013	0.0143372
687.091	0.0143641
687.169	0.0145645
687.247	0.0150230
687.325	0.0154207
687.404	0.0157860
687.482	0.0162007
687.560	0.0166450
687.638	0.0171384
687.716	0.0172528
687.794	0.0174660
687.872	0.0176851
687.950	0.0179520
688.029	0.0178960
688.107	0.0179771
688.185	0.0180845
688.263	0.0182560
688.341	0.0185793
688.419	0.0186904
688.497	0.0189603
688.575	0.0191304
688.654	0.0194297
688.732	0.0197975
688.810	0.0200182
688.888	0.0203604
688.966	0.0204230
689.044	0.0203585
689.122	0.0202631
689.200	0.0200857
689.279	0.0196082
689.357	0.0189471
689.435	0.0182010
689.513	0.0173887
689.591	0.0166161
689.669	0.0157583
689.747	0.0147214
689.825	0.0137965
689.904	0.0129952
689.982	0.0122628
690.060	0.0115848
690.138	0.0108667
690.216	0.0102871
690.294	0.00971573
690.372	0.00942673
690.450	0.00898750
690.529	0.00884239
690.607	0.00878807
690.685	0.00912369
690.763	0.00943413
690.841	0.00995033
690.919	0.0105900
690.997	0.0114742
691.075	0.0124785
691.154	0.0134946
691.232	0.0143125
691.310	0.0153074
691.388	0.0163542
691.466	0.0173746
691.544	0.0183335
691.622	0.0192689
691.700	0.0202145
691.779	0.0208856
691.857	0.0216390
691.935	0.0223445
692.013	0.0227983
692.091	0.0230630
692.169	0.0231187
692.247	0.0230515
692.325	0.0229446
692.404	0.0227010
692.482	0.0224742
692.560	0.0222173
692.638	0.0218470
692.716	0.0212952
692.794	0.0209309
692.872	0.0206070
692.950	0.0201809
693.029	0.0197411
693.107	0.0190820
693.185	0.0184546
693.263	0.0178553
693.341	0.0171448
693.419	0.0164117
693.497	0.0156660
693.575	0.0147243
693.654	0.0139103
693.732	0.0132539
693.810	0.0125945
693.888	0.0118978
693.966	0.0113009
694.044	0.0110371
694.122	0.0108202
694.200	0.0107447
694.279	0.0109535
694.357	0.0114451
694.435	0.0120409
694.513	0.0128394
694.591	0.0136714
694.669	0.0147085
694.747	0.0159444
694.825	0.0172416
694.904	0.0183205
694.982	0.0194064
695.060	0.0204234
695.138	0.0214822
695.216	0.0224560
695.294	0.0229524
695.372	0.0233395
695.450	0.0235785
695.529	0.0237537
695.607	0.0235023
695.685	0.0230456
695.763	0.0223888
695.841	0.0214297
695.919	0.0204259
695.997	0.0192320
696.075	0.0179261
696.154	0.0166218
696.232	0.0151744
696.310	0.0138752
696.388	0.0125316
696.466	0.0115325
696.544	0.0106765
696.622	0.00974815
696.700	0.00925186
696.779	0.00869751
696.857	0.00844757
696.935	0.00830208
697.013	0.00856316
697.091	0.00882713
697.169	0.00928139
697.247	0.00972397
697.325	0.0105805
697.404	0.0114269
697.482	0.0121461
697.560	0.0130524
697.638	0.0140677
697.716	0.0150148
697.794	0.0159442
697.872	0.0168107
697.950	0.0175336
698.029	0.0182976
698.107	0.0186588
698.185	0.0191569
698.263	0.0197209
698.341	0.0198996
698.419	0.0198655
698.497	0.0201080
698.575	0.0202686
698.654	0.0203683
698.732	0.0203406
698.810	0.0203317
698.888	0.0202222
698.966	0.0201109
699.044	0.0199831
699.122	0.0199046
699.200	0.0196740
699.279	0.0193676
699.357	0.0191231
699.435	0.0186465
699.513	0.0180452
699.591	0.0177753
699.669	0.0173376
699.747	0.0167764
699.825	0.0165804
699.904	0.0162326
699.982	0.0159214
700.060	0.0160515
700.138	0.0163207
700.216	0.0163114
700.294	0.0165997
700.372	0.0171603
700.450	0.0178904
700.529	0.0184243
700.607	0.0190402
700.685	0.0196879
700.763	0.0201981
700.841	0.0206911
700.919	0.0209464
700.997	0.0211447
701.075	0.0211948
701.154	0.0210300
701.232	0.0207446
701.310	0.0204585
701.388	0.0199129
701.466	0.0192719
701.544	0.0186542
701.622	0.0180210
701.700	0.0172836
701.779	0.0164578
701.857	0.0157348
701.935	0.0152229
702.013	0.0146599
702.091	0.0141090
702.169	0.0137135
702.247	0.0132304
702.325	0.0128005
702.404	0.0124704
702.482	0.0122487
702.560	0.0118233
702.638	0.0115302
702.716	0.0112832
702.794	0.0110255
702.872	0.0108562
702.950	0.0106437
703.029	0.0105124
703.107	0.0104746
703.185	0.0103454
703.263	0.0103966
703.341	0.0105600
703.419	0.0108212
703.497	0.0113150
703.575	0.0118260
703.654	0.0123987
703.732	0.0129151
703.810	0.0136444
703.888	0.0144287
703.966	0.0150391
704.044	0.0156721
704.122	0.0164164
704.200	0.0170847
704.279	0.0173319
704.357	0.0177505
704.435	0.0178974
704.513	0.0182418
704.591	0.0183768
704.669	0.0182228
704.747	0.0182667
704.825	0.0182501
704.904	0.0180802
704.982	0.0181813
705.060	0.0180544
705.138	0.0182381
705.216	0.0183023
705.294	0.0185606
705.372	0.0189562
705.450	0.0194137
705.529	0.0200854
705.607	0.0203875
705.685	0.0212199
705.763	0.0218431
705.841	0.0223257
705.919	0.0229782
705.997	0.0234170
706.075	0.0236533
706.154	0.0238604
706.232	0.0240688
706.310	0.0236252
706.388	0.0232591
706.466	0.0228582
706.544	0.0224169
706.622	0.0217302
706.700	0.0210840
706.779	0.0203703
706.857	0.0196796
706.935	0.0190646
707.013	0.0184345
707.091	0.0176240
707.169	0.0169811
707.247	0.0164266
707.325	0.0156811
707.404	0.0149677
707.482	0.0144614
707.560	0.0138128
707.638	0.0132601
707.716	0.0128522
707.794	0.0123228
707.872	0.0117934
707.950	0.0115724
708.029	0.0112292
708.107	0.0111897
708.185	0.0111258
708.263	0.0111600
708.341	0.0110631
708.419	0.0110806
708.497	0.0112510
708.575	0.0115677
708.654	0.0116428
708.732	0.0120091
708.810	0.0123186
708.888	0.0126500
708.966	0.0128570
709.044	0.0129549
709.122	0.0133791
709.200	0.0135249
709.279	0.0137810
709.357	0.0139513
709.435	0.0140512
709.513	0.0142046
709.591	0.0144263
709.669	0.0148955
709.747	0.0150643
709.825	0.0156287
709.904	0.0159152
709.982	0.0162710
710.060	0.0167216
710.138	0.0171234
710.216	0.0173122
710.294	0.0175665
710.372	0.0177695
710.450	0.0176448
710.529	0.0177181
710.607	0.0177483
710.685	0.0176688
710.763	0.0176138
710.841	0.0176223
710.919	0.0175758
710.997	0.0178946
711.075	0.0179412
711.154	0.0180875
711.232	0.0185771
711.310	0.0189966
711.388	0.0192583
711.466	0.0197889
711.544	0.0202400
711.622	0.0206573
711.700	0.0212236
711.779	0.0216074
711.857	0.0221133
711.935	0.0224644
712.013	0.0225449
712.091	0.0224773
712.169	0.0225581
712.247	0.0222342
712.325	0.0219112
712.404	0.0212768
712.482	0.0207191
712.560	0.0201125
712.638	0.0194112
712.716	0.0188070
712.794	0.0181301
712.872	0.0173498
712.950	0.0167348
713.029	0.0159564
713.107	0.0153772
713.185	0.0151050
713.263	0.0145412
713.341	0.0141083
713.419	0.0136806
713.497	0.0132464
713.575	0.0129544
713.654	0.0128021
713.732	0.0126627
713.810	0.0125143
713.888	0.0122398
713.966	0.0123565
714.044	0.0124352
714.122	0.0122234
714.200	0.0122762
714.279	0.0123830
714.357	0.0126339
714.435	0.0128190
714.513	0.0132407
714.591	0.0136320
714.669	0.0140688
714.747	0.0143589
714.825	0.0147192
714.904	0.0149911
714.982	0.0152831
715.060	0.0155651
715.138	0.0157577
715.216	0.0159975
715.294	0.0161261
715.372	0.0162701
715.450	0.0166409
715.529	0.0168589
715.607	0.0170079
715.685	0.0172067
715.763	0.0173180
715.841	0.0174344
715.919	0.0175269
715.997	0.0175670
716.075	0.0174985
716.154	0.0176571
716.232	0.0174056
716.310	0.0173523
716.388	0.0175400
716.466	0.0175866
716.544	0.0176067
716.622	0.0175877
716.700	0.0178613
716.779	0.0179238
716.857	0.0179945
716.935	0.0181068
717.013	0.0181505
717.091	0.0184495
717.169	0.0184278
717.247	0.0185693
717.325	0.0186538
717.404	0.0187537
717.482	0.0187555
717.560	0.0188294
717.638	0.0188213
717.716	0.0184924
717.794	0.0185001
717.872	0.0182135
717.950	0.0178387
718.029	0.0177596
718.107	0.0175684
718.185	0.0172224
718.263	0.0172914
718.341	0.0169727
718.419	0.0167170
718.497	0.0165155
718.575	0.0164694
718.654	0.0162807
718.732	0.0160781
718.810	0.0161234
718.888	0.0160130
718.966	0.0159904
719.044	0.0158308
719.122	0.0156865
719.200	0.0155285
719.279	0.0154555
719.357	0.0152744
719.435	0.0150648
719.513	0.0148488
719.591	0.0147859
719.669	0.0149567
719.747	0.0147065
719.825	0.0146601
719.904	0.0147795
719.982	0.0148013
720.060	0.0146519
720.138	0.0148396
720.216	0.0150341
720.294	0.0151941
720.372	0.0153097
720.450	0.0155555
720.529	0.0157310
720.607	0.0159056
720.685	0.0161662
720.763	0.0161450
720.841	0.0164248
720.919	0.0165517
720.997	0.0166930
721.075	0.0167410
721.154	0.0168097
721.232	0.0170100
721.310	0.0170956
721.388	0.0171026
721.466	0.0169585
721.544	0.0170243
721.622	0.0168046
721.700	0.0167267
721.779	0.0166515
721.857	0.0165289
721.935	0.0165115
722.013	0.0165269
722.091	0.0165231
722.169	0.0164782
722.247	0.0167161
722.325	0.0169528
722.404	0.0171550
722.482	0.0172673
722.560	0.0176038
722.638	0.0179575
722.716	0.0183575
722.794	0.0184732
722.872	0.0187357
722.950	0.0190324
723.029	0.0190988
723.107	0.0193137
723.185	0.0193526
723.263	0.0192079
723.341	0.0191086
723.419	0.0188901
723.497	0.0184822
723.575	0.0179614
723.654	0.0175908
723.732	0.0171300
723.810	0.0166225
723.888	0.0162259
723.966	0.0158722
724.044	0.0155521
724.122	0.0154817
724.200	0.0152769
724.279	0.0150566
724.357	0.0151866
724.435	0.0151641
724.513	0.0151595
724.591	0.0152425
724.669	0.0154006
724.747	0.0154401
724.825	0.0154019
724.904	0.0153915
724.982	0.0154159
725.060	0.0154971
725.138	0.0154069
725.216	0.0153016
725.294	0.0153317
725.372	0.0153053
725.450	0.0153605
725.529	0.0152658
725.607	0.0151612
725.685	0.0152008
725.763	0.0151714
725.841	0.0151023
725.919	0.0152364
725.997	0.0152528
726.075	0.0153771
726.154	0.0152219
726.232	0.0152995
726.310	0.0153785
726.388	0.0154225
726.466	0.0155842
726.544	0.0156714
726.622	0.0159176
726.700	0.0160200
726.779	0.0161398
726.857	0.0162434
726.935	0.0165015
727.013	0.0166068
727.091	0.0168060
727.169	0.0169927
727.247	0.0172664
727.325	0.0174823
727.404	0.0174707
727.482	0.0177605
727.560	0.0178771
727.638	0.0181550
727.716	0.0181979
727.794	0.0183987
727.872	0.0183988
727.950	0.0184016
728.029	0.0183345
728.107	0.0182967
728.185	0.0181715
728.263	0.0182380
728.341	0.0181659
728.419	0.0181403
728.497	0.0180748
728.575	0.0180226
728.654	0.0179894
728.732	0.0179564
728.810	0.0177994
728.888	0.0177474
728.966	0.0176205
729.044	0.0174817
729.122	0.0172157
729.200	0.0169772
729.279	0.0170595
729.357	0.0169832
729.435	0.0167939
729.513	0.0166217
729.591	0.0164922
729.669	0.0164680
729.747	0.0163780
729.825	0.0161630
729.904	0.0160812
729.982	0.0161602
730.060	0.0160802
730.138	0.0160683
730.216	0.0160879
730.294	0.0161121
730.372	0.0161483
730.450	0.0159752
730.529	0.0159867
730.607	0.0160969
730.685	0.0159173
730.763	0.0158871
730.841	0.0159407
730.919	0.0159092
730.997	0.0159989
731.075	0.0159779
731.154	0.0159393
731.232	0.0160751
731.310	0.0158297
731.388	0.0159988
731.466	0.0159959
731.544	0.0159952
731.622	0.0159933
731.700	0.0160082
731.779	0.0160984
731.857	0.0160324
731.935	0.0161176
732.013	0.0159999
732.091	0.0158704
732.169	0.0158401
732.247	0.0156207
732.325	0.0155074
732.404	0.0153090
732.482	0.0152524
732.560	0.0150287
732.638	0.0151497
732.716	0.0150522
732.794	0.0150682
732.872	0.0151731
732.950	0.0153165
733.029	0.0155625
733.107	0.0157017
733.185	0.0158860
733.263	0.0164291
733.341	0.0165309
733.419	0.0168235
733.497	0.0170390
733.575	0.0173380
733.654	0.0176025
733.732	0.0178663
733.810	0.0180836
733.888	0.0181313
733.966	0.0183420
734.044	0.0184611
734.122	0.0183191
734.200	0.0182723
734.279	0.0184129
734.357	0.0182195
734.435	0.0181026
734.513	0.0178471
734.591	0.0175362
734.669	0.0173837
734.747	0.0172843
734.825	0.0170653
734.904	0.0169503
734.982	0.0167145
735.060	0.0168627
735.138	0.0166330
735.216	0.0166914
735.294	0.0166174
735.372	0.0166878
735.450	0.0166788
735.529	0.0170049
735.607	0.0170467
735.685	0.0170059
735.763	0.0170397
735.841	0.0171750
735.919	0.0171545
735.997	0.0170956
736.075	0.0173383
736.154	0.0172380
736.232	0.0170792
736.310	0.0169946
736.388	0.0169460
736.466	0.0169450
736.544	0.0168298
736.622	0.0168356
736.700	0.0168513
736.779	0.0167107
736.857	0.0165444
736.935	0.0166586
737.013	0.0166085
737.091	0.0165014
737.169	0.0164254
737.247	0.0164734
737.325	0.0162858
737.404	0.0163679
737.482	0.0163535
737.560	0.0162335
737.638	0.0161942
737.716	0.0160049
737.794	0.0158543
737.872	0.0157549
737.950	0.0156419
738.029	0.0154523
738.107	0.0153749
738.185	0.0155031
738.263	0.0153479
738.341	0.0151250
738.419	0.0154362
738.497	0.0153846
738.575	0.0154076
738.654	0.0157032
738.732	0.0158344
738.810	0.0159725
738.888	0.0160728
738.966	0.0164285
739.044	0.0163749
739.122	0.0165421
739.200	0.0166387
739.279	0.0168562
739.357	0.0169879
739.435	0.0171496
739.513	0.0170821
739.591	0.0171221
739.669	0.0170665
739.747	0.0171352
739.825	0.0169411
739.904	0.0169468
739.982	0.0168650
740.060	0.0166682
740.138	0.0166084
740.216	0.0164869
740.294	0.0164052
740.372	0.0164730
740.450	0.0162291
740.529	0.0162373
740.607	0.0162574
740.685	0.0162353
740.763	0.0161889
740.841	0.0163022
740.919	0.0163540
740.997	0.0163238
741.075	0.0165959
741.154	0.0165112
741.232	0.0168405
741.310	0.0167095
741.388	0.0168316
741.466	0.0166809
741.544	0.0167844
741.622	0.0167388
741.700	0.0167789
741.779	0.0168593
741.857	0.0168511
741.935	0.0168787
742.013	0.0169368
742.091	0.0167119
742.169	0.0169996
742.247	0.0172082
742.325	0.0172528
742.404	0.0174595
742.482	0.0173722
742.560	0.0176093
742.638	0.0176637
742.716	0.0178545
742.794	0.0179584
742.872	0.0180570
742.950	0.0179068
743.029	0.0179214
743.107	0.0178323
743.185	0.0176561
743.263	0.0176006
743.341	0.0172668
743.419	0.0170330
743.497	0.0168628
743.575	0.0165739
743.654	0.0162754
743.732	0.0160143
743.810	0.0157915
743.888	0.0155374
743.966	0.0152942
744.044	0.0150345
744.122	0.0149572
744.200	0.0149384
744.279	0.0151242
744.357	0.0149621
744.435	0.0150017
744.513	0.0153689
744.591	0.0155198
744.669	0.0157781
744.747	0.0159797
744.825	0.0161700
744.904	0.0164235
744.982	0.0168578
745.060	0.0171024
745.138	0.0171349
745.216	0.0173884
745.294	0.0174445
745.372	0.0175738
745.450	0.0174599
745.529	0.0174306
745.607	0.0173482
745.685	0.0174274
745.763	0.0172851
745.841	0.0171574
745.919	0.0171084
745.997	0.0169960
746.075	0.0167030
746.154	0.0166064
746.232	0.0165207
746.310	0.0162286
746.388	0.0160137
746.466	0.0159588
746.544	0.0157496
746.622	0.0157205
746.700	0.0157603
746.779	0.0156151
746.857	0.0156802
746.935	0.0157939
747.013	0.0158276
747.091	0.0157244
747.169	0.0158447
747.247	0.0159224
747.325	0.0161613
747.404	0.0161394
747.482	0.0162388
747.560	0.0163119
747.638	0.0163921
747.716	0.0164780
747.794	0.0165907
747.872	0.0165649
747.950	0.0166444
748.029	0.0168523
748.107	0.0168307
748.185	0.0169161
748.263	0.0170123
748.341	0.0171674
748.419	0.0172043
748.497	0.0173049
748.575	0.0171711
748.654	0.0173319
748.732	0.0173200
748.810	0.0171560
748.888	0.0172194
748.966	0.0171051
749.044	0.0171929
749.122	0.0169979
749.200	0.0167139
749.279	0.0168769
749.357	0.0165842
749.435	0.0164051
749.513	0.0162556
749.591	0.0161662
749.669	0.0160079
749.747	0.0160788
749.825	0.0162469
749.904	0.0161943
749.982	0.0160620
750.060	0.0164395
750.138	0.0164034
750.216	0.0164990
750.294	0.0165433
750.372	0.0167728
750.450	0.0169412
750.529	0.0170123
750.607	0.0171690
750.685	0.0171500
750.763	0.0171400
750.841	0.0170963
750.919	0.0171369
750.997	0.0169294
751.075	0.0170705
751.154	0.0171133
751.232	0.0170025
751.310	0.0169665
751.388	0.0171807
751.466	0.0171105
751.544	0.0173074
751.622	0.0171981
751.700	0.0171394
751.779	0.0172751
751.857	0.0173420
751.935	0.0172923
752.013	0.0172661
752.091	0.0172120
752.169	0.0171043
752.247	0.0169210
752.325	0.0167304
752.404	0.0167532
752.482	0.0164397
752.560	0.0161951
752.638	0.0160354
752.716	0.0159911
752.794	0.0156930
752.872	0.0155648
752.950	0.0153510
753.029	0.0153300
753.107	0.0154220
753.185	0.0152842
753.263	0.0154898
753.341	0.0157221
753.419	0.0156743
753.497	0.0158097
753.575	0.0159883
753.654	0.0160917
753.732	0.0163646
753.810	0.0164810
753.888	0.0166545
753.966	0.0168510
754.044	0.0170244
754.122	0.0169665
754.200	0.0172340
754.279	0.0172148
754.357	0.0172227
754.435	0.0172474
754.513	0.0173116
754.591	0.0172089
754.669	0.0170875
754.747	0.0169975
754.825	0.0170784
754.904	0.0167755
754.982	0.0167406
755.060	0.0166701
755.138	0.0165855
755.216	0.0165208
755.294	0.0164911
755.372	0.0163665
755.450	0.0161460
755.529	0.0163089
755.607	0.0161607
755.685	0.0162230
755.763	0.0162075
755.841	0.0161881
755.919	0.0162424
755.997	0.0161820
756.075	0.0161485
756.154	0.0161153
756.232	0.0163572
756.310	0.0162434
756.388	0.0161460
756.466	0.0163428
756.544	0.0164967
756.622	0.0163969
756.700	0.0165216
756.779	0.0165394
756.857	0.0166673
756.935	0.0168722
757.013	0.0169695
757.091	0.0170047
757.169	0.0171141
757.247	0.0172538
757.325	0.0172274
757.404	0.0171983
757.482	0.0174384
757.560	0.0173753
757.638	0.0174823
757.716	0.0173560
757.794	0.0173441
757.872	0.0174310
757.950	0.0172641
758.029	0.0170362
758.107	0.0171514
758.185	0.0169356
758.263	0.0168455
758.341	0.0168018
758.419	0.0168004
758.497	0.0166030
758.575	0.0165147
758.654	0.0164440
758.732	0.0164417
758.810	0.0163280
758.888	0.0162225
758.966	0.0163351
759.044	0.0161647
759.122	0.0162498
759.200	0.0162325
759.279	0.0162986
759.357	0.0162988
759.435	0.0164233
759.513	0.0164203
759.591	0.0164371
759.669	0.0164563
759.747	0.0165630
759.825	0.0166245
759.904	0.0166995
759.982	0.0166109
760.060	0.0166039
760.138	0.0168171
760.216	0.0166666
760.294	0.0167007
760.372	0.0165852
760.450	0.0166514
760.529	0.0165849
760.607	0.0165994
760.685	0.0166563
760.763	0.0166582
760.841	0.0165544
760.919	0.0165311
760.997	0.0164816
761.075	0.0164448
761.154	0.0163810
761.232	0.0163194
761.310	0.0163089
761.388	0.0164193
761.466	0.0162931
761.544	0.0163788
761.622	0.0163479
761.700	0.0164812
761.779	0.0163725
761.857	0.0162720
761.935	0.0163880
762.013	0.0162250
762.091	0.0164039
762.169	0.0162251
762.247	0.0161141
762.325	0.0161497
762.404	0.0162561
762.482	0.0161352
762.560	0.0163134
762.638	0.0162565
762.716	0.0162454
762.794	0.0162949
762.872	0.0164896
762.950	0.0164777
763.029	0.0164816
763.107	0.0165498
763.185	0.0166863
763.263	0.0167278
763.341	0.0168993
763.419	0.0169697
763.497	0.0167926
763.575	0.0170430
763.654	0.0169552
763.732	0.0170367
763.810	0.0168961
763.888	0.0170484
763.966	0.0169795
764.044	0.0170274
764.122	0.0168678
764.200	0.0167241
764.279	0.0167529
764.357	0.0165896
764.435	0.0164098
764.513	0.0163985
764.591	0.0163752
764.669	0.0162783
764.747	0.0161859
764.825	0.0162157
764.904	0.0163857
764.982	0.0162867
765.060	0.0162879
765.138	0.0162519
765.216	0.0164225
765.294	0.0165137
765.372	0.0166967
765.450	0.0167767
765.529	0.0168609
765.607	0.0169769
765.685	0.0170940
765.763	0.0171513
765.841	0.0171952
765.919	0.0171706
765.997	0.0172215
766.075	0.0172569
766.154	0.0172492
766.232	0.0172055
766.310	0.0171211
766.388	0.0170842
766.466	0.0170777
766.544	0.0167675
766.622	0.0168933
766.700	0.0167368
766.779	0.0163167
766.857	0.0163024
766.935	0.0162347
767.013	0.0160526
767.091	0.0161100
767.169	0.0159544
767.247	0.0159356
767.325	0.0159824
767.404	0.0159910
767.482	0.0160954
767.560	0.0161501
767.638	0.0162880
767.716	0.0163834
767.794	0.0164235
767.872	0.0165826
767.950	0.0166856
768.029	0.0167413
768.107	0.0169119
768.185	0.0168987
768.263	0.0169077
768.341	0.0171412
768.419	0.0170356
768.497	0.0169210
768.575	0.0168307
768.654	0.0166972
768.732	0.0167788
768.810	0.0166129
768.888	0.0165759
768.966	0.0164253
769.044	0.0162650
769.122	0.0163550
769.200	0.0163028
769.279	0.0163224
769.357	0.0162615
769.435	0.0162940
769.513	0.0161929
769.591	0.0164645
769.669	0.0165118
769.747	0.0164224
769.825	0.0163838
769.904	0.0166425
769.982	0.0167574
770.060	0.0165832
770.138	0.0165742
770.216	0.0167326
770.294	0.0167610
770.372	0.0166955
770.450	0.0166068
770.529	0.0165162
770.607	0.0166235
770.685	0.0166456
770.763	0.0165233
770.841	0.0164977
770.919	0.0164286
770.997	0.0161972
771.075	0.0164600
771.154	0.0163473
771.232	0.0163148
771.310	0.0164721
771.388	0.0164244
771.466	0.0164619
771.544	0.0164421
771.622	0.0166997
771.700	0.0167843
771.779	0.0167274
771.857	0.0169483
771.935	0.0172256
772.013	0.0170673
772.091	0.0173659
772.169	0.0172961
772.247	0.0173486
772.325	0.0172654
772.404	0.0173074
772.482	0.0173431
772.560	0.0171684
772.638	0.0171033
772.716	0.0168842
772.794	0.0168929
772.872	0.0167267
772.950	0.0165978
773.029	0.0164059
773.107	0.0162408
773.185	0.0162534
773.263	0.0162022
773.341	0.0161397
773.419	0.0160656
773.497	0.0160642
773.575	0.0161186
773.654	0.0160896
773.732	0.0161726
773.810	0.0163129
773.888	0.0162569
773.966	0.0163540
774.044	0.0164026
774.122	0.0166164
774.200	0.0167364
774.279	0.0167272
774.357	0.0167756
774.435	0.0168856
774.513	0.0169163
774.591	0.0170896
774.669	0.0169731
774.747	0.0171809
774.825	0.0169565
774.904	0.0170542
774.982	0.0170218
775.060	0.0168111
775.138	0.0168572
775.216	0.0169331
775.294	0.0167833
775.372	0.0168018
775.450	0.0166839
775.529	0.0166726
775.607	0.0166470
775.685	0.0165810
775.763	0.0166283
775.841	0.0164966
775.919	0.0166080
775.997	0.0166220
776.075	0.0165552
776.154	0.0164299
776.232	0.0165197
776.310	0.0165341
776.388	0.0165350
776.466	0.0164491
776.544	0.0164523
776.622	0.0165078
776.700	0.0165508
776.779	0.0166008
776.857	0.0167372
776.935	0.0165890
777.013	0.0165262
777.091	0.0165891
777.169	0.0166112
777.247	0.0166682
777.325	0.0165460
777.404	0.0164489
777.482	0.0164347
777.560	0.0164735
777.638	0.0164890
777.716	0.0164209
777.794	0.0165395
777.872	0.0165850
777.950	0.0164078
778.029	0.0164536
778.107	0.0163517
778.185	0.0165546
778.263	0.0165547
778.341	0.0166212
778.419	0.0166802
778.497	0.0167097
778.575	0.0168143
778.654	0.0170583
778.732	0.0168269
778.810	0.0168387
778.888	0.0169431
778.966	0.0170543
779.044	0.0169046
779.122	0.0169323
779.200	0.0168463
779.279	0.0168816
779.357	0.0168297
779.435	0.0167017
779.513	0.0166713
779.591	0.0165354
779.669	0.0165442
779.747	0.0164352
779.825	0.0164179
779.904	0.0164087
779.982	0.0164005
780.060	0.0163026
780.138	0.0162598
780.216	0.0162203
780.294	0.0161423
780.372	0.0162550
780.450	0.0163242
780.529	0.0162711
780.607	0.0160435
780.685	0.0162519
780.763	0.0162708
780.841	0.0163483
780.919	0.0165202
780.997	0.0165646
781.075	0.0166795
781.154	0.0166142
781.232	0.0167205
781.310	0.0166579
781.388	0.0168274
781.466	0.0166622
781.544	0.0168461
781.622	0.0168425
781.700	0.0167512
781.779	0.0169161
781.857	0.0168291
781.935	0.0169644
782.013	0.0167888
782.091	0.0169664
782.169	0.0169205
782.247	0.0169693
782.325	0.0168955
782.404	0.0169215
782.482	0.0168707
782.560	0.0167804
782.638	0.0169315
782.716	0.0168627
782.794	0.0167931
782.872	0.0167707
782.950	0.0168095
783.029	0.0166971
783.107	0.0166438
783.185	0.0165725
783.263	0.0164388
783.341	0.0165881
783.419	0.0165260
783.497	0.0164280
783.575	0.0165746
783.654	0.0164738
783.732	0.0164021
783.810	0.0163593
783.888	0.0164621
783.966	0.0163706
784.044	0.0163873
784.122	0.0165170
784.200	0.0165182
784.279	0.0166116
784.357	0.0167245
784.435	0.0165992
784.513	0.0167404
784.591	0.0168497
784.669	0.0167572
784.747	0.0168584
784.825	0.0168809
784.904	0.0169514
784.982	0.0167811
785.060	0.0168297
785.138	0.0168542
785.216	0.0167297
785.294	0.0165178
785.372	0.0166730
785.450	0.0167621
785.529	0.0167507
785.607	0.0166425
785.685	0.0165875
785.763	0.0165275
785.841	0.0164053
785.919	0.0164462
785.997	0.0165524
786.075	0.0163669
786.154	0.0162449
786.232	0.0162979
786.310	0.0163522
786.388	0.0163858
786.466	0.0161183
786.544	0.0162212
786.622	0.0161960
786.700	0.0161441
786.779	0.0163045
786.857	0.0161018
786.935	0.0160461
787.013	0.0162014
787.091	0.0160629
787.169	0.0160690
787.247	0.0161578
787.325	0.0162556
787.404	0.0162866
787.482	0.0164468
787.560	0.0162066
787.638	0.0163615
787.716	0.0164046
787.794	0.0165131
787.872	0.0166193
787.950	0.0165639
788.029	0.0165015
788.107	0.0167713
788.185	0.0168613
788.263	0.0168153
788.341	0.0169165
788.419	0.0170078
788.497	0.0170378
788.575	0.0170313
788.654	0.0171043
788.732	0.0172251
788.810	0.0172840
788.888	0.0172641
788.966	0.0172304
789.044	0.0171989
789.122	0.0172525
789.200	0.0172027
789.279	0.0171526
789.357	0.0171843
789.435	0.0170318
789.513	0.0171255
789.591	0.0169328
789.669	0.0168668
789.747	0.0168220
789.825	0.0167300
789.904	0.0167303
789.982	0.0166512
790.060	0.0164834
790.138	0.0166181
790.216	0.0163988
790.294	0.0163063
790.372	0.0163478
790.450	0.0163945
790.529	0.0162536
790.607	0.0163513
790.685	0.0163577
790.763	0.0163390
790.841	0.0162617
790.919	0.0164281
790.997	0.0164735
791.075	0.0164870
791.154	0.0165483
791.232	0.0166081
791.310	0.0167720
791.388	0.0167451
791.466	0.0167771
791.544	0.0169347
791.622	0.0169701
791.700	0.0168829
791.779	0.0169966
791.857	0.0170261
791.935	0.0168470
792.013	0.0168258
792.091	0.0167475
792.169	0.0167201
792.247	0.0165836
792.325	0.0165432
792.404	0.0163242
792.482	0.0162309
792.560	0.0163378
792.638	0.0162459
792.716	0.0160080
792.794	0.0160303
792.872	0.0159085
792.950	0.0158885
793.029	0.0158046
793.107	0.0160681
793.185	0.0159719
793.263	0.0160084
793.341	0.0160334
793.419	0.0160512
793.497	0.0161302
793.575	0.0160970
793.654	0.0160727
793.732	0.0162505
793.810	0.0163624
793.888	0.0162474
793.966	0.0162527
794.044	0.0164490
794.122	0.0163438
794.200	0.0162392
794.279	0.0163632
794.357	0.0162439
794.435	0.0162891
794.513	0.0165208
794.591	0.0165306
794.669	0.0165708
794.747	0.0166599
794.825	0.0167901
794.904	0.0167732
794.982	0.0170435
795.060	0.0169807
795.138	0.0171133
795.216	0.0172437
795.294	0.0172112
795.372	0.0172813
795.450	0.0174626
795.529	0.0173888
795.607	0.0173075
795.685	0.0173361
795.763	0.0172078
795.841	0.0172153
795.919	0.0173724
795.997	0.0171429
796.075	0.0170898
796.154	0.0171513
796.232	0.0170691
796.310	0.0168959
796.388	0.0169965
796.466	0.0168967
796.544	0.0168817
796.622	0.0167872
796.700	0.0167445
796.779	0.0166290
796.857	0.0166572
796.935	0.0167173
797.013	0.0167104
797.091	0.0166029
797.169	0.0165315
797.247	0.0165299
797.325	0.0165672
797.404	0.0165615
797.482	0.0164355
797.560	0.0162610
797.638	0.0163068
797.716	0.0161947
797.794	0.0163587
797.872	0.0162560
797.950	0.0163683
798.029	0.0164135
798.107	0.0163967
798.185	0.0163266
798.263	0.0163727
798.341	0.0163413
798.419	0.0163384
798.497	0.0163249
798.575	0.0164877
798.654	0.0164547
798.732	0.0164621
798.810	0.0164571
798.888	0.0163944
798.966	0.0165119
799.044	0.0163795
799.122	0.0163978
799.200	0.0163157
799.279	0.0163384
799.357	0.0163764
799.435	0.0161885
799.513	0.0162012
799.591	0.0162605
799.669	0.0162975
799.747	0.0161813
799.825	0.0160347
799.904	0.0160971
799.982	0.0161134
800.060	0.0161209
800.138	0.0161181
800.216	0.0160908
800.294	0.0161710
800.372	0.0163210
800.450	0.0163388
800.529	0.0162422
800.607	0.0163289
800.685	0.0164837
800.763	0.0164557
800.841	0.0164246
800.919	0.0166815
800.997	0.0167003
801.075	0.0166534
801.154	0.0168194
801.232	0.0169812
801.310	0.0170146
801.388	0.0169944
801.466	0.0171463
801.544	0.0170860
801.622	0.0173177
801.700	0.0174417
801.779	0.0173531
801.857	0.0173208
801.935	0.0174853
802.013	0.0173566
802.091	0.0173820
802.169	0.0174438
802.247	0.0174249
802.325	0.0173960
802.404	0.0174615
802.482	0.0174294
802.560	0.0173655
802.638	0.0172285
802.716	0.0171369
802.794	0.0170654
802.872	0.0170324
802.950	0.0170679
803.029	0.0167552
803.107	0.0166533
803.185	0.0165584
803.263	0.0164773
803.341	0.0163453
803.419	0.0162246
803.497	0.0162386
803.575	0.0161028
803.654	0.0160989
803.732	0.0161362
803.810	0.0160436
803.888	0.0159834
803.966	0.0160006
804.044	0.0159404
804.122	0.0159572
804.200	0.0161117
804.279	0.0160695
804.357	0.0161059
804.435	0.0161740
804.513	0.0161179
804.591	0.0160810
804.669	0.0162685
804.747	0.0163784
804.825	0.0163039
804.904	0.0164388
804.982	0.0164034
805.060	0.0163769
805.138	0.0162875
805.216	0.0163168
805.294	0.0164155
805.372	0.0164333
805.450	0.0162473
805.529	0.0163906
805.607	0.0165021
805.685	0.0164947
805.763	0.0163066
805.841	0.0164230
805.919	0.0164191
805.997	0.0163896
806.075	0.0164357
806.154	0.0165353
806.232	0.0165118
806.310	0.0165845
806.388	0.0165804
806.466	0.0164738
806.544	0.0166339
806.622	0.0167335
806.700	0.0166924
806.779	0.0169303
806.857	0.0167686
806.935	0.0167816
807.013	0.0168465
807.091	0.0168707
807.169	0.0168890
807.247	0.0170114
807.325	0.0168233
807.404	0.0170264
807.482	0.0169500
807.560	0.0169416
807.638	0.0169203
807.716	0.0168913
807.794	0.0169409
807.872	0.0167599
807.950	0.0167563
808.029	0.0166652
808.107	0.0168103
808.185	0.0167643
808.263	0.0166985
808.341	0.0167637
808.419	0.0167310
808.497	0.0166470
808.575	0.0167196
808.654	0.0166689
808.732	0.0166412
808.810	0.0166428
808.888	0.0166107
808.966	0.0166642
809.044	0.0166917
809.122	0.0167734
809.200	0.0166367
809.279	0.0166804
809.357	0.0168223
809.435	0.0168064
809.513	0.0168889
809.591	0.0167407
809.669	0.0167360
809.747	0.0166624
809.825	0.0166283
809.904	0.0165220
809.982	0.0164701
810.060	0.0165584
810.138	0.0165082
810.216	0.0162589
810.294	0.0162810
810.372	0.0162351
810.450	0.0162438
810.529	0.0161825
810.607	0.0160129
810.685	0.0160605
810.763	0.0161935
810.841	0.0160631
810.919	0.0160914
810.997	0.0162723
811.075	0.0162498
811.154	0.0162225
811.232	0.0161718
811.310	0.0163162
811.388	0.0163670
811.466	0.0164777
811.544	0.0165589
811.622	0.0165096
811.700	0.0164465
811.779	0.0164391
811.857	0.0165809
811.935	0.0164735
812.013	0.0165369
812.091	0.0165526
812.169	0.0166435
812.247	0.0166320
812.325	0.0166727
812.404	0.0165973
812.482	0.0167064
812.560	0.0166440
812.638	0.0166920
812.716	0.0165810
812.794	0.0166949
812.872	0.0166740
812.950	0.0167447
813.029	0.0168024
813.107	0.0167029
813.185	0.0166650
813.263	0.0166953
813.341	0.0168633
813.419	0.0167337
813.497	0.0166656
813.575	0.0167181
813.654	0.0166811
813.732	0.0168488
813.810	0.0167510
813.888	0.0167749
813.966	0.0168964
814.044	0.0168596
814.122	0.0169075
814.200	0.0168930
814.279	0.0166938
814.357	0.0167857
814.435	0.0166661
814.513	0.0165967
814.591	0.0165696
814.669	0.0165908
814.747	0.0164625
814.825	0.0165764
814.904	0.0163942
814.982	0.0163347
815.060	0.0165521
815.138	0.0164265
815.216	0.0164256
815.294	0.0165432
815.372	0.0164222
815.450	0.0164815
815.529	0.0166977
815.607	0.0165609
815.685	0.0165739
815.763	0.0166206
815.841	0.0168045
815.919	0.0167267
815.997	0.0167517
816.075	0.0168503
816.154	0.0167752
816.232	0.0168204
816.310	0.0167352
816.388	0.0167268
816.466	0.0166369
816.544	0.0165734
816.622	0.0165329
816.700	0.0163460
816.779	0.0163264
816.857	0.0164011
816.935	0.0161905
817.013	0.0161149
817.091	0.0162640
817.169	0.0161531
817.247	0.0162081
817.325	0.0161326
817.404	0.0161433
817.482	0.0162076
817.560	0.0162164
817.638	0.0163000
817.716	0.0163976
817.794	0.0165343
817.872	0.0165003
817.950	0.0165930
818.029	0.0166216
818.107	0.0167096
818.185	0.0168128
818.263	0.0169411
818.341	0.0169408
818.419	0.0170621
818.497	0.0170486
818.575	0.0171056
818.654	0.0171126
818.732	0.0169667
818.810	0.0170974
818.888	0.0171583
818.966	0.0170937
819.044	0.0169604
819.122	0.0167809
819.200	0.0169095
819.279	0.0167191
819.357	0.0167944
819.435	0.0165335
819.513	0.0167116
819.591	0.0165254
819.669	0.0166151
819.747	0.0164217
819.825	0.0164011
819.904	0.0164886
819.982	0.0164087
820.060	0.0164498
820.138	0.0164443
820.216	0.0165022
820.294	0.0163567
820.372	0.0164771
820.450	0.0165384
820.529	0.0163976
820.607	0.0162560
820.685	0.0162856
820.763	0.0163751
820.841	0.0163586
820.919	0.0162254
820.997	0.0163860
821.075	0.0163503
821.154	0.0164722
821.232	0.0164072
821.310	0.0164601
821.388	0.0166229
821.466	0.0166785
821.544	0.0165382
821.622	0.0166431
821.700	0.0167319
821.779	0.0166327
821.857	0.0167024
821.935	0.0168069
822.013	0.0166563
822.091	0.0166906
822.169	0.0167278
822.247	0.0167262
822.325	0.0166914
822.404	0.0166402
822.482	0.0166091
822.560	0.0166506
822.638	0.0165154
822.716	0.0164933
822.794	0.0164509
822.872	0.0165343
822.950	0.0165459
823.029	0.0163879
823.107	0.0164523
823.185	0.0164404
823.263	0.0163617
823.341	0.0162687
823.419	0.0164211
823.497	0.0162576
823.575	0.0163417
823.654	0.0163745
823.732	0.0163508
823.810	0.0165150
823.888	0.0165939
823.966	0.0164840
824.044	0.0166832
824.122	0.0166174
824.200	0.0167838
824.279	0.0168336
824.357	0.0168447
824.435	0.0168882
824.513	0.0170645
824.591	0.0171584
824.669	0.0173103
824.747	0.0171018
824.825	0.0172060
824.904	0.0173061
824.982	0.0171472
825.060	0.0171913
825.138	0.0169978
825.216	0.0168970
825.294	0.0168855
825.372	0.0169093
825.450	0.0168154
825.529	0.0165911
825.607	0.0165165
825.685	0.0163853
825.763	0.0163469
825.841	0.0162873
825.919	0.0161366
825.997	0.0162208
826.075	0.0161373
826.154	0.0161010
826.232	0.0160040
826.310	0.0159384
826.388	0.0161652
826.466	0.0161648
826.544	0.0161045
826.622	0.0161201
826.700	0.0162757
826.779	0.0163943
826.857	0.0164053
826.935	0.0166189
827.013	0.0166978
827.091	0.0167007
827.169	0.0168647
827.247	0.0168221
827.325	0.0169961
827.404	0.0168556
827.482	0.0168867
827.560	0.0168113
827.638	0.0168531
827.716	0.0168566
827.794	0.0168878
827.872	0.0166975
827.950	0.0168195
828.029	0.0166677
828.107	0.0166165
828.185	0.0166515
828.263	0.0165039
828.341	0.0164355
828.419	0.0163168
828.497	0.0163151
828.575	0.0164210
828.654	0.0165187
828.732	0.0163083
828.810	0.0163559
828.888	0.0163010
828.966	0.0163020
829.044	0.0163512
829.122	0.0161671
829.200	0.0162809
829.279	0.0162709
829.357	0.0161688
829.435	0.0164102
829.513	0.0164616
829.591	0.0164819
829.669	0.0163210
829.747	0.0165320
829.825	0.0165884
829.904	0.0167389
829.982	0.0166333
830.060	0.0168781
830.138	0.0167776
830.216	0.0168015
830.294	0.0171041
830.372	0.0170187
830.450	0.0169817
830.529	0.0169399
830.607	0.0170689
830.685	0.0170454
830.763	0.0171739
830.841	0.0171410
830.919	0.0169768
830.997	0.0168893
831.075	0.0169453
831.154	0.0169909
831.232	0.0167311
831.310	0.0168484
831.388	0.0167715
831.466	0.0167966
831.544	0.0166678
831.622	0.0165600
831.700	0.0166154
831.779	0.0164943
831.857	0.0163998
831.935	0.0164992
832.013	0.0163223
832.091	0.0163584
832.169	0.0162921
832.247	0.0163254
832.325	0.0164280
832.404	0.0163380
832.482	0.0162074
832.560	0.0163267
832.638	0.0164631
832.716	0.0165189
832.794	0.0163898
832.872	0.0162986
832.950	0.0165664
833.029	0.0166748
833.107	0.0167036
833.185	0.0167818
833.263	0.0168414
833.341	0.0168511
833.419	0.0168071
833.497	0.0169257
833.575	0.0169708
833.654	0.0168480
833.732	0.0168854
833.810	0.0169444
833.888	0.0168096
833.966	0.0168005
834.044	0.0167589
834.122	0.0167283
834.200	0.0166221
834.279	0.0164885
834.357	0.0165469
834.435	0.0165481
834.513	0.0164497
834.591	0.0164789
834.669	0.0165182
834.747	0.0163791
834.825	0.0163631
834.904	0.0161852
834.982	0.0163251
835.060	0.0163778
835.138	0.0161935
835.216	0.0162369
835.294	0.0162341
835.372	0.0162924
835.450	0.0162620
835.529	0.0162599
835.607	0.0163960
835.685	0.0165072
835.763	0.0164736
835.841	0.0164679
835.919	0.0166038
835.997	0.0167051
836.075	0.0166581
836.154	0.0166702
836.232	0.0166792
836.310	0.0167469
836.388	0.0167599
836.466	0.0167321
836.544	0.0165070
836.622	0.0168451
836.700	0.0167863
836.779	0.0167519
836.857	0.0167039
836.935	0.0167141
837.013	0.0166528
837.091	0.0167183
837.169	0.0166263
837.247	0.0165719
837.325	0.0166841
837.404	0.0166372
837.482	0.0164824
837.560	0.0165294
837.638	0.0165591
837.716	0.0168107
837.794	0.0166310
837.872	0.0165838
837.950	0.0164827
838.029	0.0165070
838.107	0.0164521
838.185	0.0163688
838.263	0.0163895
838.341	0.0165057
838.419	0.0164429
838.497	0.0165269
838.575	0.0164397
838.654	0.0166457
838.732	0.0167521
838.810	0.0166299
838.888	0.0167336
838.966	0.0167913
839.044	0.0168848
839.122	0.0168167
839.200	0.0169626
839.279	0.0168581
839.357	0.0167806
839.435	0.0169325
839.513	0.0168900
839.591	0.0169883
839.669	0.0168134
839.747	0.0167167
839.825	0.0168146
839.904	0.0166840
839.982	0.0165768
840.060	0.0166179
840.138	0.0166394
840.216	0.0164461
840.294	0.0165509
840.372	0.0164744
840.450	0.0162843
840.529	0.0163617
840.607	0.0163391
840.685	0.0164732
840.763	0.0163950
840.841	0.0163242
840.919	0.0161976
840.997	0.0163855
841.075	0.0164423
841.154	0.0163528
841.232	0.0163189
841.310	0.0164280
841.388	0.0163406
841.466	0.0162280
841.544	0.0163635
841.622	0.0164458
841.700	0.0164576
841.779	0.0164393
841.857	0.0165565
841.935	0.0165755
842.013	0.0165735
842.091	0.0166594
842.169	0.0167520
842.247	0.0167628
842.325	0.0168843
842.404	0.0168546
842.482	0.0168445
842.560	0.0168496
842.638	0.0169411
842.716	0.0168136
842.794	0.0169215
842.872	0.0167340
842.950	0.0165682
843.029	0.0165939
843.107	0.0165110
843.185	0.0165253
843.263	0.0164816
843.341	0.0162508
843.419	0.0163972
843.497	0.0164550
843.575	0.0163852
843.654	0.0164741
843.732	0.0164133
843.810	0.0164034
843.888	0.0164665
843.966	0.0164262
844.044	0.0167020
844.122	0.0166562
844.200	0.0167175
844.279	0.0167053
844.357	0.0167741
844.435	0.0167288
844.513	0.0167906
844.591	0.0167863
844.669	0.0168464
844.747	0.0168301
844.825	0.0169313
844.904	0.0167756
844.982	0.0167181
845.060	0.0166663
845.138	0.0166995
845.216	0.0168243
845.294	0.0165441
845.372	0.0166222
845.450	0.0167975
845.529	0.0166547
845.607	0.0165823
845.685	0.0167184
845.763	0.0167262
845.841	0.0166824
845.919	0.0164861
845.997	0.0165395
846.075	0.0166418
846.154	0.0165134
846.232	0.0164678
846.310	0.0163740
846.388	0.0163132
846.466	0.0163113
846.544	0.0162604
846.622	0.0162234
846.700	0.0161578
846.779	0.0162703
846.857	0.0163078
846.935	0.0163623
847.013	0.0162026
847.091	0.0162524
847.169	0.0162831
847.247	0.0161887
847.325	0.0163519
847.404	0.0164445
847.482	0.0164111
847.560	0.0163916
847.638	0.0165482
847.716	0.0164874
847.794	0.0165291
847.872	0.0165911
847.950	0.0167282
848.029	0.0166618
848.107	0.0166965
848.185	0.0167289
848.263	0.0168996
848.341	0.0168794
848.419	0.0168568
848.497	0.0171275
848.575	0.0169335
848.654	0.0170364
848.732	0.0169407
848.810	0.0170039
848.888	0.0170164
848.966	0.0170222
849.044	0.0170195
849.122	0.0169202
849.200	0.0168467
849.279	0.0166333
849.357	0.0166505
849.435	0.0166485
849.513	0.0166084
849.591	0.0165542
849.669	0.0165115
849.747	0.0164145
849.825	0.0164020
849.904	0.0165661
849.982	0.0164125
850.060	0.0163669
850.138	0.0165044
850.216	0.0165606
850.294	0.0164567
850.372	0.0165694
850.450	0.0165891
850.529	0.0165873
850.607	0.0165914
850.685	0.0166540
850.763	0.0167181
850.841	0.0164807
850.919	0.0165502
850.997	0.0165530
851.075	0.0165672
851.154	0.0166109
851.232	0.0165836
851.310	0.0162804
851.388	0.0165190
851.466	0.0164468
851.544	0.0163654
851.622	0.0164732
851.700	0.0163469
851.779	0.0162350
851.857	0.0162740
851.935	0.0162519
852.013	0.0161069
852.091	0.0161117
852.169	0.0162981
852.247	0.0162849
852.325	0.0162507
852.404	0.0163440
852.482	0.0163084
852.560	0.0163398
852.638	0.0164648
852.716	0.0164330
852.794	0.0163908
852.872	0.0165113
852.950	0.0164027
853.029	0.0164170
853.107	0.0164292
853.185	0.0165124
853.263	0.0164304
853.341	0.0164960
853.419	0.0165191
853.497	0.0166849
853.575	0.0165863
853.654	0.0166655
853.732	0.0167951
853.810	0.0169167
853.888	0.0169770
853.966	0.0168911
854.044	0.0169991
854.122	0.0170193
854.200	0.0169398
854.279	0.0170293
854.357	0.0170901
854.435	0.0170196
854.513	0.0168457
854.591	0.0169740
854.669	0.0170119
854.747	0.0168887
854.825	0.0168584
854.904	0.0167770
854.982	0.0168031
855.060	0.0169404
855.138	0.0167175
855.216	0.0167937
855.294	0.0168084
855.372	0.0168936
855.450	0.0167809
855.529	0.0168686
855.607	0.0167952
855.685	0.0167581
855.763	0.0168188
855.841	0.0168369
855.919	0.0167058
855.997	0.0166780
856.075	0.0166010
856.154	0.0165804
856.232	0.0165058
856.310	0.0165286
856.388	0.0164581
856.466	0.0164401
856.544	0.0164294
856.622	0.0164084
856.700	0.0161923
856.779	0.0162813
856.857	0.0162488
856.935	0.0162949
857.013	0.0162366
857.091	0.0162862
857.169	0.0164439
857.247	0.0163583
857.325	0.0163892
857.404	0.0164317
857.482	0.0165167
857.560	0.0164420
857.638	0.0164595
857.716	0.0163753
857.794	0.0164273
857.872	0.0163469
857.950	0.0163238
858.029	0.0163356
858.107	0.0163657
858.185	0.0162228
858.263	0.0161785
858.341	0.0163717
858.419	0.0164149
858.497	0.0163132
858.575	0.0163221
858.654	0.0163676
858.732	0.0164671
858.810	0.0164967
858.888	0.0164567
858.966	0.0165337
859.044	0.0165296
859.122	0.0167794
859.200	0.0165764
859.279	0.0165254
859.357	0.0166029
859.435	0.0165783
859.513	0.0164533
859.591	0.0165815
859.669	0.0166788
859.747	0.0168166
859.825	0.0167521
859.904	0.0166740
859.982	0.0167451
860.060	0.0168044
860.138	0.0168697
860.216	0.0169962
860.294	0.0169599
860.372	0.0169173
860.450	0.0169123
860.529	0.0169684
860.607	0.0169743
860.685	0.0170614
860.763	0.0170051
860.841	0.0169412
860.919	0.0168477
860.997	0.0169278
861.075	0.0168435
861.154	0.0167622
861.232	0.0167906
861.310	0.0167694
861.388	0.0166756
861.466	0.0165456
861.544	0.0167250
861.622	0.0164623
861.700	0.0164055
861.779	0.0166547
861.857	0.0165389
861.935	0.0164134
862.013	0.0163138
862.091	0.0164114
862.169	0.0163721
862.247	0.0163428
862.325	0.0163842
862.404	0.0164171
862.482	0.0164082
862.560	0.0164001
862.638	0.0163936
862.716	0.0162078
862.794	0.0163605
862.872	0.0163998
862.950	0.0166136
863.029	0.0163996
863.107	0.0165128
863.185	0.0165878
863.263	0.0165201
863.341	0.0165469
863.419	0.0164205
863.497	0.0164513
863.575	0.0166164
863.654	0.0165536
863.732	0.0165891
863.810	0.0165752
863.888	0.0165785
863.966	0.0164989
864.044	0.0166019
864.122	0.0166148
864.200	0.0166677
864.279	0.0166695
864.357	0.0166209
864.435	0.0166323
864.513	0.0167082
864.591	0.0165393
864.669	0.0166368
864.747	0.0165127
864.825	0.0166753
864.904	0.0165674
864.982	0.0165174
865.060	0.0165482
865.138	0.0165384
865.216	0.0165710
865.294	0.0164932
865.372	0.0165717
865.450	0.0164706
865.529	0.0164563
865.607	0.0164548
865.685	0.0165652
865.763	0.0164567
865.841	0.0167184
865.919	0.0166968
865.997	0.0166215
866.075	0.0166788
866.154	0.0165878
866.232	0.0165547
866.310	0.0167345
866.388	0.0166119
866.466	0.0167016
866.544	0.0166541
866.622	0.0167076
866.700	0.0164410
866.779	0.0166297
866.857	0.0166592
866.935	0.0166645
867.013	0.0166788
867.091	0.0167668
867.169	0.0167451
867.247	0.0167046
867.325	0.0167857
867.404	0.0169073
867.482	0.0169920
867.560	0.0169164
867.638	0.0167820
867.716	0.0167811
867.794	0.0167437
867.872	0.0167284
867.950	0.0167784
868.029	0.0166575
868.107	0.0164976
868.185	0.0164784
868.263	0.0164842
868.341	0.0165571
868.419	0.0164443
868.497	0.0164714
868.575	0.0164920
868.654	0.0164552
868.732	0.0163708
868.810	0.0164027
868.888	0.0163289
868.966	0.0163843
869.044	0.0163896
869.122	0.0164958
869.200	0.0164666
869.279	0.0166193
869.357	0.0164199
869.435	0.0165285
869.513	0.0166286
869.591	0.0167376
869.669	0.0166034
869.747	0.0167032
869.825	0.0167641
869.904	0.0166775
869.982	0.0166246
870.060	0.0166931
870.138	0.0166866
870.216	0.0167101
870.294	0.0164902
870.372	0.0166480
870.450	0.0165810
870.529	0.0165405
870.607	0.0167087
870.685	0.0165944
870.763	0.0165947
870.841	0.0165440
870.919	0.0167758
870.997	0.0167747
871.075	0.0166132
871.154	0.0167071
871.232	0.0168014
871.310	0.0167190
871.388	0.0166763
871.466	0.0166746
871.544	0.0166647
871.622	0.0165857
871.700	0.0166980
871.779	0.0166794
871.857	0.0165475
871.935	0.0164801
872.013	0.0165356
872.091	0.0165010
872.169	0.0164906
872.247	0.0164211
872.325	0.0165586
872.404	0.0164845
872.482	0.0166118
872.560	0.0166681
872.638	0.0165864
872.716	0.0166273
872.794	0.0166768
872.872	0.0166983
872.950	0.0167059
873.029	0.0167372
873.107	0.0168055
873.185	0.0168456
873.263	0.0166523
873.341	0.0166191
873.419	0.0165427
873.497	0.0165601
873.575	0.0166160
873.654	0.0166127
873.732	0.0165373
873.810	0.0168063
873.888	0.0167386
873.966	0.0166517
874.044	0.0168120
874.122	0.0167951
874.200	0.0166950
874.279	0.0166757
874.357	0.0167675
874.435	0.0166187
874.513	0.0166553
874.591	0.0166616
874.669	0.0166293
874.747	0.0165495
874.825	0.0164183
874.904	0.0163157
874.982	0.0163850
875.060	0.0162746
875.138	0.0162268
875.216	0.0162634
875.294	0.0161694
875.372	0.0162379
875.450	0.0162491
875.529	0.0162630
875.607	0.0163108
875.685	0.0163026
875.763	0.0162614
875.841	0.0164317
875.919	0.0165433
875.997	0.0164414
876.075	0.0167802
876.154	0.0165446
876.232	0.0166511
876.310	0.0166473
876.388	0.0166280
876.466	0.0166519
876.544	0.0167010
876.622	0.0167413
876.700	0.0167381
876.779	0.0168044
876.857	0.0167666
876.935	0.0167484
877.013	0.0167864
877.091	0.0167745
877.169	0.0167479
877.247	0.0167201
877.325	0.0168573
877.404	0.0166952
877.482	0.0168345
877.560	0.0167380
877.638	0.0167464
877.716	0.0168359
877.794	0.0168079
877.872	0.0165932
877.950	0.0167310
878.029	0.0166193
878.107	0.0167184
878.185	0.0165944
878.263	0.0165674
878.341	0.0165094
878.419	0.0165464
878.497	0.0165430
878.575	0.0162886
878.654	0.0163495
878.732	0.0162756
878.810	0.0163011
878.888	0.0163382
878.966	0.0163615
879.044	0.0163569
879.122	0.0162830
879.200	0.0163515
879.279	0.0164635
879.357	0.0164554
879.435	0.0164626
879.513	0.0163929
879.591	0.0163460
879.669	0.0163223
879.747	0.0165976
879.825	0.0165546
879.904	0.0165681
879.982	0.0167562
880.060	0.0165518
880.138	0.0168477
880.216	0.0168748
880.294	0.0168607
880.372	0.0169047
880.450	0.0169767
880.529	0.0170163
880.607	0.0168140
880.685	0.0170177
880.763	0.0170259
880.841	0.0168095
880.919	0.0167832
880.997	0.0168131
881.075	0.0167683
881.154	0.0167031
881.232	0.0164987
881.310	0.0164468
881.388	0.0164154
881.466	0.0164305
881.544	0.0162832
881.622	0.0162281
881.700	0.0162327
881.779	0.0163836
881.857	0.0163132
881.935	0.0162616
882.013	0.0162955
882.091	0.0163392
882.169	0.0163535
882.247	0.0162862
882.325	0.0164370
882.404	0.0162328
882.482	0.0162978
882.560	0.0163921
882.638	0.0164436
882.716	0.0166014
882.794	0.0166681
882.872	0.0166600
882.950	0.0166034
883.029	0.0167194
883.107	0.0167872
883.185	0.0168027
883.263	0.0169899
883.341	0.0167410
883.419	0.0167458
883.497	0.0169471
883.575	0.0168344
883.654	0.0168182
883.732	0.0168498
883.810	0.0166914
883.888	0.0167609
883.966	0.0167330
884.044	0.0166563
884.122	0.0166672
884.200	0.0165799
884.279	0.0164249
884.357	0.0165584
884.435	0.0165281
884.513	0.0163807
884.591	0.0164687
884.669	0.0163803
884.747	0.0163948
884.825	0.0163819
884.904	0.0164067
884.982	0.0162665
885.060	0.0164168
885.138	0.0164242
885.216	0.0163181
885.294	0.0163770
885.372	0.0164301
885.450	0.0162338
885.529	0.0161803
885.607	0.0161714
885.685	0.0161406
885.763	0.0162041
885.841	0.0163012
885.919	0.0164201
885.997	0.0162403
886.075	0.0163820
886.154	0.0164490
886.232	0.0166344
886.310	0.0167683
886.388	0.0168288
886.466	0.0169383
886.544	0.0170659
886.622	0.0170689
886.700	0.0170105
886.779	0.0171114
886.857	0.0171415
886.935	0.0171665
887.013	0.0170336
887.091	0.0171313
887.169	0.0172002
887.247	0.0168818
887.325	0.0167618
887.404	0.0166093
887.482	0.0166234
887.560	0.0165762
887.638	0.0163864
887.716	0.0164944
887.794	0.0163744
887.872	0.0163136
887.950	0.0162181
888.029	0.0160680
888.107	0.0160180
888.185	0.0161381
888.263	0.0161588
888.341	0.0161778
888.419	0.0159692
888.497	0.0161920
888.575	0.0161636
888.654	0.0162743
888.732	0.0163661
888.810	0.0164425
888.888	0.0163562
888.966	0.0163138
889.044	0.0164246
889.122	0.0164954
889.200	0.0165056
889.279	0.0166249
889.357	0.0166116
889.435	0.0167899
889.513	0.0167604
889.591	0.0168266
889.669	0.0167673
889.747	0.0167677
889.825	0.0167634
889.904	0.0168790
889.982	0.0168157
890.060	0.0166788
890.138	0.0166589
890.216	0.0167213
890.294	0.0166096
890.372	0.0166380
890.450	0.0167119
890.529	0.0166393
890.607	0.0166074
890.685	0.0165896
890.763	0.0165588
890.841	0.0165263
890.919	0.0164785
890.997	0.0165112
891.075	0.0164480
891.154	0.0165144
891.232	0.0163904
891.310	0.0163303
891.388	0.0163023
891.466	0.0163588
891.544	0.0163231
891.622	0.0162749
891.700	0.0162442
891.779	0.0163633
891.857	0.0165263
891.935	0.0164290
892.013	0.0165443
892.091	0.0165405
892.169	0.0166896
892.247	0.0166602
892.325	0.0166711
892.404	0.0167216
892.482	0.0166640
892.560	0.0169550
892.638	0.0168102
892.716	0.0168262
892.794	0.0168453
892.872	0.0167516
892.950	0.0166888
893.029	0.0168697
893.107	0.0168893
893.185	0.0169265
893.263	0.0168307
893.341	0.0166947
893.419	0.0168514
893.497	0.0167809
893.575	0.0167327
893.654	0.0167847
893.732	0.0168677
893.810	0.0166648
893.888	0.0167239
893.966	0.0166560
894.044	0.0165098
894.122	0.0166347
894.200	0.0165266
894.279	0.0164477
894.357	0.0163696
894.435	0.0163155
894.513	0.0163538
894.591	0.0162859
894.669	0.0163881
894.747	0.0162773
894.825	0.0161846
894.904	0.0161961
894.982	0.0163016
895.060	0.0162625
895.138	0.0162401
895.216	0.0164111
895.294	0.0163879
895.372	0.0163614
895.450	0.0165519
895.529	0.0164686
895.607	0.0165700
895.685	0.0167043
895.763	0.0165747
895.841	0.0167278
895.919	0.0166834
895.997	0.0166875
896.075	0.0167950
896.154	0.0167419
896.232	0.0167728
896.310	0.0166998
896.388	0.0167298
896.466	0.0166000
896.544	0.0166019
896.622	0.0166732
896.700	0.0168415
896.779	0.0166427
896.857	0.0167159
896.935	0.0165938
897.013	0.0166406
897.091	0.0166635
897.169	0.0164895
897.247	0.0165504
897.325	0.0165266
897.404	0.0165666
897.482	0.0165468
897.560	0.0164725
897.638	0.0164837
897.716	0.0165639
897.794	0.0166223
897.872	0.0165331
897.950	0.0165682
898.029	0.0164879
898.107	0.0165333
898.185	0.0166225
898.263	0.0165070
898.341	0.0163171
898.419	0.0163667
898.497	0.0162907
898.575	0.0164819
898.654	0.0164833
898.732	0.0164435
898.810	0.0164904
898.888	0.0164359
898.966	0.0165089
899.044	0.0167742
899.122	0.0166673
899.200	0.0167081
899.279	0.0166372
899.357	0.0166843
899.435	0.0167136
899.513	0.0167259
899.591	0.0167781
899.669	0.0168062
899.747	0.0165596
899.825	0.0166903
899.904	0.0167446
899.982	0.0166588
900.060	0.0166106
900.138	0.0166000
900.216	0.0166465
900.294	0.0165726
900.372	0.0165637
900.450	0.0166636
900.529	0.0165816
900.607	0.0165623
900.685	0.0164851
900.763	0.0165884
900.841	0.0167637
900.919	0.0166425
900.997	0.0166775
901.075	0.0165664
901.154	0.0164004
901.232	0.0165191
901.310	0.0165956
901.388	0.0164249
901.466	0.0165011
901.544	0.0164428
901.622	0.0164909
901.700	0.0164784
901.779	0.0165072
901.857	0.0165350
901.935	0.0165062
902.013	0.0166593
902.091	0.0165028
902.169	0.0166071
902.247	0.0165161
902.325	0.0165632
902.404	0.0165317
902.482	0.0165442
902.560	0.0165049
902.638	0.0165628
902.716	0.0165613
902.794	0.0166067
902.872	0.0165663
902.950	0.0165623
903.029	0.0165951
903.107	0.0165065
903.185	0.0166091
903.263	0.0167770
903.341	0.0165331
903.419	0.0165118
903.497	0.0166434
903.575	0.0165101
903.654	0.0165099
903.732	0.0165410
903.810	0.0165459
903.888	0.0165102
903.966	0.0164799
904.044	0.0166717
904.122	0.0164892
904.200	0.0165419
904.279	0.0166413
904.357	0.0165180
904.435	0.0164631
904.513	0.0165483
904.591	0.0164953
904.669	0.0165936
904.747	0.0165792
904.825	0.0165403
904.904	0.0164457
904.982	0.0165183
905.060	0.0164703
905.138	0.0163531
905.216	0.0163603
905.294	0.0164008
905.372	0.0163798
905.450	0.0165613
905.529	0.0163836
905.607	0.0165978
905.685	0.0164255
905.763	0.0164491
905.841	0.0164089
905.919	0.0165561
905.997	0.0166114
906.075	0.0165698
906.154	0.0165967
906.232	0.0165312
906.310	0.0166470
906.388	0.0165524
906.466	0.0166513
906.544	0.0165467
906.622	0.0166052
906.700	0.0166961
906.779	0.0165611
906.857	0.0165815
906.935	0.0165209
907.013	0.0165866
907.091	0.0165826
907.169	0.0165875
907.247	0.0165810
907.325	0.0166785
907.404	0.0165832
907.482	0.0165760
907.560	0.0165879
907.638	0.0166150
907.716	0.0166887
907.794	0.0166610
907.872	0.0167693
907.950	0.0167946
908.029	0.0164868
908.107	0.0167493
908.185	0.0166693
908.263	0.0168172
908.341	0.0167610
908.419	0.0168240
908.497	0.0167760
908.575	0.0166203
908.654	0.0166975
908.732	0.0166257
908.810	0.0166917
908.888	0.0165939
908.966	0.0166058
909.044	0.0166567
909.122	0.0165641
909.200	0.0166032
909.279	0.0164637
909.357	0.0164738
909.435	0.0166393
909.513	0.0164680
909.591	0.0164127
909.669	0.0165382
909.747	0.0164452
909.825	0.0164828
909.904	0.0164227
909.982	0.0164607
910.060	0.0164299
910.138	0.0164097
910.216	0.0164332
910.294	0.0164245
910.372	0.0163734
910.450	0.0164853
910.529	0.0164908
910.607	0.0165517
910.685	0.0164655
910.763	0.0162957
910.841	0.0163392
910.919	0.0164294
910.997	0.0161835
911.075	0.0160867
911.154	0.0162360
911.232	0.0160710
911.310	0.0159467
911.388	0.0160394
911.466	0.0160813
911.544	0.0161713
911.622	0.0160652
911.700	0.0161678
911.779	0.0160775
911.857	0.0161858
911.935	0.0162464
912.013	0.0163501
912.091	0.0164251
912.169	0.0164391
912.247	0.0165320
912.325	0.0166074
912.404	0.0166223
912.482	0.0166492
912.560	0.0168690
912.638	0.0169344
912.716	0.0169250
912.794	0.0170564
912.872	0.0169962
912.950	0.0169263
913.029	0.0169500
913.107	0.0170988
913.185	0.0170978
913.263	0.0170169
913.341	0.0169943
913.419	0.0170295
913.497	0.0170348
913.575	0.0170218
913.654	0.0170611
913.732	0.0170204
913.810	0.0169269
913.888	0.0169057
913.966	0.0169196
914.044	0.0167493
914.122	0.0166608
914.200	0.0169214
914.279	0.0168077
914.357	0.0167874
914.435	0.0168594
914.513	0.0168214
914.591	0.0167744
914.669	0.0168283
914.747	0.0167485
914.825	0.0167484
914.904	0.0166550
914.982	0.0167676
915.060	0.0165164
915.138	0.0166407
915.216	0.0165482
915.294	0.0164628
915.372	0.0163886
915.450	0.0162646
915.529	0.0162601
915.607	0.0162401
915.685	0.0163854
915.763	0.0162373
915.841	0.0161192
915.919	0.0161561
915.997	0.0161967
916.075	0.0163020
916.154	0.0161778
916.232	0.0163552
916.310	0.0162546
916.388	0.0162146
916.466	0.0164618
916.544	0.0164382
916.622	0.0163697
916.700	0.0163748
916.779	0.0164902
916.857	0.0164252
916.935	0.0164363
917.013	0.0162541
917.091	0.0163007
917.169	0.0163103
917.247	0.0165441
917.325	0.0163521
917.404	0.0163496
917.482	0.0164048
917.560	0.0163534
917.638	0.0164114
917.716	0.0164027
917.794	0.0165117
917.872	0.0165126
917.950	0.0163870
918.029	0.0165062
918.107	0.0165620
918.185	0.0165899
918.263	0.0164718
918.341	0.0166267
918.419	0.0167300
918.497	0.0167602
918.575	0.0168166
918.654	0.0167619
918.732	0.0168125
918.810	0.0170010
918.888	0.0169771
918.966	0.0168973
919.044	0.0170819
919.122	0.0169785
919.200	0.0169529
919.279	0.0169689
919.357	0.0169453
919.435	0.0170000
919.513	0.0169530
919.591	0.0169013
919.669	0.0167971
919.747	0.0168533
919.825	0.0167445
919.904	0.0167124
