06/03/2022	14:11:15	Ver.	4.1	UNKNOWN
Optical Delay	599.981738	Delta X		0.078125	Sweeps	1	Scan Rate	0/0
Coordinates	Axis 1	NaN	Axis 2	NaN	Axis 3	NaN	Axis 4	NaN	Axis 5	NaN	Axis 6	0.000000
TX Power	0.000000	RX Power	0.000000

599.982	0.0164517
600.060	0.0164313
600.138	0.0163837
600.216	0.0163822
600.294	0.0165983
600.372	0.0164401
600.450	0.0163986
600.529	0.0164922
600.607	0.0163522
600.685	0.0163669
600.763	0.0164621
600.841	0.0164185
600.919	0.0164359
600.997	0.0164462
601.075	0.0164520
601.154	0.0165745
601.232	0.0165928
601.310	0.0164152
601.388	0.0163837
601.466	0.0164577
601.544	0.0164612
601.622	0.0164766
601.700	0.0164589
601.779	0.0161940
601.857	0.0163760
601.935	0.0165176
602.013	0.0164341
602.091	0.0163709
602.169	0.0163508
602.247	0.0164383
602.325	0.0164794
602.404	0.0164169
602.482	0.0164541
602.560	0.0163914
602.638	0.0164089
602.716	0.0163898
602.794	0.0165179
602.872	0.0163223
602.950	0.0163231
603.029	0.0164446
603.107	0.0163628
603.185	0.0164391
603.263	0.0164589
603.341	0.0164005
603.419	0.0162933
603.497	0.0164591
603.575	0.0164385
603.654	0.0164306
603.732	0.0164893
603.810	0.0164856
603.888	0.0164247
603.966	0.0163756
604.044	0.0163411
604.122	0.0164020
604.200	0.0165257
604.279	0.0164458
604.357	0.0164838
604.435	0.0164382
604.513	0.0165318
604.591	0.0164165
604.669	0.0163526
604.747	0.0163861
604.825	0.0164281
604.904	0.0165685
604.982	0.0163030
605.060	0.0163400
605.138	0.0163146
605.216	0.0163724
605.294	0.0164037
605.372	0.0164818
605.450	0.0162595
605.529	0.0163499
605.607	0.0163674
605.685	0.0163730
605.763	0.0164331
605.841	0.0162487
605.919	0.0163186
605.997	0.0163936
606.075	0.0164549
606.154	0.0163937
606.232	0.0163968
606.310	0.0162999
606.388	0.0163713
606.466	0.0164215
606.544	0.0163947
606.622	0.0162590
606.700	0.0163952
606.779	0.0163529
606.857	0.0164172
606.935	0.0164124
607.013	0.0164151
607.091	0.0163939
607.169	0.0164173
607.247	0.0164027
607.325	0.0163578
607.404	0.0162009
607.482	0.0164404
607.560	0.0164642
607.638	0.0162496
607.716	0.0163038
607.794	0.0164072
607.872	0.0163871
607.950	0.0164037
608.029	0.0163040
608.107	0.0164672
608.185	0.0164331
608.263	0.0163085
608.341	0.0163259
608.419	0.0163823
608.497	0.0163711
608.575	0.0162175
608.654	0.0162712
608.732	0.0162443
608.810	0.0163371
608.888	0.0163751
608.966	0.0162588
609.044	0.0164262
609.122	0.0162132
609.200	0.0163834
609.279	0.0164732
609.357	0.0163648
609.435	0.0162587
609.513	0.0163350
609.591	0.0164745
609.669	0.0164366
609.747	0.0162651
609.825	0.0162121
609.904	0.0164004
609.982	0.0163883
610.060	0.0162474
610.138	0.0164096
610.216	0.0164185
610.294	0.0163609
610.372	0.0163757
610.450	0.0163242
610.529	0.0164256
610.607	0.0164100
610.685	0.0162533
610.763	0.0163171
610.841	0.0163379
610.919	0.0163483
610.997	0.0163690
611.075	0.0164300
611.154	0.0163309
611.232	0.0162879
611.310	0.0162966
611.388	0.0163061
611.466	0.0164602
611.544	0.0163396
611.622	0.0165172
611.700	0.0163478
611.779	0.0163157
611.857	0.0164621
611.935	0.0163264
612.013	0.0163125
612.091	0.0163750
612.169	0.0165041
612.247	0.0163587
612.325	0.0162853
612.404	0.0164092
612.482	0.0163494
612.560	0.0163192
612.638	0.0163469
612.716	0.0165061
612.794	0.0163592
612.872	0.0162830
612.950	0.0164622
613.029	0.0164468
613.107	0.0163576
613.185	0.0163462
613.263	0.0163892
613.341	0.0164686
613.419	0.0163210
613.497	0.0162849
613.575	0.0163887
613.654	0.0163230
613.732	0.0164340
613.810	0.0163737
613.888	0.0163752
613.966	0.0163760
614.044	0.0165022
614.122	0.0163730
614.200	0.0163229
614.279	0.0163788
614.357	0.0163616
614.435	0.0164228
614.513	0.0164321
614.591	0.0164069
614.669	0.0163589
614.747	0.0164745
614.825	0.0163590
614.904	0.0163888
614.982	0.0164593
615.060	0.0164090
615.138	0.0163796
615.216	0.0165134
615.294	0.0165070
615.372	0.0163615
615.450	0.0164010
615.529	0.0163817
615.607	0.0163669
615.685	0.0163807
615.763	0.0164457
615.841	0.0164470
615.919	0.0165054
615.997	0.0163488
616.075	0.0164616
616.154	0.0164115
616.232	0.0163033
616.310	0.0164724
616.388	0.0164543
616.466	0.0164007
616.544	0.0164371
616.622	0.0163576
616.700	0.0163950
616.779	0.0164957
616.857	0.0164835
616.935	0.0164510
617.013	0.0166240
617.091	0.0164936
617.169	0.0164996
617.247	0.0165829
617.325	0.0162858
617.404	0.0164636
617.482	0.0163729
617.560	0.0164711
617.638	0.0165122
617.716	0.0164289
617.794	0.0164636
617.872	0.0165012
617.950	0.0164161
618.029	0.0164130
618.107	0.0165081
618.185	0.0164251
618.263	0.0166898
618.341	0.0164523
618.419	0.0164378
618.497	0.0163799
618.575	0.0164157
618.654	0.0165772
618.732	0.0164664
618.810	0.0164659
618.888	0.0164671
618.966	0.0163309
619.044	0.0164796
619.122	0.0164368
619.200	0.0163724
619.279	0.0164851
619.357	0.0162625
619.435	0.0163327
619.513	0.0164139
619.591	0.0164109
619.669	0.0164754
619.747	0.0164032
619.825	0.0164021
619.904	0.0164160
619.982	0.0164530
620.060	0.0165501
620.138	0.0164291
620.216	0.0163927
620.294	0.0164250
620.372	0.0163680
620.450	0.0163139
620.529	0.0164929
620.607	0.0164867
620.685	0.0165822
620.763	0.0165767
620.841	0.0164251
620.919	0.0164169
620.997	0.0164298
621.075	0.0166023
621.154	0.0165567
621.232	0.0165676
621.310	0.0164882
621.388	0.0164252
621.466	0.0165652
621.544	0.0164851
621.622	0.0164259
621.700	0.0164135
621.779	0.0164658
621.857	0.0164297
621.935	0.0165572
622.013	0.0164910
622.091	0.0162755
622.169	0.0162609
622.247	0.0165172
622.325	0.0163017
622.404	0.0164277
622.482	0.0163912
622.560	0.0162624
622.638	0.0163175
622.716	0.0164248
622.794	0.0163068
622.872	0.0165266
622.950	0.0164651
623.029	0.0164027
623.107	0.0163099
623.185	0.0164127
623.263	0.0164162
623.341	0.0163915
623.419	0.0164214
623.497	0.0163286
623.575	0.0164265
623.654	0.0164368
623.732	0.0164313
623.810	0.0163165
623.888	0.0163433
623.966	0.0164046
624.044	0.0164494
624.122	0.0163315
624.200	0.0164599
624.279	0.0164141
624.357	0.0164014
624.435	0.0164388
624.513	0.0164857
624.591	0.0164552
624.669	0.0163448
624.747	0.0164069
624.825	0.0163717
624.904	0.0164594
624.982	0.0163097
625.060	0.0164053
625.138	0.0163837
625.216	0.0163910
625.294	0.0165112
625.372	0.0164056
625.450	0.0164014
625.529	0.0163927
625.607	0.0163649
625.685	0.0163652
625.763	0.0162807
625.841	0.0164747
625.919	0.0163206
625.997	0.0164697
626.075	0.0164729
626.154	0.0164907
626.232	0.0164359
626.310	0.0163402
626.388	0.0163985
626.466	0.0164980
626.544	0.0164024
626.622	0.0164874
626.700	0.0164479
626.779	0.0163815
626.857	0.0163782
626.935	0.0163403
627.013	0.0165068
627.091	0.0163901
627.169	0.0163166
627.247	0.0164501
627.325	0.0165139
627.404	0.0163345
627.482	0.0163901
627.560	0.0164793
627.638	0.0164596
627.716	0.0163618
627.794	0.0165258
627.872	0.0164263
627.950	0.0163052
628.029	0.0164122
628.107	0.0165231
628.185	0.0163528
628.263	0.0163152
628.341	0.0162968
628.419	0.0163306
628.497	0.0163570
628.575	0.0164793
628.654	0.0164336
628.732	0.0163929
628.810	0.0164082
628.888	0.0163596
628.966	0.0163841
629.044	0.0163934
629.122	0.0163899
629.200	0.0164176
629.279	0.0165258
629.357	0.0164495
629.435	0.0164466
629.513	0.0163716
629.591	0.0165575
629.669	0.0164429
629.747	0.0162305
629.825	0.0163334
629.904	0.0163967
629.982	0.0164954
630.060	0.0164298
630.138	0.0163189
630.216	0.0164043
630.294	0.0164548
630.372	0.0163829
630.450	0.0164727
630.529	0.0164414
630.607	0.0163482
630.685	0.0165257
630.763	0.0163882
630.841	0.0163992
630.919	0.0163737
630.997	0.0164792
631.075	0.0164616
631.154	0.0165591
631.232	0.0163995
631.310	0.0165550
631.388	0.0165269
631.466	0.0164252
631.544	0.0164934
631.622	0.0164899
631.700	0.0162862
631.779	0.0164245
631.857	0.0164983
631.935	0.0164473
632.013	0.0164805
632.091	0.0163525
632.169	0.0162764
632.247	0.0164474
632.325	0.0163101
632.404	0.0162989
632.482	0.0164617
632.560	0.0164317
632.638	0.0162944
632.716	0.0162547
632.794	0.0163961
632.872	0.0163372
632.950	0.0162434
633.029	0.0164275
633.107	0.0164452
633.185	0.0163635
633.263	0.0163499
633.341	0.0163190
633.419	0.0163342
633.497	0.0164196
633.575	0.0162756
633.654	0.0163452
633.732	0.0163786
633.810	0.0163750
633.888	0.0164961
633.966	0.0163993
634.044	0.0163377
634.122	0.0164222
634.200	0.0163570
634.279	0.0163038
634.357	0.0165131
634.435	0.0165240
634.513	0.0162864
634.591	0.0164281
634.669	0.0164360
634.747	0.0163852
634.825	0.0164479
634.904	0.0163303
634.982	0.0164701
635.060	0.0165650
635.138	0.0162349
635.216	0.0165096
635.294	0.0165063
635.372	0.0163979
635.450	0.0164101
635.529	0.0164459
635.607	0.0162917
635.685	0.0163873
635.763	0.0163976
635.841	0.0165463
635.919	0.0164582
635.997	0.0163608
636.075	0.0164293
636.154	0.0163229
636.232	0.0162602
636.310	0.0164033
636.388	0.0164066
636.466	0.0163470
636.544	0.0164719
636.622	0.0164503
636.700	0.0164742
636.779	0.0164249
636.857	0.0164047
636.935	0.0162763
637.013	0.0164017
637.091	0.0163281
637.169	0.0164137
637.247	0.0162979
637.325	0.0163495
637.404	0.0165410
637.482	0.0164473
637.560	0.0163290
637.638	0.0164204
637.716	0.0165297
637.794	0.0162862
637.872	0.0163027
637.950	0.0162516
638.029	0.0163020
638.107	0.0164648
638.185	0.0164546
638.263	0.0162395
638.341	0.0164656
638.419	0.0163941
638.497	0.0164582
638.575	0.0164179
638.654	0.0165379
638.732	0.0164783
638.810	0.0166725
638.888	0.0166392
638.966	0.0166024
639.044	0.0165131
639.122	0.0164739
639.200	0.0165118
639.279	0.0166551
639.357	0.0163375
639.435	0.0163200
639.513	0.0163377
639.591	0.0162979
639.669	0.0161465
639.747	0.0160981
639.825	0.0162574
639.904	0.0161620
639.982	0.0161007
640.060	0.0161054
640.138	0.0163950
640.216	0.0165378
640.294	0.0166127
640.372	0.0167688
640.450	0.0169220
640.529	0.0169522
640.607	0.0169117
640.685	0.0168687
640.763	0.0167869
640.841	0.0164795
640.919	0.0167275
640.997	0.0163036
641.075	0.0161731
641.154	0.0162255
641.232	0.0160155
641.310	0.0157805
641.388	0.0156293
641.466	0.0158396
641.544	0.0160178
641.622	0.0163137
641.700	0.0164429
641.779	0.0167236
641.857	0.0170356
641.935	0.0170503
642.013	0.0172654
642.091	0.0173584
642.169	0.0172940
642.247	0.0170963
642.325	0.0169939
642.404	0.0168571
642.482	0.0165901
642.560	0.0163696
642.638	0.0162263
642.716	0.0159234
642.794	0.0158242
642.872	0.0156513
642.950	0.0156422
643.029	0.0155346
643.107	0.0157406
643.185	0.0159343
643.263	0.0160180
643.341	0.0163248
643.419	0.0164418
643.497	0.0167720
643.575	0.0168985
643.654	0.0170633
643.732	0.0171219
643.810	0.0172379
643.888	0.0170535
643.966	0.0169282
644.044	0.0167105
644.122	0.0166193
644.200	0.0162639
644.279	0.0161149
644.357	0.0159183
644.435	0.0159367
644.513	0.0159067
644.591	0.0159998
644.669	0.0159521
644.747	0.0161403
644.825	0.0162613
644.904	0.0163139
644.982	0.0164641
645.060	0.0164845
645.138	0.0165591
645.216	0.0165526
645.294	0.0165810
645.372	0.0165657
645.450	0.0165633
645.529	0.0165863
645.607	0.0164918
645.685	0.0164464
645.763	0.0165962
645.841	0.0166082
645.919	0.0164812
645.997	0.0165826
646.075	0.0166576
646.154	0.0167618
646.232	0.0167335
646.310	0.0168016
646.388	0.0166720
646.466	0.0167281
646.544	0.0166148
646.622	0.0164853
646.700	0.0163495
646.779	0.0161116
646.857	0.0161192
646.935	0.0160697
647.013	0.0160187
647.091	0.0159240
647.169	0.0158916
647.247	0.0160720
647.325	0.0163157
647.404	0.0163032
647.482	0.0162402
647.560	0.0166781
647.638	0.0167822
647.716	0.0168289
647.794	0.0169282
647.872	0.0171072
647.950	0.0169807
648.029	0.0169192
648.107	0.0167531
648.185	0.0166436
648.263	0.0165424
648.341	0.0165059
648.419	0.0164258
648.497	0.0161952
648.575	0.0161045
648.654	0.0160801
648.732	0.0160233
648.810	0.0160715
648.888	0.0161292
648.966	0.0159887
649.044	0.0160503
649.122	0.0161449
649.200	0.0161169
649.279	0.0163470
649.357	0.0163467
649.435	0.0166045
649.513	0.0165968
649.591	0.0167171
649.669	0.0167513
649.747	0.0167034
649.825	0.0169308
649.904	0.0168502
649.982	0.0167502
650.060	0.0167754
650.138	0.0167207
650.216	0.0165164
650.294	0.0163464
650.372	0.0162923
650.450	0.0160290
650.529	0.0160307
650.607	0.0159905
650.685	0.0160312
650.763	0.0159657
650.841	0.0161678
650.919	0.0162981
650.997	0.0162915
651.075	0.0162978
651.154	0.0165968
651.232	0.0165601
651.310	0.0165999
651.388	0.0166121
651.466	0.0165178
651.544	0.0165525
651.622	0.0163855
651.700	0.0163342
651.779	0.0164606
651.857	0.0163760
651.935	0.0163082
652.013	0.0163910
652.091	0.0164616
652.169	0.0165102
652.247	0.0166410
652.325	0.0167387
652.404	0.0167113
652.482	0.0167084
652.560	0.0167782
652.638	0.0166025
652.716	0.0164473
652.794	0.0162051
652.872	0.0161572
652.950	0.0160675
653.029	0.0159429
653.107	0.0158247
653.185	0.0159433
653.263	0.0159966
653.341	0.0159568
653.419	0.0161364
653.497	0.0162210
653.575	0.0163474
653.654	0.0164314
653.732	0.0167277
653.810	0.0168243
653.888	0.0168422
653.966	0.0168636
654.044	0.0169033
654.122	0.0170029
654.200	0.0169721
654.279	0.0166576
654.357	0.0165866
654.435	0.0165668
654.513	0.0163862
654.591	0.0162636
654.669	0.0160564
654.747	0.0158907
654.825	0.0159317
654.904	0.0159266
654.982	0.0158092
655.060	0.0159782
655.138	0.0161531
655.216	0.0162569
655.294	0.0164025
655.372	0.0166548
655.450	0.0166940
655.529	0.0167468
655.607	0.0168283
655.685	0.0167622
655.763	0.0168446
655.841	0.0169584
655.919	0.0169086
655.997	0.0167669
656.075	0.0167271
656.154	0.0165135
656.232	0.0165075
656.310	0.0164037
656.388	0.0162106
656.466	0.0162095
656.544	0.0162086
656.622	0.0161061
656.700	0.0160710
656.779	0.0160181
656.857	0.0161263
656.935	0.0163331
657.013	0.0163696
657.091	0.0162317
657.169	0.0162227
657.247	0.0162196
657.325	0.0163718
657.404	0.0162452
657.482	0.0162616
657.560	0.0162682
657.638	0.0162854
657.716	0.0163306
657.794	0.0162896
657.872	0.0162900
657.950	0.0165233
658.029	0.0163950
658.107	0.0163862
658.185	0.0164258
658.263	0.0163271
658.341	0.0161416
658.419	0.0165117
658.497	0.0163855
658.575	0.0164480
658.654	0.0164088
658.732	0.0164478
658.810	0.0164479
658.888	0.0166479
658.966	0.0166444
659.044	0.0167619
659.122	0.0168138
659.200	0.0167140
659.279	0.0167752
659.357	0.0168104
659.435	0.0168909
659.513	0.0167705
659.591	0.0167832
659.669	0.0167359
659.747	0.0166742
659.825	0.0164582
659.904	0.0161263
659.982	0.0161002
660.060	0.0160472
660.138	0.0159434
660.216	0.0157909
660.294	0.0158709
660.372	0.0158495
660.450	0.0158848
660.529	0.0159639
660.607	0.0158503
660.685	0.0158478
660.763	0.0158678
660.841	0.0159468
660.919	0.0159768
660.997	0.0160339
661.075	0.0160194
661.154	0.0163521
661.232	0.0163821
661.310	0.0163100
661.388	0.0164344
661.466	0.0165829
661.544	0.0166096
661.622	0.0167223
661.700	0.0166851
661.779	0.0167754
661.857	0.0170336
661.935	0.0169511
662.013	0.0169097
662.091	0.0169828
662.169	0.0170485
662.247	0.0169274
662.325	0.0168686
662.404	0.0168586
662.482	0.0167779
662.560	0.0168982
662.638	0.0169504
662.716	0.0168217
662.794	0.0167959
662.872	0.0167377
662.950	0.0167701
663.029	0.0166566
663.107	0.0165765
663.185	0.0163570
663.263	0.0164327
663.341	0.0162589
663.419	0.0162437
663.497	0.0161117
663.575	0.0159976
663.654	0.0157847
663.732	0.0158674
663.810	0.0158612
663.888	0.0158460
663.966	0.0159151
664.044	0.0159459
664.122	0.0159446
664.200	0.0160571
664.279	0.0162353
664.357	0.0160815
664.435	0.0162963
664.513	0.0162898
664.591	0.0163653
664.669	0.0162236
664.747	0.0163702
664.825	0.0163889
664.904	0.0162030
664.982	0.0160954
665.060	0.0160450
665.138	0.0160616
665.216	0.0161665
665.294	0.0160385
665.372	0.0161441
665.450	0.0161023
665.529	0.0161034
665.607	0.0163699
665.685	0.0163083
665.763	0.0165063
665.841	0.0166061
665.919	0.0165697
665.997	0.0166186
666.075	0.0166403
666.154	0.0168201
666.232	0.0168481
666.310	0.0169312
666.388	0.0169402
666.466	0.0169823
666.544	0.0170415
666.622	0.0170346
666.700	0.0171717
666.779	0.0171586
666.857	0.0172445
666.935	0.0171143
667.013	0.0172395
667.091	0.0174644
667.169	0.0173689
667.247	0.0175075
667.325	0.0174695
667.404	0.0173779
667.482	0.0172772
667.560	0.0170611
667.638	0.0170208
667.716	0.0167511
667.794	0.0165339
667.872	0.0164801
667.950	0.0161691
668.029	0.0158534
668.107	0.0158103
668.185	0.0155679
668.263	0.0153214
668.341	0.0151746
668.419	0.0151240
668.497	0.0151178
668.575	0.0150365
668.654	0.0151933
668.732	0.0151890
668.810	0.0153680
668.888	0.0154527
668.966	0.0156007
669.044	0.0156084
669.122	0.0158936
669.200	0.0162334
669.279	0.0162707
669.357	0.0165179
669.435	0.0166595
669.513	0.0167799
669.591	0.0170509
669.669	0.0172531
669.747	0.0170930
669.825	0.0171679
669.904	0.0172391
669.982	0.0171548
670.060	0.0171976
670.138	0.0171429
670.216	0.0170838
670.294	0.0170253
670.372	0.0169297
670.450	0.0169202
670.529	0.0169009
670.607	0.0166428
670.685	0.0166821
670.763	0.0164301
670.841	0.0164671
670.919	0.0162628
670.997	0.0162170
671.075	0.0161878
671.154	0.0160366
671.232	0.0160618
671.310	0.0162067
671.388	0.0160841
671.466	0.0162006
671.544	0.0162746
671.622	0.0163441
671.700	0.0163946
671.779	0.0164493
671.857	0.0163892
671.935	0.0164907
672.013	0.0165125
672.091	0.0164850
672.169	0.0166035
672.247	0.0165275
672.325	0.0164113
672.404	0.0164642
672.482	0.0164960
672.560	0.0164032
672.638	0.0166063
672.716	0.0166660
672.794	0.0168671
672.872	0.0169309
672.950	0.0171410
673.029	0.0172422
673.107	0.0172356
673.185	0.0172909
673.263	0.0172726
673.341	0.0172077
673.419	0.0169680
673.497	0.0168690
673.575	0.0166830
673.654	0.0162541
673.732	0.0161835
673.810	0.0158137
673.888	0.0155249
673.966	0.0153622
674.044	0.0153059
674.122	0.0151721
674.200	0.0151060
674.279	0.0151044
674.357	0.0151736
674.435	0.0153377
674.513	0.0156438
674.591	0.0157948
674.669	0.0158650
674.747	0.0161320
674.825	0.0164416
674.904	0.0167461
674.982	0.0169463
675.060	0.0170793
675.138	0.0173940
675.216	0.0173969
675.294	0.0177665
675.372	0.0177613
675.450	0.0175089
675.529	0.0176571
675.607	0.0173722
675.685	0.0172699
675.763	0.0170570
675.841	0.0168083
675.919	0.0166216
675.997	0.0162431
676.075	0.0160173
676.154	0.0156817
676.232	0.0155804
676.310	0.0153843
676.388	0.0154121
676.466	0.0152680
676.544	0.0154241
676.622	0.0154901
676.700	0.0157349
676.779	0.0158766
676.857	0.0160991
676.935	0.0162666
677.013	0.0165255
677.091	0.0171183
677.169	0.0172835
677.247	0.0173852
677.325	0.0174813
677.404	0.0174684
677.482	0.0175906
677.560	0.0175062
677.638	0.0172230
677.716	0.0170227
677.794	0.0169112
677.872	0.0167226
677.950	0.0165461
678.029	0.0164917
678.107	0.0162602
678.185	0.0161438
678.263	0.0160312
678.341	0.0160226
678.419	0.0158822
678.497	0.0158183
678.575	0.0158298
678.654	0.0156891
678.732	0.0155548
678.810	0.0156452
678.888	0.0155991
678.966	0.0156892
679.044	0.0156845
679.122	0.0157576
679.200	0.0160048
679.279	0.0160760
679.357	0.0161262
679.435	0.0163608
679.513	0.0165796
679.591	0.0167095
679.669	0.0166837
679.747	0.0167998
679.825	0.0167876
679.904	0.0168951
679.982	0.0168254
680.060	0.0169429
680.138	0.0171756
680.216	0.0172872
680.294	0.0176077
680.372	0.0179840
680.450	0.0182996
680.529	0.0185628
680.607	0.0188462
680.685	0.0189933
680.763	0.0189401
680.841	0.0188512
680.919	0.0186143
680.997	0.0184062
681.075	0.0179034
681.154	0.0174791
681.232	0.0168538
681.310	0.0164055
681.388	0.0155570
681.466	0.0151971
681.544	0.0147518
681.622	0.0144157
681.700	0.0141655
681.779	0.0138998
681.857	0.0137485
681.935	0.0139322
682.013	0.0139307
682.091	0.0142278
682.169	0.0144580
682.247	0.0145309
682.325	0.0145259
682.404	0.0147179
682.482	0.0146817
682.560	0.0147803
682.638	0.0145988
682.716	0.0145512
682.794	0.0144504
682.872	0.0144463
682.950	0.0143220
683.029	0.0143462
683.107	0.0145714
683.185	0.0149600
683.263	0.0153015
683.341	0.0159861
683.419	0.0165375
683.497	0.0172222
683.575	0.0178714
683.654	0.0186543
683.732	0.0190871
683.810	0.0194534
683.888	0.0197614
683.966	0.0200466
684.044	0.0199284
684.122	0.0198243
684.200	0.0195128
684.279	0.0192403
684.357	0.0187591
684.435	0.0183537
684.513	0.0180013
684.591	0.0176535
684.669	0.0172868
684.747	0.0169547
684.825	0.0167590
684.904	0.0166542
684.982	0.0165047
685.060	0.0165144
685.138	0.0162315
685.216	0.0161281
685.294	0.0160374
685.372	0.0158539
685.450	0.0155357
685.529	0.0154927
685.607	0.0151884
685.685	0.0151562
685.763	0.0150465
685.841	0.0150723
685.919	0.0149261
685.997	0.0150941
686.075	0.0151243
686.154	0.0153423
686.232	0.0154543
686.310	0.0156573
686.388	0.0157706
686.466	0.0158901
686.544	0.0162727
686.622	0.0166667
686.700	0.0170426
686.779	0.0173401
686.857	0.0177650
686.935	0.0182851
687.013	0.0186507
687.091	0.0191678
687.169	0.0193293
687.247	0.0197576
687.325	0.0198145
687.404	0.0198094
687.482	0.0195418
687.560	0.0193815
687.638	0.0189433
687.716	0.0185303
687.794	0.0178621
687.872	0.0171878
687.950	0.0164616
688.029	0.0156052
688.107	0.0149565
688.185	0.0142916
688.263	0.0136218
688.341	0.0127158
688.419	0.0123275
688.497	0.0119781
688.575	0.0116535
688.654	0.0113674
688.732	0.0112250
688.810	0.0114063
688.888	0.0113553
688.966	0.0117850
689.044	0.0121120
689.122	0.0124185
689.200	0.0127000
689.279	0.0129924
689.357	0.0136004
689.435	0.0139199
689.513	0.0145143
689.591	0.0149227
689.669	0.0154607
689.747	0.0160228
689.825	0.0166100
689.904	0.0171345
689.982	0.0178126
690.060	0.0183171
690.138	0.0189628
690.216	0.0195361
690.294	0.0200397
690.372	0.0205228
690.450	0.0208040
690.529	0.0211097
690.607	0.0213760
690.685	0.0215336
690.763	0.0216447
690.841	0.0214628
690.919	0.0213903
690.997	0.0212764
691.075	0.0209357
691.154	0.0205936
691.232	0.0201213
691.310	0.0195646
691.388	0.0190094
691.466	0.0182309
691.544	0.0175687
691.622	0.0169495
691.700	0.0162143
691.779	0.0155301
691.857	0.0150034
691.935	0.0145951
692.013	0.0140334
692.091	0.0138090
692.169	0.0136083
692.247	0.0133723
692.325	0.0133154
692.404	0.0134093
692.482	0.0136524
692.560	0.0138725
692.638	0.0142854
692.716	0.0145556
692.794	0.0148518
692.872	0.0153326
692.950	0.0158052
693.029	0.0160802
693.107	0.0165464
693.185	0.0169151
693.263	0.0170558
693.341	0.0175725
693.419	0.0177519
693.497	0.0179253
693.575	0.0182523
693.654	0.0184417
693.732	0.0187787
693.810	0.0188897
693.888	0.0188486
693.966	0.0188774
694.044	0.0187267
694.122	0.0185145
694.200	0.0179989
694.279	0.0177009
694.357	0.0171149
694.435	0.0165582
694.513	0.0156289
694.591	0.0149427
694.669	0.0142184
694.747	0.0134219
694.825	0.0127982
694.904	0.0121794
694.982	0.0118048
695.060	0.0115419
695.138	0.0114536
695.216	0.0114859
695.294	0.0114955
695.372	0.0116808
695.450	0.0120745
695.529	0.0124656
695.607	0.0127985
695.685	0.0131554
695.763	0.0134357
695.841	0.0138712
695.919	0.0140154
695.997	0.0142642
696.075	0.0145188
696.154	0.0147707
696.232	0.0151867
696.310	0.0156544
696.388	0.0164601
696.466	0.0171143
696.544	0.0177888
696.622	0.0187039
696.700	0.0194581
696.779	0.0205182
696.857	0.0214367
696.935	0.0223817
697.013	0.0231113
697.091	0.0238178
697.169	0.0243593
697.247	0.0247248
697.325	0.0247263
697.404	0.0244920
697.482	0.0240295
697.560	0.0233282
697.638	0.0224919
697.716	0.0216029
697.794	0.0204262
697.872	0.0192598
697.950	0.0181346
698.029	0.0168877
698.107	0.0156084
698.185	0.0143781
698.263	0.0132173
698.341	0.0121169
698.419	0.0113045
698.497	0.0105315
698.575	0.00997871
698.654	0.00959267
698.732	0.00943008
698.810	0.00940712
698.888	0.00981194
698.966	0.0103967
699.044	0.0109418
699.122	0.0118905
699.200	0.0129670
699.279	0.0139455
699.357	0.0150939
699.435	0.0163338
699.513	0.0175914
699.591	0.0186763
699.669	0.0199155
699.747	0.0209595
699.825	0.0218909
699.904	0.0228558
699.982	0.0235336
700.060	0.0240202
700.138	0.0244148
700.216	0.0241479
700.294	0.0238366
700.372	0.0233141
700.450	0.0225228
700.529	0.0214848
700.607	0.0202377
700.685	0.0189497
700.763	0.0176267
700.841	0.0162301
700.919	0.0150095
700.997	0.0136628
701.075	0.0126865
701.154	0.0118729
701.232	0.0110463
701.310	0.0104482
701.388	0.00984589
701.466	0.00956238
701.544	0.00940277
701.622	0.00918678
701.700	0.00906342
701.779	0.00900688
701.857	0.00911430
701.935	0.00915115
702.013	0.00962341
702.091	0.00982285
702.169	0.00993240
702.247	0.0104506
702.325	0.0110909
702.404	0.0115665
702.482	0.0122807
702.560	0.0131548
702.638	0.0140440
702.716	0.0149061
702.794	0.0158049
702.872	0.0169200
702.950	0.0178942
703.029	0.0189146
703.107	0.0198151
703.185	0.0205615
703.263	0.0213705
703.341	0.0220079
703.419	0.0225198
703.497	0.0227225
703.575	0.0229777
703.654	0.0230128
703.732	0.0226879
703.810	0.0224495
703.888	0.0220055
703.966	0.0214200
704.044	0.0209776
704.122	0.0203078
704.200	0.0197606
704.279	0.0189946
704.357	0.0184367
704.435	0.0177798
704.513	0.0173746
704.591	0.0170023
704.669	0.0167717
704.747	0.0165619
704.825	0.0165121
704.904	0.0165713
704.982	0.0166788
705.060	0.0167915
705.138	0.0169255
705.216	0.0170954
705.294	0.0172672
705.372	0.0173317
705.450	0.0176227
705.529	0.0176191
705.607	0.0177287
705.685	0.0178258
705.763	0.0176337
705.841	0.0177168
705.919	0.0178275
705.997	0.0176730
706.075	0.0177528
706.154	0.0179993
706.232	0.0177715
706.310	0.0177383
706.388	0.0173940
706.466	0.0174841
706.544	0.0173619
706.622	0.0168001
706.700	0.0163581
706.779	0.0159881
706.857	0.0154565
706.935	0.0150542
707.013	0.0144731
707.091	0.0138744
707.169	0.0133308
707.247	0.0127139
707.325	0.0122184
707.404	0.0118110
707.482	0.0115917
707.560	0.0112028
707.638	0.0110236
707.716	0.0109771
707.794	0.0109058
707.872	0.0108740
707.950	0.0110255
708.029	0.0111733
708.107	0.0113379
708.185	0.0117355
708.263	0.0120350
708.341	0.0123656
708.419	0.0125735
708.497	0.0128967
708.575	0.0131815
708.654	0.0135574
708.732	0.0139713
708.810	0.0143690
708.888	0.0149174
708.966	0.0154605
709.044	0.0158313
709.122	0.0163308
709.200	0.0168462
709.279	0.0173172
709.357	0.0177848
709.435	0.0181370
709.513	0.0184093
709.591	0.0186290
709.669	0.0188184
709.747	0.0190369
709.825	0.0189594
709.904	0.0191387
709.982	0.0192549
710.060	0.0192366
710.138	0.0194845
710.216	0.0198887
710.294	0.0201232
710.372	0.0205445
710.450	0.0209174
710.529	0.0212167
710.607	0.0215187
710.685	0.0217805
710.763	0.0220095
710.841	0.0221067
710.919	0.0221428
710.997	0.0221844
711.075	0.0220431
711.154	0.0217598
711.232	0.0214620
711.310	0.0211691
711.388	0.0205071
711.466	0.0200127
711.544	0.0193416
711.622	0.0188590
711.700	0.0182891
711.779	0.0177242
711.857	0.0171642
711.935	0.0164455
712.013	0.0160211
712.091	0.0153116
712.169	0.0148820
712.247	0.0142319
712.325	0.0139021
712.404	0.0133927
712.482	0.0127945
712.560	0.0125170
712.638	0.0122240
712.716	0.0120565
712.794	0.0119347
712.872	0.0119518
712.950	0.0119688
713.029	0.0118813
713.107	0.0122028
713.185	0.0124181
713.263	0.0124941
713.341	0.0127067
713.419	0.0127802
713.497	0.0129844
713.575	0.0132506
713.654	0.0135510
713.732	0.0136240
713.810	0.0136938
713.888	0.0143253
713.966	0.0143317
714.044	0.0142584
714.122	0.0145641
714.200	0.0146570
714.279	0.0147288
714.357	0.0149147
714.435	0.0150053
714.513	0.0152263
714.591	0.0155471
714.669	0.0158278
714.747	0.0159962
714.825	0.0164271
714.904	0.0165807
714.982	0.0169930
715.060	0.0173601
715.138	0.0174992
715.216	0.0176154
715.294	0.0174152
715.372	0.0174399
715.450	0.0172785
715.529	0.0173980
715.607	0.0172401
715.685	0.0168980
715.763	0.0168326
715.841	0.0167551
715.919	0.0168854
715.997	0.0170270
716.075	0.0171482
716.154	0.0174432
716.232	0.0176334
716.310	0.0178822
716.388	0.0184360
716.466	0.0188057
716.544	0.0192876
716.622	0.0195438
716.700	0.0200742
716.779	0.0204856
716.857	0.0205939
716.935	0.0207009
717.013	0.0207787
717.091	0.0205801
717.169	0.0204964
717.247	0.0201204
717.325	0.0197836
717.404	0.0192571
717.482	0.0189137
717.560	0.0184321
717.638	0.0179238
717.716	0.0173888
717.794	0.0170575
717.872	0.0166263
717.950	0.0162205
718.029	0.0157892
718.107	0.0154209
718.185	0.0150680
718.263	0.0148418
718.341	0.0144794
718.419	0.0143291
718.497	0.0143568
718.575	0.0141411
718.654	0.0139059
718.732	0.0138982
718.810	0.0140620
718.888	0.0139804
718.966	0.0138663
719.044	0.0139588
719.122	0.0140606
719.200	0.0141021
719.279	0.0142561
719.357	0.0143237
719.435	0.0143087
719.513	0.0143277
719.591	0.0145429
719.669	0.0147622
719.747	0.0148618
719.825	0.0149755
719.904	0.0149024
719.982	0.0151611
720.060	0.0152710
720.138	0.0153571
720.216	0.0154815
720.294	0.0157149
720.372	0.0160007
720.450	0.0160239
720.529	0.0160809
720.607	0.0165208
720.685	0.0165986
720.763	0.0170207
720.841	0.0171623
720.919	0.0173705
720.997	0.0175638
721.075	0.0175704
721.154	0.0177601
721.232	0.0177450
721.310	0.0177815
721.388	0.0178500
721.466	0.0177238
721.544	0.0174879
721.622	0.0175278
721.700	0.0175204
721.779	0.0174153
721.857	0.0173219
721.935	0.0172379
722.013	0.0171183
722.091	0.0171091
722.169	0.0170839
722.247	0.0170712
722.325	0.0169373
722.404	0.0171107
722.482	0.0173249
722.560	0.0171797
722.638	0.0172735
722.716	0.0174640
722.794	0.0173322
722.872	0.0174493
722.950	0.0173379
723.029	0.0171481
723.107	0.0171680
723.185	0.0170485
723.263	0.0169653
723.341	0.0170083
723.419	0.0168682
723.497	0.0167160
723.575	0.0167495
723.654	0.0167570
723.732	0.0166376
723.810	0.0165212
723.888	0.0162892
723.966	0.0159727
724.044	0.0157791
724.122	0.0156291
724.200	0.0154149
724.279	0.0152914
724.357	0.0151627
724.435	0.0149165
724.513	0.0148946
724.591	0.0147911
724.669	0.0148747
724.747	0.0148006
724.825	0.0147940
724.904	0.0148073
724.982	0.0149992
725.060	0.0150445
725.138	0.0152588
725.216	0.0155067
725.294	0.0155685
725.372	0.0159098
725.450	0.0159848
725.529	0.0162305
725.607	0.0162791
725.685	0.0163508
725.763	0.0164678
725.841	0.0166772
725.919	0.0164845
725.997	0.0165082
726.075	0.0163508
726.154	0.0163544
726.232	0.0161646
726.310	0.0163135
726.388	0.0161381
726.466	0.0162148
726.544	0.0163365
726.622	0.0163896
726.700	0.0165123
726.779	0.0164648
726.857	0.0167380
726.935	0.0168511
727.013	0.0169694
727.091	0.0171455
727.169	0.0172988
727.247	0.0175668
727.325	0.0175108
727.404	0.0176031
727.482	0.0177630
727.560	0.0177187
727.638	0.0178661
727.716	0.0179554
727.794	0.0179665
727.872	0.0178755
727.950	0.0179285
728.029	0.0179677
728.107	0.0178291
728.185	0.0176956
728.263	0.0174659
728.341	0.0173499
728.419	0.0170484
728.497	0.0169102
728.575	0.0168992
728.654	0.0165643
728.732	0.0163787
728.810	0.0161700
728.888	0.0160578
728.966	0.0159967
729.044	0.0158266
729.122	0.0159271
729.200	0.0159000
729.279	0.0159490
729.357	0.0160378
729.435	0.0159785
729.513	0.0159236
729.591	0.0160257
729.669	0.0161435
729.747	0.0161086
729.825	0.0160110
729.904	0.0161887
729.982	0.0160423
730.060	0.0158554
730.138	0.0156844
730.216	0.0156448
730.294	0.0153219
730.372	0.0150272
730.450	0.0149487
730.529	0.0147697
730.607	0.0147520
730.685	0.0146905
730.763	0.0146074
730.841	0.0145687
730.919	0.0146825
730.997	0.0147363
731.075	0.0149500
731.154	0.0151532
731.232	0.0153810
731.310	0.0155147
731.388	0.0158062
731.466	0.0158976
731.544	0.0160719
731.622	0.0161710
731.700	0.0162538
731.779	0.0163428
731.857	0.0164811
731.935	0.0164924
732.013	0.0165358
732.091	0.0165423
732.169	0.0164977
732.247	0.0166204
732.325	0.0166357
732.404	0.0167086
732.482	0.0166193
732.560	0.0168388
732.638	0.0170199
732.716	0.0170177
732.794	0.0171597
732.872	0.0173931
732.950	0.0174628
733.029	0.0175020
733.107	0.0174418
733.185	0.0176514
733.263	0.0178069
733.341	0.0178093
733.419	0.0178713
733.497	0.0177531
733.575	0.0178915
733.654	0.0177676
733.732	0.0175259
733.810	0.0175139
733.888	0.0174998
733.966	0.0176072
734.044	0.0174271
734.122	0.0173461
734.200	0.0171631
734.279	0.0171856
734.357	0.0170181
734.435	0.0170735
734.513	0.0168684
734.591	0.0169686
734.669	0.0167058
734.747	0.0168961
734.825	0.0167753
734.904	0.0167265
734.982	0.0165195
735.060	0.0163573
735.138	0.0163490
735.216	0.0162106
735.294	0.0163309
735.372	0.0163567
735.450	0.0160388
735.529	0.0160735
735.607	0.0160069
735.685	0.0160077
735.763	0.0159484
735.841	0.0159262
735.919	0.0160311
735.997	0.0159846
736.075	0.0160699
736.154	0.0160598
736.232	0.0159729
736.310	0.0159869
736.388	0.0158419
736.466	0.0158225
736.544	0.0157383
736.622	0.0156512
736.700	0.0156973
736.779	0.0155393
736.857	0.0154892
736.935	0.0155137
737.013	0.0153969
737.091	0.0153256
737.169	0.0151966
737.247	0.0152100
737.325	0.0153703
737.404	0.0152364
737.482	0.0152883
737.560	0.0153139
737.638	0.0153413
737.716	0.0154023
737.794	0.0153625
737.872	0.0154278
737.950	0.0156215
738.029	0.0155589
738.107	0.0157620
738.185	0.0160162
738.263	0.0160282
738.341	0.0162930
738.419	0.0163964
738.497	0.0166012
738.575	0.0167927
738.654	0.0167282
738.732	0.0169120
738.810	0.0169388
738.888	0.0170543
738.966	0.0170650
739.044	0.0171216
739.122	0.0170960
739.200	0.0168914
739.279	0.0170582
739.357	0.0170612
739.435	0.0169221
739.513	0.0169198
739.591	0.0168682
739.669	0.0167724
739.747	0.0167825
739.825	0.0169310
739.904	0.0168618
739.982	0.0168881
740.060	0.0168916
740.138	0.0169935
740.216	0.0168307
740.294	0.0168719
740.372	0.0168412
740.450	0.0170450
740.529	0.0170416
740.607	0.0171162
740.685	0.0170966
740.763	0.0173643
740.841	0.0173926
740.919	0.0172345
740.997	0.0173603
741.075	0.0173074
741.154	0.0173450
741.232	0.0173605
741.310	0.0174104
741.388	0.0174200
741.466	0.0172176
741.544	0.0172533
741.622	0.0174352
741.700	0.0172745
741.779	0.0172110
741.857	0.0169930
741.935	0.0169741
742.013	0.0168889
742.091	0.0166892
742.169	0.0164700
742.247	0.0163248
742.325	0.0160889
742.404	0.0160477
742.482	0.0157343
742.560	0.0155862
742.638	0.0155104
742.716	0.0153942
742.794	0.0152968
742.872	0.0151167
742.950	0.0151793
743.029	0.0151854
743.107	0.0149699
743.185	0.0150851
743.263	0.0151916
743.341	0.0152112
743.419	0.0154456
743.497	0.0154168
743.575	0.0155724
743.654	0.0158229
743.732	0.0159399
743.810	0.0161693
743.888	0.0160965
743.966	0.0161976
744.044	0.0163995
744.122	0.0165039
744.200	0.0164314
744.279	0.0164137
744.357	0.0166293
744.435	0.0165328
744.513	0.0167673
744.591	0.0166312
744.669	0.0165855
744.747	0.0163596
744.825	0.0165168
744.904	0.0164156
744.982	0.0165108
745.060	0.0162926
745.138	0.0160931
745.216	0.0163937
745.294	0.0162598
745.372	0.0161288
745.450	0.0162701
745.529	0.0162202
745.607	0.0164127
745.685	0.0163849
745.763	0.0162615
745.841	0.0164017
745.919	0.0163743
745.997	0.0163374
746.075	0.0164320
746.154	0.0164220
746.232	0.0164507
746.310	0.0164771
746.388	0.0164920
746.466	0.0163765
746.544	0.0162543
746.622	0.0162522
746.700	0.0164914
746.779	0.0162695
746.857	0.0162823
746.935	0.0163828
747.013	0.0165111
747.091	0.0165914
747.169	0.0166121
747.247	0.0165070
747.325	0.0167767
747.404	0.0170305
747.482	0.0170871
747.560	0.0171737
747.638	0.0173283
747.716	0.0176039
747.794	0.0176095
747.872	0.0177293
747.950	0.0178071
748.029	0.0175694
748.107	0.0176926
748.185	0.0176415
748.263	0.0175854
748.341	0.0173185
748.419	0.0170808
748.497	0.0168304
748.575	0.0166460
748.654	0.0162878
748.732	0.0161767
748.810	0.0157534
748.888	0.0156915
748.966	0.0157460
749.044	0.0154631
749.122	0.0155478
749.200	0.0155695
749.279	0.0154972
749.357	0.0154514
749.435	0.0157181
749.513	0.0157958
749.591	0.0160128
749.669	0.0160016
749.747	0.0160646
749.825	0.0162634
749.904	0.0164657
749.982	0.0165729
750.060	0.0166383
750.138	0.0167086
750.216	0.0167825
750.294	0.0167872
750.372	0.0167107
750.450	0.0167889
750.529	0.0168658
750.607	0.0169317
750.685	0.0165968
750.763	0.0164885
750.841	0.0165410
750.919	0.0164594
750.997	0.0165919
751.075	0.0164632
751.154	0.0163688
751.232	0.0161163
751.310	0.0161150
751.388	0.0160205
751.466	0.0158336
751.544	0.0157789
751.622	0.0158800
751.700	0.0156475
751.779	0.0156073
751.857	0.0156992
751.935	0.0158289
752.013	0.0156149
752.091	0.0156473
752.169	0.0157376
752.247	0.0158702
752.325	0.0161261
752.404	0.0161962
752.482	0.0162862
752.560	0.0162820
752.638	0.0163013
752.716	0.0165320
752.794	0.0164951
752.872	0.0166596
752.950	0.0168424
753.029	0.0167709
753.107	0.0168823
753.185	0.0169540
753.263	0.0168859
753.341	0.0168242
753.419	0.0168494
753.497	0.0169326
753.575	0.0169453
753.654	0.0168711
753.732	0.0167545
753.810	0.0167273
753.888	0.0165519
753.966	0.0165604
754.044	0.0164438
754.122	0.0164540
754.200	0.0163110
754.279	0.0161690
754.357	0.0162407
754.435	0.0162314
754.513	0.0162337
754.591	0.0161446
754.669	0.0161652
754.747	0.0161207
754.825	0.0162962
754.904	0.0162988
754.982	0.0163634
755.060	0.0163913
755.138	0.0164785
755.216	0.0165482
755.294	0.0166477
755.372	0.0164793
755.450	0.0165434
755.529	0.0164954
755.607	0.0164840
755.685	0.0167790
755.763	0.0165900
755.841	0.0166437
755.919	0.0167999
755.997	0.0167104
756.075	0.0169469
756.154	0.0168163
756.232	0.0167678
756.310	0.0170084
756.388	0.0169475
756.466	0.0169810
756.544	0.0171519
756.622	0.0170736
756.700	0.0170627
756.779	0.0171493
756.857	0.0171249
756.935	0.0169842
757.013	0.0168193
757.091	0.0170557
757.169	0.0169241
757.247	0.0165336
757.325	0.0164179
757.404	0.0162527
757.482	0.0161280
757.560	0.0161102
757.638	0.0158968
757.716	0.0157578
757.794	0.0157301
757.872	0.0155895
757.950	0.0154613
758.029	0.0154651
758.107	0.0154999
758.185	0.0155119
758.263	0.0155719
758.341	0.0155841
758.419	0.0156076
758.497	0.0158356
758.575	0.0159875
758.654	0.0161359
758.732	0.0161591
758.810	0.0164478
758.888	0.0165794
758.966	0.0167435
759.044	0.0169061
759.122	0.0169413
759.200	0.0169088
759.279	0.0170707
759.357	0.0170214
759.435	0.0173063
759.513	0.0171904
759.591	0.0170775
759.669	0.0169882
759.747	0.0169821
759.825	0.0167339
759.904	0.0163792
759.982	0.0165391
760.060	0.0163454
760.138	0.0160878
760.216	0.0160458
760.294	0.0159200
760.372	0.0158033
760.450	0.0155148
760.529	0.0157194
760.607	0.0155099
760.685	0.0157710
760.763	0.0156451
760.841	0.0157426
760.919	0.0156317
760.997	0.0159478
761.075	0.0160754
761.154	0.0162390
761.232	0.0163273
761.310	0.0162428
761.388	0.0165060
761.466	0.0166490
761.544	0.0165472
761.622	0.0167125
761.700	0.0168546
761.779	0.0169233
761.857	0.0167847
761.935	0.0169325
762.013	0.0167314
762.091	0.0168747
762.169	0.0168913
762.247	0.0167949
762.325	0.0168026
762.404	0.0167693
762.482	0.0168291
762.560	0.0167502
762.638	0.0168054
762.716	0.0167951
762.794	0.0167251
762.872	0.0166808
762.950	0.0168285
763.029	0.0166698
763.107	0.0167261
763.185	0.0166642
763.263	0.0164936
763.341	0.0165635
763.419	0.0164435
763.497	0.0163294
763.575	0.0165438
763.654	0.0163531
763.732	0.0163804
763.810	0.0165312
763.888	0.0164836
763.966	0.0166245
764.044	0.0165239
764.122	0.0164658
764.200	0.0166631
764.279	0.0165615
764.357	0.0165695
764.435	0.0166011
764.513	0.0166169
764.591	0.0167759
764.669	0.0165526
764.747	0.0165721
764.825	0.0166138
764.904	0.0164901
764.982	0.0164533
765.060	0.0163586
765.138	0.0164987
765.216	0.0164550
765.294	0.0164436
765.372	0.0163047
765.450	0.0164165
765.529	0.0163455
765.607	0.0164532
765.685	0.0162337
765.763	0.0163173
765.841	0.0163319
765.919	0.0164101
765.997	0.0163338
766.075	0.0162498
766.154	0.0161262
766.232	0.0163239
766.310	0.0162905
766.388	0.0163042
766.466	0.0161041
766.544	0.0162671
766.622	0.0162808
766.700	0.0161926
766.779	0.0160371
766.857	0.0160619
766.935	0.0161868
767.013	0.0161793
767.091	0.0161274
767.169	0.0161978
767.247	0.0161496
767.325	0.0161942
767.404	0.0161964
767.482	0.0162321
767.560	0.0161861
767.638	0.0162107
767.716	0.0162440
767.794	0.0161498
767.872	0.0162834
767.950	0.0164465
768.029	0.0164716
768.107	0.0163682
768.185	0.0166940
768.263	0.0166987
768.341	0.0166471
768.419	0.0168553
768.497	0.0167404
768.575	0.0168427
768.654	0.0168594
768.732	0.0169114
768.810	0.0169533
768.888	0.0168423
768.966	0.0166122
769.044	0.0166144
769.122	0.0163673
769.200	0.0165151
769.279	0.0163363
769.357	0.0161707
769.435	0.0161843
769.513	0.0161833
769.591	0.0160989
769.669	0.0159099
769.747	0.0159834
769.825	0.0159284
769.904	0.0159377
769.982	0.0160393
770.060	0.0160835
770.138	0.0161940
770.216	0.0164036
770.294	0.0165405
770.372	0.0165170
770.450	0.0165520
770.529	0.0167407
770.607	0.0168578
770.685	0.0169218
770.763	0.0168314
770.841	0.0169426
770.919	0.0169143
770.997	0.0169997
771.075	0.0169714
771.154	0.0168854
771.232	0.0166451
771.310	0.0167966
771.388	0.0167123
771.466	0.0166444
771.544	0.0164472
771.622	0.0162715
771.700	0.0163224
771.779	0.0162142
771.857	0.0161239
771.935	0.0161417
772.013	0.0160558
772.091	0.0161156
772.169	0.0160352
772.247	0.0160236
772.325	0.0161393
772.404	0.0160323
772.482	0.0162080
772.560	0.0160974
772.638	0.0161891
772.716	0.0163385
772.794	0.0164733
772.872	0.0165167
772.950	0.0163753
773.029	0.0167258
773.107	0.0167351
773.185	0.0166702
773.263	0.0166325
773.341	0.0168471
773.419	0.0167772
773.497	0.0166361
773.575	0.0165743
773.654	0.0165863
773.732	0.0164584
773.810	0.0164342
773.888	0.0163888
773.966	0.0164258
774.044	0.0164800
774.122	0.0162737
774.200	0.0163190
774.279	0.0161697
774.357	0.0161792
774.435	0.0161654
774.513	0.0161256
774.591	0.0163374
774.669	0.0163309
774.747	0.0163035
774.825	0.0162187
774.904	0.0164220
774.982	0.0163933
775.060	0.0161418
775.138	0.0161866
775.216	0.0163258
775.294	0.0160945
775.372	0.0162203
775.450	0.0162441
775.529	0.0160811
775.607	0.0161371
775.685	0.0161555
775.763	0.0160969
775.841	0.0160783
775.919	0.0162001
775.997	0.0161839
776.075	0.0162954
776.154	0.0164098
776.232	0.0164162
776.310	0.0165001
776.388	0.0164643
776.466	0.0165060
776.544	0.0167552
776.622	0.0168730
776.700	0.0168574
776.779	0.0168121
776.857	0.0169704
776.935	0.0170504
777.013	0.0171984
777.091	0.0169215
777.169	0.0170762
777.247	0.0170229
777.325	0.0168801
777.404	0.0168456
777.482	0.0168494
777.560	0.0167164
777.638	0.0164536
777.716	0.0166660
777.794	0.0165501
777.872	0.0162965
777.950	0.0161275
778.029	0.0160555
778.107	0.0160754
778.185	0.0159899
778.263	0.0158659
778.341	0.0158855
778.419	0.0157339
778.497	0.0158123
778.575	0.0158286
778.654	0.0156950
778.732	0.0157984
778.810	0.0158046
778.888	0.0157978
778.966	0.0157774
779.044	0.0159062
779.122	0.0160325
779.200	0.0161772
779.279	0.0162811
779.357	0.0163898
779.435	0.0166413
779.513	0.0164823
779.591	0.0166472
779.669	0.0168477
779.747	0.0169603
779.825	0.0169730
779.904	0.0170017
779.982	0.0170336
780.060	0.0170128
780.138	0.0170148
780.216	0.0170422
780.294	0.0169510
780.372	0.0169021
780.450	0.0169456
780.529	0.0169081
780.607	0.0168255
780.685	0.0167286
780.763	0.0165372
780.841	0.0166803
780.919	0.0165512
780.997	0.0165935
781.075	0.0165395
781.154	0.0163975
781.232	0.0162817
781.310	0.0163914
781.388	0.0162621
781.466	0.0163165
781.544	0.0163406
781.622	0.0161654
781.700	0.0162144
781.779	0.0161902
781.857	0.0162876
781.935	0.0162476
782.013	0.0160744
782.091	0.0163297
782.169	0.0161446
782.247	0.0161241
782.325	0.0161530
782.404	0.0163500
782.482	0.0163057
782.560	0.0161114
782.638	0.0161598
782.716	0.0164641
782.794	0.0162727
782.872	0.0163769
782.950	0.0164602
783.029	0.0165747
783.107	0.0166499
783.185	0.0167445
783.263	0.0166134
783.341	0.0166778
783.419	0.0167956
783.497	0.0166732
783.575	0.0166174
783.654	0.0168122
783.732	0.0167351
783.810	0.0166151
783.888	0.0167509
783.966	0.0167060
784.044	0.0165253
784.122	0.0164692
784.200	0.0164195
784.279	0.0163774
784.357	0.0163177
784.435	0.0162924
784.513	0.0161814
784.591	0.0161684
784.669	0.0161082
784.747	0.0159666
784.825	0.0160282
784.904	0.0158309
784.982	0.0158490
785.060	0.0159049
785.138	0.0159454
785.216	0.0159662
785.294	0.0160217
785.372	0.0158664
785.450	0.0159120
785.529	0.0159029
785.607	0.0159945
785.685	0.0161271
785.763	0.0162466
785.841	0.0162193
785.919	0.0163590
785.997	0.0163077
786.075	0.0163255
786.154	0.0164771
786.232	0.0165333
786.310	0.0166953
786.388	0.0165548
786.466	0.0167979
786.544	0.0169778
786.622	0.0170760
786.700	0.0171659
786.779	0.0171019
786.857	0.0171465
786.935	0.0172673
787.013	0.0172438
787.091	0.0172960
787.169	0.0171763
787.247	0.0171720
787.325	0.0170755
787.404	0.0171391
787.482	0.0171110
787.560	0.0169409
787.638	0.0168195
787.716	0.0169373
787.794	0.0166255
787.872	0.0164897
787.950	0.0165963
788.029	0.0163508
788.107	0.0162459
788.185	0.0163588
788.263	0.0162650
788.341	0.0161924
788.419	0.0162812
788.497	0.0161394
788.575	0.0162252
788.654	0.0160745
788.732	0.0161368
788.810	0.0163677
788.888	0.0162741
788.966	0.0162782
789.044	0.0163604
789.122	0.0161863
789.200	0.0165139
789.279	0.0164993
789.357	0.0164383
789.435	0.0164952
789.513	0.0166270
789.591	0.0167601
789.669	0.0166908
789.747	0.0167384
789.825	0.0167836
789.904	0.0166764
789.982	0.0167086
790.060	0.0167832
790.138	0.0165851
790.216	0.0167383
790.294	0.0166698
790.372	0.0163925
790.450	0.0164257
790.529	0.0165372
790.607	0.0163982
790.685	0.0162724
790.763	0.0163467
790.841	0.0162711
790.919	0.0160388
790.997	0.0160845
791.075	0.0161021
791.154	0.0161504
791.232	0.0161402
791.310	0.0159643
791.388	0.0160172
791.466	0.0160094
791.544	0.0160050
791.622	0.0158372
791.700	0.0158851
791.779	0.0159951
791.857	0.0158379
791.935	0.0157346
792.013	0.0158064
792.091	0.0157377
792.169	0.0158792
792.247	0.0157240
792.325	0.0159579
792.404	0.0159621
792.482	0.0158904
792.560	0.0160931
792.638	0.0161654
792.716	0.0162144
792.794	0.0164692
792.872	0.0166181
792.950	0.0165614
793.029	0.0168665
793.107	0.0169339
793.185	0.0169980
793.263	0.0173659
793.341	0.0173570
793.419	0.0172239
793.497	0.0174059
793.575	0.0173822
793.654	0.0175588
793.732	0.0173582
793.810	0.0173459
793.888	0.0174356
793.966	0.0172908
794.044	0.0172009
794.122	0.0171388
794.200	0.0170527
794.279	0.0168875
794.357	0.0168562
794.435	0.0168279
794.513	0.0166611
794.591	0.0165439
794.669	0.0162980
794.747	0.0161796
794.825	0.0160280
794.904	0.0159338
794.982	0.0159322
795.060	0.0159756
795.138	0.0158937
795.216	0.0157334
795.294	0.0158465
795.372	0.0159933
795.450	0.0159316
795.529	0.0159081
795.607	0.0159662
795.685	0.0160990
795.763	0.0162280
795.841	0.0162955
795.919	0.0162926
795.997	0.0162769
796.075	0.0165388
796.154	0.0166200
796.232	0.0165392
796.310	0.0165925
796.388	0.0165774
796.466	0.0166557
796.544	0.0165900
796.622	0.0165789
796.700	0.0166470
796.779	0.0165881
796.857	0.0165695
796.935	0.0165262
797.013	0.0163995
797.091	0.0164519
797.169	0.0164394
797.247	0.0165325
797.325	0.0164773
797.404	0.0166085
797.482	0.0164409
797.560	0.0163960
797.638	0.0161961
797.716	0.0163145
797.794	0.0162899
797.872	0.0161441
797.950	0.0161013
798.029	0.0160934
798.107	0.0160496
798.185	0.0161180
798.263	0.0160318
798.341	0.0158155
798.419	0.0158166
798.497	0.0158717
798.575	0.0159432
798.654	0.0160408
798.732	0.0159100
798.810	0.0158815
798.888	0.0159389
798.966	0.0160626
799.044	0.0160252
799.122	0.0160149
799.200	0.0161822
799.279	0.0162259
799.357	0.0162880
799.435	0.0164619
799.513	0.0165292
799.591	0.0165594
799.669	0.0166996
799.747	0.0168118
799.825	0.0168797
799.904	0.0169916
799.982	0.0171918
800.060	0.0171226
800.138	0.0171442
800.216	0.0169434
800.294	0.0170141
800.372	0.0170289
800.450	0.0170228
800.529	0.0169730
800.607	0.0169350
800.685	0.0168538
800.763	0.0168238
800.841	0.0169071
800.919	0.0167970
800.997	0.0167200
801.075	0.0168179
801.154	0.0166856
801.232	0.0165791
801.310	0.0165841
801.388	0.0164778
801.466	0.0165910
801.544	0.0165409
801.622	0.0163900
801.700	0.0165318
801.779	0.0164982
801.857	0.0164248
801.935	0.0165024
802.013	0.0163972
802.091	0.0164832
802.169	0.0164913
802.247	0.0164165
802.325	0.0164337
802.404	0.0162434
802.482	0.0163029
802.560	0.0163332
802.638	0.0162946
802.716	0.0161682
802.794	0.0160334
802.872	0.0160393
802.950	0.0161681
803.029	0.0162788
803.107	0.0161344
803.185	0.0160713
803.263	0.0162055
803.341	0.0161952
803.419	0.0160250
803.497	0.0160083
803.575	0.0161328
803.654	0.0160319
803.732	0.0160809
803.810	0.0159987
803.888	0.0160645
803.966	0.0160793
804.044	0.0160963
804.122	0.0160682
804.200	0.0160738
804.279	0.0161823
804.357	0.0161310
804.435	0.0161135
804.513	0.0161041
804.591	0.0160806
804.669	0.0161761
804.747	0.0163461
804.825	0.0163042
804.904	0.0162526
804.982	0.0163496
805.060	0.0163401
805.138	0.0162424
805.216	0.0163918
805.294	0.0163409
805.372	0.0164526
805.450	0.0164187
805.529	0.0164146
805.607	0.0165184
805.685	0.0166319
805.763	0.0165769
805.841	0.0165608
805.919	0.0164816
805.997	0.0165280
806.075	0.0166341
806.154	0.0166064
806.232	0.0165986
806.310	0.0167747
806.388	0.0167994
806.466	0.0168391
806.544	0.0168484
806.622	0.0168808
806.700	0.0170678
806.779	0.0168649
806.857	0.0168190
806.935	0.0169856
807.013	0.0171024
807.091	0.0169478
807.169	0.0170191
807.247	0.0170514
807.325	0.0168652
807.404	0.0168580
807.482	0.0168483
807.560	0.0168522
807.638	0.0166332
807.716	0.0166357
807.794	0.0165613
807.872	0.0165910
807.950	0.0165974
808.029	0.0165196
808.107	0.0164566
808.185	0.0164542
808.263	0.0164420
808.341	0.0163595
808.419	0.0163554
808.497	0.0160603
808.575	0.0161653
808.654	0.0160528
808.732	0.0160900
808.810	0.0160878
808.888	0.0160416
808.966	0.0160600
809.044	0.0159648
809.122	0.0159476
809.200	0.0160333
809.279	0.0159068
809.357	0.0159750
809.435	0.0160388
809.513	0.0159514
809.591	0.0159911
809.669	0.0160674
809.747	0.0161316
809.825	0.0160492
809.904	0.0161084
809.982	0.0162697
810.060	0.0162158
810.138	0.0162025
810.216	0.0163555
810.294	0.0164977
810.372	0.0163927
810.450	0.0162916
810.529	0.0164159
810.607	0.0164915
810.685	0.0165478
810.763	0.0165094
810.841	0.0165487
810.919	0.0163487
810.997	0.0165325
811.075	0.0162991
811.154	0.0167110
811.232	0.0165619
811.310	0.0165212
811.388	0.0165215
811.466	0.0164337
811.544	0.0165274
811.622	0.0165343
811.700	0.0167053
811.779	0.0163976
811.857	0.0164919
811.935	0.0165968
812.013	0.0166741
812.091	0.0167827
812.169	0.0166502
812.247	0.0166499
812.325	0.0167515
812.404	0.0166682
812.482	0.0167360
812.560	0.0168310
812.638	0.0166307
812.716	0.0167018
812.794	0.0165820
812.872	0.0165398
812.950	0.0164989
813.029	0.0166602
813.107	0.0166004
813.185	0.0165737
813.263	0.0164697
813.341	0.0165807
813.419	0.0166499
813.497	0.0164693
813.575	0.0167390
813.654	0.0165816
813.732	0.0165381
813.810	0.0167329
813.888	0.0165388
813.966	0.0165620
814.044	0.0167021
814.122	0.0165574
814.200	0.0166573
814.279	0.0166787
814.357	0.0166309
814.435	0.0165162
814.513	0.0165266
814.591	0.0164072
814.669	0.0163143
814.747	0.0163078
814.825	0.0163972
814.904	0.0163893
814.982	0.0163834
815.060	0.0163441
815.138	0.0161987
815.216	0.0161761
815.294	0.0162033
815.372	0.0162844
815.450	0.0161724
815.529	0.0162199
815.607	0.0163051
815.685	0.0161507
815.763	0.0162370
815.841	0.0162921
815.919	0.0162667
815.997	0.0163093
816.075	0.0163358
816.154	0.0163818
816.232	0.0162987
816.310	0.0163395
816.388	0.0163875
816.466	0.0163657
816.544	0.0163389
816.622	0.0164581
816.700	0.0165327
816.779	0.0163393
816.857	0.0164690
816.935	0.0165285
817.013	0.0164917
817.091	0.0165504
817.169	0.0165823
817.247	0.0165736
817.325	0.0166396
817.404	0.0165707
817.482	0.0166003
817.560	0.0165429
817.638	0.0166205
817.716	0.0166837
817.794	0.0166693
817.872	0.0164442
817.950	0.0164506
818.029	0.0166601
818.107	0.0165875
818.185	0.0165117
818.263	0.0165521
818.341	0.0165969
818.419	0.0167550
818.497	0.0166424
818.575	0.0167661
818.654	0.0166817
818.732	0.0166836
818.810	0.0167489
818.888	0.0167541
818.966	0.0165250
819.044	0.0166358
819.122	0.0166507
819.200	0.0166329
819.279	0.0168457
819.357	0.0167020
819.435	0.0165733
819.513	0.0166312
819.591	0.0166332
819.669	0.0164681
819.747	0.0164661
819.825	0.0163596
819.904	0.0162685
819.982	0.0162696
820.060	0.0163934
820.138	0.0163261
820.216	0.0164104
820.294	0.0161584
820.372	0.0162395
820.450	0.0163537
820.529	0.0162640
820.607	0.0163974
820.685	0.0163281
820.763	0.0163650
820.841	0.0164095
820.919	0.0163354
820.997	0.0164037
821.075	0.0164333
821.154	0.0164130
821.232	0.0163118
821.310	0.0163645
821.388	0.0163499
821.466	0.0163521
821.544	0.0164223
821.622	0.0162766
821.700	0.0161880
821.779	0.0161465
821.857	0.0162939
821.935	0.0162138
822.013	0.0162764
822.091	0.0162506
822.169	0.0162490
822.247	0.0162418
822.325	0.0163844
822.404	0.0164374
822.482	0.0165700
822.560	0.0164887
822.638	0.0163880
822.716	0.0166729
822.794	0.0166578
822.872	0.0166165
822.950	0.0167354
823.029	0.0168387
823.107	0.0168156
823.185	0.0167131
823.263	0.0166829
823.341	0.0167901
823.419	0.0167445
823.497	0.0167153
823.575	0.0166630
823.654	0.0167166
823.732	0.0167564
823.810	0.0165791
823.888	0.0166296
823.966	0.0164960
824.044	0.0166210
824.122	0.0164725
824.200	0.0163788
824.279	0.0163946
824.357	0.0162753
824.435	0.0161949
824.513	0.0161720
824.591	0.0162418
824.669	0.0161666
824.747	0.0161988
824.825	0.0161744
824.904	0.0161019
824.982	0.0161662
825.060	0.0161619
825.138	0.0162759
825.216	0.0161568
825.294	0.0161823
825.372	0.0162275
825.450	0.0162764
825.529	0.0162265
825.607	0.0162194
825.685	0.0163593
825.763	0.0164187
825.841	0.0164082
825.919	0.0162887
825.997	0.0164053
826.075	0.0165312
826.154	0.0165643
826.232	0.0164502
826.310	0.0167045
826.388	0.0166264
826.466	0.0166360
826.544	0.0165080
826.622	0.0165757
826.700	0.0166570
826.779	0.0166465
826.857	0.0165236
826.935	0.0165586
827.013	0.0165366
827.091	0.0166399
827.169	0.0165943
827.247	0.0164845
827.325	0.0165672
827.404	0.0162353
827.482	0.0162798
827.560	0.0162746
827.638	0.0162634
827.716	0.0163248
827.794	0.0161810
827.872	0.0161487
827.950	0.0162527
828.029	0.0160785
828.107	0.0159034
828.185	0.0161546
828.263	0.0162084
828.341	0.0161513
828.419	0.0161735
828.497	0.0161253
828.575	0.0163471
828.654	0.0163945
828.732	0.0164265
828.810	0.0164054
828.888	0.0165092
828.966	0.0166234
829.044	0.0166080
829.122	0.0168376
829.200	0.0167226
829.279	0.0168824
829.357	0.0169257
829.435	0.0169649
829.513	0.0168333
829.591	0.0167758
829.669	0.0170102
829.747	0.0168938
829.825	0.0169274
829.904	0.0167422
829.982	0.0167085
830.060	0.0166367
830.138	0.0165862
830.216	0.0164754
830.294	0.0162877
830.372	0.0163340
830.450	0.0162674
830.529	0.0160427
830.607	0.0161430
830.685	0.0162004
830.763	0.0161400
830.841	0.0160793
830.919	0.0159071
830.997	0.0160027
831.075	0.0160812
831.154	0.0161295
831.232	0.0159686
831.310	0.0161293
831.388	0.0161742
831.466	0.0160679
831.544	0.0162480
831.622	0.0163092
831.700	0.0163057
831.779	0.0165310
831.857	0.0164933
831.935	0.0165555
832.013	0.0164998
832.091	0.0165692
832.169	0.0165703
832.247	0.0166618
832.325	0.0167327
832.404	0.0166676
832.482	0.0166962
832.560	0.0167247
832.638	0.0167770
832.716	0.0165681
832.794	0.0167835
832.872	0.0166366
832.950	0.0166456
833.029	0.0165644
833.107	0.0164193
833.185	0.0165914
833.263	0.0165099
833.341	0.0163589
833.419	0.0165169
833.497	0.0164819
833.575	0.0164212
833.654	0.0163798
833.732	0.0162936
833.810	0.0164159
833.888	0.0162617
833.966	0.0163586
834.044	0.0162702
834.122	0.0161556
834.200	0.0161505
834.279	0.0161845
834.357	0.0162020
834.435	0.0162798
834.513	0.0162553
834.591	0.0163479
834.669	0.0162820
834.747	0.0163734
834.825	0.0165396
834.904	0.0164513
834.982	0.0165555
835.060	0.0165685
835.138	0.0165245
835.216	0.0167207
835.294	0.0165612
835.372	0.0167387
835.450	0.0167503
835.529	0.0167469
835.607	0.0165768
835.685	0.0168002
835.763	0.0167255
835.841	0.0168148
835.919	0.0166828
835.997	0.0164589
836.075	0.0164892
836.154	0.0166356
836.232	0.0165659
836.310	0.0164645
836.388	0.0164864
836.466	0.0163056
836.544	0.0163599
836.622	0.0164703
836.700	0.0163791
836.779	0.0163087
836.857	0.0163757
836.935	0.0164753
837.013	0.0164266
837.091	0.0163430
837.169	0.0161980
837.247	0.0163183
837.325	0.0163416
837.404	0.0163229
837.482	0.0163795
837.560	0.0163094
837.638	0.0163779
837.716	0.0164211
837.794	0.0164708
837.872	0.0165384
837.950	0.0164928
838.029	0.0166624
838.107	0.0164921
838.185	0.0167229
838.263	0.0166183
838.341	0.0164994
838.419	0.0168134
838.497	0.0166537
838.575	0.0167408
838.654	0.0167736
838.732	0.0166638
838.810	0.0166354
838.888	0.0166207
838.966	0.0165736
839.044	0.0166185
839.122	0.0164610
839.200	0.0164476
839.279	0.0164208
839.357	0.0163334
839.435	0.0162753
839.513	0.0161513
839.591	0.0163097
839.669	0.0163838
839.747	0.0160555
839.825	0.0161921
839.904	0.0163757
839.982	0.0162827
840.060	0.0163016
840.138	0.0164355
840.216	0.0163486
840.294	0.0163647
840.372	0.0165327
840.450	0.0165276
840.529	0.0165645
840.607	0.0166003
840.685	0.0165845
840.763	0.0166299
840.841	0.0164792
840.919	0.0164373
840.997	0.0164365
841.075	0.0166319
841.154	0.0164207
841.232	0.0164879
841.310	0.0164117
841.388	0.0163271
841.466	0.0163628
841.544	0.0164283
841.622	0.0165540
841.700	0.0166392
841.779	0.0165234
841.857	0.0164594
841.935	0.0165229
842.013	0.0163786
842.091	0.0163770
842.169	0.0164193
842.247	0.0161858
842.325	0.0162717
842.404	0.0163661
842.482	0.0164516
842.560	0.0163457
842.638	0.0162289
842.716	0.0162653
842.794	0.0161929
842.872	0.0163711
842.950	0.0162615
843.029	0.0163754
843.107	0.0164593
843.185	0.0163778
843.263	0.0163945
843.341	0.0165195
843.419	0.0165383
843.497	0.0165225
843.575	0.0166459
843.654	0.0166258
843.732	0.0166444
843.810	0.0167131
843.888	0.0167002
843.966	0.0166753
844.044	0.0166183
844.122	0.0166851
844.200	0.0166213
844.279	0.0166203
844.357	0.0165772
844.435	0.0166505
844.513	0.0166918
844.591	0.0166373
844.669	0.0165429
844.747	0.0164895
844.825	0.0166161
844.904	0.0163380
844.982	0.0162890
845.060	0.0163011
845.138	0.0162816
845.216	0.0163026
845.294	0.0160516
845.372	0.0160959
845.450	0.0159916
845.529	0.0158453
845.607	0.0160837
845.685	0.0160161
845.763	0.0158817
845.841	0.0160132
845.919	0.0159270
845.997	0.0159907
846.075	0.0159286
846.154	0.0161815
846.232	0.0162701
846.310	0.0163627
846.388	0.0163578
846.466	0.0164500
846.544	0.0164466
846.622	0.0166754
846.700	0.0165808
846.779	0.0167051
846.857	0.0167039
846.935	0.0166354
847.013	0.0166510
847.091	0.0167999
847.169	0.0166154
847.247	0.0166995
847.325	0.0166505
847.404	0.0167068
847.482	0.0167031
847.560	0.0167992
847.638	0.0167152
847.716	0.0165231
847.794	0.0166061
847.872	0.0166216
847.950	0.0164114
848.029	0.0164249
848.107	0.0164563
848.185	0.0165263
848.263	0.0164650
848.341	0.0164309
848.419	0.0163943
848.497	0.0163302
848.575	0.0164715
848.654	0.0163873
848.732	0.0163741
848.810	0.0163179
848.888	0.0164338
848.966	0.0165647
849.044	0.0164342
849.122	0.0164278
849.200	0.0164803
849.279	0.0165189
849.357	0.0163268
849.435	0.0164126
849.513	0.0164221
849.591	0.0164365
849.669	0.0164748
849.747	0.0165282
849.825	0.0165533
849.904	0.0165877
849.982	0.0165121
850.060	0.0165441
850.138	0.0165435
850.216	0.0165192
850.294	0.0163762
850.372	0.0163297
850.450	0.0163801
850.529	0.0163982
850.607	0.0164454
850.685	0.0163464
850.763	0.0161923
850.841	0.0161996
850.919	0.0161189
850.997	0.0162508
851.075	0.0160461
851.154	0.0160799
851.232	0.0161230
851.310	0.0162450
851.388	0.0161543
851.466	0.0161063
851.544	0.0161466
851.622	0.0161898
851.700	0.0161388
851.779	0.0161773
851.857	0.0163448
851.935	0.0163956
852.013	0.0164232
852.091	0.0162340
852.169	0.0162952
852.247	0.0161986
852.325	0.0162627
852.404	0.0165364
852.482	0.0163808
852.560	0.0163432
852.638	0.0163667
852.716	0.0164825
852.794	0.0165549
852.872	0.0166269
852.950	0.0166470
853.029	0.0167374
853.107	0.0167598
853.185	0.0167393
853.263	0.0168549
853.341	0.0169599
853.419	0.0169785
853.497	0.0169395
853.575	0.0169746
853.654	0.0169231
853.732	0.0170094
853.810	0.0168452
853.888	0.0168187
853.966	0.0166502
854.044	0.0165314
854.122	0.0167179
854.200	0.0165532
854.279	0.0162815
854.357	0.0163537
854.435	0.0163762
854.513	0.0162351
854.591	0.0161090
854.669	0.0161821
854.747	0.0162355
854.825	0.0162229
854.904	0.0161153
854.982	0.0163007
855.060	0.0162645
855.138	0.0162487
855.216	0.0163190
855.294	0.0164032
855.372	0.0163721
855.450	0.0162833
855.529	0.0163918
855.607	0.0164150
855.685	0.0163702
855.763	0.0163383
855.841	0.0164624
855.919	0.0164048
855.997	0.0162769
856.075	0.0164196
856.154	0.0163293
856.232	0.0162471
856.310	0.0163245
856.388	0.0163022
856.466	0.0162553
856.544	0.0162423
856.622	0.0162983
856.700	0.0163744
856.779	0.0162514
856.857	0.0162368
856.935	0.0160172
857.013	0.0161814
857.091	0.0161174
857.169	0.0160644
857.247	0.0161351
857.325	0.0160760
857.404	0.0161125
857.482	0.0162629
857.560	0.0162894
857.638	0.0162386
857.716	0.0162572
857.794	0.0163525
857.872	0.0162570
857.950	0.0164443
858.029	0.0163200
858.107	0.0163956
858.185	0.0164324
858.263	0.0165548
858.341	0.0164701
858.419	0.0167380
858.497	0.0166560
858.575	0.0166560
858.654	0.0166846
858.732	0.0166551
858.810	0.0167517
858.888	0.0168803
858.966	0.0168221
859.044	0.0167171
859.122	0.0169326
859.200	0.0168626
859.279	0.0168780
859.357	0.0167291
859.435	0.0167771
859.513	0.0168402
859.591	0.0167393
859.669	0.0167378
859.747	0.0167468
859.825	0.0166811
859.904	0.0167234
859.982	0.0165092
860.060	0.0165762
860.138	0.0164709
860.216	0.0165639
860.294	0.0164251
860.372	0.0164827
860.450	0.0165220
860.529	0.0165916
860.607	0.0165823
860.685	0.0165008
860.763	0.0165440
860.841	0.0163887
860.919	0.0165993
860.997	0.0163155
861.075	0.0164507
861.154	0.0165646
861.232	0.0164131
861.310	0.0162789
861.388	0.0163883
861.466	0.0163275
861.544	0.0162369
861.622	0.0163145
861.700	0.0162933
861.779	0.0163107
861.857	0.0163510
861.935	0.0161522
862.013	0.0162453
862.091	0.0163418
862.169	0.0163416
862.247	0.0163008
862.325	0.0163688
862.404	0.0162698
862.482	0.0163732
862.560	0.0163798
862.638	0.0162910
862.716	0.0162160
862.794	0.0164465
862.872	0.0163128
862.950	0.0162921
863.029	0.0164368
863.107	0.0164402
863.185	0.0164333
863.263	0.0164144
863.341	0.0162581
863.419	0.0164032
863.497	0.0163589
863.575	0.0162004
863.654	0.0164171
863.732	0.0162499
863.810	0.0163738
863.888	0.0164372
863.966	0.0163988
864.044	0.0162274
864.122	0.0164383
864.200	0.0164503
864.279	0.0164005
864.357	0.0164590
864.435	0.0164027
864.513	0.0164613
864.591	0.0165510
864.669	0.0165932
864.747	0.0166207
864.825	0.0166529
864.904	0.0167380
864.982	0.0168210
865.060	0.0168098
865.138	0.0166946
865.216	0.0168633
865.294	0.0166477
865.372	0.0166684
865.450	0.0167794
865.529	0.0167094
865.607	0.0166375
865.685	0.0165791
865.763	0.0165454
865.841	0.0165226
865.919	0.0164668
865.997	0.0165093
866.075	0.0165270
866.154	0.0164761
866.232	0.0163665
866.310	0.0163662
866.388	0.0164224
866.466	0.0164458
866.544	0.0163397
866.622	0.0163831
866.700	0.0163328
866.779	0.0163000
866.857	0.0164136
866.935	0.0162629
867.013	0.0162844
867.091	0.0162369
867.169	0.0163001
867.247	0.0164156
867.325	0.0162767
867.404	0.0163193
867.482	0.0163863
867.560	0.0164093
867.638	0.0163139
867.716	0.0161764
867.794	0.0161815
867.872	0.0163974
867.950	0.0162322
868.029	0.0161922
868.107	0.0162325
868.185	0.0162713
868.263	0.0161607
868.341	0.0162513
868.419	0.0163285
868.497	0.0162337
868.575	0.0163720
868.654	0.0162015
868.732	0.0162770
868.810	0.0163194
868.888	0.0163818
868.966	0.0163217
869.044	0.0163311
869.122	0.0163905
869.200	0.0163407
869.279	0.0163913
869.357	0.0163318
869.435	0.0164032
869.513	0.0163747
869.591	0.0162974
869.669	0.0164397
869.747	0.0164107
869.825	0.0164581
869.904	0.0164828
869.982	0.0164332
870.060	0.0164280
870.138	0.0164255
870.216	0.0165744
870.294	0.0164367
870.372	0.0165932
870.450	0.0164301
870.529	0.0163140
870.607	0.0163908
870.685	0.0163347
870.763	0.0164610
870.841	0.0164638
870.919	0.0164146
870.997	0.0164156
871.075	0.0164672
871.154	0.0165047
871.232	0.0163140
871.310	0.0163849
871.388	0.0164359
871.466	0.0164633
871.544	0.0165082
871.622	0.0166460
871.700	0.0164825
871.779	0.0164317
871.857	0.0166043
871.935	0.0166759
872.013	0.0167179
872.091	0.0166380
872.169	0.0167437
872.247	0.0165539
872.325	0.0166537
872.404	0.0166653
872.482	0.0165942
872.560	0.0165298
872.638	0.0165975
872.716	0.0164272
872.794	0.0163485
872.872	0.0162391
872.950	0.0159728
873.029	0.0160882
873.107	0.0161248
873.185	0.0159525
873.263	0.0159865
873.341	0.0159150
873.419	0.0160857
873.497	0.0159717
873.575	0.0161418
873.654	0.0163029
873.732	0.0162569
873.810	0.0162332
873.888	0.0162093
873.966	0.0163852
874.044	0.0164146
874.122	0.0163020
874.200	0.0164505
874.279	0.0164072
874.357	0.0163704
874.435	0.0162422
874.513	0.0163362
874.591	0.0163232
874.669	0.0164374
874.747	0.0162182
874.825	0.0162706
874.904	0.0163464
874.982	0.0162391
875.060	0.0165050
875.138	0.0164420
875.216	0.0164447
875.294	0.0164482
875.372	0.0164795
875.450	0.0166222
875.529	0.0165121
875.607	0.0165655
875.685	0.0166105
875.763	0.0165041
875.841	0.0165512
875.919	0.0166248
875.997	0.0165878
876.075	0.0164037
876.154	0.0163605
876.232	0.0163612
876.310	0.0165089
876.388	0.0165260
876.466	0.0166387
876.544	0.0165212
876.622	0.0164658
876.700	0.0165507
876.779	0.0165826
876.857	0.0166666
876.935	0.0165170
877.013	0.0164698
877.091	0.0164700
877.169	0.0165358
877.247	0.0163586
877.325	0.0163236
877.404	0.0164645
877.482	0.0164156
877.560	0.0162711
877.638	0.0162937
877.716	0.0163566
877.794	0.0163690
877.872	0.0163539
877.950	0.0163352
878.029	0.0164700
878.107	0.0165969
878.185	0.0166743
878.263	0.0167011
878.341	0.0166888
878.419	0.0165763
878.497	0.0166473
878.575	0.0167945
878.654	0.0167479
878.732	0.0166411
878.810	0.0166794
878.888	0.0167294
878.966	0.0167547
879.044	0.0165300
879.122	0.0167323
879.200	0.0167175
879.279	0.0165160
879.357	0.0166142
879.435	0.0165131
879.513	0.0163624
879.591	0.0163491
879.669	0.0163004
879.747	0.0160995
879.825	0.0161018
879.904	0.0161899
879.982	0.0160899
880.060	0.0161456
880.138	0.0160199
880.216	0.0160329
880.294	0.0162414
880.372	0.0161480
880.450	0.0163215
880.529	0.0162749
880.607	0.0164946
880.685	0.0164578
880.763	0.0164703
880.841	0.0164521
880.919	0.0166398
880.997	0.0164892
881.075	0.0165896
881.154	0.0167674
881.232	0.0167763
881.310	0.0166388
881.388	0.0167430
881.466	0.0167285
881.544	0.0167163
881.622	0.0167667
881.700	0.0166616
881.779	0.0166818
881.857	0.0167669
881.935	0.0167959
882.013	0.0166729
882.091	0.0166942
882.169	0.0167737
882.247	0.0168061
882.325	0.0167312
882.404	0.0166684
882.482	0.0166250
882.560	0.0166258
882.638	0.0166277
882.716	0.0165853
882.794	0.0164969
882.872	0.0163982
882.950	0.0162859
883.029	0.0162747
883.107	0.0162376
883.185	0.0161314
883.263	0.0161714
883.341	0.0161422
883.419	0.0161411
883.497	0.0162479
883.575	0.0160805
883.654	0.0161990
883.732	0.0162708
883.810	0.0160913
883.888	0.0161440
883.966	0.0162274
884.044	0.0163361
884.122	0.0165173
884.200	0.0164418
884.279	0.0164735
884.357	0.0165507
884.435	0.0165696
884.513	0.0164957
884.591	0.0166354
884.669	0.0165879
884.747	0.0166220
884.825	0.0165528
884.904	0.0166770
884.982	0.0166427
885.060	0.0167635
885.138	0.0168334
885.216	0.0167674
885.294	0.0166840
885.372	0.0166948
885.450	0.0166389
885.529	0.0168421
885.607	0.0166850
885.685	0.0165874
885.763	0.0166260
885.841	0.0166122
885.919	0.0164542
885.997	0.0164114
886.075	0.0164396
886.154	0.0163773
886.232	0.0161868
886.310	0.0163271
886.388	0.0162447
886.466	0.0161298
886.544	0.0162666
886.622	0.0163004
886.700	0.0162237
886.779	0.0162118
886.857	0.0161420
886.935	0.0161359
887.013	0.0161761
887.091	0.0162840
887.169	0.0164190
887.247	0.0162781
887.325	0.0163832
887.404	0.0164338
887.482	0.0164723
887.560	0.0163162
887.638	0.0165171
887.716	0.0163591
887.794	0.0164050
887.872	0.0164099
887.950	0.0164272
888.029	0.0165124
888.107	0.0165972
888.185	0.0164662
888.263	0.0164854
888.341	0.0165650
888.419	0.0166589
888.497	0.0167982
888.575	0.0166588
888.654	0.0168026
888.732	0.0168840
888.810	0.0168728
888.888	0.0167384
888.966	0.0166579
889.044	0.0166526
889.122	0.0165738
889.200	0.0163000
889.279	0.0164232
889.357	0.0162738
889.435	0.0160583
889.513	0.0161252
889.591	0.0159811
889.669	0.0160306
889.747	0.0160116
889.825	0.0159165
889.904	0.0159499
889.982	0.0158968
890.060	0.0160179
890.138	0.0159919
890.216	0.0159818
890.294	0.0162204
890.372	0.0160830
890.450	0.0163075
890.529	0.0160942
890.607	0.0162454
890.685	0.0164585
890.763	0.0163071
890.841	0.0164835
890.919	0.0165687
890.997	0.0165041
891.075	0.0166318
891.154	0.0167840
891.232	0.0167704
891.310	0.0168507
891.388	0.0167564
891.466	0.0168192
891.544	0.0168353
891.622	0.0168588
891.700	0.0168241
891.779	0.0169878
891.857	0.0169092
891.935	0.0167562
892.013	0.0168771
892.091	0.0167083
892.169	0.0166138
892.247	0.0166652
892.325	0.0165497
892.404	0.0165311
892.482	0.0164146
892.560	0.0163103
892.638	0.0161890
892.716	0.0162216
892.794	0.0162696
892.872	0.0162894
892.950	0.0162045
893.029	0.0161507
893.107	0.0160703
893.185	0.0161589
893.263	0.0161910
893.341	0.0161641
893.419	0.0161491
893.497	0.0161005
893.575	0.0160854
893.654	0.0161342
893.732	0.0161888
893.810	0.0161089
893.888	0.0160073
893.966	0.0161740
894.044	0.0162167
894.122	0.0160992
894.200	0.0163085
894.279	0.0164529
894.357	0.0163232
894.435	0.0164526
894.513	0.0163810
894.591	0.0165216
894.669	0.0166570
894.747	0.0166936
894.825	0.0164931
894.904	0.0166603
894.982	0.0167384
895.060	0.0167853
895.138	0.0167194
895.216	0.0166045
895.294	0.0166450
895.372	0.0164961
895.450	0.0164585
895.529	0.0164404
895.607	0.0164191
895.685	0.0163869
895.763	0.0162000
895.841	0.0162305
895.919	0.0161667
895.997	0.0161645
896.075	0.0161697
896.154	0.0162934
896.232	0.0161990
896.310	0.0162764
896.388	0.0163355
896.466	0.0162139
896.544	0.0162525
896.622	0.0163046
896.700	0.0164011
896.779	0.0163250
896.857	0.0164021
896.935	0.0163719
897.013	0.0163045
897.091	0.0164673
897.169	0.0164918
897.247	0.0166257
897.325	0.0165614
897.404	0.0165688
897.482	0.0166111
897.560	0.0166634
897.638	0.0167113
897.716	0.0165930
897.794	0.0166769
897.872	0.0166570
897.950	0.0165347
898.029	0.0166529
898.107	0.0166678
898.185	0.0165314
898.263	0.0167184
898.341	0.0166280
898.419	0.0167103
898.497	0.0166109
898.575	0.0165539
898.654	0.0164897
898.732	0.0166801
898.810	0.0165681
898.888	0.0164781
898.966	0.0165107
899.044	0.0163974
899.122	0.0162962
899.200	0.0165609
899.279	0.0163272
899.357	0.0163197
899.435	0.0162189
899.513	0.0163748
899.591	0.0163139
899.669	0.0161597
899.747	0.0162852
899.825	0.0163290
899.904	0.0163271
899.982	0.0161517
900.060	0.0161977
900.138	0.0162313
900.216	0.0161678
900.294	0.0163117
900.372	0.0162088
900.450	0.0161401
900.529	0.0161511
900.607	0.0161555
900.685	0.0163587
900.763	0.0163534
900.841	0.0164283
900.919	0.0162711
900.997	0.0163389
901.075	0.0165771
901.154	0.0165608
901.232	0.0165566
901.310	0.0165544
901.388	0.0165201
901.466	0.0166449
901.544	0.0165327
901.622	0.0165423
901.700	0.0166502
901.779	0.0165180
901.857	0.0166254
901.935	0.0165516
902.013	0.0166689
902.091	0.0165273
902.169	0.0165454
902.247	0.0166662
902.325	0.0167002
902.404	0.0165659
902.482	0.0165738
902.560	0.0165204
902.638	0.0165994
902.716	0.0165505
902.794	0.0165266
902.872	0.0164671
902.950	0.0163220
903.029	0.0164867
903.107	0.0164015
903.185	0.0163834
903.263	0.0162626
903.341	0.0162667
903.419	0.0163431
903.497	0.0163411
903.575	0.0163181
903.654	0.0162797
903.732	0.0164844
903.810	0.0165357
903.888	0.0165190
903.966	0.0164081
904.044	0.0163921
904.122	0.0165600
904.200	0.0166440
904.279	0.0165384
904.357	0.0166029
904.435	0.0167076
904.513	0.0165806
904.591	0.0165784
904.669	0.0166897
904.747	0.0165929
904.825	0.0166280
904.904	0.0165675
904.982	0.0166704
905.060	0.0165723
905.138	0.0164814
905.216	0.0165547
905.294	0.0166380
905.372	0.0165023
905.450	0.0165908
905.529	0.0164905
905.607	0.0165026
905.685	0.0164287
905.763	0.0163360
905.841	0.0163060
905.919	0.0161960
905.997	0.0163802
906.075	0.0163126
906.154	0.0162138
906.232	0.0163106
906.310	0.0163132
906.388	0.0163660
906.466	0.0162592
906.544	0.0162965
906.622	0.0162060
906.700	0.0164946
906.779	0.0163890
906.857	0.0165238
906.935	0.0165227
907.013	0.0165231
907.091	0.0164240
907.169	0.0166041
907.247	0.0166330
907.325	0.0165338
907.404	0.0165810
907.482	0.0165903
907.560	0.0164770
907.638	0.0163848
907.716	0.0163774
907.794	0.0165061
907.872	0.0164594
907.950	0.0165600
908.029	0.0164712
908.107	0.0165772
908.185	0.0165270
908.263	0.0166144
908.341	0.0166198
908.419	0.0165425
908.497	0.0166661
908.575	0.0166698
908.654	0.0166422
908.732	0.0165555
908.810	0.0164877
908.888	0.0164228
908.966	0.0164923
909.044	0.0163435
909.122	0.0162788
909.200	0.0162665
909.279	0.0161951
909.357	0.0161257
909.435	0.0161503
909.513	0.0159798
909.591	0.0160419
909.669	0.0161663
909.747	0.0161414
909.825	0.0161409
909.904	0.0161369
909.982	0.0160779
910.060	0.0160802
910.138	0.0160662
910.216	0.0161817
910.294	0.0162254
910.372	0.0162976
910.450	0.0162702
910.529	0.0163860
910.607	0.0162595
910.685	0.0163638
910.763	0.0165080
910.841	0.0166618
910.919	0.0165643
910.997	0.0165101
911.075	0.0166653
911.154	0.0166243
911.232	0.0165831
911.310	0.0166322
911.388	0.0166896
911.466	0.0166425
911.544	0.0167611
911.622	0.0166895
911.700	0.0166561
911.779	0.0167522
911.857	0.0167557
911.935	0.0164725
912.013	0.0166945
912.091	0.0166425
912.169	0.0167577
912.247	0.0167515
912.325	0.0166568
912.404	0.0166267
912.482	0.0166049
912.560	0.0167941
912.638	0.0165869
912.716	0.0165464
912.794	0.0166419
912.872	0.0166693
912.950	0.0167071
913.029	0.0166824
913.107	0.0165687
913.185	0.0164770
913.263	0.0166544
913.341	0.0165530
913.419	0.0164882
913.497	0.0164932
913.575	0.0166208
913.654	0.0163966
913.732	0.0164858
913.810	0.0165018
913.888	0.0163099
913.966	0.0164217
914.044	0.0163852
914.122	0.0164045
914.200	0.0163608
914.279	0.0163263
914.357	0.0162852
914.435	0.0163469
914.513	0.0164279
914.591	0.0163266
914.669	0.0162945
914.747	0.0162598
914.825	0.0162969
914.904	0.0161923
914.982	0.0162440
915.060	0.0163609
915.138	0.0162718
915.216	0.0162792
915.294	0.0162624
915.372	0.0162936
915.450	0.0161400
915.529	0.0161531
915.607	0.0162351
915.685	0.0162847
915.763	0.0162114
915.841	0.0162663
915.919	0.0160818
915.997	0.0161006
916.075	0.0161235
916.154	0.0159803
916.232	0.0161632
916.310	0.0160443
916.388	0.0161202
916.466	0.0160817
916.544	0.0161473
916.622	0.0162877
916.700	0.0161433
916.779	0.0161789
916.857	0.0162428
916.935	0.0165385
917.013	0.0165063
917.091	0.0165144
917.169	0.0167128
917.247	0.0165630
917.325	0.0166710
917.404	0.0167264
917.482	0.0166956
917.560	0.0166944
917.638	0.0167370
917.716	0.0167380
917.794	0.0166344
917.872	0.0166515
917.950	0.0168690
918.029	0.0167789
918.107	0.0166125
918.185	0.0166255
918.263	0.0166243
918.341	0.0166412
918.419	0.0166151
918.497	0.0165975
918.575	0.0166457
918.654	0.0165960
918.732	0.0166537
918.810	0.0165530
918.888	0.0166058
918.966	0.0167289
919.044	0.0165750
919.122	0.0165108
919.200	0.0163889
919.279	0.0164663
919.357	0.0165685
919.435	0.0166151
919.513	0.0164487
919.591	0.0165749
919.669	0.0165372
919.747	0.0164138
919.825	0.0163573
919.904	0.0164033
