06/03/2022	14:11:35	Ver.	4.1	UNKNOWN
Optical Delay	599.981738	Delta X		0.078125	Sweeps	1	Scan Rate	0/0
Coordinates	Axis 1	NaN	Axis 2	NaN	Axis 3	NaN	Axis 4	NaN	Axis 5	NaN	Axis 6	0.000000
TX Power	0.000000	RX Power	0.000000

599.982	0.0170008
600.060	0.0169321
600.138	0.0169535
600.216	0.0169145
600.294	0.0168475
600.372	0.0169955
600.450	0.0170715
600.529	0.0169286
600.607	0.0169350
600.685	0.0169141
600.763	0.0170129
600.841	0.0170475
600.919	0.0169770
600.997	0.0170777
601.075	0.0170255
601.154	0.0170133
601.232	0.0169775
601.310	0.0169965
601.388	0.0169720
601.466	0.0170036
601.544	0.0169434
601.622	0.0170107
601.700	0.0169322
601.779	0.0170184
601.857	0.0170356
601.935	0.0169669
602.013	0.0170107
602.091	0.0169598
602.169	0.0169627
602.247	0.0170058
602.325	0.0170724
602.404	0.0169147
602.482	0.0170271
602.560	0.0169957
602.638	0.0169031
602.716	0.0169891
602.794	0.0169507
602.872	0.0169523
602.950	0.0169904
603.029	0.0170140
603.107	0.0170486
603.185	0.0170193
603.263	0.0169925
603.341	0.0169292
603.419	0.0170114
603.497	0.0169412
603.575	0.0169263
603.654	0.0170300
603.732	0.0169469
603.810	0.0168362
603.888	0.0168798
603.966	0.0169915
604.044	0.0169091
604.122	0.0169637
604.200	0.0170551
604.279	0.0169411
604.357	0.0168913
604.435	0.0168022
604.513	0.0169498
604.591	0.0171011
604.669	0.0170712
604.747	0.0168349
604.825	0.0169306
604.904	0.0170144
604.982	0.0170525
605.060	0.0168893
605.138	0.0170177
605.216	0.0169820
605.294	0.0168478
605.372	0.0169688
605.450	0.0169306
605.529	0.0170029
605.607	0.0170470
605.685	0.0170380
605.763	0.0169616
605.841	0.0169637
605.919	0.0170470
605.997	0.0169764
606.075	0.0170208
606.154	0.0169282
606.232	0.0170388
606.310	0.0169396
606.388	0.0170502
606.466	0.0169460
606.544	0.0170344
606.622	0.0168508
606.700	0.0169827
606.779	0.0168491
606.857	0.0169158
606.935	0.0169513
607.013	0.0167362
607.091	0.0168757
607.169	0.0169938
607.247	0.0170376
607.325	0.0171141
607.404	0.0169337
607.482	0.0169981
607.560	0.0169563
607.638	0.0169356
607.716	0.0170274
607.794	0.0171101
607.872	0.0170707
607.950	0.0170119
608.029	0.0170108
608.107	0.0170422
608.185	0.0170079
608.263	0.0170023
608.341	0.0169608
608.419	0.0168733
608.497	0.0169792
608.575	0.0171230
608.654	0.0169477
608.732	0.0169556
608.810	0.0169825
608.888	0.0170277
608.966	0.0170248
609.044	0.0168597
609.122	0.0171296
609.200	0.0170072
609.279	0.0169511
609.357	0.0170157
609.435	0.0170489
609.513	0.0170876
609.591	0.0170459
609.669	0.0170634
609.747	0.0171279
609.825	0.0171738
609.904	0.0169740
609.982	0.0169251
610.060	0.0170839
610.138	0.0171426
610.216	0.0170863
610.294	0.0169723
610.372	0.0170206
610.450	0.0170274
610.529	0.0170377
610.607	0.0168890
610.685	0.0170567
610.763	0.0169394
610.841	0.0169895
610.919	0.0170934
610.997	0.0170567
611.075	0.0170099
611.154	0.0170404
611.232	0.0170757
611.310	0.0169489
611.388	0.0169597
611.466	0.0169813
611.544	0.0169994
611.622	0.0170451
611.700	0.0170050
611.779	0.0170907
611.857	0.0171265
611.935	0.0171427
612.013	0.0170751
612.091	0.0169254
612.169	0.0171763
612.247	0.0170247
612.325	0.0170739
612.404	0.0170003
612.482	0.0170132
612.560	0.0171650
612.638	0.0170741
612.716	0.0170141
612.794	0.0170148
612.872	0.0169461
612.950	0.0169871
613.029	0.0169917
613.107	0.0168997
613.185	0.0170421
613.263	0.0169810
613.341	0.0169344
613.419	0.0170306
613.497	0.0170385
613.575	0.0170392
613.654	0.0169929
613.732	0.0170718
613.810	0.0170782
613.888	0.0170225
613.966	0.0169811
614.044	0.0171165
614.122	0.0170088
614.200	0.0169933
614.279	0.0170656
614.357	0.0170404
614.435	0.0171996
614.513	0.0171193
614.591	0.0170582
614.669	0.0170332
614.747	0.0169988
614.825	0.0170423
614.904	0.0170143
614.982	0.0171296
615.060	0.0171363
615.138	0.0171554
615.216	0.0170818
615.294	0.0170361
615.372	0.0170277
615.450	0.0170161
615.529	0.0170072
615.607	0.0170496
615.685	0.0169713
615.763	0.0170367
615.841	0.0170945
615.919	0.0170141
615.997	0.0170138
616.075	0.0169679
616.154	0.0169609
616.232	0.0170793
616.310	0.0170766
616.388	0.0169905
616.466	0.0171208
616.544	0.0170713
616.622	0.0170751
616.700	0.0171150
616.779	0.0169922
616.857	0.0170331
616.935	0.0171848
617.013	0.0169328
617.091	0.0169899
617.169	0.0169432
617.247	0.0171203
617.325	0.0171654
617.404	0.0170649
617.482	0.0170123
617.560	0.0169444
617.638	0.0170611
617.716	0.0169873
617.794	0.0170094
617.872	0.0170744
617.950	0.0170503
618.029	0.0171662
618.107	0.0170755
618.185	0.0170199
618.263	0.0170912
618.341	0.0170406
618.419	0.0169719
618.497	0.0170249
618.575	0.0169966
618.654	0.0169451
618.732	0.0170878
618.810	0.0169417
618.888	0.0171054
618.966	0.0170620
619.044	0.0169930
619.122	0.0169393
619.200	0.0170626
619.279	0.0169800
619.357	0.0169407
619.435	0.0169514
619.513	0.0170259
619.591	0.0170374
619.669	0.0170950
619.747	0.0170688
619.825	0.0170077
619.904	0.0170633
619.982	0.0169094
620.060	0.0169327
620.138	0.0172103
620.216	0.0169485
620.294	0.0171022
620.372	0.0170913
620.450	0.0170779
620.529	0.0170199
620.607	0.0169842
620.685	0.0170890
620.763	0.0170437
620.841	0.0170254
620.919	0.0169592
620.997	0.0170656
621.075	0.0170438
621.154	0.0171326
621.232	0.0170945
621.310	0.0170280
621.388	0.0169942
621.466	0.0171082
621.544	0.0170206
621.622	0.0169947
621.700	0.0170325
621.779	0.0169664
621.857	0.0170032
621.935	0.0170256
622.013	0.0170229
622.091	0.0169693
622.169	0.0170800
622.247	0.0169539
622.325	0.0171452
622.404	0.0171053
622.482	0.0169630
622.560	0.0169326
622.638	0.0169846
622.716	0.0169731
622.794	0.0171120
622.872	0.0170296
622.950	0.0169946
623.029	0.0171508
623.107	0.0170140
623.185	0.0169104
623.263	0.0170119
623.341	0.0170901
623.419	0.0170736
623.497	0.0169421
623.575	0.0170753
623.654	0.0169914
623.732	0.0168681
623.810	0.0171371
623.888	0.0170438
623.966	0.0171003
624.044	0.0169926
624.122	0.0170553
624.200	0.0170554
624.279	0.0170816
624.357	0.0171355
624.435	0.0169946
624.513	0.0170466
624.591	0.0169699
624.669	0.0170236
624.747	0.0171637
624.825	0.0169750
624.904	0.0171185
624.982	0.0171056
625.060	0.0170946
625.138	0.0170456
625.216	0.0170121
625.294	0.0170438
625.372	0.0171620
625.450	0.0170346
625.529	0.0170241
625.607	0.0171008
625.685	0.0170045
625.763	0.0169473
625.841	0.0169008
625.919	0.0169316
625.997	0.0170792
626.075	0.0169539
626.154	0.0170937
626.232	0.0170430
626.310	0.0169089
626.388	0.0168900
626.466	0.0169974
626.544	0.0171099
626.622	0.0169267
626.700	0.0169830
626.779	0.0171484
626.857	0.0170110
626.935	0.0169263
627.013	0.0170925
627.091	0.0169574
627.169	0.0169213
627.247	0.0169733
627.325	0.0170015
627.404	0.0171836
627.482	0.0170622
627.560	0.0169308
627.638	0.0170303
627.716	0.0170982
627.794	0.0168951
627.872	0.0168826
627.950	0.0170210
628.029	0.0170827
628.107	0.0170235
628.185	0.0169186
628.263	0.0170584
628.341	0.0169283
628.419	0.0169530
628.497	0.0170210
628.575	0.0169621
628.654	0.0168156
628.732	0.0170252
628.810	0.0170779
628.888	0.0171246
628.966	0.0169982
629.044	0.0169370
629.122	0.0170405
629.200	0.0169373
629.279	0.0169091
629.357	0.0170288
629.435	0.0170813
629.513	0.0169932
629.591	0.0169296
629.669	0.0169449
629.747	0.0169417
629.825	0.0168532
629.904	0.0170582
629.982	0.0171912
630.060	0.0169550
630.138	0.0170715
630.216	0.0169740
630.294	0.0170571
630.372	0.0169434
630.450	0.0169853
630.529	0.0169397
630.607	0.0170020
630.685	0.0171575
630.763	0.0171133
630.841	0.0169994
630.919	0.0169780
630.997	0.0171081
631.075	0.0170964
631.154	0.0170844
631.232	0.0170132
631.310	0.0170778
631.388	0.0170361
631.466	0.0169656
631.544	0.0170218
631.622	0.0169813
631.700	0.0171171
631.779	0.0169564
631.857	0.0169192
631.935	0.0169058
632.013	0.0170419
632.091	0.0168950
632.169	0.0169701
632.247	0.0171138
632.325	0.0171229
632.404	0.0170611
632.482	0.0169833
632.560	0.0169373
632.638	0.0169453
632.716	0.0170750
632.794	0.0169569
632.872	0.0170554
632.950	0.0171310
633.029	0.0170232
633.107	0.0170551
633.185	0.0170169
633.263	0.0168158
633.341	0.0171442
633.419	0.0170321
633.497	0.0171154
633.575	0.0170088
633.654	0.0170628
633.732	0.0169748
633.810	0.0170824
633.888	0.0169522
633.966	0.0169638
634.044	0.0170003
634.122	0.0170579
634.200	0.0170015
634.279	0.0170053
634.357	0.0170167
634.435	0.0170834
634.513	0.0169855
634.591	0.0169718
634.669	0.0169803
634.747	0.0170564
634.825	0.0170886
634.904	0.0170248
634.982	0.0170039
635.060	0.0168755
635.138	0.0170008
635.216	0.0170390
635.294	0.0169701
635.372	0.0169187
635.450	0.0171185
635.529	0.0169194
635.607	0.0168439
635.685	0.0170679
635.763	0.0170445
635.841	0.0170657
635.919	0.0170572
635.997	0.0169749
636.075	0.0170380
636.154	0.0170332
636.232	0.0170298
636.310	0.0171144
636.388	0.0169623
636.466	0.0170425
636.544	0.0169557
636.622	0.0170294
636.700	0.0171292
636.779	0.0170242
636.857	0.0170107
636.935	0.0170913
637.013	0.0170465
637.091	0.0169825
637.169	0.0170221
637.247	0.0169694
637.325	0.0169608
637.404	0.0169961
637.482	0.0170154
637.560	0.0172430
637.638	0.0172229
637.716	0.0171233
637.794	0.0171835
637.872	0.0171595
637.950	0.0171114
638.029	0.0171095
638.107	0.0170535
638.185	0.0169846
638.263	0.0169438
638.341	0.0170267
638.419	0.0169888
638.497	0.0167937
638.575	0.0167431
638.654	0.0166998
638.732	0.0167167
638.810	0.0166940
638.888	0.0167223
638.966	0.0169023
639.044	0.0169519
639.122	0.0170962
639.200	0.0173029
639.279	0.0172383
639.357	0.0174700
639.435	0.0175327
639.513	0.0173986
639.591	0.0173360
639.669	0.0173817
639.747	0.0171814
639.825	0.0171074
639.904	0.0167811
639.982	0.0166132
640.060	0.0163731
640.138	0.0164381
640.216	0.0162415
640.294	0.0164230
640.372	0.0166222
640.450	0.0166875
640.529	0.0169083
640.607	0.0171475
640.685	0.0175515
640.763	0.0176998
640.841	0.0177299
640.919	0.0179079
640.997	0.0178334
641.075	0.0177344
641.154	0.0177222
641.232	0.0174183
641.310	0.0172439
641.388	0.0170583
641.466	0.0168279
641.544	0.0165224
641.622	0.0163605
641.700	0.0163811
641.779	0.0161708
641.857	0.0160767
641.935	0.0160747
642.013	0.0161628
642.091	0.0164175
642.169	0.0166660
642.247	0.0167728
642.325	0.0169824
642.404	0.0174208
642.482	0.0176014
642.560	0.0177888
642.638	0.0177481
642.716	0.0176593
642.794	0.0175507
642.872	0.0173788
642.950	0.0171939
643.029	0.0169463
643.107	0.0166611
643.185	0.0166050
643.263	0.0165628
643.341	0.0164223
643.419	0.0164915
643.497	0.0165604
643.575	0.0164709
643.654	0.0167508
643.732	0.0169231
643.810	0.0171033
643.888	0.0170927
643.966	0.0171526
644.044	0.0171931
644.122	0.0173133
644.200	0.0172314
644.279	0.0173207
644.357	0.0171579
644.435	0.0171186
644.513	0.0170111
644.591	0.0171301
644.669	0.0172652
644.747	0.0171265
644.825	0.0171828
644.904	0.0171554
644.982	0.0173104
645.060	0.0172536
645.138	0.0173401
645.216	0.0174870
645.294	0.0172952
645.372	0.0171443
645.450	0.0169696
645.529	0.0169987
645.607	0.0168761
645.685	0.0166455
645.763	0.0167142
645.841	0.0165620
645.919	0.0165553
645.997	0.0164911
646.075	0.0166098
646.154	0.0165868
646.232	0.0166471
646.310	0.0169534
646.388	0.0171025
646.466	0.0171699
646.544	0.0174672
646.622	0.0174890
646.700	0.0175095
646.779	0.0174413
646.857	0.0175446
646.935	0.0173787
647.013	0.0172977
647.091	0.0170665
647.169	0.0171545
647.247	0.0168686
647.325	0.0168732
647.404	0.0168710
647.482	0.0167891
647.560	0.0166965
647.638	0.0167039
647.716	0.0167139
647.794	0.0167612
647.872	0.0167480
647.950	0.0168481
648.029	0.0168531
648.107	0.0169614
648.185	0.0170576
648.263	0.0171037
648.341	0.0171400
648.419	0.0173694
648.497	0.0173426
648.575	0.0173499
648.654	0.0173631
648.732	0.0174231
648.810	0.0174887
648.888	0.0173959
648.966	0.0172271
649.044	0.0172121
649.122	0.0170600
649.200	0.0169500
649.279	0.0168756
649.357	0.0167960
649.435	0.0167008
649.513	0.0167454
649.591	0.0165856
649.669	0.0169267
649.747	0.0169341
649.825	0.0169755
649.904	0.0170963
649.982	0.0172427
650.060	0.0172810
650.138	0.0171786
650.216	0.0172620
650.294	0.0172889
650.372	0.0170762
650.450	0.0171519
650.529	0.0171949
650.607	0.0170473
650.685	0.0171029
650.763	0.0169983
650.841	0.0170342
650.919	0.0171691
650.997	0.0171391
651.075	0.0170911
651.154	0.0172572
651.232	0.0173028
651.310	0.0173581
651.388	0.0173822
651.466	0.0171518
651.544	0.0171671
651.622	0.0169735
651.700	0.0168466
651.779	0.0167911
651.857	0.0166972
651.935	0.0164978
652.013	0.0163956
652.091	0.0165410
652.169	0.0165521
652.247	0.0166295
652.325	0.0168429
652.404	0.0169926
652.482	0.0171406
652.560	0.0172151
652.638	0.0172450
652.716	0.0172921
652.794	0.0175693
652.872	0.0176692
652.950	0.0174615
653.029	0.0174704
653.107	0.0173792
653.185	0.0174597
653.263	0.0171929
653.341	0.0171242
653.419	0.0171149
653.497	0.0167655
653.575	0.0166719
653.654	0.0167272
653.732	0.0165445
653.810	0.0165726
653.888	0.0165843
653.966	0.0166518
654.044	0.0168690
654.122	0.0170707
654.200	0.0169711
654.279	0.0170295
654.357	0.0173368
654.435	0.0175202
654.513	0.0175351
654.591	0.0175696
654.669	0.0176135
654.747	0.0174651
654.825	0.0172910
654.904	0.0172994
654.982	0.0171919
655.060	0.0171600
655.138	0.0170413
655.216	0.0169217
655.294	0.0167281
655.372	0.0167750
655.450	0.0167068
655.529	0.0167672
655.607	0.0166565
655.685	0.0167361
655.763	0.0168949
655.841	0.0169021
655.919	0.0170688
655.997	0.0169205
656.075	0.0168871
656.154	0.0169218
656.232	0.0173394
656.310	0.0171394
656.388	0.0171320
656.466	0.0170419
656.544	0.0171235
656.622	0.0171302
656.700	0.0171548
656.779	0.0172938
656.857	0.0170679
656.935	0.0170936
657.013	0.0169516
657.091	0.0168452
657.169	0.0167750
657.247	0.0167641
657.325	0.0167581
657.404	0.0166395
657.482	0.0165375
657.560	0.0167085
657.638	0.0166403
657.716	0.0166916
657.794	0.0166771
657.872	0.0168793
657.950	0.0169647
658.029	0.0171661
658.107	0.0173372
658.185	0.0173003
658.263	0.0174699
658.341	0.0175340
658.419	0.0175662
658.497	0.0177160
658.575	0.0175494
658.654	0.0175591
658.732	0.0176014
658.810	0.0174136
658.888	0.0172027
658.966	0.0169453
659.044	0.0171101
659.122	0.0170199
659.200	0.0168952
659.279	0.0168331
659.357	0.0169866
659.435	0.0168250
659.513	0.0168637
659.591	0.0167412
659.669	0.0166634
659.747	0.0166402
659.825	0.0166684
659.904	0.0165330
659.982	0.0163501
660.060	0.0165192
660.138	0.0165265
660.216	0.0164603
660.294	0.0165709
660.372	0.0165816
660.450	0.0166801
660.529	0.0169057
660.607	0.0169109
660.685	0.0168966
660.763	0.0170251
660.841	0.0172243
660.919	0.0170297
660.997	0.0172325
661.075	0.0173399
661.154	0.0173723
661.232	0.0172559
661.310	0.0172662
661.388	0.0174048
661.466	0.0175668
661.544	0.0176031
661.622	0.0175050
661.700	0.0175096
661.779	0.0175803
661.857	0.0174789
661.935	0.0175912
662.013	0.0174437
662.091	0.0175524
662.169	0.0171865
662.247	0.0173208
662.325	0.0172038
662.404	0.0172546
662.482	0.0171057
662.560	0.0170265
662.638	0.0169038
662.716	0.0169046
662.794	0.0169423
662.872	0.0169981
662.950	0.0168306
663.029	0.0168071
663.107	0.0168941
663.185	0.0168956
663.263	0.0170520
663.341	0.0169833
663.419	0.0168861
663.497	0.0168574
663.575	0.0168288
663.654	0.0166209
663.732	0.0165100
663.810	0.0165168
663.888	0.0164819
663.966	0.0163834
664.044	0.0162514
664.122	0.0163116
664.200	0.0163732
664.279	0.0164417
664.357	0.0164679
664.435	0.0166163
664.513	0.0167081
664.591	0.0168594
664.669	0.0170433
664.747	0.0171134
664.825	0.0171210
664.904	0.0173237
664.982	0.0172290
665.060	0.0171086
665.138	0.0171155
665.216	0.0171725
665.294	0.0170287
665.372	0.0169946
665.450	0.0169576
665.529	0.0168047
665.607	0.0168534
665.685	0.0168158
665.763	0.0168663
665.841	0.0168580
665.919	0.0170773
665.997	0.0171355
666.075	0.0173222
666.154	0.0173621
666.232	0.0175883
666.310	0.0177040
666.388	0.0178056
666.466	0.0180388
666.544	0.0180437
666.622	0.0181459
666.700	0.0182530
666.779	0.0182629
666.857	0.0179725
666.935	0.0180520
667.013	0.0178613
667.091	0.0177496
667.169	0.0176696
667.247	0.0175228
667.325	0.0172234
667.404	0.0170120
667.482	0.0167885
667.560	0.0165237
667.638	0.0164140
667.716	0.0162659
667.794	0.0160201
667.872	0.0158424
667.950	0.0158420
668.029	0.0156718
668.107	0.0155512
668.185	0.0156516
668.263	0.0157851
668.341	0.0157358
668.419	0.0157516
668.497	0.0159783
668.575	0.0163775
668.654	0.0163931
668.732	0.0164129
668.810	0.0167016
668.888	0.0169587
668.966	0.0171656
669.044	0.0173293
669.122	0.0173696
669.200	0.0175844
669.279	0.0178220
669.357	0.0178995
669.435	0.0179861
669.513	0.0180183
669.591	0.0180441
669.669	0.0179179
669.747	0.0177792
669.825	0.0178023
669.904	0.0176438
669.982	0.0175794
670.060	0.0175230
670.138	0.0175346
670.216	0.0173387
670.294	0.0172467
670.372	0.0169714
670.450	0.0171243
670.529	0.0171175
670.607	0.0169764
670.685	0.0168771
670.763	0.0166974
670.841	0.0168478
670.919	0.0166972
670.997	0.0166554
671.075	0.0166263
671.154	0.0165458
671.232	0.0164416
671.310	0.0164993
671.388	0.0164779
671.466	0.0165352
671.544	0.0166676
671.622	0.0167275
671.700	0.0168211
671.779	0.0169815
671.857	0.0171513
671.935	0.0173362
672.013	0.0175175
672.091	0.0177135
672.169	0.0176820
672.247	0.0177741
672.325	0.0176654
672.404	0.0177350
672.482	0.0177294
672.560	0.0176266
672.638	0.0177895
672.716	0.0176230
672.794	0.0175831
672.872	0.0176315
672.950	0.0176162
673.029	0.0174464
673.107	0.0174520
673.185	0.0173373
673.263	0.0172794
673.341	0.0173203
673.419	0.0169780
673.497	0.0168902
673.575	0.0167830
673.654	0.0165128
673.732	0.0162152
673.810	0.0160745
673.888	0.0158430
673.966	0.0155277
674.044	0.0156661
674.122	0.0154692
674.200	0.0156060
674.279	0.0157021
674.357	0.0157118
674.435	0.0159622
674.513	0.0162032
674.591	0.0162841
674.669	0.0164122
674.747	0.0167480
674.825	0.0168371
674.904	0.0171552
674.982	0.0175210
675.060	0.0178230
675.138	0.0180320
675.216	0.0181901
675.294	0.0184084
675.372	0.0187012
675.450	0.0186755
675.529	0.0187327
675.607	0.0187793
675.685	0.0187618
675.763	0.0183985
675.841	0.0182116
675.919	0.0177180
675.997	0.0175405
676.075	0.0172247
676.154	0.0166904
676.232	0.0165291
676.310	0.0161616
676.388	0.0158852
676.466	0.0157349
676.544	0.0156213
676.622	0.0155634
676.700	0.0156043
676.779	0.0157250
676.857	0.0159800
676.935	0.0161363
677.013	0.0162642
677.091	0.0167454
677.169	0.0170567
677.247	0.0171192
677.325	0.0172999
677.404	0.0175878
677.482	0.0177448
677.560	0.0178529
677.638	0.0180322
677.716	0.0178729
677.794	0.0177677
677.872	0.0176936
677.950	0.0174744
678.029	0.0172126
678.107	0.0170898
678.185	0.0169978
678.263	0.0166363
678.341	0.0165318
678.419	0.0164906
678.497	0.0165903
678.575	0.0166240
678.654	0.0165563
678.732	0.0165169
678.810	0.0167055
678.888	0.0168787
678.966	0.0168535
679.044	0.0168872
679.122	0.0168918
679.200	0.0168893
679.279	0.0170001
679.357	0.0170950
679.435	0.0170760
679.513	0.0173266
679.591	0.0173506
679.669	0.0174709
679.747	0.0176396
679.825	0.0176813
679.904	0.0176909
679.982	0.0178837
680.060	0.0177940
680.138	0.0177446
680.216	0.0178188
680.294	0.0176342
680.372	0.0174554
680.450	0.0173280
680.529	0.0173305
680.607	0.0173190
680.685	0.0173717
680.763	0.0174483
680.841	0.0174513
680.919	0.0175525
680.997	0.0176157
681.075	0.0174674
681.154	0.0172846
681.232	0.0172812
681.310	0.0171576
681.388	0.0168276
681.466	0.0166003
681.544	0.0163049
681.622	0.0159584
681.700	0.0157896
681.779	0.0154123
681.857	0.0152296
681.935	0.0151314
682.013	0.0149073
682.091	0.0149757
682.169	0.0151509
682.247	0.0152503
682.325	0.0155833
682.404	0.0158272
682.482	0.0161756
682.560	0.0164796
682.638	0.0168653
682.716	0.0169659
682.794	0.0170884
682.872	0.0171094
682.950	0.0170242
683.029	0.0170284
683.107	0.0166127
683.185	0.0164057
683.263	0.0163675
683.341	0.0161811
683.419	0.0161553
683.497	0.0163209
683.575	0.0164344
683.654	0.0166836
683.732	0.0172396
683.810	0.0177724
683.888	0.0183138
683.966	0.0186945
684.044	0.0193474
684.122	0.0195752
684.200	0.0198166
684.279	0.0200146
684.357	0.0198628
684.435	0.0195913
684.513	0.0191396
684.591	0.0188258
684.669	0.0184306
684.747	0.0179474
684.825	0.0176838
684.904	0.0173043
684.982	0.0172427
685.060	0.0167656
685.138	0.0167424
685.216	0.0168835
685.294	0.0167236
685.372	0.0166656
685.450	0.0165744
685.529	0.0165630
685.607	0.0164975
685.685	0.0164138
685.763	0.0163794
685.841	0.0162173
685.919	0.0162970
685.997	0.0162709
686.075	0.0162989
686.154	0.0163609
686.232	0.0167481
686.310	0.0168179
686.388	0.0170720
686.466	0.0172056
686.544	0.0174320
686.622	0.0176010
686.700	0.0178452
686.779	0.0179249
686.857	0.0181927
686.935	0.0182288
687.013	0.0181691
687.091	0.0182738
687.169	0.0182969
687.247	0.0181516
687.325	0.0179927
687.404	0.0178431
687.482	0.0174389
687.560	0.0171680
687.638	0.0168769
687.716	0.0165211
687.794	0.0161192
687.872	0.0157748
687.950	0.0155897
688.029	0.0151270
688.107	0.0149933
688.185	0.0146206
688.263	0.0143567
688.341	0.0142146
688.419	0.0141045
688.497	0.0139921
688.575	0.0139995
688.654	0.0140292
688.732	0.0141478
688.810	0.0142669
688.888	0.0145509
688.966	0.0148487
689.044	0.0153058
689.122	0.0158323
689.200	0.0162482
689.279	0.0165263
689.357	0.0169208
689.435	0.0172127
689.513	0.0176408
689.591	0.0178850
689.669	0.0179124
689.747	0.0180917
689.825	0.0183626
689.904	0.0184415
689.982	0.0185996
690.060	0.0186395
690.138	0.0186832
690.216	0.0189550
690.294	0.0190672
690.372	0.0192619
690.450	0.0193829
690.529	0.0195805
690.607	0.0196848
690.685	0.0197733
690.763	0.0196683
690.841	0.0198868
690.919	0.0197215
690.997	0.0193765
691.075	0.0192028
691.154	0.0189974
691.232	0.0187049
691.310	0.0182944
691.388	0.0180601
691.466	0.0175512
691.544	0.0171588
691.622	0.0169675
691.700	0.0165535
691.779	0.0162901
691.857	0.0161239
691.935	0.0159124
692.013	0.0155930
692.091	0.0155762
692.169	0.0155782
692.247	0.0153433
692.325	0.0155263
692.404	0.0155894
692.482	0.0157307
692.560	0.0161528
692.638	0.0164832
692.716	0.0168524
692.794	0.0171581
692.872	0.0177001
692.950	0.0181199
693.029	0.0185629
693.107	0.0187580
693.185	0.0187341
693.263	0.0189494
693.341	0.0189545
693.419	0.0190969
693.497	0.0190005
693.575	0.0189224
693.654	0.0186778
693.732	0.0186092
693.810	0.0183289
693.888	0.0178907
693.966	0.0173016
694.044	0.0167686
694.122	0.0163716
694.200	0.0159167
694.279	0.0151972
694.357	0.0146199
694.435	0.0141798
694.513	0.0136159
694.591	0.0133597
694.669	0.0127913
694.747	0.0126037
694.825	0.0126353
694.904	0.0124752
694.982	0.0124329
695.060	0.0123615
695.138	0.0123097
695.216	0.0125053
695.294	0.0127323
695.372	0.0130730
695.450	0.0135528
695.529	0.0138709
695.607	0.0144248
695.685	0.0150363
695.763	0.0156922
695.841	0.0162680
695.919	0.0169090
695.997	0.0172887
696.075	0.0180751
696.154	0.0185533
696.232	0.0191253
696.310	0.0196678
696.388	0.0200122
696.466	0.0204836
696.544	0.0209502
696.622	0.0212174
696.700	0.0215759
696.779	0.0219583
696.857	0.0223288
696.935	0.0226662
697.013	0.0228261
697.091	0.0231084
697.169	0.0234268
697.247	0.0233996
697.325	0.0235258
697.404	0.0233693
697.482	0.0231858
697.560	0.0226800
697.638	0.0220147
697.716	0.0211776
697.794	0.0201598
697.872	0.0189332
697.950	0.0176083
698.029	0.0163288
698.107	0.0149903
698.185	0.0137401
698.263	0.0125613
698.341	0.0116004
698.419	0.0106805
698.497	0.0101007
698.575	0.00942413
698.654	0.00931648
698.732	0.00936310
698.810	0.00945633
698.888	0.0100558
698.966	0.0105906
699.044	0.0115345
699.122	0.0125052
699.200	0.0134404
699.279	0.0147243
699.357	0.0160313
699.435	0.0173145
699.513	0.0186114
699.591	0.0195790
699.669	0.0206360
699.747	0.0215923
699.825	0.0223621
699.904	0.0230345
699.982	0.0235573
700.060	0.0240244
700.138	0.0241773
700.216	0.0242603
700.294	0.0241834
700.372	0.0237678
700.450	0.0231104
700.529	0.0223969
700.607	0.0213963
700.685	0.0201704
700.763	0.0188904
700.841	0.0175562
700.919	0.0162752
700.997	0.0148139
701.075	0.0133492
701.154	0.0123422
701.232	0.0113876
701.310	0.0103714
701.388	0.00979828
701.466	0.00921097
701.544	0.00905403
701.622	0.00884277
701.700	0.00923286
701.779	0.00939560
701.857	0.00978653
701.935	0.0102686
702.013	0.0107463
702.091	0.0115472
702.169	0.0121092
702.247	0.0126810
702.325	0.0135236
702.404	0.0141413
702.482	0.0148864
702.560	0.0154578
702.638	0.0161617
702.716	0.0168805
702.794	0.0174171
702.872	0.0180264
702.950	0.0186864
703.029	0.0194632
703.107	0.0201684
703.185	0.0209511
703.263	0.0217635
703.341	0.0223907
703.419	0.0232590
703.497	0.0237523
703.575	0.0238859
703.654	0.0242029
703.732	0.0241479
703.810	0.0240659
703.888	0.0237715
703.966	0.0231412
704.044	0.0224664
704.122	0.0214575
704.200	0.0204852
704.279	0.0196639
704.357	0.0187436
704.435	0.0176871
704.513	0.0168895
704.591	0.0160921
704.669	0.0154021
704.747	0.0148343
704.825	0.0144430
704.904	0.0142853
704.982	0.0143761
705.060	0.0143609
705.138	0.0145999
705.216	0.0149916
705.294	0.0153323
705.372	0.0158757
705.450	0.0163785
705.529	0.0167769
705.607	0.0172927
705.685	0.0176604
705.763	0.0181242
705.841	0.0185485
705.919	0.0187339
705.997	0.0190457
706.075	0.0193185
706.154	0.0193666
706.232	0.0194911
706.310	0.0195935
706.388	0.0195749
706.466	0.0194735
706.544	0.0193090
706.622	0.0191090
706.700	0.0187774
706.779	0.0182986
706.857	0.0178201
706.935	0.0173667
707.013	0.0168041
707.091	0.0162522
707.169	0.0155627
707.247	0.0151455
707.325	0.0143610
707.404	0.0137090
707.482	0.0132889
707.560	0.0127863
707.638	0.0123927
707.716	0.0118633
707.794	0.0114937
707.872	0.0113224
707.950	0.0112711
708.029	0.0111637
708.107	0.0110860
708.185	0.0113131
708.263	0.0114706
708.341	0.0115456
708.419	0.0118909
708.497	0.0122677
708.575	0.0126282
708.654	0.0129657
708.732	0.0136063
708.810	0.0139596
708.888	0.0144541
708.966	0.0149995
709.044	0.0157603
709.122	0.0164745
709.200	0.0169617
709.279	0.0176932
709.357	0.0183112
709.435	0.0189149
709.513	0.0194550
709.591	0.0200029
709.669	0.0203850
709.747	0.0207190
709.825	0.0210629
709.904	0.0212111
709.982	0.0213234
710.060	0.0213666
710.138	0.0213676
710.216	0.0213931
710.294	0.0213951
710.372	0.0213718
710.450	0.0214600
710.529	0.0215453
710.607	0.0216644
710.685	0.0217861
710.763	0.0217934
710.841	0.0218096
710.919	0.0218169
710.997	0.0216857
711.075	0.0214615
711.154	0.0212360
711.232	0.0209561
711.310	0.0205718
711.388	0.0200092
711.466	0.0197193
711.544	0.0193734
711.622	0.0190933
711.700	0.0185815
711.779	0.0180489
711.857	0.0177802
711.935	0.0174023
712.013	0.0171201
712.091	0.0168386
712.169	0.0166473
712.247	0.0162423
712.325	0.0158678
712.404	0.0155857
712.482	0.0152131
712.560	0.0148236
712.638	0.0145139
712.716	0.0141743
712.794	0.0138567
712.872	0.0136001
712.950	0.0133179
713.029	0.0132497
713.107	0.0131314
713.185	0.0129841
713.263	0.0131181
713.341	0.0129469
713.419	0.0129745
713.497	0.0131532
713.575	0.0131374
713.654	0.0131685
713.732	0.0133857
713.810	0.0135017
713.888	0.0138036
713.966	0.0140133
714.044	0.0143180
714.122	0.0145554
714.200	0.0147998
714.279	0.0150641
714.357	0.0151034
714.435	0.0152666
714.513	0.0156078
714.591	0.0157207
714.669	0.0159109
714.747	0.0161510
714.825	0.0163927
714.904	0.0166479
714.982	0.0166523
715.060	0.0169902
715.138	0.0172084
715.216	0.0174274
715.294	0.0176265
715.372	0.0176288
715.450	0.0176556
715.529	0.0177572
715.607	0.0179191
715.685	0.0178046
715.763	0.0178532
715.841	0.0179781
715.919	0.0179597
715.997	0.0180296
716.075	0.0182347
716.154	0.0183852
716.232	0.0185952
716.310	0.0188313
716.388	0.0192223
716.466	0.0196377
716.544	0.0199189
716.622	0.0202166
716.700	0.0206371
716.779	0.0209250
716.857	0.0211775
716.935	0.0213267
717.013	0.0215009
717.091	0.0216777
717.169	0.0215837
717.247	0.0213095
717.325	0.0210286
717.404	0.0209106
717.482	0.0203862
717.560	0.0199986
717.638	0.0195354
717.716	0.0192770
717.794	0.0187638
717.872	0.0182284
717.950	0.0177857
718.029	0.0172199
718.107	0.0169032
718.185	0.0164258
718.263	0.0159994
718.341	0.0156477
718.419	0.0153870
718.497	0.0149277
718.575	0.0147174
718.654	0.0146150
718.732	0.0144923
718.810	0.0142295
718.888	0.0142709
718.966	0.0143336
719.044	0.0143192
719.122	0.0143500
719.200	0.0144675
719.279	0.0143895
719.357	0.0146619
719.435	0.0145746
719.513	0.0146897
719.591	0.0147288
719.669	0.0147019
719.747	0.0147844
719.825	0.0149073
719.904	0.0148583
719.982	0.0149213
720.060	0.0151006
720.138	0.0151522
720.216	0.0153120
720.294	0.0154559
720.372	0.0157182
720.450	0.0159215
720.529	0.0161714
720.607	0.0164068
720.685	0.0165810
720.763	0.0169094
720.841	0.0171152
720.919	0.0174118
720.997	0.0179348
721.075	0.0178746
721.154	0.0180167
721.232	0.0183440
721.310	0.0184690
721.388	0.0182966
721.466	0.0181685
721.544	0.0180739
721.622	0.0181264
721.700	0.0179467
721.779	0.0175964
721.857	0.0175711
721.935	0.0173375
722.013	0.0170968
722.091	0.0170265
722.169	0.0171947
722.247	0.0170987
722.325	0.0171120
722.404	0.0171288
722.482	0.0172622
722.560	0.0176313
722.638	0.0177136
722.716	0.0181048
722.794	0.0183301
722.872	0.0184875
722.950	0.0186411
723.029	0.0188099
723.107	0.0190353
723.185	0.0189322
723.263	0.0189840
723.341	0.0189676
723.419	0.0187206
723.497	0.0186725
723.575	0.0184787
723.654	0.0182629
723.732	0.0180639
723.810	0.0177552
723.888	0.0173921
723.966	0.0171750
724.044	0.0167335
724.122	0.0164978
724.200	0.0163271
724.279	0.0161980
724.357	0.0157925
724.435	0.0156573
724.513	0.0155807
724.591	0.0156084
724.669	0.0155939
724.747	0.0154380
724.825	0.0155851
724.904	0.0156772
724.982	0.0157392
725.060	0.0157071
725.138	0.0158644
725.216	0.0161152
725.294	0.0161340
725.372	0.0162494
725.450	0.0164294
725.529	0.0165845
725.607	0.0166071
725.685	0.0166644
725.763	0.0166441
725.841	0.0166271
725.919	0.0168153
725.997	0.0166792
726.075	0.0165761
726.154	0.0163454
726.232	0.0163560
726.310	0.0164127
726.388	0.0161938
726.466	0.0161589
726.544	0.0162434
726.622	0.0163064
726.700	0.0163313
726.779	0.0164480
726.857	0.0166133
726.935	0.0169449
727.013	0.0173399
727.091	0.0174657
727.169	0.0176496
727.247	0.0178667
727.325	0.0181557
727.404	0.0183402
727.482	0.0184683
727.560	0.0184586
727.638	0.0184294
727.716	0.0182448
727.794	0.0183278
727.872	0.0183912
727.950	0.0181877
728.029	0.0180071
728.107	0.0179720
728.185	0.0178548
728.263	0.0176758
728.341	0.0176705
728.419	0.0176378
728.497	0.0175828
728.575	0.0174200
728.654	0.0174453
728.732	0.0174368
728.810	0.0172191
728.888	0.0171381
728.966	0.0171471
729.044	0.0171922
729.122	0.0170950
729.200	0.0170860
729.279	0.0170495
729.357	0.0170963
729.435	0.0170673
729.513	0.0170594
729.591	0.0169870
729.669	0.0168939
729.747	0.0169773
729.825	0.0169598
729.904	0.0167715
729.982	0.0167096
730.060	0.0167259
730.138	0.0162871
730.216	0.0161723
730.294	0.0161130
730.372	0.0158253
730.450	0.0156687
730.529	0.0156996
730.607	0.0154371
730.685	0.0154441
730.763	0.0153192
730.841	0.0153164
730.919	0.0153316
730.997	0.0155662
731.075	0.0156223
731.154	0.0157912
731.232	0.0159348
731.310	0.0159772
731.388	0.0163105
731.466	0.0164660
731.544	0.0166230
731.622	0.0167451
731.700	0.0168461
731.779	0.0169952
731.857	0.0171118
731.935	0.0171072
732.013	0.0172112
732.091	0.0171535
732.169	0.0170996
732.247	0.0170721
732.325	0.0169501
732.404	0.0170914
732.482	0.0171122
732.560	0.0170862
732.638	0.0170630
732.716	0.0173309
732.794	0.0172749
732.872	0.0174009
732.950	0.0175764
733.029	0.0177097
733.107	0.0178315
733.185	0.0178962
733.263	0.0180810
733.341	0.0183425
733.419	0.0183620
733.497	0.0184087
733.575	0.0183847
733.654	0.0184103
733.732	0.0184653
733.810	0.0184946
733.888	0.0183661
733.966	0.0183167
734.044	0.0181590
734.122	0.0180405
734.200	0.0178883
734.279	0.0179642
734.357	0.0177872
734.435	0.0177338
734.513	0.0176218
734.591	0.0172944
734.669	0.0172708
734.747	0.0172540
734.825	0.0170415
734.904	0.0170158
734.982	0.0169604
735.060	0.0168694
735.138	0.0169477
735.216	0.0169704
735.294	0.0168053
735.372	0.0169227
735.450	0.0168226
735.529	0.0167442
735.607	0.0167780
735.685	0.0167741
735.763	0.0168727
735.841	0.0166862
735.919	0.0166464
735.997	0.0167052
736.075	0.0166557
736.154	0.0166061
736.232	0.0163785
736.310	0.0163321
736.388	0.0164915
736.466	0.0165454
736.544	0.0164265
736.622	0.0163271
736.700	0.0162469
736.779	0.0161079
736.857	0.0160045
736.935	0.0160677
737.013	0.0160308
737.091	0.0159391
737.169	0.0157813
737.247	0.0158450
737.325	0.0158591
737.404	0.0158713
737.482	0.0159007
737.560	0.0159541
737.638	0.0159969
737.716	0.0160746
737.794	0.0160763
737.872	0.0161014
737.950	0.0161881
738.029	0.0163844
738.107	0.0164154
738.185	0.0164822
738.263	0.0167353
738.341	0.0167554
738.419	0.0169297
738.497	0.0171638
738.575	0.0171346
738.654	0.0173113
738.732	0.0173942
738.810	0.0173819
738.888	0.0174929
738.966	0.0175317
739.044	0.0176601
739.122	0.0176456
739.200	0.0176977
739.279	0.0177135
739.357	0.0177274
739.435	0.0178267
739.513	0.0176340
739.591	0.0175044
739.669	0.0176324
739.747	0.0176836
739.825	0.0175602
739.904	0.0176305
739.982	0.0176071
740.060	0.0176246
740.138	0.0176383
740.216	0.0176170
740.294	0.0176991
740.372	0.0179046
740.450	0.0179101
740.529	0.0178973
740.607	0.0180427
740.685	0.0180413
740.763	0.0179021
740.841	0.0181211
740.919	0.0181048
740.997	0.0180972
741.075	0.0180299
741.154	0.0180312
741.232	0.0180148
741.310	0.0177846
741.388	0.0176679
741.466	0.0175637
741.544	0.0174722
741.622	0.0172618
741.700	0.0172573
741.779	0.0172379
741.857	0.0172028
741.935	0.0170753
742.013	0.0170474
742.091	0.0170023
742.169	0.0169019
742.247	0.0168443
742.325	0.0167271
742.404	0.0166400
742.482	0.0166610
742.560	0.0164997
742.638	0.0164057
742.716	0.0164183
742.794	0.0161162
742.872	0.0163136
742.950	0.0161306
743.029	0.0159917
743.107	0.0158633
743.185	0.0158147
743.263	0.0159241
743.341	0.0157864
743.419	0.0158767
743.497	0.0160078
743.575	0.0159964
743.654	0.0160793
743.732	0.0161131
743.810	0.0161179
743.888	0.0161393
743.966	0.0162336
744.044	0.0164359
744.122	0.0163755
744.200	0.0165327
744.279	0.0167178
744.357	0.0166867
744.435	0.0167216
744.513	0.0167444
744.591	0.0168129
744.669	0.0167865
744.747	0.0169157
744.825	0.0169387
744.904	0.0169892
744.982	0.0171288
745.060	0.0169006
745.138	0.0169900
745.216	0.0171505
745.294	0.0170477
745.372	0.0170800
745.450	0.0171129
745.529	0.0170063
745.607	0.0171062
745.685	0.0170527
745.763	0.0170438
745.841	0.0170375
745.919	0.0170872
745.997	0.0170507
746.075	0.0171736
746.154	0.0169730
746.232	0.0169912
746.310	0.0170522
746.388	0.0168845
746.466	0.0169760
746.544	0.0171008
746.622	0.0172748
746.700	0.0172285
746.779	0.0172662
746.857	0.0173589
746.935	0.0173717
747.013	0.0174090
747.091	0.0175281
747.169	0.0175517
747.247	0.0176770
747.325	0.0177873
747.404	0.0178700
747.482	0.0179778
747.560	0.0179597
747.638	0.0179388
747.716	0.0180882
747.794	0.0180556
747.872	0.0180771
747.950	0.0182352
748.029	0.0181860
748.107	0.0180446
748.185	0.0180891
748.263	0.0179556
748.341	0.0177033
748.419	0.0175504
748.497	0.0174625
748.575	0.0171544
748.654	0.0170495
748.732	0.0168140
748.810	0.0165488
748.888	0.0163927
748.966	0.0161779
749.044	0.0161720
749.122	0.0159009
749.200	0.0159019
749.279	0.0159166
749.357	0.0160341
749.435	0.0159386
749.513	0.0162762
749.591	0.0161813
749.669	0.0163152
749.747	0.0165826
749.825	0.0167478
749.904	0.0168907
749.982	0.0170753
750.060	0.0171204
750.138	0.0172338
750.216	0.0172758
750.294	0.0173173
750.372	0.0172237
750.450	0.0171225
750.529	0.0172401
750.607	0.0172827
750.685	0.0171863
750.763	0.0173019
750.841	0.0171049
750.919	0.0169346
750.997	0.0169323
751.075	0.0170106
751.154	0.0167937
751.232	0.0168494
751.310	0.0169180
751.388	0.0169188
751.466	0.0167752
751.544	0.0167359
751.622	0.0165369
751.700	0.0166365
751.779	0.0165690
751.857	0.0165639
751.935	0.0166508
752.013	0.0167456
752.091	0.0167438
752.169	0.0167255
752.247	0.0166917
752.325	0.0167000
752.404	0.0168801
752.482	0.0168856
752.560	0.0169860
752.638	0.0168788
752.716	0.0167632
752.794	0.0169600
752.872	0.0169198
752.950	0.0169542
753.029	0.0169249
753.107	0.0170294
753.185	0.0171616
753.263	0.0172119
753.341	0.0171382
753.419	0.0172086
753.497	0.0172379
753.575	0.0174063
753.654	0.0173820
753.732	0.0175911
753.810	0.0175488
753.888	0.0175706
753.966	0.0174969
754.044	0.0176225
754.122	0.0175543
754.200	0.0175529
754.279	0.0175161
754.357	0.0173768
754.435	0.0172829
754.513	0.0173586
754.591	0.0170448
754.669	0.0171178
754.747	0.0168896
754.825	0.0170375
754.904	0.0170687
754.982	0.0168542
755.060	0.0168806
755.138	0.0168784
755.216	0.0168592
755.294	0.0168761
755.372	0.0169745
755.450	0.0170754
755.529	0.0169456
755.607	0.0168613
755.685	0.0171134
755.763	0.0170675
755.841	0.0170760
755.919	0.0171380
755.997	0.0171530
756.075	0.0171439
756.154	0.0173217
756.232	0.0172346
756.310	0.0173295
756.388	0.0171732
756.466	0.0173238
756.544	0.0174119
756.622	0.0174732
756.700	0.0174284
756.779	0.0173616
756.857	0.0174271
756.935	0.0173043
757.013	0.0173505
757.091	0.0173646
757.169	0.0172065
757.247	0.0171527
757.325	0.0170277
757.404	0.0170165
757.482	0.0166700
757.560	0.0165749
757.638	0.0165784
757.716	0.0164370
757.794	0.0162315
757.872	0.0161942
757.950	0.0163021
758.029	0.0161501
758.107	0.0161463
758.185	0.0160953
758.263	0.0162791
758.341	0.0162362
758.419	0.0162486
758.497	0.0163750
758.575	0.0164915
758.654	0.0167257
758.732	0.0168140
758.810	0.0170530
758.888	0.0170957
758.966	0.0170877
759.044	0.0172900
759.122	0.0174423
759.200	0.0174566
759.279	0.0174784
759.357	0.0174863
759.435	0.0174712
759.513	0.0175066
759.591	0.0174316
759.669	0.0173969
759.747	0.0172713
759.825	0.0173119
759.904	0.0172074
759.982	0.0170640
760.060	0.0169987
760.138	0.0169515
760.216	0.0167617
760.294	0.0166992
760.372	0.0166160
760.450	0.0165362
760.529	0.0164580
760.607	0.0163805
760.685	0.0164418
760.763	0.0163811
760.841	0.0164861
760.919	0.0164644
760.997	0.0165437
761.075	0.0166689
761.154	0.0166962
761.232	0.0168401
761.310	0.0168355
761.388	0.0170541
761.466	0.0170855
761.544	0.0171490
761.622	0.0173158
761.700	0.0174680
761.779	0.0173033
761.857	0.0173608
761.935	0.0174469
762.013	0.0174086
762.091	0.0174796
762.169	0.0173278
762.247	0.0172684
762.325	0.0173577
762.404	0.0172532
762.482	0.0170686
762.560	0.0172610
762.638	0.0173073
762.716	0.0170702
762.794	0.0172867
762.872	0.0174020
762.950	0.0174932
763.029	0.0173712
763.107	0.0174260
763.185	0.0174704
763.263	0.0175660
763.341	0.0174725
763.419	0.0173549
763.497	0.0171497
763.575	0.0171658
763.654	0.0172392
763.732	0.0172031
763.810	0.0170605
763.888	0.0169978
763.966	0.0169498
764.044	0.0168290
764.122	0.0168604
764.200	0.0168894
764.279	0.0168861
764.357	0.0168673
764.435	0.0168848
764.513	0.0168810
764.591	0.0169062
764.669	0.0169890
764.747	0.0168704
764.825	0.0169048
764.904	0.0169762
764.982	0.0170731
765.060	0.0170144
765.138	0.0169511
765.216	0.0168354
765.294	0.0171200
765.372	0.0170316
765.450	0.0170422
765.529	0.0171285
765.607	0.0171866
765.685	0.0171630
765.763	0.0172623
765.841	0.0172394
765.919	0.0171015
765.997	0.0173968
766.075	0.0171210
766.154	0.0170583
766.232	0.0172105
766.310	0.0170801
766.388	0.0169370
766.466	0.0167758
766.544	0.0166990
766.622	0.0166406
766.700	0.0165314
766.779	0.0166429
766.857	0.0166344
766.935	0.0164935
767.013	0.0163655
767.091	0.0165091
767.169	0.0164805
767.247	0.0164824
767.325	0.0164369
767.404	0.0164642
767.482	0.0165533
767.560	0.0167303
767.638	0.0166870
767.716	0.0168163
767.794	0.0169744
767.872	0.0169395
767.950	0.0170255
768.029	0.0172229
768.107	0.0172969
768.185	0.0171809
768.263	0.0173404
768.341	0.0173413
768.419	0.0174979
768.497	0.0176124
768.575	0.0175092
768.654	0.0174542
768.732	0.0174977
768.810	0.0174251
768.888	0.0175394
768.966	0.0173318
769.044	0.0172034
769.122	0.0172542
769.200	0.0171059
769.279	0.0171795
769.357	0.0171412
769.435	0.0168365
769.513	0.0168822
769.591	0.0166691
769.669	0.0166457
769.747	0.0167432
769.825	0.0167719
769.904	0.0166621
769.982	0.0168152
770.060	0.0167734
770.138	0.0168028
770.216	0.0169361
770.294	0.0169596
770.372	0.0169851
770.450	0.0172089
770.529	0.0171299
770.607	0.0172446
770.685	0.0173005
770.763	0.0173552
770.841	0.0174065
770.919	0.0173747
770.997	0.0173700
771.075	0.0173440
771.154	0.0174078
771.232	0.0173812
771.310	0.0172102
771.388	0.0171194
771.466	0.0171381
771.544	0.0169643
771.622	0.0168086
771.700	0.0169154
771.779	0.0167941
771.857	0.0169487
771.935	0.0167606
772.013	0.0168778
772.091	0.0168015
772.169	0.0168968
772.247	0.0168104
772.325	0.0170203
772.404	0.0172382
772.482	0.0172416
772.560	0.0171455
772.638	0.0171967
772.716	0.0174593
772.794	0.0172452
772.872	0.0173451
772.950	0.0174555
773.029	0.0173127
773.107	0.0172957
773.185	0.0173420
773.263	0.0172005
773.341	0.0171415
773.419	0.0171044
773.497	0.0170118
773.575	0.0170242
773.654	0.0170466
773.732	0.0168595
773.810	0.0168021
773.888	0.0167377
773.966	0.0167874
774.044	0.0167233
774.122	0.0167377
774.200	0.0166576
774.279	0.0167162
774.357	0.0168167
774.435	0.0168726
774.513	0.0168188
774.591	0.0168210
774.669	0.0169183
774.747	0.0169405
774.825	0.0170690
774.904	0.0169524
774.982	0.0169534
775.060	0.0171195
775.138	0.0167670
775.216	0.0168252
775.294	0.0169536
775.372	0.0168147
775.450	0.0167872
775.529	0.0166845
775.607	0.0167461
775.685	0.0167045
775.763	0.0166718
775.841	0.0165806
775.919	0.0167168
775.997	0.0167144
776.075	0.0168044
776.154	0.0167964
776.232	0.0167331
776.310	0.0169033
776.388	0.0171031
776.466	0.0171578
776.544	0.0172633
776.622	0.0174267
776.700	0.0176060
776.779	0.0175614
776.857	0.0175739
776.935	0.0176250
777.013	0.0175871
777.091	0.0177551
777.169	0.0175902
777.247	0.0175144
777.325	0.0174741
777.404	0.0174476
777.482	0.0172083
777.560	0.0171502
777.638	0.0170570
777.716	0.0171246
777.794	0.0168508
777.872	0.0168811
777.950	0.0168036
778.029	0.0168207
778.107	0.0166458
778.185	0.0166510
778.263	0.0166216
778.341	0.0165028
778.419	0.0166149
778.497	0.0165828
778.575	0.0166815
778.654	0.0165935
778.732	0.0167927
778.810	0.0168010
778.888	0.0168372
778.966	0.0169225
779.044	0.0167914
779.122	0.0169576
779.200	0.0170615
779.279	0.0169316
779.357	0.0170470
779.435	0.0171053
779.513	0.0171858
779.591	0.0171745
779.669	0.0172261
779.747	0.0171785
779.825	0.0171848
779.904	0.0173601
779.982	0.0172776
780.060	0.0173965
780.138	0.0174958
780.216	0.0175249
780.294	0.0173634
780.372	0.0174046
780.450	0.0173981
780.529	0.0174377
780.607	0.0172947
780.685	0.0172630
780.763	0.0173995
780.841	0.0172868
780.919	0.0173122
780.997	0.0172345
781.075	0.0171948
781.154	0.0172226
781.232	0.0171489
781.310	0.0172575
781.388	0.0170601
781.466	0.0169444
781.544	0.0167676
781.622	0.0168140
781.700	0.0166676
781.779	0.0166154
781.857	0.0167606
781.935	0.0166722
782.013	0.0166078
782.091	0.0165715
782.169	0.0166132
782.247	0.0166113
782.325	0.0166181
782.404	0.0166759
782.482	0.0167838
782.560	0.0166798
782.638	0.0167669
782.716	0.0168163
782.794	0.0169207
782.872	0.0170126
782.950	0.0170933
783.029	0.0170459
783.107	0.0172736
783.185	0.0172331
783.263	0.0172478
783.341	0.0172421
783.419	0.0173422
783.497	0.0172620
783.575	0.0172363
783.654	0.0172349
783.732	0.0171875
783.810	0.0172610
783.888	0.0171773
783.966	0.0171567
784.044	0.0170310
784.122	0.0169971
784.200	0.0170368
784.279	0.0171206
784.357	0.0169474
784.435	0.0170232
784.513	0.0168891
784.591	0.0168192
784.669	0.0167382
784.747	0.0167896
784.825	0.0167727
784.904	0.0166454
784.982	0.0167316
785.060	0.0167236
785.138	0.0167046
785.216	0.0166799
785.294	0.0166811
785.372	0.0166573
785.450	0.0166434
785.529	0.0167066
785.607	0.0167161
785.685	0.0168435
785.763	0.0169186
785.841	0.0170522
785.919	0.0169745
785.997	0.0170810
786.075	0.0172235
786.154	0.0172452
786.232	0.0173264
786.310	0.0171821
786.388	0.0173108
786.466	0.0174070
786.544	0.0174506
786.622	0.0175392
786.700	0.0175177
786.779	0.0176931
786.857	0.0176941
786.935	0.0177147
787.013	0.0176277
787.091	0.0176043
787.169	0.0176716
787.247	0.0176418
787.325	0.0175339
787.404	0.0172934
787.482	0.0174359
787.560	0.0171779
787.638	0.0172188
787.716	0.0169531
787.794	0.0170251
787.872	0.0168441
787.950	0.0168650
788.029	0.0167184
788.107	0.0164849
788.185	0.0166720
788.263	0.0164350
788.341	0.0164526
788.419	0.0165859
788.497	0.0164330
788.575	0.0165538
788.654	0.0164429
788.732	0.0164790
788.810	0.0167645
788.888	0.0167414
788.966	0.0167772
789.044	0.0169633
789.122	0.0170359
789.200	0.0168925
789.279	0.0170725
789.357	0.0171342
789.435	0.0171626
789.513	0.0171198
789.591	0.0171777
789.669	0.0172403
789.747	0.0171870
789.825	0.0170243
789.904	0.0172533
789.982	0.0172150
790.060	0.0171114
790.138	0.0170771
790.216	0.0172641
790.294	0.0170568
790.372	0.0170921
790.450	0.0169987
790.529	0.0170721
790.607	0.0170190
790.685	0.0168673
790.763	0.0168389
790.841	0.0168829
790.919	0.0167693
790.997	0.0166426
791.075	0.0166990
791.154	0.0164928
791.232	0.0165456
791.310	0.0166123
791.388	0.0164621
791.466	0.0164597
791.544	0.0164356
791.622	0.0163503
791.700	0.0162960
791.779	0.0164834
791.857	0.0164027
791.935	0.0163160
792.013	0.0163710
792.091	0.0164440
792.169	0.0165051
792.247	0.0164526
792.325	0.0165031
792.404	0.0165966
792.482	0.0166884
792.560	0.0168952
792.638	0.0169082
792.716	0.0170924
792.794	0.0173147
792.872	0.0172495
792.950	0.0174008
793.029	0.0174296
793.107	0.0176892
793.185	0.0176394
793.263	0.0178035
793.341	0.0178088
793.419	0.0179534
793.497	0.0179903
793.575	0.0179453
793.654	0.0181025
793.732	0.0181142
793.810	0.0179992
793.888	0.0179214
793.966	0.0177819
794.044	0.0177119
794.122	0.0176359
794.200	0.0174870
794.279	0.0171242
794.357	0.0171412
794.435	0.0169237
794.513	0.0169856
794.591	0.0167890
794.669	0.0166515
794.747	0.0166196
794.825	0.0165987
794.904	0.0163985
794.982	0.0165277
795.060	0.0163918
795.138	0.0163665
795.216	0.0162804
795.294	0.0164156
795.372	0.0162201
795.450	0.0164945
795.529	0.0164897
795.607	0.0165354
795.685	0.0166786
795.763	0.0168342
795.841	0.0168750
795.919	0.0169906
795.997	0.0171272
796.075	0.0171883
796.154	0.0172260
796.232	0.0172578
796.310	0.0171617
796.388	0.0171748
796.466	0.0172784
796.544	0.0172429
796.622	0.0171819
796.700	0.0172198
796.779	0.0172684
796.857	0.0172665
796.935	0.0171611
797.013	0.0169308
797.091	0.0170226
797.169	0.0170205
797.247	0.0169415
797.325	0.0168764
797.404	0.0169141
797.482	0.0167542
797.560	0.0167756
797.638	0.0167725
797.716	0.0167159
797.794	0.0166245
797.872	0.0167392
797.950	0.0167123
798.029	0.0167065
798.107	0.0166597
798.185	0.0165756
798.263	0.0167305
798.341	0.0167044
798.419	0.0166514
798.497	0.0165247
798.575	0.0165412
798.654	0.0168149
798.732	0.0167084
798.810	0.0167401
798.888	0.0166824
798.966	0.0167387
799.044	0.0166951
799.122	0.0167203
799.200	0.0169557
799.279	0.0169295
799.357	0.0171738
799.435	0.0170782
799.513	0.0171023
799.591	0.0172334
799.669	0.0173257
799.747	0.0173795
799.825	0.0174837
799.904	0.0175986
799.982	0.0175304
800.060	0.0174516
800.138	0.0175847
800.216	0.0175547
800.294	0.0175669
800.372	0.0174182
800.450	0.0174679
800.529	0.0174562
800.607	0.0174708
800.685	0.0173118
800.763	0.0171027
800.841	0.0171112
800.919	0.0172063
800.997	0.0171763
801.075	0.0169527
801.154	0.0169760
801.232	0.0169777
801.310	0.0168395
801.388	0.0169930
801.466	0.0168934
801.544	0.0168900
801.622	0.0168937
801.700	0.0168916
801.779	0.0169780
801.857	0.0169637
801.935	0.0168613
802.013	0.0168848
802.091	0.0170506
802.169	0.0169446
802.247	0.0170303
802.325	0.0168127
802.404	0.0168539
802.482	0.0169198
802.560	0.0169334
802.638	0.0169151
802.716	0.0169496
802.794	0.0168686
802.872	0.0168639
802.950	0.0168888
803.029	0.0167893
803.107	0.0167740
803.185	0.0168006
803.263	0.0168192
803.341	0.0168958
803.419	0.0168320
803.497	0.0167960
803.575	0.0168276
803.654	0.0167602
803.732	0.0167581
803.810	0.0166548
803.888	0.0168379
803.966	0.0167220
804.044	0.0166830
804.122	0.0166942
804.200	0.0167877
804.279	0.0167548
804.357	0.0168325
804.435	0.0167856
804.513	0.0168179
804.591	0.0168052
804.669	0.0167337
804.747	0.0168871
804.825	0.0167522
804.904	0.0168654
804.982	0.0169192
805.060	0.0168904
805.138	0.0167523
805.216	0.0168823
805.294	0.0168300
805.372	0.0169142
805.450	0.0168895
805.529	0.0169849
805.607	0.0170400
805.685	0.0170397
805.763	0.0170499
805.841	0.0170656
805.919	0.0172090
805.997	0.0173387
806.075	0.0173531
806.154	0.0172469
806.232	0.0173297
806.310	0.0175360
806.388	0.0173864
806.466	0.0175138
806.544	0.0174255
806.622	0.0174898
806.700	0.0176384
806.779	0.0175532
806.857	0.0175842
806.935	0.0177176
807.013	0.0176858
807.091	0.0176625
807.169	0.0175508
807.247	0.0174934
807.325	0.0173761
807.404	0.0174341
807.482	0.0174315
807.560	0.0173264
807.638	0.0172502
807.716	0.0173857
807.794	0.0172740
807.872	0.0172599
807.950	0.0170856
808.029	0.0170094
808.107	0.0168393
808.185	0.0168028
808.263	0.0170179
808.341	0.0166431
808.419	0.0167665
808.497	0.0167293
808.575	0.0167406
808.654	0.0166019
808.732	0.0166772
808.810	0.0165464
808.888	0.0166572
808.966	0.0165736
809.044	0.0167070
809.122	0.0166120
809.200	0.0166477
809.279	0.0166765
809.357	0.0165732
809.435	0.0166319
809.513	0.0167799
809.591	0.0167584
809.669	0.0165703
809.747	0.0167090
809.825	0.0167287
809.904	0.0166877
809.982	0.0167401
810.060	0.0167499
810.138	0.0167637
810.216	0.0168736
810.294	0.0168596
810.372	0.0168422
810.450	0.0168965
810.529	0.0168390
810.607	0.0169632
810.685	0.0169865
810.763	0.0168339
810.841	0.0168459
810.919	0.0171066
810.997	0.0170141
811.075	0.0170332
811.154	0.0171091
811.232	0.0171566
811.310	0.0171056
811.388	0.0171198
811.466	0.0170823
811.544	0.0170733
811.622	0.0170854
811.700	0.0171213
811.779	0.0172901
811.857	0.0172205
811.935	0.0172365
812.013	0.0171175
812.091	0.0172971
812.169	0.0172338
812.247	0.0170494
812.325	0.0171197
812.404	0.0171771
812.482	0.0172980
812.560	0.0173371
812.638	0.0173333
812.716	0.0172160
812.794	0.0171291
812.872	0.0172233
812.950	0.0172124
813.029	0.0172915
813.107	0.0171423
813.185	0.0172964
813.263	0.0172169
813.341	0.0172134
813.419	0.0173239
813.497	0.0172974
813.575	0.0172005
813.654	0.0171829
813.732	0.0172591
813.810	0.0173515
813.888	0.0173389
813.966	0.0172990
814.044	0.0172643
814.122	0.0172631
814.200	0.0173969
814.279	0.0172990
814.357	0.0171566
814.435	0.0170517
814.513	0.0169833
814.591	0.0170399
814.669	0.0169199
814.747	0.0168051
814.825	0.0168404
814.904	0.0167155
814.982	0.0167772
815.060	0.0166569
815.138	0.0165840
815.216	0.0166256
815.294	0.0167097
815.372	0.0167081
815.450	0.0166077
815.529	0.0167504
815.607	0.0166654
815.685	0.0167503
815.763	0.0166532
815.841	0.0167745
815.919	0.0166424
815.997	0.0166748
816.075	0.0167797
816.154	0.0166846
816.232	0.0167256
816.310	0.0167277
816.388	0.0168649
816.466	0.0168750
816.544	0.0169004
816.622	0.0168723
816.700	0.0168021
816.779	0.0168547
816.857	0.0168549
816.935	0.0168286
817.013	0.0168892
817.091	0.0168183
817.169	0.0168315
817.247	0.0167581
817.325	0.0169386
817.404	0.0169016
817.482	0.0168658
817.560	0.0168713
817.638	0.0168481
817.716	0.0169348
817.794	0.0170526
817.872	0.0169135
817.950	0.0169794
818.029	0.0169218
818.107	0.0170377
818.185	0.0171989
818.263	0.0171763
818.341	0.0170506
818.419	0.0172111
818.497	0.0171790
818.575	0.0173915
818.654	0.0172459
818.732	0.0172146
818.810	0.0172336
818.888	0.0172883
818.966	0.0171864
819.044	0.0170496
819.122	0.0171038
819.200	0.0172408
819.279	0.0171777
819.357	0.0172216
819.435	0.0171972
819.513	0.0172086
819.591	0.0171247
819.669	0.0170367
819.747	0.0169344
819.825	0.0168811
819.904	0.0170947
819.982	0.0169060
820.060	0.0169869
820.138	0.0169245
820.216	0.0169204
820.294	0.0168977
820.372	0.0168489
820.450	0.0169454
820.529	0.0168889
820.607	0.0169118
820.685	0.0170935
820.763	0.0169462
820.841	0.0170087
820.919	0.0169553
820.997	0.0168632
821.075	0.0167228
821.154	0.0167876
821.232	0.0168678
821.310	0.0168717
821.388	0.0168433
821.466	0.0167169
821.544	0.0166943
821.622	0.0167979
821.700	0.0167834
821.779	0.0166951
821.857	0.0166431
821.935	0.0167710
822.013	0.0167754
822.091	0.0167229
822.169	0.0167013
822.247	0.0166870
822.325	0.0168615
822.404	0.0168038
822.482	0.0168468
822.560	0.0168133
822.638	0.0169738
822.716	0.0169984
822.794	0.0170422
822.872	0.0170590
822.950	0.0169210
823.029	0.0170428
823.107	0.0171637
823.185	0.0172041
823.263	0.0173070
823.341	0.0170974
823.419	0.0172340
823.497	0.0172488
823.575	0.0172279
823.654	0.0173540
823.732	0.0172172
823.810	0.0172650
823.888	0.0170912
823.966	0.0170819
824.044	0.0170654
824.122	0.0170771
824.200	0.0169019
824.279	0.0169914
824.357	0.0171684
824.435	0.0169650
824.513	0.0169003
824.591	0.0169360
824.669	0.0169440
824.747	0.0168140
824.825	0.0168925
824.904	0.0168897
824.982	0.0168394
825.060	0.0167625
825.138	0.0167958
825.216	0.0169567
825.294	0.0168358
825.372	0.0167899
825.450	0.0168917
825.529	0.0169081
825.607	0.0169575
825.685	0.0168107
825.763	0.0170612
825.841	0.0170659
825.919	0.0169601
825.997	0.0171618
826.075	0.0170308
826.154	0.0171058
826.232	0.0172173
826.310	0.0171895
826.388	0.0172271
826.466	0.0171566
826.544	0.0172274
826.622	0.0171987
826.700	0.0173019
826.779	0.0172844
826.857	0.0170558
826.935	0.0171838
827.013	0.0171080
827.091	0.0171877
827.169	0.0171494
827.247	0.0171290
827.325	0.0170594
827.404	0.0170409
827.482	0.0171050
827.560	0.0169681
827.638	0.0169852
827.716	0.0169506
827.794	0.0168764
827.872	0.0169968
827.950	0.0168967
828.029	0.0168273
828.107	0.0167728
828.185	0.0168851
828.263	0.0168901
828.341	0.0168394
828.419	0.0167881
828.497	0.0168864
828.575	0.0170100
828.654	0.0167953
828.732	0.0169576
828.810	0.0171281
828.888	0.0171806
828.966	0.0173083
829.044	0.0170229
829.122	0.0171575
829.200	0.0171321
829.279	0.0173150
829.357	0.0175216
829.435	0.0173841
829.513	0.0172999
829.591	0.0174158
829.669	0.0173900
829.747	0.0175560
829.825	0.0173539
829.904	0.0173892
829.982	0.0171929
830.060	0.0171932
830.138	0.0172454
830.216	0.0171626
830.294	0.0170644
830.372	0.0169196
830.450	0.0169559
830.529	0.0168579
830.607	0.0169049
830.685	0.0167522
830.763	0.0167726
830.841	0.0167313
830.919	0.0165511
830.997	0.0166215
831.075	0.0165816
831.154	0.0166873
831.232	0.0166820
831.310	0.0166393
831.388	0.0166766
831.466	0.0168114
831.544	0.0167616
831.622	0.0169379
831.700	0.0167816
831.779	0.0168365
831.857	0.0170882
831.935	0.0170081
832.013	0.0170106
832.091	0.0170628
832.169	0.0172536
832.247	0.0172415
832.325	0.0173360
832.404	0.0172734
832.482	0.0172988
832.560	0.0173768
832.638	0.0174219
832.716	0.0173683
832.794	0.0172984
832.872	0.0171414
832.950	0.0170987
833.029	0.0170628
833.107	0.0171303
833.185	0.0171104
833.263	0.0169654
833.341	0.0169971
833.419	0.0170292
833.497	0.0168182
833.575	0.0168703
833.654	0.0169805
833.732	0.0168774
833.810	0.0169289
833.888	0.0169683
833.966	0.0169935
834.044	0.0168401
834.122	0.0169299
834.200	0.0168561
834.279	0.0167974
834.357	0.0170640
834.435	0.0168368
834.513	0.0167197
834.591	0.0169083
834.669	0.0170811
834.747	0.0169242
834.825	0.0169765
834.904	0.0168170
834.982	0.0169232
835.060	0.0170760
835.138	0.0170709
835.216	0.0170681
835.294	0.0170800
835.372	0.0170880
835.450	0.0171531
835.529	0.0172462
835.607	0.0172845
835.685	0.0173499
835.763	0.0173643
835.841	0.0173235
835.919	0.0173830
835.997	0.0172194
836.075	0.0172763
836.154	0.0172771
836.232	0.0171307
836.310	0.0170821
836.388	0.0169602
836.466	0.0169394
836.544	0.0168073
836.622	0.0167514
836.700	0.0167094
836.779	0.0166031
836.857	0.0165586
836.935	0.0167178
837.013	0.0165400
837.091	0.0166381
837.169	0.0167584
837.247	0.0166333
837.325	0.0167245
837.404	0.0167681
837.482	0.0167850
837.560	0.0169119
837.638	0.0168874
837.716	0.0170085
837.794	0.0169716
837.872	0.0171168
837.950	0.0171082
838.029	0.0170479
838.107	0.0172495
838.185	0.0172980
838.263	0.0170654
838.341	0.0171046
838.419	0.0171158
838.497	0.0172117
838.575	0.0171349
838.654	0.0171046
838.732	0.0171074
838.810	0.0171455
838.888	0.0169714
838.966	0.0170016
839.044	0.0170463
839.122	0.0171101
839.200	0.0170398
839.279	0.0170152
839.357	0.0169241
839.435	0.0169067
839.513	0.0169922
839.591	0.0169880
839.669	0.0167950
839.747	0.0168801
839.825	0.0168307
839.904	0.0167451
839.982	0.0166849
840.060	0.0167795
840.138	0.0167828
840.216	0.0167741
840.294	0.0168298
840.372	0.0169260
840.450	0.0169485
840.529	0.0168292
840.607	0.0169696
840.685	0.0169481
840.763	0.0168877
840.841	0.0171604
840.919	0.0170645
840.997	0.0169635
841.075	0.0170593
841.154	0.0169717
841.232	0.0169668
841.310	0.0170366
841.388	0.0170772
841.466	0.0171558
841.544	0.0170506
841.622	0.0169753
841.700	0.0170118
841.779	0.0171742
841.857	0.0170148
841.935	0.0168521
842.013	0.0169353
842.091	0.0170342
842.169	0.0169740
842.247	0.0170370
842.325	0.0170010
842.404	0.0169532
842.482	0.0169822
842.560	0.0167722
842.638	0.0167517
842.716	0.0167939
842.794	0.0166940
842.872	0.0166405
842.950	0.0167825
843.029	0.0168446
843.107	0.0167410
843.185	0.0167787
843.263	0.0168320
843.341	0.0168827
843.419	0.0168291
843.497	0.0168318
843.575	0.0168963
843.654	0.0169779
843.732	0.0172167
843.810	0.0172616
843.888	0.0172525
843.966	0.0172669
844.044	0.0173524
844.122	0.0172363
844.200	0.0173452
844.279	0.0173349
844.357	0.0171328
844.435	0.0172033
844.513	0.0171085
844.591	0.0171279
844.669	0.0171442
844.747	0.0172572
844.825	0.0170907
844.904	0.0170834
844.982	0.0171236
845.060	0.0169600
845.138	0.0170143
845.216	0.0169330
845.294	0.0170553
845.372	0.0170113
845.450	0.0168982
845.529	0.0167127
845.607	0.0169101
845.685	0.0166178
845.763	0.0167506
845.841	0.0167295
845.919	0.0166348
845.997	0.0165150
846.075	0.0165160
846.154	0.0168239
846.232	0.0165807
846.310	0.0167591
846.388	0.0168039
846.466	0.0169430
846.544	0.0169053
846.622	0.0169473
846.700	0.0171356
846.779	0.0170253
846.857	0.0170978
846.935	0.0171406
847.013	0.0172806
847.091	0.0171986
847.169	0.0172198
847.247	0.0171719
847.325	0.0172678
847.404	0.0172555
847.482	0.0173710
847.560	0.0173501
847.638	0.0171077
847.716	0.0171304
847.794	0.0171278
847.872	0.0171718
847.950	0.0171320
848.029	0.0171357
848.107	0.0170363
848.185	0.0168295
848.263	0.0169695
848.341	0.0170683
848.419	0.0168004
848.497	0.0168569
848.575	0.0169291
848.654	0.0169008
848.732	0.0169550
848.810	0.0168626
848.888	0.0170566
848.966	0.0170948
849.044	0.0171196
849.122	0.0170148
849.200	0.0169756
849.279	0.0171380
849.357	0.0170603
849.435	0.0169444
849.513	0.0169038
849.591	0.0170448
849.669	0.0169824
849.747	0.0168089
849.825	0.0169653
849.904	0.0169907
849.982	0.0169989
850.060	0.0170512
850.138	0.0169722
850.216	0.0170889
850.294	0.0169693
850.372	0.0170515
850.450	0.0170985
850.529	0.0171264
850.607	0.0171144
850.685	0.0170118
850.763	0.0169919
850.841	0.0171264
850.919	0.0170902
850.997	0.0170576
851.075	0.0169943
851.154	0.0170273
851.232	0.0169291
851.310	0.0167532
851.388	0.0167690
851.466	0.0167821
851.544	0.0167670
851.622	0.0166264
851.700	0.0165530
851.779	0.0166869
851.857	0.0166154
851.935	0.0166917
852.013	0.0166219
852.091	0.0167228
852.169	0.0167823
852.247	0.0169666
852.325	0.0170127
852.404	0.0169487
852.482	0.0171786
852.560	0.0172961
852.638	0.0171265
852.716	0.0173011
852.794	0.0172152
852.872	0.0172472
852.950	0.0172770
853.029	0.0174723
853.107	0.0174088
853.185	0.0174078
853.263	0.0172977
853.341	0.0173576
853.419	0.0173564
853.497	0.0174982
853.575	0.0173656
853.654	0.0174180
853.732	0.0173510
853.810	0.0173186
853.888	0.0172567
853.966	0.0173718
854.044	0.0173270
854.122	0.0170980
854.200	0.0171529
854.279	0.0171650
854.357	0.0169313
854.435	0.0169549
854.513	0.0168609
854.591	0.0170036
854.669	0.0168146
854.747	0.0167073
854.825	0.0166435
854.904	0.0168116
854.982	0.0167264
855.060	0.0167275
855.138	0.0167231
855.216	0.0168034
855.294	0.0168555
855.372	0.0168352
855.450	0.0169965
855.529	0.0168387
855.607	0.0169827
855.685	0.0168636
855.763	0.0168520
855.841	0.0170871
855.919	0.0169846
855.997	0.0169014
856.075	0.0169813
856.154	0.0169557
856.232	0.0168903
856.310	0.0169266
856.388	0.0170775
856.466	0.0170638
856.544	0.0168069
856.622	0.0168280
856.700	0.0169440
856.779	0.0168994
856.857	0.0168795
856.935	0.0169972
857.013	0.0169019
857.091	0.0167245
857.169	0.0167818
857.247	0.0168988
857.325	0.0168806
857.404	0.0170012
857.482	0.0168248
857.560	0.0167110
857.638	0.0167487
857.716	0.0168787
857.794	0.0169546
857.872	0.0170123
857.950	0.0169353
858.029	0.0169842
858.107	0.0169713
858.185	0.0170841
858.263	0.0171266
858.341	0.0169112
858.419	0.0171165
858.497	0.0171454
858.575	0.0171072
858.654	0.0170580
858.732	0.0171302
858.810	0.0171409
858.888	0.0172131
858.966	0.0171276
859.044	0.0172323
859.122	0.0173012
859.200	0.0173219
859.279	0.0171157
859.357	0.0174310
859.435	0.0173648
859.513	0.0175269
859.591	0.0174305
859.669	0.0172945
859.747	0.0173386
859.825	0.0174107
859.904	0.0172919
859.982	0.0174075
860.060	0.0173432
860.138	0.0171863
860.216	0.0171814
860.294	0.0172056
860.372	0.0172294
860.450	0.0171151
860.529	0.0170621
860.607	0.0170065
860.685	0.0170139
860.763	0.0169159
860.841	0.0168922
860.919	0.0169628
860.997	0.0168110
861.075	0.0168412
861.154	0.0170049
861.232	0.0168272
861.310	0.0168723
861.388	0.0167896
861.466	0.0166679
861.544	0.0168006
861.622	0.0165521
861.700	0.0166878
861.779	0.0167506
861.857	0.0166743
861.935	0.0166946
862.013	0.0166681
862.091	0.0166881
862.169	0.0169539
862.247	0.0167722
862.325	0.0168565
862.404	0.0168242
862.482	0.0168496
862.560	0.0169030
862.638	0.0169979
862.716	0.0169855
862.794	0.0170161
862.872	0.0170075
862.950	0.0169901
863.029	0.0169658
863.107	0.0169695
863.185	0.0169199
863.263	0.0168036
863.341	0.0169138
863.419	0.0170215
863.497	0.0168728
863.575	0.0169259
863.654	0.0168194
863.732	0.0168742
863.810	0.0170819
863.888	0.0169792
863.966	0.0168829
864.044	0.0169269
864.122	0.0169324
864.200	0.0168450
864.279	0.0169721
864.357	0.0169979
864.435	0.0170348
864.513	0.0169653
864.591	0.0170362
864.669	0.0170422
864.747	0.0171154
864.825	0.0171613
864.904	0.0171814
864.982	0.0170348
865.060	0.0172492
865.138	0.0171262
865.216	0.0173754
865.294	0.0172063
865.372	0.0171278
865.450	0.0172341
865.529	0.0171615
865.607	0.0170360
865.685	0.0171381
865.763	0.0169746
865.841	0.0170638
865.919	0.0170150
865.997	0.0169344
866.075	0.0169397
866.154	0.0169710
866.232	0.0169675
866.310	0.0169984
866.388	0.0169272
866.466	0.0170947
866.544	0.0169192
866.622	0.0168336
866.700	0.0169981
866.779	0.0168207
866.857	0.0168732
866.935	0.0169762
867.013	0.0169307
867.091	0.0171267
867.169	0.0169800
867.247	0.0169386
867.325	0.0170517
867.404	0.0169559
867.482	0.0169748
867.560	0.0169746
867.638	0.0171116
867.716	0.0169913
867.794	0.0167957
867.872	0.0167664
867.950	0.0167012
868.029	0.0168322
868.107	0.0166293
868.185	0.0167017
868.263	0.0166537
868.341	0.0166286
868.419	0.0167072
868.497	0.0166611
868.575	0.0168565
868.654	0.0168732
868.732	0.0167477
868.810	0.0168616
868.888	0.0168966
868.966	0.0169910
869.044	0.0170222
869.122	0.0170315
869.200	0.0170859
869.279	0.0171230
869.357	0.0169831
869.435	0.0170223
869.513	0.0169790
869.591	0.0170741
869.669	0.0171259
869.747	0.0169783
869.825	0.0168765
869.904	0.0168852
869.982	0.0169845
870.060	0.0170430
870.138	0.0167912
870.216	0.0169575
870.294	0.0170065
870.372	0.0170876
870.450	0.0169911
870.529	0.0170621
870.607	0.0172495
870.685	0.0170025
870.763	0.0169843
870.841	0.0170518
870.919	0.0171023
870.997	0.0170415
871.075	0.0171463
871.154	0.0171049
871.232	0.0171380
871.310	0.0171546
871.388	0.0171878
871.466	0.0171719
871.544	0.0171585
871.622	0.0173257
871.700	0.0172868
871.779	0.0172878
871.857	0.0171584
871.935	0.0171430
872.013	0.0172604
872.091	0.0172107
872.169	0.0171514
872.247	0.0172892
872.325	0.0171716
872.404	0.0170666
872.482	0.0170965
872.560	0.0171793
872.638	0.0170255
872.716	0.0169910
872.794	0.0169662
872.872	0.0169510
872.950	0.0169469
873.029	0.0169405
873.107	0.0169704
873.185	0.0168628
873.263	0.0167211
873.341	0.0167368
873.419	0.0166324
873.497	0.0167870
873.575	0.0168609
873.654	0.0169334
873.732	0.0169843
873.810	0.0169268
873.888	0.0169949
873.966	0.0171701
874.044	0.0170744
874.122	0.0170451
874.200	0.0171821
874.279	0.0170920
874.357	0.0172314
874.435	0.0171120
874.513	0.0170749
874.591	0.0171129
874.669	0.0169758
874.747	0.0170978
874.825	0.0170777
874.904	0.0169478
874.982	0.0167917
875.060	0.0167795
875.138	0.0168533
875.216	0.0168623
875.294	0.0168694
875.372	0.0169967
875.450	0.0168867
875.529	0.0170772
875.607	0.0170286
875.685	0.0170732
875.763	0.0170235
875.841	0.0171165
875.919	0.0171338
875.997	0.0170980
876.075	0.0170580
876.154	0.0170983
876.232	0.0170024
876.310	0.0170794
876.388	0.0169793
876.466	0.0171072
876.544	0.0171340
876.622	0.0170470
876.700	0.0171760
876.779	0.0170362
876.857	0.0171512
876.935	0.0171222
877.013	0.0170858
877.091	0.0171788
877.169	0.0171402
877.247	0.0170991
877.325	0.0171075
877.404	0.0170691
877.482	0.0169466
877.560	0.0171586
877.638	0.0171528
877.716	0.0170083
877.794	0.0170859
877.872	0.0170846
877.950	0.0169684
878.029	0.0170878
878.107	0.0170659
878.185	0.0172710
878.263	0.0172440
878.341	0.0172481
878.419	0.0172202
878.497	0.0172221
878.575	0.0173164
878.654	0.0173193
878.732	0.0172767
878.810	0.0171777
878.888	0.0171121
878.966	0.0170522
879.044	0.0169981
879.122	0.0170280
879.200	0.0167919
879.279	0.0168370
879.357	0.0167554
879.435	0.0167915
879.513	0.0167164
879.591	0.0166402
879.669	0.0167506
879.747	0.0166808
879.825	0.0167339
879.904	0.0168447
879.982	0.0167037
880.060	0.0167361
880.138	0.0168394
880.216	0.0168541
880.294	0.0168768
880.372	0.0168494
880.450	0.0167485
880.529	0.0169881
880.607	0.0170192
880.685	0.0170635
880.763	0.0171040
880.841	0.0172044
880.919	0.0171339
880.997	0.0171749
881.075	0.0171210
881.154	0.0170564
881.232	0.0171098
881.310	0.0171039
881.388	0.0170712
881.466	0.0172575
881.544	0.0171638
881.622	0.0170538
881.700	0.0169357
881.779	0.0170114
881.857	0.0170545
881.935	0.0169923
882.013	0.0169923
882.091	0.0170898
882.169	0.0168709
882.247	0.0167964
882.325	0.0168773
882.404	0.0169379
882.482	0.0170455
882.560	0.0169257
882.638	0.0169312
882.716	0.0169512
882.794	0.0169412
882.872	0.0170036
882.950	0.0169238
883.029	0.0169102
883.107	0.0170667
883.185	0.0170549
883.263	0.0169125
883.341	0.0169006
883.419	0.0169057
883.497	0.0169028
883.575	0.0169045
883.654	0.0168822
883.732	0.0168954
883.810	0.0169405
883.888	0.0168174
883.966	0.0169751
884.044	0.0169839
884.122	0.0171277
884.200	0.0170802
884.279	0.0170777
884.357	0.0171730
884.435	0.0171270
884.513	0.0171799
884.591	0.0172851
884.669	0.0172556
884.747	0.0174104
884.825	0.0172956
884.904	0.0171155
884.982	0.0172029
885.060	0.0173374
885.138	0.0172950
885.216	0.0170775
885.294	0.0171334
885.372	0.0170300
885.450	0.0168980
885.529	0.0171507
885.607	0.0170071
885.685	0.0169490
885.763	0.0169912
885.841	0.0169771
885.919	0.0167691
885.997	0.0167767
886.075	0.0167615
886.154	0.0167372
886.232	0.0167230
886.310	0.0166107
886.388	0.0165753
886.466	0.0166755
886.544	0.0167344
886.622	0.0167468
886.700	0.0165949
886.779	0.0167777
886.857	0.0169101
886.935	0.0167684
887.013	0.0170042
887.091	0.0169717
887.169	0.0169371
887.247	0.0170880
887.325	0.0170768
887.404	0.0170702
887.482	0.0170793
887.560	0.0171098
887.638	0.0172114
887.716	0.0171869
887.794	0.0171833
887.872	0.0172210
887.950	0.0172438
888.029	0.0172271
888.107	0.0172176
888.185	0.0171960
888.263	0.0172581
888.341	0.0171190
888.419	0.0171879
888.497	0.0172272
888.575	0.0170268
888.654	0.0170986
888.732	0.0169090
888.810	0.0172086
888.888	0.0171941
888.966	0.0170385
889.044	0.0170837
889.122	0.0169797
889.200	0.0171336
889.279	0.0169064
889.357	0.0168433
889.435	0.0169588
889.513	0.0168055
889.591	0.0167748
889.669	0.0167431
889.747	0.0165661
889.825	0.0165105
889.904	0.0165436
889.982	0.0165410
890.060	0.0167255
890.138	0.0164746
890.216	0.0164320
890.294	0.0166225
890.372	0.0167657
890.450	0.0167557
890.529	0.0169611
890.607	0.0169110
890.685	0.0169505
890.763	0.0170708
890.841	0.0170321
890.919	0.0171976
890.997	0.0172176
891.075	0.0173190
891.154	0.0173675
891.232	0.0174141
891.310	0.0175030
891.388	0.0174774
891.466	0.0175005
891.544	0.0173772
891.622	0.0173717
891.700	0.0174442
891.779	0.0174477
891.857	0.0173127
891.935	0.0172495
892.013	0.0171593
892.091	0.0171201
892.169	0.0172733
892.247	0.0170790
892.325	0.0170327
892.404	0.0169685
892.482	0.0168778
892.560	0.0168920
892.638	0.0167745
892.716	0.0167147
892.794	0.0167462
892.872	0.0166542
892.950	0.0166028
893.029	0.0165237
893.107	0.0165071
893.185	0.0166636
893.263	0.0166420
893.341	0.0166206
893.419	0.0166138
893.497	0.0167750
893.575	0.0169599
893.654	0.0169572
893.732	0.0166228
893.810	0.0168614
893.888	0.0168600
893.966	0.0169523
894.044	0.0170415
894.122	0.0170805
894.200	0.0169263
894.279	0.0169587
894.357	0.0170820
894.435	0.0170634
894.513	0.0169702
894.591	0.0170016
894.669	0.0172273
894.747	0.0171889
894.825	0.0172199
894.904	0.0171746
894.982	0.0172848
895.060	0.0171921
895.138	0.0172871
895.216	0.0173946
895.294	0.0172693
895.372	0.0172829
895.450	0.0172300
895.529	0.0171574
895.607	0.0171854
895.685	0.0169644
895.763	0.0169487
895.841	0.0168620
895.919	0.0170724
895.997	0.0168689
896.075	0.0167278
896.154	0.0167475
896.232	0.0168345
896.310	0.0167669
896.388	0.0169016
896.466	0.0168061
896.544	0.0167176
896.622	0.0168954
896.700	0.0168675
896.779	0.0168931
896.857	0.0169048
896.935	0.0169866
897.013	0.0169474
897.091	0.0170322
897.169	0.0170176
897.247	0.0171565
897.325	0.0170148
897.404	0.0171773
897.482	0.0172243
897.560	0.0172193
897.638	0.0171210
897.716	0.0172540
897.794	0.0170858
897.872	0.0172118
897.950	0.0171759
898.029	0.0172109
898.107	0.0172351
898.185	0.0174356
898.263	0.0172737
898.341	0.0171892
898.419	0.0173273
898.497	0.0172618
898.575	0.0173145
898.654	0.0171951
898.732	0.0171481
898.810	0.0172543
898.888	0.0172277
898.966	0.0172304
899.044	0.0171465
899.122	0.0170143
899.200	0.0170118
899.279	0.0170820
899.357	0.0170120
899.435	0.0169592
899.513	0.0168806
899.591	0.0168565
899.669	0.0169413
899.747	0.0168639
899.825	0.0167883
899.904	0.0168813
899.982	0.0166506
900.060	0.0168000
900.138	0.0167542
900.216	0.0169341
900.294	0.0167275
900.372	0.0167731
900.450	0.0167304
900.529	0.0169131
900.607	0.0170389
900.685	0.0169037
900.763	0.0169019
900.841	0.0169233
900.919	0.0170443
900.997	0.0169235
901.075	0.0169675
901.154	0.0171942
901.232	0.0171574
901.310	0.0171399
901.388	0.0172314
901.466	0.0172308
901.544	0.0172659
901.622	0.0173640
901.700	0.0173499
901.779	0.0171597
901.857	0.0171270
901.935	0.0171165
902.013	0.0171358
902.091	0.0170197
902.169	0.0171289
902.247	0.0172317
902.325	0.0168849
902.404	0.0170984
902.482	0.0170438
902.560	0.0172275
902.638	0.0171586
902.716	0.0171623
902.794	0.0171903
902.872	0.0171837
902.950	0.0170809
903.029	0.0171027
903.107	0.0168839
903.185	0.0170478
903.263	0.0169664
903.341	0.0169215
903.419	0.0168726
903.497	0.0168861
903.575	0.0169572
903.654	0.0170155
903.732	0.0169039
903.810	0.0170259
903.888	0.0172077
903.966	0.0172118
904.044	0.0172623
904.122	0.0172922
904.200	0.0174036
904.279	0.0172426
904.357	0.0172359
904.435	0.0171696
904.513	0.0172192
904.591	0.0172898
904.669	0.0170740
904.747	0.0169818
904.825	0.0170371
904.904	0.0170953
904.982	0.0170437
905.060	0.0170446
905.138	0.0170041
905.216	0.0171437
905.294	0.0170432
905.372	0.0170673
905.450	0.0170908
905.529	0.0169749
905.607	0.0171401
905.685	0.0171018
905.763	0.0170164
905.841	0.0171729
905.919	0.0170064
905.997	0.0169033
906.075	0.0169025
906.154	0.0169067
906.232	0.0169558
906.310	0.0169737
906.388	0.0168829
906.466	0.0168099
906.544	0.0169015
906.622	0.0168707
906.700	0.0168370
906.779	0.0170046
906.857	0.0169509
906.935	0.0168639
907.013	0.0169965
907.091	0.0170794
907.169	0.0171006
907.247	0.0169923
907.325	0.0173677
907.404	0.0171249
907.482	0.0170560
907.560	0.0171195
907.638	0.0169875
907.716	0.0169928
907.794	0.0170827
907.872	0.0169437
907.950	0.0170189
908.029	0.0170391
908.107	0.0170319
908.185	0.0169662
908.263	0.0172013
908.341	0.0170544
908.419	0.0170422
908.497	0.0170547
908.575	0.0171122
908.654	0.0171738
908.732	0.0172394
908.810	0.0171777
908.888	0.0170309
908.966	0.0171970
909.044	0.0171217
909.122	0.0170561
909.200	0.0171329
909.279	0.0169246
909.357	0.0169534
909.435	0.0168521
909.513	0.0167699
909.591	0.0168010
909.669	0.0168736
909.747	0.0168717
909.825	0.0167721
909.904	0.0166706
909.982	0.0168542
910.060	0.0167710
910.138	0.0167143
910.216	0.0167825
910.294	0.0168498
910.372	0.0168916
910.450	0.0169078
910.529	0.0169690
910.607	0.0168856
910.685	0.0169709
910.763	0.0170190
910.841	0.0171284
910.919	0.0170583
910.997	0.0171523
911.075	0.0172791
911.154	0.0170898
911.232	0.0171522
911.310	0.0172172
911.388	0.0170304
911.466	0.0170497
911.544	0.0170194
911.622	0.0169950
911.700	0.0170091
911.779	0.0169560
911.857	0.0170509
911.935	0.0170622
912.013	0.0169065
912.091	0.0169582
912.169	0.0170501
912.247	0.0168306
912.325	0.0170147
912.404	0.0169878
912.482	0.0170647
912.560	0.0170440
912.638	0.0171113
912.716	0.0172312
912.794	0.0170594
912.872	0.0170614
912.950	0.0171373
913.029	0.0171101
913.107	0.0170864
913.185	0.0170741
913.263	0.0171026
913.341	0.0171103
913.419	0.0171087
913.497	0.0170522
913.575	0.0170454
913.654	0.0170864
913.732	0.0170094
913.810	0.0169518
913.888	0.0170039
913.966	0.0169477
914.044	0.0168841
914.122	0.0169917
914.200	0.0168668
914.279	0.0170288
914.357	0.0168571
914.435	0.0168649
914.513	0.0168307
914.591	0.0169173
914.669	0.0169997
914.747	0.0168829
914.825	0.0167999
914.904	0.0169266
914.982	0.0167709
915.060	0.0168044
915.138	0.0168539
915.216	0.0168158
915.294	0.0165746
915.372	0.0166267
915.450	0.0167006
915.529	0.0166862
915.607	0.0166262
915.685	0.0165899
915.763	0.0167268
915.841	0.0165560
915.919	0.0166167
915.997	0.0167677
916.075	0.0166383
916.154	0.0165146
916.232	0.0166581
916.310	0.0166902
916.388	0.0166489
916.466	0.0166833
916.544	0.0169247
916.622	0.0167793
916.700	0.0168425
916.779	0.0169417
916.857	0.0170029
916.935	0.0170869
917.013	0.0171411
917.091	0.0171922
917.169	0.0172135
917.247	0.0172480
917.325	0.0174586
917.404	0.0173519
917.482	0.0174881
917.560	0.0173405
917.638	0.0173612
917.716	0.0173895
917.794	0.0174768
917.872	0.0172768
917.950	0.0171432
918.029	0.0172181
918.107	0.0170943
918.185	0.0170537
918.263	0.0170420
918.341	0.0170592
918.419	0.0170986
918.497	0.0170686
918.575	0.0170780
918.654	0.0169828
918.732	0.0170826
918.810	0.0171058
918.888	0.0170778
918.966	0.0170937
919.044	0.0170921
919.122	0.0171454
919.200	0.0172824
919.279	0.0170895
919.357	0.0171420
919.435	0.0170941
919.513	0.0171246
919.591	0.0170887
919.669	0.0171790
919.747	0.0170985
919.825	0.0170219
919.904	0.0169448
