06/03/2022	14:12:10	Ver.	4.1	UNKNOWN
Optical Delay	599.981738	Delta X		0.078125	Sweeps	1	Scan Rate	0/0
Coordinates	Axis 1	NaN	Axis 2	NaN	Axis 3	NaN	Axis 4	NaN	Axis 5	NaN	Axis 6	0.000000
TX Power	0.000000	RX Power	0.000000

599.982	0.0166163
600.060	0.0166423
600.138	0.0166397
600.216	0.0166672
600.294	0.0165969
600.372	0.0166390
600.450	0.0167130
600.529	0.0166830
600.607	0.0166797
600.685	0.0164647
600.763	0.0165379
600.841	0.0166522
600.919	0.0166512
600.997	0.0165933
601.075	0.0166075
601.154	0.0168061
601.232	0.0166844
601.310	0.0165181
601.388	0.0166650
601.466	0.0166469
601.544	0.0167376
601.622	0.0166540
601.700	0.0165712
601.779	0.0168153
601.857	0.0166609
601.935	0.0166772
602.013	0.0165704
602.091	0.0165932
602.169	0.0167287
602.247	0.0167164
602.325	0.0166891
602.404	0.0166598
602.482	0.0166168
602.560	0.0166621
602.638	0.0165972
602.716	0.0164907
602.794	0.0165771
602.872	0.0168913
602.950	0.0166544
603.029	0.0166540
603.107	0.0165885
603.185	0.0166992
603.263	0.0166734
603.341	0.0167527
603.419	0.0166216
603.497	0.0165925
603.575	0.0166653
603.654	0.0166509
603.732	0.0166476
603.810	0.0166486
603.888	0.0167683
603.966	0.0166923
604.044	0.0165675
604.122	0.0167509
604.200	0.0167293
604.279	0.0166750
604.357	0.0166562
604.435	0.0166059
604.513	0.0166472
604.591	0.0166138
604.669	0.0167346
604.747	0.0167105
604.825	0.0166384
604.904	0.0167536
604.982	0.0167008
605.060	0.0166916
605.138	0.0167439
605.216	0.0167126
605.294	0.0165834
605.372	0.0167377
605.450	0.0165710
605.529	0.0166198
605.607	0.0167007
605.685	0.0165916
605.763	0.0166299
605.841	0.0166415
605.919	0.0166743
605.997	0.0165549
606.075	0.0166773
606.154	0.0166549
606.232	0.0167406
606.310	0.0167227
606.388	0.0165345
606.466	0.0167873
606.544	0.0167484
606.622	0.0166711
606.700	0.0165009
606.779	0.0166071
606.857	0.0166238
606.935	0.0165939
607.013	0.0167209
607.091	0.0166708
607.169	0.0166141
607.247	0.0165997
607.325	0.0167505
607.404	0.0166317
607.482	0.0165883
607.560	0.0166976
607.638	0.0166145
607.716	0.0166003
607.794	0.0167332
607.872	0.0166642
607.950	0.0165529
608.029	0.0166330
608.107	0.0167094
608.185	0.0165986
608.263	0.0166674
608.341	0.0167590
608.419	0.0166970
608.497	0.0166366
608.575	0.0166737
608.654	0.0167181
608.732	0.0165823
608.810	0.0166735
608.888	0.0165936
608.966	0.0166255
609.044	0.0166631
609.122	0.0167508
609.200	0.0167719
609.279	0.0167298
609.357	0.0166309
609.435	0.0166677
609.513	0.0167748
609.591	0.0167838
609.669	0.0167284
609.747	0.0167200
609.825	0.0166663
609.904	0.0167554
609.982	0.0166735
610.060	0.0167844
610.138	0.0166521
610.216	0.0167110
610.294	0.0167449
610.372	0.0167280
610.450	0.0167158
610.529	0.0165884
610.607	0.0166902
610.685	0.0166518
610.763	0.0166722
610.841	0.0167000
610.919	0.0168421
610.997	0.0167569
611.075	0.0167082
611.154	0.0167014
611.232	0.0166264
611.310	0.0167355
611.388	0.0166010
611.466	0.0164898
611.544	0.0167445
611.622	0.0167341
611.700	0.0166715
611.779	0.0167433
611.857	0.0166527
611.935	0.0166651
612.013	0.0167203
612.091	0.0167287
612.169	0.0166187
612.247	0.0166678
612.325	0.0165470
612.404	0.0166122
612.482	0.0166817
612.560	0.0166136
612.638	0.0167352
612.716	0.0166860
612.794	0.0166191
612.872	0.0167347
612.950	0.0167852
613.029	0.0165540
613.107	0.0166302
613.185	0.0166038
613.263	0.0165404
613.341	0.0167912
613.419	0.0165904
613.497	0.0166193
613.575	0.0166840
613.654	0.0167121
613.732	0.0167747
613.810	0.0167593
613.888	0.0167645
613.966	0.0164623
614.044	0.0165506
614.122	0.0167582
614.200	0.0166686
614.279	0.0166559
614.357	0.0165816
614.435	0.0166542
614.513	0.0166113
614.591	0.0167235
614.669	0.0166252
614.747	0.0166220
614.825	0.0165285
614.904	0.0164993
614.982	0.0166109
615.060	0.0165485
615.138	0.0165490
615.216	0.0166026
615.294	0.0167217
615.372	0.0167397
615.450	0.0165736
615.529	0.0165520
615.607	0.0165642
615.685	0.0166927
615.763	0.0167256
615.841	0.0167220
615.919	0.0166026
615.997	0.0165042
616.075	0.0166684
616.154	0.0167523
616.232	0.0167999
616.310	0.0165839
616.388	0.0167219
616.466	0.0165961
616.544	0.0166653
616.622	0.0166587
616.700	0.0166847
616.779	0.0167040
616.857	0.0165643
616.935	0.0166125
617.013	0.0166364
617.091	0.0166631
617.169	0.0165530
617.247	0.0165253
617.325	0.0166077
617.404	0.0165481
617.482	0.0165738
617.560	0.0166824
617.638	0.0166401
617.716	0.0165670
617.794	0.0166257
617.872	0.0165800
617.950	0.0165451
618.029	0.0166624
618.107	0.0166791
618.185	0.0165398
618.263	0.0165346
618.341	0.0165732
618.419	0.0164227
618.497	0.0166041
618.575	0.0167323
618.654	0.0165936
618.732	0.0164576
618.810	0.0165781
618.888	0.0166709
618.966	0.0166720
619.044	0.0165977
619.122	0.0165827
619.200	0.0164687
619.279	0.0166091
619.357	0.0166403
619.435	0.0165881
619.513	0.0166060
619.591	0.0165045
619.669	0.0164719
619.747	0.0166636
619.825	0.0166352
619.904	0.0167030
619.982	0.0166119
620.060	0.0166685
620.138	0.0167255
620.216	0.0166611
620.294	0.0167574
620.372	0.0165990
620.450	0.0166497
620.529	0.0167136
620.607	0.0167436
620.685	0.0165976
620.763	0.0166686
620.841	0.0167159
620.919	0.0167284
620.997	0.0166871
621.075	0.0166105
621.154	0.0166679
621.232	0.0167008
621.310	0.0165536
621.388	0.0167183
621.466	0.0167034
621.544	0.0166366
621.622	0.0166063
621.700	0.0165343
621.779	0.0165477
621.857	0.0166946
621.935	0.0166861
622.013	0.0165477
622.091	0.0166898
622.169	0.0167666
622.247	0.0166886
622.325	0.0166953
622.404	0.0166432
622.482	0.0166748
622.560	0.0165488
622.638	0.0166623
622.716	0.0166277
622.794	0.0166496
622.872	0.0166093
622.950	0.0165986
623.029	0.0167258
623.107	0.0166423
623.185	0.0167261
623.263	0.0166344
623.341	0.0167228
623.419	0.0166431
623.497	0.0167169
623.575	0.0166175
623.654	0.0167341
623.732	0.0165878
623.810	0.0166775
623.888	0.0167269
623.966	0.0166558
624.044	0.0166177
624.122	0.0166135
624.200	0.0166636
624.279	0.0167325
624.357	0.0166838
624.435	0.0166766
624.513	0.0167327
624.591	0.0165792
624.669	0.0167096
624.747	0.0165866
624.825	0.0166724
624.904	0.0165216
624.982	0.0165498
625.060	0.0166399
625.138	0.0166228
625.216	0.0166125
625.294	0.0166454
625.372	0.0166722
625.450	0.0166257
625.529	0.0168635
625.607	0.0167817
625.685	0.0167453
625.763	0.0166900
625.841	0.0166772
625.919	0.0167786
625.997	0.0167349
626.075	0.0166792
626.154	0.0166625
626.232	0.0167197
626.310	0.0167938
626.388	0.0168430
626.466	0.0166876
626.544	0.0167847
626.622	0.0166441
626.700	0.0166904
626.779	0.0168194
626.857	0.0167155
626.935	0.0168509
627.013	0.0167238
627.091	0.0167551
627.169	0.0167052
627.247	0.0167171
627.325	0.0167232
627.404	0.0167572
627.482	0.0166050
627.560	0.0167516
627.638	0.0166497
627.716	0.0166326
627.794	0.0166714
627.872	0.0167328
627.950	0.0168085
628.029	0.0166107
628.107	0.0166544
628.185	0.0165311
628.263	0.0165478
628.341	0.0167175
628.419	0.0166819
628.497	0.0165832
628.575	0.0165800
628.654	0.0165543
628.732	0.0167632
628.810	0.0165262
628.888	0.0164381
628.966	0.0166039
629.044	0.0166390
629.122	0.0166442
629.200	0.0165365
629.279	0.0167400
629.357	0.0165752
629.435	0.0166095
629.513	0.0165750
629.591	0.0166100
629.669	0.0165765
629.747	0.0166427
629.825	0.0167496
629.904	0.0166686
629.982	0.0166377
630.060	0.0166556
630.138	0.0166492
630.216	0.0166878
630.294	0.0167467
630.372	0.0165305
630.450	0.0166337
630.529	0.0166280
630.607	0.0166574
630.685	0.0166629
630.763	0.0166694
630.841	0.0166261
630.919	0.0166930
630.997	0.0166081
631.075	0.0166827
631.154	0.0167227
631.232	0.0166489
631.310	0.0167258
631.388	0.0165995
631.466	0.0166895
631.544	0.0167454
631.622	0.0167756
631.700	0.0167264
631.779	0.0166451
631.857	0.0166502
631.935	0.0166492
632.013	0.0167320
632.091	0.0166727
632.169	0.0164867
632.247	0.0165511
632.325	0.0165695
632.404	0.0166419
632.482	0.0166154
632.560	0.0166002
632.638	0.0166061
632.716	0.0166009
632.794	0.0167228
632.872	0.0167148
632.950	0.0167238
633.029	0.0167046
633.107	0.0165896
633.185	0.0166050
633.263	0.0166958
633.341	0.0166061
633.419	0.0165502
633.497	0.0166479
633.575	0.0165382
633.654	0.0165343
633.732	0.0166499
633.810	0.0165578
633.888	0.0164429
633.966	0.0165567
634.044	0.0165777
634.122	0.0165226
634.200	0.0166163
634.279	0.0164794
634.357	0.0165976
634.435	0.0167089
634.513	0.0165653
634.591	0.0164848
634.669	0.0166532
634.747	0.0165334
634.825	0.0167670
634.904	0.0165254
634.982	0.0165830
635.060	0.0165978
635.138	0.0165158
635.216	0.0166467
635.294	0.0167310
635.372	0.0167597
635.450	0.0169047
635.529	0.0167994
635.607	0.0168162
635.685	0.0168128
635.763	0.0167971
635.841	0.0166769
635.919	0.0167306
635.997	0.0166813
636.075	0.0167300
636.154	0.0166658
636.232	0.0164583
636.310	0.0165434
636.388	0.0164791
636.466	0.0163471
636.544	0.0163026
636.622	0.0163088
636.700	0.0162363
636.779	0.0164887
636.857	0.0165537
636.935	0.0166716
637.013	0.0168725
637.091	0.0170132
637.169	0.0170642
637.247	0.0171114
637.325	0.0172066
637.404	0.0170533
637.482	0.0169993
637.560	0.0168291
637.638	0.0166370
637.716	0.0165548
637.794	0.0163889
637.872	0.0162418
637.950	0.0161259
638.029	0.0158672
638.107	0.0160056
638.185	0.0160773
638.263	0.0163513
638.341	0.0163886
638.419	0.0167611
638.497	0.0170230
638.575	0.0172217
638.654	0.0173765
638.732	0.0175837
638.810	0.0176786
638.888	0.0175027
638.966	0.0175497
639.044	0.0172708
639.122	0.0170919
639.200	0.0169027
639.279	0.0166014
639.357	0.0162701
639.435	0.0161544
639.513	0.0160609
639.591	0.0157973
639.669	0.0156901
639.747	0.0157185
639.825	0.0159840
639.904	0.0159335
639.982	0.0161566
640.060	0.0165945
640.138	0.0167240
640.216	0.0170066
640.294	0.0170885
640.372	0.0173399
640.450	0.0174730
640.529	0.0173336
640.607	0.0173452
640.685	0.0173679
640.763	0.0170753
640.841	0.0167342
640.919	0.0163994
640.997	0.0162739
641.075	0.0161881
641.154	0.0160305
641.232	0.0160192
641.310	0.0160482
641.388	0.0162698
641.466	0.0164458
641.544	0.0165138
641.622	0.0166259
641.700	0.0167895
641.779	0.0169515
641.857	0.0168848
641.935	0.0169169
642.013	0.0169574
642.091	0.0169653
642.169	0.0169583
642.247	0.0167741
642.325	0.0168941
642.404	0.0167311
642.482	0.0165791
642.560	0.0167557
642.638	0.0166997
642.716	0.0168706
642.794	0.0168810
642.872	0.0170299
642.950	0.0170058
643.029	0.0169168
643.107	0.0168272
643.185	0.0167862
643.263	0.0168384
643.341	0.0166993
643.419	0.0167183
643.497	0.0165034
643.575	0.0164690
643.654	0.0163265
643.732	0.0162358
643.810	0.0161836
643.888	0.0163331
643.966	0.0163757
644.044	0.0163680
644.122	0.0165310
644.200	0.0168388
644.279	0.0168466
644.357	0.0169807
644.435	0.0171333
644.513	0.0171393
644.591	0.0173093
644.669	0.0172177
644.747	0.0171006
644.825	0.0169876
644.904	0.0168864
644.982	0.0168082
645.060	0.0167445
645.138	0.0165252
645.216	0.0165465
645.294	0.0165466
645.372	0.0163226
645.450	0.0161774
645.529	0.0162581
645.607	0.0163573
645.685	0.0163305
645.763	0.0162638
645.841	0.0163591
645.919	0.0164355
645.997	0.0165715
646.075	0.0166322
646.154	0.0167652
646.232	0.0168348
646.310	0.0168906
646.388	0.0169853
646.466	0.0171658
646.544	0.0170609
646.622	0.0170921
646.700	0.0170123
646.779	0.0169930
646.857	0.0168616
646.935	0.0167367
647.013	0.0167023
647.091	0.0163851
647.169	0.0162864
647.247	0.0161603
647.325	0.0162003
647.404	0.0162096
647.482	0.0162914
647.560	0.0165285
647.638	0.0164843
647.716	0.0165639
647.794	0.0166862
647.872	0.0167952
647.950	0.0169814
648.029	0.0167902
648.107	0.0166635
648.185	0.0168917
648.263	0.0168295
648.341	0.0165694
648.419	0.0167061
648.497	0.0167459
648.575	0.0166640
648.654	0.0166189
648.732	0.0167189
648.810	0.0167221
648.888	0.0166837
648.966	0.0167467
649.044	0.0169498
649.122	0.0170303
649.200	0.0169431
649.279	0.0169479
649.357	0.0167869
649.435	0.0166959
649.513	0.0165411
649.591	0.0165740
649.669	0.0162240
649.747	0.0161436
649.825	0.0160831
649.904	0.0161714
649.982	0.0160489
650.060	0.0160457
650.138	0.0163145
650.216	0.0167589
650.294	0.0166681
650.372	0.0167706
650.450	0.0169675
650.529	0.0170116
650.607	0.0169959
650.685	0.0171478
650.763	0.0172264
650.841	0.0171925
650.919	0.0171321
650.997	0.0170319
651.075	0.0167941
651.154	0.0166369
651.232	0.0165166
651.310	0.0164690
651.388	0.0163938
651.466	0.0162942
651.544	0.0160821
651.622	0.0161383
651.700	0.0161472
651.779	0.0162521
651.857	0.0164374
651.935	0.0165035
652.013	0.0166582
652.091	0.0168944
652.169	0.0170046
652.247	0.0171342
652.325	0.0171014
652.404	0.0171462
652.482	0.0171845
652.560	0.0171827
652.638	0.0171030
652.716	0.0169530
652.794	0.0168532
652.872	0.0167827
652.950	0.0166052
653.029	0.0164278
653.107	0.0164951
653.185	0.0163338
653.263	0.0162696
653.341	0.0162151
653.419	0.0161575
653.497	0.0162579
653.575	0.0163890
653.654	0.0165293
653.732	0.0165154
653.810	0.0165692
653.888	0.0166520
653.966	0.0167052
654.044	0.0166804
654.122	0.0167223
654.200	0.0168329
654.279	0.0168956
654.357	0.0168878
654.435	0.0169398
654.513	0.0168683
654.591	0.0169234
654.669	0.0169518
654.747	0.0169785
654.825	0.0168604
654.904	0.0166803
654.982	0.0167344
655.060	0.0166383
655.138	0.0164685
655.216	0.0163859
655.294	0.0165422
655.372	0.0164561
655.450	0.0162714
655.529	0.0162502
655.607	0.0163125
655.685	0.0163071
655.763	0.0163719
655.841	0.0165803
655.919	0.0166924
655.997	0.0166029
656.075	0.0165710
656.154	0.0166029
656.232	0.0167453
656.310	0.0167250
656.388	0.0166866
656.466	0.0168824
656.544	0.0168914
656.622	0.0167314
656.700	0.0168318
656.779	0.0166822
656.857	0.0166368
656.935	0.0166678
657.013	0.0165569
657.091	0.0167057
657.169	0.0169022
657.247	0.0169048
657.325	0.0169937
657.404	0.0169759
657.482	0.0168975
657.560	0.0170808
657.638	0.0169695
657.716	0.0169307
657.794	0.0168880
657.872	0.0167492
657.950	0.0166772
658.029	0.0167517
658.107	0.0166861
658.185	0.0166102
658.263	0.0166064
658.341	0.0166000
658.419	0.0164068
658.497	0.0164054
658.575	0.0164771
658.654	0.0162714
658.732	0.0163815
658.810	0.0162256
658.888	0.0160450
658.966	0.0161565
659.044	0.0160925
659.122	0.0161311
659.200	0.0161428
659.279	0.0163088
659.357	0.0163171
659.435	0.0164288
659.513	0.0165811
659.591	0.0166090
659.669	0.0167592
659.747	0.0170087
659.825	0.0168740
659.904	0.0168971
659.982	0.0170387
660.060	0.0169782
660.138	0.0170309
660.216	0.0169650
660.294	0.0170547
660.372	0.0171274
660.450	0.0170708
660.529	0.0170258
660.607	0.0170442
660.685	0.0169370
660.763	0.0170575
660.841	0.0170869
660.919	0.0168942
660.997	0.0170222
661.075	0.0169743
661.154	0.0169531
661.232	0.0169238
661.310	0.0168398
661.388	0.0167240
661.466	0.0168031
661.544	0.0164355
661.622	0.0164335
661.700	0.0163234
661.779	0.0163223
661.857	0.0163182
661.935	0.0161683
662.013	0.0162485
662.091	0.0161877
662.169	0.0161820
662.247	0.0164952
662.325	0.0165704
662.404	0.0166446
662.482	0.0167805
662.560	0.0167079
662.638	0.0167677
662.716	0.0169257
662.794	0.0169260
662.872	0.0167788
662.950	0.0166264
663.029	0.0165478
663.107	0.0164495
663.185	0.0164548
663.263	0.0162136
663.341	0.0161948
663.419	0.0160779
663.497	0.0160126
663.575	0.0160809
663.654	0.0160574
663.732	0.0160590
663.810	0.0162276
663.888	0.0164491
663.966	0.0164465
664.044	0.0165598
664.122	0.0167141
664.200	0.0167012
664.279	0.0168976
664.357	0.0168703
664.435	0.0169678
664.513	0.0171685
664.591	0.0172287
664.669	0.0169601
664.747	0.0171230
664.825	0.0173463
664.904	0.0170659
664.982	0.0170486
665.060	0.0172126
665.138	0.0172448
665.216	0.0171944
665.294	0.0171515
665.372	0.0170903
665.450	0.0171746
665.529	0.0171200
665.607	0.0171663
665.685	0.0171976
665.763	0.0171011
665.841	0.0170461
665.919	0.0171977
665.997	0.0171035
666.075	0.0172720
666.154	0.0170168
666.232	0.0168884
666.310	0.0168999
666.388	0.0167246
666.466	0.0166163
666.544	0.0164621
666.622	0.0164188
666.700	0.0162782
666.779	0.0161537
666.857	0.0157965
666.935	0.0157933
667.013	0.0157495
667.091	0.0156275
667.169	0.0155919
667.247	0.0156490
667.325	0.0154144
667.404	0.0156832
667.482	0.0155666
667.560	0.0157291
667.638	0.0156428
667.716	0.0157673
667.794	0.0159695
667.872	0.0162354
667.950	0.0164761
668.029	0.0167660
668.107	0.0169202
668.185	0.0171796
668.263	0.0173255
668.341	0.0176880
668.419	0.0177066
668.497	0.0178526
668.575	0.0177857
668.654	0.0178940
668.732	0.0179570
668.810	0.0179813
668.888	0.0177834
668.966	0.0176210
669.044	0.0175724
669.122	0.0174066
669.200	0.0172453
669.279	0.0167953
669.357	0.0165073
669.435	0.0164625
669.513	0.0162632
669.591	0.0161449
669.669	0.0160388
669.747	0.0160941
669.825	0.0158612
669.904	0.0160658
669.982	0.0159324
670.060	0.0159266
670.138	0.0160191
670.216	0.0160793
670.294	0.0160697
670.372	0.0161427
670.450	0.0161855
670.529	0.0163465
670.607	0.0164737
670.685	0.0164831
670.763	0.0165897
670.841	0.0167446
670.919	0.0167561
670.997	0.0169188
671.075	0.0170755
671.154	0.0173079
671.232	0.0174785
671.310	0.0177287
671.388	0.0177222
671.466	0.0179485
671.544	0.0179591
671.622	0.0178115
671.700	0.0177997
671.779	0.0176180
671.857	0.0175378
671.935	0.0171288
672.013	0.0170333
672.091	0.0167655
672.169	0.0163618
672.247	0.0161690
672.325	0.0159704
672.404	0.0159303
672.482	0.0157469
672.560	0.0157516
672.638	0.0158782
672.716	0.0158175
672.794	0.0159048
672.872	0.0161053
672.950	0.0159303
673.029	0.0158398
673.107	0.0159097
673.185	0.0159621
673.263	0.0160237
673.341	0.0159002
673.419	0.0158044
673.497	0.0158360
673.575	0.0160310
673.654	0.0159554
673.732	0.0161886
673.810	0.0161089
673.888	0.0163969
673.966	0.0164596
674.044	0.0166708
674.122	0.0169196
674.200	0.0170329
674.279	0.0171143
674.357	0.0173521
674.435	0.0174623
674.513	0.0176262
674.591	0.0176897
674.669	0.0179760
674.747	0.0179683
674.825	0.0180748
674.904	0.0180565
674.982	0.0182265
675.060	0.0182526
675.138	0.0181523
675.216	0.0180344
675.294	0.0179739
675.372	0.0177624
675.450	0.0173458
675.529	0.0170232
675.607	0.0166547
675.685	0.0162808
675.763	0.0160589
675.841	0.0156314
675.919	0.0152687
675.997	0.0149627
676.075	0.0148884
676.154	0.0147825
676.232	0.0147443
676.310	0.0149092
676.388	0.0149837
676.466	0.0152777
676.544	0.0155543
676.622	0.0158702
676.700	0.0161356
676.779	0.0163745
676.857	0.0166444
676.935	0.0168014
677.013	0.0170135
677.091	0.0170837
677.169	0.0171903
677.247	0.0173437
677.325	0.0175291
677.404	0.0175446
677.482	0.0175368
677.560	0.0176614
677.638	0.0175881
677.716	0.0174227
677.794	0.0174828
677.872	0.0173208
677.950	0.0173823
678.029	0.0174145
678.107	0.0172276
678.185	0.0171207
678.263	0.0171255
678.341	0.0171119
678.419	0.0170020
678.497	0.0170901
678.575	0.0171183
678.654	0.0169792
678.732	0.0171680
678.810	0.0170770
678.888	0.0171265
678.966	0.0168522
679.044	0.0167934
679.122	0.0166401
679.200	0.0163758
679.279	0.0164252
679.357	0.0161799
679.435	0.0162057
679.513	0.0161907
679.591	0.0158619
679.669	0.0160621
679.747	0.0160985
679.825	0.0160497
679.904	0.0159459
679.982	0.0159904
680.060	0.0160394
680.138	0.0161490
680.216	0.0161027
680.294	0.0160878
680.372	0.0162184
680.450	0.0160302
680.529	0.0160048
680.607	0.0161839
680.685	0.0161115
680.763	0.0162355
680.841	0.0163126
680.919	0.0165171
680.997	0.0167010
681.075	0.0167144
681.154	0.0166720
681.232	0.0169051
681.310	0.0171246
681.388	0.0171915
681.466	0.0171785
681.544	0.0172176
681.622	0.0170038
681.700	0.0170441
681.779	0.0171399
681.857	0.0169490
681.935	0.0168653
682.013	0.0167413
682.091	0.0165791
682.169	0.0163840
682.247	0.0164183
682.325	0.0164532
682.404	0.0163127
682.482	0.0163943
682.560	0.0162988
682.638	0.0164586
682.716	0.0165025
682.794	0.0166622
682.872	0.0164297
682.950	0.0163698
683.029	0.0162589
683.107	0.0163640
683.185	0.0160326
683.263	0.0159026
683.341	0.0159486
683.419	0.0158200
683.497	0.0159698
683.575	0.0161678
683.654	0.0164842
683.732	0.0169543
683.810	0.0175117
683.888	0.0179581
683.966	0.0185014
684.044	0.0188945
684.122	0.0192110
684.200	0.0192391
684.279	0.0191312
684.357	0.0190517
684.435	0.0188357
684.513	0.0183724
684.591	0.0179762
684.669	0.0175305
684.747	0.0171043
684.825	0.0167080
684.904	0.0165237
684.982	0.0163811
685.060	0.0162601
685.138	0.0162206
685.216	0.0164462
685.294	0.0163630
685.372	0.0165114
685.450	0.0165464
685.529	0.0168597
685.607	0.0169823
685.685	0.0170243
685.763	0.0168769
685.841	0.0168084
685.919	0.0167557
685.997	0.0167448
686.075	0.0168172
686.154	0.0164272
686.232	0.0163878
686.310	0.0164713
686.388	0.0161507
686.466	0.0160139
686.544	0.0160823
686.622	0.0158418
686.700	0.0156747
686.779	0.0154894
686.857	0.0153966
686.935	0.0151437
687.013	0.0147828
687.091	0.0144658
687.169	0.0141943
687.247	0.0140656
687.325	0.0140769
687.404	0.0137479
687.482	0.0137167
687.560	0.0137274
687.638	0.0139252
687.716	0.0140963
687.794	0.0144080
687.872	0.0146629
687.950	0.0150922
688.029	0.0155695
688.107	0.0161214
688.185	0.0166940
688.263	0.0172962
688.341	0.0178661
688.419	0.0184939
688.497	0.0188512
688.575	0.0191945
688.654	0.0196896
688.732	0.0198859
688.810	0.0200481
688.888	0.0201261
688.966	0.0202046
689.044	0.0200207
689.122	0.0198782
689.200	0.0194809
689.279	0.0190314
689.357	0.0185199
689.435	0.0180766
689.513	0.0176489
689.591	0.0171327
689.669	0.0166546
689.747	0.0162904
689.825	0.0159929
689.904	0.0154500
689.982	0.0152897
690.060	0.0153545
690.138	0.0151647
690.216	0.0152161
690.294	0.0153744
690.372	0.0155783
690.450	0.0157147
690.529	0.0159775
690.607	0.0162681
690.685	0.0164237
690.763	0.0165047
690.841	0.0168281
690.919	0.0168607
690.997	0.0169455
691.075	0.0169868
691.154	0.0169575
691.232	0.0169320
691.310	0.0168435
691.388	0.0168002
691.466	0.0168877
691.544	0.0168989
691.622	0.0170362
691.700	0.0171191
691.779	0.0172663
691.857	0.0174284
691.935	0.0176385
692.013	0.0177960
692.091	0.0178658
692.169	0.0179714
692.247	0.0181760
692.325	0.0181348
692.404	0.0181886
692.482	0.0182139
692.560	0.0181615
692.638	0.0181342
692.716	0.0181617
692.794	0.0178508
692.872	0.0177823
692.950	0.0176421
693.029	0.0173820
693.107	0.0172141
693.185	0.0168394
693.263	0.0165150
693.341	0.0163105
693.419	0.0158646
693.497	0.0153802
693.575	0.0149371
693.654	0.0143111
693.732	0.0136433
693.810	0.0131076
693.888	0.0124370
693.966	0.0118137
694.044	0.0113763
694.122	0.0110088
694.200	0.0105527
694.279	0.0105708
694.357	0.0105179
694.435	0.0107377
694.513	0.0111366
694.591	0.0114686
694.669	0.0120776
694.747	0.0126112
694.825	0.0135907
694.904	0.0145390
694.982	0.0152831
695.060	0.0162595
695.138	0.0173170
695.216	0.0182224
695.294	0.0190520
695.372	0.0198841
695.450	0.0205579
695.529	0.0213190
695.607	0.0217561
695.685	0.0221281
695.763	0.0223386
695.841	0.0226273
695.919	0.0226663
695.997	0.0228134
696.075	0.0227605
696.154	0.0227518
696.232	0.0227107
696.310	0.0224480
696.388	0.0222054
696.466	0.0219106
696.544	0.0214966
696.622	0.0210963
696.700	0.0206033
696.779	0.0199392
696.857	0.0192501
696.935	0.0187953
697.013	0.0181463
697.091	0.0174696
697.169	0.0166637
697.247	0.0157419
697.325	0.0149971
697.404	0.0143697
697.482	0.0135941
697.560	0.0128374
697.638	0.0120891
697.716	0.0115755
697.794	0.0111800
697.872	0.0108768
697.950	0.0107747
698.029	0.0106906
698.107	0.0109894
698.185	0.0111632
698.263	0.0116177
698.341	0.0122330
698.419	0.0127846
698.497	0.0135116
698.575	0.0143259
698.654	0.0152526
698.732	0.0162401
698.810	0.0169331
698.888	0.0176936
698.966	0.0185783
699.044	0.0193386
699.122	0.0196809
699.200	0.0202817
699.279	0.0207065
699.357	0.0210875
699.435	0.0213171
699.513	0.0214193
699.591	0.0213354
699.669	0.0213334
699.747	0.0209477
699.825	0.0205952
699.904	0.0201205
699.982	0.0195900
700.060	0.0188592
700.138	0.0180473
700.216	0.0172137
700.294	0.0163725
700.372	0.0153858
700.450	0.0144718
700.529	0.0134682
700.607	0.0127005
700.685	0.0119199
700.763	0.0111237
700.841	0.0106161
700.919	0.0101156
700.997	0.00990364
701.075	0.00991920
701.154	0.00999260
701.232	0.0103130
701.310	0.0107964
701.388	0.0112410
701.466	0.0119939
701.544	0.0127226
701.622	0.0133484
701.700	0.0142256
701.779	0.0150422
701.857	0.0157452
701.935	0.0164083
702.013	0.0171986
702.091	0.0179503
702.169	0.0186794
702.247	0.0193594
702.325	0.0199993
702.404	0.0205858
702.482	0.0210661
702.560	0.0215421
702.638	0.0219531
702.716	0.0225191
702.794	0.0227291
702.872	0.0228865
702.950	0.0230409
703.029	0.0229728
703.107	0.0230177
703.185	0.0230373
703.263	0.0227014
703.341	0.0223262
703.419	0.0216977
703.497	0.0210715
703.575	0.0203951
703.654	0.0195655
703.732	0.0184783
703.810	0.0172265
703.888	0.0161003
703.966	0.0150037
704.044	0.0139031
704.122	0.0128664
704.200	0.0121201
704.279	0.0114639
704.357	0.0108346
704.435	0.0105652
704.513	0.0105028
704.591	0.0107987
704.669	0.0112730
704.747	0.0117340
704.825	0.0127488
704.904	0.0135884
704.982	0.0145967
705.060	0.0155366
705.138	0.0166848
705.216	0.0177367
705.294	0.0186914
705.372	0.0194586
705.450	0.0202144
705.529	0.0210081
705.607	0.0213191
705.685	0.0216874
705.763	0.0218421
705.841	0.0217403
705.919	0.0215168
705.997	0.0212468
706.075	0.0208612
706.154	0.0202525
706.232	0.0195461
706.310	0.0188287
706.388	0.0179922
706.466	0.0172780
706.544	0.0164539
706.622	0.0156721
706.700	0.0151801
706.779	0.0144566
706.857	0.0137092
706.935	0.0132126
707.013	0.0127750
707.091	0.0123346
707.169	0.0119801
707.247	0.0113528
707.325	0.0111176
707.404	0.0107106
707.482	0.0106358
707.560	0.0105868
707.638	0.0104762
707.716	0.0104187
707.794	0.0105328
707.872	0.0107200
707.950	0.0110899
708.029	0.0115964
708.107	0.0120834
708.185	0.0126180
708.263	0.0132301
708.341	0.0138512
708.419	0.0145074
708.497	0.0153987
708.575	0.0159504
708.654	0.0168562
708.732	0.0176300
708.810	0.0183114
708.888	0.0191377
708.966	0.0199129
709.044	0.0206705
709.122	0.0212769
709.200	0.0218410
709.279	0.0222925
709.357	0.0228545
709.435	0.0229297
709.513	0.0229651
709.591	0.0230956
709.669	0.0230868
709.747	0.0227382
709.825	0.0222503
709.904	0.0220401
709.982	0.0213374
710.060	0.0207928
710.138	0.0202689
710.216	0.0197694
710.294	0.0191397
710.372	0.0186852
710.450	0.0181812
710.529	0.0178526
710.607	0.0176553
710.685	0.0172910
710.763	0.0170427
710.841	0.0169891
710.919	0.0169495
710.997	0.0168214
711.075	0.0167635
711.154	0.0168404
711.232	0.0167410
711.310	0.0168156
711.388	0.0169007
711.466	0.0169157
711.544	0.0168223
711.622	0.0169506
711.700	0.0169482
711.779	0.0168712
711.857	0.0167698
711.935	0.0168856
712.013	0.0167308
712.091	0.0166029
712.169	0.0163572
712.247	0.0159666
712.325	0.0157327
712.404	0.0154646
712.482	0.0150248
712.560	0.0147365
712.638	0.0146400
712.716	0.0143336
712.794	0.0140319
712.872	0.0138020
712.950	0.0135673
713.029	0.0135398
713.107	0.0133127
713.185	0.0130479
713.263	0.0131416
713.341	0.0130900
713.419	0.0128588
713.497	0.0129634
713.575	0.0129254
713.654	0.0129237
713.732	0.0129210
713.810	0.0130581
713.888	0.0133086
713.966	0.0134769
714.044	0.0137571
714.122	0.0139198
714.200	0.0139993
714.279	0.0142101
714.357	0.0144256
714.435	0.0147008
714.513	0.0148627
714.591	0.0152304
714.669	0.0155603
714.747	0.0159614
714.825	0.0163253
714.904	0.0166628
714.982	0.0171085
715.060	0.0175121
715.138	0.0177020
715.216	0.0180604
715.294	0.0184268
715.372	0.0188763
715.450	0.0192278
715.529	0.0193848
715.607	0.0195596
715.685	0.0198743
715.763	0.0198373
715.841	0.0201770
715.919	0.0202257
715.997	0.0205906
716.075	0.0208148
716.154	0.0207336
716.232	0.0209529
716.310	0.0209302
716.388	0.0209784
716.466	0.0210976
716.544	0.0210248
716.622	0.0209453
716.700	0.0207312
716.779	0.0204572
716.857	0.0203112
716.935	0.0201172
717.013	0.0195490
717.091	0.0192119
717.169	0.0189314
717.247	0.0183032
717.325	0.0179649
717.404	0.0174730
717.482	0.0171618
717.560	0.0168697
717.638	0.0166020
717.716	0.0162487
717.794	0.0161646
717.872	0.0157005
717.950	0.0154590
718.029	0.0153156
718.107	0.0150576
718.185	0.0148214
718.263	0.0145872
718.341	0.0143183
718.419	0.0141855
718.497	0.0139806
718.575	0.0136914
718.654	0.0137404
718.732	0.0136988
718.810	0.0136562
718.888	0.0137339
718.966	0.0139436
719.044	0.0142137
719.122	0.0142886
719.200	0.0145365
719.279	0.0146177
719.357	0.0148655
719.435	0.0149079
719.513	0.0150060
719.591	0.0151197
719.669	0.0152464
719.747	0.0151035
719.825	0.0152525
719.904	0.0154745
719.982	0.0154203
720.060	0.0153819
720.138	0.0154732
720.216	0.0153932
720.294	0.0154694
720.372	0.0154254
720.450	0.0157394
720.529	0.0158878
720.607	0.0160434
720.685	0.0163901
720.763	0.0166516
720.841	0.0166241
720.919	0.0166591
720.997	0.0169779
721.075	0.0171160
721.154	0.0171567
721.232	0.0170564
721.310	0.0171558
721.388	0.0170988
721.466	0.0169353
721.544	0.0167610
721.622	0.0168435
721.700	0.0169331
721.779	0.0169382
721.857	0.0170597
721.935	0.0172609
722.013	0.0174426
722.091	0.0175212
722.169	0.0177158
722.247	0.0180602
722.325	0.0183548
722.404	0.0187105
722.482	0.0190673
722.560	0.0192519
722.638	0.0193859
722.716	0.0196208
722.794	0.0196231
722.872	0.0198073
722.950	0.0195935
723.029	0.0194887
723.107	0.0192249
723.185	0.0188102
723.263	0.0186055
723.341	0.0182411
723.419	0.0179685
723.497	0.0177805
723.575	0.0173728
723.654	0.0171534
723.732	0.0170287
723.810	0.0167378
723.888	0.0164162
723.966	0.0163725
724.044	0.0162925
724.122	0.0160520
724.200	0.0161259
724.279	0.0159456
724.357	0.0157671
724.435	0.0156855
724.513	0.0156324
724.591	0.0155222
724.669	0.0156616
724.747	0.0154809
724.825	0.0154041
724.904	0.0153000
724.982	0.0153642
725.060	0.0153391
725.138	0.0150975
725.216	0.0151380
725.294	0.0151352
725.372	0.0149961
725.450	0.0149710
725.529	0.0151224
725.607	0.0151157
725.685	0.0151440
725.763	0.0151160
725.841	0.0151598
725.919	0.0152985
725.997	0.0152338
726.075	0.0153626
726.154	0.0154748
726.232	0.0156047
726.310	0.0159470
726.388	0.0161736
726.466	0.0164852
726.544	0.0166972
726.622	0.0168486
726.700	0.0171572
726.779	0.0172979
726.857	0.0175794
726.935	0.0175565
727.013	0.0178706
727.091	0.0178885
727.169	0.0180733
727.247	0.0179465
727.325	0.0178885
727.404	0.0178449
727.482	0.0177363
727.560	0.0175253
727.638	0.0173926
727.716	0.0172984
727.794	0.0169990
727.872	0.0169474
727.950	0.0167703
728.029	0.0166474
728.107	0.0166037
728.185	0.0166075
728.263	0.0166481
728.341	0.0168053
728.419	0.0167989
728.497	0.0168037
728.575	0.0168989
728.654	0.0169812
728.732	0.0172301
728.810	0.0170695
728.888	0.0171527
728.966	0.0170953
729.044	0.0170826
729.122	0.0170985
729.200	0.0170469
729.279	0.0168607
729.357	0.0167336
729.435	0.0166032
729.513	0.0167049
729.591	0.0166850
729.669	0.0165321
729.747	0.0164320
729.825	0.0164799
729.904	0.0164481
729.982	0.0163780
730.060	0.0161325
730.138	0.0161423
730.216	0.0160911
730.294	0.0159998
730.372	0.0159100
730.450	0.0158598
730.529	0.0159502
730.607	0.0158171
730.685	0.0158424
730.763	0.0160654
730.841	0.0161838
730.919	0.0162370
730.997	0.0162859
731.075	0.0163969
731.154	0.0163257
731.232	0.0166074
731.310	0.0167379
731.388	0.0167127
731.466	0.0166291
731.544	0.0167254
731.622	0.0166329
731.700	0.0166079
731.779	0.0165023
731.857	0.0161920
731.935	0.0162690
732.013	0.0162051
732.091	0.0162249
732.169	0.0160150
732.247	0.0160912
732.325	0.0161100
732.404	0.0162080
732.482	0.0164433
732.560	0.0165558
732.638	0.0169800
732.716	0.0169909
732.794	0.0172017
732.872	0.0174724
732.950	0.0177732
733.029	0.0178039
733.107	0.0178872
733.185	0.0180656
733.263	0.0181193
733.341	0.0181544
733.419	0.0181022
733.497	0.0180832
733.575	0.0179093
733.654	0.0177149
733.732	0.0174648
733.810	0.0171496
733.888	0.0169685
733.966	0.0168832
734.044	0.0168602
734.122	0.0167275
734.200	0.0165554
734.279	0.0165892
734.357	0.0165543
734.435	0.0164384
734.513	0.0165388
734.591	0.0166436
734.669	0.0166520
734.747	0.0167953
734.825	0.0169110
734.904	0.0167284
734.982	0.0168304
735.060	0.0171048
735.138	0.0169010
735.216	0.0170083
735.294	0.0167373
735.372	0.0167113
735.450	0.0166456
735.529	0.0165125
735.607	0.0164401
735.685	0.0161189
735.763	0.0160495
735.841	0.0159251
735.919	0.0157870
735.997	0.0157066
736.075	0.0156449
736.154	0.0156777
736.232	0.0155588
736.310	0.0154691
736.388	0.0155278
736.466	0.0155392
736.544	0.0155650
736.622	0.0154887
736.700	0.0155100
736.779	0.0155994
736.857	0.0155917
736.935	0.0156120
737.013	0.0155643
737.091	0.0159885
737.169	0.0159847
737.247	0.0160960
737.325	0.0161618
737.404	0.0162881
737.482	0.0163834
737.560	0.0164654
737.638	0.0165442
737.716	0.0166129
737.794	0.0165033
737.872	0.0165160
737.950	0.0165829
738.029	0.0164882
738.107	0.0164649
738.185	0.0165193
738.263	0.0165282
738.341	0.0166148
738.419	0.0166377
738.497	0.0167345
738.575	0.0168243
738.654	0.0170309
738.732	0.0171574
738.810	0.0173201
738.888	0.0172834
738.966	0.0174970
739.044	0.0176564
739.122	0.0174625
739.200	0.0176218
739.279	0.0176701
739.357	0.0176394
739.435	0.0175813
739.513	0.0177267
739.591	0.0176925
739.669	0.0175271
739.747	0.0175480
739.825	0.0175367
739.904	0.0172992
739.982	0.0175322
740.060	0.0175555
740.138	0.0175381
740.216	0.0175834
740.294	0.0175557
740.372	0.0173019
740.450	0.0172522
740.529	0.0173512
740.607	0.0173315
740.685	0.0173029
740.763	0.0172002
740.841	0.0171190
740.919	0.0170135
740.997	0.0169389
741.075	0.0168060
741.154	0.0167289
741.232	0.0167780
741.310	0.0167361
741.388	0.0166994
741.466	0.0165688
741.544	0.0166021
741.622	0.0166412
741.700	0.0166646
741.779	0.0164637
741.857	0.0165192
741.935	0.0166029
742.013	0.0164059
742.091	0.0164531
742.169	0.0163776
742.247	0.0162804
742.325	0.0159755
742.404	0.0159081
742.482	0.0158290
742.560	0.0157717
742.638	0.0157063
742.716	0.0154956
742.794	0.0154881
742.872	0.0154461
742.950	0.0155673
743.029	0.0154003
743.107	0.0154691
743.185	0.0155515
743.263	0.0157237
743.341	0.0156046
743.419	0.0156808
743.497	0.0157940
743.575	0.0159575
743.654	0.0159365
743.732	0.0160521
743.810	0.0159567
743.888	0.0161111
743.966	0.0161232
744.044	0.0162038
744.122	0.0163219
744.200	0.0163061
744.279	0.0164154
744.357	0.0164961
744.435	0.0164252
744.513	0.0166381
744.591	0.0167377
744.669	0.0167982
744.747	0.0168392
744.825	0.0168278
744.904	0.0168706
744.982	0.0168056
745.060	0.0168620
745.138	0.0169929
745.216	0.0168882
745.294	0.0168353
745.372	0.0170016
745.450	0.0169311
745.529	0.0168764
745.607	0.0169853
745.685	0.0170415
745.763	0.0169118
745.841	0.0170570
745.919	0.0171647
745.997	0.0171608
746.075	0.0171471
746.154	0.0173155
746.232	0.0173781
746.310	0.0173989
746.388	0.0174610
746.466	0.0175974
746.544	0.0176199
746.622	0.0173963
746.700	0.0175094
746.779	0.0175509
746.857	0.0175398
746.935	0.0177462
747.013	0.0175788
747.091	0.0176687
747.169	0.0176131
747.247	0.0175745
747.325	0.0175096
747.404	0.0173708
747.482	0.0173053
747.560	0.0173241
747.638	0.0172442
747.716	0.0170894
747.794	0.0169962
747.872	0.0166972
747.950	0.0168778
748.029	0.0168957
748.107	0.0165161
748.185	0.0164796
748.263	0.0163139
748.341	0.0161644
748.419	0.0161057
748.497	0.0160310
748.575	0.0157693
748.654	0.0157542
748.732	0.0157900
748.810	0.0157983
748.888	0.0158883
748.966	0.0160246
749.044	0.0159198
749.122	0.0159607
749.200	0.0159581
749.279	0.0161388
749.357	0.0162431
749.435	0.0163854
749.513	0.0163679
749.591	0.0162724
749.669	0.0162955
749.747	0.0164768
749.825	0.0162988
749.904	0.0163272
749.982	0.0164450
750.060	0.0163363
750.138	0.0162808
750.216	0.0162602
750.294	0.0162681
750.372	0.0161949
750.450	0.0161422
750.529	0.0160959
750.607	0.0161700
750.685	0.0161531
750.763	0.0162632
750.841	0.0162180
750.919	0.0162697
750.997	0.0164999
751.075	0.0164979
751.154	0.0164109
751.232	0.0167267
751.310	0.0165806
751.388	0.0166760
751.466	0.0166177
751.544	0.0165675
751.622	0.0166972
751.700	0.0166537
751.779	0.0166769
751.857	0.0166149
751.935	0.0165208
752.013	0.0164487
752.091	0.0163363
752.169	0.0163914
752.247	0.0163565
752.325	0.0163033
752.404	0.0164520
752.482	0.0163477
752.560	0.0164480
752.638	0.0164958
752.716	0.0164909
752.794	0.0166048
752.872	0.0166749
752.950	0.0168021
753.029	0.0169374
753.107	0.0171470
753.185	0.0172363
753.263	0.0173936
753.341	0.0174445
753.419	0.0176120
753.497	0.0176217
753.575	0.0176645
753.654	0.0176282
753.732	0.0175472
753.810	0.0174269
753.888	0.0175258
753.966	0.0173162
754.044	0.0172092
754.122	0.0170547
754.200	0.0169621
754.279	0.0168719
754.357	0.0166728
754.435	0.0165499
754.513	0.0164407
754.591	0.0164631
754.669	0.0165231
754.747	0.0165685
754.825	0.0165451
754.904	0.0165681
754.982	0.0164715
755.060	0.0165995
755.138	0.0166524
755.216	0.0166456
755.294	0.0167684
755.372	0.0167667
755.450	0.0167493
755.529	0.0167446
755.607	0.0167691
755.685	0.0165742
755.763	0.0166940
755.841	0.0167281
755.919	0.0167701
755.997	0.0167070
756.075	0.0166364
756.154	0.0166252
756.232	0.0165817
756.310	0.0168007
756.388	0.0166136
756.466	0.0166630
756.544	0.0167102
756.622	0.0166473
756.700	0.0165257
756.779	0.0164915
756.857	0.0164686
756.935	0.0163389
757.013	0.0161790
757.091	0.0163612
757.169	0.0161370
757.247	0.0160965
757.325	0.0160245
757.404	0.0158181
757.482	0.0159429
757.560	0.0158740
757.638	0.0159460
757.716	0.0161380
757.794	0.0160364
757.872	0.0161115
757.950	0.0163559
758.029	0.0164680
758.107	0.0165026
758.185	0.0165644
758.263	0.0166611
758.341	0.0166714
758.419	0.0166206
758.497	0.0167036
758.575	0.0168195
758.654	0.0168694
758.732	0.0168269
758.810	0.0168918
758.888	0.0168699
758.966	0.0168254
759.044	0.0169489
759.122	0.0170379
759.200	0.0168668
759.279	0.0168512
759.357	0.0168461
759.435	0.0169552
759.513	0.0169594
759.591	0.0170338
759.669	0.0169118
759.747	0.0167484
759.825	0.0168560
759.904	0.0168400
759.982	0.0164494
760.060	0.0164520
760.138	0.0164366
760.216	0.0162824
760.294	0.0163172
760.372	0.0162188
760.450	0.0161483
760.529	0.0162534
760.607	0.0162248
760.685	0.0161152
760.763	0.0162254
760.841	0.0163329
760.919	0.0164204
760.997	0.0165463
761.075	0.0164411
761.154	0.0166477
761.232	0.0166891
761.310	0.0167337
761.388	0.0168677
761.466	0.0167686
761.544	0.0168200
761.622	0.0169392
761.700	0.0171079
761.779	0.0170868
761.857	0.0170443
761.935	0.0171455
762.013	0.0170905
762.091	0.0171565
762.169	0.0172108
762.247	0.0172188
762.325	0.0173367
762.404	0.0173819
762.482	0.0172541
762.560	0.0173996
762.638	0.0172832
762.716	0.0171351
762.794	0.0170599
762.872	0.0170399
762.950	0.0169096
763.029	0.0168182
763.107	0.0167961
763.185	0.0167154
763.263	0.0166092
763.341	0.0164220
763.419	0.0163719
763.497	0.0163144
763.575	0.0162591
763.654	0.0162898
763.732	0.0161636
763.810	0.0161453
763.888	0.0161215
763.966	0.0162492
764.044	0.0162823
764.122	0.0161166
764.200	0.0162789
764.279	0.0163396
764.357	0.0162926
764.435	0.0165757
764.513	0.0163935
764.591	0.0165132
764.669	0.0165858
764.747	0.0167801
764.825	0.0168245
764.904	0.0168571
764.982	0.0169407
765.060	0.0168811
765.138	0.0169541
765.216	0.0169412
765.294	0.0169389
765.372	0.0169616
765.450	0.0171642
765.529	0.0170647
765.607	0.0168679
765.685	0.0168238
765.763	0.0168911
765.841	0.0168083
765.919	0.0167896
765.997	0.0167215
766.075	0.0164718
766.154	0.0163630
766.232	0.0161218
766.310	0.0162374
766.388	0.0162244
766.466	0.0161105
766.544	0.0160439
766.622	0.0161562
766.700	0.0161843
766.779	0.0159919
766.857	0.0160789
766.935	0.0161832
767.013	0.0163673
767.091	0.0165235
767.169	0.0164273
767.247	0.0165448
767.325	0.0167844
767.404	0.0168530
767.482	0.0168776
767.560	0.0169247
767.638	0.0169507
767.716	0.0171275
767.794	0.0170918
767.872	0.0170386
767.950	0.0169443
768.029	0.0170387
768.107	0.0169859
768.185	0.0168776
768.263	0.0168880
768.341	0.0168539
768.419	0.0167505
768.497	0.0169084
768.575	0.0168768
768.654	0.0165823
768.732	0.0166348
768.810	0.0166243
768.888	0.0166953
768.966	0.0166209
769.044	0.0164304
769.122	0.0166323
769.200	0.0165064
769.279	0.0166332
769.357	0.0166264
769.435	0.0165507
769.513	0.0164603
769.591	0.0165919
769.669	0.0164450
769.747	0.0165611
769.825	0.0164381
769.904	0.0166021
769.982	0.0167416
770.060	0.0166142
770.138	0.0168044
770.216	0.0168233
770.294	0.0168251
770.372	0.0168771
770.450	0.0168711
770.529	0.0168372
770.607	0.0168406
770.685	0.0169600
770.763	0.0168823
770.841	0.0168298
770.919	0.0168810
770.997	0.0169033
771.075	0.0169868
771.154	0.0167299
771.232	0.0168412
771.310	0.0168662
771.388	0.0169918
771.466	0.0168617
771.544	0.0169104
771.622	0.0169559
771.700	0.0169075
771.779	0.0169816
771.857	0.0169548
771.935	0.0167801
772.013	0.0169479
772.091	0.0168564
772.169	0.0167686
772.247	0.0168418
772.325	0.0168069
772.404	0.0167870
772.482	0.0167268
772.560	0.0166242
772.638	0.0164828
772.716	0.0166315
772.794	0.0164324
772.872	0.0163245
772.950	0.0161969
773.029	0.0163350
773.107	0.0160989
773.185	0.0161829
773.263	0.0161986
773.341	0.0161859
773.419	0.0162613
773.497	0.0160756
773.575	0.0161266
773.654	0.0163487
773.732	0.0165272
773.810	0.0163436
773.888	0.0162917
773.966	0.0162939
774.044	0.0164772
774.122	0.0165244
774.200	0.0167400
774.279	0.0168770
774.357	0.0168062
774.435	0.0168453
774.513	0.0168821
774.591	0.0169067
774.669	0.0169322
774.747	0.0169590
774.825	0.0167516
774.904	0.0166442
774.982	0.0167078
775.060	0.0164923
775.138	0.0164907
775.216	0.0164674
775.294	0.0164719
775.372	0.0163885
775.450	0.0163674
775.529	0.0165577
775.607	0.0164691
775.685	0.0166340
775.763	0.0165074
775.841	0.0167051
775.919	0.0166177
775.997	0.0168875
776.075	0.0168602
776.154	0.0170408
776.232	0.0170412
776.310	0.0171280
776.388	0.0170329
776.466	0.0172536
776.544	0.0171166
776.622	0.0169770
776.700	0.0169978
776.779	0.0170221
776.857	0.0169468
776.935	0.0169301
777.013	0.0167088
777.091	0.0166023
777.169	0.0166145
777.247	0.0164701
777.325	0.0163499
777.404	0.0162748
777.482	0.0163746
777.560	0.0165105
777.638	0.0163886
777.716	0.0164059
777.794	0.0164252
777.872	0.0165871
777.950	0.0166418
778.029	0.0164820
778.107	0.0168321
778.185	0.0168268
778.263	0.0168935
778.341	0.0169549
778.419	0.0169525
778.497	0.0168752
778.575	0.0169362
778.654	0.0170012
778.732	0.0170229
778.810	0.0169577
778.888	0.0169115
778.966	0.0168776
779.044	0.0167679
779.122	0.0168044
779.200	0.0167533
779.279	0.0166737
779.357	0.0166319
779.435	0.0167150
779.513	0.0165871
779.591	0.0165259
779.669	0.0164957
779.747	0.0165956
779.825	0.0166236
779.904	0.0165727
779.982	0.0166597
780.060	0.0166872
780.138	0.0167165
780.216	0.0166766
780.294	0.0167888
780.372	0.0168654
780.450	0.0167315
780.529	0.0167866
780.607	0.0167431
780.685	0.0167257
780.763	0.0165244
780.841	0.0165284
780.919	0.0165604
780.997	0.0165169
781.075	0.0164673
781.154	0.0162704
781.232	0.0163284
781.310	0.0162433
781.388	0.0161914
781.466	0.0161980
781.544	0.0162451
781.622	0.0160532
781.700	0.0161289
781.779	0.0163064
781.857	0.0163749
781.935	0.0164030
782.013	0.0164388
782.091	0.0166270
782.169	0.0166375
782.247	0.0168257
782.325	0.0168890
782.404	0.0169109
782.482	0.0170481
782.560	0.0171155
782.638	0.0171030
782.716	0.0170375
782.794	0.0170258
782.872	0.0169630
782.950	0.0169907
783.029	0.0169497
783.107	0.0168864
783.185	0.0167769
783.263	0.0168219
783.341	0.0167224
783.419	0.0167548
783.497	0.0166116
783.575	0.0166090
783.654	0.0163659
783.732	0.0164143
783.810	0.0163282
783.888	0.0162532
783.966	0.0162445
784.044	0.0163197
784.122	0.0163367
784.200	0.0163548
784.279	0.0163715
784.357	0.0164153
784.435	0.0165434
784.513	0.0165942
784.591	0.0166176
784.669	0.0164926
784.747	0.0167341
784.825	0.0168675
784.904	0.0167487
784.982	0.0167847
785.060	0.0169434
785.138	0.0169793
785.216	0.0169423
785.294	0.0169840
785.372	0.0171161
785.450	0.0169548
785.529	0.0169853
785.607	0.0172006
785.685	0.0169757
785.763	0.0171045
785.841	0.0171803
785.919	0.0172024
785.997	0.0173289
786.075	0.0172343
786.154	0.0171914
786.232	0.0173093
786.310	0.0173095
786.388	0.0171198
786.466	0.0172118
786.544	0.0170421
786.622	0.0171952
786.700	0.0170622
786.779	0.0169653
786.857	0.0168606
786.935	0.0168214
787.013	0.0166895
787.091	0.0165414
787.169	0.0166534
787.247	0.0164513
787.325	0.0161955
787.404	0.0162318
787.482	0.0161391
787.560	0.0160603
787.638	0.0160492
787.716	0.0160571
787.794	0.0159298
787.872	0.0159158
787.950	0.0159391
788.029	0.0160885
788.107	0.0161262
788.185	0.0163478
788.263	0.0162817
788.341	0.0163586
788.419	0.0165301
788.497	0.0166972
788.575	0.0167052
788.654	0.0168086
788.732	0.0168062
788.810	0.0168204
788.888	0.0169244
788.966	0.0168656
789.044	0.0168867
789.122	0.0169079
789.200	0.0169008
789.279	0.0169181
789.357	0.0169032
789.435	0.0168349
789.513	0.0168770
789.591	0.0168076
789.669	0.0167339
789.747	0.0167140
789.825	0.0166316
789.904	0.0165385
789.982	0.0165959
790.060	0.0166272
790.138	0.0165221
790.216	0.0165060
790.294	0.0165592
790.372	0.0165691
790.450	0.0164566
790.529	0.0164118
790.607	0.0163730
790.685	0.0163027
790.763	0.0162291
790.841	0.0160484
790.919	0.0162116
790.997	0.0162550
791.075	0.0160995
791.154	0.0161866
791.232	0.0163207
791.310	0.0161593
791.388	0.0161500
791.466	0.0163039
791.544	0.0162778
791.622	0.0162614
791.700	0.0164769
791.779	0.0166854
791.857	0.0166401
791.935	0.0166982
792.013	0.0169415
792.091	0.0168939
792.169	0.0171250
792.247	0.0170143
792.325	0.0171232
792.404	0.0173496
792.482	0.0172454
792.560	0.0172425
792.638	0.0175179
792.716	0.0174075
792.794	0.0175588
792.872	0.0174714
792.950	0.0173235
793.029	0.0173017
793.107	0.0172826
793.185	0.0172456
793.263	0.0171387
793.341	0.0171307
793.419	0.0170200
793.497	0.0168349
793.575	0.0167379
793.654	0.0165955
793.732	0.0164405
793.810	0.0162742
793.888	0.0164482
793.966	0.0163668
794.044	0.0160770
794.122	0.0162086
794.200	0.0160815
794.279	0.0161481
794.357	0.0162082
794.435	0.0161743
794.513	0.0160763
794.591	0.0163364
794.669	0.0163202
794.747	0.0163483
794.825	0.0165096
794.904	0.0165685
794.982	0.0165849
795.060	0.0165945
795.138	0.0168600
795.216	0.0169045
795.294	0.0168803
795.372	0.0168043
795.450	0.0168520
795.529	0.0168799
795.607	0.0169732
795.685	0.0168394
795.763	0.0170011
795.841	0.0169820
795.919	0.0168893
795.997	0.0168018
796.075	0.0167712
796.154	0.0167090
796.232	0.0166927
796.310	0.0166647
796.388	0.0166005
796.466	0.0165887
796.544	0.0164973
796.622	0.0165592
796.700	0.0162720
796.779	0.0164253
796.857	0.0164193
796.935	0.0161858
797.013	0.0163434
797.091	0.0163467
797.169	0.0162501
797.247	0.0162730
797.325	0.0163898
797.404	0.0165279
797.482	0.0165189
797.560	0.0165114
797.638	0.0165392
797.716	0.0166048
797.794	0.0165049
797.872	0.0165327
797.950	0.0166431
798.029	0.0167374
798.107	0.0167172
798.185	0.0168068
798.263	0.0168314
798.341	0.0168678
798.419	0.0168677
798.497	0.0169672
798.575	0.0169218
798.654	0.0170087
798.732	0.0170528
798.810	0.0170527
798.888	0.0171526
798.966	0.0172077
799.044	0.0173036
799.122	0.0172589
799.200	0.0172482
799.279	0.0172295
799.357	0.0170788
799.435	0.0170627
799.513	0.0172282
799.591	0.0171644
799.669	0.0169321
799.747	0.0169767
799.825	0.0169981
799.904	0.0169347
799.982	0.0168930
800.060	0.0167628
800.138	0.0167413
800.216	0.0166473
800.294	0.0165422
800.372	0.0165069
800.450	0.0165911
800.529	0.0162975
800.607	0.0164834
800.685	0.0164067
800.763	0.0162679
800.841	0.0163019
800.919	0.0163619
800.997	0.0162008
801.075	0.0163072
801.154	0.0163909
801.232	0.0164305
801.310	0.0164281
801.388	0.0165130
801.466	0.0165453
801.544	0.0165969
801.622	0.0166568
801.700	0.0167738
801.779	0.0165843
801.857	0.0167834
801.935	0.0168006
802.013	0.0167130
802.091	0.0168819
802.169	0.0169424
802.247	0.0168384
802.325	0.0167624
802.404	0.0169474
802.482	0.0169995
802.560	0.0168019
802.638	0.0167746
802.716	0.0167826
802.794	0.0167287
802.872	0.0165504
802.950	0.0167662
803.029	0.0167233
803.107	0.0165831
803.185	0.0167261
803.263	0.0165726
803.341	0.0164867
803.419	0.0165680
803.497	0.0164052
803.575	0.0165401
803.654	0.0164149
803.732	0.0163972
803.810	0.0163174
803.888	0.0163686
803.966	0.0162271
804.044	0.0163627
804.122	0.0162434
804.200	0.0162132
804.279	0.0161095
804.357	0.0162483
804.435	0.0163480
804.513	0.0163828
804.591	0.0163366
804.669	0.0163306
804.747	0.0163985
804.825	0.0164242
804.904	0.0165608
804.982	0.0166481
805.060	0.0167979
805.138	0.0168060
805.216	0.0166831
805.294	0.0168800
805.372	0.0170354
805.450	0.0170338
805.529	0.0171259
805.607	0.0172247
805.685	0.0172834
805.763	0.0172604
805.841	0.0174118
805.919	0.0174242
805.997	0.0172781
806.075	0.0172253
806.154	0.0174281
806.232	0.0173087
806.310	0.0174682
806.388	0.0173627
806.466	0.0171365
806.544	0.0169862
806.622	0.0171828
806.700	0.0172531
806.779	0.0170462
806.857	0.0170470
806.935	0.0170246
807.013	0.0169598
807.091	0.0168332
807.169	0.0168462
807.247	0.0167552
807.325	0.0168256
807.404	0.0167604
807.482	0.0165717
807.560	0.0165350
807.638	0.0164866
807.716	0.0165079
807.794	0.0164144
807.872	0.0163405
807.950	0.0162420
808.029	0.0163435
808.107	0.0162904
808.185	0.0163911
808.263	0.0162209
808.341	0.0163004
808.419	0.0162248
808.497	0.0161369
808.575	0.0162162
808.654	0.0161057
808.732	0.0161422
808.810	0.0161672
808.888	0.0163274
808.966	0.0163500
809.044	0.0161927
809.122	0.0161464
809.200	0.0161472
809.279	0.0162122
809.357	0.0163258
809.435	0.0163606
809.513	0.0164759
809.591	0.0164199
809.669	0.0163592
809.747	0.0163763
809.825	0.0165593
809.904	0.0165021
809.982	0.0164841
810.060	0.0165671
810.138	0.0166776
810.216	0.0165508
810.294	0.0166637
810.372	0.0165058
810.450	0.0166580
810.529	0.0165944
810.607	0.0164597
810.685	0.0166174
810.763	0.0168156
810.841	0.0166344
810.919	0.0167044
810.997	0.0166560
811.075	0.0167001
811.154	0.0165562
811.232	0.0166949
811.310	0.0166376
811.388	0.0166612
811.466	0.0166554
811.544	0.0167894
811.622	0.0168111
811.700	0.0168552
811.779	0.0166951
811.857	0.0167285
811.935	0.0167290
812.013	0.0167782
812.091	0.0169051
812.169	0.0168797
812.247	0.0169576
812.325	0.0169582
812.404	0.0170583
812.482	0.0170116
812.560	0.0170531
812.638	0.0170224
812.716	0.0169388
812.794	0.0170594
812.872	0.0170164
812.950	0.0170658
813.029	0.0170964
813.107	0.0169358
813.185	0.0171153
813.263	0.0169747
813.341	0.0170879
813.419	0.0170376
813.497	0.0167724
813.575	0.0170569
813.654	0.0169307
813.732	0.0169301
813.810	0.0168275
813.888	0.0167779
813.966	0.0167638
814.044	0.0166400
814.122	0.0165444
814.200	0.0165716
814.279	0.0163369
814.357	0.0163172
814.435	0.0162824
814.513	0.0161938
814.591	0.0161932
814.669	0.0161794
814.747	0.0160853
814.825	0.0161016
814.904	0.0161635
814.982	0.0161913
815.060	0.0161674
815.138	0.0162077
815.216	0.0160741
815.294	0.0161223
815.372	0.0162078
815.450	0.0161035
815.529	0.0160732
815.607	0.0162749
815.685	0.0162673
815.763	0.0162035
815.841	0.0162420
815.919	0.0163059
815.997	0.0164135
816.075	0.0163103
816.154	0.0163888
816.232	0.0164827
816.310	0.0164909
816.388	0.0163897
816.466	0.0163763
816.544	0.0163867
816.622	0.0164001
816.700	0.0164324
816.779	0.0165118
816.857	0.0165553
816.935	0.0165148
817.013	0.0166250
817.091	0.0165762
817.169	0.0166260
817.247	0.0167556
817.325	0.0168781
817.404	0.0166682
817.482	0.0169016
817.560	0.0169686
817.638	0.0168906
817.716	0.0169519
817.794	0.0169595
817.872	0.0170733
817.950	0.0170757
818.029	0.0170782
818.107	0.0170421
818.185	0.0170815
818.263	0.0170353
818.341	0.0170317
818.419	0.0170031
818.497	0.0170064
818.575	0.0169682
818.654	0.0169342
818.732	0.0168139
818.810	0.0168301
818.888	0.0169109
818.966	0.0169564
819.044	0.0168884
819.122	0.0167811
819.200	0.0167913
819.279	0.0169439
819.357	0.0168214
819.435	0.0169473
819.513	0.0168084
819.591	0.0168463
819.669	0.0170274
819.747	0.0168183
819.825	0.0168056
819.904	0.0168458
819.982	0.0167358
820.060	0.0167802
820.138	0.0167548
820.216	0.0167180
820.294	0.0166528
820.372	0.0166418
820.450	0.0165720
820.529	0.0166140
820.607	0.0165832
820.685	0.0162952
820.763	0.0166257
820.841	0.0164353
820.919	0.0164748
820.997	0.0165046
821.075	0.0164874
821.154	0.0165594
821.232	0.0163853
821.310	0.0165055
821.388	0.0164489
821.466	0.0165479
821.544	0.0165003
821.622	0.0166653
821.700	0.0165793
821.779	0.0165631
821.857	0.0164543
821.935	0.0165235
822.013	0.0165623
822.091	0.0164027
822.169	0.0164552
822.247	0.0165672
822.325	0.0166935
822.404	0.0167123
822.482	0.0166719
822.560	0.0165706
822.638	0.0166071
822.716	0.0167105
822.794	0.0167322
822.872	0.0167286
822.950	0.0165714
823.029	0.0165575
823.107	0.0166219
823.185	0.0166512
823.263	0.0165967
823.341	0.0165302
823.419	0.0166340
823.497	0.0165128
823.575	0.0165938
823.654	0.0165747
823.732	0.0165415
823.810	0.0165324
823.888	0.0166111
823.966	0.0166527
824.044	0.0166859
824.122	0.0166726
824.200	0.0166545
824.279	0.0166572
824.357	0.0164837
824.435	0.0165368
824.513	0.0166859
824.591	0.0166404
824.669	0.0166489
824.747	0.0166103
824.825	0.0166669
824.904	0.0168642
824.982	0.0166894
825.060	0.0166566
825.138	0.0166125
825.216	0.0166983
825.294	0.0167129
825.372	0.0167984
825.450	0.0166850
825.529	0.0167105
825.607	0.0168008
825.685	0.0166698
825.763	0.0166939
825.841	0.0167902
825.919	0.0167270
825.997	0.0168372
826.075	0.0167868
826.154	0.0168520
826.232	0.0170205
826.310	0.0167317
826.388	0.0166640
826.466	0.0167876
826.544	0.0168294
826.622	0.0167029
826.700	0.0166470
826.779	0.0166169
826.857	0.0167881
826.935	0.0168116
827.013	0.0166224
827.091	0.0166521
827.169	0.0165299
827.247	0.0164890
827.325	0.0166055
827.404	0.0164725
827.482	0.0164015
827.560	0.0165032
827.638	0.0167181
827.716	0.0167434
827.794	0.0165224
827.872	0.0166110
827.950	0.0165331
828.029	0.0165015
828.107	0.0165715
828.185	0.0165698
828.263	0.0166117
828.341	0.0165887
828.419	0.0165367
828.497	0.0168097
828.575	0.0167803
828.654	0.0167360
828.732	0.0167802
828.810	0.0168180
828.888	0.0165660
828.966	0.0167936
829.044	0.0167916
829.122	0.0167799
829.200	0.0168607
829.279	0.0168771
829.357	0.0167639
829.435	0.0167833
829.513	0.0167124
829.591	0.0165897
829.669	0.0165451
829.747	0.0166837
829.825	0.0164431
829.904	0.0164581
829.982	0.0164661
830.060	0.0164766
830.138	0.0164509
830.216	0.0163544
830.294	0.0164484
830.372	0.0164254
830.450	0.0164026
830.529	0.0162828
830.607	0.0163595
830.685	0.0163477
830.763	0.0163678
830.841	0.0162588
830.919	0.0162177
830.997	0.0162896
831.075	0.0162444
831.154	0.0162981
831.232	0.0163591
831.310	0.0164996
831.388	0.0165652
831.466	0.0165584
831.544	0.0166056
831.622	0.0165683
831.700	0.0166446
831.779	0.0166970
831.857	0.0168761
831.935	0.0167747
832.013	0.0167591
832.091	0.0168385
832.169	0.0168285
832.247	0.0167995
832.325	0.0167884
832.404	0.0168385
832.482	0.0168481
832.560	0.0167498
832.638	0.0167256
832.716	0.0166407
832.794	0.0166680
832.872	0.0167090
832.950	0.0167655
833.029	0.0165437
833.107	0.0166676
833.185	0.0167750
833.263	0.0166998
833.341	0.0166630
833.419	0.0167044
833.497	0.0166045
833.575	0.0166033
833.654	0.0166892
833.732	0.0166936
833.810	0.0164862
833.888	0.0167270
833.966	0.0166331
834.044	0.0167207
834.122	0.0166938
834.200	0.0165453
834.279	0.0164886
834.357	0.0166061
834.435	0.0166404
834.513	0.0167809
834.591	0.0166373
834.669	0.0167171
834.747	0.0166033
834.825	0.0167444
834.904	0.0168034
834.982	0.0167522
835.060	0.0169260
835.138	0.0169645
835.216	0.0168543
835.294	0.0167795
835.372	0.0169703
835.450	0.0167403
835.529	0.0167310
835.607	0.0168578
835.685	0.0166989
835.763	0.0167155
835.841	0.0166779
835.919	0.0167001
835.997	0.0165066
836.075	0.0163620
836.154	0.0165329
836.232	0.0162899
836.310	0.0163847
836.388	0.0164591
836.466	0.0162534
836.544	0.0162894
836.622	0.0164732
836.700	0.0163550
836.779	0.0164935
836.857	0.0164708
836.935	0.0164661
837.013	0.0166129
837.091	0.0165952
837.169	0.0166912
837.247	0.0166922
837.325	0.0167447
837.404	0.0166236
837.482	0.0167065
837.560	0.0167780
837.638	0.0168551
837.716	0.0166987
837.794	0.0167943
837.872	0.0167813
837.950	0.0167252
838.029	0.0166967
838.107	0.0168188
838.185	0.0165861
838.263	0.0168326
838.341	0.0168497
838.419	0.0168201
838.497	0.0167223
838.575	0.0169247
838.654	0.0168237
838.732	0.0168430
838.810	0.0167181
838.888	0.0168227
838.966	0.0167524
839.044	0.0167215
839.122	0.0166947
839.200	0.0165376
839.279	0.0166190
839.357	0.0167065
839.435	0.0165643
839.513	0.0166041
839.591	0.0166312
839.669	0.0166872
839.747	0.0166386
839.825	0.0165710
839.904	0.0166129
839.982	0.0165710
840.060	0.0164710
840.138	0.0165396
840.216	0.0165937
840.294	0.0164778
840.372	0.0164837
840.450	0.0166227
840.529	0.0163953
840.607	0.0167039
840.685	0.0165454
840.763	0.0166476
840.841	0.0167912
840.919	0.0165836
840.997	0.0167519
841.075	0.0166384
841.154	0.0166130
841.232	0.0167461
841.310	0.0167353
841.388	0.0168259
841.466	0.0168385
841.544	0.0167905
841.622	0.0168564
841.700	0.0168517
841.779	0.0168456
841.857	0.0168084
841.935	0.0166328
842.013	0.0167295
842.091	0.0166376
842.169	0.0165601
842.247	0.0165490
842.325	0.0165954
842.404	0.0164767
842.482	0.0163274
842.560	0.0164508
842.638	0.0165080
842.716	0.0163605
842.794	0.0165791
842.872	0.0164375
842.950	0.0164407
843.029	0.0164805
843.107	0.0165170
843.185	0.0165294
843.263	0.0165527
843.341	0.0166633
843.419	0.0167970
843.497	0.0168023
843.575	0.0167849
843.654	0.0167310
843.732	0.0167348
843.810	0.0168035
843.888	0.0167706
843.966	0.0168678
844.044	0.0168754
844.122	0.0168827
844.200	0.0168839
844.279	0.0168648
844.357	0.0169185
844.435	0.0168248
844.513	0.0168161
844.591	0.0167622
844.669	0.0168043
844.747	0.0167598
844.825	0.0167452
844.904	0.0165701
844.982	0.0166713
845.060	0.0166319
845.138	0.0166144
845.216	0.0166991
845.294	0.0165600
845.372	0.0165646
845.450	0.0165498
845.529	0.0165343
845.607	0.0165398
845.685	0.0164735
845.763	0.0165565
845.841	0.0165816
845.919	0.0164653
845.997	0.0164644
846.075	0.0164528
846.154	0.0165541
846.232	0.0164625
846.310	0.0164628
846.388	0.0166181
846.466	0.0164910
846.544	0.0166261
846.622	0.0167918
846.700	0.0167545
846.779	0.0166319
846.857	0.0166288
846.935	0.0165196
847.013	0.0166186
847.091	0.0166096
847.169	0.0166140
847.247	0.0166001
847.325	0.0165889
847.404	0.0166186
847.482	0.0164229
847.560	0.0164493
847.638	0.0164677
847.716	0.0163297
847.794	0.0164819
847.872	0.0163562
847.950	0.0164587
848.029	0.0165753
848.107	0.0164629
848.185	0.0165569
848.263	0.0166239
848.341	0.0164937
848.419	0.0165383
848.497	0.0166895
848.575	0.0167780
848.654	0.0165988
848.732	0.0168511
848.810	0.0166586
848.888	0.0167682
848.966	0.0167490
849.044	0.0168221
849.122	0.0167572
849.200	0.0168780
849.279	0.0168686
849.357	0.0168472
849.435	0.0167867
849.513	0.0168546
849.591	0.0167229
849.669	0.0167432
849.747	0.0168104
849.825	0.0168761
849.904	0.0167241
849.982	0.0168510
850.060	0.0168591
850.138	0.0168319
850.216	0.0169612
850.294	0.0169184
850.372	0.0168729
850.450	0.0168436
850.529	0.0168513
850.607	0.0168410
850.685	0.0165896
850.763	0.0166395
850.841	0.0164535
850.919	0.0164183
850.997	0.0164017
851.075	0.0163640
851.154	0.0162660
851.232	0.0162199
851.310	0.0162128
851.388	0.0163634
851.466	0.0164186
851.544	0.0164201
851.622	0.0164671
851.700	0.0163987
851.779	0.0166393
851.857	0.0165837
851.935	0.0166140
852.013	0.0168181
852.091	0.0165813
852.169	0.0167626
852.247	0.0167323
852.325	0.0167688
852.404	0.0168720
852.482	0.0168607
852.560	0.0168950
852.638	0.0168867
852.716	0.0168075
852.794	0.0168079
852.872	0.0169005
852.950	0.0169846
853.029	0.0169315
853.107	0.0168169
853.185	0.0169148
853.263	0.0167499
853.341	0.0167806
853.419	0.0167506
853.497	0.0167178
853.575	0.0166905
853.654	0.0167218
853.732	0.0166167
853.810	0.0164929
853.888	0.0166599
853.966	0.0164793
854.044	0.0164136
854.122	0.0165971
854.200	0.0165971
854.279	0.0164761
854.357	0.0165212
854.435	0.0166219
854.513	0.0164488
854.591	0.0163781
854.669	0.0165194
854.747	0.0164928
854.825	0.0162768
854.904	0.0164573
854.982	0.0164661
855.060	0.0164819
855.138	0.0165606
855.216	0.0165617
855.294	0.0166621
855.372	0.0166126
855.450	0.0165620
855.529	0.0167132
855.607	0.0166550
855.685	0.0164957
855.763	0.0167039
855.841	0.0166853
855.919	0.0166661
855.997	0.0167005
856.075	0.0167399
856.154	0.0168474
856.232	0.0166732
856.310	0.0167772
856.388	0.0167488
856.466	0.0167271
856.544	0.0166742
856.622	0.0166354
856.700	0.0165986
856.779	0.0164977
856.857	0.0164593
856.935	0.0165586
857.013	0.0164871
857.091	0.0165508
857.169	0.0165089
857.247	0.0165547
857.325	0.0166673
857.404	0.0165771
857.482	0.0164477
857.560	0.0164780
857.638	0.0164656
857.716	0.0164240
857.794	0.0164846
857.872	0.0166524
857.950	0.0164990
858.029	0.0166429
858.107	0.0164754
858.185	0.0164571
858.263	0.0164510
858.341	0.0166775
858.419	0.0166228
858.497	0.0166351
858.575	0.0165271
858.654	0.0165425
858.732	0.0166308
858.810	0.0167496
858.888	0.0167399
858.966	0.0168893
859.044	0.0168971
859.122	0.0169250
859.200	0.0168852
859.279	0.0169048
859.357	0.0169781
859.435	0.0169590
859.513	0.0170423
859.591	0.0169759
859.669	0.0169719
859.747	0.0169998
859.825	0.0169033
859.904	0.0168623
859.982	0.0168921
860.060	0.0168375
860.138	0.0168864
860.216	0.0168247
860.294	0.0166498
860.372	0.0166692
860.450	0.0164228
860.529	0.0165530
860.607	0.0165436
860.685	0.0164223
860.763	0.0162772
860.841	0.0164725
860.919	0.0166203
860.997	0.0163680
861.075	0.0163298
861.154	0.0163772
861.232	0.0164496
861.310	0.0164188
861.388	0.0164068
861.466	0.0165422
861.544	0.0166030
861.622	0.0165411
861.700	0.0166691
861.779	0.0164951
861.857	0.0166515
861.935	0.0166019
862.013	0.0165112
862.091	0.0165569
862.169	0.0167118
862.247	0.0166970
862.325	0.0164510
862.404	0.0165400
862.482	0.0165812
862.560	0.0165517
862.638	0.0164149
862.716	0.0165713
862.794	0.0166549
862.872	0.0165269
862.950	0.0165813
863.029	0.0166106
863.107	0.0166965
863.185	0.0166543
863.263	0.0166291
863.341	0.0167287
863.419	0.0168859
863.497	0.0167758
863.575	0.0166860
863.654	0.0168438
863.732	0.0167667
863.810	0.0166862
863.888	0.0167371
863.966	0.0168636
864.044	0.0166653
864.122	0.0167902
864.200	0.0168730
864.279	0.0167947
864.357	0.0167789
864.435	0.0168497
864.513	0.0167870
864.591	0.0169086
864.669	0.0169031
864.747	0.0169848
864.825	0.0168791
864.904	0.0168145
864.982	0.0169152
865.060	0.0167930
865.138	0.0168808
865.216	0.0170410
865.294	0.0169173
865.372	0.0169359
865.450	0.0168322
865.529	0.0168044
865.607	0.0170678
865.685	0.0169307
865.763	0.0168702
865.841	0.0170058
865.919	0.0169863
865.997	0.0167925
866.075	0.0169075
866.154	0.0168423
866.232	0.0167605
866.310	0.0167430
866.388	0.0168417
866.466	0.0169014
866.544	0.0166714
866.622	0.0165873
866.700	0.0167885
866.779	0.0167457
866.857	0.0166357
866.935	0.0166982
867.013	0.0167677
867.091	0.0166480
867.169	0.0165140
867.247	0.0166431
867.325	0.0167167
867.404	0.0165283
867.482	0.0166068
867.560	0.0165616
867.638	0.0164590
867.716	0.0163355
867.794	0.0164285
867.872	0.0164313
867.950	0.0164014
868.029	0.0165388
868.107	0.0165579
868.185	0.0165878
868.263	0.0165990
868.341	0.0166153
868.419	0.0166023
868.497	0.0167022
868.575	0.0168329
868.654	0.0166038
868.732	0.0167099
868.810	0.0167355
868.888	0.0167287
868.966	0.0167969
869.044	0.0166448
869.122	0.0166624
869.200	0.0166363
869.279	0.0166143
869.357	0.0164381
869.435	0.0164494
869.513	0.0165047
869.591	0.0165493
869.669	0.0165815
869.747	0.0165884
869.825	0.0165247
869.904	0.0167705
869.982	0.0167381
870.060	0.0166363
870.138	0.0166453
870.216	0.0166024
870.294	0.0166267
870.372	0.0166614
870.450	0.0168152
870.529	0.0168110
870.607	0.0169019
870.685	0.0169026
870.763	0.0167312
870.841	0.0168530
870.919	0.0168036
870.997	0.0167509
871.075	0.0168079
871.154	0.0167667
871.232	0.0167953
871.310	0.0167354
871.388	0.0168079
871.466	0.0168619
871.544	0.0167242
871.622	0.0168050
871.700	0.0167781
871.779	0.0166939
871.857	0.0166322
871.935	0.0168340
872.013	0.0168696
872.091	0.0165343
872.169	0.0166988
872.247	0.0165498
872.325	0.0166097
872.404	0.0164823
872.482	0.0166634
872.560	0.0165883
872.638	0.0165161
872.716	0.0165141
872.794	0.0166013
872.872	0.0165704
872.950	0.0164929
873.029	0.0166319
873.107	0.0165280
873.185	0.0167324
873.263	0.0166076
873.341	0.0165147
873.419	0.0166461
873.497	0.0166285
873.575	0.0166663
873.654	0.0165731
873.732	0.0166267
873.810	0.0165228
873.888	0.0167879
873.966	0.0166528
874.044	0.0166517
874.122	0.0165181
874.200	0.0165817
874.279	0.0167059
874.357	0.0165459
874.435	0.0164651
874.513	0.0165472
874.591	0.0165721
874.669	0.0164029
874.747	0.0164347
874.825	0.0165072
874.904	0.0166551
874.982	0.0164529
875.060	0.0164732
875.138	0.0165946
875.216	0.0165896
875.294	0.0165035
875.372	0.0165707
875.450	0.0167020
875.529	0.0167499
875.607	0.0167387
875.685	0.0170226
875.763	0.0168946
875.841	0.0167754
875.919	0.0167763
875.997	0.0168156
876.075	0.0168453
876.154	0.0166582
876.232	0.0165781
876.310	0.0165744
876.388	0.0165846
876.466	0.0165509
876.544	0.0165254
876.622	0.0166709
876.700	0.0166544
876.779	0.0165334
876.857	0.0167583
876.935	0.0167409
877.013	0.0169138
877.091	0.0169104
877.169	0.0168840
877.247	0.0168753
877.325	0.0167568
877.404	0.0169466
877.482	0.0170689
877.560	0.0169830
877.638	0.0169197
877.716	0.0169289
877.794	0.0169698
877.872	0.0168309
877.950	0.0168830
878.029	0.0167799
878.107	0.0167805
878.185	0.0167485
878.263	0.0167239
878.341	0.0166697
878.419	0.0166124
878.497	0.0164359
878.575	0.0165111
878.654	0.0165228
878.732	0.0163371
878.810	0.0162077
878.888	0.0162784
878.966	0.0162280
879.044	0.0161607
879.122	0.0161870
879.200	0.0162811
879.279	0.0162483
879.357	0.0164038
879.435	0.0163419
879.513	0.0163178
879.591	0.0165260
879.669	0.0165308
879.747	0.0167848
879.825	0.0167676
879.904	0.0166312
879.982	0.0167558
880.060	0.0168468
880.138	0.0168198
880.216	0.0167439
880.294	0.0169785
880.372	0.0168887
880.450	0.0167995
880.529	0.0168192
880.607	0.0168856
880.685	0.0170280
880.763	0.0168888
880.841	0.0167826
880.919	0.0167870
880.997	0.0167399
881.075	0.0165785
881.154	0.0166505
881.232	0.0165765
881.310	0.0165812
881.388	0.0165131
881.466	0.0166130
881.544	0.0163472
881.622	0.0164523
881.700	0.0166270
881.779	0.0164462
881.857	0.0164376
881.935	0.0165083
882.013	0.0164945
882.091	0.0164774
882.169	0.0165712
882.247	0.0166199
882.325	0.0163521
882.404	0.0165748
882.482	0.0166093
882.560	0.0165050
882.638	0.0165673
882.716	0.0167480
882.794	0.0165264
882.872	0.0166895
882.950	0.0165989
883.029	0.0165576
883.107	0.0165331
883.185	0.0166235
883.263	0.0166216
883.341	0.0166174
883.419	0.0166768
883.497	0.0166725
883.575	0.0167505
883.654	0.0169011
883.732	0.0167481
883.810	0.0166356
883.888	0.0168660
883.966	0.0168607
884.044	0.0167650
884.122	0.0167419
884.200	0.0168449
884.279	0.0167268
884.357	0.0166869
884.435	0.0167386
884.513	0.0167258
884.591	0.0167674
884.669	0.0167347
884.747	0.0166471
884.825	0.0166726
884.904	0.0166993
884.982	0.0166840
885.060	0.0167068
885.138	0.0165126
885.216	0.0165070
885.294	0.0166345
885.372	0.0166599
885.450	0.0166341
885.529	0.0163845
885.607	0.0162045
885.685	0.0162696
885.763	0.0163235
885.841	0.0163071
885.919	0.0161750
885.997	0.0161520
886.075	0.0161917
886.154	0.0163447
886.232	0.0162763
886.310	0.0163554
886.388	0.0166284
886.466	0.0164539
886.544	0.0165257
886.622	0.0166568
886.700	0.0167652
886.779	0.0168417
886.857	0.0168593
886.935	0.0168324
887.013	0.0169075
887.091	0.0169324
887.169	0.0169846
887.247	0.0169830
887.325	0.0170065
887.404	0.0170014
887.482	0.0170091
887.560	0.0170447
887.638	0.0169717
887.716	0.0168466
887.794	0.0167965
887.872	0.0168073
887.950	0.0168102
888.029	0.0167602
888.107	0.0167829
888.185	0.0166142
888.263	0.0166378
888.341	0.0167797
888.419	0.0166624
888.497	0.0167696
888.575	0.0165125
888.654	0.0166042
888.732	0.0165646
888.810	0.0164936
888.888	0.0165025
888.966	0.0164250
889.044	0.0165417
889.122	0.0164630
889.200	0.0164310
889.279	0.0164917
889.357	0.0165235
889.435	0.0164720
889.513	0.0163993
889.591	0.0166077
889.669	0.0166241
889.747	0.0165971
889.825	0.0165764
889.904	0.0165244
889.982	0.0166749
890.060	0.0166436
890.138	0.0167950
890.216	0.0168169
890.294	0.0168954
890.372	0.0167547
890.450	0.0169520
890.529	0.0169828
890.607	0.0171023
890.685	0.0169692
890.763	0.0169401
890.841	0.0170058
890.919	0.0169675
890.997	0.0170646
891.075	0.0170092
891.154	0.0167776
891.232	0.0166193
891.310	0.0166650
891.388	0.0168690
891.466	0.0165827
891.544	0.0167249
891.622	0.0166247
891.700	0.0165372
891.779	0.0166445
891.857	0.0164205
891.935	0.0164141
892.013	0.0163924
892.091	0.0164371
892.169	0.0164214
892.247	0.0164986
892.325	0.0164496
892.404	0.0162386
892.482	0.0164596
892.560	0.0162366
892.638	0.0164310
892.716	0.0164759
892.794	0.0163956
892.872	0.0164774
892.950	0.0164887
893.029	0.0166273
893.107	0.0166324
893.185	0.0167009
893.263	0.0167099
893.341	0.0168008
893.419	0.0167465
893.497	0.0167108
893.575	0.0168285
893.654	0.0166895
893.732	0.0167971
893.810	0.0169890
893.888	0.0166683
893.966	0.0167352
894.044	0.0168122
894.122	0.0166319
894.200	0.0166841
894.279	0.0168703
894.357	0.0168135
894.435	0.0167519
894.513	0.0167988
894.591	0.0168197
894.669	0.0168561
894.747	0.0168076
894.825	0.0167302
894.904	0.0168269
894.982	0.0169540
895.060	0.0167406
895.138	0.0166444
895.216	0.0166031
895.294	0.0166719
895.372	0.0167136
895.450	0.0165274
895.529	0.0165763
895.607	0.0166643
895.685	0.0165729
895.763	0.0164369
895.841	0.0163959
895.919	0.0165293
895.997	0.0165356
896.075	0.0164248
896.154	0.0164828
896.232	0.0166186
896.310	0.0167569
896.388	0.0165435
896.466	0.0167307
896.544	0.0168256
896.622	0.0168305
896.700	0.0169005
896.779	0.0169994
896.857	0.0170766
896.935	0.0168932
897.013	0.0170297
897.091	0.0170520
897.169	0.0170138
897.247	0.0169836
897.325	0.0170705
897.404	0.0169497
897.482	0.0169524
897.560	0.0168884
897.638	0.0169021
897.716	0.0171108
897.794	0.0168678
897.872	0.0167249
897.950	0.0168567
898.029	0.0167294
898.107	0.0166811
898.185	0.0167570
898.263	0.0167412
898.341	0.0166525
898.419	0.0167458
898.497	0.0166682
898.575	0.0166666
898.654	0.0165950
898.732	0.0166136
898.810	0.0165468
898.888	0.0166391
898.966	0.0163803
899.044	0.0164117
899.122	0.0163519
899.200	0.0164042
899.279	0.0164398
899.357	0.0164273
899.435	0.0162529
899.513	0.0162889
899.591	0.0164017
899.669	0.0163555
899.747	0.0161639
899.825	0.0164237
899.904	0.0164756
899.982	0.0164260
900.060	0.0165952
900.138	0.0166661
900.216	0.0167953
900.294	0.0167019
900.372	0.0168341
900.450	0.0168134
900.529	0.0167330
900.607	0.0167438
900.685	0.0170103
900.763	0.0170021
900.841	0.0170089
900.919	0.0168427
900.997	0.0169605
901.075	0.0169607
901.154	0.0168318
901.232	0.0168459
901.310	0.0169688
901.388	0.0169093
901.466	0.0168861
901.544	0.0167989
901.622	0.0166957
901.700	0.0167295
901.779	0.0167222
901.857	0.0165531
901.935	0.0166182
902.013	0.0166457
902.091	0.0166313
902.169	0.0166425
902.247	0.0166059
902.325	0.0164499
902.404	0.0166187
902.482	0.0166293
902.560	0.0164479
902.638	0.0166407
902.716	0.0166409
902.794	0.0165727
902.872	0.0165533
902.950	0.0165773
903.029	0.0165941
903.107	0.0166345
903.185	0.0166393
903.263	0.0165797
903.341	0.0166708
903.419	0.0167153
903.497	0.0167664
903.575	0.0169134
903.654	0.0168664
903.732	0.0168026
903.810	0.0169389
903.888	0.0169029
903.966	0.0169796
904.044	0.0167930
904.122	0.0167589
904.200	0.0167950
904.279	0.0168188
904.357	0.0168437
904.435	0.0165775
904.513	0.0166770
904.591	0.0166773
904.669	0.0166013
904.747	0.0167044
904.825	0.0166872
904.904	0.0166587
904.982	0.0165430
905.060	0.0166116
905.138	0.0166389
905.216	0.0166479
905.294	0.0166197
905.372	0.0165740
905.450	0.0165144
905.529	0.0164409
905.607	0.0165218
905.685	0.0165467
905.763	0.0165733
905.841	0.0163467
905.919	0.0164963
905.997	0.0163765
906.075	0.0164473
906.154	0.0164390
906.232	0.0164691
906.310	0.0162980
906.388	0.0163687
906.466	0.0164149
906.544	0.0163287
906.622	0.0165033
906.700	0.0164671
906.779	0.0165040
906.857	0.0164768
906.935	0.0165060
907.013	0.0165094
907.091	0.0166815
907.169	0.0166679
907.247	0.0167326
907.325	0.0166805
907.404	0.0168053
907.482	0.0166725
907.560	0.0167488
907.638	0.0166581
907.716	0.0167378
907.794	0.0166460
907.872	0.0166091
907.950	0.0165598
908.029	0.0167176
908.107	0.0168108
908.185	0.0166338
908.263	0.0166199
908.341	0.0166766
908.419	0.0166850
908.497	0.0166334
908.575	0.0165746
908.654	0.0165363
908.732	0.0165282
908.810	0.0164769
908.888	0.0166476
908.966	0.0166531
909.044	0.0166299
909.122	0.0163807
909.200	0.0165776
909.279	0.0164690
909.357	0.0165189
909.435	0.0166090
909.513	0.0165578
909.591	0.0165173
909.669	0.0166134
909.747	0.0165709
909.825	0.0166955
909.904	0.0166621
909.982	0.0165724
910.060	0.0165620
910.138	0.0166863
910.216	0.0166219
910.294	0.0167973
910.372	0.0167100
910.450	0.0166331
910.529	0.0166740
910.607	0.0165561
910.685	0.0166611
910.763	0.0167545
910.841	0.0167804
910.919	0.0166300
910.997	0.0166238
911.075	0.0165528
911.154	0.0165926
911.232	0.0164309
911.310	0.0164857
911.388	0.0164294
911.466	0.0165527
911.544	0.0165443
911.622	0.0164674
911.700	0.0164736
911.779	0.0167043
911.857	0.0164988
911.935	0.0166550
912.013	0.0165913
912.091	0.0168066
912.169	0.0167270
912.247	0.0166166
912.325	0.0167378
912.404	0.0168585
912.482	0.0168370
912.560	0.0167690
912.638	0.0169076
912.716	0.0168830
912.794	0.0167742
912.872	0.0167622
912.950	0.0167540
913.029	0.0167813
913.107	0.0168523
913.185	0.0166581
913.263	0.0167035
913.341	0.0165600
913.419	0.0167578
913.497	0.0167652
913.575	0.0167550
913.654	0.0165457
913.732	0.0166403
913.810	0.0166056
913.888	0.0165453
913.966	0.0166725
914.044	0.0166415
914.122	0.0165369
914.200	0.0167004
914.279	0.0165632
914.357	0.0166674
914.435	0.0166342
914.513	0.0165842
914.591	0.0166468
914.669	0.0165351
914.747	0.0166355
914.825	0.0164738
914.904	0.0164996
914.982	0.0165328
915.060	0.0164590
915.138	0.0163660
915.216	0.0164410
915.294	0.0164178
915.372	0.0162199
915.450	0.0163290
915.529	0.0163545
915.607	0.0164483
915.685	0.0165058
915.763	0.0164627
915.841	0.0164343
915.919	0.0163910
915.997	0.0165132
916.075	0.0166297
916.154	0.0166547
916.232	0.0167089
916.310	0.0166859
916.388	0.0168240
916.466	0.0168362
916.544	0.0166696
916.622	0.0170321
916.700	0.0170631
916.779	0.0171769
916.857	0.0170111
916.935	0.0168353
917.013	0.0169665
917.091	0.0169155
917.169	0.0168755
917.247	0.0169056
917.325	0.0168554
917.404	0.0168488
917.482	0.0168771
917.560	0.0167780
917.638	0.0167416
917.716	0.0167361
917.794	0.0166775
917.872	0.0166741
917.950	0.0168504
918.029	0.0167417
918.107	0.0169408
918.185	0.0168073
918.263	0.0167335
918.341	0.0167101
918.419	0.0168482
918.497	0.0169398
918.575	0.0167558
918.654	0.0167974
918.732	0.0167377
918.810	0.0168387
918.888	0.0170148
918.966	0.0170338
919.044	0.0168625
919.122	0.0167824
919.200	0.0167995
919.279	0.0168769
919.357	0.0168591
919.435	0.0166821
919.513	0.0167442
919.591	0.0166882
919.669	0.0167127
919.747	0.0166257
919.825	0.0166306
919.904	0.0164172
