06/03/2022	14:12:25	Ver.	4.1	UNKNOWN
Optical Delay	599.981738	Delta X		0.078125	Sweeps	1	Scan Rate	0/0
Coordinates	Axis 1	NaN	Axis 2	NaN	Axis 3	NaN	Axis 4	NaN	Axis 5	NaN	Axis 6	0.000000
TX Power	0.000000	RX Power	0.000000

599.982	0.0170748
600.060	0.0170341
600.138	0.0171606
600.216	0.0171820
600.294	0.0171457
600.372	0.0170183
600.450	0.0170647
600.529	0.0171962
600.607	0.0172103
600.685	0.0171632
600.763	0.0171648
600.841	0.0170441
600.919	0.0169266
600.997	0.0171185
601.075	0.0169714
601.154	0.0171046
601.232	0.0170687
601.310	0.0171478
601.388	0.0171814
601.466	0.0171415
601.544	0.0169541
601.622	0.0170570
601.700	0.0169808
601.779	0.0169179
601.857	0.0171068
601.935	0.0170601
602.013	0.0171263
602.091	0.0169297
602.169	0.0170197
602.247	0.0171173
602.325	0.0171603
602.404	0.0170973
602.482	0.0169706
602.560	0.0170829
602.638	0.0170442
602.716	0.0170708
602.794	0.0170410
602.872	0.0170415
602.950	0.0169756
603.029	0.0169858
603.107	0.0170397
603.185	0.0170350
603.263	0.0171315
603.341	0.0170268
603.419	0.0168610
603.497	0.0170074
603.575	0.0169610
603.654	0.0170692
603.732	0.0169926
603.810	0.0170531
603.888	0.0170954
603.966	0.0170191
604.044	0.0168968
604.122	0.0169955
604.200	0.0170621
604.279	0.0169449
604.357	0.0170873
604.435	0.0171188
604.513	0.0171162
604.591	0.0169692
604.669	0.0172188
604.747	0.0169530
604.825	0.0169535
604.904	0.0170059
604.982	0.0169807
605.060	0.0170341
605.138	0.0170462
605.216	0.0171978
605.294	0.0171132
605.372	0.0170317
605.450	0.0169899
605.529	0.0170567
605.607	0.0172038
605.685	0.0170410
605.763	0.0170980
605.841	0.0171117
605.919	0.0169746
605.997	0.0170628
606.075	0.0170967
606.154	0.0172700
606.232	0.0170930
606.310	0.0170020
606.388	0.0170836
606.466	0.0170590
606.544	0.0170197
606.622	0.0169232
606.700	0.0169595
606.779	0.0170395
606.857	0.0170825
606.935	0.0170932
607.013	0.0170247
607.091	0.0170424
607.169	0.0170133
607.247	0.0170420
607.325	0.0169782
607.404	0.0169045
607.482	0.0169279
607.560	0.0169324
607.638	0.0170155
607.716	0.0170597
607.794	0.0169376
607.872	0.0170932
607.950	0.0171550
608.029	0.0171043
608.107	0.0170654
608.185	0.0170179
608.263	0.0170493
608.341	0.0170368
608.419	0.0169862
608.497	0.0170583
608.575	0.0168908
608.654	0.0171881
608.732	0.0170544
608.810	0.0170313
608.888	0.0169385
608.966	0.0168634
609.044	0.0169904
609.122	0.0171430
609.200	0.0170300
609.279	0.0168818
609.357	0.0169888
609.435	0.0170769
609.513	0.0170387
609.591	0.0170224
609.669	0.0169652
609.747	0.0170628
609.825	0.0170189
609.904	0.0169173
609.982	0.0170731
610.060	0.0168713
610.138	0.0170288
610.216	0.0169379
610.294	0.0168798
610.372	0.0169154
610.450	0.0168759
610.529	0.0168241
610.607	0.0169278
610.685	0.0169903
610.763	0.0169365
610.841	0.0169681
610.919	0.0169723
610.997	0.0169941
611.075	0.0169814
611.154	0.0168691
611.232	0.0169717
611.310	0.0170045
611.388	0.0169450
611.466	0.0170372
611.544	0.0169979
611.622	0.0170724
611.700	0.0170138
611.779	0.0169292
611.857	0.0170379
611.935	0.0170364
612.013	0.0169730
612.091	0.0169740
612.169	0.0169424
612.247	0.0169556
612.325	0.0169901
612.404	0.0170339
612.482	0.0169216
612.560	0.0170393
612.638	0.0170202
612.716	0.0169476
612.794	0.0169431
612.872	0.0169509
612.950	0.0169529
613.029	0.0169724
613.107	0.0170065
613.185	0.0169348
613.263	0.0169863
613.341	0.0169955
613.419	0.0170597
613.497	0.0169438
613.575	0.0170837
613.654	0.0169519
613.732	0.0169054
613.810	0.0169371
613.888	0.0170074
613.966	0.0170375
614.044	0.0169416
614.122	0.0170351
614.200	0.0169493
614.279	0.0170281
614.357	0.0169408
614.435	0.0169666
614.513	0.0169899
614.591	0.0169347
614.669	0.0169573
614.747	0.0171285
614.825	0.0171023
614.904	0.0170062
614.982	0.0169633
615.060	0.0170548
615.138	0.0171342
615.216	0.0169817
615.294	0.0170666
615.372	0.0170712
615.450	0.0169637
615.529	0.0171675
615.607	0.0170116
615.685	0.0169530
615.763	0.0169123
615.841	0.0169553
615.919	0.0171661
615.997	0.0169897
616.075	0.0169750
616.154	0.0170526
616.232	0.0171024
616.310	0.0170084
616.388	0.0170531
616.466	0.0170605
616.544	0.0170141
616.622	0.0170207
616.700	0.0170540
616.779	0.0169959
616.857	0.0169698
616.935	0.0169661
617.013	0.0169699
617.091	0.0170026
617.169	0.0170152
617.247	0.0168626
617.325	0.0170438
617.404	0.0169146
617.482	0.0168756
617.560	0.0169272
617.638	0.0169854
617.716	0.0169436
617.794	0.0168850
617.872	0.0168940
617.950	0.0169188
618.029	0.0169059
618.107	0.0170595
618.185	0.0168813
618.263	0.0169200
618.341	0.0171336
618.419	0.0169963
618.497	0.0169966
618.575	0.0169625
618.654	0.0169333
618.732	0.0169991
618.810	0.0169987
618.888	0.0170380
618.966	0.0170507
619.044	0.0169447
619.122	0.0169746
619.200	0.0171291
619.279	0.0170395
619.357	0.0170358
619.435	0.0170860
619.513	0.0170973
619.591	0.0171354
619.669	0.0169017
619.747	0.0170529
619.825	0.0170993
619.904	0.0170190
619.982	0.0170631
620.060	0.0169090
620.138	0.0169274
620.216	0.0170677
620.294	0.0170187
620.372	0.0170379
620.450	0.0171956
620.529	0.0170519
620.607	0.0168716
620.685	0.0170822
620.763	0.0171324
620.841	0.0170010
620.919	0.0170908
620.997	0.0169638
621.075	0.0169986
621.154	0.0170671
621.232	0.0171621
621.310	0.0171124
621.388	0.0169163
621.466	0.0171239
621.544	0.0170779
621.622	0.0169955
621.700	0.0170451
621.779	0.0169562
621.857	0.0172161
621.935	0.0171397
622.013	0.0169254
622.091	0.0169438
622.169	0.0171439
622.247	0.0171035
622.325	0.0169811
622.404	0.0170525
622.482	0.0170879
622.560	0.0170476
622.638	0.0170304
622.716	0.0170760
622.794	0.0169606
622.872	0.0171082
622.950	0.0170216
623.029	0.0170005
623.107	0.0171490
623.185	0.0170653
623.263	0.0170578
623.341	0.0169412
623.419	0.0169698
623.497	0.0171443
623.575	0.0170682
623.654	0.0169273
623.732	0.0170180
623.810	0.0170963
623.888	0.0171505
623.966	0.0170148
624.044	0.0170206
624.122	0.0170290
624.200	0.0168916
624.279	0.0169954
624.357	0.0171024
624.435	0.0171817
624.513	0.0170210
624.591	0.0169302
624.669	0.0170092
624.747	0.0169760
624.825	0.0170779
624.904	0.0170406
624.982	0.0169076
625.060	0.0170826
625.138	0.0170482
625.216	0.0170766
625.294	0.0170033
625.372	0.0170179
625.450	0.0170206
625.529	0.0170329
625.607	0.0171707
625.685	0.0170260
625.763	0.0171712
625.841	0.0170324
625.919	0.0171748
625.997	0.0170901
626.075	0.0171135
626.154	0.0169879
626.232	0.0169691
626.310	0.0170771
626.388	0.0170831
626.466	0.0170248
626.544	0.0172018
626.622	0.0170113
626.700	0.0170244
626.779	0.0169586
626.857	0.0170280
626.935	0.0169730
627.013	0.0170377
627.091	0.0171275
627.169	0.0169915
627.247	0.0169568
627.325	0.0169727
627.404	0.0170227
627.482	0.0170132
627.560	0.0169440
627.638	0.0168985
627.716	0.0169513
627.794	0.0168893
627.872	0.0170504
627.950	0.0169164
628.029	0.0170235
628.107	0.0169153
628.185	0.0168843
628.263	0.0169614
628.341	0.0171077
628.419	0.0170015
628.497	0.0169549
628.575	0.0169042
628.654	0.0170285
628.732	0.0170051
628.810	0.0171779
628.888	0.0169345
628.966	0.0169691
629.044	0.0170982
629.122	0.0170400
629.200	0.0169584
629.279	0.0170238
629.357	0.0169671
629.435	0.0170538
629.513	0.0169872
629.591	0.0170199
629.669	0.0170451
629.747	0.0168933
629.825	0.0168219
629.904	0.0170904
629.982	0.0170134
630.060	0.0170432
630.138	0.0169991
630.216	0.0169228
630.294	0.0170045
630.372	0.0172078
630.450	0.0170105
630.529	0.0169207
630.607	0.0169901
630.685	0.0170067
630.763	0.0169560
630.841	0.0169508
630.919	0.0170872
630.997	0.0171383
631.075	0.0168654
631.154	0.0169536
631.232	0.0169792
631.310	0.0170138
631.388	0.0170156
631.466	0.0170419
631.544	0.0170836
631.622	0.0170242
631.700	0.0170873
631.779	0.0169835
631.857	0.0170267
631.935	0.0171085
632.013	0.0169054
632.091	0.0169841
632.169	0.0170417
632.247	0.0171007
632.325	0.0171412
632.404	0.0168289
632.482	0.0168687
632.560	0.0170594
632.638	0.0170608
632.716	0.0171567
632.794	0.0170158
632.872	0.0170732
632.950	0.0169880
633.029	0.0169952
633.107	0.0170689
633.185	0.0171335
633.263	0.0170357
633.341	0.0169332
633.419	0.0169843
633.497	0.0169727
633.575	0.0170435
633.654	0.0170512
633.732	0.0170454
633.810	0.0171978
633.888	0.0170861
633.966	0.0172511
634.044	0.0172989
634.122	0.0172080
634.200	0.0173880
634.279	0.0173786
634.357	0.0172007
634.435	0.0171761
634.513	0.0170811
634.591	0.0171294
634.669	0.0169543
634.747	0.0168653
634.825	0.0168394
634.904	0.0167672
634.982	0.0167961
635.060	0.0167495
635.138	0.0168375
635.216	0.0168198
635.294	0.0170187
635.372	0.0171705
635.450	0.0171718
635.529	0.0174587
635.607	0.0175246
635.685	0.0175564
635.763	0.0175831
635.841	0.0175488
635.919	0.0174939
635.997	0.0175363
636.075	0.0172305
636.154	0.0170274
636.232	0.0170081
636.310	0.0166357
636.388	0.0165533
636.466	0.0163163
636.544	0.0163351
636.622	0.0163233
636.700	0.0165457
636.779	0.0167463
636.857	0.0170084
636.935	0.0172897
637.013	0.0175325
637.091	0.0178523
637.169	0.0177843
637.247	0.0181230
637.325	0.0179782
637.404	0.0179973
637.482	0.0179079
637.560	0.0175162
637.638	0.0174602
637.716	0.0170824
637.794	0.0166756
637.872	0.0165816
637.950	0.0163811
638.029	0.0162460
638.107	0.0162354
638.185	0.0161205
638.263	0.0162079
638.341	0.0163280
638.419	0.0164658
638.497	0.0166616
638.575	0.0169963
638.654	0.0171532
638.732	0.0175686
638.810	0.0177322
638.888	0.0177772
638.966	0.0177072
639.044	0.0178191
639.122	0.0176089
639.200	0.0174146
639.279	0.0173276
639.357	0.0170211
639.435	0.0167899
639.513	0.0165071
639.591	0.0164835
639.669	0.0164279
639.747	0.0163581
639.825	0.0165112
639.904	0.0165965
639.982	0.0167944
640.060	0.0169532
640.138	0.0169445
640.216	0.0173209
640.294	0.0174310
640.372	0.0173286
640.450	0.0172195
640.529	0.0171915
640.607	0.0171832
640.685	0.0170849
640.763	0.0171967
640.841	0.0170043
640.919	0.0169766
640.997	0.0169955
641.075	0.0170940
641.154	0.0171294
641.232	0.0171688
641.310	0.0172633
641.388	0.0172094
641.466	0.0174009
641.544	0.0174710
641.622	0.0172680
641.700	0.0172036
641.779	0.0170533
641.857	0.0169962
641.935	0.0167798
642.013	0.0167653
642.091	0.0165918
642.169	0.0165398
642.247	0.0164973
642.325	0.0165202
642.404	0.0165322
642.482	0.0165182
642.560	0.0166631
642.638	0.0167435
642.716	0.0171999
642.794	0.0172427
642.872	0.0175214
642.950	0.0174485
643.029	0.0176501
643.107	0.0175507
643.185	0.0173914
643.263	0.0173232
643.341	0.0171841
643.419	0.0170533
643.497	0.0172136
643.575	0.0170729
643.654	0.0167941
643.732	0.0167934
643.810	0.0167194
643.888	0.0165321
643.966	0.0167310
644.044	0.0166623
644.122	0.0164998
644.200	0.0166566
644.279	0.0169183
644.357	0.0167760
644.435	0.0167547
644.513	0.0170231
644.591	0.0170348
644.669	0.0171465
644.747	0.0172792
644.825	0.0172421
644.904	0.0172756
644.982	0.0174555
645.060	0.0175224
645.138	0.0173013
645.216	0.0173325
645.294	0.0173403
645.372	0.0171358
645.450	0.0170084
645.529	0.0169228
645.607	0.0167333
645.685	0.0166638
645.763	0.0166403
645.841	0.0166488
645.919	0.0165264
645.997	0.0167681
646.075	0.0168452
646.154	0.0168652
646.232	0.0171444
646.310	0.0171233
646.388	0.0171305
646.466	0.0171460
646.544	0.0171967
646.622	0.0172044
646.700	0.0170322
646.779	0.0171695
646.857	0.0170731
646.935	0.0168862
647.013	0.0169309
647.091	0.0170015
647.169	0.0169879
647.247	0.0168910
647.325	0.0170895
647.404	0.0172650
647.482	0.0172769
647.560	0.0171799
647.638	0.0174247
647.716	0.0174397
647.794	0.0172669
647.872	0.0172221
647.950	0.0170551
648.029	0.0170351
648.107	0.0167464
648.185	0.0165999
648.263	0.0165400
648.341	0.0164955
648.419	0.0164979
648.497	0.0164837
648.575	0.0165767
648.654	0.0167139
648.732	0.0169868
648.810	0.0171472
648.888	0.0171381
648.966	0.0173570
649.044	0.0173441
649.122	0.0175847
649.200	0.0176048
649.279	0.0175513
649.357	0.0175748
649.435	0.0173948
649.513	0.0173312
649.591	0.0170342
649.669	0.0171691
649.747	0.0169188
649.825	0.0166724
649.904	0.0166345
649.982	0.0165711
650.060	0.0164690
650.138	0.0163940
650.216	0.0165390
650.294	0.0164952
650.372	0.0167327
650.450	0.0168929
650.529	0.0171009
650.607	0.0172383
650.685	0.0173473
650.763	0.0174782
650.841	0.0177019
650.919	0.0175107
650.997	0.0176224
651.075	0.0174289
651.154	0.0173933
651.232	0.0172646
651.310	0.0172836
651.388	0.0171119
651.466	0.0168559
651.544	0.0168968
651.622	0.0167531
651.700	0.0166792
651.779	0.0165881
651.857	0.0166563
651.935	0.0165651
652.013	0.0166241
652.091	0.0168085
652.169	0.0167985
652.247	0.0170035
652.325	0.0169276
652.404	0.0171310
652.482	0.0171632
652.560	0.0171774
652.638	0.0170841
652.716	0.0170518
652.794	0.0172636
652.872	0.0173287
652.950	0.0172552
653.029	0.0171986
653.107	0.0172163
653.185	0.0171714
653.263	0.0170932
653.341	0.0172293
653.419	0.0172302
653.497	0.0170235
653.575	0.0171804
653.654	0.0169712
653.732	0.0170116
653.810	0.0170238
653.888	0.0168761
653.966	0.0169371
654.044	0.0168056
654.122	0.0170046
654.200	0.0169437
654.279	0.0169905
654.357	0.0169711
654.435	0.0172435
654.513	0.0172964
654.591	0.0171643
654.669	0.0171014
654.747	0.0171243
654.825	0.0173169
654.904	0.0172662
654.982	0.0172401
655.060	0.0170766
655.138	0.0170572
655.216	0.0169503
655.294	0.0168972
655.372	0.0168592
655.450	0.0166780
655.529	0.0167999
655.607	0.0168488
655.685	0.0167596
655.763	0.0169881
655.841	0.0169770
655.919	0.0170616
655.997	0.0171366
656.075	0.0172784
656.154	0.0173631
656.232	0.0173663
656.310	0.0173426
656.388	0.0174387
656.466	0.0173828
656.544	0.0173527
656.622	0.0173387
656.700	0.0174799
656.779	0.0174397
656.857	0.0174649
656.935	0.0172983
657.013	0.0172812
657.091	0.0173447
657.169	0.0173195
657.247	0.0171559
657.325	0.0169741
657.404	0.0169161
657.482	0.0167559
657.560	0.0167318
657.638	0.0168111
657.716	0.0167722
657.794	0.0167742
657.872	0.0166164
657.950	0.0166020
658.029	0.0165859
658.107	0.0166805
658.185	0.0164818
658.263	0.0167217
658.341	0.0168656
658.419	0.0166984
658.497	0.0166277
658.575	0.0166820
658.654	0.0167000
658.732	0.0167451
658.810	0.0170331
658.888	0.0171169
658.966	0.0171762
659.044	0.0171940
659.122	0.0172503
659.200	0.0173748
659.279	0.0173914
659.357	0.0175501
659.435	0.0176548
659.513	0.0176983
659.591	0.0177782
659.669	0.0177451
659.747	0.0177139
659.825	0.0176131
659.904	0.0177013
659.982	0.0174374
660.060	0.0171749
660.138	0.0171818
660.216	0.0169933
660.294	0.0167941
660.372	0.0167051
660.450	0.0166183
660.529	0.0165700
660.607	0.0167181
660.685	0.0167864
660.763	0.0167059
660.841	0.0169653
660.919	0.0171637
660.997	0.0171288
661.075	0.0172376
661.154	0.0173724
661.232	0.0173593
661.310	0.0172334
661.388	0.0172908
661.466	0.0173843
661.544	0.0172169
661.622	0.0171162
661.700	0.0171500
661.779	0.0169175
661.857	0.0168604
661.935	0.0167972
662.013	0.0167056
662.091	0.0165667
662.169	0.0164705
662.247	0.0167537
662.325	0.0165250
662.404	0.0166370
662.482	0.0165976
662.560	0.0167490
662.638	0.0166796
662.716	0.0166616
662.794	0.0168156
662.872	0.0167445
662.950	0.0170784
663.029	0.0169012
663.107	0.0168870
663.185	0.0170094
663.263	0.0170233
663.341	0.0169279
663.419	0.0170676
663.497	0.0171944
663.575	0.0171427
663.654	0.0172289
663.732	0.0172484
663.810	0.0172987
663.888	0.0172722
663.966	0.0173147
664.044	0.0173754
664.122	0.0174626
664.200	0.0174015
664.279	0.0175054
664.357	0.0175504
664.435	0.0174821
664.513	0.0175094
664.591	0.0176258
664.669	0.0173980
664.747	0.0175136
664.825	0.0174710
664.904	0.0175538
664.982	0.0175323
665.060	0.0175066
665.138	0.0175061
665.216	0.0174157
665.294	0.0171320
665.372	0.0172394
665.450	0.0171235
665.529	0.0170900
665.607	0.0170714
665.685	0.0168563
665.763	0.0166698
665.841	0.0166248
665.919	0.0166624
665.997	0.0162811
666.075	0.0162013
666.154	0.0162670
666.232	0.0159544
666.310	0.0160232
666.388	0.0158783
666.466	0.0158680
666.544	0.0158688
666.622	0.0159090
666.700	0.0160509
666.779	0.0162046
666.857	0.0162186
666.935	0.0163598
667.013	0.0165534
667.091	0.0168205
667.169	0.0169867
667.247	0.0170439
667.325	0.0173543
667.404	0.0175921
667.482	0.0177061
667.560	0.0178130
667.638	0.0180195
667.716	0.0179680
667.794	0.0181066
667.872	0.0180039
667.950	0.0178606
668.029	0.0179866
668.107	0.0178327
668.185	0.0177809
668.263	0.0179108
668.341	0.0178246
668.419	0.0176429
668.497	0.0174865
668.575	0.0174658
668.654	0.0173437
668.732	0.0170924
668.810	0.0169762
668.888	0.0169067
668.966	0.0168011
669.044	0.0166502
669.122	0.0166725
669.200	0.0163347
669.279	0.0162640
669.357	0.0163595
669.435	0.0161351
669.513	0.0162943
669.591	0.0162483
669.669	0.0164429
669.747	0.0165938
669.825	0.0165893
669.904	0.0166961
669.982	0.0167848
670.060	0.0170604
670.138	0.0170307
670.216	0.0170547
670.294	0.0172013
670.372	0.0174772
670.450	0.0174957
670.529	0.0177319
670.607	0.0179092
670.685	0.0180197
670.763	0.0180000
670.841	0.0181866
670.919	0.0182037
670.997	0.0182619
671.075	0.0181998
671.154	0.0180254
671.232	0.0180650
671.310	0.0177380
671.388	0.0175700
671.466	0.0172604
671.544	0.0169466
671.622	0.0165984
671.700	0.0162549
671.779	0.0159658
671.857	0.0155186
671.935	0.0155292
672.013	0.0153034
672.091	0.0154292
672.169	0.0155011
672.247	0.0154907
672.325	0.0157332
672.404	0.0160947
672.482	0.0164142
672.560	0.0166502
672.638	0.0168185
672.716	0.0170602
672.794	0.0171379
672.872	0.0171776
672.950	0.0173455
673.029	0.0172590
673.107	0.0171368
673.185	0.0172133
673.263	0.0171532
673.341	0.0171539
673.419	0.0172424
673.497	0.0172438
673.575	0.0171687
673.654	0.0172830
673.732	0.0172425
673.810	0.0174629
673.888	0.0175627
673.966	0.0177041
674.044	0.0177145
674.122	0.0176538
674.200	0.0177744
674.279	0.0178275
674.357	0.0178914
674.435	0.0179823
674.513	0.0178263
674.591	0.0178815
674.669	0.0178632
674.747	0.0178753
674.825	0.0178611
674.904	0.0176924
674.982	0.0175298
675.060	0.0176375
675.138	0.0174326
675.216	0.0170954
675.294	0.0168958
675.372	0.0165341
675.450	0.0162756
675.529	0.0159351
675.607	0.0155374
675.685	0.0154791
675.763	0.0152187
675.841	0.0151160
675.919	0.0151871
675.997	0.0151524
676.075	0.0153233
676.154	0.0157062
676.232	0.0158237
676.310	0.0161289
676.388	0.0166158
676.466	0.0168668
676.544	0.0174321
676.622	0.0174657
676.700	0.0175561
676.779	0.0179153
676.857	0.0178699
676.935	0.0180550
677.013	0.0181548
677.091	0.0181119
677.169	0.0182738
677.247	0.0181735
677.325	0.0182887
677.404	0.0183713
677.482	0.0182968
677.560	0.0183886
677.638	0.0183897
677.716	0.0182691
677.794	0.0180222
677.872	0.0179925
677.950	0.0179157
678.029	0.0176775
678.107	0.0173769
678.185	0.0172430
678.263	0.0171763
678.341	0.0171034
678.419	0.0168175
678.497	0.0166382
678.575	0.0166360
678.654	0.0165405
678.732	0.0164407
678.810	0.0163248
678.888	0.0161271
678.966	0.0159731
679.044	0.0157859
679.122	0.0158123
679.200	0.0155974
679.279	0.0154263
679.357	0.0155396
679.435	0.0158170
679.513	0.0158102
679.591	0.0159501
679.669	0.0161304
679.747	0.0164722
679.825	0.0167626
679.904	0.0168976
679.982	0.0169653
680.060	0.0172388
680.138	0.0172538
680.216	0.0173056
680.294	0.0172324
680.372	0.0174155
680.450	0.0173040
680.529	0.0174764
680.607	0.0174198
680.685	0.0173680
680.763	0.0173347
680.841	0.0172678
680.919	0.0175964
680.997	0.0175578
681.075	0.0176086
681.154	0.0176610
681.232	0.0176556
681.310	0.0177734
681.388	0.0177467
681.466	0.0175925
681.544	0.0176073
681.622	0.0175398
681.700	0.0175312
681.779	0.0174343
681.857	0.0171709
681.935	0.0170335
682.013	0.0166776
682.091	0.0163797
682.169	0.0161886
682.247	0.0158930
682.325	0.0158115
682.404	0.0158434
682.482	0.0156403
682.560	0.0157705
682.638	0.0160791
682.716	0.0162008
682.794	0.0163925
682.872	0.0166159
682.950	0.0166438
683.029	0.0170151
683.107	0.0170022
683.185	0.0171680
683.263	0.0172303
683.341	0.0171699
683.419	0.0172193
683.497	0.0172373
683.575	0.0174937
683.654	0.0177230
683.732	0.0179759
683.810	0.0181676
683.888	0.0184766
683.966	0.0187345
684.044	0.0190368
684.122	0.0191344
684.200	0.0191191
684.279	0.0189324
684.357	0.0186893
684.435	0.0185914
684.513	0.0182388
684.591	0.0178535
684.669	0.0176566
684.747	0.0174159
684.825	0.0171474
684.904	0.0167803
684.982	0.0167686
685.060	0.0168843
685.138	0.0169791
685.216	0.0170945
685.294	0.0171239
685.372	0.0171706
685.450	0.0171793
685.529	0.0173529
685.607	0.0170964
685.685	0.0167532
685.763	0.0165289
685.841	0.0161392
685.919	0.0157343
685.997	0.0151505
686.075	0.0149452
686.154	0.0145165
686.232	0.0142721
686.310	0.0140902
686.388	0.0139194
686.466	0.0140910
686.544	0.0142141
686.622	0.0142496
686.700	0.0145808
686.779	0.0145531
686.857	0.0146075
686.935	0.0149868
687.013	0.0151746
687.091	0.0154005
687.169	0.0156404
687.247	0.0158125
687.325	0.0160694
687.404	0.0164310
687.482	0.0168584
687.560	0.0170415
687.638	0.0175591
687.716	0.0178669
687.794	0.0182251
687.872	0.0186655
687.950	0.0190312
688.029	0.0194772
688.107	0.0198966
688.185	0.0201015
688.263	0.0201169
688.341	0.0203809
688.419	0.0205856
688.497	0.0205405
688.575	0.0204741
688.654	0.0201875
688.732	0.0202091
688.810	0.0200401
688.888	0.0194701
688.966	0.0191700
689.044	0.0188223
689.122	0.0182250
689.200	0.0177345
689.279	0.0170415
689.357	0.0165634
689.435	0.0160249
689.513	0.0154432
689.591	0.0150286
689.669	0.0147097
689.747	0.0144788
689.825	0.0141563
689.904	0.0140496
689.982	0.0141045
690.060	0.0142139
690.138	0.0144939
690.216	0.0148891
690.294	0.0152325
690.372	0.0157418
690.450	0.0162917
690.529	0.0168764
690.607	0.0171646
690.685	0.0172509
690.763	0.0177045
690.841	0.0178550
690.919	0.0180209
690.997	0.0181963
691.075	0.0182179
691.154	0.0182761
691.232	0.0183864
691.310	0.0185309
691.388	0.0185576
691.466	0.0187173
691.544	0.0186487
691.622	0.0185927
691.700	0.0185919
691.779	0.0187023
691.857	0.0186124
691.935	0.0184839
692.013	0.0185477
692.091	0.0183128
692.169	0.0183884
692.247	0.0182542
692.325	0.0180202
692.404	0.0178596
692.482	0.0176350
692.560	0.0172942
692.638	0.0168703
692.716	0.0166295
692.794	0.0162601
692.872	0.0157698
692.950	0.0153342
693.029	0.0148646
693.107	0.0144312
693.185	0.0140902
693.263	0.0137685
693.341	0.0133344
693.419	0.0131128
693.497	0.0129413
693.575	0.0126528
693.654	0.0123812
693.732	0.0121890
693.810	0.0120309
693.888	0.0120439
693.966	0.0122537
694.044	0.0122000
694.122	0.0124165
694.200	0.0129939
694.279	0.0134984
694.357	0.0141168
694.435	0.0148410
694.513	0.0159463
694.591	0.0166621
694.669	0.0175369
694.747	0.0186239
694.825	0.0196530
694.904	0.0206223
694.982	0.0213615
695.060	0.0218366
695.138	0.0224422
695.216	0.0229133
695.294	0.0231077
695.372	0.0235052
695.450	0.0235217
695.529	0.0233298
695.607	0.0233452
695.685	0.0230944
695.763	0.0227551
695.841	0.0223662
695.919	0.0219291
695.997	0.0212046
696.075	0.0205251
696.154	0.0200507
696.232	0.0193760
696.310	0.0186929
696.388	0.0179884
696.466	0.0173722
696.544	0.0167059
696.622	0.0161773
696.700	0.0158006
696.779	0.0153372
696.857	0.0150369
696.935	0.0146243
697.013	0.0143002
697.091	0.0139265
697.169	0.0137241
697.247	0.0134297
697.325	0.0132336
697.404	0.0128154
697.482	0.0127197
697.560	0.0127305
697.638	0.0127383
697.716	0.0128519
697.794	0.0132784
697.872	0.0135453
697.950	0.0139133
698.029	0.0148087
698.107	0.0154423
698.185	0.0159487
698.263	0.0168269
698.341	0.0174618
698.419	0.0183885
698.497	0.0189234
698.575	0.0193379
698.654	0.0198079
698.732	0.0201061
698.810	0.0202908
698.888	0.0203847
698.966	0.0201424
699.044	0.0198268
699.122	0.0196891
699.200	0.0193325
699.279	0.0188392
699.357	0.0185381
699.435	0.0180030
699.513	0.0176017
699.591	0.0171384
699.669	0.0167040
699.747	0.0164766
699.825	0.0161486
699.904	0.0156922
699.982	0.0153337
700.060	0.0150158
700.138	0.0144484
700.216	0.0141357
700.294	0.0138457
700.372	0.0135270
700.450	0.0134627
700.529	0.0129658
700.607	0.0129559
700.685	0.0129538
700.763	0.0129380
700.841	0.0129691
700.919	0.0131034
700.997	0.0132268
701.075	0.0137500
701.154	0.0142322
701.232	0.0146090
701.310	0.0153356
701.388	0.0160266
701.466	0.0167689
701.544	0.0175068
701.622	0.0182977
701.700	0.0190987
701.779	0.0199537
701.857	0.0206073
701.935	0.0214312
702.013	0.0219093
702.091	0.0224464
702.169	0.0229221
702.247	0.0232227
702.325	0.0236352
702.404	0.0235352
702.482	0.0235789
702.560	0.0234478
702.638	0.0230994
702.716	0.0228522
702.794	0.0224610
702.872	0.0217688
702.950	0.0210442
703.029	0.0202923
703.107	0.0194945
703.185	0.0185994
703.263	0.0176697
703.341	0.0166100
703.419	0.0155307
703.497	0.0145527
703.575	0.0136248
703.654	0.0127579
703.732	0.0119977
703.810	0.0114004
703.888	0.0108513
703.966	0.0106203
704.044	0.0106757
704.122	0.0106114
704.200	0.0108350
704.279	0.0113670
704.357	0.0121023
704.435	0.0128571
704.513	0.0138294
704.591	0.0148503
704.669	0.0159003
704.747	0.0170462
704.825	0.0183100
704.904	0.0193388
704.982	0.0203710
705.060	0.0211798
705.138	0.0219420
705.216	0.0223944
705.294	0.0226427
705.372	0.0229797
705.450	0.0230379
705.529	0.0227131
705.607	0.0223315
705.685	0.0216801
705.763	0.0209674
705.841	0.0202452
705.919	0.0194620
705.997	0.0185332
706.075	0.0176659
706.154	0.0167226
706.232	0.0160107
706.310	0.0152967
706.388	0.0145811
706.466	0.0138659
706.544	0.0130247
706.622	0.0125171
706.700	0.0122611
706.779	0.0118102
706.857	0.0114318
706.935	0.0111523
707.013	0.0111740
707.091	0.0110011
707.169	0.0109969
707.247	0.0110751
707.325	0.0113396
707.404	0.0114359
707.482	0.0117099
707.560	0.0120124
707.638	0.0123654
707.716	0.0130859
707.794	0.0136171
707.872	0.0141771
707.950	0.0149645
708.029	0.0156953
708.107	0.0164352
708.185	0.0172551
708.263	0.0180891
708.341	0.0189105
708.419	0.0196555
708.497	0.0202623
708.575	0.0208904
708.654	0.0216709
708.732	0.0222494
708.810	0.0227697
708.888	0.0230356
708.966	0.0234444
709.044	0.0235806
709.122	0.0237606
709.200	0.0237065
709.279	0.0234927
709.357	0.0228786
709.435	0.0224932
709.513	0.0219451
709.591	0.0212859
709.669	0.0206277
709.747	0.0198658
709.825	0.0190576
709.904	0.0182333
709.982	0.0175603
710.060	0.0170693
710.138	0.0165417
710.216	0.0160497
710.294	0.0157873
710.372	0.0155563
710.450	0.0153799
710.529	0.0155405
710.607	0.0153886
710.685	0.0156635
710.763	0.0158621
710.841	0.0161717
710.919	0.0164251
710.997	0.0165922
711.075	0.0170211
711.154	0.0173161
711.232	0.0173444
711.310	0.0176259
711.388	0.0175970
711.466	0.0178514
711.544	0.0180376
711.622	0.0180673
711.700	0.0179923
711.779	0.0179276
711.857	0.0178310
711.935	0.0174949
712.013	0.0172450
712.091	0.0169025
712.169	0.0165871
712.247	0.0163776
712.325	0.0160230
712.404	0.0156530
712.482	0.0153246
712.560	0.0151308
712.638	0.0148598
712.716	0.0145766
712.794	0.0143441
712.872	0.0142300
712.950	0.0140567
713.029	0.0136262
713.107	0.0135124
713.185	0.0133639
713.263	0.0132496
713.341	0.0131101
713.419	0.0129529
713.497	0.0125895
713.575	0.0126334
713.654	0.0125095
713.732	0.0126461
713.810	0.0129094
713.888	0.0129076
713.966	0.0132208
714.044	0.0135141
714.122	0.0140961
714.200	0.0144171
714.279	0.0148501
714.357	0.0155976
714.435	0.0160769
714.513	0.0168305
714.591	0.0173398
714.669	0.0179299
714.747	0.0185604
714.825	0.0189006
714.904	0.0195225
714.982	0.0199729
715.060	0.0203542
715.138	0.0207732
715.216	0.0210806
715.294	0.0212385
715.372	0.0213715
715.450	0.0216357
715.529	0.0216547
715.607	0.0217583
715.685	0.0218612
715.763	0.0218550
715.841	0.0218831
715.919	0.0217626
715.997	0.0217053
716.075	0.0215393
716.154	0.0213876
716.232	0.0212611
716.310	0.0209184
716.388	0.0206429
716.466	0.0203287
716.544	0.0199700
716.622	0.0194038
716.700	0.0190047
716.779	0.0186530
716.857	0.0182984
716.935	0.0178328
717.013	0.0173621
717.091	0.0170551
717.169	0.0166610
717.247	0.0164996
717.325	0.0162849
717.404	0.0161481
717.482	0.0161198
717.560	0.0161511
717.638	0.0160045
717.716	0.0159035
717.794	0.0156116
717.872	0.0156672
717.950	0.0157287
718.029	0.0153123
718.107	0.0150836
718.185	0.0147498
718.263	0.0146999
718.341	0.0145434
718.419	0.0142925
718.497	0.0143649
718.575	0.0143829
718.654	0.0143711
718.732	0.0143340
718.810	0.0145114
718.888	0.0146661
718.966	0.0148164
719.044	0.0148977
719.122	0.0151015
719.200	0.0150685
719.279	0.0151649
719.357	0.0152057
719.435	0.0153530
719.513	0.0153286
719.591	0.0153048
719.669	0.0152431
719.747	0.0155057
719.825	0.0154088
719.904	0.0153884
719.982	0.0154017
720.060	0.0154700
720.138	0.0154069
720.216	0.0157407
720.294	0.0158611
720.372	0.0160416
720.450	0.0161604
720.529	0.0163862
720.607	0.0163943
720.685	0.0165208
720.763	0.0168151
720.841	0.0170084
720.919	0.0170489
720.997	0.0172472
721.075	0.0173961
721.154	0.0175234
721.232	0.0175494
721.310	0.0175996
721.388	0.0178898
721.466	0.0180910
721.544	0.0181738
721.622	0.0184837
721.700	0.0187531
721.779	0.0189242
721.857	0.0190868
721.935	0.0193816
722.013	0.0195786
722.091	0.0197647
722.169	0.0198843
722.247	0.0199625
722.325	0.0201434
722.404	0.0201816
722.482	0.0201596
722.560	0.0199319
722.638	0.0198485
722.716	0.0196913
722.794	0.0196166
722.872	0.0194012
722.950	0.0189705
723.029	0.0186615
723.107	0.0185896
723.185	0.0183211
723.263	0.0180753
723.341	0.0178387
723.419	0.0175086
723.497	0.0174648
723.575	0.0172566
723.654	0.0169911
723.732	0.0170545
723.810	0.0170116
723.888	0.0167142
723.966	0.0165984
724.044	0.0166013
724.122	0.0164493
724.200	0.0161276
724.279	0.0159315
724.357	0.0158395
724.435	0.0157840
724.513	0.0154987
724.591	0.0154344
724.669	0.0154781
724.747	0.0154115
724.825	0.0150983
724.904	0.0151002
724.982	0.0150555
725.060	0.0148425
725.138	0.0148627
725.216	0.0148868
725.294	0.0148772
725.372	0.0147941
725.450	0.0149504
725.529	0.0151558
725.607	0.0152418
725.685	0.0154941
725.763	0.0155802
725.841	0.0158301
725.919	0.0159083
725.997	0.0161306
726.075	0.0164127
726.154	0.0165163
726.232	0.0167775
726.310	0.0169668
726.388	0.0170637
726.466	0.0173213
726.544	0.0174828
726.622	0.0176321
726.700	0.0177448
726.779	0.0179823
726.857	0.0178417
726.935	0.0178001
727.013	0.0178065
727.091	0.0179684
727.169	0.0178593
727.247	0.0176828
727.325	0.0176809
727.404	0.0175837
727.482	0.0174233
727.560	0.0175409
727.638	0.0171344
727.716	0.0171571
727.794	0.0172038
727.872	0.0172118
727.950	0.0171234
728.029	0.0171500
728.107	0.0172895
728.185	0.0173174
728.263	0.0174997
728.341	0.0175977
728.419	0.0176807
728.497	0.0177726
728.575	0.0179752
728.654	0.0180475
728.732	0.0179227
728.810	0.0179343
728.888	0.0178928
728.966	0.0177334
729.044	0.0175612
729.122	0.0175708
729.200	0.0174712
729.279	0.0172855
729.357	0.0171902
729.435	0.0170145
729.513	0.0170282
729.591	0.0171170
729.669	0.0170513
729.747	0.0169337
729.825	0.0169440
729.904	0.0169673
729.982	0.0168743
730.060	0.0168307
730.138	0.0169373
730.216	0.0169020
730.294	0.0168348
730.372	0.0168282
730.450	0.0166875
730.529	0.0166592
730.607	0.0166243
730.685	0.0168056
730.763	0.0169794
730.841	0.0168378
730.919	0.0168459
730.997	0.0168576
731.075	0.0168463
731.154	0.0169383
731.232	0.0168271
731.310	0.0167906
731.388	0.0167879
731.466	0.0165731
731.544	0.0165437
731.622	0.0164513
731.700	0.0165373
731.779	0.0164117
731.857	0.0162195
731.935	0.0162173
732.013	0.0163512
732.091	0.0163934
732.169	0.0164345
732.247	0.0165465
732.325	0.0167514
732.404	0.0169186
732.482	0.0172923
732.560	0.0175022
732.638	0.0175735
732.716	0.0177534
732.794	0.0181030
732.872	0.0180733
732.950	0.0180030
733.029	0.0180719
733.107	0.0181376
733.185	0.0180885
733.263	0.0179826
733.341	0.0177987
733.419	0.0177039
733.497	0.0175559
733.575	0.0173950
733.654	0.0172334
733.732	0.0170339
733.810	0.0170056
733.888	0.0170224
733.966	0.0169110
734.044	0.0169778
734.122	0.0170444
734.200	0.0170402
734.279	0.0170993
734.357	0.0172943
734.435	0.0173511
734.513	0.0173753
734.591	0.0175420
734.669	0.0176784
734.747	0.0177232
734.825	0.0176238
734.904	0.0174857
734.982	0.0174877
735.060	0.0173766
735.138	0.0170869
735.216	0.0169554
735.294	0.0168189
735.372	0.0166226
735.450	0.0163378
735.529	0.0162109
735.607	0.0161195
735.685	0.0159737
735.763	0.0159137
735.841	0.0158222
735.919	0.0159594
735.997	0.0159085
736.075	0.0159921
736.154	0.0162018
736.232	0.0162633
736.310	0.0163018
736.388	0.0164829
736.466	0.0165555
736.544	0.0164439
736.622	0.0167950
736.700	0.0168675
736.779	0.0167704
736.857	0.0169321
736.935	0.0169536
737.013	0.0171033
737.091	0.0171474
737.169	0.0171539
737.247	0.0170955
737.325	0.0171310
737.404	0.0171618
737.482	0.0170738
737.560	0.0168905
737.638	0.0169626
737.716	0.0168232
737.794	0.0166698
737.872	0.0168408
737.950	0.0166612
738.029	0.0167628
738.107	0.0167480
738.185	0.0168279
738.263	0.0171452
738.341	0.0171471
738.419	0.0172990
738.497	0.0175684
738.575	0.0176118
738.654	0.0177817
738.732	0.0179028
738.810	0.0179723
738.888	0.0181580
738.966	0.0182205
739.044	0.0182697
739.122	0.0181126
739.200	0.0181235
739.279	0.0182744
739.357	0.0181076
739.435	0.0179764
739.513	0.0179105
739.591	0.0177720
739.669	0.0176670
739.747	0.0177001
739.825	0.0174229
739.904	0.0172406
739.982	0.0173509
740.060	0.0172665
740.138	0.0171198
740.216	0.0170104
740.294	0.0172573
740.372	0.0172669
740.450	0.0173660
740.529	0.0173386
740.607	0.0171504
740.685	0.0174026
740.763	0.0174472
740.841	0.0173974
740.919	0.0174334
740.997	0.0173000
741.075	0.0170950
741.154	0.0172348
741.232	0.0171944
741.310	0.0169933
741.388	0.0170540
741.466	0.0169899
741.544	0.0168766
741.622	0.0169074
741.700	0.0166874
741.779	0.0165442
741.857	0.0166079
741.935	0.0165095
742.013	0.0163366
742.091	0.0163438
742.169	0.0161982
742.247	0.0160165
742.325	0.0158762
742.404	0.0159032
742.482	0.0160350
742.560	0.0158663
742.638	0.0158503
742.716	0.0157853
742.794	0.0159430
742.872	0.0159653
742.950	0.0160607
743.029	0.0161427
743.107	0.0162135
743.185	0.0163856
743.263	0.0163521
743.341	0.0163738
743.419	0.0163583
743.497	0.0165141
743.575	0.0165070
743.654	0.0164173
743.732	0.0165774
743.810	0.0166341
743.888	0.0166131
743.966	0.0166437
744.044	0.0164250
744.122	0.0167185
744.200	0.0166984
744.279	0.0167610
744.357	0.0168835
744.435	0.0169569
744.513	0.0169896
744.591	0.0171972
744.669	0.0172331
744.747	0.0173061
744.825	0.0173545
744.904	0.0175506
744.982	0.0176487
745.060	0.0175522
745.138	0.0176039
745.216	0.0178290
745.294	0.0177065
745.372	0.0176411
745.450	0.0177689
745.529	0.0177627
745.607	0.0177175
745.685	0.0177970
745.763	0.0177560
745.841	0.0176884
745.919	0.0177737
745.997	0.0178532
746.075	0.0178511
746.154	0.0177236
746.232	0.0176859
746.310	0.0178647
746.388	0.0178393
746.466	0.0178817
746.544	0.0177362
746.622	0.0177672
746.700	0.0177176
746.779	0.0176662
746.857	0.0176585
746.935	0.0177132
747.013	0.0175842
747.091	0.0175566
747.169	0.0176904
747.247	0.0173961
747.325	0.0174358
747.404	0.0174072
747.482	0.0171858
747.560	0.0171368
747.638	0.0169703
747.716	0.0168532
747.794	0.0166745
747.872	0.0164722
747.950	0.0165689
748.029	0.0162885
748.107	0.0163047
748.185	0.0160944
748.263	0.0162075
748.341	0.0162018
748.419	0.0161454
748.497	0.0162848
748.575	0.0162424
748.654	0.0163226
748.732	0.0164745
748.810	0.0163870
748.888	0.0165196
748.966	0.0166338
749.044	0.0165839
749.122	0.0166884
749.200	0.0167332
749.279	0.0166469
749.357	0.0167257
749.435	0.0167990
749.513	0.0168079
749.591	0.0168668
749.669	0.0166451
749.747	0.0166640
749.825	0.0166456
749.904	0.0166093
749.982	0.0165395
750.060	0.0166975
750.138	0.0166602
750.216	0.0165678
750.294	0.0167047
750.372	0.0166252
750.450	0.0166608
750.529	0.0167803
750.607	0.0167514
750.685	0.0170593
750.763	0.0169730
750.841	0.0168685
750.919	0.0169292
750.997	0.0170210
751.075	0.0170957
751.154	0.0171051
751.232	0.0170210
751.310	0.0169452
751.388	0.0167803
751.466	0.0167042
751.544	0.0166514
751.622	0.0165299
751.700	0.0163913
751.779	0.0166291
751.857	0.0164991
751.935	0.0165043
752.013	0.0163696
752.091	0.0166726
752.169	0.0166215
752.247	0.0168323
752.325	0.0169474
752.404	0.0170736
752.482	0.0172646
752.560	0.0174136
752.638	0.0175881
752.716	0.0177227
752.794	0.0179550
752.872	0.0180720
752.950	0.0180270
753.029	0.0182088
753.107	0.0182006
753.185	0.0183582
753.263	0.0184132
753.341	0.0183243
753.419	0.0184148
753.497	0.0181876
753.575	0.0179758
753.654	0.0180135
753.732	0.0178394
753.810	0.0176015
753.888	0.0175003
753.966	0.0171635
754.044	0.0170391
754.122	0.0170129
754.200	0.0167853
754.279	0.0167441
754.357	0.0166606
754.435	0.0166727
754.513	0.0166740
754.591	0.0168184
754.669	0.0166664
754.747	0.0167104
754.825	0.0168845
754.904	0.0168143
754.982	0.0168575
755.060	0.0169974
755.138	0.0170491
755.216	0.0171502
755.294	0.0171125
755.372	0.0171147
755.450	0.0170030
755.529	0.0169572
755.607	0.0169331
755.685	0.0168802
755.763	0.0168244
755.841	0.0168342
755.919	0.0167287
755.997	0.0167097
756.075	0.0168114
756.154	0.0167484
756.232	0.0168056
756.310	0.0166780
756.388	0.0166774
756.466	0.0167059
756.544	0.0169167
756.622	0.0167626
756.700	0.0166955
756.779	0.0168513
756.857	0.0168771
756.935	0.0167534
757.013	0.0166030
757.091	0.0166595
757.169	0.0167249
757.247	0.0167138
757.325	0.0165681
757.404	0.0165616
757.482	0.0167219
757.560	0.0167260
757.638	0.0167223
757.716	0.0167534
757.794	0.0168490
757.872	0.0167403
757.950	0.0169517
758.029	0.0167709
758.107	0.0168645
758.185	0.0168975
758.263	0.0168867
758.341	0.0170033
758.419	0.0170238
758.497	0.0169117
758.575	0.0169360
758.654	0.0169646
758.732	0.0170688
758.810	0.0171252
758.888	0.0171617
758.966	0.0172440
759.044	0.0174431
759.122	0.0174100
759.200	0.0173620
759.279	0.0174209
759.357	0.0174393
759.435	0.0175648
759.513	0.0175261
759.591	0.0174207
759.669	0.0173568
759.747	0.0173164
759.825	0.0172678
759.904	0.0172524
759.982	0.0170301
760.060	0.0168990
760.138	0.0169020
760.216	0.0166860
760.294	0.0167351
760.372	0.0167802
760.450	0.0167297
760.529	0.0167245
760.607	0.0169193
760.685	0.0169681
760.763	0.0168881
760.841	0.0170454
760.919	0.0171346
760.997	0.0172109
761.075	0.0173187
761.154	0.0176610
761.232	0.0175786
761.310	0.0175282
761.388	0.0175700
761.466	0.0175874
761.544	0.0177285
761.622	0.0176214
761.700	0.0174993
761.779	0.0175028
761.857	0.0175062
761.935	0.0175944
762.013	0.0174430
762.091	0.0173479
762.169	0.0173756
762.247	0.0172253
762.325	0.0171407
762.404	0.0172359
762.482	0.0172053
762.560	0.0169973
762.638	0.0170959
762.716	0.0170975
762.794	0.0168208
762.872	0.0169220
762.950	0.0168788
763.029	0.0166473
763.107	0.0166335
763.185	0.0166891
763.263	0.0167586
763.341	0.0165708
763.419	0.0164777
763.497	0.0166524
763.575	0.0164184
763.654	0.0164624
763.732	0.0166841
763.810	0.0165874
763.888	0.0166619
763.966	0.0168790
764.044	0.0167615
764.122	0.0169344
764.200	0.0170269
764.279	0.0170470
764.357	0.0171134
764.435	0.0170850
764.513	0.0173920
764.591	0.0172855
764.669	0.0172280
764.747	0.0172838
764.825	0.0174191
764.904	0.0173396
764.982	0.0174661
765.060	0.0173980
765.138	0.0174043
765.216	0.0174389
765.294	0.0173144
765.372	0.0172443
765.450	0.0172863
765.529	0.0172593
765.607	0.0171009
765.685	0.0170756
765.763	0.0170416
765.841	0.0169748
765.919	0.0169228
765.997	0.0167308
766.075	0.0167268
766.154	0.0165452
766.232	0.0166823
766.310	0.0165469
766.388	0.0164752
766.466	0.0165080
766.544	0.0164709
766.622	0.0163982
766.700	0.0164380
766.779	0.0166505
766.857	0.0167052
766.935	0.0168800
767.013	0.0171045
767.091	0.0170997
767.169	0.0171519
767.247	0.0172237
767.325	0.0171757
767.404	0.0171886
767.482	0.0175458
767.560	0.0174697
767.638	0.0172904
767.716	0.0171402
767.794	0.0172565
767.872	0.0172390
767.950	0.0172269
768.029	0.0171426
768.107	0.0171629
768.185	0.0170002
768.263	0.0170570
768.341	0.0170627
768.419	0.0171851
768.497	0.0171876
768.575	0.0170344
768.654	0.0172269
768.732	0.0171118
768.810	0.0172589
768.888	0.0172667
768.966	0.0171901
769.044	0.0174086
769.122	0.0171443
769.200	0.0170802
769.279	0.0170498
769.357	0.0171636
769.435	0.0171030
769.513	0.0170235
769.591	0.0170414
769.669	0.0169534
769.747	0.0169850
769.825	0.0170684
769.904	0.0170134
769.982	0.0170330
770.060	0.0170808
770.138	0.0170377
770.216	0.0169798
770.294	0.0170877
770.372	0.0170865
770.450	0.0171485
770.529	0.0171955
770.607	0.0171776
770.685	0.0174587
770.763	0.0173993
770.841	0.0172221
770.919	0.0173226
770.997	0.0174528
771.075	0.0173349
771.154	0.0173168
771.232	0.0173747
771.310	0.0173343
771.388	0.0173688
771.466	0.0173369
771.544	0.0173425
771.622	0.0175341
771.700	0.0172003
771.779	0.0171568
771.857	0.0171069
771.935	0.0171774
772.013	0.0170142
772.091	0.0170383
772.169	0.0169606
772.247	0.0169267
772.325	0.0168153
772.404	0.0167867
772.482	0.0167055
772.560	0.0165797
772.638	0.0165319
772.716	0.0166451
772.794	0.0165736
772.872	0.0166444
772.950	0.0167684
773.029	0.0166369
773.107	0.0167712
773.185	0.0168748
773.263	0.0168056
773.341	0.0169090
773.419	0.0169415
773.497	0.0170763
773.575	0.0170125
773.654	0.0171089
773.732	0.0170004
773.810	0.0171423
773.888	0.0170996
773.966	0.0173367
774.044	0.0171229
774.122	0.0173083
774.200	0.0172620
774.279	0.0171355
774.357	0.0171191
774.435	0.0171566
774.513	0.0170924
774.591	0.0168855
774.669	0.0168841
774.747	0.0170036
774.825	0.0168052
774.904	0.0167054
774.982	0.0167076
775.060	0.0166904
775.138	0.0166722
775.216	0.0166467
775.294	0.0165507
775.372	0.0167717
775.450	0.0168456
775.529	0.0169167
775.607	0.0169447
775.685	0.0169717
775.763	0.0170390
775.841	0.0169502
775.919	0.0171243
775.997	0.0172603
776.075	0.0172941
776.154	0.0173220
776.232	0.0172858
776.310	0.0173697
776.388	0.0174160
776.466	0.0173172
776.544	0.0172349
776.622	0.0173032
776.700	0.0173187
776.779	0.0172527
776.857	0.0172266
776.935	0.0172112
777.013	0.0172199
777.091	0.0170601
777.169	0.0171317
777.247	0.0171146
777.325	0.0170552
777.404	0.0172488
777.482	0.0172227
777.560	0.0172252
777.638	0.0171783
777.716	0.0172549
777.794	0.0173350
777.872	0.0171892
777.950	0.0171081
778.029	0.0173871
778.107	0.0173293
778.185	0.0172640
778.263	0.0172105
778.341	0.0172967
778.419	0.0171176
778.497	0.0170714
778.575	0.0171503
778.654	0.0170713
778.732	0.0168292
778.810	0.0168652
778.888	0.0169003
778.966	0.0168752
779.044	0.0168134
779.122	0.0168633
779.200	0.0168066
779.279	0.0169273
779.357	0.0169032
779.435	0.0167899
779.513	0.0168813
779.591	0.0170117
779.669	0.0170982
779.747	0.0171311
779.825	0.0169736
779.904	0.0170647
779.982	0.0171954
780.060	0.0172785
780.138	0.0172856
780.216	0.0173505
780.294	0.0170840
780.372	0.0172452
780.450	0.0170069
780.529	0.0169705
780.607	0.0169922
780.685	0.0167108
780.763	0.0167762
780.841	0.0166685
780.919	0.0167671
780.997	0.0166874
781.075	0.0165852
781.154	0.0165244
781.232	0.0166143
781.310	0.0165736
781.388	0.0166429
781.466	0.0166966
781.544	0.0167223
781.622	0.0167682
781.700	0.0169571
781.779	0.0169704
781.857	0.0170088
781.935	0.0170972
782.013	0.0171477
782.091	0.0172192
782.169	0.0172768
782.247	0.0172789
782.325	0.0174100
782.404	0.0171768
782.482	0.0172200
782.560	0.0173637
782.638	0.0171857
782.716	0.0171629
782.794	0.0172190
782.872	0.0170352
782.950	0.0169157
783.029	0.0170538
783.107	0.0167867
783.185	0.0167851
783.263	0.0168027
783.341	0.0167178
783.419	0.0168591
783.497	0.0167756
783.575	0.0167832
783.654	0.0167979
783.732	0.0169069
783.810	0.0168025
783.888	0.0168646
783.966	0.0170763
784.044	0.0169752
784.122	0.0171539
784.200	0.0171389
784.279	0.0171851
784.357	0.0172622
784.435	0.0173683
784.513	0.0172684
784.591	0.0173649
784.669	0.0174474
784.747	0.0174638
784.825	0.0174208
784.904	0.0175349
784.982	0.0174775
785.060	0.0175014
785.138	0.0174288
785.216	0.0175180
785.294	0.0173665
785.372	0.0172806
785.450	0.0172625
785.529	0.0173332
785.607	0.0173040
785.685	0.0174692
785.763	0.0172663
785.841	0.0172423
785.919	0.0171928
785.997	0.0172430
786.075	0.0172672
786.154	0.0173065
786.232	0.0172771
786.310	0.0173669
786.388	0.0173241
786.466	0.0171373
786.544	0.0169810
786.622	0.0170475
786.700	0.0169968
786.779	0.0170267
786.857	0.0169978
786.935	0.0169312
787.013	0.0165958
787.091	0.0166251
787.169	0.0165421
787.247	0.0164248
787.325	0.0164847
787.404	0.0164970
787.482	0.0165098
787.560	0.0164440
787.638	0.0164997
787.716	0.0164976
787.794	0.0164360
787.872	0.0165989
787.950	0.0166696
788.029	0.0166714
788.107	0.0168111
788.185	0.0167662
788.263	0.0170217
788.341	0.0170128
788.419	0.0171371
788.497	0.0172843
788.575	0.0172095
788.654	0.0173469
788.732	0.0173208
788.810	0.0173625
788.888	0.0173281
788.966	0.0175039
789.044	0.0173849
789.122	0.0172587
789.200	0.0171551
789.279	0.0170613
789.357	0.0170573
789.435	0.0172054
789.513	0.0171704
789.591	0.0168755
789.669	0.0169378
789.747	0.0169447
789.825	0.0168468
789.904	0.0168494
789.982	0.0168607
790.060	0.0166943
790.138	0.0165640
790.216	0.0166831
790.294	0.0168473
790.372	0.0167365
790.450	0.0167570
790.529	0.0166553
790.607	0.0167185
790.685	0.0167348
790.763	0.0168951
790.841	0.0169320
790.919	0.0169666
790.997	0.0170964
791.075	0.0170380
791.154	0.0172268
791.232	0.0172678
791.310	0.0172301
791.388	0.0172076
791.466	0.0175124
791.544	0.0175095
791.622	0.0174830
791.700	0.0174686
791.779	0.0176047
791.857	0.0175909
791.935	0.0176328
792.013	0.0176736
792.091	0.0174974
792.169	0.0175999
792.247	0.0177551
792.325	0.0177519
792.404	0.0177722
792.482	0.0175782
792.560	0.0175524
792.638	0.0174715
792.716	0.0174493
792.794	0.0173307
792.872	0.0173225
792.950	0.0171911
793.029	0.0170876
793.107	0.0169646
793.185	0.0168748
793.263	0.0167551
793.341	0.0166498
793.419	0.0165304
793.497	0.0166127
793.575	0.0165987
793.654	0.0164251
793.732	0.0164475
793.810	0.0165621
793.888	0.0166641
793.966	0.0166346
794.044	0.0166067
794.122	0.0167037
794.200	0.0167116
794.279	0.0168321
794.357	0.0168401
794.435	0.0168478
794.513	0.0169935
794.591	0.0170886
794.669	0.0172498
794.747	0.0172557
794.825	0.0171954
794.904	0.0172614
794.982	0.0172717
795.060	0.0172541
795.138	0.0172772
795.216	0.0171415
795.294	0.0171386
795.372	0.0170845
795.450	0.0170356
795.529	0.0169775
795.607	0.0169285
795.685	0.0168500
795.763	0.0169503
795.841	0.0167965
795.919	0.0169118
795.997	0.0169832
796.075	0.0167560
796.154	0.0167683
796.232	0.0167873
796.310	0.0168391
796.388	0.0167787
796.466	0.0168813
796.544	0.0168152
796.622	0.0169219
796.700	0.0168755
796.779	0.0168316
796.857	0.0169187
796.935	0.0169982
797.013	0.0169144
797.091	0.0168688
797.169	0.0169346
797.247	0.0168523
797.325	0.0170004
797.404	0.0171316
797.482	0.0171225
797.560	0.0170918
797.638	0.0172424
797.716	0.0172182
797.794	0.0171750
797.872	0.0173029
797.950	0.0174423
798.029	0.0175137
798.107	0.0176942
798.185	0.0175853
798.263	0.0175110
798.341	0.0176669
798.419	0.0176717
798.497	0.0178708
798.575	0.0176347
798.654	0.0176746
798.732	0.0178612
798.810	0.0177023
798.888	0.0177412
798.966	0.0176221
799.044	0.0176338
799.122	0.0174245
799.200	0.0173914
799.279	0.0173814
799.357	0.0172421
799.435	0.0169806
799.513	0.0169339
799.591	0.0167433
799.669	0.0169291
799.747	0.0168129
799.825	0.0167594
799.904	0.0166649
799.982	0.0165431
800.060	0.0165018
800.138	0.0164335
800.216	0.0164841
800.294	0.0164828
800.372	0.0164697
800.450	0.0164990
800.529	0.0165123
800.607	0.0167282
800.685	0.0166886
800.763	0.0165339
800.841	0.0166872
800.919	0.0169307
800.997	0.0168893
801.075	0.0169849
801.154	0.0170377
801.232	0.0170910
801.310	0.0169724
801.388	0.0171611
801.466	0.0171704
801.544	0.0172590
801.622	0.0172987
801.700	0.0171640
801.779	0.0173322
801.857	0.0172514
801.935	0.0173306
802.013	0.0172375
802.091	0.0171645
802.169	0.0173351
802.247	0.0171767
802.325	0.0172895
802.404	0.0172041
802.482	0.0172068
802.560	0.0169772
802.638	0.0169562
802.716	0.0171010
802.794	0.0170884
802.872	0.0169817
802.950	0.0168247
803.029	0.0168037
803.107	0.0166383
803.185	0.0167443
803.263	0.0167212
803.341	0.0166620
803.419	0.0166656
803.497	0.0166642
803.575	0.0164864
803.654	0.0165006
803.732	0.0166096
803.810	0.0167271
803.888	0.0166595
803.966	0.0166903
804.044	0.0168147
804.122	0.0167577
804.200	0.0167020
804.279	0.0168699
804.357	0.0169285
804.435	0.0169293
804.513	0.0169507
804.591	0.0171332
804.669	0.0171793
804.747	0.0171624
804.825	0.0173669
804.904	0.0172665
804.982	0.0173479
805.060	0.0175964
805.138	0.0176639
805.216	0.0174915
805.294	0.0177952
805.372	0.0177922
805.450	0.0178495
805.529	0.0177797
805.607	0.0177514
805.685	0.0178321
805.763	0.0176942
805.841	0.0178304
805.919	0.0177106
805.997	0.0175785
806.075	0.0176809
806.154	0.0174996
806.232	0.0174731
806.310	0.0174361
806.388	0.0174133
806.466	0.0173146
806.544	0.0172379
806.622	0.0172399
806.700	0.0170332
806.779	0.0169381
806.857	0.0169225
806.935	0.0170197
807.013	0.0168955
807.091	0.0167982
807.169	0.0166850
807.247	0.0166123
807.325	0.0167735
807.404	0.0165282
807.482	0.0164437
807.560	0.0166193
807.638	0.0164410
807.716	0.0165861
807.794	0.0165700
807.872	0.0164075
807.950	0.0164900
808.029	0.0166347
808.107	0.0165821
808.185	0.0163789
808.263	0.0165256
808.341	0.0165919
808.419	0.0165477
808.497	0.0165795
808.575	0.0166896
808.654	0.0167000
808.732	0.0168864
808.810	0.0167799
808.888	0.0169270
808.966	0.0169680
809.044	0.0169403
809.122	0.0170127
809.200	0.0167976
809.279	0.0170560
809.357	0.0170374
809.435	0.0170918
809.513	0.0169324
809.591	0.0171278
809.669	0.0169778
809.747	0.0169992
809.825	0.0169588
809.904	0.0169163
809.982	0.0170505
810.060	0.0170780
810.138	0.0169878
810.216	0.0169491
810.294	0.0168846
810.372	0.0169351
810.450	0.0170451
810.529	0.0169641
810.607	0.0169382
810.685	0.0170766
810.763	0.0170573
810.841	0.0169348
810.919	0.0169548
810.997	0.0170557
811.075	0.0170353
811.154	0.0171313
811.232	0.0170771
811.310	0.0171195
811.388	0.0172430
811.466	0.0172333
811.544	0.0172448
811.622	0.0171983
811.700	0.0173136
811.779	0.0174678
811.857	0.0175295
811.935	0.0175075
812.013	0.0175472
812.091	0.0175938
812.169	0.0176986
812.247	0.0176255
812.325	0.0178072
812.404	0.0175925
812.482	0.0176517
812.560	0.0176187
812.638	0.0177188
812.716	0.0177029
812.794	0.0178311
812.872	0.0175800
812.950	0.0175256
813.029	0.0176493
813.107	0.0175117
813.185	0.0174765
813.263	0.0173373
813.341	0.0173740
813.419	0.0172366
813.497	0.0172813
813.575	0.0170229
813.654	0.0171181
813.732	0.0170042
813.810	0.0167548
813.888	0.0168629
813.966	0.0168875
814.044	0.0167155
814.122	0.0167442
814.200	0.0167905
814.279	0.0165554
814.357	0.0166526
814.435	0.0166909
814.513	0.0166366
814.591	0.0165284
814.669	0.0165737
814.747	0.0165276
814.825	0.0165843
814.904	0.0164639
814.982	0.0165659
815.060	0.0165567
815.138	0.0166064
815.216	0.0165521
815.294	0.0165302
815.372	0.0165665
815.450	0.0165286
815.529	0.0166947
815.607	0.0168050
815.685	0.0166862
815.763	0.0167542
815.841	0.0169567
815.919	0.0168967
815.997	0.0168298
816.075	0.0169456
816.154	0.0169047
816.232	0.0169012
816.310	0.0169714
816.388	0.0169418
816.466	0.0169911
816.544	0.0170131
816.622	0.0170560
816.700	0.0170778
816.779	0.0170100
816.857	0.0172256
816.935	0.0172231
817.013	0.0172549
817.091	0.0171677
817.169	0.0172395
817.247	0.0172980
817.325	0.0173219
817.404	0.0173625
817.482	0.0174535
817.560	0.0172774
817.638	0.0174265
817.716	0.0175127
817.794	0.0173074
817.872	0.0173104
817.950	0.0174904
818.029	0.0174964
818.107	0.0173677
818.185	0.0175208
818.263	0.0172428
818.341	0.0173576
818.419	0.0172973
818.497	0.0172423
818.575	0.0172327
818.654	0.0171934
818.732	0.0171592
818.810	0.0171835
818.888	0.0171856
818.966	0.0171766
819.044	0.0172689
819.122	0.0173438
819.200	0.0173351
819.279	0.0173264
819.357	0.0173597
819.435	0.0174242
819.513	0.0173200
819.591	0.0172066
819.669	0.0173722
819.747	0.0173225
819.825	0.0171877
819.904	0.0170907
819.982	0.0171685
820.060	0.0170538
820.138	0.0169927
820.216	0.0170177
820.294	0.0168554
820.372	0.0168375
820.450	0.0168298
820.529	0.0168089
820.607	0.0168770
820.685	0.0168829
820.763	0.0169279
820.841	0.0168115
820.919	0.0168507
820.997	0.0169104
821.075	0.0168395
821.154	0.0168995
821.232	0.0168732
821.310	0.0169787
821.388	0.0170917
821.466	0.0169595
821.544	0.0168711
821.622	0.0168620
821.700	0.0169462
821.779	0.0169255
821.857	0.0167915
821.935	0.0168445
822.013	0.0167967
822.091	0.0167924
822.169	0.0168203
822.247	0.0167451
822.325	0.0168522
822.404	0.0169118
822.482	0.0169630
822.560	0.0168371
822.638	0.0168261
822.716	0.0168588
822.794	0.0167931
822.872	0.0168416
822.950	0.0168959
823.029	0.0167706
823.107	0.0168209
823.185	0.0169607
823.263	0.0168540
823.341	0.0169414
823.419	0.0168990
823.497	0.0171564
823.575	0.0170870
823.654	0.0170320
823.732	0.0169099
823.810	0.0170217
823.888	0.0171181
823.966	0.0169401
824.044	0.0171806
824.122	0.0171610
824.200	0.0170717
824.279	0.0170358
824.357	0.0171687
824.435	0.0171929
824.513	0.0171274
824.591	0.0172460
824.669	0.0171677
824.747	0.0171236
824.825	0.0171745
824.904	0.0171483
824.982	0.0170472
825.060	0.0172466
825.138	0.0172253
825.216	0.0171055
825.294	0.0172343
825.372	0.0172392
825.450	0.0172052
825.529	0.0171624
825.607	0.0172028
825.685	0.0172240
825.763	0.0173480
825.841	0.0172245
825.919	0.0173075
825.997	0.0172801
826.075	0.0172806
826.154	0.0171640
826.232	0.0173080
826.310	0.0174208
826.388	0.0172038
826.466	0.0171710
826.544	0.0171092
826.622	0.0170831
826.700	0.0170706
826.779	0.0169714
826.857	0.0170883
826.935	0.0170864
827.013	0.0171223
827.091	0.0170728
827.169	0.0170165
827.247	0.0171006
827.325	0.0170589
827.404	0.0169787
827.482	0.0171103
827.560	0.0170004
827.638	0.0169647
827.716	0.0170439
827.794	0.0170527
827.872	0.0171066
827.950	0.0170634
828.029	0.0169025
828.107	0.0169899
828.185	0.0170570
828.263	0.0171151
828.341	0.0171250
828.419	0.0171143
828.497	0.0171581
828.575	0.0170074
828.654	0.0170586
828.732	0.0171152
828.810	0.0171049
828.888	0.0169895
828.966	0.0170365
829.044	0.0170094
829.122	0.0170507
829.200	0.0170126
829.279	0.0169341
829.357	0.0168312
829.435	0.0167229
829.513	0.0167905
829.591	0.0167527
829.669	0.0167967
829.747	0.0168828
829.825	0.0166866
829.904	0.0168383
829.982	0.0168660
830.060	0.0169932
830.138	0.0167507
830.216	0.0169231
830.294	0.0169676
830.372	0.0167928
830.450	0.0168190
830.529	0.0168488
830.607	0.0168764
830.685	0.0168398
830.763	0.0167342
830.841	0.0169876
830.919	0.0169268
830.997	0.0169667
831.075	0.0169771
831.154	0.0169292
831.232	0.0168601
831.310	0.0170602
831.388	0.0170797
831.466	0.0171065
831.544	0.0169354
831.622	0.0170651
831.700	0.0171741
831.779	0.0171939
831.857	0.0174250
831.935	0.0174274
832.013	0.0174028
832.091	0.0173394
832.169	0.0173476
832.247	0.0173987
832.325	0.0174274
832.404	0.0174846
832.482	0.0172616
832.560	0.0171545
832.638	0.0171058
832.716	0.0172161
832.794	0.0171172
832.872	0.0170624
832.950	0.0169527
833.029	0.0168871
833.107	0.0170602
833.185	0.0169261
833.263	0.0170113
833.341	0.0168716
833.419	0.0169074
833.497	0.0171138
833.575	0.0170405
833.654	0.0169675
833.732	0.0172201
833.810	0.0172208
833.888	0.0171658
833.966	0.0171462
834.044	0.0172460
834.122	0.0172950
834.200	0.0171828
834.279	0.0172878
834.357	0.0172777
834.435	0.0172513
834.513	0.0172489
834.591	0.0171669
834.669	0.0171288
834.747	0.0172261
834.825	0.0172746
834.904	0.0171484
834.982	0.0172438
835.060	0.0172598
835.138	0.0172829
835.216	0.0171309
835.294	0.0173475
835.372	0.0172543
835.450	0.0170882
835.529	0.0170992
835.607	0.0170811
835.685	0.0170209
835.763	0.0170417
835.841	0.0169761
835.919	0.0169519
835.997	0.0169183
836.075	0.0169402
836.154	0.0167348
836.232	0.0166902
836.310	0.0166063
836.388	0.0167933
836.466	0.0166004
836.544	0.0166475
836.622	0.0169075
836.700	0.0168056
836.779	0.0168059
836.857	0.0169975
836.935	0.0170460
837.013	0.0170854
837.091	0.0170357
837.169	0.0170729
837.247	0.0170370
837.325	0.0171633
837.404	0.0171153
837.482	0.0170126
837.560	0.0171529
837.638	0.0170882
837.716	0.0171448
837.794	0.0171383
837.872	0.0172063
837.950	0.0172544
838.029	0.0170933
838.107	0.0171977
838.185	0.0171734
838.263	0.0171046
838.341	0.0170611
838.419	0.0172708
838.497	0.0171359
838.575	0.0169524
838.654	0.0172190
838.732	0.0172394
838.810	0.0170520
838.888	0.0169931
838.966	0.0169111
839.044	0.0170800
839.122	0.0170106
839.200	0.0169745
839.279	0.0170579
839.357	0.0169701
839.435	0.0169733
839.513	0.0168690
839.591	0.0168320
839.669	0.0169628
839.747	0.0169124
839.825	0.0170061
839.904	0.0169024
839.982	0.0168509
840.060	0.0169158
840.138	0.0169901
840.216	0.0171066
840.294	0.0172007
840.372	0.0171175
840.450	0.0171164
840.529	0.0172095
840.607	0.0170763
840.685	0.0170302
840.763	0.0171449
840.841	0.0171811
840.919	0.0172320
840.997	0.0170258
841.075	0.0172392
841.154	0.0172592
841.232	0.0171673
841.310	0.0173298
841.388	0.0172150
841.466	0.0172872
841.544	0.0173165
841.622	0.0172524
841.700	0.0171692
841.779	0.0171783
841.857	0.0172241
841.935	0.0171873
842.013	0.0171500
842.091	0.0170548
842.169	0.0168301
842.247	0.0169464
842.325	0.0168117
842.404	0.0168058
842.482	0.0167573
842.560	0.0168137
842.638	0.0167294
842.716	0.0166476
842.794	0.0168347
842.872	0.0169463
842.950	0.0169626
843.029	0.0169079
843.107	0.0169429
843.185	0.0169054
843.263	0.0170866
843.341	0.0171196
843.419	0.0171590
843.497	0.0172221
843.575	0.0173107
843.654	0.0173405
843.732	0.0173476
843.810	0.0173958
843.888	0.0174150
843.966	0.0173482
844.044	0.0174230
844.122	0.0172979
844.200	0.0171739
844.279	0.0173004
844.357	0.0171243
844.435	0.0171280
844.513	0.0169870
844.591	0.0170319
844.669	0.0170554
844.747	0.0170354
844.825	0.0170007
844.904	0.0169437
844.982	0.0169979
845.060	0.0169820
845.138	0.0170955
845.216	0.0169994
845.294	0.0170467
845.372	0.0171485
845.450	0.0170911
845.529	0.0171242
845.607	0.0169450
845.685	0.0169178
845.763	0.0169003
845.841	0.0169942
845.919	0.0169920
845.997	0.0170088
846.075	0.0168505
846.154	0.0168218
846.232	0.0167934
846.310	0.0168057
846.388	0.0168228
846.466	0.0168491
846.544	0.0169540
846.622	0.0168835
846.700	0.0169530
846.779	0.0168770
846.857	0.0168304
846.935	0.0170871
847.013	0.0170672
847.091	0.0169813
847.169	0.0170068
847.247	0.0170443
847.325	0.0171049
847.404	0.0170922
847.482	0.0168565
847.560	0.0169961
847.638	0.0171404
847.716	0.0169688
847.794	0.0170245
847.872	0.0168508
847.950	0.0169764
848.029	0.0169666
848.107	0.0169662
848.185	0.0169244
848.263	0.0169899
848.341	0.0170673
848.419	0.0171165
848.497	0.0170358
848.575	0.0172240
848.654	0.0172520
848.732	0.0172933
848.810	0.0172581
848.888	0.0171163
848.966	0.0171922
849.044	0.0172152
849.122	0.0171949
849.200	0.0172488
849.279	0.0171590
849.357	0.0169990
849.435	0.0170847
849.513	0.0172245
849.591	0.0169529
849.669	0.0171439
849.747	0.0171094
849.825	0.0169482
849.904	0.0170943
849.982	0.0170445
850.060	0.0171189
850.138	0.0171218
850.216	0.0171780
850.294	0.0171281
850.372	0.0170975
850.450	0.0171097
850.529	0.0169541
850.607	0.0169747
850.685	0.0170342
850.763	0.0168350
850.841	0.0169299
850.919	0.0167878
850.997	0.0167825
851.075	0.0168382
851.154	0.0168868
851.232	0.0169475
851.310	0.0168035
851.388	0.0169005
851.466	0.0169019
851.544	0.0170193
851.622	0.0169141
851.700	0.0169422
851.779	0.0169469
851.857	0.0169107
851.935	0.0170137
852.013	0.0169098
852.091	0.0170277
852.169	0.0169861
852.247	0.0171167
852.325	0.0170876
852.404	0.0172166
852.482	0.0171605
852.560	0.0170742
852.638	0.0170770
852.716	0.0171927
852.794	0.0171577
852.872	0.0171460
852.950	0.0170751
853.029	0.0170747
853.107	0.0170307
853.185	0.0170300
853.263	0.0170072
853.341	0.0169460
853.419	0.0170014
853.497	0.0169122
853.575	0.0169356
853.654	0.0169759
853.732	0.0169432
853.810	0.0169195
853.888	0.0169458
853.966	0.0170048
854.044	0.0168641
854.122	0.0169817
854.200	0.0169984
854.279	0.0169149
854.357	0.0168816
854.435	0.0169552
854.513	0.0168022
854.591	0.0169780
854.669	0.0170399
854.747	0.0169659
854.825	0.0169597
854.904	0.0171063
854.982	0.0170360
855.060	0.0170721
855.138	0.0171239
855.216	0.0170258
855.294	0.0171114
855.372	0.0171385
855.450	0.0170196
855.529	0.0170626
855.607	0.0172047
855.685	0.0171302
855.763	0.0171740
855.841	0.0170803
855.919	0.0171178
855.997	0.0172409
856.075	0.0169822
856.154	0.0171856
856.232	0.0172491
856.310	0.0170749
856.388	0.0170316
856.466	0.0171761
856.544	0.0170291
856.622	0.0169035
856.700	0.0169496
856.779	0.0169537
856.857	0.0169096
856.935	0.0168982
857.013	0.0168866
857.091	0.0167986
857.169	0.0168390
857.247	0.0168582
857.325	0.0169264
857.404	0.0168970
857.482	0.0168885
857.560	0.0168954
857.638	0.0169521
857.716	0.0169500
857.794	0.0169992
857.872	0.0168663
857.950	0.0168864
858.029	0.0170028
858.107	0.0171017
858.185	0.0169809
858.263	0.0173572
858.341	0.0173660
858.419	0.0174117
858.497	0.0174528
858.575	0.0174685
858.654	0.0175367
858.732	0.0174709
858.810	0.0175546
858.888	0.0175996
858.966	0.0176684
859.044	0.0176437
859.122	0.0175370
859.200	0.0173611
859.279	0.0176107
859.357	0.0174641
859.435	0.0174461
859.513	0.0173001
859.591	0.0173763
859.669	0.0174556
859.747	0.0172553
859.825	0.0170169
859.904	0.0170924
859.982	0.0170912
860.060	0.0169109
860.138	0.0169827
860.216	0.0168133
860.294	0.0168015
860.372	0.0168862
860.450	0.0168642
860.529	0.0168753
860.607	0.0166046
860.685	0.0167493
860.763	0.0167285
860.841	0.0165981
860.919	0.0168260
860.997	0.0169158
861.075	0.0169102
861.154	0.0169023
861.232	0.0169337
861.310	0.0168847
861.388	0.0170275
861.466	0.0170140
861.544	0.0170358
861.622	0.0169996
861.700	0.0170058
861.779	0.0168845
861.857	0.0169758
861.935	0.0171273
862.013	0.0169708
862.091	0.0171078
862.169	0.0170242
862.247	0.0170150
862.325	0.0171484
862.404	0.0169837
862.482	0.0170631
862.560	0.0171196
862.638	0.0169494
862.716	0.0170633
862.794	0.0168950
862.872	0.0171483
862.950	0.0169048
863.029	0.0170059
863.107	0.0169685
863.185	0.0170425
863.263	0.0170998
863.341	0.0170459
863.419	0.0169643
863.497	0.0168190
863.575	0.0170094
863.654	0.0169450
863.732	0.0170547
863.810	0.0170456
863.888	0.0169587
863.966	0.0170625
864.044	0.0171355
864.122	0.0171986
864.200	0.0171059
864.279	0.0170929
864.357	0.0172176
864.435	0.0172542
864.513	0.0171738
864.591	0.0171078
864.669	0.0172368
864.747	0.0170439
864.825	0.0171893
864.904	0.0170493
864.982	0.0171161
865.060	0.0172092
865.138	0.0171388
865.216	0.0172242
865.294	0.0173662
865.372	0.0171848
865.450	0.0173220
865.529	0.0175211
865.607	0.0173737
865.685	0.0173691
865.763	0.0173890
865.841	0.0173909
865.919	0.0171677
865.997	0.0171210
866.075	0.0170910
866.154	0.0171289
866.232	0.0170457
866.310	0.0168961
866.388	0.0169169
866.466	0.0170319
866.544	0.0169198
866.622	0.0168017
866.700	0.0168743
866.779	0.0168197
866.857	0.0168444
866.935	0.0168625
867.013	0.0167786
867.091	0.0168433
867.169	0.0167618
867.247	0.0168027
867.325	0.0168665
867.404	0.0167686
867.482	0.0168954
867.560	0.0166794
867.638	0.0167256
867.716	0.0169693
867.794	0.0168942
867.872	0.0169433
867.950	0.0169088
868.029	0.0169757
868.107	0.0169900
868.185	0.0170843
868.263	0.0170628
868.341	0.0170079
868.419	0.0170262
868.497	0.0170598
868.575	0.0169466
868.654	0.0169330
868.732	0.0169317
868.810	0.0169431
868.888	0.0170338
868.966	0.0169202
869.044	0.0168793
869.122	0.0168455
869.200	0.0170206
869.279	0.0170442
869.357	0.0170498
869.435	0.0169898
869.513	0.0169573
869.591	0.0169656
869.669	0.0170589
869.747	0.0170918
869.825	0.0170003
869.904	0.0171077
869.982	0.0170339
870.060	0.0170214
870.138	0.0171451
870.216	0.0170368
870.294	0.0170060
870.372	0.0171375
870.450	0.0171563
870.529	0.0171822
870.607	0.0170525
870.685	0.0170599
870.763	0.0170979
870.841	0.0171754
870.919	0.0172511
870.997	0.0170691
871.075	0.0170690
871.154	0.0171429
871.232	0.0171914
871.310	0.0172122
871.388	0.0171426
871.466	0.0171288
871.544	0.0171805
871.622	0.0171670
871.700	0.0171999
871.779	0.0172127
871.857	0.0172311
871.935	0.0170557
872.013	0.0169637
872.091	0.0169531
872.169	0.0169177
872.247	0.0170562
872.325	0.0170592
872.404	0.0170494
872.482	0.0170012
872.560	0.0170863
872.638	0.0170769
872.716	0.0172350
872.794	0.0170763
872.872	0.0169181
872.950	0.0171426
873.029	0.0170794
873.107	0.0170089
873.185	0.0171075
873.263	0.0169913
873.341	0.0170106
873.419	0.0171939
873.497	0.0168852
873.575	0.0170801
873.654	0.0171189
873.732	0.0168625
873.810	0.0169389
873.888	0.0171150
873.966	0.0171104
874.044	0.0167797
874.122	0.0168375
874.200	0.0168541
874.279	0.0170517
874.357	0.0169580
874.435	0.0168524
874.513	0.0168140
874.591	0.0168463
874.669	0.0169284
874.747	0.0169312
874.825	0.0168395
874.904	0.0168021
874.982	0.0169733
875.060	0.0168648
875.138	0.0167785
875.216	0.0168675
875.294	0.0169619
875.372	0.0169978
875.450	0.0169567
875.529	0.0168790
875.607	0.0170531
875.685	0.0170911
875.763	0.0171416
875.841	0.0170523
875.919	0.0170715
875.997	0.0171740
876.075	0.0171675
876.154	0.0171187
876.232	0.0171272
876.310	0.0170797
876.388	0.0171035
876.466	0.0169932
876.544	0.0171244
876.622	0.0171294
876.700	0.0170911
876.779	0.0172050
876.857	0.0172942
876.935	0.0173979
877.013	0.0173460
877.091	0.0174046
877.169	0.0173834
877.247	0.0172625
877.325	0.0172313
877.404	0.0172303
877.482	0.0171391
877.560	0.0170772
877.638	0.0171452
877.716	0.0171738
877.794	0.0169515
877.872	0.0169154
877.950	0.0169357
878.029	0.0167860
878.107	0.0167690
878.185	0.0167067
878.263	0.0167989
878.341	0.0166558
878.419	0.0167323
878.497	0.0166405
878.575	0.0166888
878.654	0.0166347
878.732	0.0166718
878.810	0.0167470
878.888	0.0167760
878.966	0.0167899
879.044	0.0168021
879.122	0.0168710
879.200	0.0170729
879.279	0.0169784
879.357	0.0170996
879.435	0.0172176
879.513	0.0171935
879.591	0.0172422
879.669	0.0173329
879.747	0.0173494
879.825	0.0173121
879.904	0.0174510
879.982	0.0173104
880.060	0.0172749
880.138	0.0173216
880.216	0.0173238
880.294	0.0172411
880.372	0.0171622
880.450	0.0171546
880.529	0.0171482
880.607	0.0170573
880.685	0.0171143
880.763	0.0170317
880.841	0.0169135
880.919	0.0169260
880.997	0.0169224
881.075	0.0168520
881.154	0.0168439
881.232	0.0168587
881.310	0.0168542
881.388	0.0168296
881.466	0.0168820
881.544	0.0170072
881.622	0.0168861
881.700	0.0170148
881.779	0.0168670
881.857	0.0169108
881.935	0.0168842
882.013	0.0169935
882.091	0.0170225
882.169	0.0170190
882.247	0.0171770
882.325	0.0171356
882.404	0.0170779
882.482	0.0169774
882.560	0.0170296
882.638	0.0170998
882.716	0.0170372
882.794	0.0170158
882.872	0.0169062
882.950	0.0169091
883.029	0.0170485
883.107	0.0169742
883.185	0.0169041
883.263	0.0170598
883.341	0.0171841
883.419	0.0170715
883.497	0.0171062
883.575	0.0171613
883.654	0.0171096
883.732	0.0172758
883.810	0.0171509
883.888	0.0170477
883.966	0.0172247
884.044	0.0172269
884.122	0.0170141
884.200	0.0170309
884.279	0.0170601
884.357	0.0170595
884.435	0.0170937
884.513	0.0170631
884.591	0.0171617
884.669	0.0169356
884.747	0.0167956
884.825	0.0167581
884.904	0.0167757
884.982	0.0167897
885.060	0.0166657
885.138	0.0167599
885.216	0.0167679
885.294	0.0168137
885.372	0.0167613
885.450	0.0168017
885.529	0.0167699
885.607	0.0166016
885.685	0.0166650
885.763	0.0167406
885.841	0.0167863
885.919	0.0169113
885.997	0.0169120
886.075	0.0169648
886.154	0.0169821
886.232	0.0169884
886.310	0.0170261
886.388	0.0171773
886.466	0.0171970
886.544	0.0172745
886.622	0.0173562
886.700	0.0172507
886.779	0.0172772
886.857	0.0172999
886.935	0.0172959
887.013	0.0172932
887.091	0.0172480
887.169	0.0172110
887.247	0.0172256
887.325	0.0172813
887.404	0.0171797
887.482	0.0170886
887.560	0.0171052
887.638	0.0171101
887.716	0.0171845
887.794	0.0170358
887.872	0.0170264
887.950	0.0170261
888.029	0.0169383
888.107	0.0170705
888.185	0.0169579
888.263	0.0170122
888.341	0.0170573
888.419	0.0169975
888.497	0.0168526
888.575	0.0168460
888.654	0.0169342
888.732	0.0169472
888.810	0.0169713
888.888	0.0169588
888.966	0.0169033
889.044	0.0169515
889.122	0.0169332
889.200	0.0169167
889.279	0.0169167
889.357	0.0169372
889.435	0.0169478
889.513	0.0170274
889.591	0.0169547
889.669	0.0171116
889.747	0.0171560
889.825	0.0172606
889.904	0.0171223
889.982	0.0173394
890.060	0.0172541
890.138	0.0173067
890.216	0.0174202
890.294	0.0173032
890.372	0.0173347
890.450	0.0173327
890.529	0.0172704
890.607	0.0172298
890.685	0.0171062
890.763	0.0172433
890.841	0.0170841
890.919	0.0171030
890.997	0.0169397
891.075	0.0170641
891.154	0.0169039
891.232	0.0169520
891.310	0.0168819
891.388	0.0168333
891.466	0.0166980
891.544	0.0168533
891.622	0.0170389
891.700	0.0168849
891.779	0.0168829
891.857	0.0168964
891.935	0.0168494
892.013	0.0167834
892.091	0.0169352
892.169	0.0168556
892.247	0.0169814
892.325	0.0169698
892.404	0.0170108
892.482	0.0169782
892.560	0.0170096
892.638	0.0170190
892.716	0.0170105
892.794	0.0172291
892.872	0.0171931
892.950	0.0172292
893.029	0.0172300
893.107	0.0172981
893.185	0.0171810
893.263	0.0173586
893.341	0.0173610
893.419	0.0173096
893.497	0.0172798
893.575	0.0173141
893.654	0.0174079
893.732	0.0171247
893.810	0.0172618
893.888	0.0172494
893.966	0.0172928
894.044	0.0170992
894.122	0.0170278
894.200	0.0170269
894.279	0.0170985
894.357	0.0170341
894.435	0.0170850
894.513	0.0171130
894.591	0.0169699
894.669	0.0168349
894.747	0.0170340
894.825	0.0169775
894.904	0.0168632
894.982	0.0170017
895.060	0.0169000
895.138	0.0169550
895.216	0.0168551
895.294	0.0166418
895.372	0.0168954
895.450	0.0168655
895.529	0.0168871
895.607	0.0167685
895.685	0.0167175
895.763	0.0169560
895.841	0.0168108
895.919	0.0169246
895.997	0.0172094
896.075	0.0172297
896.154	0.0171907
896.232	0.0172646
896.310	0.0172202
896.388	0.0173563
896.466	0.0172633
896.544	0.0173503
896.622	0.0174491
896.700	0.0175695
896.779	0.0174480
896.857	0.0173227
896.935	0.0175171
897.013	0.0175246
897.091	0.0174234
897.169	0.0173711
897.247	0.0173300
897.325	0.0172016
897.404	0.0171329
897.482	0.0170513
897.560	0.0171072
897.638	0.0169812
897.716	0.0169579
897.794	0.0169348
897.872	0.0168247
897.950	0.0168104
898.029	0.0168417
898.107	0.0168805
898.185	0.0168731
898.263	0.0169199
898.341	0.0169447
898.419	0.0168329
898.497	0.0168389
898.575	0.0167861
898.654	0.0168156
898.732	0.0168848
898.810	0.0167749
898.888	0.0168030
898.966	0.0166750
899.044	0.0167358
899.122	0.0168814
899.200	0.0166019
899.279	0.0167410
899.357	0.0168429
899.435	0.0167885
899.513	0.0167300
899.591	0.0168967
899.669	0.0168942
899.747	0.0168182
899.825	0.0171885
899.904	0.0171177
899.982	0.0170911
900.060	0.0172057
900.138	0.0171757
900.216	0.0171803
900.294	0.0174406
900.372	0.0173464
900.450	0.0172662
900.529	0.0171982
900.607	0.0172695
900.685	0.0172276
900.763	0.0172559
900.841	0.0173446
900.919	0.0171165
900.997	0.0172171
901.075	0.0170710
901.154	0.0170502
901.232	0.0170368
901.310	0.0169634
901.388	0.0168361
901.466	0.0169724
901.544	0.0168421
901.622	0.0168706
901.700	0.0169197
901.779	0.0169091
901.857	0.0167892
901.935	0.0168011
902.013	0.0168510
902.091	0.0168898
902.169	0.0168185
902.247	0.0167794
902.325	0.0167968
902.404	0.0168979
902.482	0.0169960
902.560	0.0169277
902.638	0.0168542
902.716	0.0168726
902.794	0.0168617
902.872	0.0169633
902.950	0.0171021
903.029	0.0169419
903.107	0.0170142
903.185	0.0170942
903.263	0.0170410
903.341	0.0172263
903.419	0.0171297
903.497	0.0172277
903.575	0.0171236
903.654	0.0173144
903.732	0.0172936
903.810	0.0173450
903.888	0.0171535
903.966	0.0172319
904.044	0.0172378
904.122	0.0170773
904.200	0.0172168
904.279	0.0171659
904.357	0.0170897
904.435	0.0170368
904.513	0.0170879
904.591	0.0171262
904.669	0.0169343
904.747	0.0168432
904.825	0.0170303
904.904	0.0169700
904.982	0.0167954
905.060	0.0168314
905.138	0.0167809
905.216	0.0167182
905.294	0.0167776
905.372	0.0166008
905.450	0.0166687
905.529	0.0166863
905.607	0.0166129
905.685	0.0167487
905.763	0.0166986
905.841	0.0166477
905.919	0.0166659
905.997	0.0166549
906.075	0.0167432
906.154	0.0168472
906.232	0.0168435
906.310	0.0168752
906.388	0.0169228
906.466	0.0168338
906.544	0.0169481
906.622	0.0168410
906.700	0.0169555
906.779	0.0172346
906.857	0.0170805
906.935	0.0169347
907.013	0.0171218
907.091	0.0170911
907.169	0.0171728
907.247	0.0171894
907.325	0.0171586
907.404	0.0170830
907.482	0.0170958
907.560	0.0171154
907.638	0.0171705
907.716	0.0170436
907.794	0.0171890
907.872	0.0171108
907.950	0.0171581
908.029	0.0172446
908.107	0.0170901
908.185	0.0170656
908.263	0.0171790
908.341	0.0171397
908.419	0.0171559
908.497	0.0172321
908.575	0.0171430
908.654	0.0171070
908.732	0.0172037
908.810	0.0168848
908.888	0.0170837
908.966	0.0171613
909.044	0.0171092
909.122	0.0170913
909.200	0.0170859
909.279	0.0170525
909.357	0.0170990
909.435	0.0170949
909.513	0.0170894
909.591	0.0170076
909.669	0.0170924
909.747	0.0171458
909.825	0.0170839
909.904	0.0171230
909.982	0.0169640
910.060	0.0169366
910.138	0.0170684
910.216	0.0169766
910.294	0.0170042
910.372	0.0169879
910.450	0.0168430
910.529	0.0169467
910.607	0.0170750
910.685	0.0169228
910.763	0.0168285
910.841	0.0169480
910.919	0.0169505
910.997	0.0168518
911.075	0.0168005
911.154	0.0168827
911.232	0.0169775
911.310	0.0168721
911.388	0.0169231
911.466	0.0169211
911.544	0.0168803
911.622	0.0169698
911.700	0.0169873
911.779	0.0168832
911.857	0.0171401
911.935	0.0171275
912.013	0.0171042
912.091	0.0171650
912.169	0.0171643
912.247	0.0172475
912.325	0.0171232
912.404	0.0173347
912.482	0.0172348
912.560	0.0171348
912.638	0.0171516
912.716	0.0172405
912.794	0.0172659
912.872	0.0171887
912.950	0.0170579
913.029	0.0171189
913.107	0.0170963
913.185	0.0170036
913.263	0.0169651
913.341	0.0170027
913.419	0.0170189
913.497	0.0169793
913.575	0.0171799
913.654	0.0170723
913.732	0.0171388
913.810	0.0170757
913.888	0.0171803
913.966	0.0171449
914.044	0.0170441
914.122	0.0171958
914.200	0.0170903
914.279	0.0170934
914.357	0.0170128
914.435	0.0168875
914.513	0.0170142
914.591	0.0169063
914.669	0.0167931
914.747	0.0167957
914.825	0.0168075
914.904	0.0167642
914.982	0.0167055
915.060	0.0167931
915.138	0.0168268
915.216	0.0168942
915.294	0.0167823
915.372	0.0169710
915.450	0.0168656
915.529	0.0168598
915.607	0.0169589
915.685	0.0169775
915.763	0.0170780
915.841	0.0172459
915.919	0.0171769
915.997	0.0170998
916.075	0.0171609
916.154	0.0171661
916.232	0.0172124
916.310	0.0173206
916.388	0.0173837
916.466	0.0172625
916.544	0.0172219
916.622	0.0173403
916.700	0.0172903
916.779	0.0172038
916.857	0.0171446
916.935	0.0170957
917.013	0.0170655
917.091	0.0171207
917.169	0.0169392
917.247	0.0171117
917.325	0.0172647
917.404	0.0171230
917.482	0.0171605
917.560	0.0171118
917.638	0.0170777
917.716	0.0172107
917.794	0.0172468
917.872	0.0171328
917.950	0.0171551
918.029	0.0172381
918.107	0.0172642
918.185	0.0171843
918.263	0.0171644
918.341	0.0171796
918.419	0.0171845
918.497	0.0172882
918.575	0.0171484
918.654	0.0172237
918.732	0.0172424
918.810	0.0172199
918.888	0.0171210
918.966	0.0169725
919.044	0.0171181
919.122	0.0171111
919.200	0.0170330
919.279	0.0170244
919.357	0.0171124
919.435	0.0168722
919.513	0.0168372
919.591	0.0167828
919.669	0.0167274
919.747	0.0167795
919.825	0.0168497
919.904	0.0167448
