06/03/2022	14:13:15	Ver.	4.1	UNKNOWN
Optical Delay	599.981738	Delta X		0.078125	Sweeps	1	Scan Rate	0/0
Coordinates	Axis 1	NaN	Axis 2	NaN	Axis 3	NaN	Axis 4	NaN	Axis 5	NaN	Axis 6	0.000000
TX Power	0.000000	RX Power	0.000000

599.982	0.0164805
600.060	0.0165497
600.138	0.0164687
600.216	0.0166103
600.294	0.0167593
600.372	0.0164414
600.450	0.0165204
600.529	0.0166218
600.607	0.0164605
600.685	0.0164585
600.763	0.0164975
600.841	0.0165823
600.919	0.0166447
600.997	0.0165259
601.075	0.0165119
601.154	0.0165543
601.232	0.0165742
601.310	0.0164719
601.388	0.0164970
601.466	0.0165060
601.544	0.0165440
601.622	0.0165363
601.700	0.0165325
601.779	0.0165263
601.857	0.0164639
601.935	0.0164026
602.013	0.0165865
602.091	0.0165476
602.169	0.0165530
602.247	0.0164662
602.325	0.0165022
602.404	0.0165489
602.482	0.0165144
602.560	0.0166851
602.638	0.0165160
602.716	0.0165369
602.794	0.0165205
602.872	0.0164581
602.950	0.0163850
603.029	0.0164935
603.107	0.0165755
603.185	0.0166251
603.263	0.0164188
603.341	0.0165270
603.419	0.0166222
603.497	0.0165575
603.575	0.0164716
603.654	0.0164732
603.732	0.0164980
603.810	0.0164939
603.888	0.0164647
603.966	0.0165390
604.044	0.0164819
604.122	0.0163568
604.200	0.0165463
604.279	0.0163849
604.357	0.0165302
604.435	0.0165707
604.513	0.0164809
604.591	0.0163589
604.669	0.0165248
604.747	0.0167133
604.825	0.0165115
604.904	0.0165124
604.982	0.0166829
605.060	0.0164922
605.138	0.0164120
605.216	0.0165408
605.294	0.0166236
605.372	0.0165388
605.450	0.0165583
605.529	0.0166209
605.607	0.0165549
605.685	0.0164143
605.763	0.0165026
605.841	0.0166090
605.919	0.0166116
605.997	0.0166563
606.075	0.0165427
606.154	0.0165746
606.232	0.0164866
606.310	0.0165900
606.388	0.0166106
606.466	0.0166601
606.544	0.0165625
606.622	0.0164694
606.700	0.0165394
606.779	0.0165346
606.857	0.0166937
606.935	0.0166646
607.013	0.0165965
607.091	0.0165125
607.169	0.0166569
607.247	0.0165627
607.325	0.0164977
607.404	0.0165312
607.482	0.0167381
607.560	0.0166523
607.638	0.0166143
607.716	0.0166077
607.794	0.0165980
607.872	0.0166721
607.950	0.0165573
608.029	0.0165977
608.107	0.0166536
608.185	0.0165455
608.263	0.0165261
608.341	0.0165065
608.419	0.0165313
608.497	0.0165182
608.575	0.0164224
608.654	0.0166474
608.732	0.0165066
608.810	0.0165872
608.888	0.0165040
608.966	0.0165570
609.044	0.0165010
609.122	0.0165467
609.200	0.0165144
609.279	0.0165427
609.357	0.0164767
609.435	0.0165581
609.513	0.0164925
609.591	0.0166129
609.669	0.0164295
609.747	0.0164685
609.825	0.0165351
609.904	0.0166974
609.982	0.0164194
610.060	0.0165012
610.138	0.0166126
610.216	0.0164870
610.294	0.0165416
610.372	0.0166397
610.450	0.0164780
610.529	0.0164658
610.607	0.0166316
610.685	0.0166510
610.763	0.0165009
610.841	0.0166335
610.919	0.0165659
610.997	0.0164884
611.075	0.0164375
611.154	0.0164449
611.232	0.0166514
611.310	0.0164865
611.388	0.0166769
611.466	0.0165126
611.544	0.0165598
611.622	0.0167706
611.700	0.0165524
611.779	0.0166666
611.857	0.0165961
611.935	0.0165732
612.013	0.0164790
612.091	0.0164291
612.169	0.0165004
612.247	0.0167114
612.325	0.0165457
612.404	0.0164951
612.482	0.0165771
612.560	0.0165044
612.638	0.0164923
612.716	0.0164824
612.794	0.0165709
612.872	0.0166029
612.950	0.0165375
613.029	0.0165074
613.107	0.0165937
613.185	0.0163790
613.263	0.0165918
613.341	0.0165485
613.419	0.0164917
613.497	0.0163853
613.575	0.0165112
613.654	0.0164117
613.732	0.0164735
613.810	0.0164484
613.888	0.0164830
613.966	0.0164226
614.044	0.0163627
614.122	0.0163306
614.200	0.0165519
614.279	0.0165923
614.357	0.0165337
614.435	0.0165367
614.513	0.0165690
614.591	0.0163902
614.669	0.0164913
614.747	0.0165201
614.825	0.0164341
614.904	0.0164700
614.982	0.0164407
615.060	0.0164592
615.138	0.0164584
615.216	0.0163842
615.294	0.0164565
615.372	0.0165284
615.450	0.0165367
615.529	0.0164159
615.607	0.0164394
615.685	0.0165866
615.763	0.0165193
615.841	0.0163960
615.919	0.0164081
615.997	0.0164890
616.075	0.0164347
616.154	0.0164464
616.232	0.0163622
616.310	0.0165558
616.388	0.0164341
616.466	0.0162891
616.544	0.0163515
616.622	0.0163539
616.700	0.0164472
616.779	0.0164698
616.857	0.0165134
616.935	0.0164533
617.013	0.0164630
617.091	0.0162632
617.169	0.0163849
617.247	0.0165087
617.325	0.0164519
617.404	0.0164717
617.482	0.0164674
617.560	0.0164883
617.638	0.0164616
617.716	0.0165701
617.794	0.0165350
617.872	0.0164404
617.950	0.0164345
618.029	0.0165038
618.107	0.0165453
618.185	0.0164645
618.263	0.0163326
618.341	0.0164016
618.419	0.0165074
618.497	0.0164926
618.575	0.0165335
618.654	0.0166325
618.732	0.0163791
618.810	0.0163885
618.888	0.0164241
618.966	0.0165060
619.044	0.0166036
619.122	0.0163788
619.200	0.0163734
619.279	0.0163989
619.357	0.0165237
619.435	0.0164639
619.513	0.0164550
619.591	0.0164304
619.669	0.0165492
619.747	0.0163288
619.825	0.0163426
619.904	0.0165371
619.982	0.0165898
620.060	0.0165358
620.138	0.0165654
620.216	0.0163815
620.294	0.0165179
620.372	0.0164536
620.450	0.0165657
620.529	0.0166139
620.607	0.0165831
620.685	0.0163858
620.763	0.0166109
620.841	0.0165717
620.919	0.0164932
620.997	0.0165065
621.075	0.0164852
621.154	0.0165453
621.232	0.0165656
621.310	0.0165145
621.388	0.0164938
621.466	0.0165690
621.544	0.0165338
621.622	0.0164901
621.700	0.0166686
621.779	0.0165974
621.857	0.0163549
621.935	0.0165081
622.013	0.0165903
622.091	0.0165800
622.169	0.0165636
622.247	0.0165155
622.325	0.0165215
622.404	0.0164967
622.482	0.0164383
622.560	0.0165977
622.638	0.0166078
622.716	0.0165086
622.794	0.0165733
622.872	0.0163032
622.950	0.0165091
623.029	0.0165316
623.107	0.0165150
623.185	0.0164027
623.263	0.0163596
623.341	0.0164987
623.419	0.0165511
623.497	0.0163812
623.575	0.0164971
623.654	0.0164963
623.732	0.0165742
623.810	0.0166141
623.888	0.0165601
623.966	0.0163991
624.044	0.0164557
624.122	0.0165019
624.200	0.0164638
624.279	0.0165299
624.357	0.0164795
624.435	0.0164482
624.513	0.0164516
624.591	0.0165701
624.669	0.0165828
624.747	0.0164436
624.825	0.0164180
624.904	0.0165891
624.982	0.0164585
625.060	0.0166353
625.138	0.0166086
625.216	0.0166598
625.294	0.0166361
625.372	0.0166204
625.450	0.0164325
625.529	0.0164153
625.607	0.0165796
625.685	0.0164723
625.763	0.0166308
625.841	0.0166800
625.919	0.0166100
625.997	0.0165308
626.075	0.0164880
626.154	0.0167108
626.232	0.0165131
626.310	0.0164716
626.388	0.0164845
626.466	0.0165686
626.544	0.0165880
626.622	0.0164816
626.700	0.0165120
626.779	0.0166042
626.857	0.0164375
626.935	0.0165499
627.013	0.0165206
627.091	0.0164329
627.169	0.0166114
627.247	0.0163999
627.325	0.0163560
627.404	0.0165527
627.482	0.0165378
627.560	0.0165343
627.638	0.0165752
627.716	0.0165893
627.794	0.0165530
627.872	0.0165157
627.950	0.0167004
628.029	0.0165703
628.107	0.0165166
628.185	0.0165102
628.263	0.0164895
628.341	0.0165842
628.419	0.0166057
628.497	0.0165015
628.575	0.0165724
628.654	0.0166937
628.732	0.0165490
628.810	0.0165137
628.888	0.0166451
628.966	0.0165040
629.044	0.0164470
629.122	0.0165744
629.200	0.0166619
629.279	0.0165249
629.357	0.0165035
629.435	0.0165358
629.513	0.0165131
629.591	0.0164979
629.669	0.0165532
629.747	0.0165134
629.825	0.0165079
629.904	0.0164836
629.982	0.0165548
630.060	0.0164777
630.138	0.0164007
630.216	0.0164774
630.294	0.0165979
630.372	0.0165857
630.450	0.0165505
630.529	0.0166409
630.607	0.0164917
630.685	0.0165462
630.763	0.0166271
630.841	0.0167053
630.919	0.0165897
630.997	0.0166504
631.075	0.0167005
631.154	0.0165475
631.232	0.0166045
631.310	0.0166393
631.388	0.0164452
631.466	0.0165947
631.544	0.0164471
631.622	0.0163974
631.700	0.0163145
631.779	0.0162298
631.857	0.0161520
631.935	0.0161031
632.013	0.0164471
632.091	0.0162828
632.169	0.0163345
632.247	0.0165405
632.325	0.0167901
632.404	0.0169798
632.482	0.0170760
632.560	0.0168494
632.638	0.0171307
632.716	0.0169597
632.794	0.0169336
632.872	0.0167513
632.950	0.0165385
633.029	0.0162539
633.107	0.0162107
633.185	0.0159552
633.263	0.0158154
633.341	0.0158570
633.419	0.0159557
633.497	0.0158034
633.575	0.0159988
633.654	0.0162149
633.732	0.0165442
633.810	0.0169428
633.888	0.0169888
633.966	0.0171527
634.044	0.0174135
634.122	0.0174183
634.200	0.0174581
634.279	0.0171046
634.357	0.0171429
634.435	0.0169830
634.513	0.0166946
634.591	0.0163249
634.669	0.0161969
634.747	0.0159872
634.825	0.0156703
634.904	0.0156613
634.982	0.0156862
635.060	0.0156496
635.138	0.0158730
635.216	0.0161647
635.294	0.0161674
635.372	0.0163792
635.450	0.0165174
635.529	0.0169299
635.607	0.0172333
635.685	0.0172910
635.763	0.0171710
635.841	0.0173138
635.919	0.0172628
635.997	0.0169564
636.075	0.0170345
636.154	0.0166885
636.232	0.0163978
636.310	0.0161804
636.388	0.0159507
636.466	0.0158492
636.544	0.0159097
636.622	0.0158427
636.700	0.0159683
636.779	0.0162736
636.857	0.0164184
636.935	0.0165780
637.013	0.0167588
637.091	0.0167947
637.169	0.0168345
637.247	0.0168449
637.325	0.0167474
637.404	0.0167789
637.482	0.0167094
637.560	0.0165453
637.638	0.0165451
637.716	0.0165352
637.794	0.0164912
637.872	0.0165596
637.950	0.0164897
638.029	0.0167055
638.107	0.0168359
638.185	0.0167891
638.263	0.0167389
638.341	0.0168326
638.419	0.0167923
638.497	0.0168852
638.575	0.0167616
638.654	0.0164658
638.732	0.0162608
638.810	0.0163873
638.888	0.0161079
638.966	0.0160938
639.044	0.0159019
639.122	0.0160474
639.200	0.0160867
639.279	0.0160866
639.357	0.0161259
639.435	0.0163100
639.513	0.0165659
639.591	0.0168593
639.669	0.0168576
639.747	0.0170129
639.825	0.0168545
639.904	0.0170836
639.982	0.0169991
640.060	0.0168634
640.138	0.0167755
640.216	0.0167344
640.294	0.0166763
640.372	0.0165451
640.450	0.0164206
640.529	0.0162942
640.607	0.0163158
640.685	0.0161215
640.763	0.0161842
640.841	0.0162490
640.919	0.0161937
640.997	0.0162585
641.075	0.0161973
641.154	0.0163758
641.232	0.0164726
641.310	0.0164781
641.388	0.0166337
641.466	0.0167150
641.544	0.0168113
641.622	0.0167424
641.700	0.0166669
641.779	0.0169802
641.857	0.0169533
641.935	0.0169659
642.013	0.0168931
642.091	0.0167042
642.169	0.0166827
642.247	0.0165481
642.325	0.0164754
642.404	0.0164353
642.482	0.0162761
642.560	0.0163256
642.638	0.0162721
642.716	0.0163147
642.794	0.0161575
642.872	0.0163264
642.950	0.0163300
643.029	0.0165840
643.107	0.0167239
643.185	0.0167880
643.263	0.0168986
643.341	0.0167709
643.419	0.0168508
643.497	0.0166702
643.575	0.0165379
643.654	0.0166109
643.732	0.0164676
643.810	0.0164996
643.888	0.0164882
643.966	0.0166190
644.044	0.0164481
644.122	0.0166151
644.200	0.0167116
644.279	0.0167657
644.357	0.0168136
644.435	0.0169408
644.513	0.0169975
644.591	0.0167886
644.669	0.0167072
644.747	0.0166286
644.825	0.0166024
644.904	0.0164452
644.982	0.0161126
645.060	0.0161136
645.138	0.0160857
645.216	0.0159627
645.294	0.0160316
645.372	0.0161377
645.450	0.0162221
645.529	0.0164397
645.607	0.0165866
645.685	0.0167503
645.763	0.0167460
645.841	0.0169598
645.919	0.0170196
645.997	0.0170836
646.075	0.0171577
646.154	0.0171553
646.232	0.0169483
646.310	0.0168964
646.388	0.0167882
646.466	0.0166606
646.544	0.0166422
646.622	0.0164180
646.700	0.0162856
646.779	0.0161335
646.857	0.0160280
646.935	0.0159978
647.013	0.0161167
647.091	0.0160744
647.169	0.0161813
647.247	0.0163318
647.325	0.0163867
647.404	0.0167004
647.482	0.0169485
647.560	0.0170821
647.638	0.0171870
647.716	0.0171735
647.794	0.0170947
647.872	0.0170984
647.950	0.0170650
648.029	0.0168649
648.107	0.0168158
648.185	0.0166574
648.263	0.0164397
648.341	0.0162832
648.419	0.0162431
648.497	0.0162440
648.575	0.0161727
648.654	0.0161891
648.732	0.0162784
648.810	0.0162675
648.888	0.0163297
648.966	0.0163100
649.044	0.0164631
649.122	0.0164182
649.200	0.0165286
649.279	0.0166377
649.357	0.0164747
649.435	0.0167027
649.513	0.0167087
649.591	0.0167041
649.669	0.0168014
649.747	0.0166441
649.825	0.0167467
649.904	0.0167446
649.982	0.0168070
650.060	0.0167033
650.138	0.0165863
650.216	0.0166498
650.294	0.0166797
650.372	0.0166248
650.450	0.0163703
650.529	0.0164045
650.607	0.0162821
650.685	0.0162910
650.763	0.0162842
650.841	0.0161211
650.919	0.0163342
650.997	0.0164592
651.075	0.0162738
651.154	0.0164298
651.232	0.0165685
651.310	0.0166378
651.388	0.0167415
651.466	0.0167527
651.544	0.0168147
651.622	0.0168333
651.700	0.0168903
651.779	0.0167895
651.857	0.0168007
651.935	0.0166293
652.013	0.0165128
652.091	0.0162992
652.169	0.0164688
652.247	0.0164187
652.325	0.0164119
652.404	0.0164306
652.482	0.0163407
652.560	0.0163958
652.638	0.0163869
652.716	0.0165184
652.794	0.0166689
652.872	0.0165200
652.950	0.0165186
653.029	0.0165537
653.107	0.0164336
653.185	0.0165125
653.263	0.0162563
653.341	0.0163011
653.419	0.0164085
653.497	0.0163854
653.575	0.0163073
653.654	0.0163518
653.732	0.0164581
653.810	0.0166302
653.888	0.0165330
653.966	0.0164968
654.044	0.0165995
654.122	0.0164659
654.200	0.0166209
654.279	0.0165402
654.357	0.0164735
654.435	0.0165514
654.513	0.0166343
654.591	0.0167442
654.669	0.0168208
654.747	0.0167200
654.825	0.0168399
654.904	0.0170009
654.982	0.0169058
655.060	0.0168851
655.138	0.0167023
655.216	0.0166280
655.294	0.0167633
655.372	0.0164868
655.450	0.0165204
655.529	0.0165612
655.607	0.0164535
655.685	0.0162791
655.763	0.0163414
655.841	0.0161594
655.919	0.0161909
655.997	0.0163405
656.075	0.0162778
656.154	0.0162323
656.232	0.0162997
656.310	0.0162403
656.388	0.0163915
656.466	0.0163890
656.544	0.0164001
656.622	0.0163783
656.700	0.0163792
656.779	0.0163512
656.857	0.0162741
656.935	0.0161544
657.013	0.0161415
657.091	0.0162067
657.169	0.0161361
657.247	0.0162917
657.325	0.0162440
657.404	0.0163309
657.482	0.0165746
657.560	0.0167873
657.638	0.0167981
657.716	0.0170377
657.794	0.0171854
657.872	0.0173716
657.950	0.0173373
658.029	0.0174918
658.107	0.0175827
658.185	0.0172857
658.263	0.0172412
658.341	0.0171938
658.419	0.0170488
658.497	0.0168286
658.575	0.0166867
658.654	0.0163912
658.732	0.0162292
658.810	0.0161115
658.888	0.0159794
658.966	0.0160110
659.044	0.0161951
659.122	0.0160373
659.200	0.0159112
659.279	0.0161061
659.357	0.0161913
659.435	0.0162977
659.513	0.0164902
659.591	0.0165112
659.669	0.0165202
659.747	0.0165475
659.825	0.0167047
659.904	0.0167248
659.982	0.0167348
660.060	0.0166340
660.138	0.0165585
660.216	0.0166139
660.294	0.0166674
660.372	0.0165958
660.450	0.0164546
660.529	0.0165130
660.607	0.0162836
660.685	0.0163619
660.763	0.0163077
660.841	0.0162687
660.919	0.0161200
660.997	0.0161104
661.075	0.0161728
661.154	0.0159711
661.232	0.0160291
661.310	0.0160970
661.388	0.0161903
661.466	0.0160813
661.544	0.0162382
661.622	0.0162212
661.700	0.0162920
661.779	0.0165827
661.857	0.0164699
661.935	0.0166142
662.013	0.0167477
662.091	0.0168365
662.169	0.0168161
662.247	0.0168917
662.325	0.0170727
662.404	0.0170496
662.482	0.0170975
662.560	0.0171551
662.638	0.0172603
662.716	0.0173479
662.794	0.0171938
662.872	0.0171458
662.950	0.0170852
663.029	0.0170151
663.107	0.0168579
663.185	0.0168599
663.263	0.0167175
663.341	0.0167286
663.419	0.0166249
663.497	0.0166581
663.575	0.0166312
663.654	0.0164989
663.732	0.0163521
663.810	0.0164275
663.888	0.0164909
663.966	0.0163477
664.044	0.0165329
664.122	0.0164998
664.200	0.0165042
664.279	0.0164085
664.357	0.0162787
664.435	0.0162215
664.513	0.0161320
664.591	0.0161439
664.669	0.0160690
664.747	0.0159908
664.825	0.0158468
664.904	0.0158472
664.982	0.0159767
665.060	0.0159011
665.138	0.0158087
665.216	0.0160129
665.294	0.0159579
665.372	0.0160027
665.450	0.0162351
665.529	0.0161565
665.607	0.0161588
665.685	0.0162346
665.763	0.0163319
665.841	0.0164421
665.919	0.0164573
665.997	0.0165498
666.075	0.0167104
666.154	0.0167588
666.232	0.0168066
666.310	0.0169769
666.388	0.0171816
666.466	0.0171828
666.544	0.0173201
666.622	0.0173997
666.700	0.0174480
666.779	0.0173529
666.857	0.0175446
666.935	0.0172707
667.013	0.0171989
667.091	0.0170896
667.169	0.0168870
667.247	0.0168200
667.325	0.0167240
667.404	0.0164906
667.482	0.0163391
667.560	0.0162900
667.638	0.0162251
667.716	0.0161166
667.794	0.0162061
667.872	0.0160094
667.950	0.0160512
668.029	0.0160128
668.107	0.0161614
668.185	0.0161270
668.263	0.0162200
668.341	0.0162875
668.419	0.0162994
668.497	0.0163913
668.575	0.0163180
668.654	0.0163894
668.732	0.0165280
668.810	0.0164977
668.888	0.0165299
668.966	0.0165088
669.044	0.0165719
669.122	0.0164548
669.200	0.0165863
669.279	0.0166066
669.357	0.0166118
669.435	0.0168272
669.513	0.0168156
669.591	0.0168117
669.669	0.0167214
669.747	0.0168882
669.825	0.0170127
669.904	0.0168430
669.982	0.0166646
670.060	0.0168150
670.138	0.0167591
670.216	0.0164742
670.294	0.0165332
670.372	0.0164729
670.450	0.0162815
670.529	0.0164458
670.607	0.0162367
670.685	0.0161463
670.763	0.0160502
670.841	0.0160390
670.919	0.0160822
670.997	0.0159676
671.075	0.0158167
671.154	0.0157583
671.232	0.0158384
671.310	0.0159216
671.388	0.0158024
671.466	0.0157539
671.544	0.0158476
671.622	0.0159013
671.700	0.0159021
671.779	0.0159797
671.857	0.0162119
671.935	0.0162643
672.013	0.0164942
672.091	0.0167698
672.169	0.0169792
672.247	0.0171407
672.325	0.0172670
672.404	0.0175066
672.482	0.0176756
672.560	0.0177686
672.638	0.0175690
672.716	0.0175935
672.794	0.0174516
672.872	0.0173156
672.950	0.0172852
673.029	0.0169942
673.107	0.0167735
673.185	0.0166776
673.263	0.0164238
673.341	0.0164050
673.419	0.0161430
673.497	0.0162766
673.575	0.0160503
673.654	0.0160561
673.732	0.0160897
673.810	0.0159010
673.888	0.0160269
673.966	0.0161624
674.044	0.0160522
674.122	0.0162811
674.200	0.0163068
674.279	0.0164085
674.357	0.0165959
674.435	0.0165838
674.513	0.0167782
674.591	0.0166740
674.669	0.0168706
674.747	0.0168589
674.825	0.0168581
674.904	0.0167927
674.982	0.0167325
675.060	0.0164645
675.138	0.0162787
675.216	0.0162301
675.294	0.0161750
675.372	0.0159623
675.450	0.0156503
675.529	0.0155620
675.607	0.0155396
675.685	0.0156142
675.763	0.0156913
675.841	0.0160455
675.919	0.0160260
675.997	0.0162659
676.075	0.0166271
676.154	0.0170119
676.232	0.0173003
676.310	0.0174847
676.388	0.0177471
676.466	0.0179150
676.544	0.0179137
676.622	0.0179970
676.700	0.0179424
676.779	0.0178337
676.857	0.0176594
676.935	0.0175997
677.013	0.0172167
677.091	0.0168363
677.169	0.0167434
677.247	0.0165530
677.325	0.0163346
677.404	0.0160655
677.482	0.0160944
677.560	0.0158045
677.638	0.0158076
677.716	0.0158698
677.794	0.0159145
677.872	0.0159364
677.950	0.0158443
678.029	0.0157339
678.107	0.0158154
678.185	0.0157272
678.263	0.0156818
678.341	0.0154870
678.419	0.0155775
678.497	0.0156132
678.575	0.0157629
678.654	0.0156534
678.732	0.0157916
678.810	0.0159254
678.888	0.0159110
678.966	0.0159410
679.044	0.0160622
679.122	0.0160934
679.200	0.0161693
679.279	0.0163205
679.357	0.0163905
679.435	0.0165162
679.513	0.0166885
679.591	0.0171249
679.669	0.0171323
679.747	0.0174184
679.825	0.0178464
679.904	0.0179903
679.982	0.0180853
680.060	0.0180436
680.138	0.0181676
680.216	0.0177721
680.294	0.0177682
680.372	0.0174640
680.450	0.0171645
680.529	0.0169742
680.607	0.0166470
680.685	0.0163104
680.763	0.0161300
680.841	0.0159119
680.919	0.0159776
680.997	0.0156320
681.075	0.0155974
681.154	0.0157904
681.232	0.0158762
681.310	0.0159954
681.388	0.0162843
681.466	0.0164651
681.544	0.0168249
681.622	0.0170395
681.700	0.0172384
681.779	0.0175163
681.857	0.0173489
681.935	0.0173563
682.013	0.0172442
682.091	0.0170715
682.169	0.0169820
682.247	0.0165265
682.325	0.0163519
682.404	0.0158296
682.482	0.0156757
682.560	0.0154182
682.638	0.0151659
682.716	0.0151512
682.794	0.0151180
682.872	0.0151881
682.950	0.0153140
683.029	0.0156310
683.107	0.0158875
683.185	0.0161217
683.263	0.0165182
683.341	0.0167313
683.419	0.0170564
683.497	0.0174258
683.575	0.0176839
683.654	0.0178236
683.732	0.0180237
683.810	0.0179442
683.888	0.0178677
683.966	0.0179591
684.044	0.0179095
684.122	0.0178066
684.200	0.0175610
684.279	0.0174268
684.357	0.0172637
684.435	0.0169375
684.513	0.0166493
684.591	0.0165740
684.669	0.0162590
684.747	0.0161094
684.825	0.0157420
684.904	0.0155698
684.982	0.0153798
685.060	0.0152915
685.138	0.0151675
685.216	0.0149895
685.294	0.0151159
685.372	0.0150674
685.450	0.0149013
685.529	0.0152461
685.607	0.0149583
685.685	0.0151587
685.763	0.0152858
685.841	0.0152399
685.919	0.0152366
685.997	0.0152824
686.075	0.0155510
686.154	0.0155595
686.232	0.0157601
686.310	0.0159191
686.388	0.0159823
686.466	0.0159981
686.544	0.0163599
686.622	0.0164465
686.700	0.0164899
686.779	0.0167657
686.857	0.0168900
686.935	0.0169493
687.013	0.0171452
687.091	0.0171597
687.169	0.0173735
687.247	0.0177083
687.325	0.0178609
687.404	0.0179723
687.482	0.0180627
687.560	0.0180837
687.638	0.0183308
687.716	0.0182446
687.794	0.0182356
687.872	0.0182529
687.950	0.0181247
688.029	0.0180394
688.107	0.0181613
688.185	0.0181200
688.263	0.0179935
688.341	0.0179758
688.419	0.0180518
688.497	0.0181309
688.575	0.0179743
688.654	0.0178539
688.732	0.0177849
688.810	0.0177351
688.888	0.0175545
688.966	0.0172017
689.044	0.0168539
689.122	0.0166917
689.200	0.0163318
689.279	0.0159513
689.357	0.0154608
689.435	0.0151579
689.513	0.0147830
689.591	0.0144724
689.669	0.0143868
689.747	0.0143313
689.825	0.0142184
689.904	0.0143296
689.982	0.0146105
690.060	0.0147432
690.138	0.0149821
690.216	0.0151627
690.294	0.0155696
690.372	0.0156245
690.450	0.0158240
690.529	0.0161346
690.607	0.0161748
690.685	0.0163088
690.763	0.0163974
690.841	0.0164459
690.919	0.0167368
690.997	0.0170727
691.075	0.0172289
691.154	0.0176048
691.232	0.0180303
691.310	0.0182094
691.388	0.0184137
691.466	0.0184155
691.544	0.0184793
691.622	0.0182780
691.700	0.0179340
691.779	0.0174238
691.857	0.0168739
691.935	0.0166858
692.013	0.0159909
692.091	0.0155408
692.169	0.0149916
692.247	0.0146863
692.325	0.0143708
692.404	0.0140553
692.482	0.0137437
692.560	0.0137106
692.638	0.0136487
692.716	0.0136369
692.794	0.0138409
692.872	0.0139925
692.950	0.0143436
693.029	0.0147162
693.107	0.0150301
693.185	0.0154371
693.263	0.0157784
693.341	0.0161580
693.419	0.0164500
693.497	0.0167871
693.575	0.0169830
693.654	0.0173115
693.732	0.0173335
693.810	0.0174636
693.888	0.0176187
693.966	0.0175257
694.044	0.0178575
694.122	0.0178862
694.200	0.0179679
694.279	0.0181093
694.357	0.0181279
694.435	0.0183028
694.513	0.0184152
694.591	0.0185283
694.669	0.0186071
694.747	0.0187318
694.825	0.0186864
694.904	0.0186712
694.982	0.0186887
695.060	0.0184882
695.138	0.0183977
695.216	0.0183301
695.294	0.0180075
695.372	0.0178899
695.450	0.0175332
695.529	0.0171906
695.607	0.0170335
695.685	0.0167635
695.763	0.0163410
695.841	0.0161572
695.919	0.0158650
695.997	0.0154813
696.075	0.0153839
696.154	0.0153029
696.232	0.0153292
696.310	0.0154200
696.388	0.0154420
696.466	0.0155228
696.544	0.0155242
696.622	0.0157606
696.700	0.0160980
696.779	0.0162031
696.857	0.0164473
696.935	0.0165917
697.013	0.0167207
697.091	0.0170497
697.169	0.0171484
697.247	0.0171141
697.325	0.0169807
697.404	0.0168366
697.482	0.0167529
697.560	0.0165825
697.638	0.0163696
697.716	0.0161211
697.794	0.0159216
697.872	0.0157726
697.950	0.0156236
698.029	0.0156065
698.107	0.0154226
698.185	0.0153235
698.263	0.0152975
698.341	0.0153394
698.419	0.0152036
698.497	0.0151122
698.575	0.0149541
698.654	0.0150480
698.732	0.0148036
698.810	0.0148087
698.888	0.0145052
698.966	0.0142271
699.044	0.0142649
699.122	0.0141052
699.200	0.0139519
699.279	0.0139913
699.357	0.0140850
699.435	0.0140678
699.513	0.0142811
699.591	0.0145309
699.669	0.0146561
699.747	0.0150617
699.825	0.0154646
699.904	0.0157893
699.982	0.0161711
700.060	0.0165178
700.138	0.0168803
700.216	0.0174562
700.294	0.0178003
700.372	0.0181042
700.450	0.0183767
700.529	0.0185743
700.607	0.0189157
700.685	0.0192895
700.763	0.0193780
700.841	0.0195894
700.919	0.0197115
700.997	0.0199858
701.075	0.0202839
701.154	0.0203641
701.232	0.0203977
701.310	0.0206181
701.388	0.0208314
701.466	0.0209361
701.544	0.0208765
701.622	0.0207025
701.700	0.0205805
701.779	0.0203999
701.857	0.0201703
701.935	0.0196336
702.013	0.0193223
702.091	0.0186982
702.169	0.0179214
702.247	0.0172537
702.325	0.0165479
702.404	0.0159631
702.482	0.0152878
702.560	0.0145753
702.638	0.0138425
702.716	0.0132993
702.794	0.0127316
702.872	0.0123383
702.950	0.0118798
703.029	0.0115588
703.107	0.0113434
703.185	0.0113568
703.263	0.0114436
703.341	0.0116605
703.419	0.0119533
703.497	0.0125985
703.575	0.0129325
703.654	0.0136060
703.732	0.0141245
703.810	0.0147971
703.888	0.0154621
703.966	0.0161922
704.044	0.0168726
704.122	0.0174998
704.200	0.0179921
704.279	0.0184125
704.357	0.0188694
704.435	0.0193198
704.513	0.0195052
704.591	0.0198151
704.669	0.0199433
704.747	0.0200714
704.825	0.0200580
704.904	0.0199841
704.982	0.0196816
705.060	0.0196117
705.138	0.0192086
705.216	0.0188567
705.294	0.0183768
705.372	0.0176487
705.450	0.0171410
705.529	0.0165529
705.607	0.0158462
705.685	0.0149834
705.763	0.0144135
705.841	0.0138180
705.919	0.0133134
705.997	0.0128542
706.075	0.0124616
706.154	0.0122238
706.232	0.0118970
706.310	0.0119062
706.388	0.0118073
706.466	0.0118596
706.544	0.0121531
706.622	0.0125216
706.700	0.0128098
706.779	0.0132332
706.857	0.0136224
706.935	0.0142612
707.013	0.0147318
707.091	0.0153023
707.169	0.0158317
707.247	0.0163409
707.325	0.0168382
707.404	0.0174754
707.482	0.0180293
707.560	0.0186161
707.638	0.0190575
707.716	0.0195363
707.794	0.0201529
707.872	0.0205408
707.950	0.0210518
708.029	0.0212229
708.107	0.0216525
708.185	0.0217169
708.263	0.0218851
708.341	0.0218182
708.419	0.0216757
708.497	0.0214660
708.575	0.0211826
708.654	0.0209743
708.732	0.0203365
708.810	0.0197400
708.888	0.0191804
708.966	0.0184480
709.044	0.0178024
709.122	0.0171162
709.200	0.0165406
709.279	0.0157631
709.357	0.0150880
709.435	0.0143214
709.513	0.0136597
709.591	0.0130488
709.669	0.0126867
709.747	0.0121603
709.825	0.0119128
709.904	0.0119656
709.982	0.0118422
710.060	0.0121715
710.138	0.0124746
710.216	0.0130405
710.294	0.0136915
710.372	0.0143835
710.450	0.0150172
710.529	0.0159348
710.607	0.0167758
710.685	0.0174680
710.763	0.0180901
710.841	0.0189722
710.919	0.0194661
710.997	0.0198979
711.075	0.0203236
711.154	0.0206435
711.232	0.0206307
711.310	0.0207114
711.388	0.0205251
711.466	0.0202425
711.544	0.0198400
711.622	0.0193205
711.700	0.0187853
711.779	0.0182632
711.857	0.0173613
711.935	0.0166271
712.013	0.0160466
712.091	0.0152518
712.169	0.0145979
712.247	0.0137192
712.325	0.0133963
712.404	0.0128078
712.482	0.0122883
712.560	0.0119926
712.638	0.0117395
712.716	0.0113053
712.794	0.0111030
712.872	0.0111160
712.950	0.0109488
713.029	0.0109737
713.107	0.0110258
713.185	0.0109849
713.263	0.0111490
713.341	0.0114187
713.419	0.0118021
713.497	0.0120492
713.575	0.0125227
713.654	0.0129893
713.732	0.0136153
713.810	0.0143983
713.888	0.0152340
713.966	0.0159135
714.044	0.0167460
714.122	0.0174866
714.200	0.0182644
714.279	0.0190623
714.357	0.0198898
714.435	0.0205161
714.513	0.0211152
714.591	0.0217286
714.669	0.0222410
714.747	0.0228122
714.825	0.0230756
714.904	0.0231771
714.982	0.0232681
715.060	0.0232069
715.138	0.0230841
715.216	0.0228618
715.294	0.0223783
715.372	0.0218091
715.450	0.0211770
715.529	0.0207056
715.607	0.0200208
715.685	0.0189809
715.763	0.0181527
715.841	0.0175986
715.919	0.0169846
715.997	0.0164200
716.075	0.0158826
716.154	0.0153662
716.232	0.0151231
716.310	0.0149335
716.388	0.0148759
716.466	0.0148707
716.544	0.0148640
716.622	0.0149586
716.700	0.0150222
716.779	0.0151354
716.857	0.0152362
716.935	0.0154732
717.013	0.0157797
717.091	0.0157507
717.169	0.0159298
717.247	0.0161888
717.325	0.0162212
717.404	0.0163485
717.482	0.0164344
717.560	0.0165282
717.638	0.0163875
717.716	0.0163829
717.794	0.0163940
717.872	0.0161316
717.950	0.0159535
718.029	0.0157571
718.107	0.0156171
718.185	0.0152474
718.263	0.0152027
718.341	0.0150496
718.419	0.0147832
718.497	0.0145977
718.575	0.0146973
718.654	0.0146023
718.732	0.0143918
718.810	0.0144369
718.888	0.0144658
718.966	0.0144267
719.044	0.0142923
719.122	0.0141859
719.200	0.0141593
719.279	0.0140015
719.357	0.0138843
719.435	0.0136974
719.513	0.0136172
719.591	0.0136046
719.669	0.0134958
719.747	0.0133459
719.825	0.0132228
719.904	0.0134871
719.982	0.0136133
720.060	0.0138141
720.138	0.0141214
720.216	0.0147050
720.294	0.0149488
720.372	0.0154481
720.450	0.0159393
720.529	0.0164306
720.607	0.0170269
720.685	0.0177487
720.763	0.0182968
720.841	0.0185458
720.919	0.0190993
720.997	0.0194014
721.075	0.0197808
721.154	0.0204543
721.232	0.0204913
721.310	0.0206570
721.388	0.0207701
721.466	0.0208041
721.544	0.0208947
721.622	0.0209715
721.700	0.0207696
721.779	0.0206780
721.857	0.0205374
721.935	0.0202428
722.013	0.0201247
722.091	0.0199921
722.169	0.0196732
722.247	0.0192798
722.325	0.0190100
722.404	0.0187185
722.482	0.0184045
722.560	0.0180746
722.638	0.0178996
722.716	0.0175433
722.794	0.0171930
722.872	0.0171450
722.950	0.0169080
723.029	0.0166030
723.107	0.0164185
723.185	0.0163033
723.263	0.0163097
723.341	0.0161806
723.419	0.0160683
723.497	0.0161289
723.575	0.0160308
723.654	0.0158836
723.732	0.0158424
723.810	0.0155957
723.888	0.0153761
723.966	0.0152805
724.044	0.0149998
724.122	0.0146732
724.200	0.0146161
724.279	0.0142033
724.357	0.0140414
724.435	0.0139261
724.513	0.0138435
724.591	0.0138509
724.669	0.0140733
724.747	0.0141516
724.825	0.0142783
724.904	0.0144185
724.982	0.0146927
725.060	0.0151255
725.138	0.0152528
725.216	0.0154503
725.294	0.0154826
725.372	0.0158857
725.450	0.0159304
725.529	0.0159689
725.607	0.0160500
725.685	0.0158535
725.763	0.0157461
725.841	0.0158393
725.919	0.0156579
725.997	0.0154821
726.075	0.0154121
726.154	0.0155017
726.232	0.0153558
726.310	0.0152598
726.388	0.0151050
726.466	0.0152064
726.544	0.0152531
726.622	0.0153548
726.700	0.0154028
726.779	0.0155569
726.857	0.0157829
726.935	0.0160090
727.013	0.0162959
727.091	0.0163882
727.169	0.0168008
727.247	0.0170486
727.325	0.0172101
727.404	0.0176083
727.482	0.0177560
727.560	0.0179563
727.638	0.0180670
727.716	0.0183221
727.794	0.0186240
727.872	0.0187058
727.950	0.0187371
728.029	0.0188078
728.107	0.0187820
728.185	0.0187677
728.263	0.0186823
728.341	0.0185715
728.419	0.0184705
728.497	0.0183974
728.575	0.0183015
728.654	0.0180721
728.732	0.0178822
728.810	0.0178587
728.888	0.0178152
728.966	0.0177573
729.044	0.0174742
729.122	0.0174997
729.200	0.0174637
729.279	0.0175155
729.357	0.0175085
729.435	0.0173175
729.513	0.0172841
729.591	0.0171593
729.669	0.0170500
729.747	0.0170538
729.825	0.0168879
729.904	0.0165957
729.982	0.0164264
730.060	0.0163136
730.138	0.0161865
730.216	0.0159022
730.294	0.0155899
730.372	0.0155518
730.450	0.0151891
730.529	0.0150121
730.607	0.0149636
730.685	0.0147752
730.763	0.0147135
730.841	0.0149003
730.919	0.0146513
730.997	0.0147726
731.075	0.0148861
731.154	0.0148066
731.232	0.0150340
731.310	0.0152719
731.388	0.0154160
731.466	0.0154818
731.544	0.0155008
731.622	0.0158965
731.700	0.0158832
731.779	0.0161047
731.857	0.0162036
731.935	0.0162994
732.013	0.0165227
732.091	0.0163979
732.169	0.0164195
732.247	0.0165239
732.325	0.0165038
732.404	0.0165792
732.482	0.0166250
732.560	0.0168328
732.638	0.0166961
732.716	0.0166673
732.794	0.0167632
732.872	0.0165624
732.950	0.0166447
733.029	0.0166174
733.107	0.0165108
733.185	0.0163986
733.263	0.0163957
733.341	0.0164227
733.419	0.0163963
733.497	0.0162640
733.575	0.0163441
733.654	0.0165345
733.732	0.0164892
733.810	0.0166789
733.888	0.0167737
733.966	0.0167218
734.044	0.0168017
734.122	0.0167606
734.200	0.0167541
734.279	0.0167316
734.357	0.0169674
734.435	0.0168594
734.513	0.0167539
734.591	0.0166864
734.669	0.0165289
734.747	0.0164987
734.825	0.0164151
734.904	0.0163281
734.982	0.0162634
735.060	0.0162646
735.138	0.0162939
735.216	0.0163371
735.294	0.0164043
735.372	0.0162079
735.450	0.0163107
735.529	0.0165178
735.607	0.0164394
735.685	0.0166853
735.763	0.0168619
735.841	0.0167760
735.919	0.0170874
735.997	0.0170500
736.075	0.0171841
736.154	0.0171307
736.232	0.0172730
736.310	0.0172719
736.388	0.0172241
736.466	0.0170651
736.544	0.0169812
736.622	0.0170850
736.700	0.0168304
736.779	0.0167744
736.857	0.0165649
736.935	0.0163717
737.013	0.0163573
737.091	0.0162650
737.169	0.0160399
737.247	0.0160361
737.325	0.0159375
737.404	0.0157605
737.482	0.0158555
737.560	0.0157836
737.638	0.0157444
737.716	0.0159340
737.794	0.0158743
737.872	0.0159795
737.950	0.0161152
738.029	0.0161681
738.107	0.0163454
738.185	0.0166302
738.263	0.0165678
738.341	0.0167232
738.419	0.0167256
738.497	0.0168568
738.575	0.0169130
738.654	0.0169769
738.732	0.0169936
738.810	0.0167098
738.888	0.0167609
738.966	0.0166403
739.044	0.0167548
739.122	0.0165574
739.200	0.0163612
739.279	0.0163238
739.357	0.0162123
739.435	0.0161838
739.513	0.0160094
739.591	0.0160387
739.669	0.0162811
739.747	0.0164153
739.825	0.0164886
739.904	0.0164708
739.982	0.0166192
740.060	0.0167679
740.138	0.0168874
740.216	0.0171851
740.294	0.0171742
740.372	0.0173258
740.450	0.0174306
740.529	0.0173568
740.607	0.0174915
740.685	0.0174455
740.763	0.0172179
740.841	0.0171140
740.919	0.0168581
740.997	0.0166123
741.075	0.0166251
741.154	0.0162408
741.232	0.0159841
741.310	0.0159708
741.388	0.0158319
741.466	0.0154974
741.544	0.0155216
741.622	0.0154722
741.700	0.0154530
741.779	0.0154803
741.857	0.0154516
741.935	0.0156259
742.013	0.0156727
742.091	0.0157192
742.169	0.0160057
742.247	0.0160957
742.325	0.0161558
742.404	0.0162695
742.482	0.0162832
742.560	0.0162728
742.638	0.0163311
742.716	0.0163564
742.794	0.0162309
742.872	0.0163893
742.950	0.0161935
743.029	0.0162292
743.107	0.0161772
743.185	0.0162634
743.263	0.0162266
743.341	0.0161852
743.419	0.0161514
743.497	0.0161964
743.575	0.0162633
743.654	0.0162662
743.732	0.0162721
743.810	0.0163478
743.888	0.0165112
743.966	0.0167094
744.044	0.0168961
744.122	0.0169028
744.200	0.0169730
744.279	0.0170779
744.357	0.0173713
744.435	0.0173793
744.513	0.0173211
744.591	0.0174338
744.669	0.0174143
744.747	0.0175017
744.825	0.0173508
744.904	0.0173617
744.982	0.0173348
745.060	0.0172094
745.138	0.0171085
745.216	0.0172984
745.294	0.0170949
745.372	0.0170573
745.450	0.0170720
745.529	0.0169930
745.607	0.0169841
745.685	0.0166435
745.763	0.0167076
745.841	0.0163898
745.919	0.0165933
745.997	0.0165415
746.075	0.0164397
746.154	0.0164119
746.232	0.0164518
746.310	0.0164897
746.388	0.0166110
746.466	0.0166475
746.544	0.0166315
746.622	0.0169101
746.700	0.0171082
746.779	0.0170064
746.857	0.0171676
746.935	0.0170621
747.013	0.0171829
747.091	0.0172694
747.169	0.0170692
747.247	0.0169995
747.325	0.0168678
747.404	0.0165733
747.482	0.0165434
747.560	0.0163960
747.638	0.0161699
747.716	0.0158558
747.794	0.0158771
747.872	0.0157763
747.950	0.0155963
748.029	0.0155489
748.107	0.0154329
748.185	0.0154224
748.263	0.0155077
748.341	0.0154255
748.419	0.0155909
748.497	0.0155713
748.575	0.0157547
748.654	0.0159602
748.732	0.0158922
748.810	0.0160178
748.888	0.0161244
748.966	0.0163528
749.044	0.0164057
749.122	0.0164407
749.200	0.0164584
749.279	0.0164751
749.357	0.0165209
749.435	0.0164951
749.513	0.0165462
749.591	0.0163827
749.669	0.0162486
749.747	0.0161849
749.825	0.0162296
749.904	0.0161007
749.982	0.0159339
750.060	0.0159677
750.138	0.0159058
750.216	0.0159574
750.294	0.0160490
750.372	0.0160999
750.450	0.0161801
750.529	0.0162734
750.607	0.0161925
750.685	0.0162510
750.763	0.0163830
750.841	0.0165642
750.919	0.0165323
750.997	0.0166306
751.075	0.0165689
751.154	0.0167898
751.232	0.0168542
751.310	0.0168864
751.388	0.0169291
751.466	0.0170887
751.544	0.0171719
751.622	0.0170439
751.700	0.0171246
751.779	0.0171642
751.857	0.0171788
751.935	0.0172283
752.013	0.0171890
752.091	0.0170784
752.169	0.0173215
752.247	0.0173453
752.325	0.0172725
752.404	0.0175288
752.482	0.0173637
752.560	0.0174494
752.638	0.0175042
752.716	0.0175065
752.794	0.0176049
752.872	0.0174173
752.950	0.0174384
753.029	0.0172756
753.107	0.0174506
753.185	0.0173079
753.263	0.0171453
753.341	0.0170611
753.419	0.0168972
753.497	0.0168450
753.575	0.0166657
753.654	0.0166718
753.732	0.0162971
753.810	0.0162074
753.888	0.0160822
753.966	0.0159671
754.044	0.0160440
754.122	0.0158182
754.200	0.0156626
754.279	0.0157397
754.357	0.0156960
754.435	0.0157994
754.513	0.0159515
754.591	0.0160276
754.669	0.0160268
754.747	0.0159563
754.825	0.0162433
754.904	0.0164185
754.982	0.0162915
755.060	0.0163964
755.138	0.0163714
755.216	0.0163108
755.294	0.0164381
755.372	0.0163685
755.450	0.0162742
755.529	0.0163282
755.607	0.0163931
755.685	0.0163002
755.763	0.0161661
755.841	0.0161073
755.919	0.0160475
755.997	0.0159863
756.075	0.0161668
756.154	0.0161071
756.232	0.0163140
756.310	0.0161836
756.388	0.0161854
756.466	0.0162829
756.544	0.0163228
756.622	0.0163927
756.700	0.0164227
756.779	0.0163544
756.857	0.0164239
756.935	0.0164875
757.013	0.0164507
757.091	0.0163731
757.169	0.0164864
757.247	0.0164618
757.325	0.0163902
757.404	0.0164066
757.482	0.0162904
757.560	0.0162242
757.638	0.0162630
757.716	0.0162282
757.794	0.0163394
757.872	0.0163164
757.950	0.0162762
758.029	0.0162119
758.107	0.0162151
758.185	0.0163112
758.263	0.0165326
758.341	0.0163235
758.419	0.0163731
758.497	0.0164923
758.575	0.0165356
758.654	0.0166975
758.732	0.0167006
758.810	0.0168651
758.888	0.0168832
758.966	0.0170293
759.044	0.0171633
759.122	0.0172871
759.200	0.0173245
759.279	0.0172025
759.357	0.0172110
759.435	0.0173480
759.513	0.0173860
759.591	0.0171379
759.669	0.0170981
759.747	0.0170971
759.825	0.0169286
759.904	0.0166975
759.982	0.0165919
760.060	0.0164723
760.138	0.0164263
760.216	0.0162585
760.294	0.0161816
760.372	0.0161304
760.450	0.0162327
760.529	0.0162781
760.607	0.0163138
760.685	0.0164254
760.763	0.0164966
760.841	0.0166846
760.919	0.0166012
760.997	0.0166590
761.075	0.0167046
761.154	0.0166714
761.232	0.0167555
761.310	0.0165826
761.388	0.0166997
761.466	0.0165408
761.544	0.0164284
761.622	0.0164346
761.700	0.0165533
761.779	0.0163356
761.857	0.0163155
761.935	0.0164127
762.013	0.0162181
762.091	0.0162151
762.169	0.0162132
762.247	0.0160670
762.325	0.0161275
762.404	0.0161542
762.482	0.0160059
762.560	0.0160323
762.638	0.0161489
762.716	0.0161243
762.794	0.0159625
762.872	0.0160134
762.950	0.0160975
763.029	0.0161309
763.107	0.0161308
763.185	0.0160428
763.263	0.0161823
763.341	0.0162621
763.419	0.0161578
763.497	0.0163243
763.575	0.0164655
763.654	0.0164768
763.732	0.0165367
763.810	0.0164513
763.888	0.0165082
763.966	0.0165996
764.044	0.0164860
764.122	0.0166909
764.200	0.0165730
764.279	0.0165228
764.357	0.0163568
764.435	0.0164766
764.513	0.0166235
764.591	0.0167255
764.669	0.0163644
764.747	0.0165796
764.825	0.0165810
764.904	0.0167243
764.982	0.0167734
765.060	0.0167297
765.138	0.0168886
765.216	0.0168507
765.294	0.0169298
765.372	0.0168841
765.450	0.0169565
765.529	0.0168063
765.607	0.0167861
765.685	0.0167784
765.763	0.0167078
765.841	0.0165993
765.919	0.0167196
765.997	0.0165199
766.075	0.0163216
766.154	0.0162351
766.232	0.0161661
766.310	0.0162408
766.388	0.0160102
766.466	0.0160421
766.544	0.0160591
766.622	0.0160501
766.700	0.0161836
766.779	0.0162431
766.857	0.0163518
766.935	0.0163689
767.013	0.0164923
767.091	0.0165328
767.169	0.0166712
767.247	0.0168044
767.325	0.0169530
767.404	0.0170445
767.482	0.0168831
767.560	0.0170161
767.638	0.0169612
767.716	0.0170154
767.794	0.0169186
767.872	0.0169030
767.950	0.0167758
768.029	0.0166418
768.107	0.0166624
768.185	0.0165599
768.263	0.0165144
768.341	0.0163146
768.419	0.0164222
768.497	0.0164400
768.575	0.0162511
768.654	0.0162733
768.732	0.0164928
768.810	0.0164346
768.888	0.0163792
768.966	0.0162888
769.044	0.0165569
769.122	0.0163946
769.200	0.0164853
769.279	0.0165832
769.357	0.0164671
769.435	0.0164548
769.513	0.0164921
769.591	0.0164211
769.669	0.0164256
769.747	0.0165072
769.825	0.0163741
769.904	0.0163317
769.982	0.0164121
770.060	0.0164546
770.138	0.0164037
770.216	0.0163625
770.294	0.0164186
770.372	0.0162276
770.450	0.0161770
770.529	0.0162955
770.607	0.0162356
770.685	0.0164185
770.763	0.0165100
770.841	0.0164558
770.919	0.0164685
770.997	0.0164782
771.075	0.0165820
771.154	0.0164816
771.232	0.0165147
771.310	0.0167188
771.388	0.0167627
771.466	0.0166759
771.544	0.0165990
771.622	0.0165332
771.700	0.0167067
771.779	0.0166828
771.857	0.0165892
771.935	0.0166759
772.013	0.0164496
772.091	0.0164758
772.169	0.0164293
772.247	0.0162817
772.325	0.0163438
772.404	0.0162527
772.482	0.0161626
772.560	0.0161991
772.638	0.0163501
772.716	0.0164320
772.794	0.0163224
772.872	0.0163623
772.950	0.0164420
773.029	0.0164211
773.107	0.0165361
773.185	0.0165082
773.263	0.0165192
773.341	0.0165697
773.419	0.0166490
773.497	0.0166595
773.575	0.0166133
773.654	0.0165279
773.732	0.0165765
773.810	0.0165266
773.888	0.0166508
773.966	0.0164340
774.044	0.0163206
774.122	0.0164542
774.200	0.0163069
774.279	0.0161879
774.357	0.0162326
774.435	0.0161985
774.513	0.0162456
774.591	0.0162346
774.669	0.0162448
774.747	0.0162100
774.825	0.0163539
774.904	0.0162972
774.982	0.0164271
775.060	0.0164978
775.138	0.0165662
775.216	0.0165075
775.294	0.0166941
775.372	0.0167659
775.450	0.0166573
775.529	0.0167798
775.607	0.0169398
775.685	0.0169705
775.763	0.0166866
775.841	0.0169294
775.919	0.0170209
775.997	0.0169600
776.075	0.0169767
776.154	0.0168919
776.232	0.0168757
776.310	0.0168385
776.388	0.0168123
776.466	0.0167968
776.544	0.0166039
776.622	0.0167299
776.700	0.0166240
776.779	0.0165384
776.857	0.0167347
776.935	0.0168313
777.013	0.0167451
777.091	0.0167432
777.169	0.0167633
777.247	0.0166854
777.325	0.0167855
777.404	0.0168362
777.482	0.0168655
777.560	0.0169306
777.638	0.0167001
777.716	0.0166971
777.794	0.0168690
777.872	0.0167812
777.950	0.0167725
778.029	0.0167459
778.107	0.0167137
778.185	0.0165502
778.263	0.0165217
778.341	0.0162327
778.419	0.0162569
778.497	0.0164468
778.575	0.0162498
778.654	0.0159921
778.732	0.0159762
778.810	0.0161946
778.888	0.0160723
778.966	0.0160529
779.044	0.0160868
779.122	0.0160491
779.200	0.0162389
779.279	0.0162840
779.357	0.0163101
779.435	0.0163148
779.513	0.0163716
779.591	0.0164995
779.669	0.0164863
779.747	0.0164291
779.825	0.0165350
779.904	0.0165187
779.982	0.0166827
780.060	0.0166486
780.138	0.0164941
780.216	0.0166884
780.294	0.0165736
780.372	0.0164864
780.450	0.0165048
780.529	0.0164988
780.607	0.0163925
780.685	0.0164056
780.763	0.0162906
780.841	0.0164121
780.919	0.0165797
780.997	0.0163410
781.075	0.0164247
781.154	0.0164909
781.232	0.0163858
781.310	0.0163489
781.388	0.0164098
781.466	0.0165092
781.544	0.0164856
781.622	0.0163207
781.700	0.0165702
781.779	0.0165057
781.857	0.0164033
781.935	0.0164334
782.013	0.0163898
782.091	0.0164776
782.169	0.0165271
782.247	0.0164662
782.325	0.0163556
782.404	0.0163696
782.482	0.0165045
782.560	0.0164847
782.638	0.0163581
782.716	0.0163675
782.794	0.0163683
782.872	0.0166117
782.950	0.0166308
783.029	0.0165375
783.107	0.0166405
783.185	0.0165540
783.263	0.0165536
783.341	0.0167674
783.419	0.0168728
783.497	0.0170405
783.575	0.0169849
783.654	0.0171101
783.732	0.0170021
783.810	0.0171290
783.888	0.0171446
783.966	0.0170307
784.044	0.0170936
784.122	0.0171344
784.200	0.0170737
784.279	0.0168626
784.357	0.0168111
784.435	0.0169292
784.513	0.0166641
784.591	0.0167710
784.669	0.0165896
784.747	0.0166428
784.825	0.0165250
784.904	0.0165207
784.982	0.0163251
785.060	0.0162741
785.138	0.0163273
785.216	0.0165241
785.294	0.0162969
785.372	0.0164932
785.450	0.0164649
785.529	0.0164940
785.607	0.0163708
785.685	0.0166026
785.763	0.0164150
785.841	0.0166119
785.919	0.0166068
785.997	0.0165303
786.075	0.0164541
786.154	0.0164477
786.232	0.0165324
786.310	0.0164224
786.388	0.0163555
786.466	0.0162450
786.544	0.0161929
786.622	0.0161494
786.700	0.0159813
786.779	0.0158350
786.857	0.0159697
786.935	0.0160049
787.013	0.0159406
787.091	0.0158053
787.169	0.0158522
787.247	0.0159915
787.325	0.0160870
787.404	0.0160098
787.482	0.0162400
787.560	0.0161687
787.638	0.0162502
787.716	0.0162022
787.794	0.0162962
787.872	0.0163694
787.950	0.0166080
788.029	0.0163229
788.107	0.0163744
788.185	0.0165111
788.263	0.0165506
788.341	0.0166405
788.419	0.0165884
788.497	0.0164449
788.575	0.0165433
788.654	0.0164405
788.732	0.0164299
788.810	0.0164482
788.888	0.0164262
788.966	0.0163641
789.044	0.0164022
789.122	0.0165256
789.200	0.0164038
789.279	0.0165096
789.357	0.0164772
789.435	0.0166010
789.513	0.0166885
789.591	0.0166788
789.669	0.0166702
789.747	0.0168024
789.825	0.0167183
789.904	0.0166885
789.982	0.0167990
790.060	0.0168880
790.138	0.0168658
790.216	0.0169661
790.294	0.0170016
790.372	0.0168908
790.450	0.0168584
790.529	0.0168619
790.607	0.0168260
790.685	0.0167783
790.763	0.0168210
790.841	0.0167444
790.919	0.0167995
790.997	0.0167170
791.075	0.0167443
791.154	0.0168234
791.232	0.0167205
791.310	0.0167785
791.388	0.0168227
791.466	0.0166849
791.544	0.0166126
791.622	0.0165964
791.700	0.0166721
791.779	0.0166621
791.857	0.0166734
791.935	0.0166526
792.013	0.0165488
792.091	0.0165643
792.169	0.0164964
792.247	0.0163578
792.325	0.0162686
792.404	0.0162992
792.482	0.0163906
792.560	0.0163143
792.638	0.0163380
792.716	0.0162376
792.794	0.0162262
792.872	0.0161884
792.950	0.0161945
793.029	0.0160661
793.107	0.0161478
793.185	0.0162148
793.263	0.0162254
793.341	0.0161462
793.419	0.0162666
793.497	0.0162744
793.575	0.0163383
793.654	0.0163620
793.732	0.0163721
793.810	0.0165694
793.888	0.0165923
793.966	0.0167964
794.044	0.0164969
794.122	0.0164984
794.200	0.0165533
794.279	0.0166557
794.357	0.0165897
794.435	0.0164990
794.513	0.0164929
794.591	0.0164878
794.669	0.0163352
794.747	0.0165401
794.825	0.0165056
794.904	0.0162330
794.982	0.0163237
795.060	0.0162842
795.138	0.0164549
795.216	0.0163772
795.294	0.0161653
795.372	0.0161856
795.450	0.0163262
795.529	0.0163241
795.607	0.0162565
795.685	0.0164405
795.763	0.0162752
795.841	0.0163457
795.919	0.0164563
795.997	0.0164372
796.075	0.0165419
796.154	0.0164429
796.232	0.0166376
796.310	0.0167013
796.388	0.0167628
796.466	0.0166664
796.544	0.0165789
796.622	0.0167312
796.700	0.0168035
796.779	0.0167936
796.857	0.0167175
796.935	0.0166909
797.013	0.0168085
797.091	0.0167965
797.169	0.0168200
797.247	0.0168092
797.325	0.0167844
797.404	0.0167861
797.482	0.0167847
797.560	0.0169631
797.638	0.0170430
797.716	0.0170399
797.794	0.0170930
797.872	0.0172097
797.950	0.0171622
798.029	0.0172293
798.107	0.0172645
798.185	0.0172224
798.263	0.0172323
798.341	0.0171098
798.419	0.0172511
798.497	0.0171528
798.575	0.0170667
798.654	0.0169855
798.732	0.0167627
798.810	0.0166457
798.888	0.0165518
798.966	0.0164801
799.044	0.0163118
799.122	0.0162228
799.200	0.0162760
799.279	0.0159916
799.357	0.0159814
799.435	0.0157938
799.513	0.0156937
799.591	0.0158057
799.669	0.0157514
799.747	0.0158839
799.825	0.0159258
799.904	0.0159824
799.982	0.0160857
800.060	0.0161262
800.138	0.0164382
800.216	0.0164289
800.294	0.0163570
800.372	0.0163719
800.450	0.0167290
800.529	0.0168362
800.607	0.0168155
800.685	0.0168827
800.763	0.0169715
800.841	0.0168764
800.919	0.0169571
800.997	0.0168910
801.075	0.0168297
801.154	0.0168785
801.232	0.0169742
801.310	0.0167996
801.388	0.0166586
801.466	0.0165558
801.544	0.0164962
801.622	0.0165765
801.700	0.0165465
801.779	0.0163551
801.857	0.0164235
801.935	0.0164088
802.013	0.0163277
802.091	0.0162704
802.169	0.0163062
802.247	0.0163249
802.325	0.0163885
802.404	0.0164833
802.482	0.0162229
802.560	0.0161437
802.638	0.0162682
802.716	0.0163491
802.794	0.0161835
802.872	0.0163078
802.950	0.0163202
803.029	0.0163744
803.107	0.0163467
803.185	0.0164770
803.263	0.0163992
803.341	0.0163853
803.419	0.0165069
803.497	0.0164362
803.575	0.0165151
803.654	0.0167142
803.732	0.0166711
803.810	0.0167312
803.888	0.0167309
803.966	0.0167221
804.044	0.0170000
804.122	0.0168246
804.200	0.0171034
804.279	0.0172125
804.357	0.0171970
804.435	0.0171492
804.513	0.0171683
804.591	0.0172507
804.669	0.0172083
804.747	0.0171967
804.825	0.0171629
804.904	0.0171922
804.982	0.0171452
805.060	0.0171304
805.138	0.0170496
805.216	0.0168920
805.294	0.0168620
805.372	0.0167879
805.450	0.0168291
805.529	0.0167519
805.607	0.0166111
805.685	0.0165266
805.763	0.0164228
805.841	0.0164465
805.919	0.0164149
805.997	0.0163495
806.075	0.0162205
806.154	0.0161327
806.232	0.0162643
806.310	0.0162962
806.388	0.0161588
806.466	0.0162249
806.544	0.0163998
806.622	0.0163239
806.700	0.0164151
806.779	0.0163905
806.857	0.0162019
806.935	0.0163003
807.013	0.0165533
807.091	0.0165252
807.169	0.0164173
807.247	0.0165057
807.325	0.0163397
807.404	0.0164400
807.482	0.0163696
807.560	0.0164059
807.638	0.0164082
807.716	0.0164858
807.794	0.0163910
807.872	0.0163745
807.950	0.0163571
808.029	0.0165346
808.107	0.0163617
808.185	0.0164214
808.263	0.0164207
808.341	0.0164762
808.419	0.0164500
808.497	0.0164036
808.575	0.0163808
808.654	0.0164213
808.732	0.0163168
808.810	0.0161465
808.888	0.0162045
808.966	0.0164351
809.044	0.0162394
809.122	0.0161965
809.200	0.0161163
809.279	0.0161215
809.357	0.0161812
809.435	0.0159943
809.513	0.0160461
809.591	0.0161942
809.669	0.0160359
809.747	0.0158932
809.825	0.0162370
809.904	0.0162410
809.982	0.0161541
810.060	0.0161510
810.138	0.0162529
810.216	0.0162383
810.294	0.0164309
810.372	0.0164561
810.450	0.0165936
810.529	0.0164840
810.607	0.0167297
810.685	0.0169424
810.763	0.0168608
810.841	0.0170675
810.919	0.0170277
810.997	0.0169962
811.075	0.0172630
811.154	0.0173556
811.232	0.0173369
811.310	0.0172418
811.388	0.0173451
811.466	0.0172987
811.544	0.0172932
811.622	0.0173091
811.700	0.0172654
811.779	0.0170905
811.857	0.0171765
811.935	0.0170369
812.013	0.0170062
812.091	0.0168450
812.169	0.0169268
812.247	0.0168227
812.325	0.0169135
812.404	0.0167534
812.482	0.0167279
812.560	0.0167098
812.638	0.0166530
812.716	0.0166412
812.794	0.0167043
812.872	0.0165424
812.950	0.0165530
813.029	0.0163642
813.107	0.0162946
813.185	0.0163217
813.263	0.0162260
813.341	0.0161779
813.419	0.0160706
813.497	0.0161291
813.575	0.0160693
813.654	0.0160361
813.732	0.0161217
813.810	0.0160654
813.888	0.0160803
813.966	0.0160577
814.044	0.0159872
814.122	0.0160764
814.200	0.0161047
814.279	0.0161779
814.357	0.0160291
814.435	0.0160667
814.513	0.0160369
814.591	0.0160960
814.669	0.0161761
814.747	0.0162576
814.825	0.0161638
814.904	0.0162311
814.982	0.0164264
815.060	0.0163146
815.138	0.0163849
815.216	0.0164955
815.294	0.0163544
815.372	0.0163575
815.450	0.0163232
815.529	0.0166091
815.607	0.0164673
815.685	0.0164944
815.763	0.0164478
815.841	0.0165011
815.919	0.0164439
815.997	0.0164140
816.075	0.0164107
816.154	0.0164503
816.232	0.0164555
816.310	0.0163526
816.388	0.0164404
816.466	0.0164522
816.544	0.0163444
816.622	0.0163680
816.700	0.0163853
816.779	0.0165056
816.857	0.0165497
816.935	0.0165794
817.013	0.0166583
817.091	0.0166210
817.169	0.0167673
817.247	0.0167007
817.325	0.0166994
817.404	0.0168110
817.482	0.0168552
817.560	0.0167913
817.638	0.0168259
817.716	0.0169679
817.794	0.0168935
817.872	0.0168567
817.950	0.0169772
818.029	0.0169437
818.107	0.0169439
818.185	0.0169193
818.263	0.0169106
818.341	0.0169023
818.419	0.0171571
818.497	0.0170573
818.575	0.0170341
818.654	0.0170078
818.732	0.0170036
818.810	0.0169546
818.888	0.0170253
818.966	0.0171336
819.044	0.0170614
819.122	0.0170340
819.200	0.0169202
819.279	0.0169704
819.357	0.0169440
819.435	0.0168725
819.513	0.0168224
819.591	0.0167325
819.669	0.0165354
819.747	0.0166253
819.825	0.0165245
819.904	0.0164039
819.982	0.0163908
820.060	0.0163253
820.138	0.0162763
820.216	0.0161994
820.294	0.0162025
820.372	0.0161466
820.450	0.0162593
820.529	0.0162068
820.607	0.0161799
820.685	0.0161374
820.763	0.0161149
820.841	0.0161256
820.919	0.0162173
820.997	0.0162006
821.075	0.0162341
821.154	0.0162206
821.232	0.0162276
821.310	0.0163600
821.388	0.0163793
821.466	0.0163306
821.544	0.0163665
821.622	0.0163038
821.700	0.0162424
821.779	0.0162428
821.857	0.0162724
821.935	0.0162307
822.013	0.0162551
822.091	0.0162950
822.169	0.0163525
822.247	0.0164198
822.325	0.0163174
822.404	0.0164338
822.482	0.0164745
822.560	0.0163819
822.638	0.0164910
822.716	0.0163904
822.794	0.0165392
822.872	0.0166447
822.950	0.0165757
823.029	0.0165765
823.107	0.0166679
823.185	0.0167487
823.263	0.0167013
823.341	0.0167674
823.419	0.0166253
823.497	0.0167824
823.575	0.0168217
823.654	0.0167834
823.732	0.0167447
823.810	0.0166724
823.888	0.0168441
823.966	0.0167454
824.044	0.0167794
824.122	0.0166116
824.200	0.0166739
824.279	0.0166246
824.357	0.0166743
824.435	0.0165903
824.513	0.0166260
824.591	0.0165560
824.669	0.0166961
824.747	0.0166284
824.825	0.0166235
824.904	0.0166179
824.982	0.0166628
825.060	0.0168072
825.138	0.0167190
825.216	0.0167007
825.294	0.0168541
825.372	0.0168037
825.450	0.0169424
825.529	0.0169025
825.607	0.0168287
825.685	0.0169778
825.763	0.0167592
825.841	0.0167989
825.919	0.0167721
825.997	0.0166158
826.075	0.0167014
826.154	0.0166025
826.232	0.0166341
826.310	0.0165781
826.388	0.0165255
826.466	0.0164516
826.544	0.0165031
826.622	0.0164247
826.700	0.0165532
826.779	0.0163092
826.857	0.0164584
826.935	0.0165294
827.013	0.0165427
827.091	0.0163271
827.169	0.0164075
827.247	0.0164862
827.325	0.0164474
827.404	0.0166452
827.482	0.0164594
827.560	0.0164284
827.638	0.0165254
827.716	0.0164862
827.794	0.0164989
827.872	0.0164664
827.950	0.0165504
828.029	0.0164855
828.107	0.0164341
828.185	0.0164874
828.263	0.0163151
828.341	0.0163562
828.419	0.0164418
828.497	0.0163145
828.575	0.0163254
828.654	0.0163425
828.732	0.0163772
828.810	0.0164020
828.888	0.0163918
828.966	0.0165186
829.044	0.0164569
829.122	0.0164954
829.200	0.0165705
829.279	0.0166667
829.357	0.0164793
829.435	0.0164556
829.513	0.0165141
829.591	0.0164418
829.669	0.0164996
829.747	0.0162550
829.825	0.0164312
829.904	0.0162690
829.982	0.0162748
830.060	0.0163043
830.138	0.0163220
830.216	0.0164953
830.294	0.0165611
830.372	0.0164012
830.450	0.0165491
830.529	0.0164619
830.607	0.0164496
830.685	0.0165485
830.763	0.0165376
830.841	0.0164362
830.919	0.0165347
830.997	0.0165659
831.075	0.0165851
831.154	0.0165643
831.232	0.0165253
831.310	0.0164304
831.388	0.0164928
831.466	0.0165543
831.544	0.0164476
831.622	0.0166289
831.700	0.0167464
831.779	0.0166489
831.857	0.0167397
831.935	0.0166886
832.013	0.0167641
832.091	0.0167072
832.169	0.0168642
832.247	0.0168431
832.325	0.0166796
832.404	0.0167667
832.482	0.0167019
832.560	0.0168307
832.638	0.0166546
832.716	0.0166099
832.794	0.0166635
832.872	0.0165882
832.950	0.0165855
833.029	0.0166264
833.107	0.0163784
833.185	0.0164548
833.263	0.0165360
833.341	0.0166657
833.419	0.0164855
833.497	0.0165730
833.575	0.0166016
833.654	0.0167043
833.732	0.0166690
833.810	0.0168687
833.888	0.0167157
833.966	0.0168788
834.044	0.0167234
834.122	0.0167516
834.200	0.0168481
834.279	0.0166743
834.357	0.0165196
834.435	0.0166720
834.513	0.0165705
834.591	0.0165411
834.669	0.0165923
834.747	0.0166261
834.825	0.0165811
834.904	0.0167025
834.982	0.0165514
835.060	0.0164796
835.138	0.0165376
835.216	0.0164679
835.294	0.0162868
835.372	0.0164288
835.450	0.0164937
835.529	0.0162193
835.607	0.0162164
835.685	0.0163226
835.763	0.0162534
835.841	0.0162960
835.919	0.0161651
835.997	0.0162041
836.075	0.0162856
836.154	0.0162958
836.232	0.0163517
836.310	0.0162543
836.388	0.0163013
836.466	0.0163230
836.544	0.0164188
836.622	0.0164500
836.700	0.0164110
836.779	0.0163809
836.857	0.0163875
836.935	0.0164439
837.013	0.0164285
837.091	0.0166462
837.169	0.0164713
837.247	0.0165334
837.325	0.0164919
837.404	0.0164320
837.482	0.0164754
837.560	0.0164681
837.638	0.0165626
837.716	0.0164437
837.794	0.0163557
837.872	0.0165366
837.950	0.0163605
838.029	0.0165034
838.107	0.0164922
838.185	0.0164545
838.263	0.0165945
838.341	0.0167359
838.419	0.0167154
838.497	0.0166584
838.575	0.0164566
838.654	0.0164764
838.732	0.0165659
838.810	0.0165674
838.888	0.0164346
838.966	0.0163428
839.044	0.0163612
839.122	0.0163440
839.200	0.0164012
839.279	0.0163831
839.357	0.0163081
839.435	0.0164423
839.513	0.0164520
839.591	0.0165437
839.669	0.0164373
839.747	0.0164127
839.825	0.0165981
839.904	0.0167312
839.982	0.0166356
840.060	0.0165591
840.138	0.0168211
840.216	0.0168379
840.294	0.0169153
840.372	0.0169260
840.450	0.0168825
840.529	0.0168829
840.607	0.0168811
840.685	0.0169290
840.763	0.0169337
840.841	0.0169884
840.919	0.0168171
840.997	0.0167771
841.075	0.0167265
841.154	0.0167590
841.232	0.0166367
841.310	0.0164130
841.388	0.0165001
841.466	0.0164086
841.544	0.0163502
841.622	0.0164011
841.700	0.0164082
841.779	0.0163753
841.857	0.0163542
841.935	0.0165269
842.013	0.0164019
842.091	0.0164670
842.169	0.0164931
842.247	0.0164105
842.325	0.0165340
842.404	0.0165429
842.482	0.0165481
842.560	0.0164906
842.638	0.0163623
842.716	0.0164426
842.794	0.0164294
842.872	0.0165242
842.950	0.0165231
843.029	0.0166565
843.107	0.0165818
843.185	0.0166313
843.263	0.0165085
843.341	0.0167342
843.419	0.0166451
843.497	0.0166868
843.575	0.0166924
843.654	0.0168810
843.732	0.0168747
843.810	0.0169180
843.888	0.0169662
843.966	0.0169865
844.044	0.0169369
844.122	0.0169048
844.200	0.0170117
844.279	0.0168282
844.357	0.0168018
844.435	0.0168142
844.513	0.0166425
844.591	0.0166853
844.669	0.0165829
844.747	0.0165170
844.825	0.0165484
844.904	0.0163652
844.982	0.0163683
845.060	0.0165426
845.138	0.0163311
845.216	0.0164780
845.294	0.0163680
845.372	0.0163879
845.450	0.0164375
845.529	0.0164626
845.607	0.0164482
845.685	0.0163798
845.763	0.0163857
845.841	0.0165187
845.919	0.0164599
845.997	0.0162487
846.075	0.0163171
846.154	0.0164212
846.232	0.0164579
846.310	0.0163444
846.388	0.0162778
846.466	0.0163871
846.544	0.0165273
846.622	0.0164931
846.700	0.0165804
846.779	0.0165195
846.857	0.0166393
846.935	0.0166946
847.013	0.0165999
847.091	0.0165875
847.169	0.0166827
847.247	0.0167616
847.325	0.0165827
847.404	0.0165008
847.482	0.0165524
847.560	0.0165929
847.638	0.0164134
847.716	0.0163402
847.794	0.0164997
847.872	0.0164043
847.950	0.0165573
848.029	0.0161586
848.107	0.0163301
848.185	0.0163047
848.263	0.0163794
848.341	0.0164469
848.419	0.0164539
848.497	0.0164725
848.575	0.0164476
848.654	0.0166293
848.732	0.0167166
848.810	0.0165855
848.888	0.0164626
848.966	0.0166479
849.044	0.0167327
849.122	0.0167608
849.200	0.0167592
849.279	0.0168362
849.357	0.0167754
849.435	0.0167364
849.513	0.0167554
849.591	0.0168364
849.669	0.0167337
849.747	0.0166244
849.825	0.0166091
849.904	0.0167916
849.982	0.0166206
850.060	0.0164819
850.138	0.0168307
850.216	0.0167106
850.294	0.0167458
850.372	0.0166832
850.450	0.0164487
850.529	0.0166389
850.607	0.0165806
850.685	0.0165149
850.763	0.0164765
850.841	0.0164694
850.919	0.0164060
850.997	0.0165194
851.075	0.0163708
851.154	0.0164305
851.232	0.0164133
851.310	0.0164047
851.388	0.0164153
851.466	0.0164948
851.544	0.0164772
851.622	0.0164848
851.700	0.0164673
851.779	0.0163306
851.857	0.0165067
851.935	0.0163945
852.013	0.0163554
852.091	0.0163790
852.169	0.0163141
852.247	0.0164447
852.325	0.0163094
852.404	0.0163309
852.482	0.0164737
852.560	0.0164242
852.638	0.0162735
852.716	0.0164101
852.794	0.0163880
852.872	0.0163715
852.950	0.0165626
853.029	0.0164783
853.107	0.0165417
853.185	0.0163879
853.263	0.0166291
853.341	0.0165134
853.419	0.0166010
853.497	0.0165980
853.575	0.0164336
853.654	0.0164851
853.732	0.0165620
853.810	0.0165486
853.888	0.0165651
853.966	0.0166700
854.044	0.0164594
854.122	0.0164034
854.200	0.0165945
854.279	0.0166960
854.357	0.0164866
854.435	0.0166373
854.513	0.0165704
854.591	0.0167750
854.669	0.0165532
854.747	0.0165947
854.825	0.0166275
854.904	0.0166406
854.982	0.0166600
855.060	0.0166351
855.138	0.0166612
855.216	0.0165979
855.294	0.0164687
855.372	0.0166454
855.450	0.0166335
855.529	0.0165715
855.607	0.0166036
855.685	0.0166198
855.763	0.0164978
855.841	0.0165656
855.919	0.0165940
855.997	0.0166594
856.075	0.0164788
856.154	0.0165530
856.232	0.0164054
856.310	0.0165397
856.388	0.0165239
856.466	0.0165686
856.544	0.0164375
856.622	0.0164156
856.700	0.0165600
856.779	0.0163258
856.857	0.0163895
856.935	0.0164933
857.013	0.0163814
857.091	0.0164375
857.169	0.0165467
857.247	0.0165942
857.325	0.0165453
857.404	0.0166428
857.482	0.0165134
857.560	0.0165380
857.638	0.0165778
857.716	0.0165698
857.794	0.0166204
857.872	0.0166624
857.950	0.0166341
858.029	0.0165954
858.107	0.0167010
858.185	0.0167689
858.263	0.0167332
858.341	0.0167180
858.419	0.0167973
858.497	0.0166752
858.575	0.0166301
858.654	0.0166582
858.732	0.0167065
858.810	0.0166217
858.888	0.0165816
858.966	0.0166298
859.044	0.0167248
859.122	0.0165473
859.200	0.0166189
859.279	0.0164593
859.357	0.0165118
859.435	0.0165470
859.513	0.0163417
859.591	0.0162882
859.669	0.0162502
859.747	0.0162917
859.825	0.0162304
859.904	0.0161723
859.982	0.0162499
860.060	0.0162447
860.138	0.0162988
860.216	0.0163974
860.294	0.0162440
860.372	0.0162461
860.450	0.0163547
860.529	0.0163517
860.607	0.0163787
860.685	0.0165039
860.763	0.0162926
860.841	0.0162962
860.919	0.0163381
860.997	0.0164822
861.075	0.0163756
861.154	0.0163085
861.232	0.0164290
861.310	0.0162843
861.388	0.0163764
861.466	0.0164014
861.544	0.0163790
861.622	0.0164880
861.700	0.0164727
861.779	0.0164430
861.857	0.0165719
861.935	0.0166028
862.013	0.0166474
862.091	0.0165150
862.169	0.0165823
862.247	0.0165438
862.325	0.0165394
862.404	0.0164653
862.482	0.0165350
862.560	0.0166414
862.638	0.0164965
862.716	0.0165972
862.794	0.0164890
862.872	0.0166192
862.950	0.0164819
863.029	0.0163779
863.107	0.0164250
863.185	0.0163790
863.263	0.0163541
863.341	0.0163810
863.419	0.0163855
863.497	0.0162003
863.575	0.0164150
863.654	0.0165038
863.732	0.0163903
863.810	0.0164586
863.888	0.0164785
863.966	0.0165134
864.044	0.0166068
864.122	0.0165704
864.200	0.0168134
864.279	0.0168788
864.357	0.0168388
864.435	0.0168253
864.513	0.0168247
864.591	0.0169727
864.669	0.0168775
864.747	0.0169239
864.825	0.0168731
864.904	0.0169099
864.982	0.0169054
865.060	0.0168317
865.138	0.0167581
865.216	0.0167761
865.294	0.0167498
865.372	0.0167535
865.450	0.0168421
865.529	0.0166677
865.607	0.0166126
865.685	0.0165257
865.763	0.0165591
865.841	0.0165660
865.919	0.0165546
865.997	0.0165475
866.075	0.0164084
866.154	0.0163979
866.232	0.0164070
866.310	0.0163704
866.388	0.0163111
866.466	0.0163987
866.544	0.0164290
866.622	0.0164198
866.700	0.0163928
866.779	0.0162992
866.857	0.0165514
866.935	0.0163168
867.013	0.0162910
867.091	0.0163217
867.169	0.0163805
867.247	0.0162914
867.325	0.0163982
867.404	0.0163445
867.482	0.0163818
867.560	0.0164541
867.638	0.0164703
867.716	0.0164938
867.794	0.0165298
867.872	0.0166531
867.950	0.0164777
868.029	0.0166737
868.107	0.0166349
868.185	0.0166312
868.263	0.0164975
868.341	0.0165862
868.419	0.0166106
868.497	0.0166378
868.575	0.0165944
868.654	0.0165133
868.732	0.0164168
868.810	0.0163345
868.888	0.0165291
868.966	0.0165954
869.044	0.0165726
869.122	0.0164657
869.200	0.0163918
869.279	0.0165198
869.357	0.0165937
869.435	0.0164929
869.513	0.0164860
869.591	0.0164520
869.669	0.0164891
869.747	0.0165436
869.825	0.0165581
869.904	0.0166196
869.982	0.0165971
870.060	0.0166109
870.138	0.0166831
870.216	0.0165968
870.294	0.0166760
870.372	0.0166393
870.450	0.0166037
870.529	0.0167834
870.607	0.0167314
870.685	0.0166557
870.763	0.0166358
870.841	0.0166315
870.919	0.0165765
870.997	0.0168695
871.075	0.0166784
871.154	0.0166678
871.232	0.0167092
871.310	0.0169714
871.388	0.0167547
871.466	0.0168474
871.544	0.0167757
871.622	0.0166917
871.700	0.0167254
871.779	0.0167853
871.857	0.0166601
871.935	0.0165890
872.013	0.0166657
872.091	0.0164471
872.169	0.0166270
872.247	0.0165705
872.325	0.0164597
872.404	0.0163042
872.482	0.0164622
872.560	0.0163183
872.638	0.0164360
872.716	0.0164315
872.794	0.0164648
872.872	0.0164366
872.950	0.0164562
873.029	0.0164472
873.107	0.0164003
873.185	0.0163286
873.263	0.0164954
873.341	0.0165080
873.419	0.0164521
873.497	0.0163452
873.575	0.0164874
873.654	0.0164574
873.732	0.0165353
873.810	0.0163069
873.888	0.0161440
873.966	0.0161851
874.044	0.0161960
874.122	0.0162905
874.200	0.0161398
874.279	0.0163114
874.357	0.0163663
874.435	0.0161658
874.513	0.0161559
874.591	0.0163194
874.669	0.0162964
874.747	0.0162550
874.825	0.0164207
874.904	0.0165891
874.982	0.0163905
875.060	0.0164242
875.138	0.0165893
875.216	0.0165553
875.294	0.0164899
875.372	0.0166473
875.450	0.0165210
875.529	0.0165533
875.607	0.0165499
875.685	0.0166427
875.763	0.0165394
875.841	0.0166326
875.919	0.0166174
875.997	0.0166370
876.075	0.0167422
876.154	0.0165739
876.232	0.0166907
876.310	0.0166708
876.388	0.0167043
876.466	0.0166057
876.544	0.0166528
876.622	0.0166607
876.700	0.0165947
876.779	0.0167274
876.857	0.0167449
876.935	0.0166118
877.013	0.0165446
877.091	0.0164479
877.169	0.0164967
877.247	0.0165840
877.325	0.0165372
877.404	0.0165650
877.482	0.0164599
877.560	0.0165546
877.638	0.0165939
877.716	0.0164991
877.794	0.0164805
877.872	0.0164119
877.950	0.0165759
878.029	0.0164874
878.107	0.0165466
878.185	0.0163791
878.263	0.0165878
878.341	0.0164501
878.419	0.0162811
878.497	0.0165254
878.575	0.0165916
878.654	0.0165142
878.732	0.0164835
878.810	0.0165491
878.888	0.0166242
878.966	0.0165595
879.044	0.0165707
879.122	0.0166116
879.200	0.0164439
879.279	0.0166131
879.357	0.0166533
879.435	0.0167390
879.513	0.0165476
879.591	0.0167107
879.669	0.0165195
879.747	0.0165735
879.825	0.0166225
879.904	0.0166052
879.982	0.0164883
880.060	0.0166579
880.138	0.0166267
880.216	0.0166306
880.294	0.0166112
880.372	0.0167790
880.450	0.0167338
880.529	0.0166810
880.607	0.0166730
880.685	0.0166830
880.763	0.0167170
880.841	0.0165124
880.919	0.0164035
880.997	0.0165417
881.075	0.0164077
881.154	0.0164768
881.232	0.0164552
881.310	0.0164645
881.388	0.0163939
881.466	0.0163638
881.544	0.0162894
881.622	0.0162846
881.700	0.0164164
881.779	0.0163623
881.857	0.0163469
881.935	0.0163558
882.013	0.0164328
882.091	0.0164049
882.169	0.0164194
882.247	0.0163449
882.325	0.0165076
882.404	0.0163840
882.482	0.0163084
882.560	0.0165069
882.638	0.0164584
882.716	0.0166556
882.794	0.0167371
882.872	0.0165888
882.950	0.0167465
883.029	0.0167737
883.107	0.0167398
883.185	0.0167471
883.263	0.0167110
883.341	0.0167238
883.419	0.0167367
883.497	0.0166021
883.575	0.0165244
883.654	0.0164673
883.732	0.0163521
883.810	0.0163425
883.888	0.0163524
883.966	0.0161618
884.044	0.0163543
884.122	0.0163325
884.200	0.0161085
884.279	0.0162076
884.357	0.0163747
884.435	0.0162402
884.513	0.0162304
884.591	0.0162835
884.669	0.0162609
884.747	0.0164133
884.825	0.0164492
884.904	0.0163019
884.982	0.0163049
885.060	0.0164899
885.138	0.0163343
885.216	0.0165183
885.294	0.0165986
885.372	0.0165112
885.450	0.0165460
885.529	0.0165091
885.607	0.0166945
885.685	0.0165850
885.763	0.0167085
885.841	0.0165770
885.919	0.0166399
885.997	0.0167569
886.075	0.0166461
886.154	0.0167317
886.232	0.0166589
886.310	0.0166725
886.388	0.0167173
886.466	0.0164850
886.544	0.0167367
886.622	0.0165912
886.700	0.0164832
886.779	0.0166365
886.857	0.0165701
886.935	0.0164362
887.013	0.0165976
887.091	0.0163805
887.169	0.0164923
887.247	0.0164863
887.325	0.0163884
887.404	0.0164342
887.482	0.0162960
887.560	0.0165588
887.638	0.0163432
887.716	0.0164314
887.794	0.0165671
887.872	0.0166018
887.950	0.0165085
888.029	0.0165134
888.107	0.0165710
888.185	0.0167046
888.263	0.0166472
888.341	0.0166898
888.419	0.0166838
888.497	0.0168121
888.575	0.0168287
888.654	0.0164724
888.732	0.0165324
888.810	0.0166116
888.888	0.0165684
888.966	0.0164213
889.044	0.0163871
889.122	0.0164315
889.200	0.0163776
889.279	0.0164680
889.357	0.0163771
889.435	0.0163433
889.513	0.0163526
889.591	0.0163345
889.669	0.0164799
889.747	0.0165113
889.825	0.0163833
889.904	0.0164908
889.982	0.0165017
890.060	0.0165614
890.138	0.0165480
890.216	0.0165262
890.294	0.0165202
890.372	0.0165871
890.450	0.0165417
890.529	0.0164150
890.607	0.0164264
890.685	0.0163687
890.763	0.0162363
890.841	0.0163079
890.919	0.0163298
890.997	0.0161082
891.075	0.0161078
891.154	0.0163507
891.232	0.0163228
891.310	0.0163326
891.388	0.0163685
891.466	0.0163412
891.544	0.0164285
891.622	0.0166192
891.700	0.0165784
891.779	0.0163142
891.857	0.0164922
891.935	0.0166388
892.013	0.0165473
892.091	0.0163619
892.169	0.0165181
892.247	0.0165727
892.325	0.0166415
892.404	0.0165897
892.482	0.0165879
892.560	0.0166153
892.638	0.0168077
892.716	0.0168055
892.794	0.0167058
892.872	0.0167528
892.950	0.0166621
893.029	0.0167836
893.107	0.0166956
893.185	0.0168124
893.263	0.0167783
893.341	0.0167399
893.419	0.0166245
893.497	0.0166930
893.575	0.0164886
893.654	0.0166045
893.732	0.0164279
893.810	0.0165023
893.888	0.0163570
893.966	0.0162944
894.044	0.0162303
894.122	0.0162640
894.200	0.0163892
894.279	0.0163055
894.357	0.0162264
894.435	0.0162829
894.513	0.0164411
894.591	0.0164823
894.669	0.0163199
894.747	0.0163927
894.825	0.0164156
894.904	0.0165790
894.982	0.0165262
895.060	0.0165402
895.138	0.0166122
895.216	0.0167972
895.294	0.0167384
895.372	0.0167883
895.450	0.0167414
895.529	0.0167833
895.607	0.0168572
895.685	0.0168650
895.763	0.0169071
895.841	0.0169702
895.919	0.0168154
895.997	0.0169419
896.075	0.0168679
896.154	0.0166961
896.232	0.0166103
896.310	0.0166586
896.388	0.0166263
896.466	0.0165174
896.544	0.0165665
896.622	0.0166636
896.700	0.0166214
896.779	0.0165190
896.857	0.0165650
896.935	0.0166340
897.013	0.0165170
897.091	0.0166663
897.169	0.0164613
897.247	0.0162367
897.325	0.0164262
897.404	0.0163669
897.482	0.0163496
897.560	0.0161172
897.638	0.0161787
897.716	0.0162993
897.794	0.0163919
897.872	0.0161282
897.950	0.0162523
898.029	0.0163062
898.107	0.0163315
898.185	0.0164079
898.263	0.0164241
898.341	0.0164481
898.419	0.0165428
898.497	0.0164816
898.575	0.0166666
898.654	0.0165656
898.732	0.0165897
898.810	0.0167519
898.888	0.0166591
898.966	0.0166838
899.044	0.0166972
899.122	0.0166764
899.200	0.0166789
899.279	0.0166102
899.357	0.0166961
899.435	0.0167106
899.513	0.0167048
899.591	0.0167036
899.669	0.0166718
899.747	0.0167110
899.825	0.0168131
899.904	0.0167346
899.982	0.0169099
900.060	0.0167417
900.138	0.0168246
900.216	0.0168031
900.294	0.0168422
900.372	0.0168491
900.450	0.0168248
900.529	0.0167301
900.607	0.0166890
900.685	0.0166921
900.763	0.0167046
900.841	0.0165649
900.919	0.0163014
900.997	0.0161636
901.075	0.0163044
901.154	0.0164183
901.232	0.0163459
901.310	0.0162921
901.388	0.0162370
901.466	0.0163456
901.544	0.0164687
901.622	0.0164067
901.700	0.0163412
901.779	0.0165023
901.857	0.0164094
901.935	0.0165230
902.013	0.0165330
902.091	0.0167554
902.169	0.0168369
902.247	0.0168169
902.325	0.0167871
902.404	0.0168745
902.482	0.0168468
902.560	0.0168743
902.638	0.0167343
902.716	0.0167652
902.794	0.0167619
902.872	0.0167278
902.950	0.0167716
903.029	0.0167314
903.107	0.0167348
903.185	0.0167806
903.263	0.0167773
903.341	0.0166289
903.419	0.0167370
903.497	0.0167007
903.575	0.0167003
903.654	0.0166364
903.732	0.0165178
903.810	0.0165118
903.888	0.0165269
903.966	0.0164937
904.044	0.0164140
904.122	0.0163860
904.200	0.0162746
904.279	0.0165068
904.357	0.0163232
904.435	0.0163221
904.513	0.0163539
904.591	0.0164303
904.669	0.0164124
904.747	0.0162399
904.825	0.0161391
904.904	0.0162847
904.982	0.0162379
905.060	0.0163227
905.138	0.0162463
905.216	0.0163735
905.294	0.0163138
905.372	0.0163348
905.450	0.0163494
905.529	0.0164697
905.607	0.0166203
905.685	0.0166361
905.763	0.0165141
905.841	0.0166338
905.919	0.0165681
905.997	0.0166125
906.075	0.0166882
906.154	0.0166555
906.232	0.0166445
906.310	0.0166123
906.388	0.0166589
906.466	0.0166800
906.544	0.0166819
906.622	0.0166465
906.700	0.0165942
906.779	0.0166961
906.857	0.0167467
906.935	0.0167334
907.013	0.0167275
907.091	0.0166582
907.169	0.0165932
907.247	0.0166364
907.325	0.0167279
907.404	0.0166833
907.482	0.0166613
907.560	0.0165519
907.638	0.0164970
907.716	0.0165748
907.794	0.0165361
907.872	0.0164466
907.950	0.0164577
908.029	0.0165864
908.107	0.0165883
908.185	0.0165736
908.263	0.0166114
908.341	0.0166753
908.419	0.0164713
908.497	0.0166051
908.575	0.0167012
908.654	0.0167622
908.732	0.0167696
908.810	0.0166940
908.888	0.0166664
908.966	0.0167521
909.044	0.0167764
909.122	0.0167262
909.200	0.0167537
909.279	0.0167117
909.357	0.0166292
909.435	0.0166599
909.513	0.0165978
909.591	0.0164635
909.669	0.0164515
909.747	0.0165797
909.825	0.0164663
909.904	0.0164543
909.982	0.0164294
910.060	0.0163451
910.138	0.0163270
910.216	0.0163973
910.294	0.0164944
910.372	0.0163625
910.450	0.0165367
910.529	0.0164797
910.607	0.0165532
910.685	0.0165086
910.763	0.0164846
910.841	0.0164767
910.919	0.0164117
910.997	0.0164561
911.075	0.0163253
911.154	0.0163412
911.232	0.0163256
911.310	0.0162386
911.388	0.0164352
911.466	0.0162691
911.544	0.0161724
911.622	0.0163023
911.700	0.0162912
911.779	0.0162729
911.857	0.0164234
911.935	0.0165232
912.013	0.0165346
912.091	0.0166627
912.169	0.0166410
912.247	0.0165479
912.325	0.0166504
912.404	0.0165999
912.482	0.0164610
912.560	0.0166700
912.638	0.0165929
912.716	0.0165266
912.794	0.0165303
912.872	0.0164578
912.950	0.0166454
913.029	0.0165132
913.107	0.0164702
913.185	0.0165548
913.263	0.0164672
913.341	0.0166189
913.419	0.0164595
913.497	0.0164207
913.575	0.0165788
913.654	0.0163561
913.732	0.0165553
913.810	0.0165342
913.888	0.0164898
913.966	0.0166136
914.044	0.0165274
914.122	0.0165209
914.200	0.0164896
914.279	0.0164469
914.357	0.0164106
914.435	0.0164507
914.513	0.0163941
914.591	0.0165443
914.669	0.0164516
914.747	0.0165135
914.825	0.0163919
914.904	0.0164525
914.982	0.0163963
915.060	0.0164415
915.138	0.0164207
915.216	0.0165195
915.294	0.0164571
915.372	0.0165533
915.450	0.0165186
915.529	0.0164028
915.607	0.0164923
915.685	0.0164938
915.763	0.0165372
915.841	0.0165786
915.919	0.0164635
915.997	0.0164321
916.075	0.0163020
916.154	0.0164140
916.232	0.0164319
916.310	0.0164376
916.388	0.0164847
916.466	0.0163525
916.544	0.0163286
916.622	0.0163844
916.700	0.0162888
916.779	0.0164578
916.857	0.0164302
916.935	0.0164412
917.013	0.0164003
917.091	0.0165501
917.169	0.0165403
917.247	0.0166788
917.325	0.0166503
917.404	0.0165009
917.482	0.0165778
917.560	0.0165656
917.638	0.0164867
917.716	0.0166730
917.794	0.0166669
917.872	0.0166315
917.950	0.0165179
918.029	0.0164955
918.107	0.0166598
918.185	0.0165319
918.263	0.0166781
918.341	0.0165300
918.419	0.0164654
918.497	0.0164619
918.575	0.0164060
918.654	0.0164828
918.732	0.0164668
918.810	0.0163923
918.888	0.0164925
918.966	0.0163911
919.044	0.0162273
919.122	0.0164018
919.200	0.0164742
919.279	0.0164158
919.357	0.0164870
919.435	0.0163226
919.513	0.0164746
919.591	0.0165345
919.669	0.0165693
919.747	0.0165435
919.825	0.0165726
919.904	0.0164974
