06/03/2022	14:13:30	Ver.	4.1	UNKNOWN
Optical Delay	599.981738	Delta X		0.078125	Sweeps	1	Scan Rate	0/0
Coordinates	Axis 1	NaN	Axis 2	NaN	Axis 3	NaN	Axis 4	NaN	Axis 5	NaN	Axis 6	0.000000
TX Power	0.000000	RX Power	0.000000

599.982	0.0162724
600.060	0.0163465
600.138	0.0162447
600.216	0.0162809
600.294	0.0162904
600.372	0.0162920
600.450	0.0163250
600.529	0.0164105
600.607	0.0162198
600.685	0.0164095
600.763	0.0163679
600.841	0.0164112
600.919	0.0162845
600.997	0.0163063
601.075	0.0164268
601.154	0.0164014
601.232	0.0163476
601.310	0.0163260
601.388	0.0163096
601.466	0.0163576
601.544	0.0164325
601.622	0.0162476
601.700	0.0163264
601.779	0.0163275
601.857	0.0162218
601.935	0.0162325
602.013	0.0163063
602.091	0.0163890
602.169	0.0164689
602.247	0.0162595
602.325	0.0162611
602.404	0.0162523
602.482	0.0162654
602.560	0.0162820
602.638	0.0163718
602.716	0.0162054
602.794	0.0163529
602.872	0.0164577
602.950	0.0163628
603.029	0.0162000
603.107	0.0162308
603.185	0.0161958
603.263	0.0162253
603.341	0.0161483
603.419	0.0163286
603.497	0.0163718
603.575	0.0162485
603.654	0.0161057
603.732	0.0162157
603.810	0.0163277
603.888	0.0162197
603.966	0.0162456
604.044	0.0161684
604.122	0.0161416
604.200	0.0162244
604.279	0.0163375
604.357	0.0163554
604.435	0.0163458
604.513	0.0162785
604.591	0.0163218
604.669	0.0161916
604.747	0.0163535
604.825	0.0162762
604.904	0.0162446
604.982	0.0163141
605.060	0.0163245
605.138	0.0162950
605.216	0.0164367
605.294	0.0162509
605.372	0.0164432
605.450	0.0164089
605.529	0.0162899
605.607	0.0164359
605.685	0.0163486
605.763	0.0162389
605.841	0.0163925
605.919	0.0163534
605.997	0.0162228
606.075	0.0164416
606.154	0.0163270
606.232	0.0163953
606.310	0.0163586
606.388	0.0162946
606.466	0.0163822
606.544	0.0163502
606.622	0.0163578
606.700	0.0163281
606.779	0.0162897
606.857	0.0164072
606.935	0.0162644
607.013	0.0163428
607.091	0.0162135
607.169	0.0163074
607.247	0.0162727
607.325	0.0162988
607.404	0.0162932
607.482	0.0163071
607.560	0.0162494
607.638	0.0161391
607.716	0.0162450
607.794	0.0163370
607.872	0.0162656
607.950	0.0163171
608.029	0.0163952
608.107	0.0162858
608.185	0.0162594
608.263	0.0163348
608.341	0.0163806
608.419	0.0162807
608.497	0.0162303
608.575	0.0161240
608.654	0.0161872
608.732	0.0163359
608.810	0.0164172
608.888	0.0162486
608.966	0.0162570
609.044	0.0164271
609.122	0.0162257
609.200	0.0162457
609.279	0.0163423
609.357	0.0160904
609.435	0.0160531
609.513	0.0163773
609.591	0.0164555
609.669	0.0161974
609.747	0.0162222
609.825	0.0163148
609.904	0.0163282
609.982	0.0163248
610.060	0.0162535
610.138	0.0163094
610.216	0.0163448
610.294	0.0163100
610.372	0.0162411
610.450	0.0161647
610.529	0.0163054
610.607	0.0162035
610.685	0.0163758
610.763	0.0163631
610.841	0.0162679
610.919	0.0161736
610.997	0.0163231
611.075	0.0162688
611.154	0.0162690
611.232	0.0163191
611.310	0.0162691
611.388	0.0162499
611.466	0.0163668
611.544	0.0163190
611.622	0.0162945
611.700	0.0162395
611.779	0.0163556
611.857	0.0161860
611.935	0.0162047
612.013	0.0162231
612.091	0.0163419
612.169	0.0163399
612.247	0.0163323
612.325	0.0162795
612.404	0.0161905
612.482	0.0163363
612.560	0.0162869
612.638	0.0162756
612.716	0.0163083
612.794	0.0163310
612.872	0.0162698
612.950	0.0162147
613.029	0.0161871
613.107	0.0162833
613.185	0.0163631
613.263	0.0163280
613.341	0.0163287
613.419	0.0162354
613.497	0.0164072
613.575	0.0162540
613.654	0.0160889
613.732	0.0162603
613.810	0.0163022
613.888	0.0163480
613.966	0.0162792
614.044	0.0162206
614.122	0.0162576
614.200	0.0162601
614.279	0.0161746
614.357	0.0163048
614.435	0.0163329
614.513	0.0161482
614.591	0.0163014
614.669	0.0164317
614.747	0.0162921
614.825	0.0161937
614.904	0.0161639
614.982	0.0161726
615.060	0.0162878
615.138	0.0164094
615.216	0.0161660
615.294	0.0163080
615.372	0.0163413
615.450	0.0163165
615.529	0.0162563
615.607	0.0162422
615.685	0.0162955
615.763	0.0161474
615.841	0.0162211
615.919	0.0163338
615.997	0.0161523
616.075	0.0162504
616.154	0.0161926
616.232	0.0162857
616.310	0.0163284
616.388	0.0162660
616.466	0.0162831
616.544	0.0162038
616.622	0.0164391
616.700	0.0163895
616.779	0.0161618
616.857	0.0161565
616.935	0.0163067
617.013	0.0163208
617.091	0.0163228
617.169	0.0163110
617.247	0.0163535
617.325	0.0162732
617.404	0.0162540
617.482	0.0163808
617.560	0.0164914
617.638	0.0161960
617.716	0.0161867
617.794	0.0162880
617.872	0.0163986
617.950	0.0164111
618.029	0.0163553
618.107	0.0163843
618.185	0.0163343
618.263	0.0163162
618.341	0.0164389
618.419	0.0163069
618.497	0.0162563
618.575	0.0164142
618.654	0.0164406
618.732	0.0164380
618.810	0.0162444
618.888	0.0162173
618.966	0.0163609
619.044	0.0163744
619.122	0.0163044
619.200	0.0162531
619.279	0.0163853
619.357	0.0163934
619.435	0.0162107
619.513	0.0163818
619.591	0.0163058
619.669	0.0162729
619.747	0.0163611
619.825	0.0162314
619.904	0.0161895
619.982	0.0162144
620.060	0.0163012
620.138	0.0163845
620.216	0.0163645
620.294	0.0162196
620.372	0.0162381
620.450	0.0163393
620.529	0.0162652
620.607	0.0163155
620.685	0.0163651
620.763	0.0164233
620.841	0.0163562
620.919	0.0162926
620.997	0.0163666
621.075	0.0163670
621.154	0.0163447
621.232	0.0164026
621.310	0.0163156
621.388	0.0162841
621.466	0.0162647
621.544	0.0162672
621.622	0.0163868
621.700	0.0163436
621.779	0.0163538
621.857	0.0163096
621.935	0.0162974
622.013	0.0164146
622.091	0.0163534
622.169	0.0163245
622.247	0.0163197
622.325	0.0163705
622.404	0.0163034
622.482	0.0161917
622.560	0.0164034
622.638	0.0164356
622.716	0.0163002
622.794	0.0161877
622.872	0.0162811
622.950	0.0163346
623.029	0.0162910
623.107	0.0163566
623.185	0.0162598
623.263	0.0161901
623.341	0.0162971
623.419	0.0163711
623.497	0.0163221
623.575	0.0162894
623.654	0.0163499
623.732	0.0162572
623.810	0.0161813
623.888	0.0163390
623.966	0.0162944
624.044	0.0162663
624.122	0.0163341
624.200	0.0162553
624.279	0.0163219
624.357	0.0163770
624.435	0.0163458
624.513	0.0163633
624.591	0.0161415
624.669	0.0162572
624.747	0.0163201
624.825	0.0162452
624.904	0.0162131
624.982	0.0164951
625.060	0.0162820
625.138	0.0162257
625.216	0.0162971
625.294	0.0162208
625.372	0.0161591
625.450	0.0163321
625.529	0.0162183
625.607	0.0162566
625.685	0.0163131
625.763	0.0163462
625.841	0.0163146
625.919	0.0162272
625.997	0.0162297
626.075	0.0162628
626.154	0.0162569
626.232	0.0163374
626.310	0.0162856
626.388	0.0161762
626.466	0.0163052
626.544	0.0163057
626.622	0.0161803
626.700	0.0162768
626.779	0.0162838
626.857	0.0162801
626.935	0.0161361
627.013	0.0162867
627.091	0.0163955
627.169	0.0162496
627.247	0.0162759
627.325	0.0162221
627.404	0.0162380
627.482	0.0163279
627.560	0.0162759
627.638	0.0162771
627.716	0.0162531
627.794	0.0163137
627.872	0.0163247
627.950	0.0163187
628.029	0.0163477
628.107	0.0163825
628.185	0.0163211
628.263	0.0162403
628.341	0.0162981
628.419	0.0164302
628.497	0.0162373
628.575	0.0162608
628.654	0.0162800
628.732	0.0162473
628.810	0.0162989
628.888	0.0163450
628.966	0.0164091
629.044	0.0162334
629.122	0.0164625
629.200	0.0164922
629.279	0.0162913
629.357	0.0164996
629.435	0.0163281
629.513	0.0164858
629.591	0.0165540
629.669	0.0163965
629.747	0.0163676
629.825	0.0161866
629.904	0.0161638
629.982	0.0161919
630.060	0.0162141
630.138	0.0160394
630.216	0.0160344
630.294	0.0160930
630.372	0.0160270
630.450	0.0159194
630.529	0.0160302
630.607	0.0162120
630.685	0.0162106
630.763	0.0163079
630.841	0.0164371
630.919	0.0166036
630.997	0.0167010
631.075	0.0166582
631.154	0.0165819
631.232	0.0167766
631.310	0.0166885
631.388	0.0165504
631.466	0.0163812
631.544	0.0161850
631.622	0.0161204
631.700	0.0159309
631.779	0.0158183
631.857	0.0157668
631.935	0.0159035
632.013	0.0158800
632.091	0.0159580
632.169	0.0162775
632.247	0.0164703
632.325	0.0165720
632.404	0.0167996
632.482	0.0168268
632.560	0.0170731
632.638	0.0170926
632.716	0.0170576
632.794	0.0168723
632.872	0.0166682
632.950	0.0164233
633.029	0.0163229
633.107	0.0161713
633.185	0.0159983
633.263	0.0157872
633.341	0.0157022
633.419	0.0156340
633.497	0.0157255
633.575	0.0155998
633.654	0.0157757
633.732	0.0159376
633.810	0.0160542
633.888	0.0161929
633.966	0.0163470
634.044	0.0165113
634.122	0.0167306
634.200	0.0168861
634.279	0.0168568
634.357	0.0168575
634.435	0.0168898
634.513	0.0167558
634.591	0.0164793
634.669	0.0162858
634.747	0.0161348
634.825	0.0160540
634.904	0.0158699
634.982	0.0157800
635.060	0.0158031
635.138	0.0156847
635.216	0.0159655
635.294	0.0159537
635.372	0.0163590
635.450	0.0163825
635.529	0.0165457
635.607	0.0166245
635.685	0.0165293
635.763	0.0165540
635.841	0.0166354
635.919	0.0166901
635.997	0.0165450
636.075	0.0162868
636.154	0.0162531
636.232	0.0161736
636.310	0.0164045
636.388	0.0163299
636.466	0.0161920
636.544	0.0162797
636.622	0.0163978
636.700	0.0163674
636.779	0.0164947
636.857	0.0165971
636.935	0.0165063
637.013	0.0164632
637.091	0.0164159
637.169	0.0163151
637.247	0.0162949
637.325	0.0163292
637.404	0.0161032
637.482	0.0159754
637.560	0.0160448
637.638	0.0159137
637.716	0.0159317
637.794	0.0160670
637.872	0.0161197
637.950	0.0162146
638.029	0.0163277
638.107	0.0164624
638.185	0.0164333
638.263	0.0165246
638.341	0.0167771
638.419	0.0168059
638.497	0.0167101
638.575	0.0166354
638.654	0.0166292
638.732	0.0164018
638.810	0.0163728
638.888	0.0162148
638.966	0.0161490
639.044	0.0161739
639.122	0.0160241
639.200	0.0159187
639.279	0.0160444
639.357	0.0160022
639.435	0.0160217
639.513	0.0159986
639.591	0.0161811
639.669	0.0161133
639.747	0.0162351
639.825	0.0162982
639.904	0.0164896
639.982	0.0163760
640.060	0.0163742
640.138	0.0163931
640.216	0.0165779
640.294	0.0166490
640.372	0.0165686
640.450	0.0165887
640.529	0.0164491
640.607	0.0163659
640.685	0.0164162
640.763	0.0163348
640.841	0.0162752
640.919	0.0161031
640.997	0.0161053
641.075	0.0161122
641.154	0.0160186
641.232	0.0159502
641.310	0.0159711
641.388	0.0161540
641.466	0.0163222
641.544	0.0164988
641.622	0.0164296
641.700	0.0164865
641.779	0.0166291
641.857	0.0166274
641.935	0.0165537
642.013	0.0164703
642.091	0.0163359
642.169	0.0164224
642.247	0.0163526
642.325	0.0162406
642.404	0.0161636
642.482	0.0161272
642.560	0.0161627
642.638	0.0162969
642.716	0.0163852
642.794	0.0164448
642.872	0.0164525
642.950	0.0165048
643.029	0.0166034
643.107	0.0164300
643.185	0.0163941
643.263	0.0165265
643.341	0.0163514
643.419	0.0161619
643.497	0.0160541
643.575	0.0159905
643.654	0.0159251
643.732	0.0159942
643.810	0.0159154
643.888	0.0159744
643.966	0.0158754
644.044	0.0160664
644.122	0.0162378
644.200	0.0163927
644.279	0.0165048
644.357	0.0165575
644.435	0.0167078
644.513	0.0166090
644.591	0.0167646
644.669	0.0165432
644.747	0.0164539
644.825	0.0164769
644.904	0.0164684
644.982	0.0164066
645.060	0.0163837
645.138	0.0161835
645.216	0.0160561
645.294	0.0159326
645.372	0.0159745
645.450	0.0160158
645.529	0.0157849
645.607	0.0158684
645.685	0.0160385
645.763	0.0160584
645.841	0.0163670
645.919	0.0165768
645.997	0.0165596
646.075	0.0166850
646.154	0.0168480
646.232	0.0168605
646.310	0.0167891
646.388	0.0167992
646.466	0.0166637
646.544	0.0165950
646.622	0.0163683
646.700	0.0163084
646.779	0.0162514
646.857	0.0161868
646.935	0.0161350
647.013	0.0160281
647.091	0.0159200
647.169	0.0160397
647.247	0.0159889
647.325	0.0160401
647.404	0.0161198
647.482	0.0161545
647.560	0.0161784
647.638	0.0162276
647.716	0.0162334
647.794	0.0162275
647.872	0.0163404
647.950	0.0164754
648.029	0.0164938
648.107	0.0164973
648.185	0.0164680
648.263	0.0164023
648.341	0.0163464
648.419	0.0165347
648.497	0.0164251
648.575	0.0162482
648.654	0.0164329
648.732	0.0163545
648.810	0.0162945
648.888	0.0163727
648.966	0.0162730
649.044	0.0161228
649.122	0.0161762
649.200	0.0162193
649.279	0.0161308
649.357	0.0160357
649.435	0.0162499
649.513	0.0161963
649.591	0.0161668
649.669	0.0162878
649.747	0.0163337
649.825	0.0162330
649.904	0.0164439
649.982	0.0164620
650.060	0.0165452
650.138	0.0165627
650.216	0.0163663
650.294	0.0163567
650.372	0.0162028
650.450	0.0162798
650.529	0.0162062
650.607	0.0162080
650.685	0.0161977
650.763	0.0161400
650.841	0.0160592
650.919	0.0162303
650.997	0.0162089
651.075	0.0161914
651.154	0.0162344
651.232	0.0162947
651.310	0.0164752
651.388	0.0164275
651.466	0.0163626
651.544	0.0163184
651.622	0.0162708
651.700	0.0163721
651.779	0.0163860
651.857	0.0162022
651.935	0.0163245
652.013	0.0162347
652.091	0.0163062
652.169	0.0162795
652.247	0.0162897
652.325	0.0162705
652.404	0.0162289
652.482	0.0161541
652.560	0.0159977
652.638	0.0161583
652.716	0.0160484
652.794	0.0160381
652.872	0.0161044
652.950	0.0162316
653.029	0.0160067
653.107	0.0161086
653.185	0.0163863
653.263	0.0164393
653.341	0.0162021
653.419	0.0162426
653.497	0.0162855
653.575	0.0162391
653.654	0.0163313
653.732	0.0164098
653.810	0.0163808
653.888	0.0163203
653.966	0.0163507
654.044	0.0162370
654.122	0.0161926
654.200	0.0164227
654.279	0.0163708
654.357	0.0164693
654.435	0.0163209
654.513	0.0163018
654.591	0.0163490
654.669	0.0162838
654.747	0.0164101
654.825	0.0164447
654.904	0.0164666
654.982	0.0163384
655.060	0.0163556
655.138	0.0161823
655.216	0.0163149
655.294	0.0161251
655.372	0.0159615
655.450	0.0159649
655.529	0.0159376
655.607	0.0158448
655.685	0.0157432
655.763	0.0155246
655.841	0.0156654
655.919	0.0159243
655.997	0.0157206
656.075	0.0158829
656.154	0.0160779
656.232	0.0161308
656.310	0.0163762
656.388	0.0163657
656.466	0.0165309
656.544	0.0166543
656.622	0.0166228
656.700	0.0166520
656.779	0.0166865
656.857	0.0167332
656.935	0.0167555
657.013	0.0166445
657.091	0.0166345
657.169	0.0166853
657.247	0.0165783
657.325	0.0164639
657.404	0.0165479
657.482	0.0166161
657.560	0.0165234
657.638	0.0164919
657.716	0.0164023
657.794	0.0164665
657.872	0.0164414
657.950	0.0165263
658.029	0.0163555
658.107	0.0163975
658.185	0.0164577
658.263	0.0162893
658.341	0.0162332
658.419	0.0160847
658.497	0.0161294
658.575	0.0161502
658.654	0.0161224
658.732	0.0161126
658.810	0.0160725
658.888	0.0160846
658.966	0.0159974
659.044	0.0160256
659.122	0.0160654
659.200	0.0161778
659.279	0.0160674
659.357	0.0160949
659.435	0.0162392
659.513	0.0161795
659.591	0.0161457
659.669	0.0161970
659.747	0.0161675
659.825	0.0161140
659.904	0.0161675
659.982	0.0162981
660.060	0.0163309
660.138	0.0162883
660.216	0.0161651
660.294	0.0161115
660.372	0.0161429
660.450	0.0160239
660.529	0.0160614
660.607	0.0160245
660.685	0.0159901
660.763	0.0158552
660.841	0.0158893
660.919	0.0160303
660.997	0.0160764
661.075	0.0161439
661.154	0.0160334
661.232	0.0161703
661.310	0.0161446
661.388	0.0161569
661.466	0.0163493
661.544	0.0163768
661.622	0.0163969
661.700	0.0165163
661.779	0.0165115
661.857	0.0166282
661.935	0.0167979
662.013	0.0168333
662.091	0.0168778
662.169	0.0169218
662.247	0.0166882
662.325	0.0167966
662.404	0.0167355
662.482	0.0168725
662.560	0.0167341
662.638	0.0166755
662.716	0.0165321
662.794	0.0164371
662.872	0.0163669
662.950	0.0162810
663.029	0.0162116
663.107	0.0159415
663.185	0.0158002
663.263	0.0158563
663.341	0.0157259
663.419	0.0156461
663.497	0.0156580
663.575	0.0158070
663.654	0.0158954
663.732	0.0158244
663.810	0.0158157
663.888	0.0159844
663.966	0.0160812
664.044	0.0159600
664.122	0.0161668
664.200	0.0160921
664.279	0.0159782
664.357	0.0159433
664.435	0.0160052
664.513	0.0159587
664.591	0.0160043
664.669	0.0157644
664.747	0.0156715
664.825	0.0157607
664.904	0.0157481
664.982	0.0158196
665.060	0.0160146
665.138	0.0160160
665.216	0.0159608
665.294	0.0162747
665.372	0.0162564
665.450	0.0162640
665.529	0.0164094
665.607	0.0165611
665.685	0.0166232
665.763	0.0167168
665.841	0.0168484
665.919	0.0166993
665.997	0.0168861
666.075	0.0168972
666.154	0.0168989
666.232	0.0169882
666.310	0.0167871
666.388	0.0168603
666.466	0.0168565
666.544	0.0165998
666.622	0.0166471
666.700	0.0165807
666.779	0.0163522
666.857	0.0164117
666.935	0.0162856
667.013	0.0160896
667.091	0.0160589
667.169	0.0159774
667.247	0.0159050
667.325	0.0157904
667.404	0.0159774
667.482	0.0158716
667.560	0.0158885
667.638	0.0159698
667.716	0.0160416
667.794	0.0160680
667.872	0.0161233
667.950	0.0162411
668.029	0.0163095
668.107	0.0162843
668.185	0.0164356
668.263	0.0164085
668.341	0.0164785
668.419	0.0163770
668.497	0.0164242
668.575	0.0162724
668.654	0.0162745
668.732	0.0163959
668.810	0.0163029
668.888	0.0163737
668.966	0.0163461
669.044	0.0163444
669.122	0.0162008
669.200	0.0161715
669.279	0.0162206
669.357	0.0160709
669.435	0.0160811
669.513	0.0161404
669.591	0.0161743
669.669	0.0162110
669.747	0.0162179
669.825	0.0161147
669.904	0.0161287
669.982	0.0162495
670.060	0.0161676
670.138	0.0163536
670.216	0.0160751
670.294	0.0161393
670.372	0.0162701
670.450	0.0163883
670.529	0.0163866
670.607	0.0163612
670.685	0.0161732
670.763	0.0162320
670.841	0.0160675
670.919	0.0161655
670.997	0.0159807
671.075	0.0159182
671.154	0.0158903
671.232	0.0157787
671.310	0.0156143
671.388	0.0157140
671.466	0.0157210
671.544	0.0157417
671.622	0.0158055
671.700	0.0161445
671.779	0.0161966
671.857	0.0164304
671.935	0.0166022
672.013	0.0168787
672.091	0.0170741
672.169	0.0171006
672.247	0.0171967
672.325	0.0172472
672.404	0.0172443
672.482	0.0172549
672.560	0.0170172
672.638	0.0168759
672.716	0.0168452
672.794	0.0165218
672.872	0.0163389
672.950	0.0161927
673.029	0.0158864
673.107	0.0156554
673.185	0.0156150
673.263	0.0156329
673.341	0.0154285
673.419	0.0155343
673.497	0.0156244
673.575	0.0156259
673.654	0.0157667
673.732	0.0158854
673.810	0.0160994
673.888	0.0161104
673.966	0.0162595
674.044	0.0162659
674.122	0.0164720
674.200	0.0164857
674.279	0.0167055
674.357	0.0166862
674.435	0.0166310
674.513	0.0169876
674.591	0.0168872
674.669	0.0168896
674.747	0.0166703
674.825	0.0165743
674.904	0.0165887
674.982	0.0164176
675.060	0.0161696
675.138	0.0160812
675.216	0.0160144
675.294	0.0157590
675.372	0.0156592
675.450	0.0157520
675.529	0.0156504
675.607	0.0157191
675.685	0.0158157
675.763	0.0158752
675.841	0.0160266
675.919	0.0162283
675.997	0.0164320
676.075	0.0166425
676.154	0.0167896
676.232	0.0169732
676.310	0.0169870
676.388	0.0170509
676.466	0.0170947
676.544	0.0169958
676.622	0.0168760
676.700	0.0166994
676.779	0.0165070
676.857	0.0163393
676.935	0.0161774
677.013	0.0159206
677.091	0.0156559
677.169	0.0155839
677.247	0.0157378
677.325	0.0155923
677.404	0.0156918
677.482	0.0158479
677.560	0.0157491
677.638	0.0159034
677.716	0.0161147
677.794	0.0161779
677.872	0.0163414
677.950	0.0164375
678.029	0.0163936
678.107	0.0165004
678.185	0.0163157
678.263	0.0161746
678.341	0.0161977
678.419	0.0160278
678.497	0.0159921
678.575	0.0160589
678.654	0.0159122
678.732	0.0157344
678.810	0.0158331
678.888	0.0157207
678.966	0.0157067
679.044	0.0158679
679.122	0.0159788
679.200	0.0160789
679.279	0.0161244
679.357	0.0161744
679.435	0.0162791
679.513	0.0164433
679.591	0.0167728
679.669	0.0170404
679.747	0.0170616
679.825	0.0172977
679.904	0.0174321
679.982	0.0175739
680.060	0.0176478
680.138	0.0175481
680.216	0.0173788
680.294	0.0173912
680.372	0.0170909
680.450	0.0168738
680.529	0.0166190
680.607	0.0163412
680.685	0.0161674
680.763	0.0159698
680.841	0.0157362
680.919	0.0157128
680.997	0.0156133
681.075	0.0157452
681.154	0.0157925
681.232	0.0159657
681.310	0.0162654
681.388	0.0163933
681.466	0.0165255
681.544	0.0167142
681.622	0.0168987
681.700	0.0170065
681.779	0.0171556
681.857	0.0171023
681.935	0.0169965
682.013	0.0168845
682.091	0.0165494
682.169	0.0162855
682.247	0.0160397
682.325	0.0157258
682.404	0.0155266
682.482	0.0151585
682.560	0.0148828
682.638	0.0148196
682.716	0.0147374
682.794	0.0147987
682.872	0.0148890
682.950	0.0151227
683.029	0.0154026
683.107	0.0157178
683.185	0.0159921
683.263	0.0163197
683.341	0.0166167
683.419	0.0170420
683.497	0.0173495
683.575	0.0174364
683.654	0.0175957
683.732	0.0175210
683.810	0.0175995
683.888	0.0176569
683.966	0.0173548
684.044	0.0173185
684.122	0.0170288
684.200	0.0169615
684.279	0.0164552
684.357	0.0160693
684.435	0.0159009
684.513	0.0156554
684.591	0.0153384
684.669	0.0153138
684.747	0.0151580
684.825	0.0151556
684.904	0.0151972
684.982	0.0152442
685.060	0.0155003
685.138	0.0155696
685.216	0.0158242
685.294	0.0159787
685.372	0.0161283
685.450	0.0160841
685.529	0.0159608
685.607	0.0159346
685.685	0.0158874
685.763	0.0158990
685.841	0.0159062
685.919	0.0158083
685.997	0.0158164
686.075	0.0157822
686.154	0.0157565
686.232	0.0158070
686.310	0.0157008
686.388	0.0156451
686.466	0.0158154
686.544	0.0159643
686.622	0.0155943
686.700	0.0157740
686.779	0.0157330
686.857	0.0157632
686.935	0.0159389
687.013	0.0159418
687.091	0.0161843
687.169	0.0163766
687.247	0.0168372
687.325	0.0171031
687.404	0.0172981
687.482	0.0175932
687.560	0.0178146
687.638	0.0180741
687.716	0.0183066
687.794	0.0182508
687.872	0.0182140
687.950	0.0184932
688.029	0.0184474
688.107	0.0186374
688.185	0.0185738
688.263	0.0183822
688.341	0.0182226
688.419	0.0181747
688.497	0.0179188
688.575	0.0178391
688.654	0.0175108
688.732	0.0171642
688.810	0.0167933
688.888	0.0165502
688.966	0.0159782
689.044	0.0156637
689.122	0.0154053
689.200	0.0149901
689.279	0.0146498
689.357	0.0143610
689.435	0.0142699
689.513	0.0139426
689.591	0.0137736
689.669	0.0137678
689.747	0.0136733
689.825	0.0137214
689.904	0.0139272
689.982	0.0142967
690.060	0.0147507
690.138	0.0148860
690.216	0.0154350
690.294	0.0159486
690.372	0.0161224
690.450	0.0165208
690.529	0.0166400
690.607	0.0167757
690.685	0.0168202
690.763	0.0169741
690.841	0.0169680
690.919	0.0166806
690.997	0.0167230
691.075	0.0167373
691.154	0.0165959
691.232	0.0164449
691.310	0.0164320
691.388	0.0165208
691.466	0.0163208
691.544	0.0163437
691.622	0.0162844
691.700	0.0159840
691.779	0.0158370
691.857	0.0156461
691.935	0.0155259
692.013	0.0153417
692.091	0.0150495
692.169	0.0150957
692.247	0.0150516
692.325	0.0150843
692.404	0.0151720
692.482	0.0153609
692.560	0.0156691
692.638	0.0157906
692.716	0.0161005
692.794	0.0164787
692.872	0.0167157
692.950	0.0171097
693.029	0.0173175
693.107	0.0175731
693.185	0.0174930
693.263	0.0177382
693.341	0.0178819
693.419	0.0178001
693.497	0.0176978
693.575	0.0176622
693.654	0.0172328
693.732	0.0170402
693.810	0.0169771
693.888	0.0166688
693.966	0.0165096
694.044	0.0163454
694.122	0.0159696
694.200	0.0160321
694.279	0.0161268
694.357	0.0158942
694.435	0.0162614
694.513	0.0164585
694.591	0.0166274
694.669	0.0166744
694.747	0.0170003
694.825	0.0169110
694.904	0.0170889
694.982	0.0171854
695.060	0.0172694
695.138	0.0171669
695.216	0.0172193
695.294	0.0170958
695.372	0.0171402
695.450	0.0169440
695.529	0.0169516
695.607	0.0169058
695.685	0.0166708
695.763	0.0167242
695.841	0.0164605
695.919	0.0164211
695.997	0.0162927
696.075	0.0161768
696.154	0.0162242
696.232	0.0162180
696.310	0.0162444
696.388	0.0161059
696.466	0.0161596
696.544	0.0164270
696.622	0.0164117
696.700	0.0165453
696.779	0.0166074
696.857	0.0166194
696.935	0.0165146
697.013	0.0165513
697.091	0.0164188
697.169	0.0164017
697.247	0.0162599
697.325	0.0159550
697.404	0.0159529
697.482	0.0157979
697.560	0.0156693
697.638	0.0155731
697.716	0.0153701
697.794	0.0152569
697.872	0.0152941
697.950	0.0151520
698.029	0.0151428
698.107	0.0151766
698.185	0.0149756
698.263	0.0146876
698.341	0.0143594
698.419	0.0142924
698.497	0.0139858
698.575	0.0137761
698.654	0.0136420
698.732	0.0133085
698.810	0.0130803
698.888	0.0130789
698.966	0.0131161
699.044	0.0131174
699.122	0.0131499
699.200	0.0134843
699.279	0.0139919
699.357	0.0143377
699.435	0.0147835
699.513	0.0152984
699.591	0.0160448
699.669	0.0167094
699.747	0.0173175
699.825	0.0177293
699.904	0.0185801
699.982	0.0192361
700.060	0.0197404
700.138	0.0201357
700.216	0.0205741
700.294	0.0207988
700.372	0.0209953
700.450	0.0210861
700.529	0.0210790
700.607	0.0208540
700.685	0.0206828
700.763	0.0205819
700.841	0.0203159
700.919	0.0200456
700.997	0.0197025
701.075	0.0193526
701.154	0.0190618
701.232	0.0188522
701.310	0.0187457
701.388	0.0181902
701.466	0.0180037
701.544	0.0177439
701.622	0.0172133
701.700	0.0168746
701.779	0.0165324
701.857	0.0160460
701.935	0.0155350
702.013	0.0153560
702.091	0.0147461
702.169	0.0142857
702.247	0.0139496
702.325	0.0136179
702.404	0.0132047
702.482	0.0128595
702.560	0.0128254
702.638	0.0125314
702.716	0.0123527
702.794	0.0124511
702.872	0.0125605
702.950	0.0126588
703.029	0.0128223
703.107	0.0131388
703.185	0.0136724
703.263	0.0139244
703.341	0.0144883
703.419	0.0151698
703.497	0.0154987
703.575	0.0161523
703.654	0.0165543
703.732	0.0169939
703.810	0.0174377
703.888	0.0176423
703.966	0.0179219
704.044	0.0179898
704.122	0.0182333
704.200	0.0183048
704.279	0.0183183
704.357	0.0182321
704.435	0.0182457
704.513	0.0181411
704.591	0.0179628
704.669	0.0177720
704.747	0.0177457
704.825	0.0173625
704.904	0.0169619
704.982	0.0167664
705.060	0.0165711
705.138	0.0162830
705.216	0.0157216
705.294	0.0154449
705.372	0.0150724
705.450	0.0148227
705.529	0.0146117
705.607	0.0141386
705.685	0.0137240
705.763	0.0134831
705.841	0.0133978
705.919	0.0132854
705.997	0.0131144
706.075	0.0132188
706.154	0.0133925
706.232	0.0134835
706.310	0.0135539
706.388	0.0138969
706.466	0.0142030
706.544	0.0143963
706.622	0.0150063
706.700	0.0154179
706.779	0.0157970
706.857	0.0161852
706.935	0.0167089
707.013	0.0171037
707.091	0.0176450
707.169	0.0181731
707.247	0.0186589
707.325	0.0191158
707.404	0.0195341
707.482	0.0198740
707.560	0.0202015
707.638	0.0206236
707.716	0.0208615
707.794	0.0210276
707.872	0.0210805
707.950	0.0211858
708.029	0.0212307
708.107	0.0209378
708.185	0.0206023
708.263	0.0203307
708.341	0.0198595
708.419	0.0192165
708.497	0.0187226
708.575	0.0180203
708.654	0.0172309
708.732	0.0163638
708.810	0.0157053
708.888	0.0151732
708.966	0.0143472
709.044	0.0136333
709.122	0.0130939
709.200	0.0125190
709.279	0.0120618
709.357	0.0116361
709.435	0.0115574
709.513	0.0115159
709.591	0.0114648
709.669	0.0116676
709.747	0.0119785
709.825	0.0123470
709.904	0.0127934
709.982	0.0134793
710.060	0.0142047
710.138	0.0149017
710.216	0.0158127
710.294	0.0166191
710.372	0.0173029
710.450	0.0178646
710.529	0.0187428
710.607	0.0192757
710.685	0.0198273
710.763	0.0202321
710.841	0.0206448
710.919	0.0210008
710.997	0.0209601
711.075	0.0209423
711.154	0.0207076
711.232	0.0203414
711.310	0.0198822
711.388	0.0192245
711.466	0.0186763
711.544	0.0178312
711.622	0.0172112
711.700	0.0163678
711.779	0.0156320
711.857	0.0149036
711.935	0.0139566
712.013	0.0133194
712.091	0.0128020
712.169	0.0120205
712.247	0.0118835
712.325	0.0114580
712.404	0.0113016
712.482	0.0109354
712.560	0.0108559
712.638	0.0108787
712.716	0.0109267
712.794	0.0109652
712.872	0.0112336
712.950	0.0114592
713.029	0.0117467
713.107	0.0120916
713.185	0.0124619
713.263	0.0129636
713.341	0.0133147
713.419	0.0138338
713.497	0.0144029
713.575	0.0149073
713.654	0.0156476
713.732	0.0164175
713.810	0.0171181
713.888	0.0178861
713.966	0.0186416
714.044	0.0193965
714.122	0.0199581
714.200	0.0205180
714.279	0.0211777
714.357	0.0216788
714.435	0.0220888
714.513	0.0225032
714.591	0.0227687
714.669	0.0229256
714.747	0.0229353
714.825	0.0229416
714.904	0.0224785
714.982	0.0222078
715.060	0.0217809
715.138	0.0212498
715.216	0.0205422
715.294	0.0197423
715.372	0.0192834
715.450	0.0184702
715.529	0.0176307
715.607	0.0169751
715.685	0.0162233
715.763	0.0156032
715.841	0.0150928
715.919	0.0146956
715.997	0.0145206
716.075	0.0141300
716.154	0.0140253
716.232	0.0139520
716.310	0.0141084
716.388	0.0142028
716.466	0.0143595
716.544	0.0145740
716.622	0.0147504
716.700	0.0150156
716.779	0.0151864
716.857	0.0153465
716.935	0.0157100
717.013	0.0158291
717.091	0.0160230
717.169	0.0162492
717.247	0.0164271
717.325	0.0165206
717.404	0.0166468
717.482	0.0166863
717.560	0.0166930
717.638	0.0167503
717.716	0.0165128
717.794	0.0161760
717.872	0.0163371
717.950	0.0160216
718.029	0.0157861
718.107	0.0155681
718.185	0.0153767
718.263	0.0150680
718.341	0.0150610
718.419	0.0148206
718.497	0.0147730
718.575	0.0145160
718.654	0.0143676
718.732	0.0142834
718.810	0.0140862
718.888	0.0138973
718.966	0.0136624
719.044	0.0133425
719.122	0.0133080
719.200	0.0130799
719.279	0.0127690
719.357	0.0127102
719.435	0.0125531
719.513	0.0125426
719.591	0.0127114
719.669	0.0127596
719.747	0.0129873
719.825	0.0132441
719.904	0.0137149
719.982	0.0139823
720.060	0.0145586
720.138	0.0151270
720.216	0.0156541
720.294	0.0164429
720.372	0.0169543
720.450	0.0174810
720.529	0.0181857
720.607	0.0186250
720.685	0.0192358
720.763	0.0197497
720.841	0.0200642
720.919	0.0205274
720.997	0.0207352
721.075	0.0210064
721.154	0.0211898
721.232	0.0212759
721.310	0.0212265
721.388	0.0211712
721.466	0.0210972
721.544	0.0210251
721.622	0.0206662
721.700	0.0203080
721.779	0.0199815
721.857	0.0197506
721.935	0.0193212
722.013	0.0188547
722.091	0.0184774
722.169	0.0180851
722.247	0.0177653
722.325	0.0174097
722.404	0.0171380
722.482	0.0169156
722.560	0.0165539
722.638	0.0162892
722.716	0.0159146
722.794	0.0158161
722.872	0.0155724
722.950	0.0155824
723.029	0.0154994
723.107	0.0153188
723.185	0.0154591
723.263	0.0152699
723.341	0.0152610
723.419	0.0152181
723.497	0.0151292
723.575	0.0152264
723.654	0.0152243
723.732	0.0151011
723.810	0.0148904
723.888	0.0148289
723.966	0.0145234
724.044	0.0145403
724.122	0.0145412
724.200	0.0145278
724.279	0.0142309
724.357	0.0142104
724.435	0.0141879
724.513	0.0142918
724.591	0.0144424
724.669	0.0145153
724.747	0.0145848
724.825	0.0146896
724.904	0.0147624
724.982	0.0149311
725.060	0.0150003
725.138	0.0151933
725.216	0.0150069
725.294	0.0152957
725.372	0.0152079
725.450	0.0151421
725.529	0.0151924
725.607	0.0151838
725.685	0.0150430
725.763	0.0149429
725.841	0.0148064
725.919	0.0147213
725.997	0.0147575
726.075	0.0145421
726.154	0.0145778
726.232	0.0145985
726.310	0.0145971
726.388	0.0147649
726.466	0.0149862
726.544	0.0150778
726.622	0.0151767
726.700	0.0156045
726.779	0.0158627
726.857	0.0162904
726.935	0.0167611
727.013	0.0171508
727.091	0.0173998
727.169	0.0179193
727.247	0.0181876
727.325	0.0184402
727.404	0.0187212
727.482	0.0188691
727.560	0.0190549
727.638	0.0191399
727.716	0.0190787
727.794	0.0191502
727.872	0.0190881
727.950	0.0189741
728.029	0.0189643
728.107	0.0188395
728.185	0.0185827
728.263	0.0185686
728.341	0.0184652
728.419	0.0178963
728.497	0.0179002
728.575	0.0179706
728.654	0.0177457
728.732	0.0174920
728.810	0.0173000
728.888	0.0173161
728.966	0.0171240
729.044	0.0173183
729.122	0.0172310
729.200	0.0169611
729.279	0.0170167
729.357	0.0168597
729.435	0.0167486
729.513	0.0167065
729.591	0.0166501
729.669	0.0165446
729.747	0.0162481
729.825	0.0161246
729.904	0.0158709
729.982	0.0157550
730.060	0.0154517
730.138	0.0150727
730.216	0.0149464
730.294	0.0147776
730.372	0.0144306
730.450	0.0144418
730.529	0.0142394
730.607	0.0142773
730.685	0.0142943
730.763	0.0142067
730.841	0.0143803
730.919	0.0145227
730.997	0.0147694
731.075	0.0149812
731.154	0.0152203
731.232	0.0153060
731.310	0.0154838
731.388	0.0156969
731.466	0.0158655
731.544	0.0159263
731.622	0.0159222
731.700	0.0161263
731.779	0.0162819
731.857	0.0161499
731.935	0.0159904
732.013	0.0160666
732.091	0.0159635
732.169	0.0160227
732.247	0.0158693
732.325	0.0160083
732.404	0.0159906
732.482	0.0159199
732.560	0.0159592
732.638	0.0158649
732.716	0.0159138
732.794	0.0158080
732.872	0.0158337
732.950	0.0157615
733.029	0.0158823
733.107	0.0158549
733.185	0.0160280
733.263	0.0159555
733.341	0.0161519
733.419	0.0162173
733.497	0.0163592
733.575	0.0165976
733.654	0.0166993
733.732	0.0168293
733.810	0.0168258
733.888	0.0170051
733.966	0.0171597
734.044	0.0170628
734.122	0.0171194
734.200	0.0170953
734.279	0.0170251
734.357	0.0169901
734.435	0.0169104
734.513	0.0168276
734.591	0.0167432
734.669	0.0167088
734.747	0.0165340
734.825	0.0165166
734.904	0.0164774
734.982	0.0163717
735.060	0.0165205
735.138	0.0163600
735.216	0.0164233
735.294	0.0167725
735.372	0.0166946
735.450	0.0167981
735.529	0.0169038
735.607	0.0169915
735.685	0.0169285
735.763	0.0170769
735.841	0.0171864
735.919	0.0173375
735.997	0.0173207
736.075	0.0172321
736.154	0.0171270
736.232	0.0170432
736.310	0.0168665
736.388	0.0166815
736.466	0.0166291
736.544	0.0164326
736.622	0.0160578
736.700	0.0160275
736.779	0.0159785
736.857	0.0158865
736.935	0.0156746
737.013	0.0157058
737.091	0.0155865
737.169	0.0155614
737.247	0.0154974
737.325	0.0155404
737.404	0.0154815
737.482	0.0156800
737.560	0.0157063
737.638	0.0157422
737.716	0.0159244
737.794	0.0159921
737.872	0.0160308
737.950	0.0161357
738.029	0.0162514
738.107	0.0163741
738.185	0.0162498
738.263	0.0163760
738.341	0.0166058
738.419	0.0164342
738.497	0.0164578
738.575	0.0164135
738.654	0.0164307
738.732	0.0163799
738.810	0.0163757
738.888	0.0161060
738.966	0.0161623
739.044	0.0160302
739.122	0.0159005
739.200	0.0160252
739.279	0.0157983
739.357	0.0159349
739.435	0.0158186
739.513	0.0158701
739.591	0.0159322
739.669	0.0161265
739.747	0.0163016
739.825	0.0164677
739.904	0.0166392
739.982	0.0167255
740.060	0.0169300
740.138	0.0170846
740.216	0.0170103
740.294	0.0172195
740.372	0.0173169
740.450	0.0172231
740.529	0.0171484
740.607	0.0169131
740.685	0.0167123
740.763	0.0165363
740.841	0.0163415
740.919	0.0160362
740.997	0.0158080
741.075	0.0156993
741.154	0.0154465
741.232	0.0153033
741.310	0.0152480
741.388	0.0153059
741.466	0.0151785
741.544	0.0153023
741.622	0.0154466
741.700	0.0154710
741.779	0.0156704
741.857	0.0157406
741.935	0.0159874
742.013	0.0162144
742.091	0.0163543
742.169	0.0163921
742.247	0.0165671
742.325	0.0166007
742.404	0.0166965
742.482	0.0166123
742.560	0.0167647
742.638	0.0164748
742.716	0.0164429
742.794	0.0162994
742.872	0.0161853
742.950	0.0160678
743.029	0.0159875
743.107	0.0160025
743.185	0.0160460
743.263	0.0158526
743.341	0.0159717
743.419	0.0159882
743.497	0.0160491
743.575	0.0161666
743.654	0.0164004
743.732	0.0165144
743.810	0.0165483
743.888	0.0166359
743.966	0.0168234
744.044	0.0169009
744.122	0.0170756
744.200	0.0169802
744.279	0.0169690
744.357	0.0170332
744.435	0.0171368
744.513	0.0171778
744.591	0.0170933
744.669	0.0167979
744.747	0.0168771
744.825	0.0167600
744.904	0.0167940
744.982	0.0165804
745.060	0.0164171
745.138	0.0165964
745.216	0.0162778
745.294	0.0161333
745.372	0.0161462
745.450	0.0162434
745.529	0.0160591
745.607	0.0161250
745.685	0.0161736
745.763	0.0160844
745.841	0.0160301
745.919	0.0162347
745.997	0.0161847
746.075	0.0163187
746.154	0.0162622
746.232	0.0166302
746.310	0.0166186
746.388	0.0166493
746.466	0.0168919
746.544	0.0169081
746.622	0.0169629
746.700	0.0169519
746.779	0.0169041
746.857	0.0169185
746.935	0.0169006
747.013	0.0167435
747.091	0.0167278
747.169	0.0165911
747.247	0.0164397
747.325	0.0163000
747.404	0.0161036
747.482	0.0158920
747.560	0.0158208
747.638	0.0155251
747.716	0.0154665
747.794	0.0153823
747.872	0.0152140
747.950	0.0151599
748.029	0.0151580
748.107	0.0152167
748.185	0.0152692
748.263	0.0154276
748.341	0.0155551
748.419	0.0155431
748.497	0.0156931
748.575	0.0159283
748.654	0.0160701
748.732	0.0160014
748.810	0.0160593
748.888	0.0162176
748.966	0.0162904
749.044	0.0161898
749.122	0.0162661
749.200	0.0162119
749.279	0.0162975
749.357	0.0161197
749.435	0.0161317
749.513	0.0160915
749.591	0.0158754
749.669	0.0159656
749.747	0.0159061
749.825	0.0156701
749.904	0.0158118
749.982	0.0158315
750.060	0.0157188
750.138	0.0157788
750.216	0.0159412
750.294	0.0160332
750.372	0.0161200
750.450	0.0161941
750.529	0.0164765
750.607	0.0167039
750.685	0.0167342
750.763	0.0168197
750.841	0.0170164
750.919	0.0170036
750.997	0.0171367
751.075	0.0171086
751.154	0.0170814
751.232	0.0171865
751.310	0.0171950
751.388	0.0171096
751.466	0.0170092
751.544	0.0169467
751.622	0.0170057
751.700	0.0167500
751.779	0.0167709
751.857	0.0168592
751.935	0.0166080
752.013	0.0165473
752.091	0.0164796
752.169	0.0166982
752.247	0.0165842
752.325	0.0164355
752.404	0.0164635
752.482	0.0167010
752.560	0.0167546
752.638	0.0167758
752.716	0.0168469
752.794	0.0167409
752.872	0.0168575
752.950	0.0169620
753.029	0.0169625
753.107	0.0169303
753.185	0.0167667
753.263	0.0167306
753.341	0.0167023
753.419	0.0166001
753.497	0.0162954
753.575	0.0164008
753.654	0.0162532
753.732	0.0159545
753.810	0.0159704
753.888	0.0157471
753.966	0.0157248
754.044	0.0155840
754.122	0.0154817
754.200	0.0153959
754.279	0.0153542
754.357	0.0154820
754.435	0.0155887
754.513	0.0158962
754.591	0.0158204
754.669	0.0159251
754.747	0.0159489
754.825	0.0161356
754.904	0.0161708
754.982	0.0163338
755.060	0.0160535
755.138	0.0161793
755.216	0.0162347
755.294	0.0162703
755.372	0.0160608
755.450	0.0159364
755.529	0.0158730
755.607	0.0159107
755.685	0.0158984
755.763	0.0156830
755.841	0.0156635
755.919	0.0157624
755.997	0.0158357
756.075	0.0157549
756.154	0.0158301
756.232	0.0159388
756.310	0.0159419
756.388	0.0160339
756.466	0.0160442
756.544	0.0160490
756.622	0.0161053
756.700	0.0163715
756.779	0.0163333
756.857	0.0162375
756.935	0.0162778
757.013	0.0161975
757.091	0.0161580
757.169	0.0162128
757.247	0.0163683
757.325	0.0162124
757.404	0.0160941
757.482	0.0161736
757.560	0.0161337
757.638	0.0161375
757.716	0.0161317
757.794	0.0161250
757.872	0.0161749
757.950	0.0163202
758.029	0.0163796
758.107	0.0163799
758.185	0.0165629
758.263	0.0164049
758.341	0.0166515
758.419	0.0166966
758.497	0.0167175
758.575	0.0168894
758.654	0.0170048
758.732	0.0169913
758.810	0.0169919
758.888	0.0169571
758.966	0.0172104
759.044	0.0173439
759.122	0.0172678
759.200	0.0172181
759.279	0.0172023
759.357	0.0172393
759.435	0.0171436
759.513	0.0169024
759.591	0.0168243
759.669	0.0167240
759.747	0.0165861
759.825	0.0163347
759.904	0.0162656
759.982	0.0161621
760.060	0.0161048
760.138	0.0160690
760.216	0.0159944
760.294	0.0159940
760.372	0.0160169
760.450	0.0159694
760.529	0.0160168
760.607	0.0161393
760.685	0.0162472
760.763	0.0162482
760.841	0.0161288
760.919	0.0161900
760.997	0.0162875
761.075	0.0164156
761.154	0.0163425
761.232	0.0162334
761.310	0.0165112
761.388	0.0163319
761.466	0.0162519
761.544	0.0162234
761.622	0.0161181
761.700	0.0161323
761.779	0.0161531
761.857	0.0161852
761.935	0.0159805
762.013	0.0160445
762.091	0.0159586
762.169	0.0160813
762.247	0.0160380
762.325	0.0159036
762.404	0.0160339
762.482	0.0158256
762.560	0.0159418
762.638	0.0159388
762.716	0.0159878
762.794	0.0160098
762.872	0.0160915
762.950	0.0159546
763.029	0.0159429
763.107	0.0159322
763.185	0.0161609
763.263	0.0161635
763.341	0.0159617
763.419	0.0161543
763.497	0.0161027
763.575	0.0160338
763.654	0.0160883
763.732	0.0160965
763.810	0.0161128
763.888	0.0162896
763.966	0.0162598
764.044	0.0160244
764.122	0.0161788
764.200	0.0163259
764.279	0.0163375
764.357	0.0162832
764.435	0.0163741
764.513	0.0163935
764.591	0.0162738
764.669	0.0163490
764.747	0.0163072
764.825	0.0165167
764.904	0.0166631
764.982	0.0165781
765.060	0.0166240
765.138	0.0166031
765.216	0.0166415
765.294	0.0166246
765.372	0.0165595
765.450	0.0164914
765.529	0.0166463
765.607	0.0166798
765.685	0.0162963
765.763	0.0164093
765.841	0.0163867
765.919	0.0162651
765.997	0.0161002
766.075	0.0159930
766.154	0.0160434
766.232	0.0160986
766.310	0.0159941
766.388	0.0160011
766.466	0.0159282
766.544	0.0160398
766.622	0.0161246
766.700	0.0162136
766.779	0.0163051
766.857	0.0162041
766.935	0.0163910
767.013	0.0165648
767.091	0.0165465
767.169	0.0166650
767.247	0.0168177
767.325	0.0167194
767.404	0.0167486
767.482	0.0167152
767.560	0.0168061
767.638	0.0166998
767.716	0.0167114
767.794	0.0165536
767.872	0.0163820
767.950	0.0162720
768.029	0.0162791
768.107	0.0163872
768.185	0.0162565
768.263	0.0161799
768.341	0.0162032
768.419	0.0162175
768.497	0.0161412
768.575	0.0163100
768.654	0.0161890
768.732	0.0161476
768.810	0.0162445
768.888	0.0163525
768.966	0.0162221
769.044	0.0162756
769.122	0.0163317
769.200	0.0162433
769.279	0.0163466
769.357	0.0163676
769.435	0.0162296
769.513	0.0164176
769.591	0.0161423
769.669	0.0161552
769.747	0.0160938
769.825	0.0160569
769.904	0.0162234
769.982	0.0161743
770.060	0.0161221
770.138	0.0161069
770.216	0.0161446
770.294	0.0161766
770.372	0.0160638
770.450	0.0160883
770.529	0.0162849
770.607	0.0163552
770.685	0.0162775
770.763	0.0162111
770.841	0.0163171
770.919	0.0164144
770.997	0.0163527
771.075	0.0164197
771.154	0.0163973
771.232	0.0163790
771.310	0.0164918
771.388	0.0163817
771.466	0.0163970
771.544	0.0164757
771.622	0.0163151
771.700	0.0164562
771.779	0.0163939
771.857	0.0161906
771.935	0.0162917
772.013	0.0161630
772.091	0.0161713
772.169	0.0161431
772.247	0.0161089
772.325	0.0160098
772.404	0.0161198
772.482	0.0159741
772.560	0.0161981
772.638	0.0161008
772.716	0.0161987
772.794	0.0161158
772.872	0.0161259
772.950	0.0162293
773.029	0.0163566
773.107	0.0163371
773.185	0.0163736
773.263	0.0164539
773.341	0.0164163
773.419	0.0163795
773.497	0.0164986
773.575	0.0164973
773.654	0.0163657
773.732	0.0163545
773.810	0.0164281
773.888	0.0163074
773.966	0.0161816
774.044	0.0161875
774.122	0.0161599
774.200	0.0161694
774.279	0.0162408
774.357	0.0161864
774.435	0.0161780
774.513	0.0162701
774.591	0.0162624
774.669	0.0162771
774.747	0.0161971
774.825	0.0161520
774.904	0.0161806
774.982	0.0162394
775.060	0.0164017
775.138	0.0163024
775.216	0.0163354
775.294	0.0164316
775.372	0.0162850
775.450	0.0164128
775.529	0.0163775
775.607	0.0164325
775.685	0.0164784
775.763	0.0164938
775.841	0.0166158
775.919	0.0166697
775.997	0.0165317
776.075	0.0165288
776.154	0.0165704
776.232	0.0166187
776.310	0.0165356
776.388	0.0165870
776.466	0.0164847
776.544	0.0165216
776.622	0.0164606
776.700	0.0164336
776.779	0.0163617
776.857	0.0164018
776.935	0.0163920
777.013	0.0164014
777.091	0.0164063
777.169	0.0164043
777.247	0.0165720
777.325	0.0165483
777.404	0.0164414
777.482	0.0165874
777.560	0.0164534
777.638	0.0164235
777.716	0.0164232
777.794	0.0164012
777.872	0.0163907
777.950	0.0162110
778.029	0.0162866
778.107	0.0163363
778.185	0.0161739
778.263	0.0162482
778.341	0.0160883
778.419	0.0159833
778.497	0.0159938
778.575	0.0158865
778.654	0.0158367
778.732	0.0159236
778.810	0.0159261
778.888	0.0159298
778.966	0.0159190
779.044	0.0159753
779.122	0.0159752
779.200	0.0160165
779.279	0.0160184
779.357	0.0160064
779.435	0.0163593
779.513	0.0162784
779.591	0.0162708
779.669	0.0163251
779.747	0.0164155
779.825	0.0163580
779.904	0.0164980
779.982	0.0163391
780.060	0.0164324
780.138	0.0163799
780.216	0.0164025
780.294	0.0162804
780.372	0.0161621
780.450	0.0161991
780.529	0.0163362
780.607	0.0162011
780.685	0.0161567
780.763	0.0162297
780.841	0.0162737
780.919	0.0162511
780.997	0.0161389
781.075	0.0161398
781.154	0.0161898
781.232	0.0160384
781.310	0.0161346
781.388	0.0163112
781.466	0.0162070
781.544	0.0160635
781.622	0.0161918
781.700	0.0161420
781.779	0.0162707
781.857	0.0161727
781.935	0.0163460
782.013	0.0163100
782.091	0.0163112
782.169	0.0163014
782.247	0.0163058
782.325	0.0163472
782.404	0.0163403
782.482	0.0164138
782.560	0.0163182
782.638	0.0164104
782.716	0.0163955
782.794	0.0163432
782.872	0.0165149
782.950	0.0164690
783.029	0.0163950
783.107	0.0164558
783.185	0.0164288
783.263	0.0164365
783.341	0.0165748
783.419	0.0165102
783.497	0.0167046
783.575	0.0166610
783.654	0.0166537
783.732	0.0166122
783.810	0.0166853
783.888	0.0166943
783.966	0.0166267
784.044	0.0165557
784.122	0.0165532
784.200	0.0166077
784.279	0.0165858
784.357	0.0164535
784.435	0.0164515
784.513	0.0163032
784.591	0.0162027
784.669	0.0162843
784.747	0.0162913
784.825	0.0160855
784.904	0.0160398
784.982	0.0160588
785.060	0.0161166
785.138	0.0161576
785.216	0.0162170
785.294	0.0161863
785.372	0.0163506
785.450	0.0162788
785.529	0.0162276
785.607	0.0163217
785.685	0.0162733
785.763	0.0162621
785.841	0.0163998
785.919	0.0162996
785.997	0.0163167
786.075	0.0163683
786.154	0.0162648
786.232	0.0162701
786.310	0.0163093
786.388	0.0161675
786.466	0.0160883
786.544	0.0160958
786.622	0.0160149
786.700	0.0160126
786.779	0.0160444
786.857	0.0158533
786.935	0.0159441
787.013	0.0158086
787.091	0.0157918
787.169	0.0158424
787.247	0.0158699
787.325	0.0158501
787.404	0.0159109
787.482	0.0160413
787.560	0.0159731
787.638	0.0160029
787.716	0.0159728
787.794	0.0161062
787.872	0.0160418
787.950	0.0160718
788.029	0.0160928
788.107	0.0161588
788.185	0.0161443
788.263	0.0161237
788.341	0.0162325
788.419	0.0160612
788.497	0.0160785
788.575	0.0161237
788.654	0.0161832
788.732	0.0161104
788.810	0.0162673
788.888	0.0162393
788.966	0.0164260
789.044	0.0164185
789.122	0.0164090
789.200	0.0164862
789.279	0.0167036
789.357	0.0165778
789.435	0.0166530
789.513	0.0168257
789.591	0.0167513
789.669	0.0167674
789.747	0.0168667
789.825	0.0168884
789.904	0.0167459
789.982	0.0167252
790.060	0.0168590
790.138	0.0169105
790.216	0.0167998
790.294	0.0167891
790.372	0.0167832
790.450	0.0166174
790.529	0.0166264
790.607	0.0165369
790.685	0.0164626
790.763	0.0162975
790.841	0.0164365
790.919	0.0163944
790.997	0.0164488
791.075	0.0162903
791.154	0.0163201
791.232	0.0162648
791.310	0.0161511
791.388	0.0162404
791.466	0.0162457
791.544	0.0163710
791.622	0.0162852
791.700	0.0162609
791.779	0.0164170
791.857	0.0161568
791.935	0.0160813
792.013	0.0163336
792.091	0.0162914
792.169	0.0163287
792.247	0.0161189
792.325	0.0162756
792.404	0.0161021
792.482	0.0160452
792.560	0.0161272
792.638	0.0160275
792.716	0.0159447
792.794	0.0160670
792.872	0.0161706
792.950	0.0161588
793.029	0.0160839
793.107	0.0160598
793.185	0.0163065
793.263	0.0161462
793.341	0.0160318
793.419	0.0160926
793.497	0.0163852
793.575	0.0162207
793.654	0.0164104
793.732	0.0165047
793.810	0.0163139
793.888	0.0163297
793.966	0.0163151
794.044	0.0163150
794.122	0.0165280
794.200	0.0165681
794.279	0.0163882
794.357	0.0162623
794.435	0.0163422
794.513	0.0162947
794.591	0.0162247
794.669	0.0163987
794.747	0.0162231
794.825	0.0161756
794.904	0.0161465
794.982	0.0160503
795.060	0.0160465
795.138	0.0159725
795.216	0.0159828
795.294	0.0159302
795.372	0.0159743
795.450	0.0159778
795.529	0.0160970
795.607	0.0161168
795.685	0.0160168
795.763	0.0160725
795.841	0.0161497
795.919	0.0163390
795.997	0.0161870
796.075	0.0161756
796.154	0.0164074
796.232	0.0164597
796.310	0.0164217
796.388	0.0165459
796.466	0.0166247
796.544	0.0167079
796.622	0.0165871
796.700	0.0166001
796.779	0.0166029
796.857	0.0167682
796.935	0.0167355
797.013	0.0166619
797.091	0.0168365
797.169	0.0168976
797.247	0.0167841
797.325	0.0168000
797.404	0.0168055
797.482	0.0168661
797.560	0.0168127
797.638	0.0169283
797.716	0.0171178
797.794	0.0167974
797.872	0.0169518
797.950	0.0169502
798.029	0.0168329
798.107	0.0169774
798.185	0.0167973
798.263	0.0168031
798.341	0.0166711
798.419	0.0167002
798.497	0.0164822
798.575	0.0163960
798.654	0.0162267
798.732	0.0160971
798.810	0.0160465
798.888	0.0159810
798.966	0.0158730
799.044	0.0157585
799.122	0.0156971
799.200	0.0158246
799.279	0.0157390
799.357	0.0157497
799.435	0.0156784
799.513	0.0157449
799.591	0.0158219
799.669	0.0158302
799.747	0.0159175
799.825	0.0159642
799.904	0.0159968
799.982	0.0162045
800.060	0.0161556
800.138	0.0162703
800.216	0.0164477
800.294	0.0163384
800.372	0.0163663
800.450	0.0165742
800.529	0.0165166
800.607	0.0167098
800.685	0.0164620
800.763	0.0164553
800.841	0.0164975
800.919	0.0164081
800.997	0.0163962
801.075	0.0163685
801.154	0.0162894
801.232	0.0162152
801.310	0.0162162
801.388	0.0161454
801.466	0.0160741
801.544	0.0158850
801.622	0.0159892
801.700	0.0160780
801.779	0.0161884
801.857	0.0159528
801.935	0.0159566
802.013	0.0160209
802.091	0.0159634
802.169	0.0160946
802.247	0.0161266
802.325	0.0160277
802.404	0.0160990
802.482	0.0161525
802.560	0.0161885
802.638	0.0161629
802.716	0.0162290
802.794	0.0161656
802.872	0.0161381
802.950	0.0161464
803.029	0.0161595
803.107	0.0163570
803.185	0.0162749
803.263	0.0164073
803.341	0.0163111
803.419	0.0163731
803.497	0.0164237
803.575	0.0164532
803.654	0.0165154
803.732	0.0165287
803.810	0.0164443
803.888	0.0166113
803.966	0.0167082
804.044	0.0167085
804.122	0.0167542
804.200	0.0167055
804.279	0.0168040
804.357	0.0168745
804.435	0.0167012
804.513	0.0168418
804.591	0.0168507
804.669	0.0168546
804.747	0.0168781
804.825	0.0167654
804.904	0.0166566
804.982	0.0165984
805.060	0.0165888
805.138	0.0164950
805.216	0.0163194
805.294	0.0162823
805.372	0.0162051
805.450	0.0160175
805.529	0.0159271
805.607	0.0160584
805.685	0.0160377
805.763	0.0159928
805.841	0.0159021
805.919	0.0159301
805.997	0.0159505
806.075	0.0158984
806.154	0.0160036
806.232	0.0159869
806.310	0.0160384
806.388	0.0161092
806.466	0.0160969
806.544	0.0161678
806.622	0.0163654
806.700	0.0164537
806.779	0.0163253
806.857	0.0162946
806.935	0.0164039
807.013	0.0163496
807.091	0.0163190
807.169	0.0163914
807.247	0.0162692
807.325	0.0163728
807.404	0.0164180
807.482	0.0163021
807.560	0.0161391
807.638	0.0161129
807.716	0.0161514
807.794	0.0161855
807.872	0.0160869
807.950	0.0160780
808.029	0.0160096
808.107	0.0160194
808.185	0.0159065
808.263	0.0159138
808.341	0.0158619
808.419	0.0159290
808.497	0.0159478
808.575	0.0159190
808.654	0.0158205
808.732	0.0158914
808.810	0.0158781
808.888	0.0159958
808.966	0.0158842
809.044	0.0159598
809.122	0.0159083
809.200	0.0158619
809.279	0.0159178
809.357	0.0159892
809.435	0.0161068
809.513	0.0160792
809.591	0.0161914
809.669	0.0161830
809.747	0.0161647
809.825	0.0163061
809.904	0.0162866
809.982	0.0162778
810.060	0.0164110
810.138	0.0165814
810.216	0.0165598
810.294	0.0165339
810.372	0.0167323
810.450	0.0166330
810.529	0.0167439
810.607	0.0168136
810.685	0.0169238
810.763	0.0170177
810.841	0.0169011
810.919	0.0170722
810.997	0.0169419
811.075	0.0168645
811.154	0.0169669
811.232	0.0170255
811.310	0.0170039
811.388	0.0169123
811.466	0.0167399
811.544	0.0168636
811.622	0.0166078
811.700	0.0166725
811.779	0.0166446
811.857	0.0166285
811.935	0.0165474
812.013	0.0165582
812.091	0.0165405
812.169	0.0163942
812.247	0.0162226
812.325	0.0164303
812.404	0.0163879
812.482	0.0162673
812.560	0.0163438
812.638	0.0162878
812.716	0.0161178
812.794	0.0160903
812.872	0.0161551
812.950	0.0161992
813.029	0.0160264
813.107	0.0161803
813.185	0.0161036
813.263	0.0159956
813.341	0.0160787
813.419	0.0160610
813.497	0.0161050
813.575	0.0160594
813.654	0.0161155
813.732	0.0160590
813.810	0.0160025
813.888	0.0160464
813.966	0.0161087
814.044	0.0160220
814.122	0.0159586
814.200	0.0159962
814.279	0.0159975
814.357	0.0160770
814.435	0.0161619
814.513	0.0161568
814.591	0.0161465
814.669	0.0160573
814.747	0.0160966
814.825	0.0160271
814.904	0.0160835
814.982	0.0162124
815.060	0.0161109
815.138	0.0160461
815.216	0.0161038
815.294	0.0160308
815.372	0.0161817
815.450	0.0162157
815.529	0.0162020
815.607	0.0160736
815.685	0.0162000
815.763	0.0160744
815.841	0.0161058
815.919	0.0161418
815.997	0.0161629
816.075	0.0161200
816.154	0.0161075
816.232	0.0161488
816.310	0.0161373
816.388	0.0160918
816.466	0.0161822
816.544	0.0162316
816.622	0.0161511
816.700	0.0163586
816.779	0.0163918
816.857	0.0163981
816.935	0.0164470
817.013	0.0165744
817.091	0.0165426
817.169	0.0167074
817.247	0.0165852
817.325	0.0166396
817.404	0.0167598
817.482	0.0166187
817.560	0.0166910
817.638	0.0168404
817.716	0.0167814
817.794	0.0167442
817.872	0.0167930
817.950	0.0167179
818.029	0.0166640
818.107	0.0168461
818.185	0.0168038
818.263	0.0167503
818.341	0.0168216
818.419	0.0168415
818.497	0.0167189
818.575	0.0166955
818.654	0.0167305
818.732	0.0168735
818.810	0.0168106
818.888	0.0167899
818.966	0.0167735
819.044	0.0167470
819.122	0.0166059
819.200	0.0166071
819.279	0.0165449
819.357	0.0164857
819.435	0.0165060
819.513	0.0163438
819.591	0.0163282
819.669	0.0162274
819.747	0.0163114
819.825	0.0162029
819.904	0.0160549
819.982	0.0159137
820.060	0.0158672
820.138	0.0161005
820.216	0.0158949
820.294	0.0158141
820.372	0.0159097
820.450	0.0158595
820.529	0.0158934
820.607	0.0156982
820.685	0.0157616
820.763	0.0158170
820.841	0.0158910
820.919	0.0158120
820.997	0.0158602
821.075	0.0159006
821.154	0.0158997
821.232	0.0159602
821.310	0.0160418
821.388	0.0159926
821.466	0.0160249
821.544	0.0160252
821.622	0.0159217
821.700	0.0161189
821.779	0.0161290
821.857	0.0161655
821.935	0.0162042
822.013	0.0160942
822.091	0.0162154
822.169	0.0162137
822.247	0.0161912
822.325	0.0161344
822.404	0.0162960
822.482	0.0162441
822.560	0.0162941
822.638	0.0163119
822.716	0.0162486
822.794	0.0163143
822.872	0.0163218
822.950	0.0164310
823.029	0.0164481
823.107	0.0162796
823.185	0.0163845
823.263	0.0165141
823.341	0.0163448
823.419	0.0165122
823.497	0.0163518
823.575	0.0165217
823.654	0.0164358
823.732	0.0164495
823.810	0.0164381
823.888	0.0164758
823.966	0.0163979
824.044	0.0165735
824.122	0.0162797
824.200	0.0164783
824.279	0.0164442
824.357	0.0163440
824.435	0.0163663
824.513	0.0162495
824.591	0.0163754
824.669	0.0163584
824.747	0.0162753
824.825	0.0164291
824.904	0.0165611
824.982	0.0165910
825.060	0.0166167
825.138	0.0164689
825.216	0.0165530
825.294	0.0165684
825.372	0.0165809
825.450	0.0166196
825.529	0.0166280
825.607	0.0166764
825.685	0.0165611
825.763	0.0164706
825.841	0.0164798
825.919	0.0164248
825.997	0.0165577
826.075	0.0164201
826.154	0.0164616
826.232	0.0162344
826.310	0.0162654
826.388	0.0163052
826.466	0.0161453
826.544	0.0161581
826.622	0.0162614
826.700	0.0162506
826.779	0.0161101
826.857	0.0161787
826.935	0.0160680
827.013	0.0161536
827.091	0.0161201
827.169	0.0161488
827.247	0.0161043
827.325	0.0162909
827.404	0.0162795
827.482	0.0161273
827.560	0.0162041
827.638	0.0161760
827.716	0.0161497
827.794	0.0161851
827.872	0.0161452
827.950	0.0160696
828.029	0.0162109
828.107	0.0161307
828.185	0.0160303
828.263	0.0160250
828.341	0.0159889
828.419	0.0159536
828.497	0.0158812
828.575	0.0158960
828.654	0.0161099
828.732	0.0158547
828.810	0.0160630
828.888	0.0160477
828.966	0.0159205
829.044	0.0161489
829.122	0.0162463
829.200	0.0162050
829.279	0.0163375
829.357	0.0161702
829.435	0.0161761
829.513	0.0162768
829.591	0.0162395
829.669	0.0163040
829.747	0.0163277
829.825	0.0161767
829.904	0.0163204
829.982	0.0162212
830.060	0.0162409
830.138	0.0162160
830.216	0.0161524
830.294	0.0160336
830.372	0.0161910
830.450	0.0161186
830.529	0.0161241
830.607	0.0161711
830.685	0.0162267
830.763	0.0161671
830.841	0.0160958
830.919	0.0162395
830.997	0.0163856
831.075	0.0163625
831.154	0.0162350
831.232	0.0162569
831.310	0.0163886
831.388	0.0163844
831.466	0.0164749
831.544	0.0165904
831.622	0.0163705
831.700	0.0163358
831.779	0.0164921
831.857	0.0165687
831.935	0.0164668
832.013	0.0164405
832.091	0.0164664
832.169	0.0165159
832.247	0.0164988
832.325	0.0164540
832.404	0.0164713
832.482	0.0164920
832.560	0.0165089
832.638	0.0164111
832.716	0.0162638
832.794	0.0162528
832.872	0.0163652
832.950	0.0163014
833.029	0.0162045
833.107	0.0161678
833.185	0.0163407
833.263	0.0162521
833.341	0.0163955
833.419	0.0162458
833.497	0.0164124
833.575	0.0162188
833.654	0.0164871
833.732	0.0164118
833.810	0.0164211
833.888	0.0163188
833.966	0.0163975
834.044	0.0164471
834.122	0.0163316
834.200	0.0162642
834.279	0.0161964
834.357	0.0163541
834.435	0.0163860
834.513	0.0162749
834.591	0.0161549
834.669	0.0162334
834.747	0.0160764
834.825	0.0161916
834.904	0.0162271
834.982	0.0161644
835.060	0.0160467
835.138	0.0161909
835.216	0.0160078
835.294	0.0161680
835.372	0.0161769
835.450	0.0162103
835.529	0.0162984
835.607	0.0161878
835.685	0.0162119
835.763	0.0161977
835.841	0.0162039
835.919	0.0161817
835.997	0.0161275
836.075	0.0163261
836.154	0.0161900
836.232	0.0162275
836.310	0.0162322
836.388	0.0161875
836.466	0.0161570
836.544	0.0162009
836.622	0.0163332
836.700	0.0163415
836.779	0.0162645
836.857	0.0163417
836.935	0.0163403
837.013	0.0165244
837.091	0.0164480
837.169	0.0162600
837.247	0.0163224
837.325	0.0165286
837.404	0.0164367
837.482	0.0163775
837.560	0.0162986
837.638	0.0163325
837.716	0.0164792
837.794	0.0163626
837.872	0.0163654
837.950	0.0162935
838.029	0.0162949
838.107	0.0162645
838.185	0.0163974
838.263	0.0163404
838.341	0.0163049
838.419	0.0162788
838.497	0.0164192
838.575	0.0162917
838.654	0.0162154
838.732	0.0163123
838.810	0.0163532
838.888	0.0161679
838.966	0.0162515
839.044	0.0164281
839.122	0.0163346
839.200	0.0163770
839.279	0.0163123
839.357	0.0163042
839.435	0.0164935
839.513	0.0164410
839.591	0.0163148
839.669	0.0163348
839.747	0.0165086
839.825	0.0164876
839.904	0.0165119
839.982	0.0165397
840.060	0.0166374
840.138	0.0166405
840.216	0.0164726
840.294	0.0165290
840.372	0.0165868
840.450	0.0164912
840.529	0.0166290
840.607	0.0167056
840.685	0.0166261
840.763	0.0166457
840.841	0.0165269
840.919	0.0165118
840.997	0.0165430
841.075	0.0164308
841.154	0.0163555
841.232	0.0163769
841.310	0.0163306
841.388	0.0161871
841.466	0.0162053
841.544	0.0162194
841.622	0.0160953
841.700	0.0160700
841.779	0.0159693
841.857	0.0160789
841.935	0.0161266
842.013	0.0161089
842.091	0.0161575
842.169	0.0161549
842.247	0.0161629
842.325	0.0160879
842.404	0.0163168
842.482	0.0162927
842.560	0.0163042
842.638	0.0163132
842.716	0.0164510
842.794	0.0162213
842.872	0.0163782
842.950	0.0163966
843.029	0.0164008
843.107	0.0164477
843.185	0.0163835
843.263	0.0162247
843.341	0.0164199
843.419	0.0164050
843.497	0.0164945
843.575	0.0164297
843.654	0.0164114
843.732	0.0165961
843.810	0.0165287
843.888	0.0165539
843.966	0.0164548
844.044	0.0164794
844.122	0.0165192
844.200	0.0165359
844.279	0.0165254
844.357	0.0163663
844.435	0.0164451
844.513	0.0163870
844.591	0.0162183
844.669	0.0162409
844.747	0.0162352
844.825	0.0161772
844.904	0.0161678
844.982	0.0159847
845.060	0.0160458
845.138	0.0159612
845.216	0.0159705
845.294	0.0160007
845.372	0.0160621
845.450	0.0160622
845.529	0.0160064
845.607	0.0160709
845.685	0.0160091
845.763	0.0160746
845.841	0.0160668
845.919	0.0160563
845.997	0.0160806
846.075	0.0161515
846.154	0.0161630
846.232	0.0163355
846.310	0.0162077
846.388	0.0163036
846.466	0.0163143
846.544	0.0163099
846.622	0.0163285
846.700	0.0163644
846.779	0.0162617
846.857	0.0163157
846.935	0.0162882
847.013	0.0163519
847.091	0.0163931
847.169	0.0162060
847.247	0.0162897
847.325	0.0162091
847.404	0.0161929
847.482	0.0161048
847.560	0.0161788
847.638	0.0161414
847.716	0.0160904
847.794	0.0162251
847.872	0.0162193
847.950	0.0161079
848.029	0.0160423
848.107	0.0162041
848.185	0.0162546
848.263	0.0162496
848.341	0.0163661
848.419	0.0163149
848.497	0.0164620
848.575	0.0163574
848.654	0.0165417
848.732	0.0165592
848.810	0.0165891
848.888	0.0166154
848.966	0.0165167
849.044	0.0165559
849.122	0.0165252
849.200	0.0166334
849.279	0.0166012
849.357	0.0165564
849.435	0.0166248
849.513	0.0166334
849.591	0.0164890
849.669	0.0164943
849.747	0.0165680
849.825	0.0164466
849.904	0.0165943
849.982	0.0165273
850.060	0.0165027
850.138	0.0164628
850.216	0.0163519
850.294	0.0164354
850.372	0.0164777
850.450	0.0164330
850.529	0.0163706
850.607	0.0164718
850.685	0.0162737
850.763	0.0161960
850.841	0.0163869
850.919	0.0163766
850.997	0.0162473
851.075	0.0162682
851.154	0.0162926
851.232	0.0159296
851.310	0.0160592
851.388	0.0161472
851.466	0.0161229
851.544	0.0161769
851.622	0.0161275
851.700	0.0161174
851.779	0.0160973
851.857	0.0161340
851.935	0.0161061
852.013	0.0160532
852.091	0.0161682
852.169	0.0160101
852.247	0.0159853
852.325	0.0161404
852.404	0.0160986
852.482	0.0161111
852.560	0.0161977
852.638	0.0159953
852.716	0.0162858
852.794	0.0160857
852.872	0.0161105
852.950	0.0162426
853.029	0.0162259
853.107	0.0163627
853.185	0.0163807
853.263	0.0162140
853.341	0.0161171
853.419	0.0161845
853.497	0.0163883
853.575	0.0162093
853.654	0.0162228
853.732	0.0162147
853.810	0.0163892
853.888	0.0162499
853.966	0.0162835
854.044	0.0162011
854.122	0.0163448
854.200	0.0164119
854.279	0.0162071
854.357	0.0162158
854.435	0.0162587
854.513	0.0164244
854.591	0.0163713
854.669	0.0163979
854.747	0.0163979
854.825	0.0163213
854.904	0.0163228
854.982	0.0164252
855.060	0.0164119
855.138	0.0164295
855.216	0.0164997
855.294	0.0162797
855.372	0.0163234
855.450	0.0163068
855.529	0.0164539
855.607	0.0163895
855.685	0.0162868
855.763	0.0164294
855.841	0.0163718
855.919	0.0164363
855.997	0.0162533
856.075	0.0163690
856.154	0.0162968
856.232	0.0162963
856.310	0.0162879
856.388	0.0161716
856.466	0.0162054
856.544	0.0162723
856.622	0.0161241
856.700	0.0161744
856.779	0.0162259
856.857	0.0161380
856.935	0.0162563
857.013	0.0161806
857.091	0.0163232
857.169	0.0163263
857.247	0.0163358
857.325	0.0163971
857.404	0.0164305
857.482	0.0163999
857.560	0.0165213
857.638	0.0164230
857.716	0.0164570
857.794	0.0164448
857.872	0.0164933
857.950	0.0164130
858.029	0.0163353
858.107	0.0163541
858.185	0.0163224
858.263	0.0164159
858.341	0.0163387
858.419	0.0162714
858.497	0.0162359
858.575	0.0163565
858.654	0.0163165
858.732	0.0162944
858.810	0.0163035
858.888	0.0162411
858.966	0.0162548
859.044	0.0163260
859.122	0.0163807
859.200	0.0163932
859.279	0.0163206
859.357	0.0162260
859.435	0.0163109
859.513	0.0162343
859.591	0.0163448
859.669	0.0162286
859.747	0.0162474
859.825	0.0161884
859.904	0.0161993
859.982	0.0162527
860.060	0.0162748
860.138	0.0161926
860.216	0.0161433
860.294	0.0162263
860.372	0.0161833
860.450	0.0160853
860.529	0.0160683
860.607	0.0161545
860.685	0.0163179
860.763	0.0163030
860.841	0.0162233
860.919	0.0162708
860.997	0.0162440
861.075	0.0162718
861.154	0.0164360
861.232	0.0163918
861.310	0.0162120
861.388	0.0162374
861.466	0.0163470
861.544	0.0162232
861.622	0.0163072
861.700	0.0163692
861.779	0.0162910
861.857	0.0163501
861.935	0.0163796
862.013	0.0163343
862.091	0.0164754
862.169	0.0163953
862.247	0.0164629
862.325	0.0164124
862.404	0.0162649
862.482	0.0163770
862.560	0.0163089
862.638	0.0162931
862.716	0.0161502
862.794	0.0162306
862.872	0.0163168
862.950	0.0162319
863.029	0.0162916
863.107	0.0161600
863.185	0.0162263
863.263	0.0161884
863.341	0.0162568
863.419	0.0163595
863.497	0.0163232
863.575	0.0164438
863.654	0.0163566
863.732	0.0164603
863.810	0.0164952
863.888	0.0165056
863.966	0.0165207
864.044	0.0165879
864.122	0.0165774
864.200	0.0167517
864.279	0.0167042
864.357	0.0166593
864.435	0.0167645
864.513	0.0166410
864.591	0.0167579
864.669	0.0167474
864.747	0.0165661
864.825	0.0165770
864.904	0.0165952
864.982	0.0165018
865.060	0.0165608
865.138	0.0164828
865.216	0.0164821
865.294	0.0165028
865.372	0.0163503
865.450	0.0163754
865.529	0.0162106
865.607	0.0161834
865.685	0.0162805
865.763	0.0162126
865.841	0.0161751
865.919	0.0161784
865.997	0.0160894
866.075	0.0160988
866.154	0.0161534
866.232	0.0161411
866.310	0.0161590
866.388	0.0160450
866.466	0.0160892
866.544	0.0161583
866.622	0.0161980
866.700	0.0160860
866.779	0.0162115
866.857	0.0161227
866.935	0.0161414
867.013	0.0161227
867.091	0.0162275
867.169	0.0161311
867.247	0.0161034
867.325	0.0161839
867.404	0.0162719
867.482	0.0161570
867.560	0.0162288
867.638	0.0162497
867.716	0.0163145
867.794	0.0162669
867.872	0.0162492
867.950	0.0163891
868.029	0.0163181
868.107	0.0162826
868.185	0.0162753
868.263	0.0163206
868.341	0.0162306
868.419	0.0162461
868.497	0.0162656
868.575	0.0162585
868.654	0.0162846
868.732	0.0162448
868.810	0.0161304
868.888	0.0162275
868.966	0.0162623
869.044	0.0162959
869.122	0.0163200
869.200	0.0162263
869.279	0.0162395
869.357	0.0163556
869.435	0.0164422
869.513	0.0163760
869.591	0.0163838
869.669	0.0161953
869.747	0.0163455
869.825	0.0164152
869.904	0.0162485
869.982	0.0163344
870.060	0.0164019
870.138	0.0163431
870.216	0.0162685
870.294	0.0162469
870.372	0.0162209
870.450	0.0163352
870.529	0.0162446
870.607	0.0164236
870.685	0.0165043
870.763	0.0164721
870.841	0.0165425
870.919	0.0164294
870.997	0.0164680
871.075	0.0165273
871.154	0.0165919
871.232	0.0165271
871.310	0.0165568
871.388	0.0166011
871.466	0.0164628
871.544	0.0164429
871.622	0.0165535
871.700	0.0164697
871.779	0.0165142
871.857	0.0165585
871.935	0.0163289
872.013	0.0161936
872.091	0.0163647
872.169	0.0162170
872.247	0.0162921
872.325	0.0161694
872.404	0.0162092
872.482	0.0161678
872.560	0.0161073
872.638	0.0162547
872.716	0.0162566
872.794	0.0161673
872.872	0.0160859
872.950	0.0161951
873.029	0.0163345
873.107	0.0162479
873.185	0.0162525
873.263	0.0162728
873.341	0.0162387
873.419	0.0162396
873.497	0.0160879
873.575	0.0160978
873.654	0.0162859
873.732	0.0161563
873.810	0.0160881
873.888	0.0161801
873.966	0.0160654
874.044	0.0163021
874.122	0.0160318
874.200	0.0158395
874.279	0.0160914
874.357	0.0162163
874.435	0.0160947
874.513	0.0161079
874.591	0.0161362
874.669	0.0163764
874.747	0.0163622
874.825	0.0162086
874.904	0.0163316
874.982	0.0164277
875.060	0.0163079
875.138	0.0164281
875.216	0.0164780
875.294	0.0163538
875.372	0.0164365
875.450	0.0163824
875.529	0.0165469
875.607	0.0164928
875.685	0.0164275
875.763	0.0163377
875.841	0.0163517
875.919	0.0164075
875.997	0.0162861
876.075	0.0163158
876.154	0.0163168
876.232	0.0161924
876.310	0.0161244
876.388	0.0163040
876.466	0.0163322
876.544	0.0162552
876.622	0.0161916
876.700	0.0163160
876.779	0.0163511
876.857	0.0162616
876.935	0.0161382
877.013	0.0162495
877.091	0.0163647
877.169	0.0162187
877.247	0.0161964
877.325	0.0161995
877.404	0.0162535
877.482	0.0163882
877.560	0.0162312
877.638	0.0162653
877.716	0.0162518
877.794	0.0162834
877.872	0.0162054
877.950	0.0162095
878.029	0.0162397
878.107	0.0162611
878.185	0.0162698
878.263	0.0162078
878.341	0.0162006
878.419	0.0161775
878.497	0.0160890
878.575	0.0161605
878.654	0.0161987
878.732	0.0161880
878.810	0.0161450
878.888	0.0161436
878.966	0.0163210
879.044	0.0162983
879.122	0.0164450
879.200	0.0163902
879.279	0.0162756
879.357	0.0164340
879.435	0.0164536
879.513	0.0164165
879.591	0.0164272
879.669	0.0164390
879.747	0.0164757
879.825	0.0162611
879.904	0.0163452
879.982	0.0164249
880.060	0.0163925
880.138	0.0163564
880.216	0.0164816
880.294	0.0163152
880.372	0.0162283
880.450	0.0162872
880.529	0.0162920
880.607	0.0163010
880.685	0.0162119
880.763	0.0163154
880.841	0.0161954
880.919	0.0161587
880.997	0.0162727
881.075	0.0161114
881.154	0.0159856
881.232	0.0162485
881.310	0.0161429
881.388	0.0160984
881.466	0.0162084
881.544	0.0161237
881.622	0.0161738
881.700	0.0161897
881.779	0.0161929
881.857	0.0161009
881.935	0.0161891
882.013	0.0162282
882.091	0.0162237
882.169	0.0162113
882.247	0.0161987
882.325	0.0162226
882.404	0.0164111
882.482	0.0162580
882.560	0.0163203
882.638	0.0163062
882.716	0.0162529
882.794	0.0163438
882.872	0.0163411
882.950	0.0164151
883.029	0.0164273
883.107	0.0163449
883.185	0.0163157
883.263	0.0162419
883.341	0.0162016
883.419	0.0162659
883.497	0.0162043
883.575	0.0162539
883.654	0.0160538
883.732	0.0160656
883.810	0.0161480
883.888	0.0159136
883.966	0.0159198
884.044	0.0159663
884.122	0.0160394
884.200	0.0160121
884.279	0.0160491
884.357	0.0160891
884.435	0.0161908
884.513	0.0163155
884.591	0.0162483
884.669	0.0163525
884.747	0.0163464
884.825	0.0162337
884.904	0.0163862
884.982	0.0162801
885.060	0.0163960
885.138	0.0163563
885.216	0.0164532
885.294	0.0163448
885.372	0.0164833
885.450	0.0162971
885.529	0.0162907
885.607	0.0163421
885.685	0.0163418
885.763	0.0162474
885.841	0.0161956
885.919	0.0162509
885.997	0.0161187
886.075	0.0162128
886.154	0.0163061
886.232	0.0163100
886.310	0.0161298
886.388	0.0163569
886.466	0.0163139
886.544	0.0162795
886.622	0.0163595
886.700	0.0163107
886.779	0.0161953
886.857	0.0163983
886.935	0.0163802
887.013	0.0163371
887.091	0.0163473
887.169	0.0163264
887.247	0.0162644
887.325	0.0164075
887.404	0.0163844
887.482	0.0163860
887.560	0.0162754
887.638	0.0163731
887.716	0.0163191
887.794	0.0163660
887.872	0.0164232
887.950	0.0164754
888.029	0.0165479
888.107	0.0164464
888.185	0.0165141
888.263	0.0164677
888.341	0.0163885
888.419	0.0165033
888.497	0.0164381
888.575	0.0163892
888.654	0.0163160
888.732	0.0163104
888.810	0.0163371
888.888	0.0162802
888.966	0.0162907
889.044	0.0162507
889.122	0.0163790
889.200	0.0162921
889.279	0.0163493
889.357	0.0163280
889.435	0.0163672
889.513	0.0163922
889.591	0.0163691
889.669	0.0162471
889.747	0.0163291
889.825	0.0163264
889.904	0.0164697
889.982	0.0163107
890.060	0.0164281
890.138	0.0162456
890.216	0.0162907
890.294	0.0162912
890.372	0.0160152
890.450	0.0160194
890.529	0.0159760
890.607	0.0160210
890.685	0.0160064
890.763	0.0158486
890.841	0.0159628
890.919	0.0159148
890.997	0.0158896
891.075	0.0160899
891.154	0.0160448
891.232	0.0161004
891.310	0.0161864
891.388	0.0162107
891.466	0.0162341
891.544	0.0164056
891.622	0.0164400
891.700	0.0164206
891.779	0.0164282
891.857	0.0164490
891.935	0.0165762
892.013	0.0165856
892.091	0.0166415
892.169	0.0165379
892.247	0.0165572
892.325	0.0165399
892.404	0.0164890
892.482	0.0165012
892.560	0.0165367
892.638	0.0163570
892.716	0.0162434
892.794	0.0164586
892.872	0.0165350
892.950	0.0164497
893.029	0.0163479
893.107	0.0163158
893.185	0.0162685
893.263	0.0162653
893.341	0.0163248
893.419	0.0162640
893.497	0.0163213
893.575	0.0162505
893.654	0.0161093
893.732	0.0162026
893.810	0.0161352
893.888	0.0162630
893.966	0.0162167
894.044	0.0161722
894.122	0.0161824
894.200	0.0161436
894.279	0.0161154
894.357	0.0161293
894.435	0.0163921
894.513	0.0162893
894.591	0.0163330
894.669	0.0163915
894.747	0.0163918
894.825	0.0164112
894.904	0.0165411
894.982	0.0163425
895.060	0.0164420
895.138	0.0167756
895.216	0.0166590
895.294	0.0165625
895.372	0.0165752
895.450	0.0165824
895.529	0.0166391
895.607	0.0165676
895.685	0.0165447
895.763	0.0164884
895.841	0.0164597
895.919	0.0162706
895.997	0.0162571
896.075	0.0163756
896.154	0.0162051
896.232	0.0162460
896.310	0.0161519
896.388	0.0162346
896.466	0.0162241
896.544	0.0161377
896.622	0.0163523
896.700	0.0162466
896.779	0.0159879
896.857	0.0163239
896.935	0.0162768
897.013	0.0162641
897.091	0.0161827
897.169	0.0161939
897.247	0.0162943
897.325	0.0162366
897.404	0.0162105
897.482	0.0162659
897.560	0.0161298
897.638	0.0162971
897.716	0.0161511
897.794	0.0162397
897.872	0.0162421
897.950	0.0162705
898.029	0.0164046
898.107	0.0163683
898.185	0.0162109
898.263	0.0163546
898.341	0.0162402
898.419	0.0163589
898.497	0.0164073
898.575	0.0164659
898.654	0.0163161
898.732	0.0162980
898.810	0.0164944
898.888	0.0163318
898.966	0.0163164
899.044	0.0164446
899.122	0.0164735
899.200	0.0164156
899.279	0.0164062
899.357	0.0163073
899.435	0.0162940
899.513	0.0164360
899.591	0.0164263
899.669	0.0163680
899.747	0.0163412
899.825	0.0163863
899.904	0.0165074
899.982	0.0164130
900.060	0.0164545
900.138	0.0165218
900.216	0.0164066
900.294	0.0161985
900.372	0.0163552
900.450	0.0162849
900.529	0.0162805
900.607	0.0160725
900.685	0.0162400
900.763	0.0162233
900.841	0.0160378
900.919	0.0160799
900.997	0.0161396
901.075	0.0162469
901.154	0.0161734
901.232	0.0162294
901.310	0.0160567
901.388	0.0161899
901.466	0.0163868
901.544	0.0161956
901.622	0.0163748
901.700	0.0163228
901.779	0.0162235
901.857	0.0164307
901.935	0.0165687
902.013	0.0165518
902.091	0.0165518
902.169	0.0168115
902.247	0.0165623
902.325	0.0166232
902.404	0.0166157
902.482	0.0165618
902.560	0.0166982
902.638	0.0166692
902.716	0.0165325
902.794	0.0165350
902.872	0.0164683
902.950	0.0164429
903.029	0.0164101
903.107	0.0163440
903.185	0.0163598
903.263	0.0162244
903.341	0.0161571
903.419	0.0162241
903.497	0.0161774
903.575	0.0161973
903.654	0.0161417
903.732	0.0160558
903.810	0.0159940
903.888	0.0160495
903.966	0.0159961
904.044	0.0161470
904.122	0.0160148
904.200	0.0160803
904.279	0.0158784
904.357	0.0159818
904.435	0.0160380
904.513	0.0161474
904.591	0.0160365
904.669	0.0160341
904.747	0.0160594
904.825	0.0160793
904.904	0.0160726
904.982	0.0162392
905.060	0.0161517
905.138	0.0161498
905.216	0.0161874
905.294	0.0161858
905.372	0.0162525
905.450	0.0163435
905.529	0.0162217
905.607	0.0163248
905.685	0.0164539
905.763	0.0163985
905.841	0.0163792
905.919	0.0162914
905.997	0.0163895
906.075	0.0163917
906.154	0.0163975
906.232	0.0164551
906.310	0.0165176
906.388	0.0164301
906.466	0.0163683
906.544	0.0163438
906.622	0.0162853
906.700	0.0164463
906.779	0.0163695
906.857	0.0164468
906.935	0.0163537
907.013	0.0162299
907.091	0.0162818
907.169	0.0163345
907.247	0.0162708
907.325	0.0161250
907.404	0.0162177
907.482	0.0162469
907.560	0.0162120
907.638	0.0160962
907.716	0.0159928
907.794	0.0160459
907.872	0.0160434
907.950	0.0160626
908.029	0.0162113
908.107	0.0162211
908.185	0.0160889
908.263	0.0161442
908.341	0.0161458
908.419	0.0162281
908.497	0.0162358
908.575	0.0163317
908.654	0.0164894
908.732	0.0163603
908.810	0.0163432
908.888	0.0162022
908.966	0.0163803
909.044	0.0164418
909.122	0.0164669
909.200	0.0163771
909.279	0.0164773
909.357	0.0164931
909.435	0.0164578
909.513	0.0163280
909.591	0.0161690
909.669	0.0162843
909.747	0.0162672
909.825	0.0162463
909.904	0.0162068
909.982	0.0161189
910.060	0.0160957
910.138	0.0162352
910.216	0.0161275
910.294	0.0161433
910.372	0.0162010
910.450	0.0160813
910.529	0.0161426
910.607	0.0160788
910.685	0.0161723
910.763	0.0161519
910.841	0.0159435
910.919	0.0160719
910.997	0.0160992
911.075	0.0161848
911.154	0.0159017
911.232	0.0159493
911.310	0.0161155
911.388	0.0160257
911.466	0.0159154
911.544	0.0161070
911.622	0.0161842
911.700	0.0160984
911.779	0.0160976
911.857	0.0161192
911.935	0.0162487
912.013	0.0162789
912.091	0.0163911
912.169	0.0163204
912.247	0.0164171
912.325	0.0163725
912.404	0.0164035
912.482	0.0164729
912.560	0.0165285
912.638	0.0164721
912.716	0.0164217
912.794	0.0164615
912.872	0.0164711
912.950	0.0163766
913.029	0.0164951
913.107	0.0164889
913.185	0.0163788
913.263	0.0163901
913.341	0.0163943
913.419	0.0164005
913.497	0.0163805
913.575	0.0162893
913.654	0.0163290
913.732	0.0163416
913.810	0.0162900
913.888	0.0163756
913.966	0.0163318
914.044	0.0163504
914.122	0.0164046
914.200	0.0164511
914.279	0.0164423
914.357	0.0163510
914.435	0.0162826
914.513	0.0162379
914.591	0.0163490
914.669	0.0160882
914.747	0.0162007
914.825	0.0162479
914.904	0.0161355
914.982	0.0162451
915.060	0.0162329
915.138	0.0162897
915.216	0.0162807
915.294	0.0162963
915.372	0.0162819
915.450	0.0163322
915.529	0.0162645
915.607	0.0163356
915.685	0.0162504
915.763	0.0162426
915.841	0.0162569
915.919	0.0163747
915.997	0.0163342
916.075	0.0163507
916.154	0.0164129
916.232	0.0163911
916.310	0.0163390
916.388	0.0163640
916.466	0.0164542
916.544	0.0163798
916.622	0.0162170
916.700	0.0165448
916.779	0.0164326
916.857	0.0164899
916.935	0.0164407
917.013	0.0163026
917.091	0.0163509
917.169	0.0164023
917.247	0.0164073
917.325	0.0166106
917.404	0.0166352
917.482	0.0164256
917.560	0.0162431
917.638	0.0164167
917.716	0.0163517
917.794	0.0163808
917.872	0.0163036
917.950	0.0164124
918.029	0.0164181
918.107	0.0163065
918.185	0.0163728
918.263	0.0163055
918.341	0.0163757
918.419	0.0162922
918.497	0.0163649
918.575	0.0164703
918.654	0.0164134
918.732	0.0163226
918.810	0.0164714
918.888	0.0163443
918.966	0.0163841
919.044	0.0164386
919.122	0.0162548
919.200	0.0162202
919.279	0.0164808
919.357	0.0163361
919.435	0.0161976
919.513	0.0163223
919.591	0.0165048
919.669	0.0162804
919.747	0.0164366
919.825	0.0163111
919.904	0.0163669
