06/03/2022	14:14:05	Ver.	4.1	UNKNOWN
Optical Delay	599.981738	Delta X		0.078125	Sweeps	1	Scan Rate	0/0
Coordinates	Axis 1	NaN	Axis 2	NaN	Axis 3	NaN	Axis 4	NaN	Axis 5	NaN	Axis 6	0.000000
TX Power	0.000000	RX Power	0.000000

599.982	0.0168343
600.060	0.0168190
600.138	0.0169004
600.216	0.0168187
600.294	0.0168606
600.372	0.0168472
600.450	0.0169177
600.529	0.0168207
600.607	0.0168685
600.685	0.0169040
600.763	0.0168188
600.841	0.0167807
600.919	0.0169339
600.997	0.0168417
601.075	0.0167043
601.154	0.0168275
601.232	0.0167935
601.310	0.0166929
601.388	0.0168834
601.466	0.0169556
601.544	0.0169127
601.622	0.0167653
601.700	0.0167154
601.779	0.0169769
601.857	0.0167542
601.935	0.0167939
602.013	0.0169246
602.091	0.0168221
602.169	0.0167345
602.247	0.0168566
602.325	0.0168474
602.404	0.0168457
602.482	0.0168211
602.560	0.0168266
602.638	0.0168729
602.716	0.0169586
602.794	0.0168280
602.872	0.0168204
602.950	0.0167170
603.029	0.0167448
603.107	0.0168356
603.185	0.0168729
603.263	0.0168996
603.341	0.0167088
603.419	0.0168260
603.497	0.0168923
603.575	0.0168094
603.654	0.0166954
603.732	0.0168289
603.810	0.0167654
603.888	0.0168429
603.966	0.0168067
604.044	0.0168781
604.122	0.0168773
604.200	0.0167643
604.279	0.0169570
604.357	0.0168000
604.435	0.0169053
604.513	0.0168987
604.591	0.0169398
604.669	0.0168427
604.747	0.0168736
604.825	0.0168041
604.904	0.0168581
604.982	0.0169423
605.060	0.0169279
605.138	0.0169520
605.216	0.0168457
605.294	0.0167191
605.372	0.0169121
605.450	0.0169264
605.529	0.0168668
605.607	0.0168664
605.685	0.0168498
605.763	0.0168154
605.841	0.0169129
605.919	0.0169773
605.997	0.0167559
606.075	0.0168954
606.154	0.0167942
606.232	0.0168832
606.310	0.0169382
606.388	0.0167970
606.466	0.0168121
606.544	0.0168098
606.622	0.0166825
606.700	0.0167255
606.779	0.0168708
606.857	0.0167541
606.935	0.0167551
607.013	0.0167409
607.091	0.0167206
607.169	0.0168143
607.247	0.0169216
607.325	0.0168301
607.404	0.0166924
607.482	0.0168972
607.560	0.0167115
607.638	0.0166903
607.716	0.0167820
607.794	0.0167960
607.872	0.0168346
607.950	0.0168603
608.029	0.0167813
608.107	0.0169466
608.185	0.0169083
608.263	0.0167490
608.341	0.0167041
608.419	0.0168808
608.497	0.0168416
608.575	0.0167710
608.654	0.0169485
608.732	0.0167462
608.810	0.0168276
608.888	0.0167910
608.966	0.0169356
609.044	0.0168851
609.122	0.0167825
609.200	0.0167664
609.279	0.0168823
609.357	0.0170437
609.435	0.0168381
609.513	0.0167872
609.591	0.0168282
609.669	0.0168400
609.747	0.0168885
609.825	0.0168112
609.904	0.0168649
609.982	0.0168543
610.060	0.0167309
610.138	0.0168404
610.216	0.0168366
610.294	0.0168800
610.372	0.0167749
610.450	0.0167506
610.529	0.0168770
610.607	0.0169151
610.685	0.0168032
610.763	0.0166788
610.841	0.0167981
610.919	0.0168748
610.997	0.0167130
611.075	0.0167097
611.154	0.0167551
611.232	0.0168483
611.310	0.0167780
611.388	0.0168374
611.466	0.0167713
611.544	0.0168116
611.622	0.0167600
611.700	0.0168381
611.779	0.0168331
611.857	0.0169462
611.935	0.0167253
612.013	0.0167406
612.091	0.0166299
612.169	0.0167655
612.247	0.0168232
612.325	0.0168211
612.404	0.0168103
612.482	0.0168294
612.560	0.0167512
612.638	0.0169299
612.716	0.0166605
612.794	0.0167870
612.872	0.0170003
612.950	0.0168392
613.029	0.0167419
613.107	0.0169987
613.185	0.0169037
613.263	0.0168243
613.341	0.0168680
613.419	0.0168256
613.497	0.0168974
613.575	0.0168514
613.654	0.0168853
613.732	0.0168346
613.810	0.0168393
613.888	0.0167907
613.966	0.0168044
614.044	0.0169149
614.122	0.0168310
614.200	0.0168903
614.279	0.0167889
614.357	0.0168132
614.435	0.0168073
614.513	0.0168433
614.591	0.0167346
614.669	0.0168206
614.747	0.0168088
614.825	0.0167773
614.904	0.0169501
614.982	0.0169011
615.060	0.0168237
615.138	0.0169215
615.216	0.0169286
615.294	0.0167162
615.372	0.0168236
615.450	0.0167934
615.529	0.0169104
615.607	0.0166418
615.685	0.0168623
615.763	0.0168449
615.841	0.0168304
615.919	0.0169206
615.997	0.0169232
616.075	0.0169534
616.154	0.0168948
616.232	0.0170087
616.310	0.0167960
616.388	0.0169542
616.466	0.0169576
616.544	0.0168835
616.622	0.0169203
616.700	0.0170016
616.779	0.0169027
616.857	0.0168816
616.935	0.0168796
617.013	0.0169429
617.091	0.0170180
617.169	0.0169656
617.247	0.0168671
617.325	0.0168489
617.404	0.0167953
617.482	0.0168299
617.560	0.0169229
617.638	0.0169747
617.716	0.0168522
617.794	0.0168610
617.872	0.0168511
617.950	0.0169769
618.029	0.0168176
618.107	0.0168063
618.185	0.0166212
618.263	0.0168066
618.341	0.0169656
618.419	0.0168836
618.497	0.0167237
618.575	0.0167855
618.654	0.0167551
618.732	0.0168181
618.810	0.0168585
618.888	0.0167891
618.966	0.0167279
619.044	0.0167695
619.122	0.0168433
619.200	0.0168439
619.279	0.0168563
619.357	0.0167392
619.435	0.0168480
619.513	0.0168865
619.591	0.0168578
619.669	0.0167403
619.747	0.0167722
619.825	0.0168459
619.904	0.0167185
619.982	0.0167971
620.060	0.0167433
620.138	0.0169116
620.216	0.0169154
620.294	0.0168704
620.372	0.0169061
620.450	0.0167481
620.529	0.0167085
620.607	0.0168559
620.685	0.0168729
620.763	0.0167859
620.841	0.0168305
620.919	0.0167560
620.997	0.0168776
621.075	0.0168203
621.154	0.0167192
621.232	0.0167618
621.310	0.0168226
621.388	0.0167591
621.466	0.0167866
621.544	0.0169296
621.622	0.0167785
621.700	0.0168633
621.779	0.0169969
621.857	0.0168884
621.935	0.0167499
622.013	0.0168894
622.091	0.0168520
622.169	0.0168367
622.247	0.0167407
622.325	0.0166894
622.404	0.0168228
622.482	0.0168539
622.560	0.0167706
622.638	0.0168124
622.716	0.0168581
622.794	0.0168506
622.872	0.0168700
622.950	0.0168901
623.029	0.0168096
623.107	0.0166505
623.185	0.0167960
623.263	0.0167625
623.341	0.0167837
623.419	0.0168496
623.497	0.0166540
623.575	0.0168184
623.654	0.0169009
623.732	0.0168166
623.810	0.0167646
623.888	0.0168097
623.966	0.0168240
624.044	0.0166635
624.122	0.0167209
624.200	0.0167825
624.279	0.0168226
624.357	0.0167410
624.435	0.0169887
624.513	0.0167332
624.591	0.0167551
624.669	0.0167993
624.747	0.0168021
624.825	0.0167938
624.904	0.0169218
624.982	0.0168153
625.060	0.0167368
625.138	0.0168486
625.216	0.0167410
625.294	0.0166889
625.372	0.0168964
625.450	0.0168472
625.529	0.0166926
625.607	0.0167259
625.685	0.0167727
625.763	0.0167478
625.841	0.0169042
625.919	0.0170490
625.997	0.0169324
626.075	0.0168749
626.154	0.0168443
626.232	0.0169592
626.310	0.0168764
626.388	0.0168491
626.466	0.0168261
626.544	0.0168124
626.622	0.0169331
626.700	0.0168284
626.779	0.0169079
626.857	0.0170087
626.935	0.0169702
627.013	0.0168227
627.091	0.0169256
627.169	0.0170518
627.247	0.0169398
627.325	0.0170445
627.404	0.0168958
627.482	0.0168176
627.560	0.0167836
627.638	0.0167567
627.716	0.0168598
627.794	0.0167575
627.872	0.0166503
627.950	0.0167487
628.029	0.0165953
628.107	0.0166695
628.185	0.0165633
628.263	0.0165448
628.341	0.0166315
628.419	0.0168701
628.497	0.0169379
628.575	0.0170418
628.654	0.0172145
628.732	0.0173087
628.810	0.0171896
628.888	0.0172770
628.966	0.0172563
629.044	0.0170860
629.122	0.0167693
629.200	0.0165514
629.279	0.0164439
629.357	0.0163546
629.435	0.0163427
629.513	0.0163387
629.591	0.0162302
629.669	0.0164185
629.747	0.0165500
629.825	0.0168242
629.904	0.0168791
629.982	0.0170039
630.060	0.0173034
630.138	0.0174169
630.216	0.0175501
630.294	0.0175159
630.372	0.0174523
630.450	0.0173878
630.529	0.0173516
630.607	0.0171355
630.685	0.0168735
630.763	0.0167884
630.841	0.0165721
630.919	0.0162227
630.997	0.0163219
631.075	0.0163263
631.154	0.0160631
631.232	0.0161177
631.310	0.0162738
631.388	0.0164545
631.466	0.0165308
631.544	0.0166789
631.622	0.0170329
631.700	0.0171544
631.779	0.0171220
631.857	0.0172821
631.935	0.0172780
632.013	0.0173765
632.091	0.0173227
632.169	0.0170820
632.247	0.0169190
632.325	0.0169042
632.404	0.0167060
632.482	0.0164423
632.560	0.0164365
632.638	0.0162762
632.716	0.0162470
632.794	0.0162579
632.872	0.0163538
632.950	0.0164646
633.029	0.0167535
633.107	0.0168202
633.185	0.0169449
633.263	0.0170351
633.341	0.0171080
633.419	0.0169835
633.497	0.0169871
633.575	0.0169743
633.654	0.0167398
633.732	0.0167616
633.810	0.0168374
633.888	0.0167727
633.966	0.0166840
634.044	0.0167188
634.122	0.0168888
634.200	0.0168784
634.279	0.0170438
634.357	0.0171134
634.435	0.0170805
634.513	0.0170460
634.591	0.0171655
634.669	0.0170453
634.747	0.0167999
634.825	0.0169018
634.904	0.0167326
634.982	0.0166730
635.060	0.0165793
635.138	0.0165304
635.216	0.0164942
635.294	0.0164460
635.372	0.0163450
635.450	0.0164989
635.529	0.0164975
635.607	0.0166409
635.685	0.0168523
635.763	0.0169659
635.841	0.0171677
635.919	0.0170835
635.997	0.0171735
636.075	0.0171263
636.154	0.0171246
636.232	0.0171859
636.310	0.0169497
636.388	0.0169923
636.466	0.0168074
636.544	0.0168713
636.622	0.0166895
636.700	0.0166708
636.779	0.0166501
636.857	0.0166439
636.935	0.0165447
637.013	0.0165948
637.091	0.0164997
637.169	0.0165329
637.247	0.0167031
637.325	0.0166579
637.404	0.0167813
637.482	0.0167761
637.560	0.0168066
637.638	0.0170078
637.716	0.0169092
637.794	0.0169471
637.872	0.0170284
637.950	0.0171404
638.029	0.0171523
638.107	0.0172188
638.185	0.0171480
638.263	0.0171416
638.341	0.0170181
638.419	0.0168907
638.497	0.0167477
638.575	0.0167513
638.654	0.0165598
638.732	0.0165178
638.810	0.0165150
638.888	0.0164758
638.966	0.0165134
639.044	0.0166901
639.122	0.0167522
639.200	0.0166945
639.279	0.0168290
639.357	0.0169688
639.435	0.0170586
639.513	0.0170234
639.591	0.0169872
639.669	0.0168546
639.747	0.0170141
639.825	0.0167442
639.904	0.0169370
639.982	0.0167934
640.060	0.0167124
640.138	0.0166796
640.216	0.0167738
640.294	0.0166196
640.372	0.0167844
640.450	0.0170361
640.529	0.0170298
640.607	0.0170850
640.685	0.0170320
640.763	0.0169893
640.841	0.0169922
640.919	0.0170148
640.997	0.0168150
641.075	0.0166190
641.154	0.0165277
641.232	0.0163349
641.310	0.0163573
641.388	0.0163817
641.466	0.0163963
641.544	0.0164925
641.622	0.0165372
641.700	0.0166222
641.779	0.0167270
641.857	0.0169138
641.935	0.0171311
642.013	0.0170611
642.091	0.0171973
642.169	0.0172075
642.247	0.0171600
642.325	0.0170718
642.404	0.0169974
642.482	0.0169180
642.560	0.0169945
642.638	0.0168943
642.716	0.0166825
642.794	0.0167536
642.872	0.0165223
642.950	0.0164518
643.029	0.0164471
643.107	0.0164088
643.185	0.0164169
643.263	0.0164258
643.341	0.0166361
643.419	0.0166533
643.497	0.0167519
643.575	0.0168505
643.654	0.0170094
643.732	0.0172384
643.810	0.0173197
643.888	0.0174304
643.966	0.0173764
644.044	0.0172997
644.122	0.0172108
644.200	0.0170671
644.279	0.0168365
644.357	0.0168191
644.435	0.0167207
644.513	0.0165852
644.591	0.0165630
644.669	0.0166603
644.747	0.0165144
644.825	0.0165295
644.904	0.0164525
644.982	0.0166077
645.060	0.0164668
645.138	0.0166412
645.216	0.0168264
645.294	0.0168058
645.372	0.0168488
645.450	0.0168223
645.529	0.0168969
645.607	0.0169560
645.685	0.0170000
645.763	0.0169730
645.841	0.0170821
645.919	0.0168794
645.997	0.0169041
646.075	0.0169742
646.154	0.0168250
646.232	0.0168981
646.310	0.0169119
646.388	0.0168306
646.466	0.0167576
646.544	0.0167683
646.622	0.0167785
646.700	0.0167011
646.779	0.0166549
646.857	0.0165579
646.935	0.0166084
647.013	0.0166653
647.091	0.0167127
647.169	0.0166701
647.247	0.0166705
647.325	0.0168564
647.404	0.0170017
647.482	0.0169409
647.560	0.0168779
647.638	0.0169954
647.716	0.0170039
647.794	0.0169804
647.872	0.0170184
647.950	0.0169904
648.029	0.0169134
648.107	0.0168040
648.185	0.0169273
648.263	0.0167682
648.341	0.0166728
648.419	0.0166916
648.497	0.0167416
648.575	0.0166961
648.654	0.0168600
648.732	0.0167074
648.810	0.0168899
648.888	0.0167764
648.966	0.0169582
649.044	0.0168055
649.122	0.0168342
649.200	0.0168794
649.279	0.0168736
649.357	0.0169337
649.435	0.0167390
649.513	0.0168185
649.591	0.0167799
649.669	0.0167280
649.747	0.0168325
649.825	0.0167415
649.904	0.0168967
649.982	0.0169608
650.060	0.0169541
650.138	0.0168964
650.216	0.0169353
650.294	0.0169076
650.372	0.0167175
650.450	0.0168431
650.529	0.0166770
650.607	0.0166683
650.685	0.0167114
650.763	0.0166628
650.841	0.0166948
650.919	0.0167428
650.997	0.0166936
651.075	0.0166323
651.154	0.0168683
651.232	0.0168288
651.310	0.0167101
651.388	0.0164522
651.466	0.0163847
651.544	0.0164462
651.622	0.0164055
651.700	0.0166099
651.779	0.0165897
651.857	0.0165414
651.935	0.0164965
652.013	0.0165405
652.091	0.0166098
652.169	0.0167043
652.247	0.0167059
652.325	0.0167272
652.404	0.0169226
652.482	0.0170376
652.560	0.0171487
652.638	0.0171325
652.716	0.0171127
652.794	0.0171446
652.872	0.0171088
652.950	0.0170338
653.029	0.0169044
653.107	0.0169750
653.185	0.0168893
653.263	0.0167966
653.341	0.0167921
653.419	0.0167267
653.497	0.0164995
653.575	0.0165775
653.654	0.0167443
653.732	0.0166399
653.810	0.0166238
653.888	0.0167770
653.966	0.0167085
654.044	0.0165733
654.122	0.0167854
654.200	0.0168170
654.279	0.0167978
654.357	0.0169214
654.435	0.0167126
654.513	0.0167116
654.591	0.0166121
654.669	0.0165388
654.747	0.0163844
654.825	0.0165063
654.904	0.0164938
654.982	0.0163706
655.060	0.0163078
655.138	0.0163805
655.216	0.0163698
655.294	0.0166438
655.372	0.0166805
655.450	0.0168929
655.529	0.0167879
655.607	0.0168888
655.685	0.0170998
655.763	0.0171845
655.841	0.0173558
655.919	0.0173696
655.997	0.0174519
656.075	0.0174406
656.154	0.0173989
656.232	0.0173336
656.310	0.0174137
656.388	0.0172462
656.466	0.0171365
656.544	0.0171844
656.622	0.0170554
656.700	0.0168206
656.779	0.0168430
656.857	0.0166031
656.935	0.0166656
657.013	0.0165687
657.091	0.0163515
657.169	0.0163725
657.247	0.0163352
657.325	0.0163960
657.404	0.0162486
657.482	0.0161978
657.560	0.0162766
657.638	0.0165469
657.716	0.0165831
657.794	0.0166560
657.872	0.0166922
657.950	0.0168633
658.029	0.0166659
658.107	0.0167792
658.185	0.0168165
658.263	0.0168764
658.341	0.0169049
658.419	0.0168446
658.497	0.0168759
658.575	0.0168814
658.654	0.0170207
658.732	0.0169334
658.810	0.0167664
658.888	0.0167612
658.966	0.0167049
659.044	0.0167689
659.122	0.0166780
659.200	0.0165054
659.279	0.0165221
659.357	0.0165627
659.435	0.0165709
659.513	0.0165077
659.591	0.0166797
659.669	0.0167068
659.747	0.0166738
659.825	0.0166339
659.904	0.0166373
659.982	0.0168359
660.060	0.0169592
660.138	0.0169735
660.216	0.0169566
660.294	0.0170015
660.372	0.0171745
660.450	0.0170741
660.529	0.0172182
660.607	0.0171096
660.685	0.0172370
660.763	0.0171818
660.841	0.0171546
660.919	0.0171740
660.997	0.0171030
661.075	0.0172349
661.154	0.0170582
661.232	0.0170602
661.310	0.0170087
661.388	0.0171958
661.466	0.0170477
661.544	0.0170452
661.622	0.0170735
661.700	0.0169716
661.779	0.0168280
661.857	0.0167402
661.935	0.0167068
662.013	0.0167241
662.091	0.0165060
662.169	0.0163844
662.247	0.0163477
662.325	0.0163078
662.404	0.0163273
662.482	0.0163673
662.560	0.0163037
662.638	0.0163531
662.716	0.0164096
662.794	0.0163287
662.872	0.0165414
662.950	0.0165929
663.029	0.0165207
663.107	0.0165003
663.185	0.0166003
663.263	0.0165470
663.341	0.0166670
663.419	0.0165850
663.497	0.0165570
663.575	0.0166435
663.654	0.0166316
663.732	0.0167206
663.810	0.0167355
663.888	0.0169003
663.966	0.0166605
664.044	0.0167172
664.122	0.0167499
664.200	0.0168401
664.279	0.0168093
664.357	0.0168360
664.435	0.0167769
664.513	0.0168199
664.591	0.0170116
664.669	0.0170155
664.747	0.0169875
664.825	0.0169761
664.904	0.0171954
664.982	0.0170592
665.060	0.0172398
665.138	0.0171122
665.216	0.0171039
665.294	0.0171789
665.372	0.0172557
665.450	0.0171484
665.529	0.0172234
665.607	0.0171579
665.685	0.0170539
665.763	0.0170302
665.841	0.0170396
665.919	0.0168710
665.997	0.0169401
666.075	0.0167517
666.154	0.0165727
666.232	0.0168224
666.310	0.0169932
666.388	0.0167660
666.466	0.0166817
666.544	0.0167342
666.622	0.0169100
666.700	0.0167503
666.779	0.0167805
666.857	0.0168089
666.935	0.0167992
667.013	0.0169068
667.091	0.0170132
667.169	0.0169642
667.247	0.0168176
667.325	0.0169774
667.404	0.0170152
667.482	0.0171044
667.560	0.0170441
667.638	0.0168901
667.716	0.0169625
667.794	0.0168694
667.872	0.0166022
667.950	0.0166966
668.029	0.0167325
668.107	0.0166266
668.185	0.0164137
668.263	0.0163714
668.341	0.0161351
668.419	0.0162250
668.497	0.0161577
668.575	0.0161624
668.654	0.0162126
668.732	0.0161909
668.810	0.0163503
668.888	0.0163094
668.966	0.0164014
669.044	0.0167773
669.122	0.0167393
669.200	0.0167412
669.279	0.0169659
669.357	0.0172523
669.435	0.0174377
669.513	0.0174142
669.591	0.0177524
669.669	0.0174876
669.747	0.0173870
669.825	0.0175267
669.904	0.0174151
669.982	0.0174593
670.060	0.0172457
670.138	0.0170287
670.216	0.0169629
670.294	0.0171730
670.372	0.0169571
670.450	0.0167303
670.529	0.0166219
670.607	0.0167497
670.685	0.0166546
670.763	0.0165234
670.841	0.0164429
670.919	0.0165660
670.997	0.0164426
671.075	0.0164371
671.154	0.0163547
671.232	0.0163534
671.310	0.0163821
671.388	0.0164578
671.466	0.0165587
671.544	0.0165466
671.622	0.0166774
671.700	0.0168674
671.779	0.0170805
671.857	0.0170868
671.935	0.0173146
672.013	0.0175410
672.091	0.0176141
672.169	0.0176314
672.247	0.0175455
672.325	0.0175898
672.404	0.0175780
672.482	0.0173455
672.560	0.0171886
672.638	0.0168654
672.716	0.0166117
672.794	0.0164233
672.872	0.0161999
672.950	0.0161058
673.029	0.0161198
673.107	0.0160553
673.185	0.0161150
673.263	0.0163934
673.341	0.0163359
673.419	0.0165126
673.497	0.0166050
673.575	0.0168509
673.654	0.0169435
673.732	0.0170539
673.810	0.0171700
673.888	0.0172403
673.966	0.0174364
674.044	0.0174933
674.122	0.0174030
674.200	0.0174863
674.279	0.0174266
674.357	0.0173063
674.435	0.0172897
674.513	0.0175058
674.591	0.0173051
674.669	0.0169733
674.747	0.0169742
674.825	0.0168913
674.904	0.0167296
674.982	0.0165482
675.060	0.0165721
675.138	0.0161781
675.216	0.0161217
675.294	0.0159346
675.372	0.0159037
675.450	0.0159303
675.529	0.0157919
675.607	0.0158678
675.685	0.0160115
675.763	0.0159620
675.841	0.0162263
675.919	0.0162829
675.997	0.0164262
676.075	0.0163846
676.154	0.0163691
676.232	0.0165794
676.310	0.0166324
676.388	0.0166688
676.466	0.0166776
676.544	0.0168132
676.622	0.0167927
676.700	0.0168244
676.779	0.0169208
676.857	0.0169948
676.935	0.0169368
677.013	0.0171783
677.091	0.0173235
677.169	0.0173235
677.247	0.0173860
677.325	0.0174097
677.404	0.0175069
677.482	0.0174986
677.560	0.0175222
677.638	0.0176009
677.716	0.0173637
677.794	0.0174949
677.872	0.0174380
677.950	0.0175970
678.029	0.0171756
678.107	0.0170729
678.185	0.0168518
678.263	0.0164773
678.341	0.0161237
678.419	0.0160549
678.497	0.0157394
678.575	0.0154214
678.654	0.0153680
678.732	0.0152944
678.810	0.0151368
678.888	0.0152898
678.966	0.0155909
679.044	0.0158938
679.122	0.0160771
679.200	0.0164261
679.279	0.0167651
679.357	0.0170430
679.435	0.0173743
679.513	0.0173206
679.591	0.0176661
679.669	0.0179634
679.747	0.0180188
679.825	0.0181465
679.904	0.0182963
679.982	0.0183399
680.060	0.0183411
680.138	0.0184243
680.216	0.0182182
680.294	0.0182434
680.372	0.0179853
680.450	0.0178705
680.529	0.0176182
680.607	0.0170964
680.685	0.0169027
680.763	0.0165372
680.841	0.0162444
680.919	0.0159846
680.997	0.0160398
681.075	0.0157111
681.154	0.0158168
681.232	0.0158479
681.310	0.0160504
681.388	0.0161064
681.466	0.0162508
681.544	0.0164829
681.622	0.0166149
681.700	0.0168654
681.779	0.0169660
681.857	0.0171100
681.935	0.0170608
682.013	0.0169338
682.091	0.0168600
682.169	0.0168093
682.247	0.0164957
682.325	0.0164871
682.404	0.0162191
682.482	0.0160065
682.560	0.0158234
682.638	0.0155577
682.716	0.0155141
682.794	0.0153809
682.872	0.0153703
682.950	0.0152859
683.029	0.0154056
683.107	0.0156204
683.185	0.0158244
683.263	0.0161225
683.341	0.0163260
683.419	0.0166531
683.497	0.0170228
683.575	0.0172429
683.654	0.0175940
683.732	0.0181073
683.810	0.0184554
683.888	0.0185283
683.966	0.0185748
684.044	0.0187924
684.122	0.0186414
684.200	0.0185645
684.279	0.0183141
684.357	0.0179138
684.435	0.0175726
684.513	0.0172603
684.591	0.0168414
684.669	0.0166817
684.747	0.0165658
684.825	0.0164393
684.904	0.0165694
684.982	0.0165394
685.060	0.0166225
685.138	0.0168573
685.216	0.0168625
685.294	0.0169924
685.372	0.0170724
685.450	0.0172233
685.529	0.0170051
685.607	0.0170229
685.685	0.0167136
685.763	0.0166005
685.841	0.0163097
685.919	0.0161198
685.997	0.0157639
686.075	0.0155267
686.154	0.0154613
686.232	0.0152812
686.310	0.0154214
686.388	0.0154523
686.466	0.0156803
686.544	0.0156007
686.622	0.0156932
686.700	0.0160018
686.779	0.0163070
686.857	0.0162890
686.935	0.0166348
687.013	0.0169309
687.091	0.0171474
687.169	0.0174049
687.247	0.0178235
687.325	0.0179422
687.404	0.0182829
687.482	0.0186404
687.560	0.0188696
687.638	0.0190935
687.716	0.0192819
687.794	0.0193523
687.872	0.0194267
687.950	0.0194348
688.029	0.0194595
688.107	0.0191883
688.185	0.0189445
688.263	0.0187863
688.341	0.0183554
688.419	0.0178769
688.497	0.0176127
688.575	0.0173138
688.654	0.0167389
688.732	0.0162961
688.810	0.0159373
688.888	0.0155973
688.966	0.0152996
689.044	0.0150002
689.122	0.0147623
689.200	0.0146721
689.279	0.0146397
689.357	0.0145828
689.435	0.0146479
689.513	0.0148519
689.591	0.0151393
689.669	0.0153181
689.747	0.0154805
689.825	0.0157617
689.904	0.0160426
689.982	0.0161605
690.060	0.0164066
690.138	0.0162479
690.216	0.0162024
690.294	0.0159758
690.372	0.0159345
690.450	0.0158621
690.529	0.0157342
690.607	0.0154683
690.685	0.0156927
690.763	0.0156836
690.841	0.0155357
690.919	0.0155966
690.997	0.0157501
691.075	0.0159788
691.154	0.0161961
691.232	0.0163463
691.310	0.0164835
691.388	0.0168768
691.466	0.0169709
691.544	0.0170993
691.622	0.0172365
691.700	0.0175346
691.779	0.0177149
691.857	0.0178612
691.935	0.0178762
692.013	0.0180824
692.091	0.0181959
692.169	0.0183875
692.247	0.0184415
692.325	0.0185902
692.404	0.0187492
692.482	0.0190289
692.560	0.0189664
692.638	0.0190169
692.716	0.0191870
692.794	0.0192343
692.872	0.0190440
692.950	0.0188252
693.029	0.0186861
693.107	0.0185655
693.185	0.0182557
693.263	0.0179177
693.341	0.0173983
693.419	0.0169066
693.497	0.0165931
693.575	0.0161716
693.654	0.0157832
693.732	0.0151780
693.810	0.0149808
693.888	0.0147392
693.966	0.0145348
694.044	0.0144482
694.122	0.0144606
694.200	0.0145089
694.279	0.0145715
694.357	0.0147785
694.435	0.0151054
694.513	0.0154343
694.591	0.0158776
694.669	0.0163371
694.747	0.0164754
694.825	0.0169478
694.904	0.0172403
694.982	0.0174633
695.060	0.0177422
695.138	0.0177457
695.216	0.0180679
695.294	0.0180357
695.372	0.0181083
695.450	0.0180712
695.529	0.0179205
695.607	0.0178871
695.685	0.0177841
695.763	0.0176279
695.841	0.0173455
695.919	0.0172254
695.997	0.0171425
696.075	0.0168245
696.154	0.0168099
696.232	0.0167536
696.310	0.0166476
696.388	0.0167127
696.466	0.0165688
696.544	0.0166724
696.622	0.0167342
696.700	0.0165998
696.779	0.0168819
696.857	0.0170080
696.935	0.0170187
697.013	0.0170663
697.091	0.0172646
697.169	0.0169433
697.247	0.0166592
697.325	0.0166189
697.404	0.0162854
697.482	0.0159496
697.560	0.0154305
697.638	0.0150226
697.716	0.0147643
697.794	0.0143864
697.872	0.0141432
697.950	0.0140253
698.029	0.0139452
698.107	0.0138710
698.185	0.0138771
698.263	0.0139103
698.341	0.0141006
698.419	0.0142513
698.497	0.0143502
698.575	0.0146416
698.654	0.0147945
698.732	0.0150393
698.810	0.0153398
698.888	0.0156626
698.966	0.0160412
699.044	0.0165065
699.122	0.0169902
699.200	0.0174300
699.279	0.0180080
699.357	0.0186713
699.435	0.0192423
699.513	0.0196853
699.591	0.0202377
699.669	0.0205432
699.747	0.0210622
699.825	0.0212415
699.904	0.0214783
699.982	0.0215577
700.060	0.0215468
700.138	0.0216559
700.216	0.0212237
700.294	0.0211552
700.372	0.0208276
700.450	0.0203760
700.529	0.0200525
700.607	0.0194212
700.685	0.0188039
700.763	0.0183266
700.841	0.0177245
700.919	0.0170414
700.997	0.0165746
701.075	0.0161015
701.154	0.0156756
701.232	0.0152152
701.310	0.0148786
701.388	0.0146474
701.466	0.0146104
701.544	0.0144962
701.622	0.0144007
701.700	0.0142908
701.779	0.0142529
701.857	0.0144625
701.935	0.0147247
702.013	0.0146878
702.091	0.0149283
702.169	0.0151463
702.247	0.0153686
702.325	0.0155953
702.404	0.0156127
702.482	0.0157220
702.560	0.0159004
702.638	0.0159892
702.716	0.0160067
702.794	0.0161674
702.872	0.0161193
702.950	0.0162864
703.029	0.0164590
703.107	0.0165372
703.185	0.0168194
703.263	0.0168025
703.341	0.0169135
703.419	0.0170726
703.497	0.0172331
703.575	0.0172450
703.654	0.0171726
703.732	0.0170522
703.810	0.0170725
703.888	0.0170769
703.966	0.0169681
704.044	0.0167747
704.122	0.0167712
704.200	0.0166004
704.279	0.0163947
704.357	0.0162082
704.435	0.0160800
704.513	0.0160512
704.591	0.0159338
704.669	0.0158804
704.747	0.0156555
704.825	0.0157420
704.904	0.0157076
704.982	0.0159191
705.060	0.0158135
705.138	0.0159566
705.216	0.0158128
705.294	0.0158876
705.372	0.0157342
705.450	0.0158544
705.529	0.0156503
705.607	0.0157362
705.685	0.0158107
705.763	0.0158941
705.841	0.0160319
705.919	0.0162802
705.997	0.0166049
706.075	0.0170370
706.154	0.0174960
706.232	0.0178250
706.310	0.0180410
706.388	0.0184493
706.466	0.0189518
706.544	0.0193584
706.622	0.0197009
706.700	0.0200757
706.779	0.0203150
706.857	0.0205161
706.935	0.0206078
707.013	0.0209776
707.091	0.0209451
707.169	0.0209345
707.247	0.0209499
707.325	0.0209707
707.404	0.0208091
707.482	0.0205640
707.560	0.0203019
707.638	0.0198874
707.716	0.0194381
707.794	0.0189281
707.872	0.0183385
707.950	0.0176274
708.029	0.0169081
708.107	0.0161394
708.185	0.0154395
708.263	0.0147704
708.341	0.0139835
708.419	0.0132463
708.497	0.0127455
708.575	0.0123056
708.654	0.0119705
708.732	0.0114700
708.810	0.0114234
708.888	0.0113435
708.966	0.0115779
709.044	0.0117241
709.122	0.0120215
709.200	0.0125816
709.279	0.0131854
709.357	0.0138913
709.435	0.0144134
709.513	0.0150745
709.591	0.0157477
709.669	0.0164281
709.747	0.0172296
709.825	0.0178059
709.904	0.0184761
709.982	0.0190359
710.060	0.0194562
710.138	0.0198350
710.216	0.0200845
710.294	0.0204797
710.372	0.0206780
710.450	0.0206192
710.529	0.0207570
710.607	0.0206853
710.685	0.0204781
710.763	0.0203699
710.841	0.0201066
710.919	0.0197178
710.997	0.0192057
711.075	0.0189353
711.154	0.0183395
711.232	0.0177476
711.310	0.0169659
711.388	0.0165360
711.466	0.0155856
711.544	0.0149654
711.622	0.0143203
711.700	0.0137569
711.779	0.0132872
711.857	0.0129484
711.935	0.0125974
712.013	0.0125659
712.091	0.0124661
712.169	0.0123276
712.247	0.0123290
712.325	0.0124685
712.404	0.0126193
712.482	0.0129313
712.560	0.0132560
712.638	0.0135916
712.716	0.0140324
712.794	0.0145419
712.872	0.0150024
712.950	0.0154352
713.029	0.0158966
713.107	0.0162717
713.185	0.0165833
713.263	0.0171161
713.341	0.0176569
713.419	0.0179563
713.497	0.0183961
713.575	0.0188879
713.654	0.0195509
713.732	0.0199493
713.810	0.0204565
713.888	0.0209555
713.966	0.0213766
714.044	0.0217792
714.122	0.0219346
714.200	0.0221104
714.279	0.0219935
714.357	0.0218868
714.435	0.0217919
714.513	0.0214933
714.591	0.0211708
714.669	0.0208413
714.747	0.0201698
714.825	0.0195986
714.904	0.0191019
714.982	0.0185199
715.060	0.0178618
715.138	0.0171615
715.216	0.0165665
715.294	0.0160748
715.372	0.0153384
715.450	0.0148019
715.529	0.0145015
715.607	0.0139457
715.685	0.0135238
715.763	0.0133604
715.841	0.0134657
715.919	0.0135066
715.997	0.0135757
716.075	0.0136954
716.154	0.0140829
716.232	0.0144941
716.310	0.0148937
716.388	0.0152714
716.466	0.0157817
716.544	0.0162663
716.622	0.0167865
716.700	0.0172474
716.779	0.0175584
716.857	0.0178250
716.935	0.0182409
717.013	0.0182976
717.091	0.0183471
717.169	0.0183185
717.247	0.0185295
717.325	0.0185678
717.404	0.0183335
717.482	0.0181879
717.560	0.0181153
717.638	0.0179246
717.716	0.0176266
717.794	0.0172736
717.872	0.0166860
717.950	0.0162978
718.029	0.0160801
718.107	0.0155806
718.185	0.0150204
718.263	0.0147022
718.341	0.0142647
718.419	0.0138427
718.497	0.0137331
718.575	0.0134196
718.654	0.0131441
718.732	0.0129333
718.810	0.0127892
718.888	0.0127785
718.966	0.0127216
719.044	0.0129240
719.122	0.0128239
719.200	0.0130210
719.279	0.0134195
719.357	0.0134689
719.435	0.0138340
719.513	0.0142664
719.591	0.0146423
719.669	0.0152679
719.747	0.0157425
719.825	0.0163657
719.904	0.0169534
719.982	0.0173796
720.060	0.0180461
720.138	0.0186998
720.216	0.0192651
720.294	0.0197005
720.372	0.0203411
720.450	0.0207990
720.529	0.0212872
720.607	0.0216393
720.685	0.0219755
720.763	0.0222215
720.841	0.0223270
720.919	0.0224236
720.997	0.0223386
721.075	0.0222176
721.154	0.0219029
721.232	0.0215327
721.310	0.0210342
721.388	0.0206503
721.466	0.0201221
721.544	0.0195150
721.622	0.0188853
721.700	0.0182758
721.779	0.0178134
721.857	0.0173721
721.935	0.0169352
722.013	0.0164056
722.091	0.0159944
722.169	0.0157230
722.247	0.0157552
722.325	0.0155270
722.404	0.0154801
722.482	0.0154494
722.560	0.0154236
722.638	0.0153742
722.716	0.0154602
722.794	0.0154842
722.872	0.0155285
722.950	0.0156106
723.029	0.0156068
723.107	0.0156989
723.185	0.0158254
723.263	0.0158015
723.341	0.0158945
723.419	0.0160923
723.497	0.0161681
723.575	0.0161450
723.654	0.0161203
723.732	0.0163297
723.810	0.0161867
723.888	0.0162003
723.966	0.0160184
724.044	0.0160528
724.122	0.0159989
724.200	0.0159708
724.279	0.0156509
724.357	0.0154848
724.435	0.0156738
724.513	0.0155676
724.591	0.0156504
724.669	0.0156065
724.747	0.0154140
724.825	0.0154657
724.904	0.0154401
724.982	0.0152731
725.060	0.0152605
725.138	0.0153299
725.216	0.0150581
725.294	0.0147521
725.372	0.0146599
725.450	0.0146049
725.529	0.0145152
725.607	0.0143198
725.685	0.0141760
725.763	0.0142676
725.841	0.0141921
725.919	0.0141360
725.997	0.0142707
726.075	0.0144648
726.154	0.0146844
726.232	0.0150575
726.310	0.0154668
726.388	0.0158324
726.466	0.0163449
726.544	0.0168148
726.622	0.0172710
726.700	0.0176751
726.779	0.0184605
726.857	0.0188956
726.935	0.0193724
727.013	0.0199319
727.091	0.0202350
727.169	0.0205122
727.247	0.0209319
727.325	0.0211129
727.404	0.0212035
727.482	0.0213467
727.560	0.0213113
727.638	0.0212534
727.716	0.0210492
727.794	0.0208730
727.872	0.0206361
727.950	0.0203223
728.029	0.0198418
728.107	0.0195291
728.185	0.0190430
728.263	0.0186147
728.341	0.0182697
728.419	0.0179384
728.497	0.0176331
728.575	0.0173769
728.654	0.0170488
728.732	0.0168586
728.810	0.0167278
728.888	0.0166776
728.966	0.0165681
729.044	0.0163405
729.122	0.0164328
729.200	0.0163506
729.279	0.0163849
729.357	0.0162444
729.435	0.0163209
729.513	0.0162868
729.591	0.0161726
729.669	0.0160547
729.747	0.0158910
729.825	0.0157719
729.904	0.0157822
729.982	0.0156928
730.060	0.0154850
730.138	0.0152538
730.216	0.0152644
730.294	0.0151870
730.372	0.0151425
730.450	0.0149403
730.529	0.0148705
730.607	0.0150575
730.685	0.0151012
730.763	0.0152725
730.841	0.0154059
730.919	0.0154402
730.997	0.0158221
731.075	0.0160568
731.154	0.0161964
731.232	0.0164980
731.310	0.0165400
731.388	0.0166644
731.466	0.0166773
731.544	0.0165537
731.622	0.0166479
731.700	0.0166167
731.779	0.0165283
731.857	0.0163173
731.935	0.0160670
732.013	0.0159984
732.091	0.0157814
732.169	0.0155186
732.247	0.0154922
732.325	0.0154092
732.404	0.0153458
732.482	0.0154382
732.560	0.0154599
732.638	0.0153992
732.716	0.0154584
732.794	0.0156676
732.872	0.0156715
732.950	0.0160020
733.029	0.0161749
733.107	0.0164973
733.185	0.0167336
733.263	0.0171931
733.341	0.0173717
733.419	0.0176477
733.497	0.0179167
733.575	0.0182095
733.654	0.0182690
733.732	0.0184928
733.810	0.0184981
733.888	0.0186202
733.966	0.0185732
734.044	0.0184221
734.122	0.0184661
734.200	0.0185128
734.279	0.0183887
734.357	0.0183084
734.435	0.0182343
734.513	0.0180967
734.591	0.0180965
734.669	0.0181088
734.747	0.0181300
734.825	0.0179761
734.904	0.0179556
734.982	0.0179868
735.060	0.0180555
735.138	0.0179504
735.216	0.0180347
735.294	0.0179926
735.372	0.0180950
735.450	0.0180556
735.529	0.0178445
735.607	0.0178691
735.685	0.0178284
735.763	0.0176363
735.841	0.0173892
735.919	0.0174093
735.997	0.0171112
736.075	0.0169717
736.154	0.0167125
736.232	0.0167757
736.310	0.0164944
736.388	0.0160706
736.466	0.0160024
736.544	0.0158923
736.622	0.0156562
736.700	0.0155905
736.779	0.0154623
736.857	0.0155019
736.935	0.0155737
737.013	0.0154956
737.091	0.0156136
737.169	0.0155426
737.247	0.0155920
737.325	0.0157864
737.404	0.0160139
737.482	0.0162329
737.560	0.0163256
737.638	0.0164232
737.716	0.0164291
737.794	0.0165984
737.872	0.0166161
737.950	0.0166479
738.029	0.0167841
738.107	0.0168074
738.185	0.0167488
738.263	0.0166320
738.341	0.0164651
738.419	0.0164327
738.497	0.0163806
738.575	0.0163165
738.654	0.0162394
738.732	0.0162502
738.810	0.0161069
738.888	0.0160873
738.966	0.0162035
739.044	0.0162255
739.122	0.0161217
739.200	0.0162064
739.279	0.0162729
739.357	0.0164473
739.435	0.0165878
739.513	0.0166194
739.591	0.0167213
739.669	0.0168311
739.747	0.0168115
739.825	0.0171027
739.904	0.0171772
739.982	0.0172221
740.060	0.0174004
740.138	0.0174181
740.216	0.0174127
740.294	0.0174882
740.372	0.0176559
740.450	0.0173518
740.529	0.0172744
740.607	0.0172077
740.685	0.0170930
740.763	0.0169192
740.841	0.0167136
740.919	0.0167516
740.997	0.0165554
741.075	0.0164884
741.154	0.0165369
741.232	0.0164112
741.310	0.0165076
741.388	0.0166028
741.466	0.0167333
741.544	0.0168102
741.622	0.0170274
741.700	0.0172197
741.779	0.0174269
741.857	0.0174777
741.935	0.0175739
742.013	0.0176688
742.091	0.0177559
742.169	0.0177545
742.247	0.0176972
742.325	0.0178410
742.404	0.0178422
742.482	0.0176460
742.560	0.0175993
742.638	0.0175251
742.716	0.0173346
742.794	0.0170714
742.872	0.0170152
742.950	0.0167997
743.029	0.0165380
743.107	0.0164011
743.185	0.0163251
743.263	0.0162241
743.341	0.0161716
743.419	0.0161060
743.497	0.0162325
743.575	0.0161278
743.654	0.0163001
743.732	0.0163338
743.810	0.0164581
743.888	0.0165607
743.966	0.0168349
744.044	0.0168678
744.122	0.0168819
744.200	0.0169996
744.279	0.0172284
744.357	0.0170925
744.435	0.0170955
744.513	0.0170208
744.591	0.0170068
744.669	0.0168731
744.747	0.0167443
744.825	0.0168286
744.904	0.0165633
744.982	0.0163660
745.060	0.0164897
745.138	0.0163032
745.216	0.0161926
745.294	0.0161820
745.372	0.0161577
745.450	0.0160931
745.529	0.0160818
745.607	0.0161540
745.685	0.0163077
745.763	0.0163735
745.841	0.0167085
745.919	0.0169389
745.997	0.0170894
746.075	0.0171778
746.154	0.0171885
746.232	0.0173738
746.310	0.0175625
746.388	0.0174892
746.466	0.0175974
746.544	0.0176563
746.622	0.0176120
746.700	0.0175403
746.779	0.0175652
746.857	0.0172748
746.935	0.0170584
747.013	0.0169617
747.091	0.0167199
747.169	0.0163869
747.247	0.0163223
747.325	0.0161514
747.404	0.0159292
747.482	0.0158698
747.560	0.0159032
747.638	0.0158446
747.716	0.0159161
747.794	0.0159032
747.872	0.0161332
747.950	0.0162571
748.029	0.0164030
748.107	0.0165923
748.185	0.0167008
748.263	0.0167451
748.341	0.0167512
748.419	0.0168296
748.497	0.0171061
748.575	0.0170467
748.654	0.0169875
748.732	0.0169292
748.810	0.0170853
748.888	0.0170235
748.966	0.0168060
749.044	0.0165558
749.122	0.0164964
749.200	0.0164928
749.279	0.0164436
749.357	0.0163686
749.435	0.0161697
749.513	0.0164463
749.591	0.0164130
749.669	0.0165833
749.747	0.0166521
749.825	0.0167323
749.904	0.0168707
749.982	0.0168647
750.060	0.0169354
750.138	0.0170972
750.216	0.0172816
750.294	0.0175016
750.372	0.0176261
750.450	0.0176183
750.529	0.0177592
750.607	0.0176960
750.685	0.0177202
750.763	0.0177127
750.841	0.0177268
750.919	0.0177711
750.997	0.0177069
751.075	0.0176006
751.154	0.0174672
751.232	0.0173248
751.310	0.0171217
751.388	0.0168581
751.466	0.0168121
751.544	0.0166600
751.622	0.0165147
751.700	0.0162835
751.779	0.0163684
751.857	0.0161676
751.935	0.0161121
752.013	0.0161423
752.091	0.0165977
752.169	0.0164292
752.247	0.0165473
752.325	0.0168153
752.404	0.0169113
752.482	0.0171434
752.560	0.0173220
752.638	0.0174066
752.716	0.0175179
752.794	0.0177938
752.872	0.0177838
752.950	0.0177367
753.029	0.0175911
753.107	0.0174534
753.185	0.0174734
753.263	0.0172836
753.341	0.0171910
753.419	0.0169600
753.497	0.0167401
753.575	0.0165688
753.654	0.0163525
753.732	0.0161225
753.810	0.0159687
753.888	0.0159283
753.966	0.0157589
754.044	0.0158884
754.122	0.0158989
754.200	0.0159638
754.279	0.0160057
754.357	0.0160746
754.435	0.0162295
754.513	0.0162944
754.591	0.0163187
754.669	0.0164178
754.747	0.0166744
754.825	0.0167046
754.904	0.0168557
754.982	0.0168781
755.060	0.0169091
755.138	0.0169444
755.216	0.0168258
755.294	0.0169749
755.372	0.0167638
755.450	0.0166759
755.529	0.0167499
755.607	0.0166208
755.685	0.0166199
755.763	0.0165186
755.841	0.0163831
755.919	0.0162926
755.997	0.0163013
756.075	0.0161388
756.154	0.0160855
756.232	0.0161252
756.310	0.0162717
756.388	0.0162905
756.466	0.0162068
756.544	0.0164121
756.622	0.0167583
756.700	0.0167271
756.779	0.0168174
756.857	0.0170168
756.935	0.0171387
757.013	0.0173182
757.091	0.0172598
757.169	0.0172674
757.247	0.0175017
757.325	0.0175459
757.404	0.0175221
757.482	0.0175427
757.560	0.0175443
757.638	0.0175719
757.716	0.0174644
757.794	0.0173728
757.872	0.0173011
757.950	0.0172512
758.029	0.0172616
758.107	0.0172003
758.185	0.0171922
758.263	0.0172501
758.341	0.0170635
758.419	0.0171825
758.497	0.0170879
758.575	0.0170937
758.654	0.0172034
758.732	0.0173493
758.810	0.0172156
758.888	0.0173689
758.966	0.0174137
759.044	0.0173248
759.122	0.0174612
759.200	0.0174461
759.279	0.0173440
759.357	0.0173403
759.435	0.0172247
759.513	0.0171350
759.591	0.0170451
759.669	0.0169955
759.747	0.0167400
759.825	0.0167930
759.904	0.0166525
759.982	0.0167501
760.060	0.0165235
760.138	0.0164598
760.216	0.0163226
760.294	0.0164340
760.372	0.0163924
760.450	0.0163078
760.529	0.0163576
760.607	0.0164408
760.685	0.0164869
760.763	0.0165010
760.841	0.0166250
760.919	0.0165501
760.997	0.0167943
761.075	0.0167686
761.154	0.0169186
761.232	0.0169142
761.310	0.0170193
761.388	0.0168802
761.466	0.0170654
761.544	0.0168756
761.622	0.0170487
761.700	0.0168799
761.779	0.0168768
761.857	0.0167150
761.935	0.0166412
762.013	0.0165250
762.091	0.0163989
762.169	0.0164140
762.247	0.0164192
762.325	0.0163470
762.404	0.0161224
762.482	0.0163724
762.560	0.0164291
762.638	0.0163029
762.716	0.0162978
762.794	0.0164571
762.872	0.0164532
762.950	0.0165641
763.029	0.0167242
763.107	0.0167357
763.185	0.0166407
763.263	0.0167928
763.341	0.0169222
763.419	0.0170445
763.497	0.0169485
763.575	0.0170184
763.654	0.0170530
763.732	0.0170257
763.810	0.0170530
763.888	0.0171339
763.966	0.0169090
764.044	0.0168874
764.122	0.0169004
764.200	0.0170026
764.279	0.0169365
764.357	0.0168245
764.435	0.0168301
764.513	0.0168230
764.591	0.0166146
764.669	0.0168098
764.747	0.0168487
764.825	0.0168786
764.904	0.0169756
764.982	0.0169865
765.060	0.0170280
765.138	0.0169659
765.216	0.0170855
765.294	0.0172031
765.372	0.0170770
765.450	0.0172170
765.529	0.0173749
765.607	0.0172772
765.685	0.0173696
765.763	0.0173265
765.841	0.0174109
765.919	0.0173638
765.997	0.0172785
766.075	0.0170721
766.154	0.0169183
766.232	0.0170473
766.310	0.0170239
766.388	0.0169797
766.466	0.0168870
766.544	0.0167324
766.622	0.0166760
766.700	0.0169982
766.779	0.0168046
766.857	0.0168235
766.935	0.0167604
767.013	0.0169249
767.091	0.0169720
767.169	0.0170379
767.247	0.0169201
767.325	0.0171636
767.404	0.0171609
767.482	0.0170419
767.560	0.0171375
767.638	0.0170176
767.716	0.0170488
767.794	0.0171651
767.872	0.0171793
767.950	0.0169611
768.029	0.0168889
768.107	0.0170033
768.185	0.0168896
768.263	0.0168569
768.341	0.0168115
768.419	0.0168049
768.497	0.0164606
768.575	0.0166346
768.654	0.0166017
768.732	0.0164990
768.810	0.0163327
768.888	0.0163850
768.966	0.0165087
769.044	0.0164053
769.122	0.0163909
769.200	0.0164178
769.279	0.0164942
769.357	0.0163669
769.435	0.0163801
769.513	0.0164590
769.591	0.0165720
769.669	0.0165423
769.747	0.0166818
769.825	0.0166187
769.904	0.0166505
769.982	0.0167392
770.060	0.0167448
770.138	0.0168125
770.216	0.0167662
770.294	0.0167010
770.372	0.0168758
770.450	0.0168995
770.529	0.0168003
770.607	0.0169756
770.685	0.0168625
770.763	0.0169081
770.841	0.0169711
770.919	0.0167922
770.997	0.0170310
771.075	0.0168435
771.154	0.0169685
771.232	0.0168568
771.310	0.0168644
771.388	0.0168312
771.466	0.0168910
771.544	0.0169366
771.622	0.0168417
771.700	0.0169122
771.779	0.0168190
771.857	0.0169059
771.935	0.0168582
772.013	0.0166849
772.091	0.0166873
772.169	0.0167747
772.247	0.0166218
772.325	0.0166695
772.404	0.0165772
772.482	0.0168333
772.560	0.0166271
772.638	0.0168147
772.716	0.0168119
772.794	0.0167285
772.872	0.0167445
772.950	0.0167188
773.029	0.0167897
773.107	0.0169386
773.185	0.0169120
773.263	0.0168643
773.341	0.0169932
773.419	0.0171281
773.497	0.0171917
773.575	0.0171249
773.654	0.0171525
773.732	0.0172526
773.810	0.0171100
773.888	0.0170867
773.966	0.0171507
774.044	0.0172003
774.122	0.0169891
774.200	0.0169411
774.279	0.0168546
774.357	0.0168642
774.435	0.0167236
774.513	0.0167674
774.591	0.0167217
774.669	0.0165366
774.747	0.0165893
774.825	0.0163395
774.904	0.0164633
774.982	0.0166471
775.060	0.0165079
775.138	0.0164527
775.216	0.0165656
775.294	0.0164951
775.372	0.0165121
775.450	0.0165682
775.529	0.0166671
775.607	0.0167781
775.685	0.0169372
775.763	0.0170410
775.841	0.0170824
775.919	0.0170583
775.997	0.0170753
776.075	0.0170705
776.154	0.0171702
776.232	0.0170971
776.310	0.0171691
776.388	0.0169228
776.466	0.0169984
776.544	0.0169469
776.622	0.0166900
776.700	0.0167135
776.779	0.0167268
776.857	0.0166422
776.935	0.0166372
777.013	0.0166593
777.091	0.0164518
777.169	0.0165772
777.247	0.0165844
777.325	0.0166801
777.404	0.0167513
777.482	0.0167449
777.560	0.0168413
777.638	0.0168298
777.716	0.0168455
777.794	0.0169535
777.872	0.0170169
777.950	0.0169188
778.029	0.0169045
778.107	0.0169397
778.185	0.0168831
778.263	0.0169202
778.341	0.0169289
778.419	0.0167944
778.497	0.0168365
778.575	0.0167310
778.654	0.0166515
778.732	0.0166468
778.810	0.0167746
778.888	0.0165966
778.966	0.0165355
779.044	0.0165434
779.122	0.0166564
779.200	0.0166225
779.279	0.0165831
779.357	0.0166811
779.435	0.0168182
779.513	0.0168871
779.591	0.0168446
779.669	0.0169315
779.747	0.0169793
779.825	0.0170329
779.904	0.0170792
779.982	0.0171720
780.060	0.0170755
780.138	0.0170056
780.216	0.0168446
780.294	0.0169289
780.372	0.0169785
780.450	0.0169212
780.529	0.0168678
780.607	0.0168646
780.685	0.0167963
780.763	0.0167661
780.841	0.0168095
780.919	0.0168262
780.997	0.0166566
781.075	0.0167899
781.154	0.0167529
781.232	0.0168485
781.310	0.0167992
781.388	0.0167948
781.466	0.0169327
781.544	0.0169399
781.622	0.0168369
781.700	0.0170010
781.779	0.0169947
781.857	0.0169143
781.935	0.0170480
782.013	0.0171868
782.091	0.0170496
782.169	0.0170595
782.247	0.0171405
782.325	0.0170531
782.404	0.0170641
782.482	0.0170882
782.560	0.0170242
782.638	0.0169547
782.716	0.0169071
782.794	0.0170196
782.872	0.0169936
782.950	0.0168485
783.029	0.0168833
783.107	0.0169263
783.185	0.0169726
783.263	0.0168417
783.341	0.0169904
783.419	0.0170197
783.497	0.0170778
783.575	0.0170725
783.654	0.0170364
783.732	0.0169695
783.810	0.0170270
783.888	0.0169460
783.966	0.0171070
784.044	0.0171757
784.122	0.0171925
784.200	0.0170025
784.279	0.0169488
784.357	0.0170140
784.435	0.0168160
784.513	0.0168362
784.591	0.0169394
784.669	0.0169703
784.747	0.0168214
784.825	0.0167492
784.904	0.0167458
784.982	0.0167532
785.060	0.0168649
785.138	0.0167892
785.216	0.0167066
785.294	0.0165713
785.372	0.0166516
785.450	0.0167204
785.529	0.0167410
785.607	0.0168011
785.685	0.0168753
785.763	0.0168325
785.841	0.0168482
785.919	0.0168562
785.997	0.0168916
786.075	0.0168245
786.154	0.0169310
786.232	0.0169003
786.310	0.0167722
786.388	0.0168471
786.466	0.0168798
786.544	0.0166459
786.622	0.0166284
786.700	0.0166285
786.779	0.0165482
786.857	0.0165727
786.935	0.0164306
787.013	0.0163593
787.091	0.0164823
787.169	0.0164841
787.247	0.0164989
787.325	0.0163526
787.404	0.0163874
787.482	0.0161964
787.560	0.0164477
787.638	0.0164263
787.716	0.0163331
787.794	0.0162910
787.872	0.0164789
787.950	0.0164460
788.029	0.0164388
788.107	0.0166939
788.185	0.0166457
788.263	0.0166560
788.341	0.0169201
788.419	0.0168983
788.497	0.0170557
788.575	0.0169440
788.654	0.0171075
788.732	0.0172244
788.810	0.0174467
788.888	0.0172359
788.966	0.0174760
789.044	0.0173643
789.122	0.0173548
789.200	0.0174316
789.279	0.0173821
789.357	0.0174480
789.435	0.0174108
789.513	0.0174065
789.591	0.0173357
789.669	0.0173190
789.747	0.0172451
789.825	0.0173467
789.904	0.0173317
789.982	0.0171553
790.060	0.0170984
790.138	0.0171452
790.216	0.0170315
790.294	0.0171458
790.372	0.0169933
790.450	0.0170668
790.529	0.0170208
790.607	0.0167657
790.685	0.0167751
790.763	0.0169668
790.841	0.0168461
790.919	0.0168318
790.997	0.0167870
791.075	0.0168133
791.154	0.0169295
791.232	0.0167857
791.310	0.0167615
791.388	0.0168185
791.466	0.0168288
791.544	0.0168597
791.622	0.0167068
791.700	0.0166539
791.779	0.0166968
791.857	0.0167946
791.935	0.0165337
792.013	0.0165725
792.091	0.0165762
792.169	0.0164380
792.247	0.0165359
792.325	0.0164997
792.404	0.0164539
792.482	0.0164429
792.560	0.0164290
792.638	0.0165908
792.716	0.0164958
792.794	0.0163905
792.872	0.0165180
792.950	0.0166670
793.029	0.0165651
793.107	0.0166224
793.185	0.0167150
793.263	0.0166900
793.341	0.0166460
793.419	0.0166606
793.497	0.0166718
793.575	0.0166550
793.654	0.0166599
793.732	0.0168478
793.810	0.0167747
793.888	0.0167384
793.966	0.0167287
794.044	0.0168341
794.122	0.0167343
794.200	0.0168740
794.279	0.0167656
794.357	0.0167319
794.435	0.0167287
794.513	0.0167901
794.591	0.0166849
794.669	0.0166799
794.747	0.0165860
794.825	0.0165796
794.904	0.0166603
794.982	0.0165671
795.060	0.0164911
795.138	0.0166048
795.216	0.0166695
795.294	0.0166238
795.372	0.0166334
795.450	0.0167508
795.529	0.0167352
795.607	0.0169019
795.685	0.0168886
795.763	0.0170137
795.841	0.0169043
795.919	0.0169258
795.997	0.0171203
796.075	0.0171738
796.154	0.0170562
796.232	0.0171914
796.310	0.0172372
796.388	0.0173396
796.466	0.0172456
796.544	0.0172019
796.622	0.0172620
796.700	0.0172295
796.779	0.0171888
796.857	0.0172098
796.935	0.0171267
797.013	0.0172121
797.091	0.0171216
797.169	0.0170618
797.247	0.0171159
797.325	0.0170491
797.404	0.0170408
797.482	0.0170631
797.560	0.0170320
797.638	0.0169243
797.716	0.0169299
797.794	0.0169633
797.872	0.0169545
797.950	0.0168774
798.029	0.0167179
798.107	0.0168933
798.185	0.0168552
798.263	0.0168921
798.341	0.0166994
798.419	0.0165511
798.497	0.0165182
798.575	0.0166097
798.654	0.0165578
798.732	0.0166482
798.810	0.0165700
798.888	0.0165308
798.966	0.0166133
799.044	0.0164356
799.122	0.0164974
799.200	0.0165717
799.279	0.0166772
799.357	0.0163754
799.435	0.0165166
799.513	0.0167181
799.591	0.0167099
799.669	0.0167816
799.747	0.0166988
799.825	0.0168201
799.904	0.0167376
799.982	0.0168626
800.060	0.0167373
800.138	0.0166354
800.216	0.0169315
800.294	0.0167552
800.372	0.0169262
800.450	0.0167104
800.529	0.0168379
800.607	0.0167638
800.685	0.0167751
800.763	0.0167780
800.841	0.0165870
800.919	0.0167405
800.997	0.0165025
801.075	0.0163284
801.154	0.0164096
801.232	0.0164034
801.310	0.0164542
801.388	0.0165649
801.466	0.0163956
801.544	0.0164644
801.622	0.0165379
801.700	0.0167920
801.779	0.0168765
801.857	0.0166351
801.935	0.0165775
802.013	0.0167280
802.091	0.0168503
802.169	0.0169981
802.247	0.0168449
802.325	0.0168946
802.404	0.0170137
802.482	0.0170084
802.560	0.0169915
802.638	0.0170155
802.716	0.0168489
802.794	0.0170542
802.872	0.0170366
802.950	0.0168525
803.029	0.0171011
803.107	0.0171805
803.185	0.0171175
803.263	0.0170650
803.341	0.0171220
803.419	0.0170851
803.497	0.0171129
803.575	0.0171216
803.654	0.0170693
803.732	0.0171304
803.810	0.0170793
803.888	0.0171118
803.966	0.0171075
804.044	0.0171111
804.122	0.0169682
804.200	0.0171284
804.279	0.0171552
804.357	0.0170705
804.435	0.0170325
804.513	0.0169544
804.591	0.0169015
804.669	0.0167483
804.747	0.0168149
804.825	0.0167147
804.904	0.0166779
804.982	0.0165464
805.060	0.0164901
805.138	0.0165908
805.216	0.0164304
805.294	0.0162794
805.372	0.0164124
805.450	0.0164324
805.529	0.0164438
805.607	0.0164005
805.685	0.0165160
805.763	0.0164906
805.841	0.0165343
805.919	0.0165959
805.997	0.0167578
806.075	0.0168306
806.154	0.0167799
806.232	0.0169518
806.310	0.0169990
806.388	0.0170407
806.466	0.0170957
806.544	0.0171266
806.622	0.0171673
806.700	0.0172378
806.779	0.0173119
806.857	0.0171849
806.935	0.0171546
807.013	0.0170518
807.091	0.0169391
807.169	0.0168876
807.247	0.0167943
807.325	0.0167815
807.404	0.0168137
807.482	0.0167590
807.560	0.0165793
807.638	0.0164539
807.716	0.0164947
807.794	0.0163187
807.872	0.0162751
807.950	0.0162868
808.029	0.0161395
808.107	0.0161475
808.185	0.0162588
808.263	0.0162440
808.341	0.0162851
808.419	0.0163677
808.497	0.0163529
808.575	0.0165323
808.654	0.0164217
808.732	0.0165943
808.810	0.0166241
808.888	0.0165365
808.966	0.0165656
809.044	0.0168337
809.122	0.0167587
809.200	0.0169928
809.279	0.0169423
809.357	0.0169135
809.435	0.0168629
809.513	0.0168760
809.591	0.0170232
809.669	0.0170280
809.747	0.0170325
809.825	0.0171223
809.904	0.0171282
809.982	0.0171398
810.060	0.0172376
810.138	0.0172936
810.216	0.0171586
810.294	0.0170948
810.372	0.0172225
810.450	0.0173372
810.529	0.0172529
810.607	0.0173126
810.685	0.0173766
810.763	0.0172575
810.841	0.0172583
810.919	0.0173011
810.997	0.0172576
811.075	0.0171410
811.154	0.0172134
811.232	0.0171190
811.310	0.0171426
811.388	0.0169398
811.466	0.0168382
811.544	0.0169978
811.622	0.0168096
811.700	0.0166938
811.779	0.0166844
811.857	0.0167107
811.935	0.0165941
812.013	0.0166339
812.091	0.0165379
812.169	0.0166447
812.247	0.0167069
812.325	0.0165691
812.404	0.0166789
812.482	0.0165896
812.560	0.0165510
812.638	0.0165333
812.716	0.0165481
812.794	0.0166573
812.872	0.0165845
812.950	0.0167206
813.029	0.0167877
813.107	0.0167480
813.185	0.0166887
813.263	0.0168727
813.341	0.0168230
813.419	0.0168123
813.497	0.0168671
813.575	0.0169326
813.654	0.0169386
813.732	0.0168116
813.810	0.0167499
813.888	0.0168407
813.966	0.0168740
814.044	0.0168169
814.122	0.0168803
814.200	0.0167426
814.279	0.0166346
814.357	0.0167019
814.435	0.0166605
814.513	0.0166568
814.591	0.0165742
814.669	0.0166004
814.747	0.0165555
814.825	0.0166248
814.904	0.0165092
814.982	0.0165154
815.060	0.0164159
815.138	0.0163735
815.216	0.0165424
815.294	0.0164597
815.372	0.0164317
815.450	0.0165086
815.529	0.0165585
815.607	0.0164676
815.685	0.0165009
815.763	0.0165121
815.841	0.0165502
815.919	0.0165195
815.997	0.0165295
816.075	0.0167298
816.154	0.0166109
816.232	0.0167661
816.310	0.0167086
816.388	0.0167802
816.466	0.0168536
816.544	0.0168802
816.622	0.0168989
816.700	0.0169598
816.779	0.0171393
816.857	0.0171500
816.935	0.0171722
817.013	0.0170389
817.091	0.0172208
817.169	0.0171729
817.247	0.0172029
817.325	0.0173058
817.404	0.0172448
817.482	0.0173062
817.560	0.0172496
817.638	0.0171648
817.716	0.0171544
817.794	0.0173919
817.872	0.0171831
817.950	0.0172221
818.029	0.0171284
818.107	0.0170607
818.185	0.0170863
818.263	0.0169482
818.341	0.0169790
818.419	0.0169492
818.497	0.0168804
818.575	0.0167200
818.654	0.0168688
818.732	0.0169029
818.810	0.0168060
818.888	0.0168565
818.966	0.0167014
819.044	0.0167334
819.122	0.0167999
819.200	0.0167401
819.279	0.0164397
819.357	0.0166109
819.435	0.0165504
819.513	0.0165340
819.591	0.0165659
819.669	0.0165107
819.747	0.0164069
819.825	0.0164091
819.904	0.0164127
819.982	0.0163740
820.060	0.0164874
820.138	0.0164384
820.216	0.0164446
820.294	0.0164063
820.372	0.0164397
820.450	0.0163898
820.529	0.0164257
820.607	0.0165426
820.685	0.0164399
820.763	0.0165646
820.841	0.0165959
820.919	0.0167144
820.997	0.0165842
821.075	0.0166542
821.154	0.0167492
821.232	0.0166411
821.310	0.0167236
821.388	0.0167220
821.466	0.0166109
821.544	0.0167381
821.622	0.0167848
821.700	0.0167856
821.779	0.0168230
821.857	0.0168896
821.935	0.0167481
822.013	0.0167893
822.091	0.0167966
822.169	0.0168576
822.247	0.0166809
822.325	0.0167342
822.404	0.0165840
822.482	0.0167679
822.560	0.0167416
822.638	0.0168004
822.716	0.0167150
822.794	0.0167345
822.872	0.0166872
822.950	0.0168808
823.029	0.0168701
823.107	0.0168532
823.185	0.0169909
823.263	0.0168951
823.341	0.0169731
823.419	0.0170928
823.497	0.0171223
823.575	0.0170393
823.654	0.0170511
823.732	0.0170113
823.810	0.0171001
823.888	0.0169248
823.966	0.0170365
824.044	0.0170175
824.122	0.0170319
824.200	0.0169820
824.279	0.0169043
824.357	0.0169923
824.435	0.0169406
824.513	0.0170271
824.591	0.0170235
824.669	0.0172026
824.747	0.0170451
824.825	0.0172954
824.904	0.0172587
824.982	0.0173629
825.060	0.0173412
825.138	0.0172799
825.216	0.0172211
825.294	0.0172378
825.372	0.0173312
825.450	0.0172589
825.529	0.0172009
825.607	0.0170327
825.685	0.0171372
825.763	0.0170981
825.841	0.0168314
825.919	0.0167325
825.997	0.0168654
826.075	0.0169044
826.154	0.0166958
826.232	0.0167273
826.310	0.0167298
826.388	0.0165942
826.466	0.0166682
826.544	0.0168204
826.622	0.0165141
826.700	0.0166696
826.779	0.0167131
826.857	0.0166387
826.935	0.0167615
827.013	0.0169255
827.091	0.0166233
827.169	0.0166455
827.247	0.0165795
827.325	0.0168188
827.404	0.0167207
827.482	0.0167938
827.560	0.0166801
827.638	0.0167510
827.716	0.0166712
827.794	0.0167178
827.872	0.0167540
827.950	0.0168474
828.029	0.0167255
828.107	0.0167036
828.185	0.0167992
828.263	0.0168655
828.341	0.0169224
828.419	0.0168382
828.497	0.0167058
828.575	0.0168939
828.654	0.0168605
828.732	0.0168620
828.810	0.0168718
828.888	0.0169566
828.966	0.0169734
829.044	0.0168784
829.122	0.0168221
829.200	0.0169248
829.279	0.0169231
829.357	0.0168867
829.435	0.0168172
829.513	0.0169395
829.591	0.0168525
829.669	0.0168459
829.747	0.0169167
829.825	0.0168842
829.904	0.0168392
829.982	0.0170863
830.060	0.0170151
830.138	0.0168922
830.216	0.0169231
830.294	0.0169142
830.372	0.0167554
830.450	0.0167658
830.529	0.0168140
830.607	0.0167173
830.685	0.0166032
830.763	0.0168134
830.841	0.0168545
830.919	0.0168621
830.997	0.0170094
831.075	0.0169127
831.154	0.0168701
831.232	0.0169990
831.310	0.0171124
831.388	0.0170313
831.466	0.0170123
831.544	0.0171530
831.622	0.0170918
831.700	0.0171951
831.779	0.0170013
831.857	0.0170476
831.935	0.0170224
832.013	0.0170371
832.091	0.0169801
832.169	0.0169602
832.247	0.0169431
832.325	0.0169173
832.404	0.0169656
832.482	0.0168668
832.560	0.0168967
832.638	0.0169022
832.716	0.0168995
832.794	0.0166612
832.872	0.0168334
832.950	0.0167136
833.029	0.0167844
833.107	0.0168125
833.185	0.0168999
833.263	0.0167056
833.341	0.0167943
833.419	0.0167284
833.497	0.0166312
833.575	0.0168147
833.654	0.0167332
833.732	0.0166459
833.810	0.0166072
833.888	0.0165936
833.966	0.0166314
834.044	0.0167252
834.122	0.0166106
834.200	0.0167049
834.279	0.0167930
834.357	0.0167175
834.435	0.0166341
834.513	0.0168188
834.591	0.0168925
834.669	0.0167555
834.747	0.0167799
834.825	0.0167366
834.904	0.0167439
834.982	0.0166361
835.060	0.0166524
835.138	0.0167004
835.216	0.0165629
835.294	0.0165699
835.372	0.0166407
835.450	0.0166315
835.529	0.0165503
835.607	0.0166608
835.685	0.0167419
835.763	0.0166110
835.841	0.0167442
835.919	0.0168237
835.997	0.0167969
836.075	0.0168564
836.154	0.0168694
836.232	0.0168345
836.310	0.0169559
836.388	0.0170398
836.466	0.0169566
836.544	0.0168539
836.622	0.0170004
836.700	0.0170888
836.779	0.0169710
836.857	0.0168819
836.935	0.0168881
837.013	0.0169117
837.091	0.0169803
837.169	0.0168241
837.247	0.0168177
837.325	0.0168156
837.404	0.0167828
837.482	0.0168279
837.560	0.0167794
837.638	0.0167835
837.716	0.0166634
837.794	0.0167487
837.872	0.0169099
837.950	0.0168466
838.029	0.0168214
838.107	0.0167699
838.185	0.0169348
838.263	0.0170109
838.341	0.0168359
838.419	0.0168112
838.497	0.0169505
838.575	0.0169476
838.654	0.0168921
838.732	0.0168034
838.810	0.0166486
838.888	0.0169163
838.966	0.0167298
839.044	0.0167430
839.122	0.0166695
839.200	0.0167013
839.279	0.0167623
839.357	0.0167814
839.435	0.0166755
839.513	0.0166879
839.591	0.0168080
839.669	0.0167233
839.747	0.0168835
839.825	0.0168441
839.904	0.0168925
839.982	0.0167506
840.060	0.0170040
840.138	0.0169314
840.216	0.0169676
840.294	0.0167815
840.372	0.0169070
840.450	0.0169514
840.529	0.0168246
840.607	0.0168227
840.685	0.0169164
840.763	0.0168452
840.841	0.0168670
840.919	0.0167249
840.997	0.0167084
841.075	0.0167418
841.154	0.0166294
841.232	0.0166550
841.310	0.0168843
841.388	0.0166779
841.466	0.0166312
841.544	0.0168048
841.622	0.0169212
841.700	0.0166958
841.779	0.0167977
841.857	0.0168162
841.935	0.0168150
842.013	0.0167883
842.091	0.0167924
842.169	0.0167741
842.247	0.0168123
842.325	0.0167359
842.404	0.0167039
842.482	0.0169041
842.560	0.0168547
842.638	0.0167068
842.716	0.0167136
842.794	0.0167693
842.872	0.0167903
842.950	0.0167294
843.029	0.0169510
843.107	0.0168343
843.185	0.0169496
843.263	0.0169054
843.341	0.0169797
843.419	0.0170066
843.497	0.0169072
843.575	0.0169194
843.654	0.0169756
843.732	0.0169542
843.810	0.0169601
843.888	0.0168340
843.966	0.0169023
844.044	0.0167768
844.122	0.0168715
844.200	0.0168397
844.279	0.0168697
844.357	0.0168267
844.435	0.0169289
844.513	0.0167368
844.591	0.0167448
844.669	0.0167409
844.747	0.0167781
844.825	0.0167320
844.904	0.0166158
844.982	0.0167837
845.060	0.0167032
845.138	0.0166711
845.216	0.0166386
845.294	0.0167506
845.372	0.0167387
845.450	0.0167832
845.529	0.0166174
845.607	0.0166447
845.685	0.0165825
845.763	0.0167543
845.841	0.0167987
845.919	0.0167332
845.997	0.0166988
846.075	0.0168568
846.154	0.0166975
846.232	0.0168424
846.310	0.0168282
846.388	0.0168764
846.466	0.0169738
846.544	0.0168770
846.622	0.0168590
846.700	0.0168459
846.779	0.0169350
846.857	0.0168504
846.935	0.0167870
847.013	0.0168461
847.091	0.0166267
847.169	0.0167251
847.247	0.0167591
847.325	0.0166393
847.404	0.0166629
847.482	0.0168718
847.560	0.0167983
847.638	0.0167445
847.716	0.0167920
847.794	0.0166893
847.872	0.0166892
847.950	0.0169215
848.029	0.0168311
848.107	0.0169028
848.185	0.0168647
848.263	0.0168805
848.341	0.0169042
848.419	0.0170042
848.497	0.0168724
848.575	0.0170608
848.654	0.0170083
848.732	0.0170573
848.810	0.0171262
848.888	0.0172142
848.966	0.0171263
849.044	0.0172075
849.122	0.0171109
849.200	0.0171278
849.279	0.0170808
849.357	0.0170927
849.435	0.0169921
849.513	0.0170496
849.591	0.0172070
849.669	0.0170677
849.747	0.0171267
849.825	0.0169613
849.904	0.0169798
849.982	0.0170563
850.060	0.0170791
850.138	0.0169718
850.216	0.0170012
850.294	0.0170091
850.372	0.0169295
850.450	0.0169173
850.529	0.0168927
850.607	0.0168951
850.685	0.0169217
850.763	0.0168115
850.841	0.0167429
850.919	0.0166660
850.997	0.0166468
851.075	0.0167831
851.154	0.0165215
851.232	0.0165354
851.310	0.0167619
851.388	0.0166013
851.466	0.0164845
851.544	0.0163586
851.622	0.0166179
851.700	0.0165609
851.779	0.0166304
851.857	0.0165756
851.935	0.0166646
852.013	0.0165884
852.091	0.0167474
852.169	0.0167699
852.247	0.0168649
852.325	0.0168396
852.404	0.0168186
852.482	0.0169370
852.560	0.0170076
852.638	0.0169233
852.716	0.0170082
852.794	0.0170349
852.872	0.0170995
852.950	0.0168679
853.029	0.0169196
853.107	0.0169636
853.185	0.0168998
853.263	0.0168854
853.341	0.0170393
853.419	0.0168605
853.497	0.0167702
853.575	0.0168407
853.654	0.0168916
853.732	0.0168843
853.810	0.0166552
853.888	0.0166576
853.966	0.0167898
854.044	0.0167204
854.122	0.0167004
854.200	0.0167006
854.279	0.0167283
854.357	0.0168153
854.435	0.0169817
854.513	0.0168502
854.591	0.0169843
854.669	0.0169336
854.747	0.0169991
854.825	0.0169052
854.904	0.0170119
854.982	0.0170452
855.060	0.0168839
855.138	0.0169618
855.216	0.0170087
855.294	0.0170264
855.372	0.0170596
855.450	0.0168150
855.529	0.0168916
855.607	0.0168517
855.685	0.0168059
855.763	0.0168881
855.841	0.0167853
855.919	0.0168915
855.997	0.0168309
856.075	0.0167322
856.154	0.0168903
856.232	0.0167442
856.310	0.0167592
856.388	0.0167957
856.466	0.0168363
856.544	0.0167822
856.622	0.0167238
856.700	0.0167870
856.779	0.0169121
856.857	0.0168638
856.935	0.0167466
857.013	0.0169672
857.091	0.0168825
857.169	0.0169511
857.247	0.0169460
857.325	0.0167865
857.404	0.0168296
857.482	0.0167809
857.560	0.0168182
857.638	0.0168147
857.716	0.0168008
857.794	0.0166073
857.872	0.0167654
857.950	0.0168153
858.029	0.0167458
858.107	0.0168034
858.185	0.0166788
858.263	0.0168266
858.341	0.0166756
858.419	0.0167977
858.497	0.0168781
858.575	0.0167292
858.654	0.0167772
858.732	0.0168826
858.810	0.0169232
858.888	0.0169726
858.966	0.0170721
859.044	0.0168561
859.122	0.0170741
859.200	0.0169362
859.279	0.0168732
859.357	0.0170499
859.435	0.0170811
859.513	0.0170114
859.591	0.0169077
859.669	0.0169047
859.747	0.0170390
859.825	0.0170110
859.904	0.0168958
859.982	0.0168426
860.060	0.0167857
860.138	0.0168935
860.216	0.0169197
860.294	0.0168908
860.372	0.0169086
860.450	0.0168850
860.529	0.0168171
860.607	0.0168707
860.685	0.0170632
860.763	0.0169354
860.841	0.0169608
860.919	0.0169566
860.997	0.0169152
861.075	0.0169038
861.154	0.0169673
861.232	0.0170143
861.310	0.0169482
861.388	0.0169096
861.466	0.0168873
861.544	0.0169209
861.622	0.0169386
861.700	0.0167144
861.779	0.0168040
861.857	0.0168703
861.935	0.0167316
862.013	0.0168193
862.091	0.0167117
862.169	0.0167598
862.247	0.0167902
862.325	0.0167377
862.404	0.0166932
862.482	0.0168430
862.560	0.0166525
862.638	0.0167391
862.716	0.0168571
862.794	0.0166337
862.872	0.0167567
862.950	0.0167698
863.029	0.0167138
863.107	0.0167113
863.185	0.0169051
863.263	0.0168552
863.341	0.0169807
863.419	0.0170641
863.497	0.0169189
863.575	0.0170043
863.654	0.0170441
863.732	0.0172340
863.810	0.0171103
863.888	0.0170780
863.966	0.0171942
864.044	0.0170674
864.122	0.0170937
864.200	0.0171180
864.279	0.0169868
864.357	0.0170840
864.435	0.0170523
864.513	0.0168687
864.591	0.0169949
864.669	0.0168504
864.747	0.0169967
864.825	0.0168111
864.904	0.0167860
864.982	0.0168331
865.060	0.0168147
865.138	0.0167917
865.216	0.0168169
865.294	0.0167781
865.372	0.0168825
865.450	0.0168003
865.529	0.0168375
865.607	0.0168064
865.685	0.0167209
865.763	0.0169153
865.841	0.0167117
865.919	0.0167443
865.997	0.0166587
866.075	0.0168352
866.154	0.0166479
866.232	0.0166309
866.310	0.0166411
866.388	0.0166682
866.466	0.0166572
866.544	0.0167308
866.622	0.0167522
866.700	0.0165601
866.779	0.0166953
866.857	0.0167767
866.935	0.0167741
867.013	0.0166065
867.091	0.0166343
867.169	0.0166673
867.247	0.0167449
867.325	0.0167892
867.404	0.0166421
867.482	0.0167376
867.560	0.0168555
867.638	0.0169492
867.716	0.0167770
867.794	0.0167924
867.872	0.0167988
867.950	0.0170018
868.029	0.0167029
868.107	0.0168410
868.185	0.0169932
868.263	0.0168924
868.341	0.0167498
868.419	0.0168035
868.497	0.0167550
868.575	0.0168301
868.654	0.0167977
868.732	0.0167916
868.810	0.0167660
868.888	0.0167962
868.966	0.0167484
869.044	0.0168707
869.122	0.0168181
869.200	0.0166975
869.279	0.0168613
869.357	0.0168705
869.435	0.0169518
869.513	0.0167297
869.591	0.0166889
869.669	0.0167541
869.747	0.0169295
869.825	0.0166888
869.904	0.0166299
869.982	0.0167920
870.060	0.0166908
870.138	0.0166498
870.216	0.0166807
870.294	0.0165866
870.372	0.0167765
870.450	0.0166971
870.529	0.0167883
870.607	0.0167601
870.685	0.0169341
870.763	0.0168430
870.841	0.0168362
870.919	0.0169743
870.997	0.0168343
871.075	0.0169000
871.154	0.0169383
871.232	0.0169578
871.310	0.0169250
871.388	0.0168191
871.466	0.0168073
871.544	0.0167162
871.622	0.0168402
871.700	0.0169028
871.779	0.0165997
871.857	0.0166388
871.935	0.0167186
872.013	0.0166908
872.091	0.0166882
872.169	0.0168644
872.247	0.0167770
872.325	0.0168588
872.404	0.0167868
872.482	0.0168509
872.560	0.0166618
872.638	0.0167780
872.716	0.0167813
872.794	0.0166498
872.872	0.0168177
872.950	0.0168382
873.029	0.0168435
873.107	0.0168526
873.185	0.0169295
873.263	0.0167667
873.341	0.0168913
873.419	0.0170451
873.497	0.0169846
873.575	0.0168246
873.654	0.0167884
873.732	0.0167322
873.810	0.0167082
873.888	0.0168175
873.966	0.0167483
874.044	0.0166962
874.122	0.0166120
874.200	0.0166608
874.279	0.0165941
874.357	0.0167162
874.435	0.0166750
874.513	0.0166358
874.591	0.0167007
874.669	0.0167689
874.747	0.0167336
874.825	0.0167567
874.904	0.0167504
874.982	0.0168130
875.060	0.0168095
875.138	0.0168095
875.216	0.0167691
875.294	0.0168579
875.372	0.0168159
875.450	0.0168481
875.529	0.0168941
875.607	0.0168941
875.685	0.0169987
875.763	0.0168923
875.841	0.0169653
875.919	0.0168858
875.997	0.0167827
876.075	0.0167533
876.154	0.0167992
876.232	0.0169425
876.310	0.0169198
876.388	0.0167024
876.466	0.0167445
876.544	0.0167807
876.622	0.0167988
876.700	0.0168631
876.779	0.0168665
876.857	0.0168360
876.935	0.0169345
877.013	0.0170080
877.091	0.0169873
877.169	0.0170582
877.247	0.0169031
877.325	0.0169956
877.404	0.0170502
877.482	0.0169732
877.560	0.0168410
877.638	0.0169862
877.716	0.0168410
877.794	0.0169611
877.872	0.0168599
877.950	0.0169413
878.029	0.0168747
878.107	0.0167773
878.185	0.0167460
878.263	0.0168804
878.341	0.0168729
878.419	0.0169252
878.497	0.0168654
878.575	0.0170061
878.654	0.0169169
878.732	0.0168831
878.810	0.0169852
878.888	0.0168408
878.966	0.0170418
879.044	0.0168646
879.122	0.0168092
879.200	0.0168035
879.279	0.0170061
879.357	0.0168365
879.435	0.0168343
879.513	0.0168684
879.591	0.0169657
879.669	0.0169864
879.747	0.0169350
879.825	0.0170465
879.904	0.0167754
879.982	0.0167419
880.060	0.0168817
880.138	0.0169000
880.216	0.0168347
880.294	0.0169137
880.372	0.0167651
880.450	0.0168952
880.529	0.0169469
880.607	0.0166897
880.685	0.0169872
880.763	0.0168939
880.841	0.0168946
880.919	0.0170364
880.997	0.0169814
881.075	0.0168827
881.154	0.0169769
881.232	0.0169854
881.310	0.0169181
881.388	0.0170482
881.466	0.0170742
881.544	0.0170500
881.622	0.0169928
881.700	0.0169201
881.779	0.0169269
881.857	0.0169844
881.935	0.0169333
882.013	0.0168113
882.091	0.0166638
882.169	0.0167464
882.247	0.0167351
882.325	0.0167885
882.404	0.0167178
882.482	0.0167394
882.560	0.0168148
882.638	0.0168414
882.716	0.0167335
882.794	0.0166391
882.872	0.0167854
882.950	0.0169431
883.029	0.0168474
883.107	0.0169232
883.185	0.0167933
883.263	0.0167657
883.341	0.0167948
883.419	0.0168736
883.497	0.0169112
883.575	0.0169624
883.654	0.0167857
883.732	0.0169003
883.810	0.0168774
883.888	0.0168365
883.966	0.0168885
884.044	0.0169659
884.122	0.0170741
884.200	0.0169792
884.279	0.0170125
884.357	0.0169884
884.435	0.0168580
884.513	0.0168733
884.591	0.0169613
884.669	0.0168243
884.747	0.0168858
884.825	0.0167468
884.904	0.0167863
884.982	0.0168122
885.060	0.0168635
885.138	0.0169536
885.216	0.0167300
885.294	0.0166127
885.372	0.0168035
885.450	0.0168265
885.529	0.0167976
885.607	0.0168488
885.685	0.0168423
885.763	0.0167583
885.841	0.0168587
885.919	0.0167967
885.997	0.0169200
886.075	0.0168456
886.154	0.0169010
886.232	0.0169486
886.310	0.0169730
886.388	0.0170850
886.466	0.0168050
886.544	0.0168549
886.622	0.0170509
886.700	0.0168856
886.779	0.0169505
886.857	0.0168989
886.935	0.0168543
887.013	0.0168279
887.091	0.0168289
887.169	0.0169324
887.247	0.0168450
887.325	0.0168194
887.404	0.0168160
887.482	0.0168860
887.560	0.0166589
887.638	0.0167410
887.716	0.0168905
887.794	0.0167895
887.872	0.0168137
887.950	0.0167896
888.029	0.0168204
888.107	0.0166759
888.185	0.0166801
888.263	0.0167812
888.341	0.0168845
888.419	0.0168163
888.497	0.0168323
888.575	0.0167864
888.654	0.0169572
888.732	0.0168813
888.810	0.0168959
888.888	0.0169808
888.966	0.0169967
889.044	0.0169778
889.122	0.0168287
889.200	0.0169749
889.279	0.0169712
889.357	0.0169180
889.435	0.0167512
889.513	0.0167629
889.591	0.0166731
889.669	0.0167331
889.747	0.0168258
889.825	0.0166981
889.904	0.0166999
889.982	0.0167580
890.060	0.0166718
890.138	0.0167737
890.216	0.0167274
890.294	0.0167692
890.372	0.0166356
890.450	0.0165434
890.529	0.0165264
890.607	0.0166299
890.685	0.0166216
890.763	0.0167403
890.841	0.0166753
890.919	0.0166677
890.997	0.0168645
891.075	0.0167519
891.154	0.0168611
891.232	0.0169485
891.310	0.0170123
891.388	0.0169894
891.466	0.0170309
891.544	0.0169468
891.622	0.0170533
891.700	0.0171098
891.779	0.0169524
891.857	0.0169248
891.935	0.0169441
892.013	0.0169260
892.091	0.0168878
892.169	0.0169715
892.247	0.0167593
892.325	0.0168215
892.404	0.0168090
892.482	0.0166588
892.560	0.0165124
892.638	0.0167048
892.716	0.0167694
892.794	0.0167535
892.872	0.0166354
892.950	0.0166223
893.029	0.0167520
893.107	0.0167342
893.185	0.0167064
893.263	0.0167265
893.341	0.0168326
893.419	0.0167722
893.497	0.0168768
893.575	0.0168275
893.654	0.0168255
893.732	0.0169856
893.810	0.0168421
893.888	0.0167759
893.966	0.0168825
894.044	0.0168294
894.122	0.0167538
894.200	0.0168325
894.279	0.0168818
894.357	0.0167960
894.435	0.0168658
894.513	0.0167790
894.591	0.0168372
894.669	0.0168369
894.747	0.0168102
894.825	0.0167934
894.904	0.0169405
894.982	0.0167397
895.060	0.0168047
895.138	0.0167890
895.216	0.0167626
895.294	0.0167822
895.372	0.0168208
895.450	0.0167822
895.529	0.0167972
895.607	0.0167449
895.685	0.0168243
895.763	0.0166405
895.841	0.0166402
895.919	0.0167252
895.997	0.0166781
896.075	0.0166730
896.154	0.0166735
896.232	0.0165563
896.310	0.0168841
896.388	0.0168462
896.466	0.0167742
896.544	0.0167658
896.622	0.0169408
896.700	0.0168040
896.779	0.0167776
896.857	0.0166692
896.935	0.0167573
897.013	0.0167870
897.091	0.0166212
897.169	0.0166914
897.247	0.0168050
897.325	0.0166824
897.404	0.0166311
897.482	0.0166338
897.560	0.0166711
897.638	0.0166282
897.716	0.0165887
897.794	0.0166624
897.872	0.0166336
897.950	0.0167523
898.029	0.0169070
898.107	0.0168628
898.185	0.0169852
898.263	0.0170082
898.341	0.0170439
898.419	0.0169566
898.497	0.0171535
898.575	0.0171526
898.654	0.0170518
898.732	0.0170412
898.810	0.0169188
898.888	0.0170794
898.966	0.0170242
899.044	0.0169151
899.122	0.0169054
899.200	0.0168067
899.279	0.0167618
899.357	0.0167834
899.435	0.0167715
899.513	0.0166359
899.591	0.0166594
899.669	0.0166064
899.747	0.0166678
899.825	0.0164996
899.904	0.0163348
899.982	0.0164066
900.060	0.0165337
900.138	0.0165292
900.216	0.0164430
900.294	0.0166232
900.372	0.0167238
900.450	0.0165198
900.529	0.0166898
900.607	0.0167384
900.685	0.0166863
900.763	0.0166730
900.841	0.0167919
900.919	0.0168112
900.997	0.0170219
901.075	0.0169390
901.154	0.0168616
901.232	0.0169614
901.310	0.0171137
901.388	0.0170387
901.466	0.0170522
901.544	0.0169824
901.622	0.0170542
901.700	0.0170013
901.779	0.0170043
901.857	0.0171610
901.935	0.0170872
902.013	0.0170298
902.091	0.0169926
902.169	0.0169048
902.247	0.0169360
902.325	0.0169548
902.404	0.0168707
902.482	0.0169306
902.560	0.0167515
902.638	0.0168349
902.716	0.0167184
902.794	0.0165678
902.872	0.0167298
902.950	0.0166429
903.029	0.0165289
903.107	0.0165666
903.185	0.0167065
903.263	0.0167902
903.341	0.0165268
903.419	0.0165444
903.497	0.0166346
903.575	0.0166031
903.654	0.0165445
903.732	0.0165625
903.810	0.0165741
903.888	0.0166962
903.966	0.0167980
904.044	0.0166490
904.122	0.0167935
904.200	0.0168027
904.279	0.0167887
904.357	0.0168823
904.435	0.0167035
904.513	0.0166930
904.591	0.0169286
904.669	0.0169747
904.747	0.0166982
904.825	0.0168314
904.904	0.0169581
904.982	0.0169326
905.060	0.0169755
905.138	0.0169411
905.216	0.0169873
905.294	0.0171485
905.372	0.0170988
905.450	0.0170715
905.529	0.0169596
905.607	0.0171673
905.685	0.0171300
905.763	0.0171018
905.841	0.0174443
905.919	0.0170654
905.997	0.0170146
906.075	0.0171979
906.154	0.0171078
906.232	0.0170626
906.310	0.0170306
906.388	0.0168962
906.466	0.0167542
906.544	0.0168894
906.622	0.0169123
906.700	0.0168002
906.779	0.0168523
906.857	0.0168297
906.935	0.0168632
907.013	0.0166512
907.091	0.0165299
907.169	0.0167094
907.247	0.0166382
907.325	0.0165933
907.404	0.0166409
907.482	0.0166796
907.560	0.0166639
907.638	0.0166859
907.716	0.0166867
907.794	0.0168536
907.872	0.0167862
907.950	0.0167399
908.029	0.0168296
908.107	0.0169515
908.185	0.0171066
908.263	0.0170316
908.341	0.0170079
908.419	0.0170839
908.497	0.0171718
908.575	0.0170998
908.654	0.0172452
908.732	0.0171957
908.810	0.0170180
908.888	0.0172311
908.966	0.0171962
909.044	0.0171969
909.122	0.0171035
909.200	0.0169760
909.279	0.0170169
909.357	0.0170258
909.435	0.0171514
909.513	0.0169669
909.591	0.0169260
909.669	0.0170251
909.747	0.0168820
909.825	0.0169778
909.904	0.0168938
909.982	0.0167467
910.060	0.0168143
910.138	0.0167496
910.216	0.0166826
910.294	0.0167030
910.372	0.0166566
910.450	0.0166588
910.529	0.0165253
910.607	0.0165134
910.685	0.0164920
910.763	0.0164560
910.841	0.0165945
910.919	0.0164881
910.997	0.0165601
911.075	0.0165932
911.154	0.0165661
911.232	0.0166571
911.310	0.0166055
911.388	0.0165971
911.466	0.0167431
911.544	0.0169853
911.622	0.0168105
911.700	0.0167941
911.779	0.0169024
911.857	0.0170150
911.935	0.0171655
912.013	0.0170080
912.091	0.0169509
912.169	0.0169890
912.247	0.0170791
912.325	0.0170634
912.404	0.0170413
912.482	0.0170741
912.560	0.0171346
912.638	0.0170415
912.716	0.0169186
912.794	0.0170695
912.872	0.0171770
912.950	0.0169471
913.029	0.0169485
913.107	0.0169904
913.185	0.0169717
913.263	0.0169405
913.341	0.0170174
913.419	0.0168802
913.497	0.0168640
913.575	0.0167978
913.654	0.0168325
913.732	0.0167286
913.810	0.0169197
913.888	0.0169100
913.966	0.0168471
914.044	0.0169318
914.122	0.0168669
914.200	0.0169611
914.279	0.0169118
914.357	0.0169343
914.435	0.0168921
914.513	0.0168973
914.591	0.0168458
914.669	0.0167970
914.747	0.0168121
914.825	0.0168076
914.904	0.0166897
914.982	0.0167717
915.060	0.0167480
915.138	0.0165948
915.216	0.0167491
915.294	0.0166399
915.372	0.0167382
915.450	0.0167586
915.529	0.0167000
915.607	0.0167875
915.685	0.0166560
915.763	0.0167245
915.841	0.0167533
915.919	0.0166164
915.997	0.0165805
916.075	0.0167236
916.154	0.0166673
916.232	0.0168211
916.310	0.0168031
916.388	0.0167845
916.466	0.0167213
916.544	0.0168104
916.622	0.0167840
916.700	0.0168338
916.779	0.0167891
916.857	0.0167903
916.935	0.0166026
917.013	0.0166740
917.091	0.0166264
917.169	0.0166357
917.247	0.0166957
917.325	0.0167032
917.404	0.0165750
917.482	0.0166637
917.560	0.0167542
917.638	0.0166797
917.716	0.0169215
917.794	0.0167381
917.872	0.0166474
917.950	0.0168441
918.029	0.0169767
918.107	0.0169839
918.185	0.0168729
918.263	0.0169581
918.341	0.0170705
918.419	0.0167907
918.497	0.0170599
918.575	0.0170595
918.654	0.0170770
918.732	0.0170776
918.810	0.0169458
918.888	0.0169767
918.966	0.0170119
919.044	0.0169879
919.122	0.0167451
919.200	0.0168514
919.279	0.0168772
919.357	0.0166609
919.435	0.0166964
919.513	0.0168041
919.591	0.0166389
919.669	0.0166233
919.747	0.0167048
919.825	0.0166729
919.904	0.0166032
