06/03/2022	14:17:51	Ver.	4.1	UNKNOWN
Optical Delay	599.981738	Delta X		0.078125	Sweeps	1	Scan Rate	0/0
Coordinates	Axis 1	NaN	Axis 2	NaN	Axis 3	NaN	Axis 4	NaN	Axis 5	NaN	Axis 6	0.000000
TX Power	0.000000	RX Power	0.000000

599.982	0.0166039
600.060	0.0166862
600.138	0.0167641
600.216	0.0166043
600.294	0.0165039
600.372	0.0165296
600.450	0.0166533
600.529	0.0166041
600.607	0.0164719
600.685	0.0167284
600.763	0.0165655
600.841	0.0165414
600.919	0.0165903
600.997	0.0165386
601.075	0.0166163
601.154	0.0166663
601.232	0.0166786
601.310	0.0167746
601.388	0.0166035
601.466	0.0166140
601.544	0.0165857
601.622	0.0164973
601.700	0.0165584
601.779	0.0165727
601.857	0.0166759
601.935	0.0166152
602.013	0.0166437
602.091	0.0166060
602.169	0.0165828
602.247	0.0165637
602.325	0.0165167
602.404	0.0166288
602.482	0.0166680
602.560	0.0165627
602.638	0.0165733
602.716	0.0166126
602.794	0.0165479
602.872	0.0166271
602.950	0.0167812
603.029	0.0166712
603.107	0.0166769
603.185	0.0167211
603.263	0.0167226
603.341	0.0167468
603.419	0.0167274
603.497	0.0167236
603.575	0.0165966
603.654	0.0167553
603.732	0.0166289
603.810	0.0167352
603.888	0.0167425
603.966	0.0166482
604.044	0.0165717
604.122	0.0166074
604.200	0.0165935
604.279	0.0167349
604.357	0.0165514
604.435	0.0166343
604.513	0.0164653
604.591	0.0166233
604.669	0.0166570
604.747	0.0166349
604.825	0.0166164
604.904	0.0164630
604.982	0.0166236
605.060	0.0166294
605.138	0.0165941
605.216	0.0165395
605.294	0.0165430
605.372	0.0165882
605.450	0.0164362
605.529	0.0166763
605.607	0.0165252
605.685	0.0166327
605.763	0.0165907
605.841	0.0165287
605.919	0.0166360
605.997	0.0166544
606.075	0.0164939
606.154	0.0165293
606.232	0.0165076
606.310	0.0164198
606.388	0.0165927
606.466	0.0165321
606.544	0.0164679
606.622	0.0163619
606.700	0.0165159
606.779	0.0165139
606.857	0.0165638
606.935	0.0163479
607.013	0.0163813
607.091	0.0165328
607.169	0.0165499
607.247	0.0162977
607.325	0.0165015
607.404	0.0164494
607.482	0.0164434
607.560	0.0163367
607.638	0.0164790
607.716	0.0164195
607.794	0.0164415
607.872	0.0164679
607.950	0.0164579
608.029	0.0164102
608.107	0.0163637
608.185	0.0164433
608.263	0.0164664
608.341	0.0165023
608.419	0.0165086
608.497	0.0165353
608.575	0.0165482
608.654	0.0163595
608.732	0.0163057
608.810	0.0164905
608.888	0.0165860
608.966	0.0164687
609.044	0.0165511
609.122	0.0166448
609.200	0.0164858
609.279	0.0165718
609.357	0.0165710
609.435	0.0164958
609.513	0.0164260
609.591	0.0165383
609.669	0.0165280
609.747	0.0165526
609.825	0.0166514
609.904	0.0165642
609.982	0.0164866
610.060	0.0164434
610.138	0.0164999
610.216	0.0167332
610.294	0.0166862
610.372	0.0164761
610.450	0.0164790
610.529	0.0165023
610.607	0.0165690
610.685	0.0165911
610.763	0.0166003
610.841	0.0165073
610.919	0.0165157
610.997	0.0164092
611.075	0.0164951
611.154	0.0166135
611.232	0.0166747
611.310	0.0166919
611.388	0.0167085
611.466	0.0166023
611.544	0.0166105
611.622	0.0167207
611.700	0.0168108
611.779	0.0168088
611.857	0.0165664
611.935	0.0164591
612.013	0.0166248
612.091	0.0166309
612.169	0.0167134
612.247	0.0165630
612.325	0.0165351
612.404	0.0165546
612.482	0.0165361
612.560	0.0166555
612.638	0.0163887
612.716	0.0165462
612.794	0.0167037
612.872	0.0168118
612.950	0.0168980
613.029	0.0168927
613.107	0.0170732
613.185	0.0169225
613.263	0.0169831
613.341	0.0169772
613.419	0.0168385
613.497	0.0168060
613.575	0.0166720
613.654	0.0164167
613.732	0.0163989
613.810	0.0164108
613.888	0.0163029
613.966	0.0164050
614.044	0.0162144
614.122	0.0162192
614.200	0.0164170
614.279	0.0164950
614.357	0.0164491
614.435	0.0166069
614.513	0.0164729
614.591	0.0166895
614.669	0.0168412
614.747	0.0169051
614.825	0.0169128
614.904	0.0168066
614.982	0.0168111
615.060	0.0167067
615.138	0.0167395
615.216	0.0165717
615.294	0.0164346
615.372	0.0164797
615.450	0.0163121
615.529	0.0161772
615.607	0.0163397
615.685	0.0165633
615.763	0.0162491
615.841	0.0164625
615.919	0.0165097
615.997	0.0165668
616.075	0.0168100
616.154	0.0169091
616.232	0.0170033
616.310	0.0170625
616.388	0.0169479
616.466	0.0170468
616.544	0.0168901
616.622	0.0169735
616.700	0.0168407
616.779	0.0167049
616.857	0.0166183
616.935	0.0165247
617.013	0.0165515
617.091	0.0165466
617.169	0.0166448
617.247	0.0166247
617.325	0.0167268
617.404	0.0167075
617.482	0.0166663
617.560	0.0167730
617.638	0.0167542
617.716	0.0166297
617.794	0.0167586
617.872	0.0166254
617.950	0.0166334
618.029	0.0166064
618.107	0.0165603
618.185	0.0163992
618.263	0.0166447
618.341	0.0167579
618.419	0.0166661
618.497	0.0165755
618.575	0.0165633
618.654	0.0166161
618.732	0.0167215
618.810	0.0167052
618.888	0.0166497
618.966	0.0167447
619.044	0.0167085
619.122	0.0166076
619.200	0.0165749
619.279	0.0165903
619.357	0.0165869
619.435	0.0164977
619.513	0.0163190
619.591	0.0162679
619.669	0.0163711
619.747	0.0163406
619.825	0.0162962
619.904	0.0163647
619.982	0.0164014
620.060	0.0163573
620.138	0.0165443
620.216	0.0164474
620.294	0.0166480
620.372	0.0165061
620.450	0.0166465
620.529	0.0166284
620.607	0.0165012
620.685	0.0165868
620.763	0.0166345
620.841	0.0164268
620.919	0.0164931
620.997	0.0164839
621.075	0.0166100
621.154	0.0167000
621.232	0.0164266
621.310	0.0164674
621.388	0.0164219
621.466	0.0164534
621.544	0.0163268
621.622	0.0163870
621.700	0.0164673
621.779	0.0164893
621.857	0.0165145
621.935	0.0164634
622.013	0.0164663
622.091	0.0165089
622.169	0.0166516
622.247	0.0166308
622.325	0.0166608
622.404	0.0166309
622.482	0.0166509
622.560	0.0167891
622.638	0.0167749
622.716	0.0166434
622.794	0.0167461
622.872	0.0169253
622.950	0.0168212
623.029	0.0167385
623.107	0.0167002
623.185	0.0166875
623.263	0.0167062
623.341	0.0166506
623.419	0.0166189
623.497	0.0167413
623.575	0.0166255
623.654	0.0166489
623.732	0.0165939
623.810	0.0166690
623.888	0.0166862
623.966	0.0167084
624.044	0.0165929
624.122	0.0165880
624.200	0.0166869
624.279	0.0165548
624.357	0.0164906
624.435	0.0165289
624.513	0.0166451
624.591	0.0166998
624.669	0.0167812
624.747	0.0166895
624.825	0.0167432
624.904	0.0167683
624.982	0.0167928
625.060	0.0168059
625.138	0.0167232
625.216	0.0167250
625.294	0.0167766
625.372	0.0167046
625.450	0.0165570
625.529	0.0163454
625.607	0.0164803
625.685	0.0163727
625.763	0.0163470
625.841	0.0162241
625.919	0.0160455
625.997	0.0161738
626.075	0.0164188
626.154	0.0163285
626.232	0.0163162
626.310	0.0163853
626.388	0.0164252
626.466	0.0165006
626.544	0.0167012
626.622	0.0166263
626.700	0.0166782
626.779	0.0166479
626.857	0.0166249
626.935	0.0167450
627.013	0.0166152
627.091	0.0165126
627.169	0.0165410
627.247	0.0166964
627.325	0.0164704
627.404	0.0164356
627.482	0.0163059
627.560	0.0163163
627.638	0.0163275
627.716	0.0162992
627.794	0.0163450
627.872	0.0164275
627.950	0.0166196
628.029	0.0165360
628.107	0.0165482
628.185	0.0166219
628.263	0.0165444
628.341	0.0166311
628.419	0.0165949
628.497	0.0164549
628.575	0.0166364
628.654	0.0166290
628.732	0.0165976
628.810	0.0165750
628.888	0.0165907
628.966	0.0165319
629.044	0.0166865
629.122	0.0165417
629.200	0.0166204
629.279	0.0165342
629.357	0.0164434
629.435	0.0165953
629.513	0.0165417
629.591	0.0165137
629.669	0.0165391
629.747	0.0165482
629.825	0.0165392
629.904	0.0165192
629.982	0.0165776
630.060	0.0165050
630.138	0.0164846
630.216	0.0164768
630.294	0.0165383
630.372	0.0164450
630.450	0.0164786
630.529	0.0165929
630.607	0.0165894
630.685	0.0165858
630.763	0.0164815
630.841	0.0165627
630.919	0.0167033
630.997	0.0166041
631.075	0.0165937
631.154	0.0163503
631.232	0.0164075
631.310	0.0164660
631.388	0.0165162
631.466	0.0164616
631.544	0.0166329
631.622	0.0164787
631.700	0.0165536
631.779	0.0164701
631.857	0.0164317
631.935	0.0163700
632.013	0.0165179
632.091	0.0165695
632.169	0.0165302
632.247	0.0164327
632.325	0.0165252
632.404	0.0165144
632.482	0.0164684
632.560	0.0164216
632.638	0.0165047
632.716	0.0163686
632.794	0.0163474
632.872	0.0163462
632.950	0.0163733
633.029	0.0164870
633.107	0.0165171
633.185	0.0165892
633.263	0.0166238
633.341	0.0166850
633.419	0.0164695
633.497	0.0165891
633.575	0.0167014
633.654	0.0166698
633.732	0.0165806
633.810	0.0166868
633.888	0.0167467
633.966	0.0163741
634.044	0.0165205
634.122	0.0167178
634.200	0.0166488
634.279	0.0166659
634.357	0.0166523
634.435	0.0166520
634.513	0.0165937
634.591	0.0167547
634.669	0.0166837
634.747	0.0167715
634.825	0.0167625
634.904	0.0167131
634.982	0.0168135
635.060	0.0167690
635.138	0.0167213
635.216	0.0165401
635.294	0.0167959
635.372	0.0166833
635.450	0.0165345
635.529	0.0166538
635.607	0.0166466
635.685	0.0166186
635.763	0.0166534
635.841	0.0165686
635.919	0.0165537
635.997	0.0166292
636.075	0.0166766
636.154	0.0167008
636.232	0.0164517
636.310	0.0165093
636.388	0.0164840
636.466	0.0165262
636.544	0.0164921
636.622	0.0166538
636.700	0.0166050
636.779	0.0164911
636.857	0.0165439
636.935	0.0166256
637.013	0.0166763
637.091	0.0167014
637.169	0.0165237
637.247	0.0165736
637.325	0.0167286
637.404	0.0164872
637.482	0.0167078
637.560	0.0166396
637.638	0.0164018
637.716	0.0163633
637.794	0.0164962
637.872	0.0163013
637.950	0.0163486
638.029	0.0163863
638.107	0.0165154
638.185	0.0165279
638.263	0.0166196
638.341	0.0165580
638.419	0.0165324
638.497	0.0165284
638.575	0.0165569
638.654	0.0165882
638.732	0.0166191
638.810	0.0167118
638.888	0.0167444
638.966	0.0167052
639.044	0.0166662
639.122	0.0165958
639.200	0.0164698
639.279	0.0166388
639.357	0.0166631
639.435	0.0164284
639.513	0.0164876
639.591	0.0165553
639.669	0.0165217
639.747	0.0164779
639.825	0.0164726
639.904	0.0166132
639.982	0.0166122
640.060	0.0166956
640.138	0.0166298
640.216	0.0166278
640.294	0.0166812
640.372	0.0167697
640.450	0.0166724
640.529	0.0164882
640.607	0.0166064
640.685	0.0166020
640.763	0.0167314
640.841	0.0166958
640.919	0.0167220
640.997	0.0164658
641.075	0.0165570
641.154	0.0165725
641.232	0.0164874
641.310	0.0166276
641.388	0.0164809
641.466	0.0164499
641.544	0.0166195
641.622	0.0164102
641.700	0.0163309
641.779	0.0164776
641.857	0.0164663
641.935	0.0165526
642.013	0.0164753
642.091	0.0164172
642.169	0.0164352
642.247	0.0163685
642.325	0.0164254
642.404	0.0165269
642.482	0.0165692
642.560	0.0164813
642.638	0.0164471
642.716	0.0163822
642.794	0.0164099
642.872	0.0164184
642.950	0.0165028
643.029	0.0164467
643.107	0.0165015
643.185	0.0164415
643.263	0.0165652
643.341	0.0165436
643.419	0.0165718
643.497	0.0165542
643.575	0.0165124
643.654	0.0164442
643.732	0.0167303
643.810	0.0167356
643.888	0.0167297
643.966	0.0167765
644.044	0.0167956
644.122	0.0168027
644.200	0.0167485
644.279	0.0166176
644.357	0.0167921
644.435	0.0168437
644.513	0.0166892
644.591	0.0168189
644.669	0.0168362
644.747	0.0166830
644.825	0.0168409
644.904	0.0166549
644.982	0.0165273
645.060	0.0163942
645.138	0.0164000
645.216	0.0164717
645.294	0.0163356
645.372	0.0164298
645.450	0.0164088
645.529	0.0164217
645.607	0.0165062
645.685	0.0164664
645.763	0.0165082
645.841	0.0165185
645.919	0.0164745
645.997	0.0165261
646.075	0.0164896
646.154	0.0165547
646.232	0.0165543
646.310	0.0166953
646.388	0.0165934
646.466	0.0166815
646.544	0.0167364
646.622	0.0166558
646.700	0.0167171
646.779	0.0167422
646.857	0.0167593
646.935	0.0167713
647.013	0.0168773
647.091	0.0168102
647.169	0.0167855
647.247	0.0168019
647.325	0.0167724
647.404	0.0167852
647.482	0.0167080
647.560	0.0165617
647.638	0.0166973
647.716	0.0167415
647.794	0.0165942
647.872	0.0165533
647.950	0.0165485
648.029	0.0166106
648.107	0.0164269
648.185	0.0164503
648.263	0.0165961
648.341	0.0164622
648.419	0.0164817
648.497	0.0164326
648.575	0.0164342
648.654	0.0163638
648.732	0.0164982
648.810	0.0165454
648.888	0.0166018
648.966	0.0165965
649.044	0.0165636
649.122	0.0166335
649.200	0.0165178
649.279	0.0165853
649.357	0.0166397
649.435	0.0166905
649.513	0.0167382
649.591	0.0166782
649.669	0.0166109
649.747	0.0164783
649.825	0.0165988
649.904	0.0164092
649.982	0.0162347
650.060	0.0164674
650.138	0.0163431
650.216	0.0164389
650.294	0.0164736
650.372	0.0161952
650.450	0.0162898
650.529	0.0162592
650.607	0.0161983
650.685	0.0162018
650.763	0.0163760
650.841	0.0164440
650.919	0.0163735
650.997	0.0163584
651.075	0.0166015
651.154	0.0167168
651.232	0.0165845
651.310	0.0167243
651.388	0.0166014
651.466	0.0168509
651.544	0.0167200
651.622	0.0167597
651.700	0.0167371
651.779	0.0169182
651.857	0.0169170
651.935	0.0170246
652.013	0.0168145
652.091	0.0169410
652.169	0.0169656
652.247	0.0168880
652.325	0.0167475
652.404	0.0167993
652.482	0.0167405
652.560	0.0167876
652.638	0.0167335
652.716	0.0166261
652.794	0.0165917
652.872	0.0166468
652.950	0.0167289
653.029	0.0165028
653.107	0.0165241
653.185	0.0164274
653.263	0.0163016
653.341	0.0163647
653.419	0.0165054
653.497	0.0163650
653.575	0.0164574
653.654	0.0163427
653.732	0.0163321
653.810	0.0164075
653.888	0.0163852
653.966	0.0163474
654.044	0.0161561
654.122	0.0164583
654.200	0.0165418
654.279	0.0164707
654.357	0.0162424
654.435	0.0163658
654.513	0.0162409
654.591	0.0162939
654.669	0.0163635
654.747	0.0163037
654.825	0.0164673
654.904	0.0165202
654.982	0.0166061
655.060	0.0166803
655.138	0.0167699
655.216	0.0166496
655.294	0.0167107
655.372	0.0168197
655.450	0.0168710
655.529	0.0168661
655.607	0.0166953
655.685	0.0168827
655.763	0.0169632
655.841	0.0167633
655.919	0.0167473
655.997	0.0167731
656.075	0.0166122
656.154	0.0168096
656.232	0.0166197
656.310	0.0166295
656.388	0.0164303
656.466	0.0165148
656.544	0.0165517
656.622	0.0165051
656.700	0.0163286
656.779	0.0162492
656.857	0.0163931
656.935	0.0163654
657.013	0.0162970
657.091	0.0162703
657.169	0.0163985
657.247	0.0163645
657.325	0.0163635
657.404	0.0163462
657.482	0.0164993
657.560	0.0164265
657.638	0.0164419
657.716	0.0165649
657.794	0.0165813
657.872	0.0168987
657.950	0.0167428
658.029	0.0167492
658.107	0.0167902
658.185	0.0168525
658.263	0.0168662
658.341	0.0167935
658.419	0.0168313
658.497	0.0169409
658.575	0.0168145
658.654	0.0167096
658.732	0.0168441
658.810	0.0167414
658.888	0.0165987
658.966	0.0166389
659.044	0.0166854
659.122	0.0167771
659.200	0.0165925
659.279	0.0164317
659.357	0.0163563
659.435	0.0164477
659.513	0.0163765
659.591	0.0161272
659.669	0.0161043
659.747	0.0161074
659.825	0.0161639
659.904	0.0160201
659.982	0.0161189
660.060	0.0160784
660.138	0.0162582
660.216	0.0163071
660.294	0.0161654
660.372	0.0163544
660.450	0.0165077
660.529	0.0163697
660.607	0.0163758
660.685	0.0164555
660.763	0.0165481
660.841	0.0164808
660.919	0.0164034
660.997	0.0164329
661.075	0.0166003
661.154	0.0164576
661.232	0.0164543
661.310	0.0164717
661.388	0.0166365
661.466	0.0165614
661.544	0.0164967
661.622	0.0166663
661.700	0.0165607
661.779	0.0166322
661.857	0.0166335
661.935	0.0166801
662.013	0.0166706
662.091	0.0166106
662.169	0.0167017
662.247	0.0166532
662.325	0.0166988
662.404	0.0166259
662.482	0.0166223
662.560	0.0166569
662.638	0.0167926
662.716	0.0167208
662.794	0.0166800
662.872	0.0165715
662.950	0.0167619
663.029	0.0167487
663.107	0.0167435
663.185	0.0165575
663.263	0.0166154
663.341	0.0166507
663.419	0.0165272
663.497	0.0165393
663.575	0.0163314
663.654	0.0163577
663.732	0.0163300
663.810	0.0161759
663.888	0.0162122
663.966	0.0163396
664.044	0.0162146
664.122	0.0161721
664.200	0.0162135
664.279	0.0160709
664.357	0.0160803
664.435	0.0160789
664.513	0.0161566
664.591	0.0162054
664.669	0.0161589
664.747	0.0161213
664.825	0.0162276
664.904	0.0162084
664.982	0.0162658
665.060	0.0163786
665.138	0.0162796
665.216	0.0165019
665.294	0.0165078
665.372	0.0166727
665.450	0.0166650
665.529	0.0166805
665.607	0.0165573
665.685	0.0167097
665.763	0.0166640
665.841	0.0167750
665.919	0.0166776
665.997	0.0165867
666.075	0.0167136
666.154	0.0166953
666.232	0.0167255
666.310	0.0167115
666.388	0.0164562
666.466	0.0165028
666.544	0.0164301
666.622	0.0165042
666.700	0.0164162
666.779	0.0163923
666.857	0.0163781
666.935	0.0163041
667.013	0.0161237
667.091	0.0163683
667.169	0.0164143
667.247	0.0164011
667.325	0.0164898
667.404	0.0163660
667.482	0.0161898
667.560	0.0164000
667.638	0.0164249
667.716	0.0164714
667.794	0.0165076
667.872	0.0164400
667.950	0.0164108
668.029	0.0165177
668.107	0.0165724
668.185	0.0165860
668.263	0.0165382
668.341	0.0166272
668.419	0.0165087
668.497	0.0164493
668.575	0.0164700
668.654	0.0164192
668.732	0.0164716
668.810	0.0164599
668.888	0.0163788
668.966	0.0163431
669.044	0.0162537
669.122	0.0162259
669.200	0.0163055
669.279	0.0164133
669.357	0.0166048
669.435	0.0164640
669.513	0.0164017
669.591	0.0164747
669.669	0.0165845
669.747	0.0166853
669.825	0.0167268
669.904	0.0168680
669.982	0.0167771
670.060	0.0167336
670.138	0.0167246
670.216	0.0167893
670.294	0.0166549
670.372	0.0165383
670.450	0.0165874
670.529	0.0166850
670.607	0.0164849
670.685	0.0163832
670.763	0.0164395
670.841	0.0164774
670.919	0.0164677
670.997	0.0164340
671.075	0.0164349
671.154	0.0165509
671.232	0.0165012
671.310	0.0165628
671.388	0.0165259
671.466	0.0166521
671.544	0.0165810
671.622	0.0167013
671.700	0.0167870
671.779	0.0166906
671.857	0.0168310
671.935	0.0167877
672.013	0.0168533
672.091	0.0170157
672.169	0.0170165
672.247	0.0169919
672.325	0.0169781
672.404	0.0168213
672.482	0.0168591
672.560	0.0168463
672.638	0.0167296
672.716	0.0165905
672.794	0.0165944
672.872	0.0165947
672.950	0.0165167
673.029	0.0164577
673.107	0.0162994
673.185	0.0164212
673.263	0.0163152
673.341	0.0162045
673.419	0.0161614
673.497	0.0161517
673.575	0.0161446
673.654	0.0161023
673.732	0.0160072
673.810	0.0160248
673.888	0.0158730
673.966	0.0159748
674.044	0.0160291
674.122	0.0160097
674.200	0.0159779
674.279	0.0158919
674.357	0.0159955
674.435	0.0160499
674.513	0.0161755
674.591	0.0160847
674.669	0.0160804
674.747	0.0164534
674.825	0.0163541
674.904	0.0165096
674.982	0.0165264
675.060	0.0166871
675.138	0.0167680
675.216	0.0168437
675.294	0.0170048
675.372	0.0170876
675.450	0.0171457
675.529	0.0173003
675.607	0.0171722
675.685	0.0173058
675.763	0.0172937
675.841	0.0172945
675.919	0.0172536
675.997	0.0172202
676.075	0.0170403
676.154	0.0170882
676.232	0.0168858
676.310	0.0168731
676.388	0.0168551
676.466	0.0167094
676.544	0.0166486
676.622	0.0166817
676.700	0.0165964
676.779	0.0165701
676.857	0.0165588
676.935	0.0165451
677.013	0.0164629
677.091	0.0166793
677.169	0.0165103
677.247	0.0166419
677.325	0.0167614
677.404	0.0166411
677.482	0.0167784
677.560	0.0169032
677.638	0.0167783
677.716	0.0168651
677.794	0.0168146
677.872	0.0166429
677.950	0.0167319
678.029	0.0167607
678.107	0.0167644
678.185	0.0165778
678.263	0.0165536
678.341	0.0166532
678.419	0.0167860
678.497	0.0165784
678.575	0.0165600
678.654	0.0166457
678.732	0.0167614
678.810	0.0168296
678.888	0.0165175
678.966	0.0167048
679.044	0.0165587
679.122	0.0167432
679.200	0.0167931
679.279	0.0166767
679.357	0.0166885
679.435	0.0166681
679.513	0.0166900
679.591	0.0166621
679.669	0.0165965
679.747	0.0166682
679.825	0.0166072
679.904	0.0164344
679.982	0.0165996
680.060	0.0164428
680.138	0.0164053
680.216	0.0162512
680.294	0.0164333
680.372	0.0164252
680.450	0.0164433
680.529	0.0163103
680.607	0.0164045
680.685	0.0163206
680.763	0.0162955
680.841	0.0164294
680.919	0.0163218
680.997	0.0163945
681.075	0.0163195
681.154	0.0162730
681.232	0.0161940
681.310	0.0163954
681.388	0.0162412
681.466	0.0163435
681.544	0.0164561
681.622	0.0163720
681.700	0.0162111
681.779	0.0161783
681.857	0.0165197
681.935	0.0164782
682.013	0.0163248
682.091	0.0163283
682.169	0.0165069
682.247	0.0165244
682.325	0.0165435
682.404	0.0165307
682.482	0.0168387
682.560	0.0165865
682.638	0.0166264
682.716	0.0167677
682.794	0.0168753
682.872	0.0168304
682.950	0.0168155
683.029	0.0170370
683.107	0.0169359
683.185	0.0170474
683.263	0.0170429
683.341	0.0168441
683.419	0.0169138
683.497	0.0168835
683.575	0.0169726
683.654	0.0168594
683.732	0.0167617
683.810	0.0166223
683.888	0.0167306
683.966	0.0165685
684.044	0.0165518
684.122	0.0164505
684.200	0.0164709
684.279	0.0163647
684.357	0.0163077
684.435	0.0161950
684.513	0.0162231
684.591	0.0161683
684.669	0.0160822
684.747	0.0160956
684.825	0.0159834
684.904	0.0160116
684.982	0.0159981
685.060	0.0160648
685.138	0.0161758
685.216	0.0161470
685.294	0.0162270
685.372	0.0163395
685.450	0.0163390
685.529	0.0163577
685.607	0.0165738
685.685	0.0165709
685.763	0.0166830
685.841	0.0167644
685.919	0.0168401
685.997	0.0167301
686.075	0.0168890
686.154	0.0169933
686.232	0.0169286
686.310	0.0169187
686.388	0.0168759
686.466	0.0168404
686.544	0.0166666
686.622	0.0165719
686.700	0.0166463
686.779	0.0166241
686.857	0.0164908
686.935	0.0164803
687.013	0.0164553
687.091	0.0162573
687.169	0.0162236
687.247	0.0162843
687.325	0.0163062
687.404	0.0161959
687.482	0.0161932
687.560	0.0162010
687.638	0.0162541
687.716	0.0162867
687.794	0.0162166
687.872	0.0162055
687.950	0.0162612
688.029	0.0163850
688.107	0.0163436
688.185	0.0162312
688.263	0.0164639
688.341	0.0163436
688.419	0.0162824
688.497	0.0162614
688.575	0.0162272
688.654	0.0163722
688.732	0.0163502
688.810	0.0161777
688.888	0.0163237
688.966	0.0163757
689.044	0.0162992
689.122	0.0163851
689.200	0.0162344
689.279	0.0161833
689.357	0.0163448
689.435	0.0162427
689.513	0.0162509
689.591	0.0163237
689.669	0.0164159
689.747	0.0166245
689.825	0.0165088
689.904	0.0166613
689.982	0.0167303
690.060	0.0166892
690.138	0.0168101
690.216	0.0170270
690.294	0.0169657
690.372	0.0169823
690.450	0.0170783
690.529	0.0171468
690.607	0.0171111
690.685	0.0169892
690.763	0.0170842
690.841	0.0171120
690.919	0.0170650
690.997	0.0169017
691.075	0.0168969
691.154	0.0167680
691.232	0.0167014
691.310	0.0167186
691.388	0.0166700
691.466	0.0164437
691.544	0.0164780
691.622	0.0164005
691.700	0.0164259
691.779	0.0164514
691.857	0.0162537
691.935	0.0162772
692.013	0.0162153
692.091	0.0162323
692.169	0.0162167
692.247	0.0161303
692.325	0.0163607
692.404	0.0162296
692.482	0.0163828
692.560	0.0163297
692.638	0.0164194
692.716	0.0164823
692.794	0.0165157
692.872	0.0165112
692.950	0.0165113
693.029	0.0165999
693.107	0.0165372
693.185	0.0165226
693.263	0.0166595
693.341	0.0167054
693.419	0.0164650
693.497	0.0167129
693.575	0.0165692
693.654	0.0166730
693.732	0.0166472
693.810	0.0165184
693.888	0.0165819
693.966	0.0166562
694.044	0.0166663
694.122	0.0165667
694.200	0.0167853
694.279	0.0167871
694.357	0.0166905
694.435	0.0165553
694.513	0.0166440
694.591	0.0166566
694.669	0.0166254
694.747	0.0163490
694.825	0.0163967
694.904	0.0164095
694.982	0.0163129
695.060	0.0162841
695.138	0.0161889
695.216	0.0161739
695.294	0.0161781
695.372	0.0162436
695.450	0.0162420
695.529	0.0162498
695.607	0.0161906
695.685	0.0163865
695.763	0.0164434
695.841	0.0166748
695.919	0.0165241
695.997	0.0166528
696.075	0.0168188
696.154	0.0168983
696.232	0.0169270
696.310	0.0168422
696.388	0.0167440
696.466	0.0168955
696.544	0.0167974
696.622	0.0168217
696.700	0.0168666
696.779	0.0166937
696.857	0.0168111
696.935	0.0167211
697.013	0.0165330
697.091	0.0165347
697.169	0.0165700
697.247	0.0164687
697.325	0.0161990
697.404	0.0163217
697.482	0.0162905
697.560	0.0162666
697.638	0.0162653
697.716	0.0163571
697.794	0.0163748
697.872	0.0164640
697.950	0.0163831
698.029	0.0164858
698.107	0.0165011
698.185	0.0165606
698.263	0.0166168
698.341	0.0165124
698.419	0.0166960
698.497	0.0168696
698.575	0.0168185
698.654	0.0166225
698.732	0.0168528
698.810	0.0167650
698.888	0.0166691
698.966	0.0168532
699.044	0.0167675
699.122	0.0167354
699.200	0.0166782
699.279	0.0166565
699.357	0.0165762
699.435	0.0165636
699.513	0.0166842
699.591	0.0166540
699.669	0.0167199
699.747	0.0167496
699.825	0.0168622
699.904	0.0166706
699.982	0.0169661
700.060	0.0168378
700.138	0.0169579
700.216	0.0169145
700.294	0.0169054
700.372	0.0168534
700.450	0.0169058
700.529	0.0168726
700.607	0.0168441
700.685	0.0168426
700.763	0.0167672
700.841	0.0168356
700.919	0.0166498
700.997	0.0166204
701.075	0.0164400
701.154	0.0165575
701.232	0.0166058
701.310	0.0166058
701.388	0.0165426
701.466	0.0165759
701.544	0.0163914
701.622	0.0163363
701.700	0.0163488
701.779	0.0163116
701.857	0.0164012
701.935	0.0162560
702.013	0.0164648
702.091	0.0163747
702.169	0.0163946
702.247	0.0165106
702.325	0.0164856
702.404	0.0165754
702.482	0.0167149
702.560	0.0165724
702.638	0.0166675
702.716	0.0167034
702.794	0.0165526
702.872	0.0168388
702.950	0.0167252
703.029	0.0166531
703.107	0.0168592
703.185	0.0167404
703.263	0.0166526
703.341	0.0164892
703.419	0.0165329
703.497	0.0164711
703.575	0.0164035
703.654	0.0163052
703.732	0.0163471
703.810	0.0161749
703.888	0.0161268
703.966	0.0161552
704.044	0.0160153
704.122	0.0159409
704.200	0.0159923
704.279	0.0160085
704.357	0.0159653
704.435	0.0160625
704.513	0.0159886
704.591	0.0160568
704.669	0.0158856
704.747	0.0160326
704.825	0.0161028
704.904	0.0161114
704.982	0.0162360
705.060	0.0162317
705.138	0.0163070
705.216	0.0163340
705.294	0.0164945
705.372	0.0166034
705.450	0.0166458
705.529	0.0164679
705.607	0.0166282
705.685	0.0166843
705.763	0.0166237
705.841	0.0165559
705.919	0.0165968
705.997	0.0165706
706.075	0.0167619
706.154	0.0166257
706.232	0.0167393
706.310	0.0168131
706.388	0.0167238
706.466	0.0168521
706.544	0.0168707
706.622	0.0169267
706.700	0.0171287
706.779	0.0169572
706.857	0.0170101
706.935	0.0171227
707.013	0.0169354
707.091	0.0171571
707.169	0.0170491
707.247	0.0169854
707.325	0.0170742
707.404	0.0171680
707.482	0.0169482
707.560	0.0171825
707.638	0.0170414
707.716	0.0169210
707.794	0.0168829
707.872	0.0169691
707.950	0.0167734
708.029	0.0168229
708.107	0.0166141
708.185	0.0165590
708.263	0.0164841
708.341	0.0163646
708.419	0.0163782
708.497	0.0160925
708.575	0.0162211
708.654	0.0159839
708.732	0.0159404
708.810	0.0159890
708.888	0.0157990
708.966	0.0157047
709.044	0.0157268
709.122	0.0157059
709.200	0.0157658
709.279	0.0157116
709.357	0.0156900
709.435	0.0157115
709.513	0.0157992
709.591	0.0158463
709.669	0.0158788
709.747	0.0161855
709.825	0.0161546
709.904	0.0161633
709.982	0.0162794
710.060	0.0162749
710.138	0.0163805
710.216	0.0164157
710.294	0.0163547
710.372	0.0164873
710.450	0.0164984
710.529	0.0166701
710.607	0.0166329
710.685	0.0166219
710.763	0.0166998
710.841	0.0167918
710.919	0.0167914
710.997	0.0167120
711.075	0.0166793
711.154	0.0166888
711.232	0.0166951
711.310	0.0165285
711.388	0.0163800
711.466	0.0163649
711.544	0.0162895
711.622	0.0162598
711.700	0.0161911
711.779	0.0160965
711.857	0.0163332
711.935	0.0162188
712.013	0.0161855
712.091	0.0161648
712.169	0.0163387
712.247	0.0162978
712.325	0.0162289
712.404	0.0164970
712.482	0.0166753
712.560	0.0165273
712.638	0.0167151
712.716	0.0169080
712.794	0.0168340
712.872	0.0169989
712.950	0.0170255
713.029	0.0169091
713.107	0.0168996
713.185	0.0170219
713.263	0.0169366
713.341	0.0166885
713.419	0.0166825
713.497	0.0165907
713.575	0.0165321
713.654	0.0166154
713.732	0.0165599
713.810	0.0165689
713.888	0.0164830
713.966	0.0165675
714.044	0.0164163
714.122	0.0165646
714.200	0.0165261
714.279	0.0166587
714.357	0.0168262
714.435	0.0169819
714.513	0.0170607
714.591	0.0172469
714.669	0.0171899
714.747	0.0172996
714.825	0.0173666
714.904	0.0175018
714.982	0.0175608
715.060	0.0174461
715.138	0.0175420
715.216	0.0174929
715.294	0.0174423
715.372	0.0174229
715.450	0.0172090
715.529	0.0171688
715.607	0.0169682
715.685	0.0169505
715.763	0.0168014
715.841	0.0167119
715.919	0.0165443
715.997	0.0162725
716.075	0.0162682
716.154	0.0161997
716.232	0.0160647
716.310	0.0160290
716.388	0.0158731
716.466	0.0156138
716.544	0.0157468
716.622	0.0158090
716.700	0.0156371
716.779	0.0156543
716.857	0.0155935
716.935	0.0154985
717.013	0.0157575
717.091	0.0156820
717.169	0.0157265
717.247	0.0156157
717.325	0.0159326
717.404	0.0158295
717.482	0.0159048
717.560	0.0159764
717.638	0.0161726
717.716	0.0162351
717.794	0.0163878
717.872	0.0165224
717.950	0.0166782
718.029	0.0165623
718.107	0.0168500
718.185	0.0167975
718.263	0.0168513
718.341	0.0169821
718.419	0.0169005
718.497	0.0168542
718.575	0.0169310
718.654	0.0169028
718.732	0.0169919
718.810	0.0167706
718.888	0.0167501
718.966	0.0167953
719.044	0.0165775
719.122	0.0165941
719.200	0.0164441
719.279	0.0163795
719.357	0.0163121
719.435	0.0163201
719.513	0.0163350
719.591	0.0163133
719.669	0.0162916
719.747	0.0162890
719.825	0.0163924
719.904	0.0164182
719.982	0.0164491
720.060	0.0167744
720.138	0.0166493
720.216	0.0166945
720.294	0.0168187
720.372	0.0170601
720.450	0.0171282
720.529	0.0172108
720.607	0.0171435
720.685	0.0170790
720.763	0.0170967
720.841	0.0169968
720.919	0.0169003
720.997	0.0168559
721.075	0.0169640
721.154	0.0168238
721.232	0.0169122
721.310	0.0168631
721.388	0.0167097
721.466	0.0166155
721.544	0.0167484
721.622	0.0167894
721.700	0.0168059
721.779	0.0168585
721.857	0.0168744
721.935	0.0170414
722.013	0.0171617
722.091	0.0171263
722.169	0.0171670
722.247	0.0173752
722.325	0.0173984
722.404	0.0175085
722.482	0.0175384
722.560	0.0174528
722.638	0.0173418
722.716	0.0172988
722.794	0.0173141
722.872	0.0172515
722.950	0.0170668
723.029	0.0169225
723.107	0.0169115
723.185	0.0167312
723.263	0.0166679
723.341	0.0165917
723.419	0.0165622
723.497	0.0164870
723.575	0.0163136
723.654	0.0163139
723.732	0.0162366
723.810	0.0161817
723.888	0.0160628
723.966	0.0160931
724.044	0.0160767
724.122	0.0158501
724.200	0.0158692
724.279	0.0159604
724.357	0.0159541
724.435	0.0158065
724.513	0.0158669
724.591	0.0157619
724.669	0.0157938
724.747	0.0157991
724.825	0.0158415
724.904	0.0158163
724.982	0.0159032
725.060	0.0159492
725.138	0.0159831
725.216	0.0158754
725.294	0.0160928
725.372	0.0162284
725.450	0.0161644
725.529	0.0162034
725.607	0.0164312
725.685	0.0164530
725.763	0.0166819
725.841	0.0166333
725.919	0.0166194
725.997	0.0167051
726.075	0.0168069
726.154	0.0168268
726.232	0.0166967
726.310	0.0168408
726.388	0.0167203
726.466	0.0168907
726.544	0.0169116
726.622	0.0167204
726.700	0.0167088
726.779	0.0168114
726.857	0.0165698
726.935	0.0164755
727.013	0.0165050
727.091	0.0165953
727.169	0.0164913
727.247	0.0163466
727.325	0.0163620
727.404	0.0164773
727.482	0.0165080
727.560	0.0163583
727.638	0.0164817
727.716	0.0166661
727.794	0.0167171
727.872	0.0164980
727.950	0.0164703
728.029	0.0167024
728.107	0.0166638
728.185	0.0165540
728.263	0.0165461
728.341	0.0165822
728.419	0.0164097
728.497	0.0165015
728.575	0.0163889
728.654	0.0166089
728.732	0.0165089
728.810	0.0163611
728.888	0.0165686
728.966	0.0165688
729.044	0.0167451
729.122	0.0166106
729.200	0.0168063
729.279	0.0168452
729.357	0.0169607
729.435	0.0171467
729.513	0.0169125
729.591	0.0171971
729.669	0.0173013
729.747	0.0173452
729.825	0.0172336
729.904	0.0172352
729.982	0.0174593
730.060	0.0172326
730.138	0.0172197
730.216	0.0170850
730.294	0.0169828
730.372	0.0168703
730.450	0.0167424
730.529	0.0166086
730.607	0.0164820
730.685	0.0163417
730.763	0.0162827
730.841	0.0162894
730.919	0.0162029
730.997	0.0160719
731.075	0.0160238
731.154	0.0159373
731.232	0.0159620
731.310	0.0160585
731.388	0.0160371
731.466	0.0157816
731.544	0.0158097
731.622	0.0159294
731.700	0.0160545
731.779	0.0159736
731.857	0.0158830
731.935	0.0159464
732.013	0.0157346
732.091	0.0158529
732.169	0.0158646
732.247	0.0158050
732.325	0.0158496
732.404	0.0157950
732.482	0.0157833
732.560	0.0158886
732.638	0.0158012
732.716	0.0158187
732.794	0.0159168
732.872	0.0159879
732.950	0.0160121
733.029	0.0160188
733.107	0.0162090
733.185	0.0162064
733.263	0.0163103
733.341	0.0164037
733.419	0.0165472
733.497	0.0164852
733.575	0.0166494
733.654	0.0166644
733.732	0.0167184
733.810	0.0168433
733.888	0.0169272
733.966	0.0168626
734.044	0.0167422
734.122	0.0168584
734.200	0.0169744
734.279	0.0167845
734.357	0.0167704
734.435	0.0166644
734.513	0.0165520
734.591	0.0166235
734.669	0.0165268
734.747	0.0164981
734.825	0.0165476
734.904	0.0162833
734.982	0.0163305
735.060	0.0163644
735.138	0.0163159
735.216	0.0164145
735.294	0.0163992
735.372	0.0163451
735.450	0.0162979
735.529	0.0164626
735.607	0.0162885
735.685	0.0164229
735.763	0.0163755
735.841	0.0164979
735.919	0.0165032
735.997	0.0165279
736.075	0.0165933
736.154	0.0165157
736.232	0.0165322
736.310	0.0167094
736.388	0.0167548
736.466	0.0168547
736.544	0.0168162
736.622	0.0169283
736.700	0.0169170
736.779	0.0170203
736.857	0.0169630
736.935	0.0172403
737.013	0.0171204
737.091	0.0173258
737.169	0.0172803
737.247	0.0173569
737.325	0.0173687
737.404	0.0173771
737.482	0.0173540
737.560	0.0173012
737.638	0.0173378
737.716	0.0172897
737.794	0.0172760
737.872	0.0170271
737.950	0.0171663
738.029	0.0170619
738.107	0.0169997
738.185	0.0169379
738.263	0.0168290
738.341	0.0167836
738.419	0.0166475
738.497	0.0166558
738.575	0.0165488
738.654	0.0164599
738.732	0.0164476
738.810	0.0164378
738.888	0.0164254
738.966	0.0162514
739.044	0.0162478
739.122	0.0163148
739.200	0.0161774
739.279	0.0162273
739.357	0.0161732
739.435	0.0161250
739.513	0.0160768
739.591	0.0161742
739.669	0.0162233
739.747	0.0162191
739.825	0.0161146
739.904	0.0161951
739.982	0.0161875
740.060	0.0161663
740.138	0.0161133
740.216	0.0162134
740.294	0.0160334
740.372	0.0161504
740.450	0.0159649
740.529	0.0160855
740.607	0.0160409
740.685	0.0161103
740.763	0.0160391
740.841	0.0160023
740.919	0.0160731
740.997	0.0161786
741.075	0.0161212
741.154	0.0162283
741.232	0.0164091
741.310	0.0163225
741.388	0.0164433
741.466	0.0163882
741.544	0.0166130
741.622	0.0165794
741.700	0.0164843
741.779	0.0163966
741.857	0.0165126
741.935	0.0165281
742.013	0.0164838
742.091	0.0164893
742.169	0.0164249
742.247	0.0166084
742.325	0.0164702
742.404	0.0165164
742.482	0.0166518
742.560	0.0166723
742.638	0.0167941
742.716	0.0167149
742.794	0.0168800
742.872	0.0169148
742.950	0.0168616
743.029	0.0169994
743.107	0.0170378
743.185	0.0170370
743.263	0.0169832
743.341	0.0171558
743.419	0.0170986
743.497	0.0172530
743.575	0.0171474
743.654	0.0172266
743.732	0.0171626
743.810	0.0171324
743.888	0.0173367
743.966	0.0173211
744.044	0.0171671
744.122	0.0171445
744.200	0.0171882
744.279	0.0171461
744.357	0.0172743
744.435	0.0172897
744.513	0.0173689
744.591	0.0172478
744.669	0.0172555
744.747	0.0172473
744.825	0.0173704
744.904	0.0172488
744.982	0.0170980
745.060	0.0172121
745.138	0.0172101
745.216	0.0171532
745.294	0.0170850
745.372	0.0170634
745.450	0.0170197
745.529	0.0168303
745.607	0.0170518
745.685	0.0169370
745.763	0.0168615
745.841	0.0166932
745.919	0.0167370
745.997	0.0168183
746.075	0.0164781
746.154	0.0165247
746.232	0.0166512
746.310	0.0165115
746.388	0.0164303
746.466	0.0165781
746.544	0.0164096
746.622	0.0163627
746.700	0.0163924
746.779	0.0164867
746.857	0.0163716
746.935	0.0162973
747.013	0.0163606
747.091	0.0163143
747.169	0.0162904
747.247	0.0163010
747.325	0.0160950
747.404	0.0161523
747.482	0.0159454
747.560	0.0160323
747.638	0.0161599
747.716	0.0159656
747.794	0.0159544
747.872	0.0159071
747.950	0.0156876
748.029	0.0157962
748.107	0.0158393
748.185	0.0158624
748.263	0.0158162
748.341	0.0158395
748.419	0.0158089
748.497	0.0158266
748.575	0.0158861
748.654	0.0158192
748.732	0.0158613
748.810	0.0159420
748.888	0.0159128
748.966	0.0159448
749.044	0.0161008
749.122	0.0161006
749.200	0.0161668
749.279	0.0162101
749.357	0.0162299
749.435	0.0162545
749.513	0.0165642
749.591	0.0166010
749.669	0.0166898
749.747	0.0166027
749.825	0.0168262
749.904	0.0168614
749.982	0.0168258
750.060	0.0168648
750.138	0.0168919
750.216	0.0171172
750.294	0.0169888
750.372	0.0170034
750.450	0.0171214
750.529	0.0169542
750.607	0.0170945
750.685	0.0170277
750.763	0.0171933
750.841	0.0171840
750.919	0.0170943
750.997	0.0170050
751.075	0.0169865
751.154	0.0170956
751.232	0.0171925
751.310	0.0171744
751.388	0.0170352
751.466	0.0170310
751.544	0.0169913
751.622	0.0168600
751.700	0.0168252
751.779	0.0168811
751.857	0.0169942
751.935	0.0167607
752.013	0.0166595
752.091	0.0167270
752.169	0.0168204
752.247	0.0168060
752.325	0.0166968
752.404	0.0165817
752.482	0.0167442
752.560	0.0165659
752.638	0.0167220
752.716	0.0167424
752.794	0.0165980
752.872	0.0166335
752.950	0.0167007
753.029	0.0167828
753.107	0.0165740
753.185	0.0165649
753.263	0.0164982
753.341	0.0164017
753.419	0.0164561
753.497	0.0164288
753.575	0.0164550
753.654	0.0163731
753.732	0.0163480
753.810	0.0162400
753.888	0.0160532
753.966	0.0162446
754.044	0.0162452
754.122	0.0162214
754.200	0.0159628
754.279	0.0160186
754.357	0.0159558
754.435	0.0158691
754.513	0.0158538
754.591	0.0157934
754.669	0.0157538
754.747	0.0156525
754.825	0.0158444
754.904	0.0158491
754.982	0.0157618
755.060	0.0157393
755.138	0.0156915
755.216	0.0156512
755.294	0.0156375
755.372	0.0157403
755.450	0.0156642
755.529	0.0157167
755.607	0.0158074
755.685	0.0157621
755.763	0.0157138
755.841	0.0158147
755.919	0.0159645
755.997	0.0159003
756.075	0.0159268
756.154	0.0159090
756.232	0.0161067
756.310	0.0161943
756.388	0.0161156
756.466	0.0161421
756.544	0.0162700
756.622	0.0163454
756.700	0.0164259
756.779	0.0165363
756.857	0.0166976
756.935	0.0166715
757.013	0.0166260
757.091	0.0168098
757.169	0.0169314
757.247	0.0168972
757.325	0.0167449
757.404	0.0167708
757.482	0.0168970
757.560	0.0169301
757.638	0.0171600
757.716	0.0170495
757.794	0.0171548
757.872	0.0172056
757.950	0.0172823
758.029	0.0172536
758.107	0.0173383
758.185	0.0172845
758.263	0.0173011
758.341	0.0172978
758.419	0.0173088
758.497	0.0172094
758.575	0.0171677
758.654	0.0170633
758.732	0.0170950
758.810	0.0170312
758.888	0.0170208
758.966	0.0168832
759.044	0.0167548
759.122	0.0168639
759.200	0.0169179
759.279	0.0167931
759.357	0.0167599
759.435	0.0167997
759.513	0.0168188
759.591	0.0167229
759.669	0.0166344
759.747	0.0168415
759.825	0.0166491
759.904	0.0166239
759.982	0.0165472
760.060	0.0165859
760.138	0.0164539
760.216	0.0163883
760.294	0.0164317
760.372	0.0163973
760.450	0.0163926
760.529	0.0163217
760.607	0.0163635
760.685	0.0164064
760.763	0.0163719
760.841	0.0163032
760.919	0.0162347
760.997	0.0163397
761.075	0.0163030
761.154	0.0162276
761.232	0.0161255
761.310	0.0161185
761.388	0.0163374
761.466	0.0161639
761.544	0.0160758
761.622	0.0160706
761.700	0.0161153
761.779	0.0160938
761.857	0.0159832
761.935	0.0161167
762.013	0.0160928
762.091	0.0161935
762.169	0.0161682
762.247	0.0160350
762.325	0.0160150
762.404	0.0161548
762.482	0.0162975
762.560	0.0162727
762.638	0.0163508
762.716	0.0161764
762.794	0.0162000
762.872	0.0161734
762.950	0.0161804
763.029	0.0162128
763.107	0.0164113
763.185	0.0163318
763.263	0.0162592
763.341	0.0163691
763.419	0.0163537
763.497	0.0163219
763.575	0.0162999
763.654	0.0164690
763.732	0.0165071
763.810	0.0163535
763.888	0.0165941
763.966	0.0166022
764.044	0.0165113
764.122	0.0165155
764.200	0.0167519
764.279	0.0166112
764.357	0.0164898
764.435	0.0166637
764.513	0.0166566
764.591	0.0165849
764.669	0.0167175
764.747	0.0166881
764.825	0.0167937
764.904	0.0167281
764.982	0.0166495
765.060	0.0168592
765.138	0.0167781
765.216	0.0168331
765.294	0.0166578
765.372	0.0167251
765.450	0.0168380
765.529	0.0168179
765.607	0.0168642
765.685	0.0168988
765.763	0.0168832
765.841	0.0167934
765.919	0.0167529
765.997	0.0168317
766.075	0.0169121
766.154	0.0169070
766.232	0.0169538
766.310	0.0169525
766.388	0.0169250
766.466	0.0168826
766.544	0.0169016
766.622	0.0169952
766.700	0.0169864
766.779	0.0168125
766.857	0.0168908
766.935	0.0168084
767.013	0.0168662
767.091	0.0166665
767.169	0.0167638
767.247	0.0167542
767.325	0.0167925
767.404	0.0166708
767.482	0.0165790
767.560	0.0166933
767.638	0.0166444
767.716	0.0166454
767.794	0.0165526
767.872	0.0166959
767.950	0.0166139
768.029	0.0164665
768.107	0.0165476
768.185	0.0166374
768.263	0.0166409
768.341	0.0165041
768.419	0.0164382
768.497	0.0165154
768.575	0.0165028
768.654	0.0163249
768.732	0.0164380
768.810	0.0164028
768.888	0.0164568
768.966	0.0163010
769.044	0.0163090
769.122	0.0162357
769.200	0.0164010
769.279	0.0165778
769.357	0.0163463
769.435	0.0162814
769.513	0.0166365
769.591	0.0165564
769.669	0.0164924
769.747	0.0164953
769.825	0.0165291
769.904	0.0165342
769.982	0.0165247
770.060	0.0165679
770.138	0.0166595
770.216	0.0164649
770.294	0.0164735
770.372	0.0165057
770.450	0.0164130
770.529	0.0164468
770.607	0.0165634
770.685	0.0166412
770.763	0.0166814
770.841	0.0165572
770.919	0.0164601
770.997	0.0165296
771.075	0.0165002
771.154	0.0164767
771.232	0.0166356
771.310	0.0165916
771.388	0.0164181
771.466	0.0164985
771.544	0.0165976
771.622	0.0163045
771.700	0.0163689
771.779	0.0163924
771.857	0.0162973
771.935	0.0162697
772.013	0.0163042
772.091	0.0163446
772.169	0.0163989
772.247	0.0162878
772.325	0.0164668
772.404	0.0163408
772.482	0.0163162
772.560	0.0166447
772.638	0.0165214
772.716	0.0164751
772.794	0.0166191
772.872	0.0167886
772.950	0.0167048
773.029	0.0166640
773.107	0.0168132
773.185	0.0168550
773.263	0.0170220
773.341	0.0169832
773.419	0.0168233
773.497	0.0169773
773.575	0.0171115
773.654	0.0171434
773.732	0.0170679
773.810	0.0170757
773.888	0.0170259
773.966	0.0170168
774.044	0.0171329
774.122	0.0171005
774.200	0.0171098
774.279	0.0170786
774.357	0.0172321
774.435	0.0170640
774.513	0.0171259
774.591	0.0168983
774.669	0.0169453
774.747	0.0169722
774.825	0.0169350
774.904	0.0167297
774.982	0.0167702
775.060	0.0167342
775.138	0.0165595
775.216	0.0165965
775.294	0.0164893
775.372	0.0164948
775.450	0.0164555
775.529	0.0163962
775.607	0.0164739
775.685	0.0164157
775.763	0.0163274
775.841	0.0162252
775.919	0.0163562
775.997	0.0163092
776.075	0.0162080
776.154	0.0162026
776.232	0.0163513
776.310	0.0162797
776.388	0.0163033
776.466	0.0163409
776.544	0.0163988
776.622	0.0162841
776.700	0.0161754
776.779	0.0162941
776.857	0.0162473
776.935	0.0161716
777.013	0.0163634
777.091	0.0164186
777.169	0.0163529
777.247	0.0162428
777.325	0.0161833
777.404	0.0164497
777.482	0.0163547
777.560	0.0163793
777.638	0.0165405
777.716	0.0163783
777.794	0.0164783
777.872	0.0165697
777.950	0.0165127
778.029	0.0164973
778.107	0.0165964
778.185	0.0166708
778.263	0.0166390
778.341	0.0166003
778.419	0.0165428
778.497	0.0167683
778.575	0.0166218
778.654	0.0166746
778.732	0.0167783
778.810	0.0167673
778.888	0.0166814
778.966	0.0164159
779.044	0.0166239
779.122	0.0165668
779.200	0.0165233
779.279	0.0164558
779.357	0.0163836
779.435	0.0162324
779.513	0.0164230
779.591	0.0164780
779.669	0.0164384
779.747	0.0165176
779.825	0.0163702
779.904	0.0163027
779.982	0.0165286
780.060	0.0164722
780.138	0.0165417
780.216	0.0165652
780.294	0.0166436
780.372	0.0167512
780.450	0.0167288
780.529	0.0165845
780.607	0.0167369
780.685	0.0167548
780.763	0.0167692
780.841	0.0166354
780.919	0.0167500
780.997	0.0168336
781.075	0.0169025
781.154	0.0167962
781.232	0.0167513
781.310	0.0168483
781.388	0.0168201
781.466	0.0169374
781.544	0.0168575
781.622	0.0169532
781.700	0.0169178
781.779	0.0167952
781.857	0.0168623
781.935	0.0168732
782.013	0.0169022
782.091	0.0167874
782.169	0.0169717
782.247	0.0167708
782.325	0.0166811
782.404	0.0169406
782.482	0.0167184
782.560	0.0167144
782.638	0.0166632
782.716	0.0166090
782.794	0.0165164
782.872	0.0165134
782.950	0.0164245
783.029	0.0163605
783.107	0.0163911
783.185	0.0163116
783.263	0.0162955
783.341	0.0162154
783.419	0.0163166
783.497	0.0161264
783.575	0.0161729
783.654	0.0161914
783.732	0.0162823
783.810	0.0161537
783.888	0.0160187
783.966	0.0162518
784.044	0.0163149
784.122	0.0161801
784.200	0.0161788
784.279	0.0162933
784.357	0.0162579
784.435	0.0163208
784.513	0.0164398
784.591	0.0164146
784.669	0.0163964
784.747	0.0163658
784.825	0.0165865
784.904	0.0164998
784.982	0.0164560
785.060	0.0164679
785.138	0.0164942
785.216	0.0164533
785.294	0.0164698
785.372	0.0165060
785.450	0.0164470
785.529	0.0164914
785.607	0.0163764
785.685	0.0164932
785.763	0.0165412
785.841	0.0164603
785.919	0.0164545
785.997	0.0165765
786.075	0.0165670
786.154	0.0164762
786.232	0.0164637
786.310	0.0163264
786.388	0.0165453
786.466	0.0165093
786.544	0.0164997
786.622	0.0164049
786.700	0.0163631
786.779	0.0163239
786.857	0.0164372
786.935	0.0163929
787.013	0.0164435
787.091	0.0164452
787.169	0.0164337
787.247	0.0164163
787.325	0.0162772
787.404	0.0163109
787.482	0.0161425
787.560	0.0163685
787.638	0.0163856
787.716	0.0162946
787.794	0.0163982
787.872	0.0164912
787.950	0.0163271
788.029	0.0162769
788.107	0.0165908
788.185	0.0162646
788.263	0.0164365
788.341	0.0164877
788.419	0.0164780
788.497	0.0165169
788.575	0.0163773
788.654	0.0165213
788.732	0.0166428
788.810	0.0166220
788.888	0.0165045
788.966	0.0166037
789.044	0.0166488
789.122	0.0166484
789.200	0.0166582
789.279	0.0167499
789.357	0.0167196
789.435	0.0166171
789.513	0.0166844
789.591	0.0167110
789.669	0.0167226
789.747	0.0167581
789.825	0.0167480
789.904	0.0168143
789.982	0.0167127
790.060	0.0168073
790.138	0.0167771
790.216	0.0166718
790.294	0.0168409
790.372	0.0168150
790.450	0.0167255
790.529	0.0166625
790.607	0.0165592
790.685	0.0165516
790.763	0.0166615
790.841	0.0166064
790.919	0.0165110
790.997	0.0164777
791.075	0.0164748
791.154	0.0164029
791.232	0.0164960
791.310	0.0164603
791.388	0.0163333
791.466	0.0163946
791.544	0.0164574
791.622	0.0165170
791.700	0.0163129
791.779	0.0163554
791.857	0.0164005
791.935	0.0164957
792.013	0.0164537
792.091	0.0163701
792.169	0.0163067
792.247	0.0162971
792.325	0.0163358
792.404	0.0164715
792.482	0.0166451
792.560	0.0165123
792.638	0.0166873
792.716	0.0166562
792.794	0.0165142
792.872	0.0164952
792.950	0.0166516
793.029	0.0166479
793.107	0.0166248
793.185	0.0166367
793.263	0.0167797
793.341	0.0166950
793.419	0.0167184
793.497	0.0167239
793.575	0.0167274
793.654	0.0165875
793.732	0.0166707
793.810	0.0166443
793.888	0.0166216
793.966	0.0166437
794.044	0.0165314
794.122	0.0166240
794.200	0.0166061
794.279	0.0165904
794.357	0.0165591
794.435	0.0165948
794.513	0.0166107
794.591	0.0165374
794.669	0.0165805
794.747	0.0166613
794.825	0.0165311
794.904	0.0165857
794.982	0.0166461
795.060	0.0165600
795.138	0.0165305
795.216	0.0164770
795.294	0.0163328
795.372	0.0164802
795.450	0.0164912
795.529	0.0163300
795.607	0.0164178
795.685	0.0163804
795.763	0.0164323
795.841	0.0164778
795.919	0.0164787
795.997	0.0164476
796.075	0.0163502
796.154	0.0164998
796.232	0.0165977
796.310	0.0166369
796.388	0.0165461
796.466	0.0166770
796.544	0.0167407
796.622	0.0168400
796.700	0.0168378
796.779	0.0168959
796.857	0.0168883
796.935	0.0168874
797.013	0.0169348
797.091	0.0168726
797.169	0.0169460
797.247	0.0169682
797.325	0.0169382
797.404	0.0168526
797.482	0.0168576
797.560	0.0167316
797.638	0.0167330
797.716	0.0167817
797.794	0.0167998
797.872	0.0167668
797.950	0.0167607
798.029	0.0167113
798.107	0.0166718
798.185	0.0166024
798.263	0.0165816
798.341	0.0166860
798.419	0.0165688
798.497	0.0167903
798.575	0.0165888
798.654	0.0165410
798.732	0.0165443
798.810	0.0165060
798.888	0.0164781
798.966	0.0165249
799.044	0.0166073
799.122	0.0165054
799.200	0.0164426
799.279	0.0165633
799.357	0.0165115
799.435	0.0164895
799.513	0.0164488
799.591	0.0164410
799.669	0.0165483
799.747	0.0165659
799.825	0.0165429
799.904	0.0165004
799.982	0.0165147
800.060	0.0164595
800.138	0.0164142
800.216	0.0166828
800.294	0.0166303
800.372	0.0165320
800.450	0.0165648
800.529	0.0165220
800.607	0.0165651
800.685	0.0167039
800.763	0.0166632
800.841	0.0164967
800.919	0.0165450
800.997	0.0167068
801.075	0.0167184
801.154	0.0166508
801.232	0.0166074
801.310	0.0166530
801.388	0.0168133
801.466	0.0166794
801.544	0.0166026
801.622	0.0165919
801.700	0.0165691
801.779	0.0166829
801.857	0.0165341
801.935	0.0164320
802.013	0.0165936
802.091	0.0164987
802.169	0.0165278
802.247	0.0165707
802.325	0.0165781
802.404	0.0165934
802.482	0.0166161
802.560	0.0166792
802.638	0.0165917
802.716	0.0164655
802.794	0.0165771
802.872	0.0164944
802.950	0.0165613
803.029	0.0165833
803.107	0.0165065
803.185	0.0165299
803.263	0.0166058
803.341	0.0165897
803.419	0.0166830
803.497	0.0166975
803.575	0.0167032
803.654	0.0165513
803.732	0.0165581
803.810	0.0167233
803.888	0.0169410
803.966	0.0168028
804.044	0.0167534
804.122	0.0167345
804.200	0.0167753
804.279	0.0167983
804.357	0.0166577
804.435	0.0167049
804.513	0.0167963
804.591	0.0167831
804.669	0.0166868
804.747	0.0166875
804.825	0.0167106
804.904	0.0167706
804.982	0.0167149
805.060	0.0166817
805.138	0.0167786
805.216	0.0166268
805.294	0.0165902
805.372	0.0166203
805.450	0.0167777
805.529	0.0166913
805.607	0.0166059
805.685	0.0166664
805.763	0.0166037
805.841	0.0165471
805.919	0.0165374
805.997	0.0166087
806.075	0.0165854
806.154	0.0166090
806.232	0.0166567
806.310	0.0166434
806.388	0.0165534
806.466	0.0165865
806.544	0.0165517
806.622	0.0166055
806.700	0.0165805
806.779	0.0164982
806.857	0.0164631
806.935	0.0165546
807.013	0.0166082
807.091	0.0165170
807.169	0.0163904
807.247	0.0163733
807.325	0.0163808
807.404	0.0164942
807.482	0.0165243
807.560	0.0164520
807.638	0.0164481
807.716	0.0163544
807.794	0.0166009
807.872	0.0164824
807.950	0.0163717
808.029	0.0163554
808.107	0.0165081
808.185	0.0165308
808.263	0.0164391
808.341	0.0165614
808.419	0.0163525
808.497	0.0164822
808.575	0.0165083
808.654	0.0164162
808.732	0.0164970
808.810	0.0165279
808.888	0.0164819
808.966	0.0163517
809.044	0.0163799
809.122	0.0165436
809.200	0.0163215
809.279	0.0164494
809.357	0.0163988
809.435	0.0164250
809.513	0.0164337
809.591	0.0165136
809.669	0.0163351
809.747	0.0163735
809.825	0.0163062
809.904	0.0162381
809.982	0.0163113
810.060	0.0163655
810.138	0.0162540
810.216	0.0162476
810.294	0.0163261
810.372	0.0163335
810.450	0.0161907
810.529	0.0162543
810.607	0.0163792
810.685	0.0162600
810.763	0.0164326
810.841	0.0163788
810.919	0.0164673
810.997	0.0163754
811.075	0.0165063
811.154	0.0165034
811.232	0.0163792
811.310	0.0164702
811.388	0.0164265
811.466	0.0164012
811.544	0.0163847
811.622	0.0164388
811.700	0.0164262
811.779	0.0163084
811.857	0.0163644
811.935	0.0163988
812.013	0.0163479
812.091	0.0164130
812.169	0.0164536
812.247	0.0163089
812.325	0.0164617
812.404	0.0164371
812.482	0.0163895
812.560	0.0163643
812.638	0.0164413
812.716	0.0163184
812.794	0.0166761
812.872	0.0165301
812.950	0.0164495
813.029	0.0165714
813.107	0.0165340
813.185	0.0164101
813.263	0.0164058
813.341	0.0164713
813.419	0.0163902
813.497	0.0164848
813.575	0.0163919
813.654	0.0163632
813.732	0.0163781
813.810	0.0164689
813.888	0.0165030
813.966	0.0165358
814.044	0.0163483
814.122	0.0164423
814.200	0.0164886
814.279	0.0165376
814.357	0.0165818
814.435	0.0165844
814.513	0.0163688
814.591	0.0165929
814.669	0.0164120
814.747	0.0164717
814.825	0.0165768
814.904	0.0165562
814.982	0.0164508
815.060	0.0164351
815.138	0.0162816
815.216	0.0164056
815.294	0.0164812
815.372	0.0163747
815.450	0.0163793
815.529	0.0163171
815.607	0.0163358
815.685	0.0163435
815.763	0.0162872
815.841	0.0163749
815.919	0.0163406
815.997	0.0162505
816.075	0.0162855
816.154	0.0163543
816.232	0.0162701
816.310	0.0162783
816.388	0.0162905
816.466	0.0163045
816.544	0.0163846
816.622	0.0164407
816.700	0.0163580
816.779	0.0165384
816.857	0.0163078
816.935	0.0164532
817.013	0.0166544
817.091	0.0165607
817.169	0.0164114
817.247	0.0165339
817.325	0.0165517
817.404	0.0165376
817.482	0.0164280
817.560	0.0165351
817.638	0.0166277
817.716	0.0165897
817.794	0.0164658
817.872	0.0165540
817.950	0.0166119
818.029	0.0165936
818.107	0.0165019
818.185	0.0166655
818.263	0.0165389
818.341	0.0165612
818.419	0.0165039
818.497	0.0165021
818.575	0.0165393
818.654	0.0164277
818.732	0.0165234
818.810	0.0167248
818.888	0.0165099
818.966	0.0165294
819.044	0.0166105
819.122	0.0166606
819.200	0.0166658
819.279	0.0165536
819.357	0.0163739
819.435	0.0165205
819.513	0.0164108
819.591	0.0163982
819.669	0.0165781
819.747	0.0164989
819.825	0.0164343
819.904	0.0165831
819.982	0.0165928
820.060	0.0165212
820.138	0.0165418
820.216	0.0164319
820.294	0.0165757
820.372	0.0166142
820.450	0.0166782
820.529	0.0166051
820.607	0.0166035
820.685	0.0166348
820.763	0.0167039
820.841	0.0166732
820.919	0.0166269
820.997	0.0166504
821.075	0.0165929
821.154	0.0166742
821.232	0.0168140
821.310	0.0167567
821.388	0.0166971
821.466	0.0165529
821.544	0.0168057
821.622	0.0166995
821.700	0.0166932
821.779	0.0167500
821.857	0.0168039
821.935	0.0167630
822.013	0.0167496
822.091	0.0168684
822.169	0.0168126
822.247	0.0165965
822.325	0.0167218
822.404	0.0168451
822.482	0.0166991
822.560	0.0167346
822.638	0.0167723
822.716	0.0167972
822.794	0.0167635
822.872	0.0166223
822.950	0.0166276
823.029	0.0166768
823.107	0.0165189
823.185	0.0165990
823.263	0.0165114
823.341	0.0164977
823.419	0.0165197
823.497	0.0163739
823.575	0.0163343
823.654	0.0165553
823.732	0.0165852
823.810	0.0164297
823.888	0.0165679
823.966	0.0166033
824.044	0.0166357
824.122	0.0165393
824.200	0.0166321
824.279	0.0167117
824.357	0.0166235
824.435	0.0166683
824.513	0.0167596
824.591	0.0168679
824.669	0.0167031
824.747	0.0166863
824.825	0.0167646
824.904	0.0166947
824.982	0.0166406
825.060	0.0167768
825.138	0.0166879
825.216	0.0167757
825.294	0.0166538
825.372	0.0167460
825.450	0.0167164
825.529	0.0166371
825.607	0.0164304
825.685	0.0164310
825.763	0.0166679
825.841	0.0166591
825.919	0.0167073
825.997	0.0166497
826.075	0.0164162
826.154	0.0165106
826.232	0.0166217
826.310	0.0166270
826.388	0.0165689
826.466	0.0165416
826.544	0.0165475
826.622	0.0165531
826.700	0.0165543
826.779	0.0165823
826.857	0.0165163
826.935	0.0165235
827.013	0.0166302
827.091	0.0166864
827.169	0.0165595
827.247	0.0164855
827.325	0.0165830
827.404	0.0165248
827.482	0.0162844
827.560	0.0165569
827.638	0.0164594
827.716	0.0165073
827.794	0.0165232
827.872	0.0164401
827.950	0.0163020
828.029	0.0163639
828.107	0.0164433
828.185	0.0164725
828.263	0.0164408
828.341	0.0163911
828.419	0.0164493
828.497	0.0165397
828.575	0.0164610
828.654	0.0164328
828.732	0.0165899
828.810	0.0165214
828.888	0.0166383
828.966	0.0164600
829.044	0.0165507
829.122	0.0166769
829.200	0.0166170
829.279	0.0165400
829.357	0.0167795
829.435	0.0166091
829.513	0.0165834
829.591	0.0167169
829.669	0.0165713
829.747	0.0164574
829.825	0.0165495
829.904	0.0165617
829.982	0.0165695
830.060	0.0166389
830.138	0.0167608
830.216	0.0165837
830.294	0.0163923
830.372	0.0165910
830.450	0.0164956
830.529	0.0164363
830.607	0.0164957
830.685	0.0165263
830.763	0.0163383
830.841	0.0163494
830.919	0.0164678
830.997	0.0163633
831.075	0.0163937
831.154	0.0163332
831.232	0.0164437
831.310	0.0164115
831.388	0.0164024
831.466	0.0164623
831.544	0.0164327
831.622	0.0165060
831.700	0.0165495
831.779	0.0165490
831.857	0.0165702
831.935	0.0165177
832.013	0.0164688
832.091	0.0165541
832.169	0.0166409
832.247	0.0165527
832.325	0.0166800
832.404	0.0166125
832.482	0.0166438
832.560	0.0166007
832.638	0.0165384
832.716	0.0164780
832.794	0.0165344
832.872	0.0165569
832.950	0.0166109
833.029	0.0165123
833.107	0.0165289
833.185	0.0166341
833.263	0.0165237
833.341	0.0165714
833.419	0.0166104
833.497	0.0162994
833.575	0.0165698
833.654	0.0164627
833.732	0.0164311
833.810	0.0163822
833.888	0.0164619
833.966	0.0164318
834.044	0.0162537
834.122	0.0164596
834.200	0.0162565
834.279	0.0163764
834.357	0.0164572
834.435	0.0162248
834.513	0.0163057
834.591	0.0163616
834.669	0.0163960
834.747	0.0164875
834.825	0.0164077
834.904	0.0162860
834.982	0.0162427
835.060	0.0163638
835.138	0.0162762
835.216	0.0161927
835.294	0.0162785
835.372	0.0164377
835.450	0.0164117
835.529	0.0164252
835.607	0.0162767
835.685	0.0164048
835.763	0.0164720
835.841	0.0164087
835.919	0.0163290
835.997	0.0164359
836.075	0.0165224
836.154	0.0165825
836.232	0.0164179
836.310	0.0164821
836.388	0.0165044
836.466	0.0163633
836.544	0.0164456
836.622	0.0165627
836.700	0.0165465
836.779	0.0164926
836.857	0.0165764
836.935	0.0167370
837.013	0.0166187
837.091	0.0165677
837.169	0.0166694
837.247	0.0165773
837.325	0.0165909
837.404	0.0166422
837.482	0.0166560
837.560	0.0166579
837.638	0.0166643
837.716	0.0166190
837.794	0.0166004
837.872	0.0166601
837.950	0.0166618
838.029	0.0166526
838.107	0.0165605
838.185	0.0164771
838.263	0.0164262
838.341	0.0164244
838.419	0.0164142
838.497	0.0163804
838.575	0.0164217
838.654	0.0163104
838.732	0.0164635
838.810	0.0163309
838.888	0.0163168
838.966	0.0164205
839.044	0.0163960
839.122	0.0164701
839.200	0.0165585
839.279	0.0164642
839.357	0.0164637
839.435	0.0165712
839.513	0.0166233
839.591	0.0165081
839.669	0.0164290
839.747	0.0166167
839.825	0.0165551
839.904	0.0165576
839.982	0.0165044
840.060	0.0166042
840.138	0.0166838
840.216	0.0166537
840.294	0.0166199
840.372	0.0166502
840.450	0.0165289
840.529	0.0165165
840.607	0.0166114
840.685	0.0167393
840.763	0.0165134
840.841	0.0165504
840.919	0.0166112
840.997	0.0165288
841.075	0.0163992
841.154	0.0164553
841.232	0.0165484
841.310	0.0165765
841.388	0.0165643
841.466	0.0164205
841.544	0.0164058
841.622	0.0165114
841.700	0.0164967
841.779	0.0163177
841.857	0.0163615
841.935	0.0164106
842.013	0.0163908
842.091	0.0165725
842.169	0.0163666
842.247	0.0163802
842.325	0.0163641
842.404	0.0164594
842.482	0.0164439
842.560	0.0164015
842.638	0.0164957
842.716	0.0164445
842.794	0.0165141
842.872	0.0163945
842.950	0.0164568
843.029	0.0165818
843.107	0.0164787
843.185	0.0165694
843.263	0.0166359
843.341	0.0166448
843.419	0.0165988
843.497	0.0166367
843.575	0.0166558
843.654	0.0166850
843.732	0.0167606
843.810	0.0167554
843.888	0.0166663
843.966	0.0166932
844.044	0.0165982
844.122	0.0166463
844.200	0.0166019
844.279	0.0165269
844.357	0.0167527
844.435	0.0165365
844.513	0.0166504
844.591	0.0165714
844.669	0.0164629
844.747	0.0165749
844.825	0.0165948
844.904	0.0165845
844.982	0.0165953
845.060	0.0166355
845.138	0.0166796
845.216	0.0166328
845.294	0.0165633
845.372	0.0164638
845.450	0.0164332
845.529	0.0166265
845.607	0.0165247
845.685	0.0166084
845.763	0.0164605
845.841	0.0165187
845.919	0.0165077
845.997	0.0164030
846.075	0.0164072
846.154	0.0163786
846.232	0.0163686
846.310	0.0164954
846.388	0.0164539
846.466	0.0164587
846.544	0.0162945
846.622	0.0164828
846.700	0.0164819
846.779	0.0165879
846.857	0.0166420
846.935	0.0164782
847.013	0.0165385
847.091	0.0165365
847.169	0.0166051
847.247	0.0166454
847.325	0.0166010
847.404	0.0167131
847.482	0.0166616
847.560	0.0167279
847.638	0.0166077
847.716	0.0168034
847.794	0.0166999
847.872	0.0168086
847.950	0.0166745
848.029	0.0168611
848.107	0.0167551
848.185	0.0166991
848.263	0.0168117
848.341	0.0166969
848.419	0.0167332
848.497	0.0168459
848.575	0.0166677
848.654	0.0167471
848.732	0.0166479
848.810	0.0166912
848.888	0.0167992
848.966	0.0167417
849.044	0.0165584
849.122	0.0167442
849.200	0.0167294
849.279	0.0167616
849.357	0.0167324
849.435	0.0165484
849.513	0.0165061
849.591	0.0165250
849.669	0.0165320
849.747	0.0165643
849.825	0.0166337
849.904	0.0164505
849.982	0.0165073
850.060	0.0164465
850.138	0.0165101
850.216	0.0164983
850.294	0.0165723
850.372	0.0165427
850.450	0.0164986
850.529	0.0165954
850.607	0.0164348
850.685	0.0165959
850.763	0.0165152
850.841	0.0165880
850.919	0.0164640
850.997	0.0165080
851.075	0.0165624
851.154	0.0164896
851.232	0.0164096
851.310	0.0163957
851.388	0.0164814
851.466	0.0165491
851.544	0.0165716
851.622	0.0164825
851.700	0.0164712
851.779	0.0165986
851.857	0.0164613
851.935	0.0165991
852.013	0.0164751
852.091	0.0164880
852.169	0.0165493
852.247	0.0165228
852.325	0.0165633
852.404	0.0166959
852.482	0.0165287
852.560	0.0165305
852.638	0.0165768
852.716	0.0166438
852.794	0.0165617
852.872	0.0165093
852.950	0.0166133
853.029	0.0167196
853.107	0.0166073
853.185	0.0166354
853.263	0.0165570
853.341	0.0165716
853.419	0.0165453
853.497	0.0166088
853.575	0.0165845
853.654	0.0167093
853.732	0.0165337
853.810	0.0164635
853.888	0.0166239
853.966	0.0165389
854.044	0.0164514
854.122	0.0166053
854.200	0.0166958
854.279	0.0166009
854.357	0.0165936
854.435	0.0166074
854.513	0.0165522
854.591	0.0165691
854.669	0.0163002
854.747	0.0163953
854.825	0.0165200
854.904	0.0164439
854.982	0.0164861
855.060	0.0164471
855.138	0.0165001
855.216	0.0164547
855.294	0.0164906
855.372	0.0164510
855.450	0.0164333
855.529	0.0165411
855.607	0.0163042
855.685	0.0165922
855.763	0.0164694
855.841	0.0165095
855.919	0.0164929
855.997	0.0165242
856.075	0.0166060
856.154	0.0164919
856.232	0.0165599
856.310	0.0166398
856.388	0.0164874
856.466	0.0165760
856.544	0.0165430
856.622	0.0165060
856.700	0.0164260
856.779	0.0163894
856.857	0.0165032
856.935	0.0165534
857.013	0.0163582
857.091	0.0164771
857.169	0.0165428
857.247	0.0165383
857.325	0.0164531
857.404	0.0165164
857.482	0.0165176
857.560	0.0164787
857.638	0.0164743
857.716	0.0163046
857.794	0.0163734
857.872	0.0165308
857.950	0.0163542
858.029	0.0163518
858.107	0.0164452
858.185	0.0164677
858.263	0.0164640
858.341	0.0164559
858.419	0.0164211
858.497	0.0164611
858.575	0.0165217
858.654	0.0164448
858.732	0.0165251
858.810	0.0161877
858.888	0.0165712
858.966	0.0164957
859.044	0.0164626
859.122	0.0166468
859.200	0.0164847
859.279	0.0163914
859.357	0.0165808
859.435	0.0166400
859.513	0.0167161
859.591	0.0166039
859.669	0.0166972
859.747	0.0166161
859.825	0.0165820
859.904	0.0166798
859.982	0.0166550
860.060	0.0166530
860.138	0.0163994
860.216	0.0165681
860.294	0.0165546
860.372	0.0167159
860.450	0.0167326
860.529	0.0166291
860.607	0.0167107
860.685	0.0165704
860.763	0.0165609
860.841	0.0167072
860.919	0.0167660
860.997	0.0168180
861.075	0.0165742
861.154	0.0164829
861.232	0.0166483
861.310	0.0166103
861.388	0.0167881
861.466	0.0166512
861.544	0.0165505
861.622	0.0166399
861.700	0.0165981
861.779	0.0165779
861.857	0.0166713
861.935	0.0164104
862.013	0.0165618
862.091	0.0165319
862.169	0.0164785
862.247	0.0165665
862.325	0.0164734
862.404	0.0163940
862.482	0.0164748
862.560	0.0164687
862.638	0.0164146
862.716	0.0163850
862.794	0.0164482
862.872	0.0163914
862.950	0.0164072
863.029	0.0164138
863.107	0.0164530
863.185	0.0165149
863.263	0.0164503
863.341	0.0163928
863.419	0.0163404
863.497	0.0164074
863.575	0.0164581
863.654	0.0163911
863.732	0.0164980
863.810	0.0165132
863.888	0.0165207
863.966	0.0165489
864.044	0.0164910
864.122	0.0165874
864.200	0.0165514
864.279	0.0165398
864.357	0.0166020
864.435	0.0165056
864.513	0.0166074
864.591	0.0164758
864.669	0.0165669
864.747	0.0166566
864.825	0.0164336
864.904	0.0165205
864.982	0.0167130
865.060	0.0165724
865.138	0.0165375
865.216	0.0164583
865.294	0.0164806
865.372	0.0166516
865.450	0.0165550
865.529	0.0165350
865.607	0.0166451
865.685	0.0166422
865.763	0.0164027
865.841	0.0164138
865.919	0.0165247
865.997	0.0164342
866.075	0.0165176
866.154	0.0164875
866.232	0.0164816
866.310	0.0164714
866.388	0.0164647
866.466	0.0166050
866.544	0.0164857
866.622	0.0164749
866.700	0.0165002
866.779	0.0165210
866.857	0.0167126
866.935	0.0166028
867.013	0.0164524
867.091	0.0164325
867.169	0.0166316
867.247	0.0166927
867.325	0.0165778
867.404	0.0165785
867.482	0.0165029
867.560	0.0166939
867.638	0.0165794
867.716	0.0166218
867.794	0.0167114
867.872	0.0166129
867.950	0.0165736
868.029	0.0166550
868.107	0.0165166
868.185	0.0167860
868.263	0.0167577
868.341	0.0166285
868.419	0.0165816
868.497	0.0167423
868.575	0.0165785
868.654	0.0166151
868.732	0.0165836
868.810	0.0166698
868.888	0.0165680
868.966	0.0166689
869.044	0.0167332
869.122	0.0165838
869.200	0.0167369
869.279	0.0164106
869.357	0.0164917
869.435	0.0165762
869.513	0.0166451
869.591	0.0165852
869.669	0.0165309
869.747	0.0165309
869.825	0.0164470
869.904	0.0165020
869.982	0.0165103
870.060	0.0164619
870.138	0.0166562
870.216	0.0164375
870.294	0.0163769
870.372	0.0164034
870.450	0.0165083
870.529	0.0164532
870.607	0.0165143
870.685	0.0164651
870.763	0.0164484
870.841	0.0163039
870.919	0.0164808
870.997	0.0163992
871.075	0.0164301
871.154	0.0163731
871.232	0.0163798
871.310	0.0164046
871.388	0.0164637
871.466	0.0162845
871.544	0.0164744
871.622	0.0166242
871.700	0.0163297
871.779	0.0163464
871.857	0.0164928
871.935	0.0166344
872.013	0.0164621
872.091	0.0165025
872.169	0.0165620
872.247	0.0166359
872.325	0.0165777
872.404	0.0165203
872.482	0.0167564
872.560	0.0166349
872.638	0.0166048
872.716	0.0164494
872.794	0.0165001
872.872	0.0166676
872.950	0.0165577
873.029	0.0166047
873.107	0.0165815
873.185	0.0165692
873.263	0.0165545
873.341	0.0164596
873.419	0.0165211
873.497	0.0165821
873.575	0.0166497
873.654	0.0165997
873.732	0.0166255
873.810	0.0164880
873.888	0.0165692
873.966	0.0165806
874.044	0.0166010
874.122	0.0165801
874.200	0.0167217
874.279	0.0166453
874.357	0.0166262
874.435	0.0166458
874.513	0.0166203
874.591	0.0165913
874.669	0.0166307
874.747	0.0165195
874.825	0.0166094
874.904	0.0167159
874.982	0.0165967
875.060	0.0165955
875.138	0.0166562
875.216	0.0166204
875.294	0.0166871
875.372	0.0167075
875.450	0.0166792
875.529	0.0167465
875.607	0.0167502
875.685	0.0166577
875.763	0.0167400
875.841	0.0166884
875.919	0.0167664
875.997	0.0168026
876.075	0.0165967
876.154	0.0166192
876.232	0.0166534
876.310	0.0167844
876.388	0.0167095
876.466	0.0166534
876.544	0.0166588
876.622	0.0166577
876.700	0.0167774
876.779	0.0165800
876.857	0.0166118
876.935	0.0166298
877.013	0.0165397
877.091	0.0166585
877.169	0.0166105
877.247	0.0166302
877.325	0.0166558
877.404	0.0166459
877.482	0.0167558
877.560	0.0166938
877.638	0.0166904
877.716	0.0167229
877.794	0.0165963
877.872	0.0165825
877.950	0.0167416
878.029	0.0167356
878.107	0.0167078
878.185	0.0165647
878.263	0.0166360
878.341	0.0168058
878.419	0.0166019
878.497	0.0166946
878.575	0.0166436
878.654	0.0166654
878.732	0.0168467
878.810	0.0165450
878.888	0.0165260
878.966	0.0164375
879.044	0.0164860
879.122	0.0165659
879.200	0.0165313
879.279	0.0166055
879.357	0.0165050
879.435	0.0163780
879.513	0.0165830
879.591	0.0164592
879.669	0.0164823
879.747	0.0164926
879.825	0.0164977
879.904	0.0165967
879.982	0.0166086
880.060	0.0165278
880.138	0.0165749
880.216	0.0165449
880.294	0.0164881
880.372	0.0166959
880.450	0.0166373
880.529	0.0165494
880.607	0.0165959
880.685	0.0165592
880.763	0.0165450
880.841	0.0166394
880.919	0.0166315
880.997	0.0165929
881.075	0.0164424
881.154	0.0166447
881.232	0.0165906
881.310	0.0167657
881.388	0.0165137
881.466	0.0165476
881.544	0.0165887
881.622	0.0165950
881.700	0.0165759
881.779	0.0165538
881.857	0.0166068
881.935	0.0165343
882.013	0.0166278
882.091	0.0166517
882.169	0.0166387
882.247	0.0164728
882.325	0.0165328
882.404	0.0165508
882.482	0.0165708
882.560	0.0165950
882.638	0.0166850
882.716	0.0166362
882.794	0.0165215
882.872	0.0165811
882.950	0.0166924
883.029	0.0166208
883.107	0.0166112
883.185	0.0166439
883.263	0.0165688
883.341	0.0165476
883.419	0.0166225
883.497	0.0165534
883.575	0.0165960
883.654	0.0165276
883.732	0.0166764
883.810	0.0166735
883.888	0.0164143
883.966	0.0166323
884.044	0.0166438
884.122	0.0166182
884.200	0.0165838
884.279	0.0164320
884.357	0.0163921
884.435	0.0163190
884.513	0.0164680
884.591	0.0164973
884.669	0.0165681
884.747	0.0164986
884.825	0.0164386
884.904	0.0165305
884.982	0.0163921
885.060	0.0164857
885.138	0.0165184
885.216	0.0164607
885.294	0.0165405
885.372	0.0166707
885.450	0.0165059
885.529	0.0165868
885.607	0.0164761
885.685	0.0164822
885.763	0.0164651
885.841	0.0165213
885.919	0.0165519
885.997	0.0165658
886.075	0.0164690
886.154	0.0165791
886.232	0.0165191
886.310	0.0166347
886.388	0.0165912
886.466	0.0164973
886.544	0.0165939
886.622	0.0166092
886.700	0.0164816
886.779	0.0163731
886.857	0.0164590
886.935	0.0165289
887.013	0.0164673
887.091	0.0165214
887.169	0.0164665
887.247	0.0165322
887.325	0.0165851
887.404	0.0166980
887.482	0.0165981
887.560	0.0166602
887.638	0.0166288
887.716	0.0166569
887.794	0.0166698
887.872	0.0166827
887.950	0.0166540
888.029	0.0166619
888.107	0.0166618
888.185	0.0165533
888.263	0.0167097
888.341	0.0166920
888.419	0.0166642
888.497	0.0165382
888.575	0.0166029
888.654	0.0165778
888.732	0.0165874
888.810	0.0164936
888.888	0.0165327
888.966	0.0164885
889.044	0.0165515
889.122	0.0164921
889.200	0.0164352
889.279	0.0164827
889.357	0.0164097
889.435	0.0165065
889.513	0.0166277
889.591	0.0165636
889.669	0.0165722
889.747	0.0165709
889.825	0.0165765
889.904	0.0165056
889.982	0.0164617
890.060	0.0165299
890.138	0.0165298
890.216	0.0165959
890.294	0.0165646
890.372	0.0165366
890.450	0.0165668
890.529	0.0165604
890.607	0.0165627
890.685	0.0165118
890.763	0.0164827
890.841	0.0164914
890.919	0.0165592
890.997	0.0165034
891.075	0.0164275
891.154	0.0166515
891.232	0.0166496
891.310	0.0166023
891.388	0.0164535
891.466	0.0166592
891.544	0.0164211
891.622	0.0164912
891.700	0.0164792
891.779	0.0165569
891.857	0.0165040
891.935	0.0164665
892.013	0.0165688
892.091	0.0165514
892.169	0.0166440
892.247	0.0166333
892.325	0.0165610
892.404	0.0165805
892.482	0.0165168
892.560	0.0167328
892.638	0.0166717
892.716	0.0166666
892.794	0.0166605
892.872	0.0165514
892.950	0.0168152
893.029	0.0166553
893.107	0.0166644
893.185	0.0165903
893.263	0.0167217
893.341	0.0166927
893.419	0.0165415
893.497	0.0166975
893.575	0.0166000
893.654	0.0166821
893.732	0.0165836
893.810	0.0165632
893.888	0.0166691
893.966	0.0165771
894.044	0.0166026
894.122	0.0166351
894.200	0.0165587
894.279	0.0166376
894.357	0.0164966
894.435	0.0164740
894.513	0.0165855
894.591	0.0163097
894.669	0.0163747
894.747	0.0165778
894.825	0.0164576
894.904	0.0163065
894.982	0.0165380
895.060	0.0166066
895.138	0.0165009
895.216	0.0163795
895.294	0.0165868
895.372	0.0165363
895.450	0.0164368
895.529	0.0164082
895.607	0.0164309
895.685	0.0163978
895.763	0.0163643
895.841	0.0164165
895.919	0.0165263
895.997	0.0164146
896.075	0.0166089
896.154	0.0166043
896.232	0.0166158
896.310	0.0166003
896.388	0.0165931
896.466	0.0166912
896.544	0.0165702
896.622	0.0166614
896.700	0.0165717
896.779	0.0165305
896.857	0.0167403
896.935	0.0165609
897.013	0.0166099
897.091	0.0166602
897.169	0.0166540
897.247	0.0166024
897.325	0.0166253
897.404	0.0167548
897.482	0.0167154
897.560	0.0166877
897.638	0.0166354
897.716	0.0166311
897.794	0.0165470
897.872	0.0166151
897.950	0.0165719
898.029	0.0165921
898.107	0.0166060
898.185	0.0166425
898.263	0.0165730
898.341	0.0166045
898.419	0.0166090
898.497	0.0165878
898.575	0.0165748
898.654	0.0165160
898.732	0.0165973
898.810	0.0165241
898.888	0.0165459
898.966	0.0165195
899.044	0.0164780
899.122	0.0165733
899.200	0.0167133
899.279	0.0165479
899.357	0.0166061
899.435	0.0165927
899.513	0.0165375
899.591	0.0166460
899.669	0.0167209
899.747	0.0166029
899.825	0.0166582
899.904	0.0166788
899.982	0.0165944
900.060	0.0166424
900.138	0.0166193
900.216	0.0166129
900.294	0.0165823
900.372	0.0166765
900.450	0.0165762
900.529	0.0166066
900.607	0.0167378
900.685	0.0166058
900.763	0.0166306
900.841	0.0165950
900.919	0.0165746
900.997	0.0166867
901.075	0.0166033
901.154	0.0166727
901.232	0.0166196
901.310	0.0166864
901.388	0.0166267
901.466	0.0166447
901.544	0.0165877
901.622	0.0166653
901.700	0.0167229
901.779	0.0166667
901.857	0.0167139
901.935	0.0167039
902.013	0.0164870
902.091	0.0165626
902.169	0.0166635
902.247	0.0165620
902.325	0.0167406
902.404	0.0166100
902.482	0.0165377
902.560	0.0166070
902.638	0.0166693
902.716	0.0166031
902.794	0.0165515
902.872	0.0164720
902.950	0.0165282
903.029	0.0165594
903.107	0.0164885
903.185	0.0164694
903.263	0.0164633
903.341	0.0164324
903.419	0.0163171
903.497	0.0163911
903.575	0.0164084
903.654	0.0164634
903.732	0.0166100
903.810	0.0164382
903.888	0.0164149
903.966	0.0165004
904.044	0.0164674
904.122	0.0164027
904.200	0.0165072
904.279	0.0165084
904.357	0.0165223
904.435	0.0164648
904.513	0.0164414
904.591	0.0164919
904.669	0.0163461
904.747	0.0164110
904.825	0.0163911
904.904	0.0163486
904.982	0.0166231
905.060	0.0164691
905.138	0.0163422
905.216	0.0165118
905.294	0.0164918
905.372	0.0163953
905.450	0.0164638
905.529	0.0163930
905.607	0.0164366
905.685	0.0163420
905.763	0.0163523
905.841	0.0163171
905.919	0.0163716
905.997	0.0162749
906.075	0.0163664
906.154	0.0163906
906.232	0.0164885
906.310	0.0163850
906.388	0.0163861
906.466	0.0164584
906.544	0.0165588
906.622	0.0164872
906.700	0.0163471
906.779	0.0164056
906.857	0.0165110
906.935	0.0164204
907.013	0.0164538
907.091	0.0165019
907.169	0.0166065
907.247	0.0164548
907.325	0.0162605
907.404	0.0163972
907.482	0.0164931
907.560	0.0165136
907.638	0.0164446
907.716	0.0163805
907.794	0.0164473
907.872	0.0165795
907.950	0.0165007
908.029	0.0164625
908.107	0.0165601
908.185	0.0165222
908.263	0.0164174
908.341	0.0163190
908.419	0.0163731
908.497	0.0164397
908.575	0.0164182
908.654	0.0163330
908.732	0.0164521
908.810	0.0164118
908.888	0.0165302
908.966	0.0164674
909.044	0.0164592
909.122	0.0165917
909.200	0.0165457
909.279	0.0163572
909.357	0.0164755
909.435	0.0165640
909.513	0.0163985
909.591	0.0163360
909.669	0.0165143
909.747	0.0165311
909.825	0.0164909
909.904	0.0163966
909.982	0.0163890
910.060	0.0165704
910.138	0.0162806
910.216	0.0164208
910.294	0.0163927
910.372	0.0164951
910.450	0.0163840
910.529	0.0163090
910.607	0.0162863
910.685	0.0164285
910.763	0.0162846
910.841	0.0163007
910.919	0.0165379
910.997	0.0163319
911.075	0.0164394
911.154	0.0164144
911.232	0.0163533
911.310	0.0163972
911.388	0.0165546
911.466	0.0165347
911.544	0.0163916
911.622	0.0164610
911.700	0.0165533
911.779	0.0164801
911.857	0.0165824
911.935	0.0165887
912.013	0.0164676
912.091	0.0165367
912.169	0.0165365
912.247	0.0166205
912.325	0.0163152
912.404	0.0163371
912.482	0.0164907
912.560	0.0166492
912.638	0.0164061
912.716	0.0164616
912.794	0.0163302
912.872	0.0164862
912.950	0.0164671
913.029	0.0164925
913.107	0.0165528
913.185	0.0164253
913.263	0.0164289
913.341	0.0165714
913.419	0.0165990
913.497	0.0165298
913.575	0.0165885
913.654	0.0165071
913.732	0.0166245
913.810	0.0166135
913.888	0.0167561
913.966	0.0165710
914.044	0.0166793
914.122	0.0166072
914.200	0.0166049
914.279	0.0165938
914.357	0.0166476
914.435	0.0165851
914.513	0.0166711
914.591	0.0165763
914.669	0.0165638
914.747	0.0165954
914.825	0.0166569
914.904	0.0166233
914.982	0.0165175
915.060	0.0166000
915.138	0.0165948
915.216	0.0165682
915.294	0.0165598
915.372	0.0165050
915.450	0.0164813
915.529	0.0164458
915.607	0.0164820
915.685	0.0166951
915.763	0.0165356
915.841	0.0165321
915.919	0.0166235
915.997	0.0166142
916.075	0.0166902
916.154	0.0165649
916.232	0.0165404
916.310	0.0167039
916.388	0.0167558
916.466	0.0166857
916.544	0.0164495
916.622	0.0166564
916.700	0.0166763
916.779	0.0166190
916.857	0.0167030
916.935	0.0166454
917.013	0.0167360
917.091	0.0167305
917.169	0.0167007
917.247	0.0165413
917.325	0.0166566
917.404	0.0166550
917.482	0.0166122
917.560	0.0165670
917.638	0.0165570
917.716	0.0167737
917.794	0.0166380
917.872	0.0165352
917.950	0.0165515
918.029	0.0164931
918.107	0.0164175
918.185	0.0164339
918.263	0.0165218
918.341	0.0165108
918.419	0.0165454
918.497	0.0166115
918.575	0.0165505
918.654	0.0164953
918.732	0.0164117
918.810	0.0163693
918.888	0.0164071
918.966	0.0164108
919.044	0.0164972
919.122	0.0165130
919.200	0.0165424
919.279	0.0164204
919.357	0.0165765
919.435	0.0166816
919.513	0.0165172
919.591	0.0165243
919.669	0.0165370
919.747	0.0164689
919.825	0.0164786
919.904	0.0165294
