06/03/2022	13:53:54	Ver.	4.1	UNKNOWN
Optical Delay	599.988409	Delta X		0.078125	Sweeps	1	Scan Rate	0/0
Coordinates	Axis 1	NaN	Axis 2	NaN	Axis 3	NaN	Axis 4	NaN	Axis 5	NaN	Axis 6	0.000000
TX Power	0.000000	RX Power	0.000000

599.988	0.0169126
600.067	0.0168686
600.145	0.0169936
600.223	0.0169133
600.301	0.0168655
600.379	0.0169474
600.457	0.0169970
600.535	0.0169066
600.613	0.0168547
600.692	0.0169597
600.770	0.0169660
600.848	0.0171097
600.926	0.0169695
601.004	0.0169263
601.082	0.0169685
601.160	0.0169703
601.238	0.0169716
601.317	0.0169764
601.395	0.0170273
601.473	0.0169234
601.551	0.0169246
601.629	0.0169958
601.707	0.0170464
601.785	0.0168034
601.863	0.0170483
601.942	0.0170065
602.020	0.0168990
602.098	0.0169656
602.176	0.0169544
602.254	0.0168446
602.332	0.0168291
602.410	0.0168637
602.488	0.0169036
602.567	0.0169695
602.645	0.0169197
602.723	0.0168358
602.801	0.0168372
602.879	0.0169389
602.957	0.0169823
603.035	0.0169834
603.113	0.0168245
603.192	0.0168384
603.270	0.0168412
603.348	0.0167970
603.426	0.0168687
603.504	0.0169049
603.582	0.0168189
603.660	0.0168697
603.738	0.0169522
603.817	0.0169885
603.895	0.0169796
603.973	0.0167935
604.051	0.0169928
604.129	0.0169492
604.207	0.0169413
604.285	0.0168866
604.363	0.0169157
604.442	0.0168858
604.520	0.0169901
604.598	0.0169642
604.676	0.0167690
604.754	0.0167565
604.832	0.0169353
604.910	0.0169514
604.988	0.0169215
605.067	0.0169078
605.145	0.0168977
605.223	0.0170514
605.301	0.0168684
605.379	0.0168416
605.457	0.0169174
605.535	0.0169871
605.613	0.0168964
605.692	0.0169572
605.770	0.0168972
605.848	0.0168336
605.926	0.0168893
606.004	0.0169584
606.082	0.0168856
606.160	0.0169531
606.238	0.0171500
606.317	0.0169238
606.395	0.0168895
606.473	0.0169891
606.551	0.0169643
606.629	0.0169727
606.707	0.0168937
606.785	0.0169801
606.863	0.0169441
606.942	0.0170399
607.020	0.0169509
607.098	0.0168706
607.176	0.0168583
607.254	0.0168120
607.332	0.0169344
607.410	0.0169989
607.488	0.0170908
607.567	0.0170845
607.645	0.0170179
607.723	0.0168877
607.801	0.0168643
607.879	0.0169349
607.957	0.0168709
608.035	0.0167883
608.113	0.0169331
608.192	0.0169659
608.270	0.0170570
608.348	0.0167835
608.426	0.0168825
608.504	0.0167539
608.582	0.0168189
608.660	0.0169685
608.738	0.0169315
608.817	0.0169089
608.895	0.0170197
608.973	0.0168987
609.051	0.0167921
609.129	0.0169952
609.207	0.0169019
609.285	0.0169589
609.363	0.0169746
609.442	0.0168989
609.520	0.0169508
609.598	0.0169734
609.676	0.0169281
609.754	0.0169556
609.832	0.0170461
609.910	0.0170393
609.988	0.0167861
610.067	0.0168945
610.145	0.0169196
610.223	0.0170145
610.301	0.0169351
610.379	0.0168913
610.457	0.0169183
610.535	0.0169836
610.613	0.0168391
610.692	0.0169216
610.770	0.0168922
610.848	0.0168456
610.926	0.0168438
611.004	0.0168902
611.082	0.0169079
611.160	0.0169077
611.238	0.0168611
611.317	0.0168864
611.395	0.0168500
611.473	0.0168378
611.551	0.0168919
611.629	0.0169343
611.707	0.0170226
611.785	0.0168800
611.863	0.0168787
611.942	0.0170232
612.020	0.0169011
612.098	0.0168662
612.176	0.0167853
612.254	0.0170276
612.332	0.0169360
612.410	0.0169278
612.488	0.0168879
612.567	0.0168933
612.645	0.0167717
612.723	0.0168636
612.801	0.0167970
612.879	0.0169055
612.957	0.0169380
613.035	0.0171040
613.113	0.0171028
613.192	0.0167789
613.270	0.0168701
613.348	0.0170637
613.426	0.0169547
613.504	0.0167762
613.582	0.0170053
613.660	0.0169529
613.738	0.0168980
613.817	0.0168886
613.895	0.0169067
613.973	0.0168452
614.051	0.0170016
614.129	0.0169061
614.207	0.0168999
614.285	0.0168139
614.363	0.0168185
614.442	0.0168874
614.520	0.0169479
614.598	0.0169241
614.676	0.0166944
614.754	0.0170408
614.832	0.0169493
614.910	0.0169455
614.988	0.0169385
615.067	0.0168839
615.145	0.0170052
615.223	0.0168359
615.301	0.0168204
615.379	0.0169487
615.457	0.0169096
615.535	0.0169180
615.613	0.0168797
615.692	0.0169553
615.770	0.0169885
615.848	0.0169616
615.926	0.0169946
616.004	0.0168888
616.082	0.0168333
616.160	0.0170004
616.238	0.0170412
616.317	0.0169424
616.395	0.0168948
616.473	0.0169147
616.551	0.0169633
616.629	0.0168395
616.707	0.0169112
616.785	0.0169215
616.863	0.0170113
616.942	0.0168554
617.020	0.0170162
617.098	0.0168870
617.176	0.0169263
617.254	0.0168892
617.332	0.0169682
617.410	0.0170131
617.488	0.0167952
617.567	0.0168204
617.645	0.0169919
617.723	0.0169797
617.801	0.0169151
617.879	0.0168124
617.957	0.0169774
618.035	0.0168856
618.113	0.0169470
618.192	0.0170302
618.270	0.0170482
618.348	0.0168828
618.426	0.0168925
618.504	0.0169104
618.582	0.0169594
618.660	0.0168382
618.738	0.0169323
618.817	0.0168780
618.895	0.0168204
618.973	0.0168936
619.051	0.0168655
619.129	0.0169672
619.207	0.0170869
619.285	0.0169337
619.363	0.0168273
619.442	0.0168948
619.520	0.0168559
619.598	0.0170985
619.676	0.0169877
619.754	0.0169724
619.832	0.0169096
619.910	0.0170443
619.988	0.0169252
620.067	0.0169049
620.145	0.0169438
620.223	0.0168804
620.301	0.0169551
620.379	0.0168642
620.457	0.0169552
620.535	0.0170533
620.613	0.0168890
620.692	0.0169179
620.770	0.0169483
620.848	0.0170633
620.926	0.0168803
621.004	0.0168863
621.082	0.0168644
621.160	0.0169349
621.238	0.0169038
621.317	0.0169855
621.395	0.0169534
621.473	0.0170383
621.551	0.0169950
621.629	0.0168507
621.707	0.0168554
621.785	0.0168948
621.863	0.0169517
621.942	0.0168891
622.020	0.0169044
622.098	0.0167013
622.176	0.0169689
622.254	0.0169289
622.332	0.0169338
622.410	0.0169740
622.488	0.0168855
622.567	0.0169169
622.645	0.0168420
622.723	0.0169196
622.801	0.0168009
622.879	0.0169636
622.957	0.0169153
623.035	0.0169015
623.113	0.0168438
623.192	0.0168651
623.270	0.0168762
623.348	0.0170253
623.426	0.0168870
623.504	0.0168607
623.582	0.0169144
623.660	0.0170232
623.738	0.0169354
623.817	0.0168858
623.895	0.0168874
623.973	0.0170429
624.051	0.0169260
624.129	0.0170499
624.207	0.0169110
624.285	0.0170687
624.363	0.0170200
624.442	0.0168577
624.520	0.0168606
624.598	0.0168821
624.676	0.0168797
624.754	0.0169460
624.832	0.0170571
624.910	0.0171090
624.988	0.0170066
625.067	0.0168424
625.145	0.0169376
625.223	0.0168509
625.301	0.0168752
625.379	0.0168984
625.457	0.0168629
625.535	0.0168150
625.613	0.0168631
625.692	0.0169002
625.770	0.0170222
625.848	0.0168710
625.926	0.0168359
626.004	0.0169330
626.082	0.0169766
626.160	0.0168714
626.238	0.0168937
626.317	0.0169011
626.395	0.0168575
626.473	0.0169784
626.551	0.0169870
626.629	0.0167747
626.707	0.0168609
626.785	0.0169421
626.863	0.0168581
626.942	0.0169406
627.020	0.0169098
627.098	0.0168822
627.176	0.0169065
627.254	0.0170234
627.332	0.0169484
627.410	0.0169263
627.488	0.0169136
627.567	0.0170126
627.645	0.0170123
627.723	0.0169069
627.801	0.0169585
627.879	0.0169403
627.957	0.0169360
628.035	0.0170181
628.113	0.0168603
628.192	0.0169413
628.270	0.0169278
628.348	0.0168983
628.426	0.0169444
628.504	0.0169669
628.582	0.0168690
628.660	0.0168584
628.738	0.0169394
628.817	0.0169394
628.895	0.0169975
628.973	0.0169418
629.051	0.0168952
629.129	0.0169964
629.207	0.0169833
629.285	0.0169975
629.363	0.0170245
629.442	0.0168961
629.520	0.0169979
629.598	0.0168607
629.676	0.0169604
629.754	0.0168480
629.832	0.0168709
629.910	0.0167290
629.988	0.0167583
630.067	0.0169073
630.145	0.0167953
630.223	0.0169504
630.301	0.0169506
630.379	0.0168656
630.457	0.0169446
630.535	0.0168618
630.613	0.0168481
630.692	0.0169154
630.770	0.0169532
630.848	0.0169377
630.926	0.0169711
631.004	0.0169768
631.082	0.0168080
631.160	0.0169033
631.238	0.0169566
631.317	0.0168092
631.395	0.0168944
631.473	0.0168793
631.551	0.0168887
631.629	0.0169797
631.707	0.0169051
631.785	0.0169345
631.863	0.0168845
631.942	0.0167902
632.020	0.0169213
632.098	0.0169116
632.176	0.0168807
632.254	0.0168964
632.332	0.0169826
632.410	0.0170056
632.488	0.0170156
632.567	0.0168925
632.645	0.0168115
632.723	0.0168407
632.801	0.0168815
632.879	0.0169301
632.957	0.0169489
633.035	0.0168211
633.113	0.0168159
633.192	0.0169148
633.270	0.0170528
633.348	0.0169957
633.426	0.0169856
633.504	0.0169485
633.582	0.0168446
633.660	0.0168874
633.738	0.0168566
633.817	0.0170345
633.895	0.0169554
633.973	0.0168505
634.051	0.0169692
634.129	0.0170236
634.207	0.0169097
634.285	0.0169111
634.363	0.0168388
634.442	0.0169875
634.520	0.0169580
634.598	0.0169270
634.676	0.0169601
634.754	0.0169782
634.832	0.0170593
634.910	0.0168813
634.988	0.0170512
635.067	0.0168728
635.145	0.0168607
635.223	0.0169595
635.301	0.0169972
635.379	0.0170258
635.457	0.0169382
635.535	0.0168140
635.613	0.0169238
635.692	0.0170074
635.770	0.0169170
635.848	0.0169582
635.926	0.0168898
636.004	0.0168445
636.082	0.0169029
636.160	0.0170230
636.238	0.0169077
636.317	0.0169109
636.395	0.0168481
636.473	0.0167965
636.551	0.0169868
636.629	0.0170004
636.707	0.0168541
636.785	0.0168523
636.863	0.0169012
636.942	0.0169617
637.020	0.0169272
637.098	0.0169322
637.176	0.0169711
637.254	0.0169241
637.332	0.0169482
637.410	0.0169678
637.488	0.0168424
637.567	0.0168982
637.645	0.0169767
637.723	0.0168777
637.801	0.0169050
637.879	0.0167550
637.957	0.0168131
638.035	0.0168977
638.113	0.0168707
638.192	0.0168431
638.270	0.0169613
638.348	0.0169483
638.426	0.0169665
638.504	0.0169537
638.582	0.0167385
638.660	0.0167878
638.738	0.0169017
638.817	0.0169853
638.895	0.0168045
638.973	0.0168609
639.051	0.0169545
639.129	0.0168808
639.207	0.0168589
639.285	0.0168421
639.363	0.0168053
639.442	0.0169737
639.520	0.0169975
639.598	0.0168839
639.676	0.0168909
639.754	0.0170063
639.832	0.0169354
639.910	0.0167940
639.988	0.0168877
640.067	0.0169601
640.145	0.0169294
640.223	0.0170509
640.301	0.0169370
640.379	0.0168797
640.457	0.0168570
640.535	0.0169264
640.613	0.0168536
640.692	0.0168140
640.770	0.0169191
640.848	0.0169117
640.926	0.0169630
641.004	0.0168179
641.082	0.0169549
641.160	0.0169502
641.238	0.0168717
641.317	0.0170409
641.395	0.0168845
641.473	0.0168536
641.551	0.0170158
641.629	0.0168392
641.707	0.0169282
641.785	0.0170086
641.863	0.0169176
641.942	0.0169076
642.020	0.0169144
642.098	0.0168599
642.176	0.0169894
642.254	0.0170600
642.332	0.0169500
642.410	0.0169324
642.488	0.0169221
642.567	0.0167519
642.645	0.0168143
642.723	0.0169444
642.801	0.0167914
642.879	0.0169642
642.957	0.0169797
643.035	0.0169448
643.113	0.0169534
643.192	0.0169214
643.270	0.0169404
643.348	0.0170219
643.426	0.0168223
643.504	0.0168851
643.582	0.0169723
643.660	0.0168787
643.738	0.0169393
643.817	0.0168265
643.895	0.0170317
643.973	0.0169938
644.051	0.0169415
644.129	0.0170005
644.207	0.0169695
644.285	0.0169975
644.363	0.0170522
644.442	0.0169098
644.520	0.0169223
644.598	0.0170152
644.676	0.0168349
644.754	0.0167686
644.832	0.0169985
644.910	0.0170289
644.988	0.0169809
645.067	0.0167593
645.145	0.0170091
645.223	0.0169275
645.301	0.0169097
645.379	0.0168976
645.457	0.0169953
645.535	0.0169309
645.613	0.0169353
645.692	0.0168752
645.770	0.0169492
645.848	0.0169962
645.926	0.0170808
646.004	0.0169717
646.082	0.0168450
646.160	0.0169814
646.238	0.0169979
646.317	0.0169638
646.395	0.0170298
646.473	0.0169917
646.551	0.0169798
646.629	0.0169858
646.707	0.0168577
646.785	0.0167828
646.863	0.0168711
646.942	0.0169189
647.020	0.0168519
647.098	0.0168358
647.176	0.0169427
647.254	0.0169943
647.332	0.0168951
647.410	0.0168991
647.488	0.0170159
647.567	0.0168655
647.645	0.0168687
647.723	0.0168819
647.801	0.0169179
647.879	0.0168717
647.957	0.0169259
648.035	0.0170527
648.113	0.0169501
648.192	0.0169267
648.270	0.0170455
648.348	0.0168690
648.426	0.0169133
648.504	0.0170141
648.582	0.0168652
648.660	0.0168935
648.738	0.0168873
648.817	0.0169123
648.895	0.0169502
648.973	0.0168398
649.051	0.0169025
649.129	0.0169394
649.207	0.0168956
649.285	0.0168867
649.363	0.0168303
649.442	0.0169151
649.520	0.0168546
649.598	0.0170249
649.676	0.0168362
649.754	0.0168488
649.832	0.0169489
649.910	0.0168379
649.988	0.0168027
650.067	0.0169332
650.145	0.0170107
650.223	0.0169254
650.301	0.0168846
650.379	0.0169236
650.457	0.0169457
650.535	0.0168725
650.613	0.0169222
650.692	0.0169385
650.770	0.0169910
650.848	0.0169929
650.926	0.0170643
651.004	0.0169235
651.082	0.0169484
651.160	0.0168304
651.238	0.0168153
651.317	0.0170076
651.395	0.0168878
651.473	0.0168536
651.551	0.0169151
651.629	0.0169749
651.707	0.0168999
651.785	0.0169880
651.863	0.0170053
651.942	0.0169973
652.020	0.0170870
652.098	0.0170332
652.176	0.0170200
652.254	0.0169960
652.332	0.0169186
652.410	0.0169257
652.488	0.0168493
652.567	0.0169974
652.645	0.0169296
652.723	0.0170481
652.801	0.0169180
652.879	0.0169117
652.957	0.0170663
653.035	0.0169352
653.113	0.0168531
653.192	0.0169203
653.270	0.0167564
653.348	0.0169054
653.426	0.0170213
653.504	0.0168613
653.582	0.0169880
653.660	0.0169154
653.738	0.0169483
653.817	0.0168549
653.895	0.0167532
653.973	0.0170241
654.051	0.0169336
654.129	0.0169293
654.207	0.0168624
654.285	0.0168832
654.363	0.0168370
654.442	0.0169524
654.520	0.0169498
654.598	0.0170262
654.676	0.0169107
654.754	0.0168289
654.832	0.0169678
654.910	0.0170835
654.988	0.0170113
655.067	0.0168324
655.145	0.0169349
655.223	0.0169695
655.301	0.0169271
655.379	0.0169853
655.457	0.0169136
655.535	0.0168924
655.613	0.0169559
655.692	0.0168772
655.770	0.0168383
655.848	0.0168977
655.926	0.0168443
656.004	0.0169918
656.082	0.0169019
656.160	0.0169072
656.238	0.0169955
656.317	0.0169189
656.395	0.0168572
656.473	0.0169282
656.551	0.0168197
656.629	0.0168414
656.707	0.0169723
656.785	0.0169903
656.863	0.0169717
656.942	0.0169017
657.020	0.0168457
657.098	0.0168116
657.176	0.0168291
657.254	0.0168766
657.332	0.0169704
657.410	0.0169633
657.488	0.0167860
657.567	0.0168833
657.645	0.0170056
657.723	0.0169260
657.801	0.0169211
657.879	0.0168810
657.957	0.0169268
658.035	0.0169521
658.113	0.0170605
658.192	0.0169260
658.270	0.0170066
658.348	0.0168857
658.426	0.0169879
658.504	0.0169501
658.582	0.0168922
658.660	0.0168436
658.738	0.0168932
658.817	0.0168536
658.895	0.0168971
658.973	0.0169256
659.051	0.0167348
659.129	0.0168243
659.207	0.0167790
659.285	0.0168844
659.363	0.0170922
659.442	0.0169009
659.520	0.0169078
659.598	0.0169790
659.676	0.0168183
659.754	0.0168449
659.832	0.0169212
659.910	0.0169757
659.988	0.0168144
660.067	0.0169357
660.145	0.0169237
660.223	0.0169246
660.301	0.0169727
660.379	0.0169974
660.457	0.0169900
660.535	0.0168306
660.613	0.0169402
660.692	0.0169411
660.770	0.0168680
660.848	0.0169906
660.926	0.0170043
661.004	0.0169700
661.082	0.0168707
661.160	0.0169070
661.238	0.0169529
661.317	0.0169721
661.395	0.0169852
661.473	0.0170192
661.551	0.0168227
661.629	0.0168984
661.707	0.0169762
661.785	0.0169992
661.863	0.0169542
661.942	0.0168689
662.020	0.0168223
662.098	0.0168597
662.176	0.0169176
662.254	0.0169299
662.332	0.0169011
662.410	0.0168855
662.488	0.0168893
662.567	0.0169585
662.645	0.0168739
662.723	0.0169543
662.801	0.0168817
662.879	0.0168266
662.957	0.0168273
663.035	0.0169644
663.113	0.0166971
663.192	0.0168614
663.270	0.0168533
663.348	0.0168343
663.426	0.0168371
663.504	0.0168676
663.582	0.0169157
663.660	0.0168739
663.738	0.0169284
663.817	0.0169348
663.895	0.0167640
663.973	0.0169559
664.051	0.0168539
664.129	0.0168533
664.207	0.0169907
664.285	0.0168851
664.363	0.0168542
664.442	0.0168623
664.520	0.0169576
664.598	0.0169311
664.676	0.0169915
664.754	0.0169277
664.832	0.0167509
664.910	0.0169582
664.988	0.0167558
665.067	0.0168453
665.145	0.0170803
665.223	0.0168729
665.301	0.0168288
665.379	0.0169174
665.457	0.0171239
665.535	0.0168634
665.613	0.0169046
665.692	0.0168893
665.770	0.0167757
665.848	0.0169860
665.926	0.0170574
666.004	0.0168948
666.082	0.0169092
666.160	0.0169210
666.238	0.0168891
666.317	0.0169410
666.395	0.0168406
666.473	0.0170000
666.551	0.0170017
666.629	0.0169696
666.707	0.0169493
666.785	0.0170081
666.863	0.0169489
666.942	0.0169325
667.020	0.0168239
667.098	0.0169830
667.176	0.0169099
667.254	0.0168917
667.332	0.0167699
667.410	0.0169597
667.488	0.0168796
667.567	0.0169456
667.645	0.0168143
667.723	0.0169653
667.801	0.0169781
667.879	0.0169991
667.957	0.0169189
668.035	0.0168583
668.113	0.0169069
668.192	0.0169759
668.270	0.0169210
668.348	0.0168557
668.426	0.0168914
668.504	0.0168326
668.582	0.0168383
668.660	0.0169524
668.738	0.0169460
668.817	0.0169859
668.895	0.0169539
668.973	0.0170020
669.051	0.0169765
669.129	0.0169865
669.207	0.0170017
669.285	0.0169646
669.363	0.0169402
669.442	0.0169337
669.520	0.0168787
669.598	0.0169405
669.676	0.0169434
669.754	0.0169328
669.832	0.0169181
669.910	0.0169052
669.988	0.0170378
670.067	0.0170150
670.145	0.0169601
670.223	0.0169642
670.301	0.0169363
670.379	0.0166881
670.457	0.0169289
670.535	0.0168690
670.613	0.0168929
670.692	0.0168277
670.770	0.0169505
670.848	0.0170259
670.926	0.0169634
671.004	0.0170354
671.082	0.0168153
671.160	0.0168397
671.238	0.0170623
671.317	0.0167651
671.395	0.0168703
671.473	0.0167995
671.551	0.0168567
671.629	0.0169785
671.707	0.0168698
671.785	0.0167984
671.863	0.0168938
671.942	0.0168773
672.020	0.0167607
672.098	0.0169427
672.176	0.0169106
672.254	0.0169125
672.332	0.0169110
672.410	0.0168452
672.488	0.0168148
672.567	0.0169080
672.645	0.0168625
672.723	0.0168686
672.801	0.0167675
672.879	0.0168285
672.957	0.0167668
673.035	0.0169534
673.113	0.0168648
673.192	0.0168264
673.270	0.0168697
673.348	0.0169840
673.426	0.0168093
673.504	0.0167831
673.582	0.0167946
673.660	0.0168480
673.738	0.0168189
673.817	0.0168352
673.895	0.0167384
673.973	0.0168508
674.051	0.0168882
674.129	0.0167305
674.207	0.0167806
674.285	0.0168489
674.363	0.0168645
674.442	0.0169089
674.520	0.0169379
674.598	0.0168621
674.676	0.0166403
674.754	0.0168517
674.832	0.0168176
674.910	0.0168148
674.988	0.0167124
675.067	0.0168446
675.145	0.0167876
675.223	0.0168726
675.301	0.0167709
675.379	0.0169160
675.457	0.0167939
675.535	0.0167121
675.613	0.0169424
675.692	0.0168317
675.770	0.0168420
675.848	0.0168440
675.926	0.0168678
676.004	0.0167913
676.082	0.0168707
676.160	0.0168901
676.238	0.0168369
676.317	0.0168026
676.395	0.0167988
676.473	0.0168697
676.551	0.0168017
676.629	0.0167872
676.707	0.0167976
676.785	0.0167591
676.863	0.0167612
676.942	0.0169196
677.020	0.0169447
677.098	0.0168774
677.176	0.0169531
677.254	0.0168087
677.332	0.0166737
677.410	0.0170142
677.488	0.0168506
677.567	0.0168587
677.645	0.0170006
677.723	0.0169550
677.801	0.0169442
677.879	0.0168821
677.957	0.0168198
678.035	0.0170232
678.113	0.0169542
678.192	0.0168866
678.270	0.0168752
678.348	0.0169053
678.426	0.0169481
678.504	0.0169367
678.582	0.0168795
678.660	0.0168605
678.738	0.0170440
678.817	0.0168420
678.895	0.0170698
678.973	0.0169021
679.051	0.0169319
679.129	0.0169817
679.207	0.0169553
679.285	0.0169381
679.363	0.0169967
679.442	0.0169653
679.520	0.0170399
679.598	0.0168681
679.676	0.0168854
679.754	0.0168622
679.832	0.0169557
679.910	0.0171114
679.988	0.0170129
680.067	0.0169971
680.145	0.0169335
680.223	0.0169221
680.301	0.0168814
680.379	0.0169215
680.457	0.0169163
680.535	0.0170828
680.613	0.0170004
680.692	0.0169514
680.770	0.0168699
680.848	0.0169692
680.926	0.0170128
681.004	0.0170219
681.082	0.0169704
681.160	0.0168775
681.238	0.0169128
681.317	0.0170011
681.395	0.0169672
681.473	0.0168797
681.551	0.0169073
681.629	0.0169409
681.707	0.0169331
681.785	0.0169460
681.863	0.0169651
681.942	0.0169536
682.020	0.0169927
682.098	0.0169634
682.176	0.0169654
682.254	0.0169540
682.332	0.0169700
682.410	0.0169455
682.488	0.0169318
682.567	0.0169631
682.645	0.0169398
682.723	0.0169096
682.801	0.0169536
682.879	0.0170211
682.957	0.0169042
683.035	0.0168625
683.113	0.0168784
683.192	0.0167620
683.270	0.0168787
683.348	0.0167899
683.426	0.0168746
683.504	0.0168965
683.582	0.0168428
683.660	0.0168111
683.738	0.0168652
683.817	0.0168608
683.895	0.0168901
683.973	0.0168954
684.051	0.0167537
684.129	0.0169966
684.207	0.0167612
684.285	0.0168839
684.363	0.0168233
684.442	0.0169185
684.520	0.0168056
684.598	0.0167902
684.676	0.0168056
684.754	0.0168420
684.832	0.0168848
684.910	0.0168359
684.988	0.0168410
685.067	0.0168864
685.145	0.0168095
685.223	0.0168674
685.301	0.0167770
685.379	0.0168352
685.457	0.0167589
685.535	0.0169096
685.613	0.0169216
685.692	0.0169502
685.770	0.0168912
685.848	0.0168481
685.926	0.0168211
686.004	0.0167331
686.082	0.0168075
686.160	0.0167944
686.238	0.0168236
686.317	0.0169244
686.395	0.0168739
686.473	0.0167616
686.551	0.0168988
686.629	0.0167936
686.707	0.0168558
686.785	0.0168805
686.863	0.0168633
686.942	0.0169178
687.020	0.0168529
687.098	0.0168278
687.176	0.0168645
687.254	0.0168642
687.332	0.0169252
687.410	0.0168497
687.488	0.0169119
687.567	0.0169255
687.645	0.0169257
687.723	0.0168510
687.801	0.0168536
687.879	0.0167708
687.957	0.0169391
688.035	0.0169147
688.113	0.0169270
688.192	0.0169464
688.270	0.0169753
688.348	0.0169333
688.426	0.0169543
688.504	0.0168537
688.582	0.0168271
688.660	0.0168148
688.738	0.0167871
688.817	0.0167297
688.895	0.0164922
688.973	0.0165504
689.051	0.0166241
689.129	0.0167541
689.207	0.0168365
689.285	0.0172224
689.363	0.0175032
689.442	0.0176476
689.520	0.0178082
689.598	0.0178706
689.676	0.0178786
689.754	0.0175721
689.832	0.0171134
689.910	0.0165021
689.988	0.0162141
690.067	0.0156508
690.145	0.0154922
690.223	0.0153163
690.301	0.0154385
690.379	0.0156121
690.457	0.0160403
690.535	0.0167650
690.613	0.0172997
690.692	0.0179273
690.770	0.0183646
690.848	0.0186971
690.926	0.0188370
691.004	0.0185732
691.082	0.0182698
691.160	0.0179451
691.238	0.0173334
691.317	0.0168752
691.395	0.0163117
691.473	0.0159016
691.551	0.0156601
691.629	0.0154539
691.707	0.0155612
691.785	0.0158281
691.863	0.0159282
691.942	0.0163302
692.020	0.0166354
692.098	0.0168918
692.176	0.0173431
692.254	0.0176948
692.332	0.0179114
692.410	0.0179944
692.488	0.0180270
692.567	0.0181828
692.645	0.0181325
692.723	0.0177917
692.801	0.0174103
692.879	0.0172243
692.957	0.0168699
693.035	0.0164354
693.113	0.0160205
693.192	0.0158903
693.270	0.0157273
693.348	0.0155433
693.426	0.0155721
693.504	0.0158292
693.582	0.0160181
693.660	0.0163271
693.738	0.0165432
693.817	0.0169588
693.895	0.0171021
693.973	0.0174700
694.051	0.0174924
694.129	0.0176110
694.207	0.0177390
694.285	0.0176477
694.363	0.0177197
694.442	0.0175137
694.520	0.0176236
694.598	0.0173658
694.676	0.0171320
694.754	0.0170597
694.832	0.0170004
694.910	0.0170451
694.988	0.0170177
695.067	0.0168640
695.145	0.0168369
695.223	0.0169081
695.301	0.0168301
695.379	0.0170939
695.457	0.0171172
695.535	0.0169962
695.613	0.0172007
695.692	0.0171352
695.770	0.0171824
695.848	0.0171738
695.926	0.0171784
696.004	0.0170760
696.082	0.0168256
696.160	0.0166290
696.238	0.0165016
696.317	0.0163876
696.395	0.0163964
696.473	0.0161181
696.551	0.0160007
696.629	0.0159463
696.707	0.0159457
696.785	0.0159179
696.863	0.0161378
696.942	0.0162016
697.020	0.0163016
697.098	0.0167189
697.176	0.0169139
697.254	0.0172462
697.332	0.0174651
697.410	0.0175043
697.488	0.0176837
697.567	0.0177432
697.645	0.0176353
697.723	0.0177219
697.801	0.0177085
697.879	0.0176865
697.957	0.0175784
698.035	0.0174272
698.113	0.0174182
698.192	0.0174527
698.270	0.0174064
698.348	0.0171275
698.426	0.0171202
698.504	0.0170044
698.582	0.0168490
698.660	0.0166940
698.738	0.0166259
698.817	0.0165013
698.895	0.0162986
698.973	0.0163965
699.051	0.0164631
699.129	0.0163292
699.207	0.0163400
699.285	0.0163853
699.363	0.0164954
699.442	0.0166413
699.520	0.0167615
699.598	0.0168945
699.676	0.0165615
699.754	0.0166619
699.832	0.0167448
699.910	0.0171034
699.988	0.0168948
700.067	0.0166858
700.145	0.0169617
700.223	0.0169789
700.301	0.0170416
700.379	0.0170769
700.457	0.0171059
700.535	0.0171968
700.613	0.0171695
700.692	0.0171915
700.770	0.0172025
700.848	0.0172723
700.926	0.0171211
701.004	0.0170557
701.082	0.0170888
701.160	0.0170814
701.238	0.0169952
701.317	0.0171339
701.395	0.0170554
701.473	0.0170634
701.551	0.0169399
701.629	0.0168883
701.707	0.0169344
701.785	0.0169584
701.863	0.0169191
701.942	0.0170384
702.020	0.0170275
702.098	0.0169291
702.176	0.0168803
702.254	0.0169734
702.332	0.0168047
702.410	0.0167582
702.488	0.0166867
702.567	0.0167197
702.645	0.0167879
702.723	0.0166138
702.801	0.0165575
702.879	0.0167068
702.957	0.0166750
703.035	0.0165937
703.113	0.0166925
703.192	0.0164534
703.270	0.0164970
703.348	0.0165341
703.426	0.0165678
703.504	0.0166382
703.582	0.0167266
703.660	0.0167778
703.738	0.0167262
703.817	0.0168336
703.895	0.0169165
703.973	0.0169695
704.051	0.0170764
704.129	0.0168758
704.207	0.0169633
704.285	0.0171039
704.363	0.0171416
704.442	0.0170296
704.520	0.0169994
704.598	0.0171339
704.676	0.0169933
704.754	0.0170127
704.832	0.0171042
704.910	0.0168726
704.988	0.0169659
705.067	0.0169421
705.145	0.0169437
705.223	0.0170061
705.301	0.0170731
705.379	0.0171976
705.457	0.0172947
705.535	0.0174060
705.613	0.0173734
705.692	0.0173927
705.770	0.0174397
705.848	0.0172994
705.926	0.0173982
706.004	0.0172224
706.082	0.0171672
706.160	0.0170882
706.238	0.0170920
706.317	0.0169838
706.395	0.0169614
706.473	0.0168637
706.551	0.0168265
706.629	0.0166351
706.707	0.0168325
706.785	0.0167555
706.863	0.0167931
706.942	0.0167722
707.020	0.0167187
707.098	0.0167224
707.176	0.0165639
707.254	0.0167268
707.332	0.0166587
707.410	0.0166208
707.488	0.0166959
707.567	0.0167020
707.645	0.0168634
707.723	0.0167831
707.801	0.0167837
707.879	0.0168483
707.957	0.0169300
708.035	0.0168906
708.113	0.0167638
708.192	0.0168499
708.270	0.0167278
708.348	0.0167464
708.426	0.0168532
708.504	0.0169689
708.582	0.0168217
708.660	0.0167808
708.738	0.0168054
708.817	0.0169175
708.895	0.0169502
708.973	0.0169239
709.051	0.0171866
709.129	0.0171564
709.207	0.0170211
709.285	0.0171416
709.363	0.0173003
709.442	0.0173822
709.520	0.0172694
709.598	0.0173307
709.676	0.0172445
709.754	0.0172356
709.832	0.0173604
709.910	0.0173968
709.988	0.0174329
710.067	0.0174105
710.145	0.0173213
710.223	0.0173587
710.301	0.0172298
710.379	0.0170898
710.457	0.0170412
710.535	0.0168905
710.613	0.0168919
710.692	0.0168497
710.770	0.0167509
710.848	0.0167233
710.926	0.0166871
711.004	0.0166270
711.082	0.0166172
711.160	0.0169912
711.238	0.0167600
711.317	0.0167164
711.395	0.0169710
711.473	0.0171265
711.551	0.0169569
711.629	0.0168803
711.707	0.0170068
711.785	0.0171481
711.863	0.0168495
711.942	0.0167440
712.020	0.0167079
712.098	0.0166358
712.176	0.0166286
712.254	0.0164833
712.332	0.0163601
712.410	0.0165382
712.488	0.0163996
712.567	0.0165192
712.645	0.0163597
712.723	0.0163980
712.801	0.0164462
712.879	0.0163359
712.957	0.0165199
713.035	0.0168517
713.113	0.0168193
713.192	0.0167780
713.270	0.0169448
713.348	0.0169516
713.426	0.0170359
713.504	0.0170410
713.582	0.0171011
713.660	0.0169060
713.738	0.0169397
713.817	0.0168468
713.895	0.0169437
713.973	0.0168584
714.051	0.0169585
714.129	0.0168774
714.207	0.0168373
714.285	0.0169558
714.363	0.0169960
714.442	0.0169636
714.520	0.0169634
714.598	0.0169908
714.676	0.0169624
714.754	0.0169453
714.832	0.0170728
714.910	0.0169608
714.988	0.0168845
715.067	0.0171057
715.145	0.0170718
715.223	0.0169604
715.301	0.0170415
715.379	0.0170272
715.457	0.0169244
715.535	0.0169759
715.613	0.0169892
715.692	0.0169160
715.770	0.0169404
715.848	0.0169794
715.926	0.0169377
716.004	0.0169791
716.082	0.0168977
716.160	0.0169321
716.238	0.0170378
716.317	0.0169340
716.395	0.0170666
716.473	0.0171375
716.551	0.0172366
716.629	0.0171789
716.707	0.0172878
716.785	0.0175088
716.863	0.0173886
716.942	0.0172670
717.020	0.0172051
717.098	0.0171632
717.176	0.0169776
717.254	0.0169967
717.332	0.0169321
717.410	0.0169194
717.488	0.0168626
717.567	0.0167382
717.645	0.0167242
717.723	0.0165418
717.801	0.0164285
717.879	0.0165433
717.957	0.0167522
718.035	0.0166766
718.113	0.0166327
718.192	0.0167133
718.270	0.0168214
718.348	0.0167957
718.426	0.0169341
718.504	0.0167999
718.582	0.0168256
718.660	0.0169868
718.738	0.0170760
718.817	0.0169768
718.895	0.0168571
718.973	0.0169021
719.051	0.0169015
719.129	0.0169821
719.207	0.0168525
719.285	0.0169363
719.363	0.0169801
719.442	0.0170331
719.520	0.0168494
719.598	0.0168875
719.676	0.0169296
719.754	0.0168299
719.832	0.0167474
719.910	0.0167906
719.988	0.0167068
720.067	0.0166895
720.145	0.0168838
720.223	0.0169326
720.301	0.0170366
720.379	0.0170238
720.457	0.0170557
720.535	0.0171185
720.613	0.0171659
720.692	0.0171522
720.770	0.0172680
720.848	0.0172350
720.926	0.0171035
721.004	0.0170084
721.082	0.0169973
721.160	0.0169357
721.238	0.0169523
721.317	0.0169294
721.395	0.0168425
721.473	0.0166998
721.551	0.0167262
721.629	0.0166950
721.707	0.0167896
721.785	0.0167778
721.863	0.0167133
721.942	0.0166419
722.020	0.0169123
722.098	0.0168558
722.176	0.0168839
722.254	0.0169720
722.332	0.0169397
722.410	0.0170565
722.488	0.0170920
722.567	0.0169311
722.645	0.0170444
722.723	0.0170454
722.801	0.0169535
722.879	0.0168546
722.957	0.0168160
723.035	0.0168233
723.113	0.0167708
723.192	0.0168857
723.270	0.0167892
723.348	0.0167282
723.426	0.0168193
723.504	0.0167540
723.582	0.0168333
723.660	0.0169411
723.738	0.0170470
723.817	0.0170571
723.895	0.0170409
723.973	0.0170672
724.051	0.0169447
724.129	0.0171767
724.207	0.0172063
724.285	0.0170824
724.363	0.0170848
724.442	0.0170114
724.520	0.0169559
724.598	0.0169015
724.676	0.0170276
724.754	0.0169530
724.832	0.0169439
724.910	0.0169231
724.988	0.0168954
725.067	0.0167051
725.145	0.0168360
725.223	0.0168521
725.301	0.0167816
725.379	0.0168637
725.457	0.0167902
725.535	0.0168830
725.613	0.0169408
725.692	0.0169637
725.770	0.0170110
725.848	0.0170130
725.926	0.0171105
726.004	0.0169379
726.082	0.0169402
726.160	0.0169622
726.238	0.0169327
726.317	0.0168509
726.395	0.0168286
726.473	0.0167609
726.551	0.0167471
726.629	0.0166221
726.707	0.0166713
726.785	0.0165605
726.863	0.0167748
726.942	0.0165652
727.020	0.0166006
727.098	0.0166059
727.176	0.0165511
727.254	0.0166685
727.332	0.0168861
727.410	0.0167275
727.488	0.0168522
727.567	0.0168694
727.645	0.0168896
727.723	0.0169051
727.801	0.0169180
727.879	0.0167736
727.957	0.0167973
728.035	0.0168909
728.113	0.0169849
728.192	0.0169646
728.270	0.0168370
728.348	0.0170008
728.426	0.0170258
728.504	0.0170322
728.582	0.0171579
728.660	0.0170493
728.738	0.0169245
728.817	0.0171236
728.895	0.0170186
728.973	0.0171579
729.051	0.0170562
729.129	0.0170016
729.207	0.0169453
729.285	0.0170691
729.363	0.0170078
729.442	0.0169290
729.520	0.0170099
729.598	0.0170236
729.676	0.0169936
729.754	0.0170103
729.832	0.0168958
729.910	0.0170168
729.988	0.0171242
730.067	0.0169964
730.145	0.0170049
730.223	0.0168145
730.301	0.0169385
730.379	0.0170019
730.457	0.0169628
730.535	0.0169818
730.613	0.0167030
730.692	0.0168634
730.770	0.0169688
730.848	0.0168388
730.926	0.0168099
731.004	0.0169531
731.082	0.0167522
731.160	0.0169505
731.238	0.0170102
731.317	0.0169582
731.395	0.0171039
731.473	0.0170997
731.551	0.0169926
731.629	0.0170190
731.707	0.0170847
731.785	0.0168660
731.863	0.0168960
731.942	0.0169321
732.020	0.0168024
732.098	0.0169316
732.176	0.0169717
732.254	0.0168403
732.332	0.0169209
732.410	0.0167999
732.488	0.0168575
732.567	0.0168011
732.645	0.0169909
732.723	0.0169286
732.801	0.0169026
732.879	0.0169978
732.957	0.0169905
733.035	0.0168404
733.113	0.0169280
733.192	0.0169379
733.270	0.0167713
733.348	0.0166850
733.426	0.0168510
733.504	0.0167155
733.582	0.0168844
733.660	0.0168977
733.738	0.0167313
733.817	0.0165997
733.895	0.0168074
733.973	0.0168878
734.051	0.0167947
734.129	0.0167711
734.207	0.0166730
734.285	0.0168571
734.363	0.0169082
734.442	0.0167946
734.520	0.0169305
734.598	0.0168354
734.676	0.0167912
734.754	0.0170249
734.832	0.0169150
734.910	0.0168553
734.988	0.0169585
735.067	0.0169468
735.145	0.0168773
735.223	0.0169257
735.301	0.0168959
735.379	0.0169594
735.457	0.0170353
735.535	0.0170289
735.613	0.0169637
735.692	0.0170331
735.770	0.0170398
735.848	0.0169690
735.926	0.0169085
736.004	0.0168763
736.082	0.0168229
736.160	0.0169688
736.238	0.0168999
736.317	0.0168346
736.395	0.0170216
736.473	0.0169416
736.551	0.0169431
736.629	0.0169705
736.707	0.0169558
736.785	0.0169059
736.863	0.0169530
736.942	0.0170344
737.020	0.0169576
737.098	0.0169687
737.176	0.0168977
737.254	0.0168935
737.332	0.0168903
737.410	0.0169085
737.488	0.0168374
737.567	0.0167841
737.645	0.0169038
737.723	0.0169471
737.801	0.0169087
737.879	0.0169896
737.957	0.0169702
738.035	0.0170447
738.113	0.0169980
738.192	0.0170280
738.270	0.0170775
738.348	0.0170380
738.426	0.0169228
738.504	0.0170875
738.582	0.0169601
738.660	0.0168436
738.738	0.0170167
738.817	0.0170773
738.895	0.0169080
738.973	0.0168971
739.051	0.0166776
739.129	0.0167992
739.207	0.0169936
739.285	0.0169173
739.363	0.0168961
739.442	0.0167579
739.520	0.0168862
739.598	0.0168664
739.676	0.0166573
739.754	0.0167267
739.832	0.0167997
739.910	0.0168374
739.988	0.0168439
740.067	0.0167540
740.145	0.0168133
740.223	0.0168282
740.301	0.0168212
740.379	0.0167838
740.457	0.0169325
740.535	0.0170038
740.613	0.0168143
740.692	0.0168728
740.770	0.0167108
740.848	0.0169869
740.926	0.0168939
741.004	0.0168037
741.082	0.0169109
741.160	0.0168230
741.238	0.0168275
741.317	0.0168690
741.395	0.0168642
741.473	0.0169344
741.551	0.0169573
741.629	0.0169674
741.707	0.0169557
741.785	0.0170676
741.863	0.0169726
741.942	0.0169798
742.020	0.0169321
742.098	0.0169664
742.176	0.0170071
742.254	0.0167683
742.332	0.0169438
742.410	0.0170145
742.488	0.0168969
742.567	0.0167377
742.645	0.0169029
742.723	0.0168259
742.801	0.0169836
742.879	0.0167706
742.957	0.0168721
743.035	0.0168522
743.113	0.0168503
743.192	0.0168120
743.270	0.0169512
743.348	0.0168343
743.426	0.0169798
743.504	0.0168995
743.582	0.0169319
743.660	0.0170596
743.738	0.0170299
743.817	0.0168929
743.895	0.0169398
743.973	0.0170248
744.051	0.0169182
744.129	0.0167925
744.207	0.0168832
744.285	0.0168661
744.363	0.0168385
744.442	0.0168115
744.520	0.0170248
744.598	0.0168961
744.676	0.0169447
744.754	0.0168873
744.832	0.0169293
744.910	0.0168890
744.988	0.0169102
745.067	0.0170016
745.145	0.0169517
745.223	0.0169302
745.301	0.0169262
745.379	0.0168439
745.457	0.0170039
745.535	0.0169174
745.613	0.0168344
745.692	0.0169302
745.770	0.0169625
745.848	0.0168930
745.926	0.0168457
746.004	0.0168188
746.082	0.0168630
746.160	0.0168372
746.238	0.0168945
746.317	0.0169970
746.395	0.0168887
746.473	0.0170528
746.551	0.0169187
746.629	0.0169280
746.707	0.0168991
746.785	0.0167181
746.863	0.0170161
746.942	0.0169585
747.020	0.0169161
747.098	0.0168681
747.176	0.0169825
747.254	0.0171002
747.332	0.0168864
747.410	0.0170000
747.488	0.0169189
747.567	0.0169459
747.645	0.0169151
747.723	0.0170723
747.801	0.0170180
747.879	0.0169825
747.957	0.0168742
748.035	0.0169212
748.113	0.0169549
748.192	0.0169208
748.270	0.0168478
748.348	0.0170669
748.426	0.0170473
748.504	0.0168015
748.582	0.0167973
748.660	0.0169375
748.738	0.0169135
748.817	0.0168782
748.895	0.0169582
748.973	0.0168029
749.051	0.0169234
749.129	0.0168427
749.207	0.0168414
749.285	0.0168267
749.363	0.0167976
749.442	0.0168302
749.520	0.0167609
749.598	0.0169507
749.676	0.0170918
749.754	0.0168189
749.832	0.0166519
749.910	0.0168573
749.988	0.0168079
750.067	0.0169298
750.145	0.0170183
750.223	0.0167985
750.301	0.0170490
750.379	0.0169276
750.457	0.0167518
750.535	0.0169584
750.613	0.0170409
750.692	0.0169565
750.770	0.0168050
750.848	0.0169224
750.926	0.0170148
751.004	0.0170258
751.082	0.0168670
751.160	0.0170073
751.238	0.0169828
751.317	0.0170065
751.395	0.0169271
751.473	0.0168825
751.551	0.0168685
751.629	0.0166919
751.707	0.0168240
751.785	0.0168874
751.863	0.0167847
751.942	0.0169502
752.020	0.0169700
752.098	0.0168649
752.176	0.0168098
752.254	0.0169532
752.332	0.0170580
752.410	0.0171860
752.488	0.0172052
752.567	0.0170547
752.645	0.0170413
752.723	0.0170802
752.801	0.0168864
752.879	0.0170111
752.957	0.0169797
753.035	0.0169787
753.113	0.0169298
753.192	0.0169578
753.270	0.0169849
753.348	0.0168574
753.426	0.0169667
753.504	0.0169096
753.582	0.0167442
753.660	0.0169671
753.738	0.0170470
753.817	0.0170138
753.895	0.0170383
753.973	0.0169931
754.051	0.0169348
754.129	0.0170755
754.207	0.0169840
754.285	0.0170036
754.363	0.0170541
754.442	0.0170659
754.520	0.0168641
754.598	0.0167701
754.676	0.0168723
754.754	0.0169844
754.832	0.0168446
754.910	0.0169385
754.988	0.0169324
755.067	0.0168179
755.145	0.0168032
755.223	0.0168787
755.301	0.0168121
755.379	0.0168828
755.457	0.0170692
755.535	0.0170004
755.613	0.0169346
755.692	0.0169975
755.770	0.0169935
755.848	0.0169652
755.926	0.0170110
756.004	0.0170422
756.082	0.0169659
756.160	0.0169942
756.238	0.0170984
756.317	0.0169923
756.395	0.0169930
756.473	0.0169431
756.551	0.0169648
756.629	0.0170055
756.707	0.0169253
756.785	0.0170163
756.863	0.0169167
756.942	0.0169450
757.020	0.0170157
757.098	0.0168887
757.176	0.0168938
757.254	0.0169144
757.332	0.0168735
757.410	0.0169485
757.488	0.0169422
757.567	0.0169868
757.645	0.0169106
757.723	0.0169508
757.801	0.0168797
757.879	0.0169802
757.957	0.0169672
758.035	0.0167960
758.113	0.0170570
758.192	0.0170229
758.270	0.0169203
758.348	0.0169038
758.426	0.0169106
758.504	0.0166988
758.582	0.0168792
758.660	0.0169177
758.738	0.0170137
758.817	0.0168459
758.895	0.0168293
758.973	0.0170358
759.051	0.0170320
759.129	0.0169145
759.207	0.0168365
759.285	0.0170806
759.363	0.0169710
759.442	0.0170215
759.520	0.0169527
759.598	0.0168571
759.676	0.0168684
759.754	0.0169371
759.832	0.0169930
759.910	0.0168915
759.988	0.0168700
760.067	0.0169962
760.145	0.0170068
760.223	0.0168446
760.301	0.0169767
760.379	0.0170155
760.457	0.0170401
760.535	0.0169781
760.613	0.0169227
760.692	0.0169514
760.770	0.0168906
760.848	0.0170663
760.926	0.0170438
761.004	0.0170284
761.082	0.0170461
761.160	0.0167921
761.238	0.0169144
761.317	0.0169456
761.395	0.0168539
761.473	0.0169403
761.551	0.0168027
761.629	0.0168226
761.707	0.0169060
761.785	0.0167749
761.863	0.0169781
761.942	0.0167735
762.020	0.0167988
762.098	0.0169616
762.176	0.0167699
762.254	0.0167415
762.332	0.0167110
762.410	0.0168215
762.488	0.0168219
762.567	0.0169003
762.645	0.0169320
762.723	0.0168721
762.801	0.0168646
762.879	0.0168705
762.957	0.0168949
763.035	0.0168647
763.113	0.0168859
763.192	0.0170396
763.270	0.0170900
763.348	0.0168029
763.426	0.0170612
763.504	0.0169516
763.582	0.0169579
763.660	0.0170792
763.738	0.0169291
763.817	0.0168457
763.895	0.0170153
763.973	0.0169271
764.051	0.0169463
764.129	0.0169208
764.207	0.0170374
764.285	0.0169402
764.363	0.0169188
764.442	0.0169653
764.520	0.0169034
764.598	0.0168685
764.676	0.0169091
764.754	0.0168446
764.832	0.0168622
764.910	0.0170422
764.988	0.0170514
765.067	0.0168887
765.145	0.0168958
765.223	0.0169291
765.301	0.0170756
765.379	0.0170083
765.457	0.0167276
765.535	0.0168223
765.613	0.0168726
765.692	0.0168872
765.770	0.0167467
765.848	0.0167976
765.926	0.0168097
766.004	0.0168614
766.082	0.0167773
766.160	0.0168013
766.238	0.0169397
766.317	0.0169507
766.395	0.0169419
766.473	0.0169328
766.551	0.0167990
766.629	0.0169112
766.707	0.0171296
766.785	0.0169312
766.863	0.0169779
766.942	0.0170054
767.020	0.0169241
767.098	0.0170078
767.176	0.0169244
767.254	0.0169797
767.332	0.0168653
767.410	0.0169322
767.488	0.0170892
767.567	0.0170619
767.645	0.0170459
767.723	0.0170996
767.801	0.0169756
767.879	0.0169299
767.957	0.0170054
768.035	0.0169258
768.113	0.0170074
768.192	0.0171375
768.270	0.0170113
768.348	0.0168940
768.426	0.0168596
768.504	0.0170143
768.582	0.0168887
768.660	0.0168352
768.738	0.0168316
768.817	0.0168739
768.895	0.0169427
768.973	0.0169595
769.051	0.0169075
769.129	0.0168852
769.207	0.0168699
769.285	0.0169514
769.363	0.0167718
769.442	0.0167557
769.520	0.0168729
769.598	0.0169235
769.676	0.0169875
769.754	0.0169742
769.832	0.0168675
769.910	0.0170343
769.988	0.0168838
770.067	0.0170219
770.145	0.0170285
770.223	0.0169464
770.301	0.0170254
770.379	0.0169024
770.457	0.0170136
770.535	0.0169676
770.613	0.0169484
770.692	0.0169914
770.770	0.0168988
770.848	0.0169037
770.926	0.0168128
771.004	0.0168774
771.082	0.0168985
771.160	0.0168754
771.238	0.0167797
771.317	0.0167599
771.395	0.0169342
771.473	0.0169510
771.551	0.0169587
771.629	0.0168835
771.707	0.0169736
771.785	0.0169195
771.863	0.0169949
771.942	0.0169920
772.020	0.0170716
772.098	0.0170162
772.176	0.0169518
772.254	0.0169418
772.332	0.0169101
772.410	0.0168840
772.488	0.0168758
772.567	0.0169506
772.645	0.0169477
772.723	0.0169663
772.801	0.0169740
772.879	0.0167976
772.957	0.0168043
773.035	0.0168423
773.113	0.0169440
773.192	0.0167464
773.270	0.0168771
773.348	0.0167606
773.426	0.0167612
773.504	0.0168217
773.582	0.0168748
773.660	0.0169106
773.738	0.0168811
773.817	0.0167624
773.895	0.0167996
773.973	0.0169044
774.051	0.0169201
774.129	0.0168924
774.207	0.0169605
774.285	0.0169003
774.363	0.0169374
774.442	0.0167979
774.520	0.0168678
774.598	0.0169915
774.676	0.0169321
774.754	0.0169431
774.832	0.0168803
774.910	0.0168961
774.988	0.0169229
775.067	0.0168193
775.145	0.0168604
775.223	0.0168135
775.301	0.0169337
775.379	0.0169957
775.457	0.0169463
775.535	0.0169138
775.613	0.0168793
775.692	0.0168242
775.770	0.0169819
775.848	0.0168578
775.926	0.0168319
776.004	0.0167834
776.082	0.0171152
776.160	0.0167503
776.238	0.0169542
776.317	0.0170378
776.395	0.0169388
776.473	0.0169085
776.551	0.0168941
776.629	0.0170519
776.707	0.0167996
776.785	0.0170299
776.863	0.0170228
776.942	0.0170151
777.020	0.0170382
777.098	0.0169432
777.176	0.0169369
777.254	0.0170081
777.332	0.0170345
777.410	0.0169560
777.488	0.0168690
777.567	0.0170380
777.645	0.0169489
777.723	0.0166929
777.801	0.0170005
777.879	0.0171361
777.957	0.0167995
778.035	0.0168774
778.113	0.0168865
778.192	0.0168032
778.270	0.0168698
778.348	0.0168325
778.426	0.0167382
778.504	0.0168810
778.582	0.0167551
778.660	0.0167306
778.738	0.0169689
778.817	0.0169575
778.895	0.0167966
778.973	0.0170284
779.051	0.0168947
779.129	0.0170444
779.207	0.0170529
779.285	0.0169789
779.363	0.0169769
779.442	0.0171030
779.520	0.0169039
779.598	0.0169350
779.676	0.0169813
779.754	0.0170013
779.832	0.0169226
779.910	0.0169061
779.988	0.0168202
780.067	0.0169365
780.145	0.0168778
780.223	0.0168316
780.301	0.0168984
780.379	0.0168710
780.457	0.0168678
780.535	0.0169733
780.613	0.0168911
780.692	0.0167523
780.770	0.0169271
780.848	0.0167385
780.926	0.0167797
781.004	0.0168790
781.082	0.0169731
781.160	0.0168658
781.238	0.0169076
781.317	0.0170083
781.395	0.0170406
781.473	0.0169547
781.551	0.0170352
781.629	0.0171009
781.707	0.0169075
781.785	0.0169007
781.863	0.0170367
781.942	0.0169535
782.020	0.0168875
782.098	0.0170350
782.176	0.0169513
782.254	0.0169933
782.332	0.0170821
782.410	0.0170370
782.488	0.0170455
782.567	0.0169111
782.645	0.0170380
782.723	0.0168771
782.801	0.0169263
782.879	0.0170165
782.957	0.0169804
783.035	0.0167991
783.113	0.0168575
783.192	0.0168562
783.270	0.0170211
783.348	0.0169294
783.426	0.0169042
783.504	0.0169163
783.582	0.0167892
783.660	0.0170247
783.738	0.0168965
783.817	0.0167567
783.895	0.0167928
783.973	0.0167755
784.051	0.0167875
784.129	0.0167847
784.207	0.0167030
784.285	0.0168167
784.363	0.0168932
784.442	0.0170010
784.520	0.0167688
784.598	0.0168876
784.676	0.0168696
784.754	0.0167976
784.832	0.0169212
784.910	0.0170837
784.988	0.0169006
785.067	0.0169104
785.145	0.0172144
785.223	0.0171069
785.301	0.0169186
785.379	0.0170269
785.457	0.0169498
785.535	0.0169186
785.613	0.0170611
785.692	0.0169591
785.770	0.0169546
785.848	0.0169564
785.926	0.0168759
786.004	0.0167797
786.082	0.0168027
786.160	0.0167826
786.238	0.0168407
786.317	0.0168116
786.395	0.0168507
786.473	0.0167715
786.551	0.0168461
786.629	0.0168695
786.707	0.0169278
786.785	0.0169568
786.863	0.0169285
786.942	0.0168635
787.020	0.0168548
787.098	0.0169281
787.176	0.0169503
787.254	0.0169903
787.332	0.0167455
787.410	0.0169685
787.488	0.0167797
787.567	0.0168019
787.645	0.0168808
787.723	0.0167886
787.801	0.0168143
787.879	0.0169547
787.957	0.0169945
788.035	0.0169757
788.113	0.0170496
788.192	0.0170913
788.270	0.0169743
788.348	0.0170589
788.426	0.0169949
788.504	0.0169998
788.582	0.0170306
788.660	0.0168481
788.738	0.0170383
788.817	0.0169714
788.895	0.0169483
788.973	0.0169270
789.051	0.0170136
789.129	0.0167924
789.207	0.0167989
789.285	0.0168196
789.363	0.0168492
789.442	0.0167896
789.520	0.0167987
789.598	0.0166081
789.676	0.0167934
789.754	0.0168414
789.832	0.0166823
789.910	0.0168389
789.988	0.0168809
790.067	0.0169514
790.145	0.0167793
790.223	0.0169113
790.301	0.0170982
790.379	0.0170592
790.457	0.0169740
790.535	0.0169979
790.613	0.0170856
790.692	0.0171068
790.770	0.0171564
790.848	0.0169710
790.926	0.0169592
791.004	0.0171739
791.082	0.0170818
791.160	0.0170164
791.238	0.0168452
791.317	0.0169921
791.395	0.0169224
791.473	0.0170017
791.551	0.0169122
791.629	0.0168163
791.707	0.0169466
791.785	0.0169361
791.863	0.0168813
791.942	0.0169836
792.020	0.0167864
792.098	0.0168565
792.176	0.0169810
792.254	0.0169105
792.332	0.0168351
792.410	0.0169683
792.488	0.0170161
792.567	0.0170040
792.645	0.0170152
792.723	0.0169638
792.801	0.0169329
792.879	0.0171264
792.957	0.0168896
793.035	0.0170372
793.113	0.0168738
793.192	0.0169630
793.270	0.0169773
793.348	0.0170227
793.426	0.0169221
793.504	0.0168510
793.582	0.0170194
793.660	0.0169102
793.738	0.0168076
793.817	0.0169884
793.895	0.0169073
793.973	0.0168803
794.051	0.0168563
794.129	0.0168735
794.207	0.0168571
794.285	0.0168932
794.363	0.0169460
794.442	0.0169837
794.520	0.0169565
794.598	0.0168308
794.676	0.0168337
794.754	0.0169016
794.832	0.0169670
794.910	0.0169097
794.988	0.0167698
795.067	0.0168430
795.145	0.0170676
795.223	0.0167624
795.301	0.0168528
795.379	0.0170167
795.457	0.0170142
795.535	0.0167827
795.613	0.0169801
795.692	0.0168532
795.770	0.0168332
795.848	0.0169434
795.926	0.0169332
796.004	0.0169827
796.082	0.0169233
796.160	0.0170260
796.238	0.0170224
796.317	0.0170866
796.395	0.0169812
796.473	0.0168223
796.551	0.0169401
796.629	0.0168507
796.707	0.0170811
796.785	0.0169186
796.863	0.0168685
796.942	0.0170359
797.020	0.0169637
797.098	0.0169592
797.176	0.0168865
797.254	0.0170115
797.332	0.0169557
797.410	0.0170021
797.488	0.0169916
797.567	0.0168732
797.645	0.0169501
797.723	0.0170592
797.801	0.0170355
797.879	0.0168878
797.957	0.0169473
798.035	0.0170310
798.113	0.0170322
798.192	0.0170407
798.270	0.0169019
798.348	0.0170612
798.426	0.0169526
798.504	0.0167783
798.582	0.0170396
798.660	0.0168971
798.738	0.0167883
798.817	0.0168575
798.895	0.0171175
798.973	0.0167845
799.051	0.0168765
799.129	0.0169314
799.207	0.0168205
799.285	0.0168880
799.363	0.0169775
799.442	0.0170424
799.520	0.0169648
799.598	0.0169579
799.676	0.0170012
799.754	0.0169701
799.832	0.0170171
799.910	0.0169585
799.988	0.0169704
800.067	0.0171392
800.145	0.0169933
800.223	0.0168874
800.301	0.0170939
800.379	0.0171463
800.457	0.0169356
800.535	0.0168596
800.613	0.0169039
800.692	0.0169044
800.770	0.0167990
800.848	0.0169519
800.926	0.0168970
801.004	0.0170810
801.082	0.0169405
801.160	0.0169633
801.238	0.0170287
801.317	0.0167850
801.395	0.0168817
801.473	0.0168197
801.551	0.0169827
801.629	0.0168718
801.707	0.0169966
801.785	0.0169846
801.863	0.0169601
801.942	0.0169626
802.020	0.0169900
802.098	0.0170675
802.176	0.0169960
802.254	0.0170296
802.332	0.0170749
802.410	0.0169379
802.488	0.0169071
802.567	0.0169436
802.645	0.0169569
802.723	0.0169405
802.801	0.0169695
802.879	0.0169698
802.957	0.0168653
803.035	0.0169900
803.113	0.0168842
803.192	0.0170259
803.270	0.0168562
803.348	0.0169612
803.426	0.0169021
803.504	0.0167924
803.582	0.0169050
803.660	0.0169056
803.738	0.0170191
803.817	0.0170237
803.895	0.0169440
803.973	0.0169009
804.051	0.0168938
804.129	0.0169465
804.207	0.0168901
804.285	0.0168107
804.363	0.0169576
804.442	0.0168952
804.520	0.0168208
804.598	0.0167139
804.676	0.0168283
804.754	0.0170514
804.832	0.0169698
804.910	0.0168494
804.988	0.0167488
805.067	0.0167990
805.145	0.0168289
805.223	0.0168845
805.301	0.0168272
805.379	0.0167469
805.457	0.0168076
805.535	0.0168050
805.613	0.0169286
805.692	0.0169378
805.770	0.0168880
805.848	0.0169202
805.926	0.0169875
806.004	0.0170305
806.082	0.0171118
806.160	0.0169910
806.238	0.0170284
806.317	0.0170529
806.395	0.0169743
806.473	0.0169920
806.551	0.0170664
806.629	0.0168223
806.707	0.0169891
806.785	0.0168735
806.863	0.0168929
806.942	0.0169089
807.020	0.0168778
807.098	0.0168816
807.176	0.0169590
807.254	0.0169901
807.332	0.0168418
807.410	0.0168784
807.488	0.0168652
807.567	0.0169462
807.645	0.0169708
807.723	0.0169202
807.801	0.0171539
807.879	0.0168607
807.957	0.0167836
808.035	0.0170235
808.113	0.0168858
808.192	0.0168601
808.270	0.0168153
808.348	0.0170446
808.426	0.0169146
808.504	0.0169713
808.582	0.0168347
808.660	0.0168353
808.738	0.0168231
808.817	0.0169317
808.895	0.0169271
808.973	0.0169783
809.051	0.0168855
809.129	0.0169418
809.207	0.0168530
809.285	0.0169219
809.363	0.0167953
809.442	0.0168060
809.520	0.0168178
809.598	0.0169999
809.676	0.0169258
809.754	0.0170072
809.832	0.0168687
809.910	0.0169687
809.988	0.0169975
810.067	0.0168560
810.145	0.0168967
810.223	0.0168894
810.301	0.0170296
810.379	0.0168924
810.457	0.0168247
810.535	0.0168023
810.613	0.0168532
810.692	0.0169008
810.770	0.0169878
810.848	0.0168773
810.926	0.0168826
811.004	0.0168993
811.082	0.0168616
811.160	0.0169956
811.238	0.0169875
811.317	0.0168990
811.395	0.0168573
811.473	0.0168968
811.551	0.0169347
811.629	0.0168133
811.707	0.0168989
811.785	0.0168867
811.863	0.0169085
811.942	0.0168378
812.020	0.0168893
812.098	0.0168076
812.176	0.0168974
812.254	0.0169801
812.332	0.0169985
812.410	0.0168877
812.488	0.0169762
812.567	0.0169353
812.645	0.0169761
812.723	0.0169631
812.801	0.0169411
812.879	0.0168182
812.957	0.0168185
813.035	0.0169299
813.113	0.0169888
813.192	0.0170001
813.270	0.0169777
813.348	0.0169473
813.426	0.0169308
813.504	0.0167901
813.582	0.0168367
813.660	0.0168719
813.738	0.0169696
813.817	0.0167645
813.895	0.0169748
813.973	0.0169550
814.051	0.0168906
814.129	0.0169145
814.207	0.0168936
814.285	0.0169071
814.363	0.0171091
814.442	0.0169201
814.520	0.0168564
814.598	0.0167395
814.676	0.0168434
814.754	0.0169459
814.832	0.0169958
814.910	0.0169099
814.988	0.0168925
815.067	0.0169387
815.145	0.0170008
815.223	0.0169536
815.301	0.0169556
815.379	0.0169286
815.457	0.0168592
815.535	0.0168824
815.613	0.0168660
815.692	0.0168526
815.770	0.0169414
815.848	0.0167236
815.926	0.0168536
816.004	0.0169892
816.082	0.0168309
816.160	0.0169087
816.238	0.0168669
816.317	0.0168842
816.395	0.0169492
816.473	0.0170370
816.551	0.0169131
816.629	0.0169263
816.707	0.0170693
816.785	0.0168752
816.863	0.0169637
816.942	0.0169343
817.020	0.0168478
817.098	0.0169789
817.176	0.0168314
817.254	0.0168647
817.332	0.0169202
817.410	0.0170057
817.488	0.0169080
817.567	0.0168558
817.645	0.0168663
817.723	0.0168895
817.801	0.0168875
817.879	0.0168509
817.957	0.0169086
818.035	0.0170331
818.113	0.0168813
818.192	0.0168089
818.270	0.0167333
818.348	0.0169183
818.426	0.0169228
818.504	0.0168608
818.582	0.0169827
818.660	0.0170416
818.738	0.0169546
818.817	0.0169845
818.895	0.0169849
818.973	0.0168803
819.051	0.0170480
819.129	0.0169240
819.207	0.0167894
819.285	0.0168751
819.363	0.0169725
819.442	0.0169395
819.520	0.0170446
819.598	0.0170067
819.676	0.0169135
819.754	0.0169415
819.832	0.0170007
819.910	0.0169559
819.988	0.0169075
820.067	0.0169685
820.145	0.0169779
820.223	0.0169624
820.301	0.0170110
820.379	0.0169816
820.457	0.0170027
820.535	0.0170946
820.613	0.0169579
820.692	0.0169238
820.770	0.0169991
820.848	0.0169812
820.926	0.0169846
821.004	0.0170503
821.082	0.0169029
821.160	0.0168108
821.238	0.0168564
821.317	0.0168967
821.395	0.0167910
821.473	0.0168661
821.551	0.0168671
821.629	0.0167484
821.707	0.0167690
821.785	0.0168115
821.863	0.0168392
821.942	0.0168708
822.020	0.0168577
822.098	0.0167988
822.176	0.0169010
822.254	0.0169436
822.332	0.0168087
822.410	0.0168892
822.488	0.0169148
822.567	0.0168126
822.645	0.0169415
822.723	0.0168762
822.801	0.0168609
822.879	0.0168993
822.957	0.0169706
823.035	0.0169511
823.113	0.0169434
823.192	0.0169492
823.270	0.0169139
823.348	0.0169118
823.426	0.0168816
823.504	0.0169799
823.582	0.0169664
823.660	0.0169685
823.738	0.0169958
823.817	0.0169411
823.895	0.0169511
823.973	0.0169511
824.051	0.0169241
824.129	0.0168639
824.207	0.0170080
824.285	0.0169289
824.363	0.0168798
824.442	0.0169879
824.520	0.0170267
824.598	0.0168563
824.676	0.0169928
824.754	0.0169506
824.832	0.0169202
824.910	0.0169524
824.988	0.0169547
825.067	0.0169155
825.145	0.0169611
825.223	0.0168575
825.301	0.0169513
825.379	0.0168408
825.457	0.0167204
825.535	0.0169118
825.613	0.0168578
825.692	0.0168281
825.770	0.0167853
825.848	0.0168209
825.926	0.0168230
826.004	0.0168024
826.082	0.0169139
826.160	0.0168970
826.238	0.0168661
826.317	0.0168443
826.395	0.0168412
826.473	0.0168407
826.551	0.0168923
826.629	0.0169382
826.707	0.0169162
826.785	0.0168349
826.863	0.0169379
826.942	0.0167833
827.020	0.0169489
827.098	0.0167670
827.176	0.0169489
827.254	0.0169019
827.332	0.0169987
827.410	0.0169346
827.488	0.0168306
827.567	0.0168855
827.645	0.0168520
827.723	0.0169370
827.801	0.0169595
827.879	0.0167493
827.957	0.0169130
828.035	0.0169852
828.113	0.0171043
828.192	0.0169961
828.270	0.0169274
828.348	0.0169658
828.426	0.0169714
828.504	0.0169327
828.582	0.0168246
828.660	0.0169866
828.738	0.0169377
828.817	0.0169728
828.895	0.0169203
828.973	0.0168864
829.051	0.0168472
829.129	0.0168842
829.207	0.0168148
829.285	0.0169587
829.363	0.0167850
829.442	0.0167452
829.520	0.0169159
829.598	0.0168671
829.676	0.0168546
829.754	0.0169473
829.832	0.0169148
829.910	0.0169115
829.988	0.0169302
830.067	0.0168584
830.145	0.0168664
830.223	0.0168842
830.301	0.0167917
830.379	0.0168264
830.457	0.0167730
830.535	0.0167943
830.613	0.0169700
830.692	0.0169274
830.770	0.0169067
830.848	0.0168784
830.926	0.0169381
831.004	0.0169337
831.082	0.0168361
831.160	0.0168429
831.238	0.0168211
831.317	0.0169065
831.395	0.0168814
831.473	0.0169340
831.551	0.0168637
831.629	0.0169534
831.707	0.0169800
831.785	0.0170006
831.863	0.0169410
831.942	0.0168434
832.020	0.0168993
832.098	0.0171564
832.176	0.0169468
832.254	0.0170055
832.332	0.0169898
832.410	0.0169717
832.488	0.0170393
832.567	0.0170441
832.645	0.0170557
832.723	0.0171228
832.801	0.0170016
832.879	0.0170732
832.957	0.0169961
833.035	0.0170273
833.113	0.0170941
833.192	0.0169934
833.270	0.0169546
833.348	0.0170466
833.426	0.0169363
833.504	0.0167743
833.582	0.0168661
833.660	0.0169617
833.738	0.0168896
833.817	0.0168120
833.895	0.0168450
833.973	0.0169209
834.051	0.0168343
834.129	0.0167805
834.207	0.0169246
834.285	0.0168959
834.363	0.0166651
834.442	0.0168111
834.520	0.0170301
834.598	0.0168024
834.676	0.0167012
834.754	0.0168478
834.832	0.0168164
834.910	0.0169222
834.988	0.0169241
835.067	0.0168880
835.145	0.0169286
835.223	0.0169495
835.301	0.0168736
835.379	0.0168089
835.457	0.0169434
835.535	0.0168079
835.613	0.0169541
835.692	0.0168893
835.770	0.0167691
835.848	0.0167818
835.926	0.0168536
836.004	0.0169040
836.082	0.0169379
836.160	0.0169959
836.238	0.0169740
836.317	0.0169133
836.395	0.0169909
836.473	0.0170404
836.551	0.0167490
836.629	0.0169314
836.707	0.0169686
836.785	0.0169500
836.863	0.0169455
836.942	0.0169964
837.020	0.0168512
837.098	0.0169127
837.176	0.0168408
837.254	0.0167855
837.332	0.0168981
837.410	0.0168790
837.488	0.0168118
837.567	0.0168590
837.645	0.0168789
837.723	0.0168998
837.801	0.0168804
837.879	0.0168820
837.957	0.0168507
838.035	0.0167798
838.113	0.0168133
838.192	0.0169096
838.270	0.0169640
838.348	0.0167866
838.426	0.0169158
838.504	0.0169237
838.582	0.0168766
838.660	0.0170475
838.738	0.0169871
838.817	0.0169810
838.895	0.0168958
838.973	0.0169788
839.051	0.0168970
839.129	0.0168336
839.207	0.0170758
839.285	0.0168707
839.363	0.0169185
839.442	0.0169254
839.520	0.0169371
839.598	0.0169077
839.676	0.0169337
839.754	0.0168197
839.832	0.0169508
839.910	0.0169930
839.988	0.0168670
840.067	0.0169068
840.145	0.0169209
840.223	0.0169197
840.301	0.0167513
840.379	0.0169040
840.457	0.0168703
840.535	0.0168803
840.613	0.0169827
840.692	0.0170355
840.770	0.0170443
840.848	0.0168407
840.926	0.0169578
841.004	0.0170070
841.082	0.0168299
841.160	0.0169144
841.238	0.0170322
841.317	0.0168062
841.395	0.0170148
841.473	0.0169677
841.551	0.0169160
841.629	0.0169057
841.707	0.0168673
841.785	0.0169421
841.863	0.0169392
841.942	0.0171041
842.020	0.0169350
842.098	0.0169778
842.176	0.0169563
842.254	0.0169684
842.332	0.0168879
842.410	0.0169891
842.488	0.0169462
842.567	0.0169357
842.645	0.0167914
842.723	0.0169196
842.801	0.0169090
842.879	0.0169169
842.957	0.0168825
843.035	0.0170922
843.113	0.0169001
843.192	0.0169927
843.270	0.0168790
843.348	0.0169873
843.426	0.0171062
843.504	0.0169379
843.582	0.0168782
843.660	0.0169760
843.738	0.0169086
843.817	0.0167972
843.895	0.0168793
843.973	0.0169720
844.051	0.0167883
844.129	0.0169633
844.207	0.0168426
844.285	0.0168966
844.363	0.0169004
844.442	0.0168337
844.520	0.0168990
844.598	0.0170742
844.676	0.0170541
844.754	0.0169144
844.832	0.0169588
844.910	0.0168549
844.988	0.0168583
845.067	0.0168227
845.145	0.0168796
845.223	0.0169278
845.301	0.0168220
845.379	0.0169653
845.457	0.0169589
845.535	0.0169472
845.613	0.0168360
845.692	0.0169228
845.770	0.0170364
845.848	0.0169413
845.926	0.0167990
846.004	0.0169138
846.082	0.0170126
846.160	0.0168916
846.238	0.0168083
846.317	0.0168855
846.395	0.0169562
846.473	0.0170132
846.551	0.0170486
846.629	0.0168891
846.707	0.0169193
846.785	0.0168980
846.863	0.0171472
846.942	0.0169604
847.020	0.0169441
847.098	0.0170145
847.176	0.0169662
847.254	0.0169876
847.332	0.0169119
847.410	0.0169640
847.488	0.0170621
847.567	0.0168628
847.645	0.0170097
847.723	0.0170020
847.801	0.0169927
847.879	0.0169633
847.957	0.0170343
848.035	0.0169861
848.113	0.0170123
848.192	0.0171493
848.270	0.0168784
848.348	0.0169173
848.426	0.0168955
848.504	0.0169005
848.582	0.0170267
848.660	0.0169356
848.738	0.0170013
848.817	0.0168825
848.895	0.0169903
848.973	0.0169647
849.051	0.0169133
849.129	0.0169394
849.207	0.0170569
849.285	0.0169943
849.363	0.0168199
849.442	0.0170489
849.520	0.0169503
849.598	0.0170880
849.676	0.0168724
849.754	0.0169646
849.832	0.0167609
849.910	0.0169495
849.988	0.0169166
850.067	0.0168612
850.145	0.0169502
850.223	0.0169535
850.301	0.0167746
850.379	0.0169437
850.457	0.0169454
850.535	0.0168828
850.613	0.0168792
850.692	0.0168783
850.770	0.0168526
850.848	0.0168080
850.926	0.0168636
851.004	0.0169180
851.082	0.0169595
851.160	0.0168057
851.238	0.0168371
851.317	0.0168198
851.395	0.0169468
851.473	0.0168633
851.551	0.0168011
851.629	0.0167696
851.707	0.0169166
851.785	0.0168829
851.863	0.0169625
851.942	0.0169904
852.020	0.0168825
852.098	0.0168703
852.176	0.0170147
852.254	0.0170129
852.332	0.0170528
852.410	0.0169405
852.488	0.0169668
852.567	0.0170055
852.645	0.0169347
852.723	0.0168724
852.801	0.0170191
852.879	0.0169794
852.957	0.0169281
853.035	0.0168814
853.113	0.0168459
853.192	0.0170892
853.270	0.0169894
853.348	0.0170440
853.426	0.0168961
853.504	0.0168982
853.582	0.0170181
853.660	0.0168799
853.738	0.0168156
853.817	0.0169846
853.895	0.0169203
853.973	0.0169765
854.051	0.0168496
854.129	0.0168439
854.207	0.0168384
854.285	0.0168936
854.363	0.0169584
854.442	0.0168607
854.520	0.0168054
854.598	0.0168487
854.676	0.0168202
854.754	0.0168726
854.832	0.0168746
854.910	0.0168436
854.988	0.0167885
855.067	0.0168288
855.145	0.0168382
855.223	0.0167530
855.301	0.0168542
855.379	0.0169313
855.457	0.0168547
855.535	0.0170309
855.613	0.0167305
855.692	0.0168423
855.770	0.0169212
855.848	0.0170010
855.926	0.0169328
856.004	0.0166992
856.082	0.0169376
856.160	0.0168540
856.238	0.0168576
856.317	0.0170863
856.395	0.0170287
856.473	0.0169402
856.551	0.0168707
856.629	0.0168458
856.707	0.0168619
856.785	0.0169946
856.863	0.0168427
856.942	0.0169047
857.020	0.0170015
857.098	0.0168583
857.176	0.0171001
857.254	0.0170229
857.332	0.0169668
857.410	0.0169100
857.488	0.0170663
857.567	0.0169530
857.645	0.0170296
857.723	0.0169640
857.801	0.0167847
857.879	0.0169242
857.957	0.0168964
858.035	0.0170026
858.113	0.0168807
858.192	0.0169858
858.270	0.0169439
858.348	0.0169126
858.426	0.0168298
858.504	0.0168816
858.582	0.0170894
858.660	0.0169160
858.738	0.0168996
858.817	0.0167896
858.895	0.0168417
858.973	0.0169728
859.051	0.0169361
859.129	0.0168816
859.207	0.0169418
859.285	0.0168491
859.363	0.0168340
859.442	0.0168746
859.520	0.0168611
859.598	0.0168874
859.676	0.0169778
859.754	0.0170071
859.832	0.0169221
859.910	0.0168307
859.988	0.0170249
860.067	0.0169715
860.145	0.0169765
860.223	0.0170133
860.301	0.0169955
860.379	0.0169705
860.457	0.0170061
860.535	0.0170371
860.613	0.0170077
860.692	0.0170184
860.770	0.0170142
860.848	0.0170263
860.926	0.0168423
861.004	0.0168441
861.082	0.0168850
861.160	0.0170509
861.238	0.0169385
861.317	0.0169009
861.395	0.0169452
861.473	0.0168683
861.551	0.0169495
861.629	0.0169427
861.707	0.0169382
861.785	0.0168474
861.863	0.0169746
861.942	0.0169212
862.020	0.0169352
862.098	0.0168689
862.176	0.0169100
862.254	0.0171056
862.332	0.0169205
862.410	0.0167559
862.488	0.0169539
862.567	0.0169224
862.645	0.0167726
862.723	0.0166860
862.801	0.0168063
862.879	0.0169851
862.957	0.0168272
863.035	0.0169561
863.113	0.0169575
863.192	0.0170149
863.270	0.0169157
863.348	0.0168629
863.426	0.0168845
863.504	0.0169539
863.582	0.0169670
863.660	0.0168769
863.738	0.0169112
863.817	0.0169765
863.895	0.0170236
863.973	0.0170293
864.051	0.0169456
864.129	0.0169903
864.207	0.0169233
864.285	0.0168842
864.363	0.0169460
864.442	0.0170647
864.520	0.0168809
864.598	0.0170224
864.676	0.0170016
864.754	0.0170639
864.832	0.0169070
864.910	0.0169997
864.988	0.0169754
865.067	0.0168970
865.145	0.0168897
865.223	0.0168822
865.301	0.0169020
865.379	0.0169272
865.457	0.0169105
865.535	0.0168112
865.613	0.0169072
865.692	0.0168186
865.770	0.0169618
865.848	0.0168482
865.926	0.0167894
866.004	0.0168072
866.082	0.0169325
866.160	0.0169364
866.238	0.0168398
866.317	0.0169526
866.395	0.0169417
866.473	0.0169183
866.551	0.0168568
866.629	0.0169107
866.707	0.0171096
866.785	0.0169914
866.863	0.0169257
866.942	0.0169276
867.020	0.0169653
867.098	0.0169698
867.176	0.0170184
867.254	0.0169780
867.332	0.0169709
867.410	0.0170153
867.488	0.0169128
867.567	0.0170075
867.645	0.0170564
867.723	0.0169817
867.801	0.0169618
867.879	0.0170999
867.957	0.0170487
868.035	0.0169776
868.113	0.0170404
868.192	0.0170393
868.270	0.0169064
868.348	0.0169701
868.426	0.0169257
868.504	0.0168357
868.582	0.0169814
868.660	0.0169328
868.738	0.0168217
868.817	0.0167728
868.895	0.0169072
868.973	0.0169952
869.051	0.0169349
869.129	0.0167684
869.207	0.0168660
869.285	0.0168925
869.363	0.0169584
869.442	0.0167532
869.520	0.0168659
869.598	0.0169123
869.676	0.0168925
869.754	0.0169097
869.832	0.0168562
869.910	0.0170626
869.988	0.0168688
870.067	0.0168893
870.145	0.0169720
870.223	0.0169431
870.301	0.0169607
870.379	0.0170074
870.457	0.0169176
870.535	0.0169842
870.613	0.0170343
870.692	0.0168906
870.770	0.0169673
870.848	0.0169993
870.926	0.0168821
871.004	0.0168318
871.082	0.0169592
871.160	0.0169279
871.238	0.0168942
871.317	0.0170684
871.395	0.0169688
871.473	0.0169497
871.551	0.0169608
871.629	0.0169302
871.707	0.0169390
871.785	0.0168205
871.863	0.0169272
871.942	0.0167984
872.020	0.0169595
872.098	0.0168977
872.176	0.0168855
872.254	0.0168209
872.332	0.0168767
872.410	0.0169650
872.488	0.0169197
872.567	0.0169119
872.645	0.0168764
872.723	0.0169483
872.801	0.0169492
872.879	0.0168762
872.957	0.0168267
873.035	0.0169374
873.113	0.0169614
873.192	0.0169986
873.270	0.0168670
873.348	0.0169053
873.426	0.0168452
873.504	0.0168246
873.582	0.0169879
873.660	0.0169972
873.738	0.0168589
873.817	0.0168291
873.895	0.0169469
873.973	0.0170818
874.051	0.0171304
874.129	0.0169347
874.207	0.0169677
874.285	0.0168476
874.363	0.0168663
874.442	0.0170234
874.520	0.0169765
874.598	0.0168968
874.676	0.0167960
874.754	0.0169414
874.832	0.0169273
874.910	0.0169188
874.988	0.0169685
875.067	0.0168691
875.145	0.0168782
875.223	0.0168539
875.301	0.0169053
875.379	0.0168600
875.457	0.0169556
875.535	0.0169724
875.613	0.0168397
875.692	0.0170010
875.770	0.0169007
875.848	0.0168654
875.926	0.0169118
876.004	0.0170152
876.082	0.0168559
876.160	0.0168448
876.238	0.0170135
876.317	0.0169530
876.395	0.0168274
876.473	0.0170388
876.551	0.0168633
876.629	0.0169726
876.707	0.0169260
876.785	0.0170683
876.863	0.0171337
876.942	0.0169649
877.020	0.0169370
877.098	0.0170574
877.176	0.0170122
877.254	0.0169773
877.332	0.0168871
877.410	0.0168981
877.488	0.0170814
877.567	0.0169184
877.645	0.0169601
877.723	0.0170892
877.801	0.0169894
877.879	0.0168362
877.957	0.0170536
878.035	0.0169329
878.113	0.0169606
878.192	0.0169215
878.270	0.0169625
878.348	0.0169004
878.426	0.0169112
878.504	0.0170673
878.582	0.0168722
878.660	0.0169550
878.738	0.0169125
878.817	0.0168559
878.895	0.0168520
878.973	0.0170341
879.051	0.0169061
879.129	0.0167711
879.207	0.0169589
879.285	0.0169245
879.363	0.0167876
879.442	0.0168317
879.520	0.0168208
879.598	0.0167972
879.676	0.0167930
879.754	0.0169014
879.832	0.0169547
879.910	0.0168536
879.988	0.0168912
880.067	0.0167560
880.145	0.0168388
880.223	0.0169262
880.301	0.0168959
880.379	0.0168992
880.457	0.0168613
880.535	0.0168010
880.613	0.0168987
880.692	0.0168574
880.770	0.0168652
880.848	0.0169510
880.926	0.0169410
881.004	0.0168853
881.082	0.0170180
881.160	0.0169125
881.238	0.0169922
881.317	0.0170209
881.395	0.0167941
881.473	0.0168315
881.551	0.0168395
881.629	0.0168317
881.707	0.0166667
881.785	0.0166370
881.863	0.0168189
881.942	0.0166850
882.020	0.0167317
882.098	0.0168855
882.176	0.0168175
882.254	0.0169498
882.332	0.0170741
882.410	0.0170493
882.488	0.0171247
882.567	0.0171365
882.645	0.0170579
882.723	0.0170642
882.801	0.0169667
882.879	0.0168590
882.957	0.0168112
883.035	0.0167167
883.113	0.0165125
883.192	0.0165955
883.270	0.0166879
883.348	0.0166684
883.426	0.0166481
883.504	0.0169058
883.582	0.0169732
883.660	0.0168682
883.738	0.0169970
883.817	0.0170839
883.895	0.0170510
883.973	0.0170796
884.051	0.0170477
884.129	0.0169797
884.207	0.0170202
884.285	0.0169460
884.363	0.0168598
884.442	0.0169442
884.520	0.0166880
884.598	0.0167190
884.676	0.0168643
884.754	0.0168626
884.832	0.0168617
884.910	0.0167618
884.988	0.0167368
885.067	0.0168629
885.145	0.0168957
885.223	0.0169009
885.301	0.0169061
885.379	0.0171225
885.457	0.0171445
885.535	0.0170314
885.613	0.0171107
885.692	0.0171065
885.770	0.0170626
885.848	0.0170808
885.926	0.0171294
886.004	0.0170702
886.082	0.0170835
886.160	0.0169424
886.238	0.0169246
886.317	0.0168226
886.395	0.0166545
886.473	0.0167548
886.551	0.0167833
886.629	0.0167519
886.707	0.0168658
886.785	0.0168179
886.863	0.0167796
886.942	0.0167809
887.020	0.0169541
887.098	0.0167984
887.176	0.0169021
887.254	0.0169904
887.332	0.0169267
887.410	0.0169395
887.488	0.0169556
887.567	0.0168946
887.645	0.0169118
887.723	0.0168630
887.801	0.0167516
887.879	0.0170224
887.957	0.0168877
888.035	0.0169011
888.113	0.0170707
888.192	0.0169864
888.270	0.0168455
888.348	0.0168460
888.426	0.0168736
888.504	0.0168999
888.582	0.0170248
888.660	0.0169403
888.738	0.0169018
888.817	0.0170266
888.895	0.0169978
888.973	0.0170346
889.051	0.0169488
889.129	0.0169527
889.207	0.0169386
889.285	0.0169067
889.363	0.0168131
889.442	0.0168149
889.520	0.0168076
889.598	0.0168050
889.676	0.0168409
889.754	0.0167732
889.832	0.0168967
889.910	0.0169221
889.988	0.0167318
890.067	0.0168511
890.145	0.0169696
890.223	0.0170046
890.301	0.0168370
890.379	0.0169106
890.457	0.0169073
890.535	0.0169415
890.613	0.0169751
890.692	0.0169530
890.770	0.0168820
890.848	0.0169519
890.926	0.0169477
891.004	0.0170230
891.082	0.0169428
891.160	0.0171073
891.238	0.0170831
891.317	0.0169141
891.395	0.0169987
891.473	0.0170125
891.551	0.0170601
891.629	0.0167895
891.707	0.0168851
891.785	0.0168198
891.863	0.0168185
891.942	0.0169630
892.020	0.0169299
892.098	0.0168636
892.176	0.0169159
892.254	0.0168788
892.332	0.0168865
892.410	0.0168026
892.488	0.0166629
892.567	0.0168246
892.645	0.0168310
892.723	0.0167561
892.801	0.0167739
892.879	0.0168565
892.957	0.0169048
893.035	0.0168998
893.113	0.0167680
893.192	0.0168697
893.270	0.0168713
893.348	0.0167850
893.426	0.0166920
893.504	0.0168790
893.582	0.0168876
893.660	0.0168378
893.738	0.0167822
893.817	0.0168497
893.895	0.0169296
893.973	0.0170607
894.051	0.0168315
894.129	0.0169644
894.207	0.0168754
894.285	0.0168716
894.363	0.0170013
894.442	0.0169421
894.520	0.0169559
894.598	0.0171679
894.676	0.0169682
894.754	0.0169501
894.832	0.0169691
894.910	0.0169398
894.988	0.0169973
895.067	0.0169758
895.145	0.0169257
895.223	0.0168819
895.301	0.0167771
895.379	0.0169522
895.457	0.0167960
895.535	0.0168081
895.613	0.0168104
895.692	0.0168679
895.770	0.0169398
895.848	0.0167422
895.926	0.0168614
896.004	0.0168962
896.082	0.0168274
896.160	0.0169780
896.238	0.0167812
896.317	0.0168054
896.395	0.0168671
896.473	0.0169585
896.551	0.0169012
896.629	0.0168439
896.707	0.0168952
896.785	0.0168215
896.863	0.0168715
896.942	0.0168594
897.020	0.0168440
897.098	0.0169904
897.176	0.0169177
897.254	0.0169544
897.332	0.0168205
897.410	0.0167960
897.488	0.0168531
897.567	0.0168759
897.645	0.0168561
897.723	0.0170038
897.801	0.0168937
897.879	0.0168874
897.957	0.0169016
898.035	0.0168125
898.113	0.0170308
898.192	0.0169424
898.270	0.0167638
898.348	0.0168301
898.426	0.0167753
898.504	0.0168108
898.582	0.0167792
898.660	0.0168502
898.738	0.0167451
898.817	0.0166604
898.895	0.0167802
898.973	0.0167677
899.051	0.0168101
899.129	0.0167697
899.207	0.0167726
899.285	0.0168975
899.363	0.0168539
899.442	0.0168369
899.520	0.0169147
899.598	0.0168887
899.676	0.0169955
899.754	0.0169090
899.832	0.0169503
899.910	0.0168415
899.988	0.0170252
900.067	0.0169181
900.145	0.0168674
900.223	0.0168854
900.301	0.0168498
900.379	0.0169633
900.457	0.0168732
900.535	0.0168781
900.613	0.0169042
900.692	0.0168375
900.770	0.0167889
900.848	0.0168092
900.926	0.0168354
901.004	0.0168441
901.082	0.0169878
901.160	0.0170203
901.238	0.0169131
901.317	0.0168995
901.395	0.0169016
901.473	0.0168825
901.551	0.0170362
901.629	0.0169628
901.707	0.0167252
901.785	0.0169340
901.863	0.0168673
901.942	0.0168754
902.020	0.0168092
902.098	0.0167696
902.176	0.0167798
902.254	0.0167424
902.332	0.0168921
902.410	0.0168951
902.488	0.0168900
902.567	0.0168330
902.645	0.0169958
902.723	0.0167893
902.801	0.0169879
902.879	0.0169271
902.957	0.0170078
903.035	0.0168806
903.113	0.0169081
903.192	0.0170758
903.270	0.0170580
903.348	0.0169682
903.426	0.0168580
903.504	0.0170289
903.582	0.0169727
903.660	0.0168684
903.738	0.0168038
903.817	0.0167304
903.895	0.0167232
903.973	0.0167484
904.051	0.0168756
904.129	0.0168213
904.207	0.0167957
904.285	0.0168326
904.363	0.0169157
904.442	0.0168011
904.520	0.0168316
904.598	0.0167838
904.676	0.0169023
904.754	0.0168627
904.832	0.0170266
904.910	0.0168774
904.988	0.0168512
905.067	0.0169753
905.145	0.0170317
905.223	0.0168073
905.301	0.0167905
905.379	0.0168858
905.457	0.0168930
905.535	0.0169530
905.613	0.0168692
905.692	0.0169247
905.770	0.0168170
905.848	0.0169090
905.926	0.0168002
906.004	0.0167496
906.082	0.0169380
906.160	0.0169333
906.238	0.0169559
906.317	0.0168345
906.395	0.0168871
906.473	0.0168594
906.551	0.0167736
906.629	0.0170327
906.707	0.0169775
906.785	0.0167819
906.863	0.0169640
906.942	0.0169085
907.020	0.0169830
907.098	0.0169993
907.176	0.0168945
907.254	0.0169067
907.332	0.0168320
907.410	0.0169310
907.488	0.0169930
907.567	0.0168423
907.645	0.0168122
907.723	0.0167674
907.801	0.0169061
907.879	0.0168657
907.957	0.0168978
908.035	0.0168245
908.113	0.0169111
908.192	0.0168685
908.270	0.0170094
908.348	0.0168537
908.426	0.0169229
908.504	0.0169960
908.582	0.0169158
908.660	0.0169172
908.738	0.0169576
908.817	0.0170203
908.895	0.0169181
908.973	0.0169307
909.051	0.0168213
909.129	0.0168406
909.207	0.0170068
909.285	0.0170130
909.363	0.0168988
909.442	0.0168958
909.520	0.0169852
909.598	0.0170111
909.676	0.0169745
909.754	0.0169313
909.832	0.0169078
909.910	0.0170090
909.988	0.0169099
910.067	0.0168158
910.145	0.0169652
910.223	0.0169876
910.301	0.0169077
910.379	0.0169418
910.457	0.0169684
910.535	0.0169991
910.613	0.0169180
910.692	0.0168778
910.770	0.0169868
910.848	0.0169638
910.926	0.0169890
911.004	0.0169366
911.082	0.0167536
911.160	0.0168956
911.238	0.0168429
911.317	0.0168153
911.395	0.0168861
911.473	0.0169078
911.551	0.0168420
911.629	0.0168580
911.707	0.0169034
911.785	0.0168501
911.863	0.0169846
911.942	0.0170568
912.020	0.0169570
912.098	0.0169197
912.176	0.0169819
912.254	0.0168390
912.332	0.0169450
912.410	0.0170525
912.488	0.0170266
912.567	0.0169588
912.645	0.0169318
912.723	0.0169768
912.801	0.0170126
912.879	0.0169053
912.957	0.0168961
913.035	0.0169286
913.113	0.0168786
913.192	0.0167991
913.270	0.0169441
913.348	0.0170699
913.426	0.0171160
913.504	0.0170621
913.582	0.0169414
913.660	0.0169505
913.738	0.0170496
913.817	0.0169104
913.895	0.0170507
913.973	0.0169895
914.051	0.0170344
914.129	0.0169154
914.207	0.0169341
914.285	0.0169728
914.363	0.0169618
914.442	0.0169878
914.520	0.0168263
914.598	0.0169404
914.676	0.0167914
914.754	0.0168246
914.832	0.0168933
914.910	0.0169950
914.988	0.0168951
915.067	0.0168549
915.145	0.0169634
915.223	0.0168914
915.301	0.0168750
915.379	0.0168529
915.457	0.0168342
915.535	0.0168337
915.613	0.0168311
915.692	0.0168607
915.770	0.0167597
915.848	0.0169846
915.926	0.0169469
916.004	0.0171027
916.082	0.0167498
916.160	0.0168669
916.238	0.0170297
916.317	0.0168114
916.395	0.0169234
916.473	0.0169467
916.551	0.0167961
916.629	0.0168902
916.707	0.0168800
916.785	0.0169308
916.863	0.0167446
916.942	0.0169038
917.020	0.0168764
917.098	0.0169080
917.176	0.0168531
917.254	0.0169626
917.332	0.0170041
917.410	0.0168567
917.488	0.0169950
917.567	0.0169315
917.645	0.0168898
917.723	0.0170374
917.801	0.0170263
917.879	0.0168108
917.957	0.0168900
918.035	0.0169746
918.113	0.0169027
918.192	0.0168583
918.270	0.0169382
918.348	0.0168409
918.426	0.0169917
918.504	0.0169587
918.582	0.0169417
918.660	0.0169326
918.738	0.0169170
918.817	0.0169553
918.895	0.0169037
918.973	0.0169141
919.051	0.0169926
919.129	0.0169781
919.207	0.0169786
919.285	0.0168159
919.363	0.0169321
919.442	0.0169547
919.520	0.0168601
919.598	0.0170283
919.676	0.0169101
919.754	0.0170048
919.832	0.0169352
919.910	0.0168138
