06/03/2022	14:20:31	Ver.	4.1	UNKNOWN
Optical Delay	599.981738	Delta X		0.078125	Sweeps	1	Scan Rate	0/0
Coordinates	Axis 1	NaN	Axis 2	NaN	Axis 3	NaN	Axis 4	NaN	Axis 5	NaN	Axis 6	0.000000
TX Power	0.000000	RX Power	0.000000

599.982	0.0180870
600.060	0.0180915
600.138	0.0181798
600.216	0.0181145
600.294	0.0181591
600.372	0.0181523
600.450	0.0182232
600.529	0.0181439
600.607	0.0180184
600.685	0.0181207
600.763	0.0180401
600.841	0.0180499
600.919	0.0181296
600.997	0.0181085
601.075	0.0181983
601.154	0.0182520
601.232	0.0182156
601.310	0.0180240
601.388	0.0182737
601.466	0.0183682
601.544	0.0181287
601.622	0.0183298
601.700	0.0182019
601.779	0.0182264
601.857	0.0182918
601.935	0.0182401
602.013	0.0181684
602.091	0.0181082
602.169	0.0181488
602.247	0.0181985
602.325	0.0182227
602.404	0.0182076
602.482	0.0182690
602.560	0.0181482
602.638	0.0180804
602.716	0.0180659
602.794	0.0183383
602.872	0.0182433
602.950	0.0181490
603.029	0.0182150
603.107	0.0182343
603.185	0.0183012
603.263	0.0182853
603.341	0.0183134
603.419	0.0183133
603.497	0.0182732
603.575	0.0181243
603.654	0.0182458
603.732	0.0183108
603.810	0.0180137
603.888	0.0181706
603.966	0.0182901
604.044	0.0181834
604.122	0.0181828
604.200	0.0182050
604.279	0.0183141
604.357	0.0183170
604.435	0.0182262
604.513	0.0183959
604.591	0.0185151
604.669	0.0182711
604.747	0.0185066
604.825	0.0184063
604.904	0.0184854
604.982	0.0182985
605.060	0.0183531
605.138	0.0184541
605.216	0.0181850
605.294	0.0182808
605.372	0.0181213
605.450	0.0182162
605.529	0.0183395
605.607	0.0181411
605.685	0.0182397
605.763	0.0182423
605.841	0.0181612
605.919	0.0182268
605.997	0.0183099
606.075	0.0183257
606.154	0.0183212
606.232	0.0182211
606.310	0.0183315
606.388	0.0182485
606.466	0.0183083
606.544	0.0182771
606.622	0.0183805
606.700	0.0183226
606.779	0.0181818
606.857	0.0180969
606.935	0.0179807
607.013	0.0182283
607.091	0.0180932
607.169	0.0181467
607.247	0.0182231
607.325	0.0182488
607.404	0.0182519
607.482	0.0182973
607.560	0.0182788
607.638	0.0183184
607.716	0.0181389
607.794	0.0183293
607.872	0.0182992
607.950	0.0182603
608.029	0.0182206
608.107	0.0181547
608.185	0.0181049
608.263	0.0181602
608.341	0.0180270
608.419	0.0180839
608.497	0.0180804
608.575	0.0181010
608.654	0.0180956
608.732	0.0180970
608.810	0.0182360
608.888	0.0181150
608.966	0.0181399
609.044	0.0182386
609.122	0.0181689
609.200	0.0181885
609.279	0.0180479
609.357	0.0181985
609.435	0.0182214
609.513	0.0181014
609.591	0.0181781
609.669	0.0181377
609.747	0.0180676
609.825	0.0180379
609.904	0.0179581
609.982	0.0179942
610.060	0.0179214
610.138	0.0181110
610.216	0.0183244
610.294	0.0181277
610.372	0.0182122
610.450	0.0181629
610.529	0.0182594
610.607	0.0183543
610.685	0.0182914
610.763	0.0182274
610.841	0.0181816
610.919	0.0182008
610.997	0.0182764
611.075	0.0181082
611.154	0.0182285
611.232	0.0179616
611.310	0.0181602
611.388	0.0182252
611.466	0.0180853
611.544	0.0181043
611.622	0.0182220
611.700	0.0180866
611.779	0.0181340
611.857	0.0181547
611.935	0.0181851
612.013	0.0181259
612.091	0.0182056
612.169	0.0181735
612.247	0.0181292
612.325	0.0181078
612.404	0.0181723
612.482	0.0182822
612.560	0.0181586
612.638	0.0181216
612.716	0.0181604
612.794	0.0182901
612.872	0.0182672
612.950	0.0181572
613.029	0.0180157
613.107	0.0181828
613.185	0.0181371
613.263	0.0180999
613.341	0.0180823
613.419	0.0181532
613.497	0.0181706
613.575	0.0182291
613.654	0.0182446
613.732	0.0181348
613.810	0.0182689
613.888	0.0182536
613.966	0.0183426
614.044	0.0182946
614.122	0.0182055
614.200	0.0183356
614.279	0.0181367
614.357	0.0180818
614.435	0.0181805
614.513	0.0180775
614.591	0.0182232
614.669	0.0182380
614.747	0.0180628
614.825	0.0181328
614.904	0.0181462
614.982	0.0182664
615.060	0.0181842
615.138	0.0180534
615.216	0.0180921
615.294	0.0181168
615.372	0.0181474
615.450	0.0181374
615.529	0.0179057
615.607	0.0179382
615.685	0.0180840
615.763	0.0178920
615.841	0.0178964
615.919	0.0179881
615.997	0.0180006
616.075	0.0179381
616.154	0.0179048
616.232	0.0179057
616.310	0.0180662
616.388	0.0180276
616.466	0.0180341
616.544	0.0181040
616.622	0.0180822
616.700	0.0180422
616.779	0.0181828
616.857	0.0179099
616.935	0.0181173
617.013	0.0180730
617.091	0.0180834
617.169	0.0179507
617.247	0.0180730
617.325	0.0180640
617.404	0.0180465
617.482	0.0180608
617.560	0.0179306
617.638	0.0180861
617.716	0.0180618
617.794	0.0180556
617.872	0.0180879
617.950	0.0179694
618.029	0.0180175
618.107	0.0181513
618.185	0.0182012
618.263	0.0182538
618.341	0.0182654
618.419	0.0181168
618.497	0.0181815
618.575	0.0179375
618.654	0.0181073
618.732	0.0180273
618.810	0.0180852
618.888	0.0179243
618.966	0.0180458
619.044	0.0180888
619.122	0.0181378
619.200	0.0180410
619.279	0.0181254
619.357	0.0182291
619.435	0.0180560
619.513	0.0180647
619.591	0.0183216
619.669	0.0182394
619.747	0.0181307
619.825	0.0180549
619.904	0.0180837
619.982	0.0181315
620.060	0.0182526
620.138	0.0180701
620.216	0.0180308
620.294	0.0180843
620.372	0.0180810
620.450	0.0181315
620.529	0.0181105
620.607	0.0181100
620.685	0.0180082
620.763	0.0180408
620.841	0.0182572
620.919	0.0181826
620.997	0.0182310
621.075	0.0180745
621.154	0.0181991
621.232	0.0181343
621.310	0.0180354
621.388	0.0182209
621.466	0.0181194
621.544	0.0180223
621.622	0.0181689
621.700	0.0182961
621.779	0.0183507
621.857	0.0181138
621.935	0.0181587
622.013	0.0182162
622.091	0.0181812
622.169	0.0181359
622.247	0.0180917
622.325	0.0181026
622.404	0.0181818
622.482	0.0181802
622.560	0.0181871
622.638	0.0180786
622.716	0.0181467
622.794	0.0181919
622.872	0.0181252
622.950	0.0182156
623.029	0.0182143
623.107	0.0181358
623.185	0.0182154
623.263	0.0181733
623.341	0.0181512
623.419	0.0181807
623.497	0.0183047
623.575	0.0183521
623.654	0.0183194
623.732	0.0181911
623.810	0.0182335
623.888	0.0180788
623.966	0.0181951
624.044	0.0180970
624.122	0.0181550
624.200	0.0181869
624.279	0.0181260
624.357	0.0181606
624.435	0.0182526
624.513	0.0182047
624.591	0.0183614
624.669	0.0181543
624.747	0.0180389
624.825	0.0181747
624.904	0.0181074
624.982	0.0181465
625.060	0.0181859
625.138	0.0181889
625.216	0.0182282
625.294	0.0182046
625.372	0.0181195
625.450	0.0181319
625.529	0.0182685
625.607	0.0182207
625.685	0.0182552
625.763	0.0181297
625.841	0.0181174
625.919	0.0181882
625.997	0.0181360
626.075	0.0180527
626.154	0.0181123
626.232	0.0181556
626.310	0.0182479
626.388	0.0182230
626.466	0.0180119
626.544	0.0179932
626.622	0.0180328
626.700	0.0180937
626.779	0.0182435
626.857	0.0181754
626.935	0.0179684
627.013	0.0179993
627.091	0.0183150
627.169	0.0181905
627.247	0.0181571
627.325	0.0180100
627.404	0.0180138
627.482	0.0182312
627.560	0.0181527
627.638	0.0181615
627.716	0.0181002
627.794	0.0180385
627.872	0.0180196
627.950	0.0180109
628.029	0.0179731
628.107	0.0180581
628.185	0.0182341
628.263	0.0180371
628.341	0.0179810
628.419	0.0181834
628.497	0.0181440
628.575	0.0181485
628.654	0.0181800
628.732	0.0180772
628.810	0.0182374
628.888	0.0182026
628.966	0.0180807
629.044	0.0181893
629.122	0.0181456
629.200	0.0180923
629.279	0.0179967
629.357	0.0180823
629.435	0.0179878
629.513	0.0180694
629.591	0.0179911
629.669	0.0179582
629.747	0.0180880
629.825	0.0180788
629.904	0.0180727
629.982	0.0180573
630.060	0.0182245
630.138	0.0180504
630.216	0.0181045
630.294	0.0181863
630.372	0.0181577
630.450	0.0180587
630.529	0.0181525
630.607	0.0180740
630.685	0.0180386
630.763	0.0180009
630.841	0.0183567
630.919	0.0182639
630.997	0.0180778
631.075	0.0180473
631.154	0.0179958
631.232	0.0181747
631.310	0.0182184
631.388	0.0180246
631.466	0.0181165
631.544	0.0180025
631.622	0.0180074
631.700	0.0180173
631.779	0.0179332
631.857	0.0180270
631.935	0.0180158
632.013	0.0181287
632.091	0.0181186
632.169	0.0182976
632.247	0.0180413
632.325	0.0178905
632.404	0.0180724
632.482	0.0180759
632.560	0.0180302
632.638	0.0180426
632.716	0.0179398
632.794	0.0182314
632.872	0.0182767
632.950	0.0180644
633.029	0.0181193
633.107	0.0181339
633.185	0.0181116
633.263	0.0180396
633.341	0.0181414
633.419	0.0183160
633.497	0.0181696
633.575	0.0181396
633.654	0.0182037
633.732	0.0182506
633.810	0.0181583
633.888	0.0182265
633.966	0.0180822
634.044	0.0180634
634.122	0.0182928
634.200	0.0180505
634.279	0.0182203
634.357	0.0183108
634.435	0.0181370
634.513	0.0181685
634.591	0.0182607
634.669	0.0181709
634.747	0.0183084
634.825	0.0183650
634.904	0.0181761
634.982	0.0184074
635.060	0.0182957
635.138	0.0182555
635.216	0.0181732
635.294	0.0182355
635.372	0.0182337
635.450	0.0180431
635.529	0.0181226
635.607	0.0182029
635.685	0.0182474
635.763	0.0181110
635.841	0.0182186
635.919	0.0181037
635.997	0.0181537
636.075	0.0181984
636.154	0.0182225
636.232	0.0181736
636.310	0.0180169
636.388	0.0181951
636.466	0.0179906
636.544	0.0182384
636.622	0.0182880
636.700	0.0180639
636.779	0.0182206
636.857	0.0181691
636.935	0.0181496
637.013	0.0181365
637.091	0.0181562
637.169	0.0182584
637.247	0.0183409
637.325	0.0182922
637.404	0.0181338
637.482	0.0180034
637.560	0.0181983
637.638	0.0181874
637.716	0.0181806
637.794	0.0180963
637.872	0.0181034
637.950	0.0182555
638.029	0.0181080
638.107	0.0180775
638.185	0.0180109
638.263	0.0179832
638.341	0.0181517
638.419	0.0180101
638.497	0.0180736
638.575	0.0180354
638.654	0.0178664
638.732	0.0180016
638.810	0.0181519
638.888	0.0181656
638.966	0.0180230
639.044	0.0180916
639.122	0.0182362
639.200	0.0181680
639.279	0.0182599
639.357	0.0181886
639.435	0.0181100
639.513	0.0181506
639.591	0.0181487
639.669	0.0181881
639.747	0.0182069
639.825	0.0180466
639.904	0.0181628
639.982	0.0181541
640.060	0.0181390
640.138	0.0180592
640.216	0.0182383
640.294	0.0181284
640.372	0.0180166
640.450	0.0179306
640.529	0.0180640
640.607	0.0180424
640.685	0.0179444
640.763	0.0179761
640.841	0.0179400
640.919	0.0179321
640.997	0.0180260
641.075	0.0179952
641.154	0.0179739
641.232	0.0181573
641.310	0.0180706
641.388	0.0179873
641.466	0.0180480
641.544	0.0179224
641.622	0.0180311
641.700	0.0181559
641.779	0.0181958
641.857	0.0180775
641.935	0.0181179
642.013	0.0180906
642.091	0.0179438
642.169	0.0180172
642.247	0.0182610
642.325	0.0183289
642.404	0.0180752
642.482	0.0182211
642.560	0.0181573
642.638	0.0182600
642.716	0.0182221
642.794	0.0181920
642.872	0.0181670
642.950	0.0182089
643.029	0.0181778
643.107	0.0182644
643.185	0.0182167
643.263	0.0179794
643.341	0.0180835
643.419	0.0182124
643.497	0.0182002
643.575	0.0180797
643.654	0.0181636
643.732	0.0181866
643.810	0.0180884
643.888	0.0181355
643.966	0.0181403
644.044	0.0180552
644.122	0.0180560
644.200	0.0182332
644.279	0.0180322
644.357	0.0180756
644.435	0.0181919
644.513	0.0182686
644.591	0.0182104
644.669	0.0179655
644.747	0.0181128
644.825	0.0181445
644.904	0.0180283
644.982	0.0180065
645.060	0.0181619
645.138	0.0180575
645.216	0.0180528
645.294	0.0180413
645.372	0.0180190
645.450	0.0181557
645.529	0.0181512
645.607	0.0180270
645.685	0.0180496
645.763	0.0180690
645.841	0.0180775
645.919	0.0180914
645.997	0.0179467
646.075	0.0180782
646.154	0.0181242
646.232	0.0180364
646.310	0.0181503
646.388	0.0180339
646.466	0.0180434
646.544	0.0180753
646.622	0.0181185
646.700	0.0181124
646.779	0.0182063
646.857	0.0180891
646.935	0.0180674
647.013	0.0182348
647.091	0.0181659
647.169	0.0182057
647.247	0.0182088
647.325	0.0182053
647.404	0.0182080
647.482	0.0182022
647.560	0.0182113
647.638	0.0182173
647.716	0.0184480
647.794	0.0182217
647.872	0.0182177
647.950	0.0181348
648.029	0.0181882
648.107	0.0182093
648.185	0.0182367
648.263	0.0180853
648.341	0.0179702
648.419	0.0181351
648.497	0.0181048
648.575	0.0180200
648.654	0.0182140
648.732	0.0180460
648.810	0.0180726
648.888	0.0180107
648.966	0.0181390
649.044	0.0180972
649.122	0.0181020
649.200	0.0181873
649.279	0.0180372
649.357	0.0180949
649.435	0.0180492
649.513	0.0181226
649.591	0.0179518
649.669	0.0180653
649.747	0.0181932
649.825	0.0180576
649.904	0.0180663
649.982	0.0182081
650.060	0.0179974
650.138	0.0179337
650.216	0.0179311
650.294	0.0180280
650.372	0.0179575
650.450	0.0180508
650.529	0.0179635
650.607	0.0180229
650.685	0.0179551
650.763	0.0179876
650.841	0.0180130
650.919	0.0179821
650.997	0.0180627
651.075	0.0179975
651.154	0.0181123
651.232	0.0181156
651.310	0.0181769
651.388	0.0180368
651.466	0.0181126
651.544	0.0181960
651.622	0.0182897
651.700	0.0184191
651.779	0.0182054
651.857	0.0183183
651.935	0.0182018
652.013	0.0182812
652.091	0.0183255
652.169	0.0183064
652.247	0.0183865
652.325	0.0181507
652.404	0.0183553
652.482	0.0183639
652.560	0.0182465
652.638	0.0182075
652.716	0.0182416
652.794	0.0182745
652.872	0.0182100
652.950	0.0181499
653.029	0.0183271
653.107	0.0181923
653.185	0.0181006
653.263	0.0181157
653.341	0.0180634
653.419	0.0180168
653.497	0.0178638
653.575	0.0180235
653.654	0.0179877
653.732	0.0179642
653.810	0.0179474
653.888	0.0180331
653.966	0.0178506
654.044	0.0180170
654.122	0.0178330
654.200	0.0180003
654.279	0.0181060
654.357	0.0181418
654.435	0.0180263
654.513	0.0181203
654.591	0.0181100
654.669	0.0179641
654.747	0.0181087
654.825	0.0183531
654.904	0.0181525
654.982	0.0180413
655.060	0.0181670
655.138	0.0182554
655.216	0.0182012
655.294	0.0181091
655.372	0.0181848
655.450	0.0181340
655.529	0.0182383
655.607	0.0182011
655.685	0.0183264
655.763	0.0182901
655.841	0.0181420
655.919	0.0181476
655.997	0.0181692
656.075	0.0180836
656.154	0.0180109
656.232	0.0180483
656.310	0.0181281
656.388	0.0180774
656.466	0.0180672
656.544	0.0179778
656.622	0.0181110
656.700	0.0180139
656.779	0.0179495
656.857	0.0180397
656.935	0.0180312
657.013	0.0180065
657.091	0.0181593
657.169	0.0181595
657.247	0.0181463
657.325	0.0181210
657.404	0.0181229
657.482	0.0181535
657.560	0.0182088
657.638	0.0180934
657.716	0.0182417
657.794	0.0182809
657.872	0.0180466
657.950	0.0181596
658.029	0.0181878
658.107	0.0182195
658.185	0.0182276
658.263	0.0181927
658.341	0.0182008
658.419	0.0181632
658.497	0.0182168
658.575	0.0183356
658.654	0.0182298
658.732	0.0181260
658.810	0.0183573
658.888	0.0181631
658.966	0.0181486
659.044	0.0183283
659.122	0.0182028
659.200	0.0181856
659.279	0.0181686
659.357	0.0180908
659.435	0.0180598
659.513	0.0180804
659.591	0.0180486
659.669	0.0180145
659.747	0.0180112
659.825	0.0180291
659.904	0.0181774
659.982	0.0180611
660.060	0.0179720
660.138	0.0180580
660.216	0.0181863
660.294	0.0180401
660.372	0.0181594
660.450	0.0181399
660.529	0.0182281
660.607	0.0181296
660.685	0.0183023
660.763	0.0181657
660.841	0.0183182
660.919	0.0183810
660.997	0.0181415
661.075	0.0183772
661.154	0.0183596
661.232	0.0181816
661.310	0.0182686
661.388	0.0183017
661.466	0.0182504
661.544	0.0182079
661.622	0.0182052
661.700	0.0181898
661.779	0.0181575
661.857	0.0182297
661.935	0.0181223
662.013	0.0181544
662.091	0.0181565
662.169	0.0180740
662.247	0.0181062
662.325	0.0181607
662.404	0.0182139
662.482	0.0180596
662.560	0.0179253
662.638	0.0181361
662.716	0.0182840
662.794	0.0182156
662.872	0.0181811
662.950	0.0181902
663.029	0.0183871
663.107	0.0181700
663.185	0.0182732
663.263	0.0183861
663.341	0.0183646
663.419	0.0183345
663.497	0.0183827
663.575	0.0184249
663.654	0.0184391
663.732	0.0183393
663.810	0.0182257
663.888	0.0183643
663.966	0.0182745
664.044	0.0183347
664.122	0.0181588
664.200	0.0182484
664.279	0.0182692
664.357	0.0180261
664.435	0.0179619
664.513	0.0180077
664.591	0.0180939
664.669	0.0181419
664.747	0.0181078
664.825	0.0181350
664.904	0.0181216
664.982	0.0181175
665.060	0.0181499
665.138	0.0181481
665.216	0.0181723
665.294	0.0181952
665.372	0.0181034
665.450	0.0181731
665.529	0.0183621
665.607	0.0182200
665.685	0.0181478
665.763	0.0181640
665.841	0.0181809
665.919	0.0182955
665.997	0.0181740
666.075	0.0181728
666.154	0.0180996
666.232	0.0181120
666.310	0.0182353
666.388	0.0181882
666.466	0.0182639
666.544	0.0181760
666.622	0.0181207
666.700	0.0182455
666.779	0.0183787
666.857	0.0182473
666.935	0.0181958
667.013	0.0182981
667.091	0.0183144
667.169	0.0183476
667.247	0.0183325
667.325	0.0183366
667.404	0.0182536
667.482	0.0183150
667.560	0.0183662
667.638	0.0181450
667.716	0.0181144
667.794	0.0181497
667.872	0.0181826
667.950	0.0181340
668.029	0.0180663
668.107	0.0180344
668.185	0.0180748
668.263	0.0180881
668.341	0.0181780
668.419	0.0179673
668.497	0.0180459
668.575	0.0179408
668.654	0.0178970
668.732	0.0180083
668.810	0.0180528
668.888	0.0178822
668.966	0.0179395
669.044	0.0180812
669.122	0.0179897
669.200	0.0178786
669.279	0.0179240
669.357	0.0179649
669.435	0.0177822
669.513	0.0178821
669.591	0.0179461
669.669	0.0179398
669.747	0.0179991
669.825	0.0178368
669.904	0.0178777
669.982	0.0180962
670.060	0.0180391
670.138	0.0180241
670.216	0.0180946
670.294	0.0180575
670.372	0.0181443
670.450	0.0180988
670.529	0.0180981
670.607	0.0180621
670.685	0.0181794
670.763	0.0178733
670.841	0.0181559
670.919	0.0180551
670.997	0.0180856
671.075	0.0181388
671.154	0.0182079
671.232	0.0179835
671.310	0.0180885
671.388	0.0181060
671.466	0.0181816
671.544	0.0181687
671.622	0.0181670
671.700	0.0182273
671.779	0.0183471
671.857	0.0183323
671.935	0.0182529
672.013	0.0182581
672.091	0.0183927
672.169	0.0183247
672.247	0.0182890
672.325	0.0183475
672.404	0.0182310
672.482	0.0183003
672.560	0.0184159
672.638	0.0182529
672.716	0.0182279
672.794	0.0181900
672.872	0.0182098
672.950	0.0182180
673.029	0.0181279
673.107	0.0179400
673.185	0.0180029
673.263	0.0179304
673.341	0.0179068
673.419	0.0179420
673.497	0.0177932
673.575	0.0179626
673.654	0.0180306
673.732	0.0179917
673.810	0.0180742
673.888	0.0182089
673.966	0.0181032
674.044	0.0182254
674.122	0.0183125
674.200	0.0184846
674.279	0.0183762
674.357	0.0184698
674.435	0.0185484
674.513	0.0186116
674.591	0.0182891
674.669	0.0184663
674.747	0.0185884
674.825	0.0183228
674.904	0.0183636
674.982	0.0183218
675.060	0.0183392
675.138	0.0182366
675.216	0.0181817
675.294	0.0182854
675.372	0.0181328
675.450	0.0179486
675.529	0.0179436
675.607	0.0179479
675.685	0.0181084
675.763	0.0178801
675.841	0.0177879
675.919	0.0177312
675.997	0.0178412
676.075	0.0178001
676.154	0.0179286
676.232	0.0177936
676.310	0.0177537
676.388	0.0179056
676.466	0.0178157
676.544	0.0179185
676.622	0.0178654
676.700	0.0178497
676.779	0.0180206
676.857	0.0179588
676.935	0.0180893
677.013	0.0181030
677.091	0.0181116
677.169	0.0180372
677.247	0.0182279
677.325	0.0182511
677.404	0.0181629
677.482	0.0181920
677.560	0.0183349
677.638	0.0182795
677.716	0.0181796
677.794	0.0182061
677.872	0.0181384
677.950	0.0182236
678.029	0.0183186
678.107	0.0183517
678.185	0.0182224
678.263	0.0182166
678.341	0.0182036
678.419	0.0182891
678.497	0.0181290
678.575	0.0182877
678.654	0.0182402
678.732	0.0181863
678.810	0.0182333
678.888	0.0182888
678.966	0.0182671
679.044	0.0183823
679.122	0.0183531
679.200	0.0182252
679.279	0.0182391
679.357	0.0184245
679.435	0.0181530
679.513	0.0184136
679.591	0.0182168
679.669	0.0182427
679.747	0.0183186
679.825	0.0184698
679.904	0.0183038
679.982	0.0182596
680.060	0.0182104
680.138	0.0181001
680.216	0.0183526
680.294	0.0180845
680.372	0.0180816
680.450	0.0178964
680.529	0.0180026
680.607	0.0178547
680.685	0.0179630
680.763	0.0178696
680.841	0.0179005
680.919	0.0178606
680.997	0.0179441
681.075	0.0180362
681.154	0.0180367
681.232	0.0180436
681.310	0.0181288
681.388	0.0181610
681.466	0.0181436
681.544	0.0182750
681.622	0.0180860
681.700	0.0183346
681.779	0.0183144
681.857	0.0181585
681.935	0.0180671
682.013	0.0181049
682.091	0.0180874
682.169	0.0181371
682.247	0.0181728
682.325	0.0181515
682.404	0.0180815
682.482	0.0179633
682.560	0.0180402
682.638	0.0179923
682.716	0.0179517
682.794	0.0179139
682.872	0.0180276
682.950	0.0180843
683.029	0.0180069
683.107	0.0180697
683.185	0.0180915
683.263	0.0181192
683.341	0.0180320
683.419	0.0180589
683.497	0.0180865
683.575	0.0180086
683.654	0.0180625
683.732	0.0179224
683.810	0.0179732
683.888	0.0180687
683.966	0.0180878
684.044	0.0180134
684.122	0.0179762
684.200	0.0180248
684.279	0.0179574
684.357	0.0177875
684.435	0.0179452
684.513	0.0181027
684.591	0.0180368
684.669	0.0179690
684.747	0.0178816
684.825	0.0179062
684.904	0.0180354
684.982	0.0180075
685.060	0.0180442
685.138	0.0180546
685.216	0.0182632
685.294	0.0182124
685.372	0.0181913
685.450	0.0182141
685.529	0.0183168
685.607	0.0182704
685.685	0.0183910
685.763	0.0184695
685.841	0.0185184
685.919	0.0183990
685.997	0.0184933
686.075	0.0185684
686.154	0.0185259
686.232	0.0185369
686.310	0.0185120
686.388	0.0184444
686.466	0.0184875
686.544	0.0183804
686.622	0.0183298
686.700	0.0183605
686.779	0.0182999
686.857	0.0183562
686.935	0.0183048
687.013	0.0183491
687.091	0.0182650
687.169	0.0181256
687.247	0.0181511
687.325	0.0181469
687.404	0.0181506
687.482	0.0180540
687.560	0.0179961
687.638	0.0181510
687.716	0.0180940
687.794	0.0180869
687.872	0.0180551
687.950	0.0179881
688.029	0.0181440
688.107	0.0181358
688.185	0.0182092
688.263	0.0180780
688.341	0.0180656
688.419	0.0181067
688.497	0.0181364
688.575	0.0181460
688.654	0.0182352
688.732	0.0181847
688.810	0.0181106
688.888	0.0181516
688.966	0.0181453
689.044	0.0182518
689.122	0.0182358
689.200	0.0181643
689.279	0.0182488
689.357	0.0182354
689.435	0.0182657
689.513	0.0182002
689.591	0.0181674
689.669	0.0182263
689.747	0.0182449
689.825	0.0182084
689.904	0.0183005
689.982	0.0181170
690.060	0.0181752
690.138	0.0181539
690.216	0.0181885
690.294	0.0181305
690.372	0.0181229
690.450	0.0180695
690.529	0.0180447
690.607	0.0180559
690.685	0.0180542
690.763	0.0180035
690.841	0.0181513
690.919	0.0181197
690.997	0.0181745
691.075	0.0179852
691.154	0.0181012
691.232	0.0180522
691.310	0.0180618
691.388	0.0179486
691.466	0.0179031
691.544	0.0181648
691.622	0.0181858
691.700	0.0179781
691.779	0.0180857
691.857	0.0180276
691.935	0.0180305
692.013	0.0182220
692.091	0.0180783
692.169	0.0180055
692.247	0.0182212
692.325	0.0182107
692.404	0.0181802
692.482	0.0181785
692.560	0.0182969
692.638	0.0183780
692.716	0.0183128
692.794	0.0183699
692.872	0.0183751
692.950	0.0185400
693.029	0.0186249
693.107	0.0186143
693.185	0.0186108
693.263	0.0186100
693.341	0.0187139
693.419	0.0189017
693.497	0.0186424
693.575	0.0186403
693.654	0.0187029
693.732	0.0187583
693.810	0.0185598
693.888	0.0187031
693.966	0.0187007
694.044	0.0187339
694.122	0.0186936
694.200	0.0186600
694.279	0.0185326
694.357	0.0184821
694.435	0.0183450
694.513	0.0183171
694.591	0.0182865
694.669	0.0181393
694.747	0.0180907
694.825	0.0180718
694.904	0.0179603
694.982	0.0179849
695.060	0.0178260
695.138	0.0179184
695.216	0.0177969
695.294	0.0177705
695.372	0.0178130
695.450	0.0176283
695.529	0.0178997
695.607	0.0179966
695.685	0.0180104
695.763	0.0180504
695.841	0.0178880
695.919	0.0180514
695.997	0.0181732
696.075	0.0183199
696.154	0.0184018
696.232	0.0182867
696.310	0.0183702
696.388	0.0185670
696.466	0.0185162
696.544	0.0185513
696.622	0.0184918
696.700	0.0185294
696.779	0.0185098
696.857	0.0183666
696.935	0.0183308
697.013	0.0184187
697.091	0.0183994
697.169	0.0182175
697.247	0.0181537
697.325	0.0181358
697.404	0.0179018
697.482	0.0180359
697.560	0.0180874
697.638	0.0178095
697.716	0.0179574
697.794	0.0180197
697.872	0.0179493
697.950	0.0179744
698.029	0.0179507
698.107	0.0178629
698.185	0.0179707
698.263	0.0180206
698.341	0.0179273
698.419	0.0179535
698.497	0.0180188
698.575	0.0180430
698.654	0.0181092
698.732	0.0180657
698.810	0.0181149
698.888	0.0180842
698.966	0.0180596
699.044	0.0181585
699.122	0.0180466
699.200	0.0180574
699.279	0.0180781
699.357	0.0180602
699.435	0.0181042
699.513	0.0180412
699.591	0.0182090
699.669	0.0180969
699.747	0.0180885
699.825	0.0184014
699.904	0.0181896
699.982	0.0181516
700.060	0.0182108
700.138	0.0182887
700.216	0.0184930
700.294	0.0181980
700.372	0.0181813
700.450	0.0182241
700.529	0.0182024
700.607	0.0181062
700.685	0.0182581
700.763	0.0181750
700.841	0.0180847
700.919	0.0179184
700.997	0.0180030
701.075	0.0181436
701.154	0.0179438
701.232	0.0179218
701.310	0.0179944
701.388	0.0179193
701.466	0.0180994
701.544	0.0180346
701.622	0.0180934
701.700	0.0179824
701.779	0.0181637
701.857	0.0182581
701.935	0.0180935
702.013	0.0182738
702.091	0.0183123
702.169	0.0182726
702.247	0.0181815
702.325	0.0183422
702.404	0.0181926
702.482	0.0181062
702.560	0.0182645
702.638	0.0181573
702.716	0.0181882
702.794	0.0181065
702.872	0.0181266
702.950	0.0181420
703.029	0.0182105
703.107	0.0181641
703.185	0.0179975
703.263	0.0180205
703.341	0.0179746
703.419	0.0178368
703.497	0.0179021
703.575	0.0178423
703.654	0.0179080
703.732	0.0180181
703.810	0.0178974
703.888	0.0179650
703.966	0.0179900
704.044	0.0178732
704.122	0.0179000
704.200	0.0178313
704.279	0.0178497
704.357	0.0180217
704.435	0.0179967
704.513	0.0180510
704.591	0.0179977
704.669	0.0179502
704.747	0.0180340
704.825	0.0179945
704.904	0.0180633
704.982	0.0180509
705.060	0.0181518
705.138	0.0180804
705.216	0.0179774
705.294	0.0181157
705.372	0.0181079
705.450	0.0180159
705.529	0.0182413
705.607	0.0179877
705.685	0.0179334
705.763	0.0180466
705.841	0.0180848
705.919	0.0179502
705.997	0.0179063
706.075	0.0180250
706.154	0.0180459
706.232	0.0178823
706.310	0.0180974
706.388	0.0179966
706.466	0.0181078
706.544	0.0180851
706.622	0.0179603
706.700	0.0179585
706.779	0.0179550
706.857	0.0180576
706.935	0.0180446
707.013	0.0181139
707.091	0.0180243
707.169	0.0181937
707.247	0.0181634
707.325	0.0182257
707.404	0.0182496
707.482	0.0182828
707.560	0.0183025
707.638	0.0184931
707.716	0.0185374
707.794	0.0183430
707.872	0.0184511
707.950	0.0184657
708.029	0.0183283
708.107	0.0184121
708.185	0.0184815
708.263	0.0184196
708.341	0.0182878
708.419	0.0182485
708.497	0.0182487
708.575	0.0182779
708.654	0.0180806
708.732	0.0180598
708.810	0.0181911
708.888	0.0180930
708.966	0.0179171
709.044	0.0179392
709.122	0.0181503
709.200	0.0178804
709.279	0.0178873
709.357	0.0179794
709.435	0.0179107
709.513	0.0179211
709.591	0.0180247
709.669	0.0179156
709.747	0.0179797
709.825	0.0180352
709.904	0.0180544
709.982	0.0180851
710.060	0.0181082
710.138	0.0181499
710.216	0.0182211
710.294	0.0180882
710.372	0.0182059
710.450	0.0181740
710.529	0.0181666
710.607	0.0180986
710.685	0.0182438
710.763	0.0182895
710.841	0.0181455
710.919	0.0182205
710.997	0.0181706
711.075	0.0181690
711.154	0.0181926
711.232	0.0181488
711.310	0.0181535
711.388	0.0181962
711.466	0.0180554
711.544	0.0181625
711.622	0.0181343
711.700	0.0180766
711.779	0.0180168
711.857	0.0181731
711.935	0.0181225
712.013	0.0181526
712.091	0.0182307
712.169	0.0181179
712.247	0.0181699
712.325	0.0180609
712.404	0.0181477
712.482	0.0181895
712.560	0.0181478
712.638	0.0181565
712.716	0.0181027
712.794	0.0181795
712.872	0.0180255
712.950	0.0179894
713.029	0.0180862
713.107	0.0180787
713.185	0.0181831
713.263	0.0180428
713.341	0.0181017
713.419	0.0179787
713.497	0.0179834
713.575	0.0181906
713.654	0.0181757
713.732	0.0181474
713.810	0.0180914
713.888	0.0181998
713.966	0.0182008
714.044	0.0181929
714.122	0.0182592
714.200	0.0180214
714.279	0.0180769
714.357	0.0183940
714.435	0.0181816
714.513	0.0182104
714.591	0.0180028
714.669	0.0181407
714.747	0.0180862
714.825	0.0181345
714.904	0.0181557
714.982	0.0180007
715.060	0.0178892
715.138	0.0180136
715.216	0.0178798
715.294	0.0178636
715.372	0.0178971
715.450	0.0178286
715.529	0.0179308
715.607	0.0177881
715.685	0.0178002
715.763	0.0179445
715.841	0.0178915
715.919	0.0178674
715.997	0.0179625
716.075	0.0180093
716.154	0.0180373
716.232	0.0181439
716.310	0.0181573
716.388	0.0180551
716.466	0.0180379
716.544	0.0181434
716.622	0.0181600
716.700	0.0183153
716.779	0.0183825
716.857	0.0181227
716.935	0.0182462
717.013	0.0183963
717.091	0.0183241
717.169	0.0182646
717.247	0.0183069
717.325	0.0183557
717.404	0.0184042
717.482	0.0183725
717.560	0.0182774
717.638	0.0182968
717.716	0.0182879
717.794	0.0184312
717.872	0.0184357
717.950	0.0182996
718.029	0.0182123
718.107	0.0182856
718.185	0.0183495
718.263	0.0184052
718.341	0.0183509
718.419	0.0182108
718.497	0.0183493
718.575	0.0184458
718.654	0.0183742
718.732	0.0182284
718.810	0.0184818
718.888	0.0184003
718.966	0.0183994
719.044	0.0183029
719.122	0.0182330
719.200	0.0184205
719.279	0.0183135
719.357	0.0182018
719.435	0.0182590
719.513	0.0183703
719.591	0.0182307
719.669	0.0181482
719.747	0.0181974
719.825	0.0181234
719.904	0.0180712
719.982	0.0181124
720.060	0.0181516
720.138	0.0181081
720.216	0.0179356
720.294	0.0180096
720.372	0.0181612
720.450	0.0180179
720.529	0.0179881
720.607	0.0179436
720.685	0.0179270
720.763	0.0178664
720.841	0.0179871
720.919	0.0179464
720.997	0.0179844
721.075	0.0178057
721.154	0.0179001
721.232	0.0180650
721.310	0.0179230
721.388	0.0177995
721.466	0.0178601
721.544	0.0180537
721.622	0.0179703
721.700	0.0181135
721.779	0.0180190
721.857	0.0180920
721.935	0.0180792
722.013	0.0181473
722.091	0.0180632
722.169	0.0181457
722.247	0.0181121
722.325	0.0180356
722.404	0.0180116
722.482	0.0180305
722.560	0.0179721
722.638	0.0182640
722.716	0.0182349
722.794	0.0183330
722.872	0.0181863
722.950	0.0183291
723.029	0.0182356
723.107	0.0183942
723.185	0.0181644
723.263	0.0181808
723.341	0.0184311
723.419	0.0184949
723.497	0.0183484
723.575	0.0183057
723.654	0.0182259
723.732	0.0182016
723.810	0.0181380
723.888	0.0182364
723.966	0.0181498
724.044	0.0181069
724.122	0.0180067
724.200	0.0182621
724.279	0.0181943
724.357	0.0180270
724.435	0.0181922
724.513	0.0182078
724.591	0.0181004
724.669	0.0182209
724.747	0.0181679
724.825	0.0180879
724.904	0.0181676
724.982	0.0182335
725.060	0.0181942
725.138	0.0181992
725.216	0.0183142
725.294	0.0183002
725.372	0.0181885
725.450	0.0181567
725.529	0.0181760
725.607	0.0182784
725.685	0.0183876
725.763	0.0182864
725.841	0.0182259
725.919	0.0182178
725.997	0.0182558
726.075	0.0182546
726.154	0.0182220
726.232	0.0182298
726.310	0.0183681
726.388	0.0183127
726.466	0.0183451
726.544	0.0183866
726.622	0.0182900
726.700	0.0183396
726.779	0.0185147
726.857	0.0184341
726.935	0.0185203
727.013	0.0184130
727.091	0.0182874
727.169	0.0183295
727.247	0.0183828
727.325	0.0182488
727.404	0.0182094
727.482	0.0182818
727.560	0.0181479
727.638	0.0181824
727.716	0.0179908
727.794	0.0180053
727.872	0.0179576
727.950	0.0179378
728.029	0.0179764
728.107	0.0178500
728.185	0.0177562
728.263	0.0178915
728.341	0.0177401
728.419	0.0176611
728.497	0.0177642
728.575	0.0177748
728.654	0.0177538
728.732	0.0176189
728.810	0.0176367
728.888	0.0176672
728.966	0.0176682
729.044	0.0177876
729.122	0.0176847
729.200	0.0177129
729.279	0.0177098
729.357	0.0176759
729.435	0.0178587
729.513	0.0178492
729.591	0.0178831
729.669	0.0180352
729.747	0.0180895
729.825	0.0181307
729.904	0.0179381
729.982	0.0179344
730.060	0.0180109
730.138	0.0181184
730.216	0.0182499
730.294	0.0182946
730.372	0.0183206
730.450	0.0182892
730.529	0.0182803
730.607	0.0183684
730.685	0.0184951
730.763	0.0182394
730.841	0.0183531
730.919	0.0182494
730.997	0.0182802
731.075	0.0183575
731.154	0.0181669
731.232	0.0181725
731.310	0.0181958
731.388	0.0180853
731.466	0.0180531
731.544	0.0181305
731.622	0.0180346
731.700	0.0179680
731.779	0.0178894
731.857	0.0178861
731.935	0.0177770
732.013	0.0177956
732.091	0.0178654
732.169	0.0178960
732.247	0.0179673
732.325	0.0179368
732.404	0.0179620
732.482	0.0179462
732.560	0.0179030
732.638	0.0179602
732.716	0.0180504
732.794	0.0181347
732.872	0.0179733
732.950	0.0179104
733.029	0.0180052
733.107	0.0181092
733.185	0.0180110
733.263	0.0179781
733.341	0.0181440
733.419	0.0181599
733.497	0.0179382
733.575	0.0180432
733.654	0.0180418
733.732	0.0181992
733.810	0.0181309
733.888	0.0181446
733.966	0.0180280
734.044	0.0180981
734.122	0.0180443
734.200	0.0182961
734.279	0.0182359
734.357	0.0182407
734.435	0.0183015
734.513	0.0182401
734.591	0.0181712
734.669	0.0182533
734.747	0.0181944
734.825	0.0181987
734.904	0.0182428
734.982	0.0181773
735.060	0.0181620
735.138	0.0180035
735.216	0.0180218
735.294	0.0179628
735.372	0.0180540
735.450	0.0180140
735.529	0.0178645
735.607	0.0177661
735.685	0.0178210
735.763	0.0178156
735.841	0.0175801
735.919	0.0177364
735.997	0.0179021
736.075	0.0177239
736.154	0.0177629
736.232	0.0177361
736.310	0.0178304
736.388	0.0176019
736.466	0.0177390
736.544	0.0178213
736.622	0.0178540
736.700	0.0177406
736.779	0.0177393
736.857	0.0179884
736.935	0.0179309
737.013	0.0179243
737.091	0.0177850
737.169	0.0178323
737.247	0.0179494
737.325	0.0179388
737.404	0.0180105
737.482	0.0179576
737.560	0.0179192
737.638	0.0179070
737.716	0.0179992
737.794	0.0180119
737.872	0.0179742
737.950	0.0180383
738.029	0.0181267
738.107	0.0180254
738.185	0.0182433
738.263	0.0182974
738.341	0.0182613
738.419	0.0183298
738.497	0.0182243
738.575	0.0182211
738.654	0.0182748
738.732	0.0182439
738.810	0.0183672
738.888	0.0182937
738.966	0.0181509
739.044	0.0179951
739.122	0.0181898
739.200	0.0182040
739.279	0.0181996
739.357	0.0181227
739.435	0.0181226
739.513	0.0182281
739.591	0.0182646
739.669	0.0182431
739.747	0.0183373
739.825	0.0182247
739.904	0.0183786
739.982	0.0182771
740.060	0.0184550
740.138	0.0184465
740.216	0.0185696
740.294	0.0184180
740.372	0.0184753
740.450	0.0184654
740.529	0.0183869
740.607	0.0184088
740.685	0.0184029
740.763	0.0185110
740.841	0.0184494
740.919	0.0181345
740.997	0.0182095
741.075	0.0183262
741.154	0.0181028
741.232	0.0182253
741.310	0.0183004
741.388	0.0181959
741.466	0.0182265
741.544	0.0182851
741.622	0.0184248
741.700	0.0183186
741.779	0.0183385
741.857	0.0184155
741.935	0.0183151
742.013	0.0183131
742.091	0.0184715
742.169	0.0185538
742.247	0.0185367
742.325	0.0185538
742.404	0.0185957
742.482	0.0185568
742.560	0.0186789
742.638	0.0185078
742.716	0.0184357
742.794	0.0183847
742.872	0.0183495
742.950	0.0182776
743.029	0.0182413
743.107	0.0181734
743.185	0.0180881
743.263	0.0178844
743.341	0.0179500
743.419	0.0180227
743.497	0.0178632
743.575	0.0178813
743.654	0.0178947
743.732	0.0177432
743.810	0.0177625
743.888	0.0178493
743.966	0.0179256
744.044	0.0178864
744.122	0.0179353
744.200	0.0178642
744.279	0.0178876
744.357	0.0179505
744.435	0.0178939
744.513	0.0178981
744.591	0.0180256
744.669	0.0180281
744.747	0.0179173
744.825	0.0181055
744.904	0.0180653
744.982	0.0179865
745.060	0.0180175
745.138	0.0180437
745.216	0.0180418
745.294	0.0179330
745.372	0.0179554
745.450	0.0180447
745.529	0.0180532
745.607	0.0180724
745.685	0.0181796
745.763	0.0183588
745.841	0.0181177
745.919	0.0181939
745.997	0.0182309
746.075	0.0183279
746.154	0.0183867
746.232	0.0183911
746.310	0.0185287
746.388	0.0184241
746.466	0.0183061
746.544	0.0184230
746.622	0.0183937
746.700	0.0183162
746.779	0.0182870
746.857	0.0182561
746.935	0.0184288
747.013	0.0183327
747.091	0.0184190
747.169	0.0183200
747.247	0.0181880
747.325	0.0182471
747.404	0.0182658
747.482	0.0183315
747.560	0.0182707
747.638	0.0183503
747.716	0.0183492
747.794	0.0183041
747.872	0.0182756
747.950	0.0182755
748.029	0.0182893
748.107	0.0183705
748.185	0.0182669
748.263	0.0182007
748.341	0.0182156
748.419	0.0180616
748.497	0.0180091
748.575	0.0180616
748.654	0.0179964
748.732	0.0180852
748.810	0.0179646
748.888	0.0180957
748.966	0.0181445
749.044	0.0180507
749.122	0.0180163
749.200	0.0180661
749.279	0.0180678
749.357	0.0180447
749.435	0.0182548
749.513	0.0181869
749.591	0.0181982
749.669	0.0183739
749.747	0.0183611
749.825	0.0183920
749.904	0.0183005
749.982	0.0184731
750.060	0.0184914
750.138	0.0185223
750.216	0.0184026
750.294	0.0184490
750.372	0.0183521
750.450	0.0184106
750.529	0.0184126
750.607	0.0181406
750.685	0.0180717
750.763	0.0181618
750.841	0.0179350
750.919	0.0178970
750.997	0.0179259
751.075	0.0179115
751.154	0.0178097
751.232	0.0176622
751.310	0.0177061
751.388	0.0176194
751.466	0.0176031
751.544	0.0176341
751.622	0.0178765
751.700	0.0178900
751.779	0.0177385
751.857	0.0179073
751.935	0.0178563
752.013	0.0180005
752.091	0.0179961
752.169	0.0179288
752.247	0.0180653
752.325	0.0179629
752.404	0.0180502
752.482	0.0180566
752.560	0.0179769
752.638	0.0180241
752.716	0.0179216
752.794	0.0179821
752.872	0.0179006
752.950	0.0179475
753.029	0.0178754
753.107	0.0179750
753.185	0.0179783
753.263	0.0180716
753.341	0.0180857
753.419	0.0181663
753.497	0.0181537
753.575	0.0180834
753.654	0.0181178
753.732	0.0181596
753.810	0.0184261
753.888	0.0184167
753.966	0.0184983
754.044	0.0183852
754.122	0.0184602
754.200	0.0183963
754.279	0.0185003
754.357	0.0185332
754.435	0.0185077
754.513	0.0183695
754.591	0.0184257
754.669	0.0184270
754.747	0.0183401
754.825	0.0185173
754.904	0.0183625
754.982	0.0183778
755.060	0.0182507
755.138	0.0182890
755.216	0.0182809
755.294	0.0182956
755.372	0.0181610
755.450	0.0181708
755.529	0.0180870
755.607	0.0179507
755.685	0.0181669
755.763	0.0181714
755.841	0.0180790
755.919	0.0182352
755.997	0.0182304
756.075	0.0180793
756.154	0.0181710
756.232	0.0182739
756.310	0.0181190
756.388	0.0182253
756.466	0.0181940
756.544	0.0180518
756.622	0.0180392
756.700	0.0182021
756.779	0.0180820
756.857	0.0180968
756.935	0.0181229
757.013	0.0179726
757.091	0.0181191
757.169	0.0180661
757.247	0.0181659
757.325	0.0182704
757.404	0.0180879
757.482	0.0182284
757.560	0.0183170
757.638	0.0182956
757.716	0.0183023
757.794	0.0181731
757.872	0.0181976
757.950	0.0181168
758.029	0.0182048
758.107	0.0181947
758.185	0.0181662
758.263	0.0181455
758.341	0.0182034
758.419	0.0180423
758.497	0.0180466
758.575	0.0179815
758.654	0.0178835
758.732	0.0178944
758.810	0.0177922
758.888	0.0177473
758.966	0.0177027
759.044	0.0176094
759.122	0.0177580
759.200	0.0177264
759.279	0.0176902
759.357	0.0178121
759.435	0.0179516
759.513	0.0178695
759.591	0.0177455
759.669	0.0177540
759.747	0.0178419
759.825	0.0179200
759.904	0.0176495
759.982	0.0177918
760.060	0.0178672
760.138	0.0179135
760.216	0.0178161
760.294	0.0177091
760.372	0.0178970
760.450	0.0178418
760.529	0.0177697
760.607	0.0178166
760.685	0.0178646
760.763	0.0179545
760.841	0.0179195
760.919	0.0178892
760.997	0.0179148
761.075	0.0178761
761.154	0.0178635
761.232	0.0180354
761.310	0.0180551
761.388	0.0179137
761.466	0.0181663
761.544	0.0181348
761.622	0.0180394
761.700	0.0183230
761.779	0.0183437
761.857	0.0182920
761.935	0.0182983
762.013	0.0183513
762.091	0.0183453
762.169	0.0181881
762.247	0.0182979
762.325	0.0183681
762.404	0.0183031
762.482	0.0182507
762.560	0.0183160
762.638	0.0183344
762.716	0.0182202
762.794	0.0182010
762.872	0.0183429
762.950	0.0182920
763.029	0.0181503
763.107	0.0182020
763.185	0.0182038
763.263	0.0181819
763.341	0.0180914
763.419	0.0182849
763.497	0.0181762
763.575	0.0181564
763.654	0.0180718
763.732	0.0182694
763.810	0.0182371
763.888	0.0182294
763.966	0.0180595
764.044	0.0181561
764.122	0.0182358
764.200	0.0180674
764.279	0.0181060
764.357	0.0181367
764.435	0.0182048
764.513	0.0181516
764.591	0.0180940
764.669	0.0180736
764.747	0.0180814
764.825	0.0179975
764.904	0.0180323
764.982	0.0180711
765.060	0.0181238
765.138	0.0181650
765.216	0.0180318
765.294	0.0181152
765.372	0.0180653
765.450	0.0180452
765.529	0.0179572
765.607	0.0181535
765.685	0.0182458
765.763	0.0180969
765.841	0.0179693
765.919	0.0179507
765.997	0.0179080
766.075	0.0181015
766.154	0.0181528
766.232	0.0178339
766.310	0.0180342
766.388	0.0181607
766.466	0.0180504
766.544	0.0180868
766.622	0.0181023
766.700	0.0181131
766.779	0.0182140
766.857	0.0180383
766.935	0.0181358
767.013	0.0180091
767.091	0.0180196
767.169	0.0180033
767.247	0.0180544
767.325	0.0178265
767.404	0.0178519
767.482	0.0177516
767.560	0.0179356
767.638	0.0180171
767.716	0.0178393
767.794	0.0178497
767.872	0.0177639
767.950	0.0176987
768.029	0.0177708
768.107	0.0179173
768.185	0.0178769
768.263	0.0178799
768.341	0.0177851
768.419	0.0179124
768.497	0.0179462
768.575	0.0177998
768.654	0.0177430
768.732	0.0177952
768.810	0.0180721
768.888	0.0180180
768.966	0.0181567
769.044	0.0181404
769.122	0.0180289
769.200	0.0180756
769.279	0.0180773
769.357	0.0181433
769.435	0.0182372
769.513	0.0182684
769.591	0.0182770
769.669	0.0181996
769.747	0.0182977
769.825	0.0183978
769.904	0.0184582
769.982	0.0183582
770.060	0.0183878
770.138	0.0184296
770.216	0.0184466
770.294	0.0184083
770.372	0.0184705
770.450	0.0185930
770.529	0.0185374
770.607	0.0187486
770.685	0.0185543
770.763	0.0184951
770.841	0.0186327
770.919	0.0185499
770.997	0.0185558
771.075	0.0187033
771.154	0.0185381
771.232	0.0185374
771.310	0.0184445
771.388	0.0184264
771.466	0.0184509
771.544	0.0183301
771.622	0.0183414
771.700	0.0182716
771.779	0.0182677
771.857	0.0180965
771.935	0.0180354
772.013	0.0181973
772.091	0.0181997
772.169	0.0181196
772.247	0.0181342
772.325	0.0180470
772.404	0.0181882
772.482	0.0180132
772.560	0.0181971
772.638	0.0183516
772.716	0.0181853
772.794	0.0181718
772.872	0.0182196
772.950	0.0181271
773.029	0.0181402
773.107	0.0182298
773.185	0.0180413
773.263	0.0181420
773.341	0.0181184
773.419	0.0181420
773.497	0.0181337
773.575	0.0181861
773.654	0.0182468
773.732	0.0182738
773.810	0.0182988
773.888	0.0183191
773.966	0.0182243
774.044	0.0182260
774.122	0.0180683
774.200	0.0182074
774.279	0.0183601
774.357	0.0182722
774.435	0.0181669
774.513	0.0182533
774.591	0.0181681
774.669	0.0181512
774.747	0.0180810
774.825	0.0181541
774.904	0.0180421
774.982	0.0179958
775.060	0.0180409
775.138	0.0180068
775.216	0.0179591
775.294	0.0177818
775.372	0.0179131
775.450	0.0180206
775.529	0.0178979
775.607	0.0178920
775.685	0.0180627
775.763	0.0179135
775.841	0.0179982
775.919	0.0180244
775.997	0.0179704
776.075	0.0180010
776.154	0.0180203
776.232	0.0181232
776.310	0.0180533
776.388	0.0180255
776.466	0.0181509
776.544	0.0181677
776.622	0.0181709
776.700	0.0183447
776.779	0.0183213
776.857	0.0183251
776.935	0.0183334
777.013	0.0185275
777.091	0.0183440
777.169	0.0183498
777.247	0.0184184
777.325	0.0184345
777.404	0.0185798
777.482	0.0186037
777.560	0.0185525
777.638	0.0184195
777.716	0.0185304
777.794	0.0185696
777.872	0.0184692
777.950	0.0184557
778.029	0.0185229
778.107	0.0185085
778.185	0.0186456
778.263	0.0187041
778.341	0.0184442
778.419	0.0185125
778.497	0.0186021
778.575	0.0185673
778.654	0.0185744
778.732	0.0183231
778.810	0.0183638
778.888	0.0183458
778.966	0.0182987
779.044	0.0182310
779.122	0.0181415
779.200	0.0179828
779.279	0.0181279
779.357	0.0181075
779.435	0.0179980
779.513	0.0179918
779.591	0.0180031
779.669	0.0179632
779.747	0.0179237
779.825	0.0179725
779.904	0.0179486
779.982	0.0180382
780.060	0.0179604
780.138	0.0179105
780.216	0.0178796
780.294	0.0178558
780.372	0.0177828
780.450	0.0179092
780.529	0.0179511
780.607	0.0178218
780.685	0.0178273
780.763	0.0178520
780.841	0.0177875
780.919	0.0178533
780.997	0.0178445
781.075	0.0178880
781.154	0.0179863
781.232	0.0179102
781.310	0.0178580
781.388	0.0178243
781.466	0.0178845
781.544	0.0180375
781.622	0.0179492
781.700	0.0178667
781.779	0.0178986
781.857	0.0178045
781.935	0.0177268
782.013	0.0177569
782.091	0.0178865
782.169	0.0178548
782.247	0.0177361
782.325	0.0179205
782.404	0.0178419
782.482	0.0178754
782.560	0.0178163
782.638	0.0178954
782.716	0.0178636
782.794	0.0177807
782.872	0.0177189
782.950	0.0179398
783.029	0.0178515
783.107	0.0178456
783.185	0.0177570
783.263	0.0178624
783.341	0.0178650
783.419	0.0178566
783.497	0.0179121
783.575	0.0178077
783.654	0.0177901
783.732	0.0177894
783.810	0.0178356
783.888	0.0178695
783.966	0.0178744
784.044	0.0178955
784.122	0.0178881
784.200	0.0180006
784.279	0.0180302
784.357	0.0178594
784.435	0.0179734
784.513	0.0181145
784.591	0.0180544
784.669	0.0179811
784.747	0.0180183
784.825	0.0180999
784.904	0.0180992
784.982	0.0181567
785.060	0.0181740
785.138	0.0181116
785.216	0.0182083
785.294	0.0180161
785.372	0.0181380
785.450	0.0182336
785.529	0.0182687
785.607	0.0182749
785.685	0.0182798
785.763	0.0182321
785.841	0.0181892
785.919	0.0182577
785.997	0.0181960
786.075	0.0183018
786.154	0.0184013
786.232	0.0183080
786.310	0.0182540
786.388	0.0182205
786.466	0.0181978
786.544	0.0181891
786.622	0.0181567
786.700	0.0181554
786.779	0.0180290
786.857	0.0180367
786.935	0.0179809
787.013	0.0180146
787.091	0.0180658
787.169	0.0179606
787.247	0.0178569
787.325	0.0178916
787.404	0.0180685
787.482	0.0178442
787.560	0.0179574
787.638	0.0179079
787.716	0.0178950
787.794	0.0178685
787.872	0.0179012
787.950	0.0179097
788.029	0.0178307
788.107	0.0178301
788.185	0.0178443
788.263	0.0177679
788.341	0.0178848
788.419	0.0177706
788.497	0.0178896
788.575	0.0179590
788.654	0.0178906
788.732	0.0176846
788.810	0.0178592
788.888	0.0179671
788.966	0.0179777
789.044	0.0178840
789.122	0.0179491
789.200	0.0179412
789.279	0.0180023
789.357	0.0179710
789.435	0.0181007
789.513	0.0180177
789.591	0.0179417
789.669	0.0179485
789.747	0.0179697
789.825	0.0180581
789.904	0.0180534
789.982	0.0180122
790.060	0.0178805
790.138	0.0179927
790.216	0.0178403
790.294	0.0180108
790.372	0.0180548
790.450	0.0181525
790.529	0.0180753
790.607	0.0181268
790.685	0.0180276
790.763	0.0180298
790.841	0.0181145
790.919	0.0180280
790.997	0.0180563
791.075	0.0181495
791.154	0.0179680
791.232	0.0180505
791.310	0.0180452
791.388	0.0180588
791.466	0.0181602
791.544	0.0181503
791.622	0.0181426
791.700	0.0182262
791.779	0.0180157
791.857	0.0181081
791.935	0.0182368
792.013	0.0183390
792.091	0.0181981
792.169	0.0181723
792.247	0.0181423
792.325	0.0182354
792.404	0.0181343
792.482	0.0182769
792.560	0.0182339
792.638	0.0181728
792.716	0.0182684
792.794	0.0182562
792.872	0.0182860
792.950	0.0183115
793.029	0.0181063
793.107	0.0183177
793.185	0.0183891
793.263	0.0185910
793.341	0.0183959
793.419	0.0184399
793.497	0.0184837
793.575	0.0185009
793.654	0.0184203
793.732	0.0184188
793.810	0.0185506
793.888	0.0185361
793.966	0.0184497
794.044	0.0184834
794.122	0.0184044
794.200	0.0182684
794.279	0.0184152
794.357	0.0185361
794.435	0.0183070
794.513	0.0181036
794.591	0.0182029
794.669	0.0183118
794.747	0.0182573
794.825	0.0181042
794.904	0.0182125
794.982	0.0183096
795.060	0.0181455
795.138	0.0181623
795.216	0.0179693
795.294	0.0179480
795.372	0.0180139
795.450	0.0180678
795.529	0.0180654
795.607	0.0179348
795.685	0.0179984
795.763	0.0179705
795.841	0.0181036
795.919	0.0180072
795.997	0.0179982
796.075	0.0180094
796.154	0.0180503
796.232	0.0179904
796.310	0.0180132
796.388	0.0182591
796.466	0.0182373
796.544	0.0180793
796.622	0.0181365
796.700	0.0181067
796.779	0.0182277
796.857	0.0181787
796.935	0.0180235
797.013	0.0181645
797.091	0.0181530
797.169	0.0181934
797.247	0.0180685
797.325	0.0180988
797.404	0.0181857
797.482	0.0181538
797.560	0.0181848
797.638	0.0182980
797.716	0.0182691
797.794	0.0182368
797.872	0.0183207
797.950	0.0182186
798.029	0.0181931
798.107	0.0182782
798.185	0.0181860
798.263	0.0182198
798.341	0.0182351
798.419	0.0181932
798.497	0.0180945
798.575	0.0182626
798.654	0.0181793
798.732	0.0181591
798.810	0.0181359
798.888	0.0180987
798.966	0.0181913
799.044	0.0182499
799.122	0.0181646
799.200	0.0182774
799.279	0.0182091
799.357	0.0183206
799.435	0.0182369
799.513	0.0183759
799.591	0.0181508
799.669	0.0181949
799.747	0.0183079
799.825	0.0180737
799.904	0.0181530
799.982	0.0183142
800.060	0.0182511
800.138	0.0182861
800.216	0.0185052
800.294	0.0183873
800.372	0.0183089
800.450	0.0183668
800.529	0.0183975
800.607	0.0184908
800.685	0.0184635
800.763	0.0185474
800.841	0.0185295
800.919	0.0184975
800.997	0.0184011
801.075	0.0185303
801.154	0.0186433
801.232	0.0184660
801.310	0.0185455
801.388	0.0184780
801.466	0.0183199
801.544	0.0184859
801.622	0.0183987
801.700	0.0184624
801.779	0.0184510
801.857	0.0183167
801.935	0.0184013
802.013	0.0182473
802.091	0.0182748
802.169	0.0184692
802.247	0.0182915
802.325	0.0183413
802.404	0.0183521
802.482	0.0183454
802.560	0.0184338
802.638	0.0183173
802.716	0.0184520
802.794	0.0183545
802.872	0.0182933
802.950	0.0183672
803.029	0.0182462
803.107	0.0181766
803.185	0.0182713
803.263	0.0183521
803.341	0.0181723
803.419	0.0180918
803.497	0.0182455
803.575	0.0182650
803.654	0.0180997
803.732	0.0182460
803.810	0.0182272
803.888	0.0181094
803.966	0.0181649
804.044	0.0181390
804.122	0.0180978
804.200	0.0181081
804.279	0.0182860
804.357	0.0181998
804.435	0.0182616
804.513	0.0182854
804.591	0.0181302
804.669	0.0181055
804.747	0.0181937
804.825	0.0180718
804.904	0.0181853
804.982	0.0181814
805.060	0.0181667
805.138	0.0180648
805.216	0.0180620
805.294	0.0180276
805.372	0.0180073
805.450	0.0178898
805.529	0.0180359
805.607	0.0181907
805.685	0.0179923
805.763	0.0180042
805.841	0.0180085
805.919	0.0180405
805.997	0.0179356
806.075	0.0179475
806.154	0.0178565
806.232	0.0178319
806.310	0.0178300
806.388	0.0178831
806.466	0.0178705
806.544	0.0178319
806.622	0.0179498
806.700	0.0179527
806.779	0.0178163
806.857	0.0178510
806.935	0.0179357
807.013	0.0179749
807.091	0.0179575
807.169	0.0179163
807.247	0.0179226
807.325	0.0179882
807.404	0.0179784
807.482	0.0179128
807.560	0.0178537
807.638	0.0180040
807.716	0.0179371
807.794	0.0178293
807.872	0.0180270
807.950	0.0180334
808.029	0.0180518
808.107	0.0181173
808.185	0.0180727
808.263	0.0180311
808.341	0.0180491
808.419	0.0182822
808.497	0.0180144
808.575	0.0180451
808.654	0.0180093
808.732	0.0180386
808.810	0.0180638
808.888	0.0181278
808.966	0.0180570
809.044	0.0180826
809.122	0.0181598
809.200	0.0180573
809.279	0.0180775
809.357	0.0179380
809.435	0.0182045
809.513	0.0180936
809.591	0.0179736
809.669	0.0182363
809.747	0.0181551
809.825	0.0180412
809.904	0.0181387
809.982	0.0181457
810.060	0.0180894
810.138	0.0181723
810.216	0.0181977
810.294	0.0182633
810.372	0.0181828
810.450	0.0180366
810.529	0.0180614
810.607	0.0181007
810.685	0.0182825
810.763	0.0182716
810.841	0.0181227
810.919	0.0179890
810.997	0.0182242
811.075	0.0181033
811.154	0.0180473
811.232	0.0181197
811.310	0.0179736
811.388	0.0182085
811.466	0.0180741
811.544	0.0180990
811.622	0.0180116
811.700	0.0179942
811.779	0.0180716
811.857	0.0180851
811.935	0.0178036
812.013	0.0180896
812.091	0.0182233
812.169	0.0181525
812.247	0.0180855
812.325	0.0181889
812.404	0.0182922
812.482	0.0181326
812.560	0.0180901
812.638	0.0181576
812.716	0.0181264
812.794	0.0181192
812.872	0.0181731
812.950	0.0182064
813.029	0.0182502
813.107	0.0182448
813.185	0.0181504
813.263	0.0180695
813.341	0.0179773
813.419	0.0180974
813.497	0.0180808
813.575	0.0179468
813.654	0.0181467
813.732	0.0183171
813.810	0.0181981
813.888	0.0181274
813.966	0.0181118
814.044	0.0181139
814.122	0.0182691
814.200	0.0181431
814.279	0.0180702
814.357	0.0181053
814.435	0.0179665
814.513	0.0180327
814.591	0.0181771
814.669	0.0181554
814.747	0.0180027
814.825	0.0181251
814.904	0.0179482
814.982	0.0181319
815.060	0.0181004
815.138	0.0179840
815.216	0.0179095
815.294	0.0180612
815.372	0.0180923
815.450	0.0179378
815.529	0.0179368
815.607	0.0180888
815.685	0.0180836
815.763	0.0181631
815.841	0.0181695
815.919	0.0179416
815.997	0.0180032
816.075	0.0181464
816.154	0.0179945
816.232	0.0181020
816.310	0.0181181
816.388	0.0181192
816.466	0.0181850
816.544	0.0181181
816.622	0.0179475
816.700	0.0180294
816.779	0.0181831
816.857	0.0181924
816.935	0.0180492
817.013	0.0181517
817.091	0.0179991
817.169	0.0181887
817.247	0.0181618
817.325	0.0182191
817.404	0.0181586
817.482	0.0182281
817.560	0.0182181
817.638	0.0181823
817.716	0.0181857
817.794	0.0180991
817.872	0.0181886
817.950	0.0182124
818.029	0.0181681
818.107	0.0181150
818.185	0.0181256
818.263	0.0182777
818.341	0.0181141
818.419	0.0180353
818.497	0.0181682
818.575	0.0180901
818.654	0.0179800
818.732	0.0180752
818.810	0.0179713
818.888	0.0180006
818.966	0.0180932
819.044	0.0179937
819.122	0.0180063
819.200	0.0181349
819.279	0.0181068
819.357	0.0179993
819.435	0.0180111
819.513	0.0180453
819.591	0.0180231
819.669	0.0179442
819.747	0.0179636
819.825	0.0180007
819.904	0.0180871
819.982	0.0180151
820.060	0.0181470
820.138	0.0179805
820.216	0.0179964
820.294	0.0181293
820.372	0.0179684
820.450	0.0180969
820.529	0.0181237
820.607	0.0181693
820.685	0.0181079
820.763	0.0181122
820.841	0.0181728
820.919	0.0181966
820.997	0.0181642
821.075	0.0180936
821.154	0.0183035
821.232	0.0182303
821.310	0.0181497
821.388	0.0181713
821.466	0.0181683
821.544	0.0182465
821.622	0.0181990
821.700	0.0182594
821.779	0.0182631
821.857	0.0183479
821.935	0.0184026
822.013	0.0183116
822.091	0.0183112
822.169	0.0181815
822.247	0.0182736
822.325	0.0183232
822.404	0.0182410
822.482	0.0182066
822.560	0.0184127
822.638	0.0184065
822.716	0.0183167
822.794	0.0183009
822.872	0.0183511
822.950	0.0181783
823.029	0.0182220
823.107	0.0183337
823.185	0.0182370
823.263	0.0182766
823.341	0.0183179
823.419	0.0183443
823.497	0.0182543
823.575	0.0183405
823.654	0.0182847
823.732	0.0184128
823.810	0.0182880
823.888	0.0182928
823.966	0.0183805
824.044	0.0182296
824.122	0.0181850
824.200	0.0182737
824.279	0.0183183
824.357	0.0183918
824.435	0.0182806
824.513	0.0184260
824.591	0.0182567
824.669	0.0183169
824.747	0.0182723
824.825	0.0182163
824.904	0.0182465
824.982	0.0182994
825.060	0.0183975
825.138	0.0183224
825.216	0.0183182
825.294	0.0183806
825.372	0.0182130
825.450	0.0183738
825.529	0.0183025
825.607	0.0183917
825.685	0.0182965
825.763	0.0183255
825.841	0.0184132
825.919	0.0184366
825.997	0.0183069
826.075	0.0183962
826.154	0.0182621
826.232	0.0183520
826.310	0.0183560
826.388	0.0181911
826.466	0.0182477
826.544	0.0182154
826.622	0.0183660
826.700	0.0184490
826.779	0.0182863
826.857	0.0181245
826.935	0.0182157
827.013	0.0181306
827.091	0.0183584
827.169	0.0182635
827.247	0.0182451
827.325	0.0181679
827.404	0.0182296
827.482	0.0181950
827.560	0.0182297
827.638	0.0180709
827.716	0.0181137
827.794	0.0181089
827.872	0.0181848
827.950	0.0179568
828.029	0.0180194
828.107	0.0182076
828.185	0.0181515
828.263	0.0181223
828.341	0.0181162
828.419	0.0180922
828.497	0.0180568
828.575	0.0181160
828.654	0.0180527
828.732	0.0181522
828.810	0.0180958
828.888	0.0180699
828.966	0.0182134
829.044	0.0180451
829.122	0.0180860
829.200	0.0180964
829.279	0.0180845
829.357	0.0182811
829.435	0.0181808
829.513	0.0179916
829.591	0.0180190
829.669	0.0181326
829.747	0.0181128
829.825	0.0179115
829.904	0.0180196
829.982	0.0180363
830.060	0.0180683
830.138	0.0181471
830.216	0.0180646
830.294	0.0180645
830.372	0.0181084
830.450	0.0180887
830.529	0.0180706
830.607	0.0181823
830.685	0.0182008
830.763	0.0179697
830.841	0.0180775
830.919	0.0180910
830.997	0.0182081
831.075	0.0182014
831.154	0.0180076
831.232	0.0180765
831.310	0.0181519
831.388	0.0181931
831.466	0.0181528
831.544	0.0182766
831.622	0.0180567
831.700	0.0181848
831.779	0.0182612
831.857	0.0181976
831.935	0.0182584
832.013	0.0182169
832.091	0.0181104
832.169	0.0181097
832.247	0.0181461
832.325	0.0181470
832.404	0.0181133
832.482	0.0181994
832.560	0.0181882
832.638	0.0181909
832.716	0.0180729
832.794	0.0180872
832.872	0.0181878
832.950	0.0179760
833.029	0.0180046
833.107	0.0179452
833.185	0.0179620
833.263	0.0180133
833.341	0.0179825
833.419	0.0179697
833.497	0.0180954
833.575	0.0180026
833.654	0.0179633
833.732	0.0179990
833.810	0.0179722
833.888	0.0179722
833.966	0.0179373
834.044	0.0179715
834.122	0.0178700
834.200	0.0180502
834.279	0.0179865
834.357	0.0179735
834.435	0.0180096
834.513	0.0179238
834.591	0.0180482
834.669	0.0179555
834.747	0.0180359
834.825	0.0178295
834.904	0.0180099
834.982	0.0180170
835.060	0.0179443
835.138	0.0180154
835.216	0.0178561
835.294	0.0179537
835.372	0.0181041
835.450	0.0180301
835.529	0.0179328
835.607	0.0178611
835.685	0.0179525
835.763	0.0180707
835.841	0.0180443
835.919	0.0181031
835.997	0.0180550
836.075	0.0181704
836.154	0.0180480
836.232	0.0179588
836.310	0.0180827
836.388	0.0180865
836.466	0.0179942
836.544	0.0179772
836.622	0.0180024
836.700	0.0179734
836.779	0.0180973
836.857	0.0180719
836.935	0.0180557
837.013	0.0179502
837.091	0.0179191
837.169	0.0180324
837.247	0.0179910
837.325	0.0178278
837.404	0.0179958
837.482	0.0180174
837.560	0.0180308
837.638	0.0180824
837.716	0.0179395
837.794	0.0180301
837.872	0.0180097
837.950	0.0179453
838.029	0.0180689
838.107	0.0180869
838.185	0.0179949
838.263	0.0180257
838.341	0.0180674
838.419	0.0180181
838.497	0.0179030
838.575	0.0180245
838.654	0.0181073
838.732	0.0180545
838.810	0.0181351
838.888	0.0181264
838.966	0.0179752
839.044	0.0180441
839.122	0.0179643
839.200	0.0178749
839.279	0.0180695
839.357	0.0180466
839.435	0.0179487
839.513	0.0180919
839.591	0.0180413
839.669	0.0179382
839.747	0.0179910
839.825	0.0181282
839.904	0.0179912
839.982	0.0181190
840.060	0.0179784
840.138	0.0179943
840.216	0.0179668
840.294	0.0180567
840.372	0.0181351
840.450	0.0181330
840.529	0.0180602
840.607	0.0180413
840.685	0.0180516
840.763	0.0182574
840.841	0.0181884
840.919	0.0180840
840.997	0.0181575
841.075	0.0181392
841.154	0.0180853
841.232	0.0180984
841.310	0.0181528
841.388	0.0182043
841.466	0.0180293
841.544	0.0180962
841.622	0.0181595
841.700	0.0181066
841.779	0.0179882
841.857	0.0180515
841.935	0.0182050
842.013	0.0181776
842.091	0.0181450
842.169	0.0182092
842.247	0.0181670
842.325	0.0181283
842.404	0.0181207
842.482	0.0182341
842.560	0.0181023
842.638	0.0180590
842.716	0.0180782
842.794	0.0181012
842.872	0.0182003
842.950	0.0183164
843.029	0.0180962
843.107	0.0182151
843.185	0.0181572
843.263	0.0182012
843.341	0.0183160
843.419	0.0183536
843.497	0.0183773
843.575	0.0183281
843.654	0.0184300
843.732	0.0181939
843.810	0.0182250
843.888	0.0183089
843.966	0.0183574
844.044	0.0185012
844.122	0.0184749
844.200	0.0182644
844.279	0.0182609
844.357	0.0184283
844.435	0.0181629
844.513	0.0183698
844.591	0.0182535
844.669	0.0181850
844.747	0.0182832
844.825	0.0183157
844.904	0.0183741
844.982	0.0183822
845.060	0.0182601
845.138	0.0181553
845.216	0.0183482
845.294	0.0182845
845.372	0.0182171
845.450	0.0182922
845.529	0.0182413
845.607	0.0183146
845.685	0.0182188
845.763	0.0182896
845.841	0.0182661
845.919	0.0182622
845.997	0.0183211
846.075	0.0183163
846.154	0.0181789
846.232	0.0182030
846.310	0.0181247
846.388	0.0182234
846.466	0.0181989
846.544	0.0181892
846.622	0.0182513
846.700	0.0181810
846.779	0.0182587
846.857	0.0180714
846.935	0.0180745
847.013	0.0182243
847.091	0.0180739
847.169	0.0182798
847.247	0.0178867
847.325	0.0180495
847.404	0.0181498
847.482	0.0182509
847.560	0.0182454
847.638	0.0181234
847.716	0.0180518
847.794	0.0179880
847.872	0.0179476
847.950	0.0180616
848.029	0.0180975
848.107	0.0181905
848.185	0.0179655
848.263	0.0181703
848.341	0.0181593
848.419	0.0181114
848.497	0.0182275
848.575	0.0181918
848.654	0.0180996
848.732	0.0180866
848.810	0.0181483
848.888	0.0181145
848.966	0.0180374
849.044	0.0180759
849.122	0.0180568
849.200	0.0181528
849.279	0.0181081
849.357	0.0180784
849.435	0.0180816
849.513	0.0181195
849.591	0.0181462
849.669	0.0181213
849.747	0.0181089
849.825	0.0179811
849.904	0.0180445
849.982	0.0181081
850.060	0.0180415
850.138	0.0182261
850.216	0.0180107
850.294	0.0181291
850.372	0.0180621
850.450	0.0180811
850.529	0.0181252
850.607	0.0181626
850.685	0.0182363
850.763	0.0180997
850.841	0.0181172
850.919	0.0180683
850.997	0.0179668
851.075	0.0181277
851.154	0.0180939
851.232	0.0180983
851.310	0.0178915
851.388	0.0180989
851.466	0.0179408
851.544	0.0181149
851.622	0.0181144
851.700	0.0179761
851.779	0.0181067
851.857	0.0180747
851.935	0.0179834
852.013	0.0182073
852.091	0.0180811
852.169	0.0181617
852.247	0.0181146
852.325	0.0181539
852.404	0.0181467
852.482	0.0181837
852.560	0.0181216
852.638	0.0181731
852.716	0.0182863
852.794	0.0182288
852.872	0.0181891
852.950	0.0182810
853.029	0.0182758
853.107	0.0180548
853.185	0.0180750
853.263	0.0182180
853.341	0.0181899
853.419	0.0181100
853.497	0.0181597
853.575	0.0181183
853.654	0.0181895
853.732	0.0180134
853.810	0.0179808
853.888	0.0180544
853.966	0.0180122
854.044	0.0180447
854.122	0.0181223
854.200	0.0180970
854.279	0.0181437
854.357	0.0180285
854.435	0.0180227
854.513	0.0180644
854.591	0.0180878
854.669	0.0180417
854.747	0.0178096
854.825	0.0178534
854.904	0.0179906
854.982	0.0179566
855.060	0.0179662
855.138	0.0179135
855.216	0.0180492
855.294	0.0180099
855.372	0.0178831
855.450	0.0179530
855.529	0.0179442
855.607	0.0177932
855.685	0.0180080
855.763	0.0179917
855.841	0.0179000
855.919	0.0178786
855.997	0.0179462
856.075	0.0180176
856.154	0.0180181
856.232	0.0179884
856.310	0.0180141
856.388	0.0179699
856.466	0.0180311
856.544	0.0180423
856.622	0.0178427
856.700	0.0180072
856.779	0.0179950
856.857	0.0180431
856.935	0.0181736
857.013	0.0180717
857.091	0.0181168
857.169	0.0181059
857.247	0.0181071
857.325	0.0180832
857.404	0.0180766
857.482	0.0180318
857.560	0.0179956
857.638	0.0181039
857.716	0.0182178
857.794	0.0181271
857.872	0.0181294
857.950	0.0179935
858.029	0.0180632
858.107	0.0180367
858.185	0.0179847
858.263	0.0180548
858.341	0.0179712
858.419	0.0181979
858.497	0.0180853
858.575	0.0181075
858.654	0.0179904
858.732	0.0179855
858.810	0.0181254
858.888	0.0181264
858.966	0.0179740
859.044	0.0179330
859.122	0.0181136
859.200	0.0180340
859.279	0.0181938
859.357	0.0180265
859.435	0.0180096
859.513	0.0180388
859.591	0.0181734
859.669	0.0181309
859.747	0.0179456
859.825	0.0179543
859.904	0.0180454
859.982	0.0181303
860.060	0.0178667
860.138	0.0179469
860.216	0.0180968
860.294	0.0179464
860.372	0.0179184
860.450	0.0178740
860.529	0.0178878
860.607	0.0177608
860.685	0.0179624
860.763	0.0178815
860.841	0.0178674
860.919	0.0178145
860.997	0.0178074
861.075	0.0179168
861.154	0.0180087
861.232	0.0178827
861.310	0.0178557
861.388	0.0178865
861.466	0.0178915
861.544	0.0180381
861.622	0.0180221
861.700	0.0180035
861.779	0.0178165
861.857	0.0180034
861.935	0.0181057
862.013	0.0179507
862.091	0.0179685
862.169	0.0178659
862.247	0.0177996
862.325	0.0178539
862.404	0.0179370
862.482	0.0179260
862.560	0.0179521
862.638	0.0179710
862.716	0.0180515
862.794	0.0178828
862.872	0.0179727
862.950	0.0179574
863.029	0.0180053
863.107	0.0180504
863.185	0.0180355
863.263	0.0181181
863.341	0.0179248
863.419	0.0180526
863.497	0.0180666
863.575	0.0181008
863.654	0.0180499
863.732	0.0180801
863.810	0.0180694
863.888	0.0181395
863.966	0.0180392
864.044	0.0179974
864.122	0.0180618
864.200	0.0180882
864.279	0.0182629
864.357	0.0181156
864.435	0.0181200
864.513	0.0181932
864.591	0.0181364
864.669	0.0180773
864.747	0.0182101
864.825	0.0181418
864.904	0.0180802
864.982	0.0182156
865.060	0.0181786
865.138	0.0181780
865.216	0.0182999
865.294	0.0181814
865.372	0.0181944
865.450	0.0181114
865.529	0.0182095
865.607	0.0183453
865.685	0.0184095
865.763	0.0183398
865.841	0.0181851
865.919	0.0182713
865.997	0.0181255
866.075	0.0181915
866.154	0.0182749
866.232	0.0183355
866.310	0.0183381
866.388	0.0183923
866.466	0.0181690
866.544	0.0182413
866.622	0.0182840
866.700	0.0182706
866.779	0.0181918
866.857	0.0182919
866.935	0.0183868
867.013	0.0183394
867.091	0.0182888
867.169	0.0181744
867.247	0.0184270
867.325	0.0183078
867.404	0.0182951
867.482	0.0180940
867.560	0.0182787
867.638	0.0182849
867.716	0.0182737
867.794	0.0181468
867.872	0.0182858
867.950	0.0182032
868.029	0.0180901
868.107	0.0181381
868.185	0.0182552
868.263	0.0182089
868.341	0.0181851
868.419	0.0180433
868.497	0.0181758
868.575	0.0182022
868.654	0.0180907
868.732	0.0180609
868.810	0.0181190
868.888	0.0181352
868.966	0.0181255
869.044	0.0180270
869.122	0.0180972
869.200	0.0181664
869.279	0.0181908
869.357	0.0182524
869.435	0.0180561
869.513	0.0180423
869.591	0.0180929
869.669	0.0181258
869.747	0.0180983
869.825	0.0179747
869.904	0.0181550
869.982	0.0179819
870.060	0.0179900
870.138	0.0181994
870.216	0.0179573
870.294	0.0180669
870.372	0.0180843
870.450	0.0179945
870.529	0.0180974
870.607	0.0180309
870.685	0.0180794
870.763	0.0180737
870.841	0.0181817
870.919	0.0181886
870.997	0.0180943
871.075	0.0179869
871.154	0.0180500
871.232	0.0181720
871.310	0.0181214
871.388	0.0181416
871.466	0.0181242
871.544	0.0181396
871.622	0.0182257
871.700	0.0182244
871.779	0.0180803
871.857	0.0183327
871.935	0.0182118
872.013	0.0180119
872.091	0.0182238
872.169	0.0181025
872.247	0.0180386
872.325	0.0182922
872.404	0.0182660
872.482	0.0181520
872.560	0.0181863
872.638	0.0181302
872.716	0.0180888
872.794	0.0181235
872.872	0.0180969
872.950	0.0180264
873.029	0.0182066
873.107	0.0181409
873.185	0.0180753
873.263	0.0181276
873.341	0.0181110
873.419	0.0181324
873.497	0.0181178
873.575	0.0182068
873.654	0.0180500
873.732	0.0180817
873.810	0.0181382
873.888	0.0181165
873.966	0.0181476
874.044	0.0181541
874.122	0.0181181
874.200	0.0180598
874.279	0.0181628
874.357	0.0181732
874.435	0.0180256
874.513	0.0179527
874.591	0.0180718
874.669	0.0181879
874.747	0.0180333
874.825	0.0179583
874.904	0.0180860
874.982	0.0180740
875.060	0.0181821
875.138	0.0181726
875.216	0.0181253
875.294	0.0180843
875.372	0.0182015
875.450	0.0182291
875.529	0.0181467
875.607	0.0181215
875.685	0.0180859
875.763	0.0181188
875.841	0.0181540
875.919	0.0181528
875.997	0.0181834
876.075	0.0181354
876.154	0.0181757
876.232	0.0180249
876.310	0.0180431
876.388	0.0180332
876.466	0.0180467
876.544	0.0180240
876.622	0.0181184
876.700	0.0181798
876.779	0.0180368
876.857	0.0181295
876.935	0.0180620
877.013	0.0180595
877.091	0.0180700
877.169	0.0180216
877.247	0.0180991
877.325	0.0179783
877.404	0.0180457
877.482	0.0180862
877.560	0.0181129
877.638	0.0180536
877.716	0.0181328
877.794	0.0179753
877.872	0.0179087
877.950	0.0179781
878.029	0.0180581
878.107	0.0180248
878.185	0.0178937
878.263	0.0180484
878.341	0.0179717
878.419	0.0180238
878.497	0.0180836
878.575	0.0180933
878.654	0.0180872
878.732	0.0179782
878.810	0.0180787
878.888	0.0180792
878.966	0.0181279
879.044	0.0181846
879.122	0.0181915
879.200	0.0180930
879.279	0.0181290
879.357	0.0181918
879.435	0.0181673
879.513	0.0181573
879.591	0.0182732
879.669	0.0181660
879.747	0.0181939
879.825	0.0182241
879.904	0.0182188
879.982	0.0182193
880.060	0.0182945
880.138	0.0181464
880.216	0.0182238
880.294	0.0180659
880.372	0.0182256
880.450	0.0182343
880.529	0.0182751
880.607	0.0182784
880.685	0.0182628
880.763	0.0181306
880.841	0.0182384
880.919	0.0182122
880.997	0.0181950
881.075	0.0181686
881.154	0.0181698
881.232	0.0181710
881.310	0.0180035
881.388	0.0180494
881.466	0.0181357
881.544	0.0181712
881.622	0.0180273
881.700	0.0181476
881.779	0.0181602
881.857	0.0182165
881.935	0.0180498
882.013	0.0180026
882.091	0.0180466
882.169	0.0180096
882.247	0.0178412
882.325	0.0178882
882.404	0.0179065
882.482	0.0179404
882.560	0.0181538
882.638	0.0181606
882.716	0.0180206
882.794	0.0180087
882.872	0.0180563
882.950	0.0178761
883.029	0.0180166
883.107	0.0180426
883.185	0.0179918
883.263	0.0179118
883.341	0.0181069
883.419	0.0179805
883.497	0.0180199
883.575	0.0180070
883.654	0.0179521
883.732	0.0179991
883.810	0.0181091
883.888	0.0181013
883.966	0.0180132
884.044	0.0178355
884.122	0.0180897
884.200	0.0180888
884.279	0.0180728
884.357	0.0179733
884.435	0.0181231
884.513	0.0180675
884.591	0.0179388
884.669	0.0179526
884.747	0.0180028
884.825	0.0180006
884.904	0.0179852
884.982	0.0180983
885.060	0.0181190
885.138	0.0182301
885.216	0.0180074
885.294	0.0180511
885.372	0.0180240
885.450	0.0180886
885.529	0.0180806
885.607	0.0180750
885.685	0.0180856
885.763	0.0180356
885.841	0.0180857
885.919	0.0180775
885.997	0.0180766
886.075	0.0180589
886.154	0.0181264
886.232	0.0181715
886.310	0.0182207
886.388	0.0180865
886.466	0.0182921
886.544	0.0180787
886.622	0.0182531
886.700	0.0181816
886.779	0.0181349
886.857	0.0180875
886.935	0.0182230
887.013	0.0182306
887.091	0.0183596
887.169	0.0181829
887.247	0.0182121
887.325	0.0182321
887.404	0.0182612
887.482	0.0182558
887.560	0.0181245
887.638	0.0182764
887.716	0.0183214
887.794	0.0182058
887.872	0.0182970
887.950	0.0182651
888.029	0.0183427
888.107	0.0183160
888.185	0.0181759
888.263	0.0183020
888.341	0.0184121
888.419	0.0182981
888.497	0.0181811
888.575	0.0183986
888.654	0.0182378
888.732	0.0181823
888.810	0.0182811
888.888	0.0184602
888.966	0.0181950
889.044	0.0182571
889.122	0.0182693
889.200	0.0182433
889.279	0.0181217
889.357	0.0182171
889.435	0.0181930
889.513	0.0181688
889.591	0.0180851
889.669	0.0180959
889.747	0.0180155
889.825	0.0181641
889.904	0.0180051
889.982	0.0181412
890.060	0.0180525
890.138	0.0180681
890.216	0.0179778
890.294	0.0180123
890.372	0.0179527
890.450	0.0181662
890.529	0.0182069
890.607	0.0180864
890.685	0.0180706
890.763	0.0179893
890.841	0.0180247
890.919	0.0180379
890.997	0.0181370
891.075	0.0182024
891.154	0.0180322
891.232	0.0181597
891.310	0.0182344
891.388	0.0182017
891.466	0.0180311
891.544	0.0181838
891.622	0.0181895
891.700	0.0182752
891.779	0.0181663
891.857	0.0181095
891.935	0.0182783
892.013	0.0182944
892.091	0.0182237
892.169	0.0181593
892.247	0.0181750
892.325	0.0180643
892.404	0.0181882
892.482	0.0181043
892.560	0.0182223
892.638	0.0180584
892.716	0.0181396
892.794	0.0181867
892.872	0.0181012
892.950	0.0181838
893.029	0.0183369
893.107	0.0181602
893.185	0.0182072
893.263	0.0181770
893.341	0.0181567
893.419	0.0182028
893.497	0.0181533
893.575	0.0181513
893.654	0.0181660
893.732	0.0182597
893.810	0.0182680
893.888	0.0181608
893.966	0.0181886
894.044	0.0181571
894.122	0.0181489
894.200	0.0181382
894.279	0.0180268
894.357	0.0181185
894.435	0.0181783
894.513	0.0181486
894.591	0.0181507
894.669	0.0179609
894.747	0.0180602
894.825	0.0180428
894.904	0.0179872
894.982	0.0182833
895.060	0.0182197
895.138	0.0181047
895.216	0.0181362
895.294	0.0179958
895.372	0.0181464
895.450	0.0180659
895.529	0.0181511
895.607	0.0179565
895.685	0.0180328
895.763	0.0181358
895.841	0.0181323
895.919	0.0179398
895.997	0.0180494
896.075	0.0182388
896.154	0.0181854
896.232	0.0181400
896.310	0.0181242
896.388	0.0180945
896.466	0.0180595
896.544	0.0181770
896.622	0.0181443
896.700	0.0182012
896.779	0.0181979
896.857	0.0181815
896.935	0.0181017
897.013	0.0181143
897.091	0.0181481
897.169	0.0181192
897.247	0.0181519
897.325	0.0181429
897.404	0.0180785
897.482	0.0180837
897.560	0.0181367
897.638	0.0181712
897.716	0.0181804
897.794	0.0182567
897.872	0.0181191
897.950	0.0181353
898.029	0.0181447
898.107	0.0181693
898.185	0.0181947
898.263	0.0181011
898.341	0.0181264
898.419	0.0180406
898.497	0.0181850
898.575	0.0182497
898.654	0.0181771
898.732	0.0181862
898.810	0.0180932
898.888	0.0181940
898.966	0.0182605
899.044	0.0181792
899.122	0.0181525
899.200	0.0181257
899.279	0.0180398
899.357	0.0180829
899.435	0.0181399
899.513	0.0181502
899.591	0.0182160
899.669	0.0180199
899.747	0.0182119
899.825	0.0182030
899.904	0.0181358
899.982	0.0180594
900.060	0.0181184
900.138	0.0180883
900.216	0.0179913
900.294	0.0180060
900.372	0.0181113
900.450	0.0181761
900.529	0.0181285
900.607	0.0180199
900.685	0.0180444
900.763	0.0178603
900.841	0.0180097
900.919	0.0180775
900.997	0.0180323
901.075	0.0180676
901.154	0.0180569
901.232	0.0180309
901.310	0.0180117
901.388	0.0180053
901.466	0.0180707
901.544	0.0179956
901.622	0.0179875
901.700	0.0181134
901.779	0.0181055
901.857	0.0179465
901.935	0.0179258
902.013	0.0180877
902.091	0.0179670
902.169	0.0179025
902.247	0.0179217
902.325	0.0179950
902.404	0.0180519
902.482	0.0181550
902.560	0.0179155
902.638	0.0180873
902.716	0.0180368
902.794	0.0180051
902.872	0.0181226
902.950	0.0181511
903.029	0.0179409
903.107	0.0178913
903.185	0.0182249
903.263	0.0180357
903.341	0.0181798
903.419	0.0180788
903.497	0.0180136
903.575	0.0181467
903.654	0.0180357
903.732	0.0181888
903.810	0.0181989
903.888	0.0179771
903.966	0.0181051
904.044	0.0182273
904.122	0.0180669
904.200	0.0180415
904.279	0.0178936
904.357	0.0180688
904.435	0.0181554
904.513	0.0181953
904.591	0.0181977
904.669	0.0180274
904.747	0.0181889
904.825	0.0180780
904.904	0.0180247
904.982	0.0181797
905.060	0.0181284
905.138	0.0181766
905.216	0.0182751
905.294	0.0180053
905.372	0.0180241
905.450	0.0181261
905.529	0.0181645
905.607	0.0180921
905.685	0.0182017
905.763	0.0181561
905.841	0.0181669
905.919	0.0181497
905.997	0.0180714
906.075	0.0182282
906.154	0.0180933
906.232	0.0181391
906.310	0.0182372
906.388	0.0180297
906.466	0.0181221
906.544	0.0180330
906.622	0.0180714
906.700	0.0180233
906.779	0.0181939
906.857	0.0179313
906.935	0.0181231
907.013	0.0180215
907.091	0.0180190
907.169	0.0181503
907.247	0.0181144
907.325	0.0180860
907.404	0.0180791
907.482	0.0181544
907.560	0.0181686
907.638	0.0181207
907.716	0.0181281
907.794	0.0181512
907.872	0.0182823
907.950	0.0181647
908.029	0.0181413
908.107	0.0182633
908.185	0.0181181
908.263	0.0181282
908.341	0.0181824
908.419	0.0182372
908.497	0.0182417
908.575	0.0182716
908.654	0.0181210
908.732	0.0182024
908.810	0.0181551
908.888	0.0181516
908.966	0.0181545
909.044	0.0182803
909.122	0.0180897
909.200	0.0181014
909.279	0.0179455
909.357	0.0181320
909.435	0.0180705
909.513	0.0181324
909.591	0.0180011
909.669	0.0181358
909.747	0.0180655
909.825	0.0180418
909.904	0.0179745
909.982	0.0179960
910.060	0.0178890
910.138	0.0179379
910.216	0.0179469
910.294	0.0178427
910.372	0.0180762
910.450	0.0180833
910.529	0.0180672
910.607	0.0180672
910.685	0.0179794
910.763	0.0180396
910.841	0.0180527
910.919	0.0181054
910.997	0.0179617
911.075	0.0179668
911.154	0.0180270
911.232	0.0179828
911.310	0.0179290
911.388	0.0178340
911.466	0.0179260
911.544	0.0179537
911.622	0.0179736
911.700	0.0179475
911.779	0.0179300
911.857	0.0180820
911.935	0.0179895
912.013	0.0180627
912.091	0.0179562
912.169	0.0180411
912.247	0.0178117
912.325	0.0180613
912.404	0.0180003
912.482	0.0179737
912.560	0.0180894
912.638	0.0180990
912.716	0.0180595
912.794	0.0180249
912.872	0.0181683
912.950	0.0182375
913.029	0.0180158
913.107	0.0181660
913.185	0.0181080
913.263	0.0181284
913.341	0.0181516
913.419	0.0182060
913.497	0.0180928
913.575	0.0182066
913.654	0.0181248
913.732	0.0181168
913.810	0.0180424
913.888	0.0181086
913.966	0.0181319
914.044	0.0181425
914.122	0.0181660
914.200	0.0180293
914.279	0.0180737
914.357	0.0181928
914.435	0.0180373
914.513	0.0181068
914.591	0.0180235
914.669	0.0181328
914.747	0.0182040
914.825	0.0180938
914.904	0.0180311
914.982	0.0180039
915.060	0.0179806
915.138	0.0179223
915.216	0.0179811
915.294	0.0180324
915.372	0.0179620
915.450	0.0180646
915.529	0.0180013
915.607	0.0180837
915.685	0.0180231
915.763	0.0179311
915.841	0.0181754
915.919	0.0180495
915.997	0.0179691
916.075	0.0180784
916.154	0.0179870
916.232	0.0181392
916.310	0.0181912
916.388	0.0182713
916.466	0.0182224
916.544	0.0181532
916.622	0.0180795
916.700	0.0182369
916.779	0.0181100
916.857	0.0182028
916.935	0.0182875
917.013	0.0182298
917.091	0.0181396
917.169	0.0180846
917.247	0.0180706
917.325	0.0183321
917.404	0.0182996
917.482	0.0181935
917.560	0.0181549
917.638	0.0181552
917.716	0.0181744
917.794	0.0181858
917.872	0.0183315
917.950	0.0182891
918.029	0.0181546
918.107	0.0181154
918.185	0.0181448
918.263	0.0179683
918.341	0.0181140
918.419	0.0181289
918.497	0.0181647
918.575	0.0182899
918.654	0.0180685
918.732	0.0179701
918.810	0.0181489
918.888	0.0181569
918.966	0.0180599
919.044	0.0180655
919.122	0.0183522
919.200	0.0182049
919.279	0.0180982
919.357	0.0182487
919.435	0.0181696
919.513	0.0182271
919.591	0.0179974
919.669	0.0183034
919.747	0.0182135
919.825	0.0180386
919.904	0.0182162
