06/03/2022	14:20:46	Ver.	4.1	UNKNOWN
Optical Delay	599.981738	Delta X		0.078125	Sweeps	1	Scan Rate	0/0
Coordinates	Axis 1	NaN	Axis 2	NaN	Axis 3	NaN	Axis 4	NaN	Axis 5	NaN	Axis 6	0.000000
TX Power	0.000000	RX Power	0.000000

599.982	0.0178190
600.060	0.0177801
600.138	0.0178823
600.216	0.0177845
600.294	0.0179467
600.372	0.0178609
600.450	0.0178549
600.529	0.0178926
600.607	0.0179215
600.685	0.0180067
600.763	0.0180361
600.841	0.0178970
600.919	0.0180284
600.997	0.0179927
601.075	0.0179346
601.154	0.0179137
601.232	0.0180250
601.310	0.0179128
601.388	0.0179701
601.466	0.0180135
601.544	0.0180565
601.622	0.0180885
601.700	0.0181186
601.779	0.0178738
601.857	0.0180035
601.935	0.0179153
602.013	0.0178700
602.091	0.0180333
602.169	0.0179463
602.247	0.0179263
602.325	0.0179105
602.404	0.0179118
602.482	0.0179079
602.560	0.0179914
602.638	0.0178007
602.716	0.0177501
602.794	0.0179019
602.872	0.0177714
602.950	0.0179205
603.029	0.0176631
603.107	0.0178922
603.185	0.0179226
603.263	0.0179030
603.341	0.0178085
603.419	0.0177388
603.497	0.0177649
603.575	0.0178553
603.654	0.0179477
603.732	0.0178571
603.810	0.0178909
603.888	0.0179037
603.966	0.0179434
604.044	0.0179729
604.122	0.0179872
604.200	0.0178850
604.279	0.0178478
604.357	0.0179525
604.435	0.0178630
604.513	0.0177821
604.591	0.0179272
604.669	0.0177119
604.747	0.0178864
604.825	0.0179543
604.904	0.0178387
604.982	0.0177498
605.060	0.0178159
605.138	0.0178959
605.216	0.0180399
605.294	0.0179224
605.372	0.0180064
605.450	0.0179396
605.529	0.0178869
605.607	0.0179420
605.685	0.0179832
605.763	0.0179149
605.841	0.0179136
605.919	0.0178176
605.997	0.0179916
606.075	0.0178107
606.154	0.0178667
606.232	0.0178709
606.310	0.0177653
606.388	0.0178130
606.466	0.0177608
606.544	0.0178635
606.622	0.0179258
606.700	0.0178836
606.779	0.0179497
606.857	0.0178604
606.935	0.0178804
607.013	0.0179179
607.091	0.0180275
607.169	0.0179834
607.247	0.0179544
607.325	0.0178731
607.404	0.0178503
607.482	0.0177214
607.560	0.0177541
607.638	0.0176965
607.716	0.0177685
607.794	0.0177828
607.872	0.0178024
607.950	0.0178343
608.029	0.0177805
608.107	0.0179048
608.185	0.0178389
608.263	0.0177827
608.341	0.0178580
608.419	0.0178547
608.497	0.0178146
608.575	0.0177688
608.654	0.0177028
608.732	0.0178236
608.810	0.0177503
608.888	0.0176756
608.966	0.0177627
609.044	0.0175585
609.122	0.0177626
609.200	0.0176646
609.279	0.0177712
609.357	0.0176914
609.435	0.0178624
609.513	0.0177659
609.591	0.0178542
609.669	0.0179819
609.747	0.0178071
609.825	0.0179218
609.904	0.0180090
609.982	0.0179636
610.060	0.0180521
610.138	0.0179700
610.216	0.0178244
610.294	0.0178760
610.372	0.0179027
610.450	0.0178584
610.529	0.0178217
610.607	0.0178924
610.685	0.0178495
610.763	0.0177283
610.841	0.0178436
610.919	0.0179002
610.997	0.0178538
611.075	0.0179539
611.154	0.0180390
611.232	0.0178197
611.310	0.0180004
611.388	0.0179140
611.466	0.0179819
611.544	0.0180058
611.622	0.0179436
611.700	0.0178209
611.779	0.0178851
611.857	0.0178562
611.935	0.0177485
612.013	0.0179246
612.091	0.0178884
612.169	0.0177316
612.247	0.0177589
612.325	0.0179166
612.404	0.0178275
612.482	0.0178207
612.560	0.0177599
612.638	0.0178069
612.716	0.0177734
612.794	0.0178628
612.872	0.0178587
612.950	0.0177355
613.029	0.0178491
613.107	0.0180838
613.185	0.0178896
613.263	0.0177831
613.341	0.0179398
613.419	0.0179127
613.497	0.0179175
613.575	0.0177557
613.654	0.0177478
613.732	0.0178310
613.810	0.0177209
613.888	0.0177495
613.966	0.0177666
614.044	0.0178164
614.122	0.0178374
614.200	0.0179195
614.279	0.0177843
614.357	0.0178966
614.435	0.0179378
614.513	0.0177304
614.591	0.0177093
614.669	0.0178389
614.747	0.0179510
614.825	0.0177296
614.904	0.0176994
614.982	0.0177631
615.060	0.0176879
615.138	0.0177026
615.216	0.0176939
615.294	0.0177617
615.372	0.0179755
615.450	0.0178850
615.529	0.0177255
615.607	0.0178687
615.685	0.0178761
615.763	0.0178510
615.841	0.0177269
615.919	0.0179151
615.997	0.0179523
616.075	0.0178374
616.154	0.0178571
616.232	0.0179958
616.310	0.0178701
616.388	0.0179099
616.466	0.0177872
616.544	0.0178248
616.622	0.0178900
616.700	0.0177290
616.779	0.0177797
616.857	0.0178666
616.935	0.0178970
617.013	0.0179645
617.091	0.0178733
617.169	0.0178825
617.247	0.0178480
617.325	0.0179796
617.404	0.0179642
617.482	0.0179015
617.560	0.0180069
617.638	0.0178908
617.716	0.0177868
617.794	0.0179451
617.872	0.0179128
617.950	0.0179545
618.029	0.0179107
618.107	0.0178882
618.185	0.0177303
618.263	0.0177316
618.341	0.0178313
618.419	0.0179217
618.497	0.0178851
618.575	0.0178770
618.654	0.0178680
618.732	0.0177884
618.810	0.0178892
618.888	0.0178758
618.966	0.0179111
619.044	0.0178428
619.122	0.0178477
619.200	0.0178314
619.279	0.0179040
619.357	0.0177793
619.435	0.0178627
619.513	0.0178541
619.591	0.0177753
619.669	0.0177121
619.747	0.0177924
619.825	0.0177743
619.904	0.0179026
619.982	0.0178606
620.060	0.0177677
620.138	0.0178057
620.216	0.0178487
620.294	0.0178721
620.372	0.0178679
620.450	0.0179306
620.529	0.0177267
620.607	0.0177539
620.685	0.0179422
620.763	0.0179391
620.841	0.0178030
620.919	0.0177457
620.997	0.0177572
621.075	0.0177432
621.154	0.0178049
621.232	0.0177487
621.310	0.0177828
621.388	0.0177427
621.466	0.0179514
621.544	0.0178629
621.622	0.0178854
621.700	0.0178546
621.779	0.0178007
621.857	0.0177615
621.935	0.0178836
622.013	0.0178636
622.091	0.0178100
622.169	0.0177290
622.247	0.0178442
622.325	0.0177950
622.404	0.0177122
622.482	0.0179562
622.560	0.0178500
622.638	0.0179012
622.716	0.0179712
622.794	0.0178227
622.872	0.0177145
622.950	0.0178764
623.029	0.0178759
623.107	0.0178563
623.185	0.0179041
623.263	0.0177043
623.341	0.0180099
623.419	0.0179700
623.497	0.0178428
623.575	0.0177334
623.654	0.0177936
623.732	0.0179047
623.810	0.0177957
623.888	0.0177213
623.966	0.0179552
624.044	0.0178610
624.122	0.0179283
624.200	0.0177932
624.279	0.0177514
624.357	0.0177381
624.435	0.0177995
624.513	0.0178135
624.591	0.0177561
624.669	0.0177519
624.747	0.0177027
624.825	0.0178925
624.904	0.0177040
624.982	0.0178046
625.060	0.0177720
625.138	0.0177783
625.216	0.0177109
625.294	0.0176791
625.372	0.0177921
625.450	0.0177431
625.529	0.0177860
625.607	0.0178562
625.685	0.0176807
625.763	0.0178153
625.841	0.0177076
625.919	0.0177200
625.997	0.0177688
626.075	0.0177840
626.154	0.0176328
626.232	0.0176360
626.310	0.0176996
626.388	0.0177562
626.466	0.0177350
626.544	0.0176730
626.622	0.0177468
626.700	0.0178062
626.779	0.0176836
626.857	0.0176135
626.935	0.0176992
627.013	0.0177584
627.091	0.0176486
627.169	0.0175977
627.247	0.0177428
627.325	0.0177071
627.404	0.0177467
627.482	0.0177649
627.560	0.0178003
627.638	0.0177361
627.716	0.0177474
627.794	0.0178040
627.872	0.0176778
627.950	0.0177500
628.029	0.0178718
628.107	0.0176422
628.185	0.0176094
628.263	0.0176913
628.341	0.0176954
628.419	0.0177281
628.497	0.0176374
628.575	0.0176438
628.654	0.0178143
628.732	0.0176415
628.810	0.0176144
628.888	0.0176958
628.966	0.0177502
629.044	0.0177566
629.122	0.0177757
629.200	0.0176781
629.279	0.0178080
629.357	0.0177821
629.435	0.0177462
629.513	0.0177222
629.591	0.0178652
629.669	0.0178374
629.747	0.0179339
629.825	0.0178504
629.904	0.0179671
629.982	0.0179131
630.060	0.0178751
630.138	0.0179417
630.216	0.0178616
630.294	0.0178569
630.372	0.0179833
630.450	0.0179411
630.529	0.0179307
630.607	0.0178030
630.685	0.0178082
630.763	0.0179420
630.841	0.0179111
630.919	0.0179520
630.997	0.0178930
631.075	0.0179729
631.154	0.0179097
631.232	0.0180325
631.310	0.0180762
631.388	0.0179256
631.466	0.0180546
631.544	0.0179399
631.622	0.0180502
631.700	0.0180759
631.779	0.0179269
631.857	0.0178594
631.935	0.0179803
632.013	0.0181461
632.091	0.0179726
632.169	0.0181306
632.247	0.0180962
632.325	0.0180767
632.404	0.0181039
632.482	0.0181149
632.560	0.0179822
632.638	0.0179126
632.716	0.0180946
632.794	0.0180937
632.872	0.0179257
632.950	0.0179690
633.029	0.0179958
633.107	0.0179646
633.185	0.0177436
633.263	0.0180058
633.341	0.0180440
633.419	0.0179872
633.497	0.0178175
633.575	0.0178825
633.654	0.0180061
633.732	0.0180594
633.810	0.0179889
633.888	0.0179720
633.966	0.0178788
634.044	0.0178840
634.122	0.0179015
634.200	0.0179238
634.279	0.0179714
634.357	0.0179720
634.435	0.0179616
634.513	0.0178551
634.591	0.0178945
634.669	0.0178603
634.747	0.0178706
634.825	0.0177885
634.904	0.0179314
634.982	0.0179155
635.060	0.0178528
635.138	0.0178637
635.216	0.0179343
635.294	0.0177990
635.372	0.0179169
635.450	0.0179453
635.529	0.0179523
635.607	0.0177930
635.685	0.0179018
635.763	0.0178699
635.841	0.0177727
635.919	0.0177447
635.997	0.0179150
636.075	0.0178007
636.154	0.0176424
636.232	0.0179577
636.310	0.0178465
636.388	0.0177264
636.466	0.0176942
636.544	0.0178024
636.622	0.0177152
636.700	0.0178405
636.779	0.0178139
636.857	0.0177729
636.935	0.0178091
637.013	0.0177088
637.091	0.0176908
637.169	0.0177722
637.247	0.0176848
637.325	0.0177280
637.404	0.0177412
637.482	0.0176375
637.560	0.0177490
637.638	0.0177160
637.716	0.0177333
637.794	0.0177373
637.872	0.0176691
637.950	0.0177751
638.029	0.0177798
638.107	0.0177316
638.185	0.0177950
638.263	0.0177187
638.341	0.0177894
638.419	0.0178379
638.497	0.0179593
638.575	0.0178969
638.654	0.0177434
638.732	0.0179100
638.810	0.0179561
638.888	0.0179111
638.966	0.0179421
639.044	0.0179819
639.122	0.0177966
639.200	0.0177844
639.279	0.0178133
639.357	0.0178973
639.435	0.0178708
639.513	0.0178533
639.591	0.0179340
639.669	0.0180124
639.747	0.0178037
639.825	0.0177771
639.904	0.0178493
639.982	0.0177747
640.060	0.0176586
640.138	0.0177973
640.216	0.0178481
640.294	0.0177319
640.372	0.0178127
640.450	0.0178004
640.529	0.0178004
640.607	0.0176759
640.685	0.0177427
640.763	0.0177766
640.841	0.0177690
640.919	0.0178276
640.997	0.0176667
641.075	0.0176517
641.154	0.0177862
641.232	0.0176917
641.310	0.0177234
641.388	0.0178273
641.466	0.0178075
641.544	0.0177161
641.622	0.0177445
641.700	0.0179248
641.779	0.0178889
641.857	0.0178248
641.935	0.0178755
642.013	0.0178959
642.091	0.0180251
642.169	0.0178178
642.247	0.0179248
642.325	0.0179503
642.404	0.0178254
642.482	0.0178658
642.560	0.0179218
642.638	0.0178587
642.716	0.0178661
642.794	0.0178465
642.872	0.0177631
642.950	0.0179552
643.029	0.0178017
643.107	0.0176737
643.185	0.0177945
643.263	0.0178083
643.341	0.0178297
643.419	0.0179064
643.497	0.0177012
643.575	0.0176745
643.654	0.0178880
643.732	0.0178181
643.810	0.0178012
643.888	0.0176907
643.966	0.0176768
644.044	0.0177628
644.122	0.0177936
644.200	0.0176680
644.279	0.0177376
644.357	0.0177225
644.435	0.0177969
644.513	0.0177256
644.591	0.0176829
644.669	0.0177879
644.747	0.0177904
644.825	0.0177048
644.904	0.0176495
644.982	0.0177321
645.060	0.0178554
645.138	0.0177544
645.216	0.0177178
645.294	0.0176736
645.372	0.0177573
645.450	0.0177029
645.529	0.0176970
645.607	0.0177317
645.685	0.0177582
645.763	0.0176962
645.841	0.0177512
645.919	0.0177016
645.997	0.0176797
646.075	0.0178094
646.154	0.0176536
646.232	0.0176163
646.310	0.0178831
646.388	0.0178375
646.466	0.0178674
646.544	0.0177853
646.622	0.0177708
646.700	0.0178118
646.779	0.0177355
646.857	0.0178785
646.935	0.0179333
647.013	0.0177708
647.091	0.0180280
647.169	0.0178712
647.247	0.0177444
647.325	0.0176607
647.404	0.0177296
647.482	0.0177152
647.560	0.0175772
647.638	0.0176621
647.716	0.0177289
647.794	0.0176822
647.872	0.0177697
647.950	0.0176093
648.029	0.0177760
648.107	0.0177328
648.185	0.0176948
648.263	0.0176971
648.341	0.0177577
648.419	0.0175931
648.497	0.0177512
648.575	0.0177444
648.654	0.0176502
648.732	0.0176957
648.810	0.0176768
648.888	0.0176750
648.966	0.0176081
649.044	0.0176433
649.122	0.0176854
649.200	0.0176200
649.279	0.0175552
649.357	0.0177003
649.435	0.0177065
649.513	0.0176105
649.591	0.0175660
649.669	0.0176156
649.747	0.0176900
649.825	0.0177093
649.904	0.0176741
649.982	0.0176807
650.060	0.0177149
650.138	0.0176650
650.216	0.0176900
650.294	0.0176408
650.372	0.0176283
650.450	0.0176250
650.529	0.0177001
650.607	0.0176566
650.685	0.0176625
650.763	0.0177399
650.841	0.0176817
650.919	0.0178043
650.997	0.0176559
651.075	0.0176452
651.154	0.0178625
651.232	0.0177518
651.310	0.0178799
651.388	0.0178514
651.466	0.0178040
651.544	0.0178078
651.622	0.0178784
651.700	0.0178179
651.779	0.0179588
651.857	0.0179930
651.935	0.0179224
652.013	0.0178801
652.091	0.0179785
652.169	0.0179631
652.247	0.0179439
652.325	0.0180406
652.404	0.0179366
652.482	0.0178263
652.560	0.0178568
652.638	0.0179530
652.716	0.0179401
652.794	0.0177641
652.872	0.0179498
652.950	0.0176957
653.029	0.0177691
653.107	0.0176809
653.185	0.0177184
653.263	0.0176556
653.341	0.0175485
653.419	0.0176001
653.497	0.0176917
653.575	0.0175376
653.654	0.0175351
653.732	0.0175931
653.810	0.0176942
653.888	0.0176173
653.966	0.0176126
654.044	0.0177514
654.122	0.0177257
654.200	0.0176862
654.279	0.0177898
654.357	0.0177670
654.435	0.0178484
654.513	0.0178531
654.591	0.0178589
654.669	0.0177408
654.747	0.0178149
654.825	0.0177330
654.904	0.0177095
654.982	0.0178897
655.060	0.0177689
655.138	0.0178206
655.216	0.0178577
655.294	0.0180230
655.372	0.0178111
655.450	0.0177834
655.529	0.0179010
655.607	0.0178638
655.685	0.0178777
655.763	0.0178166
655.841	0.0177211
655.919	0.0176003
655.997	0.0176985
656.075	0.0178313
656.154	0.0175773
656.232	0.0177137
656.310	0.0176971
656.388	0.0175439
656.466	0.0177425
656.544	0.0177879
656.622	0.0175568
656.700	0.0177406
656.779	0.0178709
656.857	0.0177386
656.935	0.0176495
657.013	0.0178590
657.091	0.0179078
657.169	0.0178232
657.247	0.0178067
657.325	0.0178553
657.404	0.0179269
657.482	0.0178282
657.560	0.0178039
657.638	0.0179318
657.716	0.0179903
657.794	0.0178991
657.872	0.0179192
657.950	0.0180077
658.029	0.0178785
658.107	0.0178317
658.185	0.0178857
658.263	0.0179043
658.341	0.0178725
658.419	0.0179942
658.497	0.0179594
658.575	0.0179995
658.654	0.0179655
658.732	0.0179070
658.810	0.0179964
658.888	0.0180145
658.966	0.0179233
659.044	0.0179598
659.122	0.0179449
659.200	0.0179095
659.279	0.0179798
659.357	0.0177637
659.435	0.0177508
659.513	0.0177252
659.591	0.0176717
659.669	0.0177103
659.747	0.0177203
659.825	0.0176626
659.904	0.0176874
659.982	0.0178706
660.060	0.0179307
660.138	0.0179845
660.216	0.0176974
660.294	0.0176783
660.372	0.0179379
660.450	0.0178959
660.529	0.0178020
660.607	0.0177459
660.685	0.0179250
660.763	0.0180414
660.841	0.0177987
660.919	0.0178826
660.997	0.0179284
661.075	0.0180200
661.154	0.0179398
661.232	0.0178230
661.310	0.0178337
661.388	0.0178322
661.466	0.0178211
661.544	0.0178008
661.622	0.0178617
661.700	0.0177782
661.779	0.0176919
661.857	0.0177320
661.935	0.0176625
662.013	0.0175873
662.091	0.0175826
662.169	0.0176845
662.247	0.0175656
662.325	0.0177079
662.404	0.0176688
662.482	0.0177071
662.560	0.0175573
662.638	0.0176940
662.716	0.0178708
662.794	0.0177765
662.872	0.0177209
662.950	0.0179450
663.029	0.0179263
663.107	0.0179308
663.185	0.0179465
663.263	0.0180083
663.341	0.0180767
663.419	0.0178582
663.497	0.0180033
663.575	0.0181308
663.654	0.0178142
663.732	0.0178838
663.810	0.0179122
663.888	0.0178819
663.966	0.0177021
664.044	0.0177159
664.122	0.0177930
664.200	0.0176936
664.279	0.0175404
664.357	0.0176075
664.435	0.0176712
664.513	0.0177061
664.591	0.0176694
664.669	0.0177834
664.747	0.0177903
664.825	0.0176225
664.904	0.0176496
664.982	0.0176641
665.060	0.0177679
665.138	0.0177412
665.216	0.0178940
665.294	0.0177972
665.372	0.0178046
665.450	0.0178685
665.529	0.0178272
665.607	0.0178449
665.685	0.0178748
665.763	0.0178774
665.841	0.0178322
665.919	0.0179838
665.997	0.0178446
666.075	0.0179074
666.154	0.0179280
666.232	0.0179395
666.310	0.0179128
666.388	0.0179920
666.466	0.0178188
666.544	0.0178118
666.622	0.0178470
666.700	0.0180586
666.779	0.0180364
666.857	0.0179690
666.935	0.0178587
667.013	0.0179771
667.091	0.0178593
667.169	0.0178400
667.247	0.0178000
667.325	0.0178390
667.404	0.0178622
667.482	0.0177959
667.560	0.0177489
667.638	0.0177890
667.716	0.0179238
667.794	0.0176907
667.872	0.0177169
667.950	0.0175851
668.029	0.0177100
668.107	0.0177113
668.185	0.0176072
668.263	0.0176797
668.341	0.0175666
668.419	0.0176534
668.497	0.0174873
668.575	0.0175655
668.654	0.0174323
668.732	0.0174486
668.810	0.0175753
668.888	0.0175172
668.966	0.0177222
669.044	0.0175745
669.122	0.0176898
669.200	0.0176256
669.279	0.0175990
669.357	0.0176724
669.435	0.0175122
669.513	0.0178700
669.591	0.0177400
669.669	0.0175568
669.747	0.0178548
669.825	0.0177454
669.904	0.0177894
669.982	0.0178217
670.060	0.0179869
670.138	0.0177800
670.216	0.0179300
670.294	0.0179221
670.372	0.0178690
670.450	0.0179346
670.529	0.0179292
670.607	0.0180190
670.685	0.0179771
670.763	0.0177168
670.841	0.0178262
670.919	0.0180531
670.997	0.0178178
671.075	0.0177937
671.154	0.0177083
671.232	0.0176471
671.310	0.0177251
671.388	0.0178024
671.466	0.0177797
671.544	0.0177805
671.622	0.0177819
671.700	0.0178844
671.779	0.0180623
671.857	0.0180527
671.935	0.0179530
672.013	0.0179739
672.091	0.0180458
672.169	0.0180065
672.247	0.0181240
672.325	0.0181592
672.404	0.0181477
672.482	0.0181108
672.560	0.0180822
672.638	0.0180037
672.716	0.0178741
672.794	0.0180804
672.872	0.0179671
672.950	0.0179150
673.029	0.0178404
673.107	0.0177218
673.185	0.0176694
673.263	0.0175790
673.341	0.0175565
673.419	0.0176892
673.497	0.0176114
673.575	0.0175906
673.654	0.0176315
673.732	0.0178017
673.810	0.0179607
673.888	0.0177554
673.966	0.0178593
674.044	0.0179536
674.122	0.0179745
674.200	0.0179842
674.279	0.0181207
674.357	0.0181004
674.435	0.0182185
674.513	0.0181906
674.591	0.0180278
674.669	0.0180062
674.747	0.0182594
674.825	0.0179823
674.904	0.0179568
674.982	0.0179176
675.060	0.0180379
675.138	0.0178883
675.216	0.0179405
675.294	0.0177152
675.372	0.0177470
675.450	0.0176333
675.529	0.0176220
675.607	0.0176347
675.685	0.0176242
675.763	0.0177371
675.841	0.0175878
675.919	0.0175995
675.997	0.0175691
676.075	0.0175902
676.154	0.0176260
676.232	0.0177115
676.310	0.0176990
676.388	0.0175291
676.466	0.0176579
676.544	0.0176699
676.622	0.0177389
676.700	0.0176448
676.779	0.0177518
676.857	0.0177364
676.935	0.0178385
677.013	0.0177494
677.091	0.0177444
677.169	0.0177831
677.247	0.0177677
677.325	0.0178233
677.404	0.0178862
677.482	0.0179078
677.560	0.0179771
677.638	0.0178548
677.716	0.0180018
677.794	0.0179780
677.872	0.0180284
677.950	0.0180145
678.029	0.0180956
678.107	0.0180816
678.185	0.0179832
678.263	0.0180492
678.341	0.0180740
678.419	0.0179323
678.497	0.0178329
678.575	0.0179603
678.654	0.0180756
678.732	0.0179794
678.810	0.0178455
678.888	0.0179597
678.966	0.0180160
679.044	0.0179400
679.122	0.0180836
679.200	0.0179173
679.279	0.0178823
679.357	0.0178765
679.435	0.0180453
679.513	0.0178982
679.591	0.0178653
679.669	0.0179589
679.747	0.0178458
679.825	0.0178907
679.904	0.0178703
679.982	0.0178403
680.060	0.0177722
680.138	0.0178095
680.216	0.0177311
680.294	0.0178437
680.372	0.0177547
680.450	0.0177303
680.529	0.0176844
680.607	0.0175980
680.685	0.0176286
680.763	0.0176209
680.841	0.0176764
680.919	0.0176554
680.997	0.0178266
681.075	0.0178264
681.154	0.0177696
681.232	0.0179854
681.310	0.0179146
681.388	0.0179386
681.466	0.0180473
681.544	0.0179816
681.622	0.0179716
681.700	0.0179554
681.779	0.0181464
681.857	0.0179653
681.935	0.0180343
682.013	0.0180161
682.091	0.0178728
682.169	0.0178703
682.247	0.0177686
682.325	0.0179562
682.404	0.0178544
682.482	0.0179459
682.560	0.0178619
682.638	0.0176714
682.716	0.0178165
682.794	0.0178154
682.872	0.0176904
682.950	0.0177740
683.029	0.0178172
683.107	0.0176993
683.185	0.0177832
683.263	0.0178099
683.341	0.0178040
683.419	0.0179147
683.497	0.0176758
683.575	0.0177749
683.654	0.0178658
683.732	0.0177676
683.810	0.0176347
683.888	0.0178072
683.966	0.0177752
684.044	0.0176804
684.122	0.0177547
684.200	0.0177574
684.279	0.0178996
684.357	0.0178331
684.435	0.0179050
684.513	0.0178191
684.591	0.0178587
684.669	0.0178263
684.747	0.0177391
684.825	0.0179514
684.904	0.0178297
684.982	0.0176971
685.060	0.0178089
685.138	0.0178529
685.216	0.0179716
685.294	0.0178774
685.372	0.0180051
685.450	0.0180151
685.529	0.0180418
685.607	0.0181615
685.685	0.0181358
685.763	0.0181393
685.841	0.0183244
685.919	0.0181555
685.997	0.0181831
686.075	0.0183672
686.154	0.0181919
686.232	0.0182767
686.310	0.0181220
686.388	0.0183058
686.466	0.0180929
686.544	0.0182574
686.622	0.0182928
686.700	0.0180879
686.779	0.0181425
686.857	0.0180865
686.935	0.0181115
687.013	0.0179552
687.091	0.0180527
687.169	0.0179818
687.247	0.0179726
687.325	0.0179665
687.404	0.0178976
687.482	0.0178449
687.560	0.0177641
687.638	0.0176910
687.716	0.0179074
687.794	0.0177618
687.872	0.0178650
687.950	0.0178882
688.029	0.0178517
688.107	0.0176773
688.185	0.0177397
688.263	0.0178571
688.341	0.0178734
688.419	0.0179886
688.497	0.0178734
688.575	0.0179079
688.654	0.0180145
688.732	0.0178794
688.810	0.0179086
688.888	0.0179085
688.966	0.0179662
689.044	0.0181098
689.122	0.0180875
689.200	0.0180351
689.279	0.0180598
689.357	0.0181438
689.435	0.0180725
689.513	0.0180196
689.591	0.0182057
689.669	0.0181574
689.747	0.0181194
689.825	0.0179683
689.904	0.0180531
689.982	0.0178997
690.060	0.0179501
690.138	0.0179122
690.216	0.0176665
690.294	0.0177956
690.372	0.0177295
690.450	0.0177792
690.529	0.0178230
690.607	0.0177688
690.685	0.0176957
690.763	0.0175909
690.841	0.0175789
690.919	0.0178146
690.997	0.0179726
691.075	0.0177440
691.154	0.0178079
691.232	0.0178616
691.310	0.0177843
691.388	0.0177618
691.466	0.0179068
691.544	0.0177377
691.622	0.0178738
691.700	0.0180397
691.779	0.0178515
691.857	0.0178657
691.935	0.0178022
692.013	0.0177886
692.091	0.0179078
692.169	0.0179324
692.247	0.0178436
692.325	0.0178855
692.404	0.0177766
692.482	0.0178545
692.560	0.0179376
692.638	0.0179052
692.716	0.0179675
692.794	0.0178168
692.872	0.0180145
692.950	0.0180978
693.029	0.0180189
693.107	0.0180132
693.185	0.0181469
693.263	0.0180972
693.341	0.0181094
693.419	0.0183289
693.497	0.0183462
693.575	0.0182839
693.654	0.0184313
693.732	0.0184167
693.810	0.0183786
693.888	0.0183595
693.966	0.0183566
694.044	0.0184442
694.122	0.0183084
694.200	0.0182893
694.279	0.0182065
694.357	0.0181663
694.435	0.0180473
694.513	0.0178606
694.591	0.0179402
694.669	0.0176978
694.747	0.0178043
694.825	0.0176240
694.904	0.0175380
694.982	0.0175117
695.060	0.0172304
695.138	0.0173305
695.216	0.0174033
695.294	0.0173255
695.372	0.0172397
695.450	0.0171650
695.529	0.0172471
695.607	0.0173697
695.685	0.0174367
695.763	0.0175474
695.841	0.0174268
695.919	0.0174850
695.997	0.0176748
696.075	0.0175417
696.154	0.0176742
696.232	0.0177744
696.310	0.0178210
696.388	0.0178188
696.466	0.0178973
696.544	0.0178463
696.622	0.0180523
696.700	0.0179839
696.779	0.0179948
696.857	0.0179079
696.935	0.0179345
697.013	0.0177813
697.091	0.0180010
697.169	0.0177838
697.247	0.0175919
697.325	0.0177091
697.404	0.0177351
697.482	0.0176774
697.560	0.0177627
697.638	0.0176891
697.716	0.0176630
697.794	0.0177277
697.872	0.0175931
697.950	0.0175392
698.029	0.0175011
698.107	0.0176892
698.185	0.0176775
698.263	0.0177487
698.341	0.0176535
698.419	0.0177128
698.497	0.0176304
698.575	0.0177082
698.654	0.0176036
698.732	0.0176307
698.810	0.0178058
698.888	0.0178297
698.966	0.0178023
699.044	0.0178381
699.122	0.0178542
699.200	0.0177020
699.279	0.0178862
699.357	0.0179427
699.435	0.0179439
699.513	0.0178216
699.591	0.0178322
699.669	0.0176925
699.747	0.0177525
699.825	0.0178875
699.904	0.0179581
699.982	0.0179716
700.060	0.0178939
700.138	0.0179092
700.216	0.0180124
700.294	0.0179857
700.372	0.0178663
700.450	0.0178709
700.529	0.0179440
700.607	0.0178656
700.685	0.0178922
700.763	0.0180006
700.841	0.0178770
700.919	0.0176743
700.997	0.0176664
701.075	0.0177336
701.154	0.0178203
701.232	0.0176849
701.310	0.0175713
701.388	0.0178062
701.466	0.0176681
701.544	0.0176582
701.622	0.0178595
701.700	0.0177478
701.779	0.0177550
701.857	0.0178938
701.935	0.0178931
702.013	0.0177876
702.091	0.0180504
702.169	0.0178629
702.247	0.0179097
702.325	0.0178196
702.404	0.0179057
702.482	0.0179882
702.560	0.0176752
702.638	0.0177710
702.716	0.0177753
702.794	0.0177106
702.872	0.0177982
702.950	0.0177899
703.029	0.0177213
703.107	0.0176534
703.185	0.0176740
703.263	0.0175718
703.341	0.0176899
703.419	0.0176302
703.497	0.0176144
703.575	0.0177005
703.654	0.0175650
703.732	0.0175309
703.810	0.0177431
703.888	0.0176022
703.966	0.0177240
704.044	0.0175382
704.122	0.0177764
704.200	0.0178364
704.279	0.0176347
704.357	0.0177464
704.435	0.0177451
704.513	0.0177234
704.591	0.0176098
704.669	0.0177087
704.747	0.0177436
704.825	0.0178764
704.904	0.0176556
704.982	0.0178410
705.060	0.0177425
705.138	0.0177138
705.216	0.0178614
705.294	0.0178566
705.372	0.0180343
705.450	0.0179745
705.529	0.0179137
705.607	0.0178918
705.685	0.0180066
705.763	0.0179951
705.841	0.0179128
705.919	0.0179536
705.997	0.0180152
706.075	0.0179578
706.154	0.0179284
706.232	0.0179157
706.310	0.0181035
706.388	0.0179184
706.466	0.0178409
706.544	0.0178843
706.622	0.0178744
706.700	0.0177827
706.779	0.0178145
706.857	0.0178213
706.935	0.0177719
707.013	0.0177496
707.091	0.0177859
707.169	0.0178068
707.247	0.0178419
707.325	0.0178587
707.404	0.0179215
707.482	0.0179536
707.560	0.0178459
707.638	0.0180542
707.716	0.0179939
707.794	0.0181682
707.872	0.0179678
707.950	0.0181004
708.029	0.0180853
708.107	0.0181485
708.185	0.0181287
708.263	0.0180527
708.341	0.0181094
708.419	0.0180544
708.497	0.0181351
708.575	0.0181252
708.654	0.0179151
708.732	0.0181071
708.810	0.0179578
708.888	0.0179783
708.966	0.0180379
709.044	0.0179134
709.122	0.0178606
709.200	0.0177139
709.279	0.0177276
709.357	0.0177890
709.435	0.0177789
709.513	0.0177295
709.591	0.0177557
709.669	0.0175814
709.747	0.0176224
709.825	0.0177322
709.904	0.0177837
709.982	0.0175576
710.060	0.0176222
710.138	0.0176862
710.216	0.0177472
710.294	0.0178451
710.372	0.0178632
710.450	0.0178114
710.529	0.0177039
710.607	0.0177910
710.685	0.0177927
710.763	0.0178133
710.841	0.0179667
710.919	0.0179053
710.997	0.0179661
711.075	0.0179377
711.154	0.0179922
711.232	0.0179480
711.310	0.0178777
711.388	0.0179668
711.466	0.0179435
711.544	0.0178838
711.622	0.0178790
711.700	0.0179868
711.779	0.0179199
711.857	0.0179373
711.935	0.0178866
712.013	0.0177659
712.091	0.0177155
712.169	0.0178690
712.247	0.0179398
712.325	0.0178493
712.404	0.0178701
712.482	0.0179443
712.560	0.0178367
712.638	0.0177984
712.716	0.0179015
712.794	0.0178161
712.872	0.0179257
712.950	0.0179041
713.029	0.0179178
713.107	0.0180022
713.185	0.0180371
713.263	0.0179094
713.341	0.0178817
713.419	0.0178966
713.497	0.0180511
713.575	0.0179814
713.654	0.0179845
713.732	0.0178025
713.810	0.0179779
713.888	0.0178911
713.966	0.0180336
714.044	0.0178429
714.122	0.0177503
714.200	0.0177287
714.279	0.0177471
714.357	0.0179131
714.435	0.0177840
714.513	0.0177751
714.591	0.0179217
714.669	0.0177362
714.747	0.0177959
714.825	0.0178066
714.904	0.0177315
714.982	0.0179171
715.060	0.0177143
715.138	0.0176182
715.216	0.0177709
715.294	0.0176541
715.372	0.0176595
715.450	0.0177054
715.529	0.0176297
715.607	0.0176473
715.685	0.0176848
715.763	0.0175917
715.841	0.0175578
715.919	0.0177103
715.997	0.0176682
716.075	0.0176144
716.154	0.0177065
716.232	0.0178188
716.310	0.0177882
716.388	0.0178535
716.466	0.0177892
716.544	0.0177883
716.622	0.0178774
716.700	0.0179646
716.779	0.0178989
716.857	0.0178824
716.935	0.0180169
717.013	0.0179715
717.091	0.0179855
717.169	0.0180953
717.247	0.0180157
717.325	0.0180227
717.404	0.0179121
717.482	0.0181339
717.560	0.0180099
717.638	0.0180459
717.716	0.0181255
717.794	0.0180541
717.872	0.0180421
717.950	0.0181641
718.029	0.0179902
718.107	0.0180838
718.185	0.0180824
718.263	0.0178661
718.341	0.0180773
718.419	0.0181715
718.497	0.0180533
718.575	0.0181309
718.654	0.0178557
718.732	0.0179479
718.810	0.0181736
718.888	0.0180527
718.966	0.0179864
719.044	0.0179243
719.122	0.0180348
719.200	0.0179507
719.279	0.0180586
719.357	0.0180352
719.435	0.0178268
719.513	0.0178548
719.591	0.0177975
719.669	0.0177864
719.747	0.0177998
719.825	0.0177370
719.904	0.0177551
719.982	0.0175993
720.060	0.0177456
720.138	0.0177287
720.216	0.0176418
720.294	0.0177474
720.372	0.0177205
720.450	0.0175715
720.529	0.0175890
720.607	0.0175277
720.685	0.0176241
720.763	0.0176532
720.841	0.0174529
720.919	0.0175388
720.997	0.0175546
721.075	0.0174967
721.154	0.0175883
721.232	0.0174633
721.310	0.0174516
721.388	0.0176157
721.466	0.0176120
721.544	0.0176463
721.622	0.0174949
721.700	0.0175800
721.779	0.0175677
721.857	0.0176825
721.935	0.0176870
722.013	0.0176633
722.091	0.0177319
722.169	0.0176789
722.247	0.0177510
722.325	0.0175500
722.404	0.0177311
722.482	0.0178674
722.560	0.0177603
722.638	0.0177735
722.716	0.0178591
722.794	0.0178278
722.872	0.0178296
722.950	0.0177952
723.029	0.0179706
723.107	0.0177937
723.185	0.0178161
723.263	0.0177970
723.341	0.0178848
723.419	0.0177439
723.497	0.0178928
723.575	0.0178547
723.654	0.0177914
723.732	0.0178576
723.810	0.0176073
723.888	0.0178582
723.966	0.0177714
724.044	0.0178267
724.122	0.0178806
724.200	0.0179075
724.279	0.0178438
724.357	0.0179700
724.435	0.0178770
724.513	0.0179910
724.591	0.0180439
724.669	0.0179661
724.747	0.0179214
724.825	0.0179023
724.904	0.0180350
724.982	0.0180374
725.060	0.0179279
725.138	0.0179718
725.216	0.0179283
725.294	0.0179618
725.372	0.0179421
725.450	0.0180119
725.529	0.0179522
725.607	0.0179123
725.685	0.0178201
725.763	0.0179820
725.841	0.0179240
725.919	0.0177242
725.997	0.0178744
726.075	0.0178680
726.154	0.0178929
726.232	0.0177829
726.310	0.0178738
726.388	0.0179588
726.466	0.0178967
726.544	0.0179241
726.622	0.0178267
726.700	0.0180001
726.779	0.0179359
726.857	0.0178848
726.935	0.0179006
727.013	0.0179446
727.091	0.0177530
727.169	0.0177053
727.247	0.0178710
727.325	0.0178008
727.404	0.0176539
727.482	0.0175764
727.560	0.0175408
727.638	0.0174639
727.716	0.0174489
727.794	0.0174004
727.872	0.0175319
727.950	0.0173428
728.029	0.0174505
728.107	0.0174711
728.185	0.0174634
728.263	0.0172498
728.341	0.0173338
728.419	0.0172913
728.497	0.0173194
728.575	0.0172495
728.654	0.0172392
728.732	0.0174155
728.810	0.0175745
728.888	0.0173189
728.966	0.0172498
729.044	0.0174904
729.122	0.0173211
729.200	0.0175225
729.279	0.0175484
729.357	0.0174321
729.435	0.0177043
729.513	0.0177766
729.591	0.0177449
729.669	0.0177650
729.747	0.0177986
729.825	0.0177693
729.904	0.0177893
729.982	0.0178437
730.060	0.0179251
730.138	0.0179052
730.216	0.0179893
730.294	0.0179801
730.372	0.0179829
730.450	0.0179830
730.529	0.0178908
730.607	0.0179288
730.685	0.0179941
730.763	0.0179504
730.841	0.0178045
730.919	0.0178547
730.997	0.0177259
731.075	0.0177478
731.154	0.0177422
731.232	0.0176780
731.310	0.0176786
731.388	0.0177530
731.466	0.0177113
731.544	0.0177502
731.622	0.0177394
731.700	0.0177018
731.779	0.0178452
731.857	0.0176358
731.935	0.0176048
732.013	0.0177627
732.091	0.0177317
732.169	0.0177577
732.247	0.0177699
732.325	0.0177457
732.404	0.0177387
732.482	0.0178503
732.560	0.0177535
732.638	0.0176489
732.716	0.0178128
732.794	0.0178191
732.872	0.0178121
732.950	0.0178078
733.029	0.0177019
733.107	0.0178017
733.185	0.0177425
733.263	0.0176439
733.341	0.0176081
733.419	0.0178261
733.497	0.0177860
733.575	0.0178966
733.654	0.0179668
733.732	0.0179074
733.810	0.0179256
733.888	0.0179947
733.966	0.0179643
734.044	0.0181577
734.122	0.0178744
734.200	0.0180730
734.279	0.0182209
734.357	0.0179994
734.435	0.0179741
734.513	0.0181526
734.591	0.0180788
734.669	0.0180389
734.747	0.0180235
734.825	0.0179317
734.904	0.0178661
734.982	0.0179007
735.060	0.0177988
735.138	0.0178423
735.216	0.0177792
735.294	0.0177818
735.372	0.0177515
735.450	0.0176154
735.529	0.0175974
735.607	0.0175620
735.685	0.0176321
735.763	0.0175444
735.841	0.0175509
735.919	0.0174957
735.997	0.0176041
736.075	0.0176923
736.154	0.0175433
736.232	0.0175399
736.310	0.0175842
736.388	0.0175640
736.466	0.0175981
736.544	0.0176856
736.622	0.0176221
736.700	0.0176958
736.779	0.0177581
736.857	0.0177705
736.935	0.0177146
737.013	0.0178747
737.091	0.0176360
737.169	0.0178044
737.247	0.0176983
737.325	0.0178473
737.404	0.0176625
737.482	0.0175864
737.560	0.0178374
737.638	0.0178866
737.716	0.0177884
737.794	0.0179025
737.872	0.0179188
737.950	0.0180394
738.029	0.0179801
738.107	0.0180972
738.185	0.0180787
738.263	0.0180639
738.341	0.0181354
738.419	0.0179990
738.497	0.0181164
738.575	0.0181136
738.654	0.0180354
738.732	0.0178442
738.810	0.0179090
738.888	0.0178867
738.966	0.0178510
739.044	0.0177841
739.122	0.0178452
739.200	0.0176830
739.279	0.0177574
739.357	0.0178157
739.435	0.0178725
739.513	0.0178623
739.591	0.0180103
739.669	0.0180886
739.747	0.0178812
739.825	0.0180010
739.904	0.0181548
739.982	0.0179053
740.060	0.0180986
740.138	0.0181719
740.216	0.0181364
740.294	0.0181636
740.372	0.0180352
740.450	0.0181567
740.529	0.0180736
740.607	0.0180096
740.685	0.0178954
740.763	0.0178975
740.841	0.0178178
740.919	0.0178048
740.997	0.0179516
741.075	0.0179465
741.154	0.0178823
741.232	0.0177868
741.310	0.0179016
741.388	0.0180037
741.466	0.0178434
741.544	0.0180252
741.622	0.0179331
741.700	0.0180276
741.779	0.0179456
741.857	0.0179811
741.935	0.0181261
742.013	0.0178969
742.091	0.0180510
742.169	0.0179881
742.247	0.0180469
742.325	0.0180609
742.404	0.0179756
742.482	0.0179109
742.560	0.0178094
742.638	0.0178920
742.716	0.0177942
742.794	0.0178249
742.872	0.0177403
742.950	0.0176553
743.029	0.0176451
743.107	0.0174718
743.185	0.0174105
743.263	0.0174812
743.341	0.0174672
743.419	0.0174616
743.497	0.0173325
743.575	0.0174181
743.654	0.0173632
743.732	0.0173306
743.810	0.0174051
743.888	0.0176166
743.966	0.0175054
744.044	0.0175233
744.122	0.0175361
744.200	0.0174465
744.279	0.0173743
744.357	0.0176799
744.435	0.0176395
744.513	0.0175809
744.591	0.0174380
744.669	0.0175267
744.747	0.0175625
744.825	0.0176383
744.904	0.0175519
744.982	0.0175948
745.060	0.0175234
745.138	0.0176826
745.216	0.0176059
745.294	0.0176210
745.372	0.0175775
745.450	0.0178437
745.529	0.0176365
745.607	0.0178049
745.685	0.0178178
745.763	0.0177964
745.841	0.0178734
745.919	0.0178593
745.997	0.0180637
746.075	0.0180639
746.154	0.0178503
746.232	0.0179874
746.310	0.0179884
746.388	0.0180260
746.466	0.0181539
746.544	0.0180346
746.622	0.0180428
746.700	0.0179427
746.779	0.0179488
746.857	0.0180165
746.935	0.0178779
747.013	0.0179817
747.091	0.0179672
747.169	0.0179012
747.247	0.0181039
747.325	0.0180650
747.404	0.0181568
747.482	0.0180546
747.560	0.0179868
747.638	0.0180822
747.716	0.0179926
747.794	0.0181333
747.872	0.0180252
747.950	0.0179671
748.029	0.0179495
748.107	0.0179126
748.185	0.0177782
748.263	0.0178519
748.341	0.0179340
748.419	0.0179825
748.497	0.0176907
748.575	0.0179765
748.654	0.0180844
748.732	0.0179828
748.810	0.0178081
748.888	0.0178073
748.966	0.0180437
749.044	0.0178151
749.122	0.0178590
749.200	0.0178935
749.279	0.0179334
749.357	0.0180112
749.435	0.0180586
749.513	0.0179123
749.591	0.0180354
749.669	0.0179711
749.747	0.0181601
749.825	0.0180511
749.904	0.0181098
749.982	0.0181834
750.060	0.0181255
750.138	0.0180466
750.216	0.0180643
750.294	0.0180238
750.372	0.0179307
750.450	0.0179005
750.529	0.0178679
750.607	0.0179127
750.685	0.0177634
750.763	0.0175340
750.841	0.0176613
750.919	0.0176496
750.997	0.0174609
751.075	0.0173703
751.154	0.0173547
751.232	0.0173262
751.310	0.0174196
751.388	0.0174619
751.466	0.0173718
751.544	0.0172917
751.622	0.0174848
751.700	0.0175077
751.779	0.0175069
751.857	0.0174574
751.935	0.0174628
752.013	0.0176202
752.091	0.0173959
752.169	0.0175372
752.247	0.0175768
752.325	0.0175001
752.404	0.0174634
752.482	0.0174347
752.560	0.0173304
752.638	0.0174888
752.716	0.0174084
752.794	0.0173695
752.872	0.0175338
752.950	0.0174463
753.029	0.0174332
753.107	0.0174574
753.185	0.0175491
753.263	0.0175847
753.341	0.0176154
753.419	0.0176270
753.497	0.0177179
753.575	0.0176627
753.654	0.0178610
753.732	0.0178518
753.810	0.0179765
753.888	0.0179263
753.966	0.0179637
754.044	0.0178925
754.122	0.0178696
754.200	0.0178769
754.279	0.0179385
754.357	0.0178882
754.435	0.0178397
754.513	0.0178512
754.591	0.0177589
754.669	0.0177734
754.747	0.0178294
754.825	0.0177737
754.904	0.0177321
754.982	0.0179230
755.060	0.0177872
755.138	0.0177773
755.216	0.0177621
755.294	0.0177030
755.372	0.0176684
755.450	0.0176817
755.529	0.0177840
755.607	0.0177895
755.685	0.0176469
755.763	0.0176429
755.841	0.0179037
755.919	0.0179477
755.997	0.0177843
756.075	0.0177626
756.154	0.0177608
756.232	0.0179504
756.310	0.0177271
756.388	0.0176807
756.466	0.0177495
756.544	0.0178172
756.622	0.0178801
756.700	0.0180356
756.779	0.0178602
756.857	0.0180270
756.935	0.0179377
757.013	0.0178695
757.091	0.0178703
757.169	0.0179271
757.247	0.0178897
757.325	0.0179224
757.404	0.0179885
757.482	0.0179824
757.560	0.0178499
757.638	0.0180270
757.716	0.0178971
757.794	0.0180428
757.872	0.0178442
757.950	0.0179630
758.029	0.0180352
758.107	0.0178731
758.185	0.0179784
758.263	0.0178140
758.341	0.0177742
758.419	0.0177354
758.497	0.0177251
758.575	0.0175644
758.654	0.0176749
758.732	0.0175524
758.810	0.0175066
758.888	0.0175379
758.966	0.0173276
759.044	0.0175307
759.122	0.0176648
759.200	0.0175849
759.279	0.0175666
759.357	0.0174834
759.435	0.0174951
759.513	0.0175864
759.591	0.0176151
759.669	0.0177807
759.747	0.0176081
759.825	0.0176189
759.904	0.0176524
759.982	0.0174770
760.060	0.0175066
760.138	0.0175674
760.216	0.0175087
760.294	0.0175327
760.372	0.0175695
760.450	0.0175311
760.529	0.0176219
760.607	0.0175105
760.685	0.0177478
760.763	0.0175937
760.841	0.0176955
760.919	0.0175039
760.997	0.0175492
761.075	0.0176658
761.154	0.0178147
761.232	0.0177571
761.310	0.0177637
761.388	0.0179062
761.466	0.0177683
761.544	0.0178210
761.622	0.0179842
761.700	0.0179257
761.779	0.0179376
761.857	0.0179585
761.935	0.0178682
762.013	0.0177872
762.091	0.0177559
762.169	0.0179582
762.247	0.0180627
762.325	0.0178979
762.404	0.0177111
762.482	0.0178993
762.560	0.0177779
762.638	0.0178745
762.716	0.0178192
762.794	0.0178107
762.872	0.0179361
762.950	0.0178582
763.029	0.0178830
763.107	0.0176714
763.185	0.0178377
763.263	0.0179032
763.341	0.0178313
763.419	0.0178316
763.497	0.0178742
763.575	0.0178161
763.654	0.0178768
763.732	0.0178814
763.810	0.0179359
763.888	0.0178128
763.966	0.0179134
764.044	0.0178008
764.122	0.0177901
764.200	0.0179871
764.279	0.0179549
764.357	0.0178297
764.435	0.0178320
764.513	0.0179201
764.591	0.0180370
764.669	0.0178554
764.747	0.0178195
764.825	0.0179257
764.904	0.0179791
764.982	0.0178502
765.060	0.0179475
765.138	0.0179444
765.216	0.0180028
765.294	0.0180196
765.372	0.0178630
765.450	0.0179598
765.529	0.0178131
765.607	0.0178696
765.685	0.0179012
765.763	0.0178650
765.841	0.0177515
765.919	0.0178861
765.997	0.0178172
766.075	0.0178806
766.154	0.0178467
766.232	0.0178468
766.310	0.0177980
766.388	0.0179241
766.466	0.0178448
766.544	0.0178014
766.622	0.0178352
766.700	0.0177250
766.779	0.0177275
766.857	0.0177423
766.935	0.0178394
767.013	0.0177191
767.091	0.0176131
767.169	0.0176767
767.247	0.0177785
767.325	0.0174627
767.404	0.0176328
767.482	0.0177809
767.560	0.0175848
767.638	0.0175464
767.716	0.0175719
767.794	0.0175850
767.872	0.0176547
767.950	0.0174818
768.029	0.0176296
768.107	0.0176119
768.185	0.0177057
768.263	0.0175436
768.341	0.0176194
768.419	0.0175750
768.497	0.0175764
768.575	0.0177522
768.654	0.0177901
768.732	0.0177177
768.810	0.0176791
768.888	0.0177837
768.966	0.0179253
769.044	0.0177496
769.122	0.0179028
769.200	0.0180976
769.279	0.0179853
769.357	0.0179842
769.435	0.0179636
769.513	0.0179726
769.591	0.0180595
769.669	0.0180280
769.747	0.0180974
769.825	0.0180728
769.904	0.0182136
769.982	0.0182780
770.060	0.0180864
770.138	0.0181123
770.216	0.0181828
770.294	0.0182204
770.372	0.0182467
770.450	0.0182946
770.529	0.0182700
770.607	0.0183415
770.685	0.0182138
770.763	0.0182213
770.841	0.0181802
770.919	0.0180952
770.997	0.0181358
771.075	0.0182060
771.154	0.0180879
771.232	0.0180596
771.310	0.0180875
771.388	0.0180682
771.466	0.0179931
771.544	0.0180756
771.622	0.0179732
771.700	0.0179565
771.779	0.0180146
771.857	0.0178970
771.935	0.0178609
772.013	0.0179937
772.091	0.0180134
772.169	0.0181063
772.247	0.0178839
772.325	0.0180477
772.404	0.0179455
772.482	0.0178898
772.560	0.0180708
772.638	0.0180538
772.716	0.0181519
772.794	0.0180423
772.872	0.0179780
772.950	0.0178508
773.029	0.0180680
773.107	0.0179187
773.185	0.0179720
773.263	0.0180233
773.341	0.0179592
773.419	0.0179616
773.497	0.0180849
773.575	0.0179192
773.654	0.0179973
773.732	0.0180136
773.810	0.0180159
773.888	0.0178372
773.966	0.0178152
774.044	0.0178452
774.122	0.0179055
774.200	0.0178583
774.279	0.0177808
774.357	0.0177322
774.435	0.0177953
774.513	0.0175708
774.591	0.0177233
774.669	0.0176476
774.747	0.0176864
774.825	0.0175510
774.904	0.0174846
774.982	0.0175845
775.060	0.0174948
775.138	0.0175631
775.216	0.0176749
775.294	0.0176067
775.372	0.0175234
775.450	0.0176331
775.529	0.0176353
775.607	0.0176439
775.685	0.0177310
775.763	0.0174828
775.841	0.0175935
775.919	0.0177052
775.997	0.0175603
776.075	0.0177281
776.154	0.0177174
776.232	0.0176224
776.310	0.0176478
776.388	0.0177579
776.466	0.0177000
776.544	0.0178693
776.622	0.0178108
776.700	0.0178461
776.779	0.0178844
776.857	0.0177297
776.935	0.0179090
777.013	0.0177505
777.091	0.0178274
777.169	0.0179154
777.247	0.0179773
777.325	0.0179938
777.404	0.0180222
777.482	0.0179909
777.560	0.0180244
777.638	0.0180454
777.716	0.0180441
777.794	0.0179421
777.872	0.0178925
777.950	0.0179877
778.029	0.0179060
778.107	0.0180016
778.185	0.0179842
778.263	0.0177814
778.341	0.0177876
778.419	0.0178264
778.497	0.0179385
778.575	0.0178769
778.654	0.0178442
778.732	0.0178180
778.810	0.0176149
778.888	0.0176786
778.966	0.0176789
779.044	0.0177485
779.122	0.0176381
779.200	0.0175891
779.279	0.0175168
779.357	0.0176598
779.435	0.0176113
779.513	0.0175568
779.591	0.0175703
779.669	0.0175240
779.747	0.0177785
779.825	0.0176614
779.904	0.0176421
779.982	0.0176460
780.060	0.0176056
780.138	0.0176607
780.216	0.0176337
780.294	0.0176524
780.372	0.0176025
780.450	0.0176208
780.529	0.0177563
780.607	0.0177183
780.685	0.0175719
780.763	0.0177019
780.841	0.0176395
780.919	0.0176508
780.997	0.0178410
781.075	0.0176840
781.154	0.0176972
781.232	0.0176971
781.310	0.0178226
781.388	0.0177319
781.466	0.0177641
781.544	0.0176218
781.622	0.0176397
781.700	0.0177378
781.779	0.0177038
781.857	0.0177363
781.935	0.0176531
782.013	0.0177992
782.091	0.0176705
782.169	0.0176408
782.247	0.0177433
782.325	0.0177574
782.404	0.0175550
782.482	0.0175111
782.560	0.0175796
782.638	0.0176770
782.716	0.0175701
782.794	0.0175611
782.872	0.0175525
782.950	0.0175198
783.029	0.0175209
783.107	0.0175867
783.185	0.0174986
783.263	0.0174587
783.341	0.0175140
783.419	0.0173774
783.497	0.0174873
783.575	0.0174136
783.654	0.0174609
783.732	0.0174364
783.810	0.0174784
783.888	0.0175960
783.966	0.0175842
784.044	0.0176215
784.122	0.0176063
784.200	0.0176991
784.279	0.0176911
784.357	0.0177005
784.435	0.0177313
784.513	0.0178472
784.591	0.0177249
784.669	0.0178159
784.747	0.0177430
784.825	0.0177049
784.904	0.0177910
784.982	0.0178504
785.060	0.0178355
785.138	0.0178426
785.216	0.0178596
785.294	0.0178691
785.372	0.0179242
785.450	0.0178642
785.529	0.0180352
785.607	0.0178763
785.685	0.0179912
785.763	0.0178864
785.841	0.0180401
785.919	0.0180174
785.997	0.0178928
786.075	0.0179673
786.154	0.0177883
786.232	0.0179024
786.310	0.0179201
786.388	0.0178913
786.466	0.0177662
786.544	0.0176823
786.622	0.0177908
786.700	0.0177320
786.779	0.0177897
786.857	0.0178419
786.935	0.0177609
787.013	0.0178639
787.091	0.0177615
787.169	0.0177165
787.247	0.0177990
787.325	0.0178185
787.404	0.0178081
787.482	0.0176929
787.560	0.0175631
787.638	0.0177711
787.716	0.0178979
787.794	0.0177625
787.872	0.0177631
787.950	0.0176988
788.029	0.0177574
788.107	0.0178987
788.185	0.0177552
788.263	0.0177162
788.341	0.0177991
788.419	0.0178636
788.497	0.0177154
788.575	0.0177001
788.654	0.0179910
788.732	0.0177051
788.810	0.0177659
788.888	0.0178312
788.966	0.0177908
789.044	0.0179171
789.122	0.0176545
789.200	0.0178251
789.279	0.0178336
789.357	0.0177091
789.435	0.0178228
789.513	0.0178166
789.591	0.0177851
789.669	0.0176555
789.747	0.0177351
789.825	0.0178545
789.904	0.0177013
789.982	0.0176883
790.060	0.0177610
790.138	0.0177533
790.216	0.0176715
790.294	0.0177854
790.372	0.0178646
790.450	0.0177692
790.529	0.0178449
790.607	0.0177772
790.685	0.0177760
790.763	0.0178108
790.841	0.0177353
790.919	0.0178389
790.997	0.0178343
791.075	0.0177418
791.154	0.0177318
791.232	0.0178741
791.310	0.0177536
791.388	0.0178948
791.466	0.0178069
791.544	0.0177599
791.622	0.0176551
791.700	0.0178846
791.779	0.0179068
791.857	0.0178356
791.935	0.0179501
792.013	0.0179579
792.091	0.0178609
792.169	0.0179519
792.247	0.0178380
792.325	0.0178248
792.404	0.0179815
792.482	0.0178539
792.560	0.0177228
792.638	0.0178502
792.716	0.0179902
792.794	0.0180203
792.872	0.0179308
792.950	0.0180764
793.029	0.0178893
793.107	0.0178483
793.185	0.0179911
793.263	0.0181015
793.341	0.0180651
793.419	0.0179505
793.497	0.0181776
793.575	0.0182436
793.654	0.0181207
793.732	0.0181299
793.810	0.0180591
793.888	0.0179579
793.966	0.0181805
794.044	0.0180814
794.122	0.0180803
794.200	0.0180094
794.279	0.0179911
794.357	0.0180175
794.435	0.0179807
794.513	0.0179846
794.591	0.0179023
794.669	0.0178311
794.747	0.0180347
794.825	0.0179216
794.904	0.0179131
794.982	0.0179281
795.060	0.0179346
795.138	0.0178644
795.216	0.0178083
795.294	0.0178038
795.372	0.0178127
795.450	0.0179079
795.529	0.0177380
795.607	0.0177373
795.685	0.0177640
795.763	0.0177264
795.841	0.0178621
795.919	0.0179498
795.997	0.0178060
796.075	0.0178808
796.154	0.0179938
796.232	0.0178555
796.310	0.0179691
796.388	0.0178026
796.466	0.0178794
796.544	0.0179673
796.622	0.0178305
796.700	0.0178549
796.779	0.0177229
796.857	0.0179510
796.935	0.0178352
797.013	0.0178321
797.091	0.0178155
797.169	0.0178410
797.247	0.0178803
797.325	0.0178841
797.404	0.0178643
797.482	0.0177780
797.560	0.0179893
797.638	0.0180202
797.716	0.0179211
797.794	0.0178697
797.872	0.0178545
797.950	0.0179165
798.029	0.0179575
798.107	0.0179355
798.185	0.0179137
798.263	0.0179080
798.341	0.0179160
798.419	0.0179095
798.497	0.0180630
798.575	0.0178918
798.654	0.0179601
798.732	0.0179967
798.810	0.0179325
798.888	0.0179497
798.966	0.0178732
799.044	0.0180074
799.122	0.0180334
799.200	0.0179499
799.279	0.0179868
799.357	0.0179683
799.435	0.0179694
799.513	0.0178613
799.591	0.0177969
799.669	0.0180070
799.747	0.0179127
799.825	0.0179076
799.904	0.0180093
799.982	0.0178860
800.060	0.0180766
800.138	0.0180499
800.216	0.0180682
800.294	0.0180954
800.372	0.0180714
800.450	0.0181959
800.529	0.0181470
800.607	0.0181460
800.685	0.0181600
800.763	0.0182500
800.841	0.0181533
800.919	0.0183587
800.997	0.0181216
801.075	0.0179292
801.154	0.0180962
801.232	0.0182236
801.310	0.0179357
801.388	0.0180541
801.466	0.0181694
801.544	0.0180347
801.622	0.0179942
801.700	0.0179669
801.779	0.0177765
801.857	0.0180058
801.935	0.0181579
802.013	0.0180928
802.091	0.0179150
802.169	0.0178783
802.247	0.0178694
802.325	0.0178422
802.404	0.0178799
802.482	0.0177263
802.560	0.0177438
802.638	0.0177370
802.716	0.0175211
802.794	0.0178883
802.872	0.0177379
802.950	0.0177728
803.029	0.0177159
803.107	0.0174682
803.185	0.0176176
803.263	0.0177155
803.341	0.0175932
803.419	0.0176978
803.497	0.0175188
803.575	0.0176830
803.654	0.0177512
803.732	0.0176009
803.810	0.0176288
803.888	0.0177892
803.966	0.0175577
804.044	0.0175739
804.122	0.0176548
804.200	0.0177129
804.279	0.0177222
804.357	0.0176826
804.435	0.0175521
804.513	0.0176174
804.591	0.0176178
804.669	0.0174727
804.747	0.0177468
804.825	0.0177442
804.904	0.0175719
804.982	0.0177014
805.060	0.0177735
805.138	0.0177027
805.216	0.0176865
805.294	0.0176543
805.372	0.0176592
805.450	0.0176118
805.529	0.0177757
805.607	0.0176726
805.685	0.0176783
805.763	0.0176626
805.841	0.0176812
805.919	0.0176427
805.997	0.0177160
806.075	0.0178189
806.154	0.0178107
806.232	0.0177628
806.310	0.0178902
806.388	0.0177939
806.466	0.0177618
806.544	0.0177209
806.622	0.0179639
806.700	0.0177836
806.779	0.0177023
806.857	0.0176838
806.935	0.0176940
807.013	0.0177541
807.091	0.0177699
807.169	0.0177475
807.247	0.0177206
807.325	0.0177412
807.404	0.0179090
807.482	0.0178397
807.560	0.0177560
807.638	0.0176899
807.716	0.0177840
807.794	0.0177444
807.872	0.0178138
807.950	0.0178475
808.029	0.0179567
808.107	0.0177155
808.185	0.0178333
808.263	0.0178448
808.341	0.0178556
808.419	0.0178503
808.497	0.0179094
808.575	0.0179761
808.654	0.0178493
808.732	0.0179025
808.810	0.0181674
808.888	0.0177740
808.966	0.0178260
809.044	0.0179160
809.122	0.0179044
809.200	0.0178810
809.279	0.0179246
809.357	0.0178014
809.435	0.0180095
809.513	0.0178535
809.591	0.0178290
809.669	0.0179166
809.747	0.0179515
809.825	0.0177522
809.904	0.0179346
809.982	0.0179324
810.060	0.0179085
810.138	0.0178522
810.216	0.0179016
810.294	0.0179094
810.372	0.0178231
810.450	0.0177979
810.529	0.0179597
810.607	0.0178483
810.685	0.0180402
810.763	0.0178527
810.841	0.0178764
810.919	0.0179034
810.997	0.0178891
811.075	0.0178029
811.154	0.0179359
811.232	0.0178697
811.310	0.0177232
811.388	0.0178986
811.466	0.0177806
811.544	0.0176462
811.622	0.0177636
811.700	0.0177334
811.779	0.0177033
811.857	0.0176484
811.935	0.0176886
812.013	0.0177515
812.091	0.0177041
812.169	0.0176645
812.247	0.0178188
812.325	0.0177319
812.404	0.0177294
812.482	0.0177719
812.560	0.0178701
812.638	0.0176465
812.716	0.0177186
812.794	0.0179247
812.872	0.0177117
812.950	0.0177496
813.029	0.0177527
813.107	0.0176936
813.185	0.0177625
813.263	0.0176955
813.341	0.0176704
813.419	0.0179783
813.497	0.0177982
813.575	0.0178195
813.654	0.0178371
813.732	0.0178206
813.810	0.0178848
813.888	0.0178937
813.966	0.0179776
814.044	0.0178722
814.122	0.0178929
814.200	0.0177826
814.279	0.0178133
814.357	0.0179145
814.435	0.0178250
814.513	0.0178215
814.591	0.0177780
814.669	0.0178332
814.747	0.0178046
814.825	0.0178153
814.904	0.0177663
814.982	0.0178150
815.060	0.0178335
815.138	0.0179787
815.216	0.0178976
815.294	0.0178267
815.372	0.0179553
815.450	0.0178493
815.529	0.0179138
815.607	0.0179506
815.685	0.0178752
815.763	0.0177116
815.841	0.0179299
815.919	0.0178514
815.997	0.0178896
816.075	0.0178703
816.154	0.0178112
816.232	0.0177622
816.310	0.0178234
816.388	0.0179433
816.466	0.0177522
816.544	0.0179460
816.622	0.0180405
816.700	0.0179254
816.779	0.0179718
816.857	0.0178261
816.935	0.0178087
817.013	0.0177087
817.091	0.0178369
817.169	0.0179057
817.247	0.0177980
817.325	0.0177586
817.404	0.0179108
817.482	0.0179309
817.560	0.0177598
817.638	0.0177988
817.716	0.0178496
817.794	0.0177734
817.872	0.0179343
817.950	0.0178499
818.029	0.0178301
818.107	0.0178024
818.185	0.0177131
818.263	0.0178107
818.341	0.0179010
818.419	0.0179842
818.497	0.0179474
818.575	0.0177637
818.654	0.0179377
818.732	0.0178568
818.810	0.0177937
818.888	0.0178712
818.966	0.0179379
819.044	0.0178174
819.122	0.0179575
819.200	0.0179436
819.279	0.0180440
819.357	0.0179884
819.435	0.0179620
819.513	0.0178933
819.591	0.0180461
819.669	0.0179556
819.747	0.0179442
819.825	0.0180798
819.904	0.0181529
819.982	0.0180099
820.060	0.0181687
820.138	0.0180569
820.216	0.0181547
820.294	0.0179865
820.372	0.0180293
820.450	0.0179426
820.529	0.0181792
820.607	0.0180497
820.685	0.0179344
820.763	0.0179652
820.841	0.0182025
820.919	0.0181080
820.997	0.0179880
821.075	0.0180052
821.154	0.0180737
821.232	0.0180315
821.310	0.0181038
821.388	0.0180141
821.466	0.0180245
821.544	0.0180591
821.622	0.0180752
821.700	0.0180800
821.779	0.0178532
821.857	0.0179549
821.935	0.0181458
822.013	0.0180214
822.091	0.0181528
822.169	0.0180829
822.247	0.0180384
822.325	0.0180277
822.404	0.0179120
822.482	0.0179762
822.560	0.0180376
822.638	0.0179842
822.716	0.0180245
822.794	0.0179831
822.872	0.0177598
822.950	0.0179786
823.029	0.0179283
823.107	0.0178900
823.185	0.0179164
823.263	0.0178719
823.341	0.0180286
823.419	0.0179539
823.497	0.0180960
823.575	0.0178936
823.654	0.0178719
823.732	0.0180006
823.810	0.0179738
823.888	0.0178113
823.966	0.0177428
824.044	0.0178546
824.122	0.0178659
824.200	0.0180145
824.279	0.0178965
824.357	0.0178226
824.435	0.0178185
824.513	0.0178954
824.591	0.0180115
824.669	0.0179494
824.747	0.0177879
824.825	0.0179122
824.904	0.0178295
824.982	0.0178667
825.060	0.0179367
825.138	0.0178742
825.216	0.0180044
825.294	0.0178515
825.372	0.0177165
825.450	0.0179616
825.529	0.0178618
825.607	0.0178831
825.685	0.0179158
825.763	0.0177873
825.841	0.0178970
825.919	0.0179140
825.997	0.0178416
826.075	0.0178390
826.154	0.0178223
826.232	0.0179501
826.310	0.0178564
826.388	0.0177944
826.466	0.0179581
826.544	0.0178335
826.622	0.0178613
826.700	0.0178837
826.779	0.0178320
826.857	0.0177969
826.935	0.0178230
827.013	0.0177684
827.091	0.0177778
827.169	0.0177698
827.247	0.0180136
827.325	0.0179507
827.404	0.0178241
827.482	0.0178561
827.560	0.0179490
827.638	0.0179061
827.716	0.0178940
827.794	0.0178432
827.872	0.0180724
827.950	0.0179987
828.029	0.0179828
828.107	0.0178381
828.185	0.0179689
828.263	0.0180325
828.341	0.0179838
828.419	0.0178585
828.497	0.0179826
828.575	0.0179864
828.654	0.0179891
828.732	0.0180144
828.810	0.0179797
828.888	0.0179478
828.966	0.0178973
829.044	0.0178397
829.122	0.0178300
829.200	0.0179786
829.279	0.0179543
829.357	0.0178935
829.435	0.0179326
829.513	0.0179446
829.591	0.0178949
829.669	0.0177187
829.747	0.0176710
829.825	0.0177583
829.904	0.0177371
829.982	0.0178252
830.060	0.0176768
830.138	0.0178056
830.216	0.0177633
830.294	0.0176784
830.372	0.0178345
830.450	0.0176146
830.529	0.0176973
830.607	0.0177361
830.685	0.0176387
830.763	0.0176650
830.841	0.0177540
830.919	0.0175797
830.997	0.0175282
831.075	0.0175157
831.154	0.0176859
831.232	0.0176014
831.310	0.0176012
831.388	0.0176530
831.466	0.0176495
831.544	0.0176822
831.622	0.0177261
831.700	0.0175702
831.779	0.0176691
831.857	0.0176317
831.935	0.0176588
832.013	0.0176365
832.091	0.0178273
832.169	0.0178182
832.247	0.0178168
832.325	0.0177924
832.404	0.0178793
832.482	0.0176377
832.560	0.0177513
832.638	0.0177742
832.716	0.0178520
832.794	0.0177422
832.872	0.0176563
832.950	0.0177055
833.029	0.0177570
833.107	0.0175098
833.185	0.0176526
833.263	0.0177622
833.341	0.0176927
833.419	0.0176575
833.497	0.0177164
833.575	0.0178084
833.654	0.0176752
833.732	0.0175103
833.810	0.0177268
833.888	0.0175938
833.966	0.0174590
834.044	0.0176456
834.122	0.0175809
834.200	0.0176493
834.279	0.0175781
834.357	0.0175414
834.435	0.0176042
834.513	0.0176933
834.591	0.0176457
834.669	0.0177258
834.747	0.0177279
834.825	0.0178053
834.904	0.0177930
834.982	0.0175430
835.060	0.0176628
835.138	0.0176781
835.216	0.0175688
835.294	0.0177364
835.372	0.0177281
835.450	0.0177612
835.529	0.0176447
835.607	0.0176543
835.685	0.0177582
835.763	0.0177005
835.841	0.0177548
835.919	0.0177622
835.997	0.0176136
836.075	0.0178624
836.154	0.0177431
836.232	0.0177983
836.310	0.0177609
836.388	0.0176820
836.466	0.0178047
836.544	0.0177219
836.622	0.0177575
836.700	0.0177629
836.779	0.0178309
836.857	0.0178156
836.935	0.0177707
837.013	0.0177346
837.091	0.0177984
837.169	0.0178036
837.247	0.0177264
837.325	0.0177569
837.404	0.0176650
837.482	0.0177537
837.560	0.0178074
837.638	0.0177901
837.716	0.0178712
837.794	0.0176804
837.872	0.0176656
837.950	0.0178221
838.029	0.0178135
838.107	0.0177724
838.185	0.0178273
838.263	0.0178103
838.341	0.0178381
838.419	0.0178322
838.497	0.0179067
838.575	0.0177847
838.654	0.0180555
838.732	0.0178473
838.810	0.0179221
838.888	0.0178889
838.966	0.0178490
839.044	0.0178754
839.122	0.0177274
839.200	0.0177612
839.279	0.0176557
839.357	0.0178912
839.435	0.0179440
839.513	0.0178992
839.591	0.0178786
839.669	0.0179625
839.747	0.0178966
839.825	0.0179057
839.904	0.0178929
839.982	0.0178852
840.060	0.0179781
840.138	0.0180372
840.216	0.0180259
840.294	0.0178421
840.372	0.0179625
840.450	0.0179689
840.529	0.0178893
840.607	0.0178358
840.685	0.0179362
840.763	0.0179387
840.841	0.0179404
840.919	0.0179417
840.997	0.0177447
841.075	0.0179089
841.154	0.0178201
841.232	0.0179016
841.310	0.0179145
841.388	0.0177798
841.466	0.0178079
841.544	0.0178674
841.622	0.0178859
841.700	0.0178577
841.779	0.0178651
841.857	0.0179660
841.935	0.0178854
842.013	0.0178208
842.091	0.0179314
842.169	0.0178122
842.247	0.0180093
842.325	0.0178068
842.404	0.0177183
842.482	0.0179574
842.560	0.0177597
842.638	0.0178559
842.716	0.0177765
842.794	0.0179227
842.872	0.0178942
842.950	0.0179539
843.029	0.0178152
843.107	0.0178922
843.185	0.0179351
843.263	0.0178508
843.341	0.0179046
843.419	0.0178661
843.497	0.0179022
843.575	0.0178693
843.654	0.0178561
843.732	0.0179046
843.810	0.0179108
843.888	0.0178173
843.966	0.0180001
844.044	0.0179446
844.122	0.0180363
844.200	0.0179603
844.279	0.0178146
844.357	0.0179469
844.435	0.0178636
844.513	0.0179085
844.591	0.0178783
844.669	0.0179909
844.747	0.0178433
844.825	0.0178854
844.904	0.0178967
844.982	0.0178970
845.060	0.0178507
845.138	0.0179750
845.216	0.0180274
845.294	0.0178616
845.372	0.0178912
845.450	0.0178786
845.529	0.0177362
845.607	0.0179087
845.685	0.0179075
845.763	0.0177756
845.841	0.0177726
845.919	0.0177642
845.997	0.0178483
846.075	0.0178114
846.154	0.0176897
846.232	0.0177851
846.310	0.0177599
846.388	0.0178213
846.466	0.0176983
846.544	0.0176554
846.622	0.0175758
846.700	0.0177074
846.779	0.0176691
846.857	0.0178426
846.935	0.0176119
847.013	0.0177282
847.091	0.0177377
847.169	0.0175636
847.247	0.0177777
847.325	0.0177444
847.404	0.0176844
847.482	0.0176829
847.560	0.0177153
847.638	0.0178984
847.716	0.0178751
847.794	0.0176871
847.872	0.0178381
847.950	0.0178677
848.029	0.0179108
848.107	0.0180237
848.185	0.0178386
848.263	0.0179607
848.341	0.0179443
848.419	0.0179563
848.497	0.0179929
848.575	0.0178754
848.654	0.0178432
848.732	0.0178240
848.810	0.0179250
848.888	0.0180987
848.966	0.0179443
849.044	0.0179229
849.122	0.0179236
849.200	0.0180033
849.279	0.0178830
849.357	0.0179906
849.435	0.0179723
849.513	0.0179382
849.591	0.0180141
849.669	0.0178706
849.747	0.0179500
849.825	0.0177682
849.904	0.0179591
849.982	0.0179465
850.060	0.0178203
850.138	0.0178429
850.216	0.0178406
850.294	0.0178474
850.372	0.0176849
850.450	0.0178835
850.529	0.0178539
850.607	0.0177723
850.685	0.0178529
850.763	0.0177390
850.841	0.0176756
850.919	0.0178271
850.997	0.0176589
851.075	0.0176132
851.154	0.0178818
851.232	0.0179330
851.310	0.0177048
851.388	0.0178131
851.466	0.0177670
851.544	0.0177106
851.622	0.0178008
851.700	0.0178088
851.779	0.0177225
851.857	0.0177945
851.935	0.0177578
852.013	0.0177959
852.091	0.0178101
852.169	0.0178201
852.247	0.0177986
852.325	0.0178382
852.404	0.0178154
852.482	0.0177041
852.560	0.0178201
852.638	0.0177688
852.716	0.0177528
852.794	0.0178847
852.872	0.0177985
852.950	0.0178717
853.029	0.0177727
853.107	0.0177621
853.185	0.0178508
853.263	0.0177858
853.341	0.0177134
853.419	0.0176756
853.497	0.0179133
853.575	0.0177234
853.654	0.0177676
853.732	0.0180104
853.810	0.0177814
853.888	0.0177032
853.966	0.0178623
854.044	0.0178893
854.122	0.0178723
854.200	0.0177142
854.279	0.0177812
854.357	0.0177505
854.435	0.0179912
854.513	0.0178101
854.591	0.0178040
854.669	0.0177754
854.747	0.0178003
854.825	0.0178308
854.904	0.0176961
854.982	0.0177212
855.060	0.0177691
855.138	0.0177123
855.216	0.0177242
855.294	0.0177723
855.372	0.0176163
855.450	0.0177373
855.529	0.0176498
855.607	0.0176846
855.685	0.0175752
855.763	0.0176967
855.841	0.0176641
855.919	0.0175900
855.997	0.0176041
856.075	0.0175879
856.154	0.0177083
856.232	0.0175302
856.310	0.0175616
856.388	0.0175523
856.466	0.0175561
856.544	0.0176426
856.622	0.0177502
856.700	0.0176445
856.779	0.0175179
856.857	0.0176614
856.935	0.0176308
857.013	0.0176658
857.091	0.0177144
857.169	0.0175227
857.247	0.0176359
857.325	0.0175854
857.404	0.0177100
857.482	0.0176067
857.560	0.0176289
857.638	0.0175420
857.716	0.0176928
857.794	0.0176789
857.872	0.0176233
857.950	0.0175340
858.029	0.0175793
858.107	0.0176142
858.185	0.0176605
858.263	0.0177288
858.341	0.0175703
858.419	0.0176668
858.497	0.0176705
858.575	0.0175922
858.654	0.0176135
858.732	0.0177171
858.810	0.0176350
858.888	0.0176054
858.966	0.0176659
859.044	0.0178291
859.122	0.0176328
859.200	0.0176624
859.279	0.0177106
859.357	0.0177555
859.435	0.0176830
859.513	0.0177943
859.591	0.0177090
859.669	0.0177804
859.747	0.0177180
859.825	0.0177541
859.904	0.0177851
859.982	0.0177624
860.060	0.0178162
860.138	0.0177681
860.216	0.0178128
860.294	0.0177462
860.372	0.0177816
860.450	0.0178286
860.529	0.0177348
860.607	0.0178091
860.685	0.0179262
860.763	0.0177994
860.841	0.0178348
860.919	0.0178008
860.997	0.0177827
861.075	0.0178223
861.154	0.0178655
861.232	0.0178271
861.310	0.0178030
861.388	0.0178362
861.466	0.0178996
861.544	0.0178053
861.622	0.0178998
861.700	0.0179768
861.779	0.0179147
861.857	0.0178435
861.935	0.0179168
862.013	0.0178184
862.091	0.0178917
862.169	0.0179099
862.247	0.0178789
862.325	0.0178652
862.404	0.0179376
862.482	0.0179303
862.560	0.0179206
862.638	0.0178644
862.716	0.0179414
862.794	0.0179649
862.872	0.0178500
862.950	0.0179521
863.029	0.0177488
863.107	0.0177415
863.185	0.0178707
863.263	0.0178563
863.341	0.0178459
863.419	0.0178190
863.497	0.0178619
863.575	0.0178075
863.654	0.0179132
863.732	0.0178748
863.810	0.0178463
863.888	0.0179668
863.966	0.0178684
864.044	0.0178345
864.122	0.0179101
864.200	0.0179387
864.279	0.0178938
864.357	0.0178536
864.435	0.0178281
864.513	0.0178806
864.591	0.0177850
864.669	0.0177648
864.747	0.0179304
864.825	0.0179681
864.904	0.0178185
864.982	0.0178401
865.060	0.0178297
865.138	0.0179446
865.216	0.0179021
865.294	0.0177899
865.372	0.0177703
865.450	0.0178326
865.529	0.0176943
865.607	0.0177975
865.685	0.0178850
865.763	0.0180083
865.841	0.0178590
865.919	0.0178777
865.997	0.0178747
866.075	0.0177152
866.154	0.0177796
866.232	0.0177170
866.310	0.0177277
866.388	0.0177337
866.466	0.0176962
866.544	0.0179041
866.622	0.0178129
866.700	0.0178759
866.779	0.0177823
866.857	0.0179072
866.935	0.0178954
867.013	0.0179428
867.091	0.0179050
867.169	0.0177868
867.247	0.0177627
867.325	0.0178659
867.404	0.0179430
867.482	0.0177406
867.560	0.0178718
867.638	0.0178828
867.716	0.0178693
867.794	0.0177353
867.872	0.0177802
867.950	0.0179644
868.029	0.0178480
868.107	0.0179318
868.185	0.0178265
868.263	0.0178306
868.341	0.0178282
868.419	0.0178627
868.497	0.0177884
868.575	0.0179001
868.654	0.0177306
868.732	0.0176598
868.810	0.0178207
868.888	0.0179263
868.966	0.0177329
869.044	0.0177369
869.122	0.0178302
869.200	0.0178217
869.279	0.0177634
869.357	0.0177104
869.435	0.0178005
869.513	0.0178412
869.591	0.0177367
869.669	0.0177679
869.747	0.0178332
869.825	0.0177002
869.904	0.0177363
869.982	0.0177603
870.060	0.0177436
870.138	0.0176941
870.216	0.0176980
870.294	0.0178767
870.372	0.0179243
870.450	0.0179111
870.529	0.0177612
870.607	0.0177759
870.685	0.0177804
870.763	0.0178249
870.841	0.0177732
870.919	0.0177896
870.997	0.0177274
871.075	0.0178927
871.154	0.0180501
871.232	0.0178848
871.310	0.0179633
871.388	0.0178521
871.466	0.0179094
871.544	0.0180015
871.622	0.0180541
871.700	0.0179448
871.779	0.0178496
871.857	0.0178804
871.935	0.0179746
872.013	0.0177571
872.091	0.0178556
872.169	0.0178482
872.247	0.0177963
872.325	0.0179470
872.404	0.0180217
872.482	0.0178605
872.560	0.0177477
872.638	0.0179903
872.716	0.0179107
872.794	0.0178983
872.872	0.0178432
872.950	0.0179310
873.029	0.0179075
873.107	0.0178909
873.185	0.0178935
873.263	0.0177948
873.341	0.0177918
873.419	0.0178893
873.497	0.0179565
873.575	0.0177996
873.654	0.0179457
873.732	0.0178733
873.810	0.0178763
873.888	0.0177081
873.966	0.0178388
874.044	0.0177342
874.122	0.0178405
874.200	0.0179686
874.279	0.0179102
874.357	0.0178847
874.435	0.0177940
874.513	0.0178857
874.591	0.0180031
874.669	0.0179099
874.747	0.0178850
874.825	0.0178572
874.904	0.0179510
874.982	0.0179465
875.060	0.0178847
875.138	0.0179284
875.216	0.0180214
875.294	0.0180403
875.372	0.0180438
875.450	0.0179667
875.529	0.0179813
875.607	0.0177496
875.685	0.0179141
875.763	0.0178202
875.841	0.0177634
875.919	0.0178834
875.997	0.0178201
876.075	0.0178622
876.154	0.0178616
876.232	0.0177410
876.310	0.0179350
876.388	0.0178699
876.466	0.0176130
876.544	0.0177381
876.622	0.0178139
876.700	0.0177023
876.779	0.0176262
876.857	0.0178758
876.935	0.0177785
877.013	0.0178007
877.091	0.0176945
877.169	0.0177010
877.247	0.0180197
877.325	0.0176911
877.404	0.0177623
877.482	0.0178611
877.560	0.0179372
877.638	0.0177218
877.716	0.0176318
877.794	0.0177628
877.872	0.0178207
877.950	0.0177372
878.029	0.0176847
878.107	0.0176777
878.185	0.0177004
878.263	0.0177393
878.341	0.0177402
878.419	0.0177600
878.497	0.0176437
878.575	0.0176630
878.654	0.0177620
878.732	0.0176554
878.810	0.0177773
878.888	0.0177805
878.966	0.0177429
879.044	0.0177325
879.122	0.0178311
879.200	0.0177667
879.279	0.0178156
879.357	0.0178496
879.435	0.0178631
879.513	0.0179045
879.591	0.0178690
879.669	0.0178704
879.747	0.0176930
879.825	0.0178775
879.904	0.0177145
879.982	0.0178423
880.060	0.0179152
880.138	0.0177365
880.216	0.0177225
880.294	0.0177618
880.372	0.0177486
880.450	0.0178446
880.529	0.0179928
880.607	0.0178098
880.685	0.0177882
880.763	0.0177734
880.841	0.0179036
880.919	0.0179115
880.997	0.0178672
881.075	0.0178914
881.154	0.0178111
881.232	0.0178545
881.310	0.0178609
881.388	0.0177232
881.466	0.0177402
881.544	0.0178527
881.622	0.0180316
881.700	0.0177583
881.779	0.0178484
881.857	0.0180521
881.935	0.0178855
882.013	0.0177686
882.091	0.0178127
882.169	0.0178811
882.247	0.0179143
882.325	0.0179374
882.404	0.0179105
882.482	0.0178415
882.560	0.0178530
882.638	0.0178428
882.716	0.0180089
882.794	0.0178732
882.872	0.0179751
882.950	0.0179253
883.029	0.0180050
883.107	0.0178927
883.185	0.0178634
883.263	0.0179705
883.341	0.0178780
883.419	0.0179046
883.497	0.0179936
883.575	0.0179723
883.654	0.0178426
883.732	0.0179075
883.810	0.0176380
883.888	0.0179717
883.966	0.0180966
884.044	0.0178911
884.122	0.0179543
884.200	0.0178087
884.279	0.0178997
884.357	0.0180383
884.435	0.0180468
884.513	0.0179063
884.591	0.0178807
884.669	0.0179769
884.747	0.0180028
884.825	0.0179267
884.904	0.0179172
884.982	0.0179717
885.060	0.0177750
885.138	0.0179191
885.216	0.0179028
885.294	0.0178132
885.372	0.0178676
885.450	0.0177899
885.529	0.0177979
885.607	0.0177934
885.685	0.0179070
885.763	0.0178114
885.841	0.0177659
885.919	0.0178316
885.997	0.0177486
886.075	0.0176532
886.154	0.0178587
886.232	0.0177787
886.310	0.0177158
886.388	0.0177708
886.466	0.0177325
886.544	0.0176911
886.622	0.0178563
886.700	0.0177386
886.779	0.0177110
886.857	0.0179348
886.935	0.0177820
887.013	0.0178016
887.091	0.0177448
887.169	0.0178102
887.247	0.0177382
887.325	0.0179355
887.404	0.0177646
887.482	0.0179253
887.560	0.0179035
887.638	0.0178312
887.716	0.0178603
887.794	0.0178117
887.872	0.0179334
887.950	0.0179169
888.029	0.0178683
888.107	0.0179079
888.185	0.0179380
888.263	0.0178125
888.341	0.0180574
888.419	0.0178640
888.497	0.0179388
888.575	0.0178781
888.654	0.0180374
888.732	0.0180405
888.810	0.0179572
888.888	0.0178813
888.966	0.0177929
889.044	0.0179230
889.122	0.0180337
889.200	0.0179945
889.279	0.0179514
889.357	0.0179025
889.435	0.0180407
889.513	0.0177900
889.591	0.0178864
889.669	0.0179639
889.747	0.0178091
889.825	0.0178181
889.904	0.0177585
889.982	0.0178807
890.060	0.0177544
890.138	0.0177203
890.216	0.0177690
890.294	0.0177114
890.372	0.0177074
890.450	0.0178777
890.529	0.0177323
890.607	0.0176066
890.685	0.0177084
890.763	0.0178717
890.841	0.0178516
890.919	0.0176823
890.997	0.0176781
891.075	0.0177634
891.154	0.0177888
891.232	0.0176844
891.310	0.0178413
891.388	0.0178956
891.466	0.0177713
891.544	0.0178041
891.622	0.0179522
891.700	0.0178175
891.779	0.0178053
891.857	0.0178791
891.935	0.0178394
892.013	0.0178117
892.091	0.0177063
892.169	0.0178893
892.247	0.0179558
892.325	0.0177759
892.404	0.0180260
892.482	0.0177769
892.560	0.0178615
892.638	0.0178136
892.716	0.0177666
892.794	0.0178685
892.872	0.0176744
892.950	0.0177724
893.029	0.0178466
893.107	0.0179151
893.185	0.0179530
893.263	0.0178709
893.341	0.0179205
893.419	0.0178927
893.497	0.0177995
893.575	0.0177940
893.654	0.0179351
893.732	0.0178449
893.810	0.0178402
893.888	0.0179460
893.966	0.0180864
894.044	0.0179803
894.122	0.0179342
894.200	0.0179196
894.279	0.0178910
894.357	0.0179114
894.435	0.0179429
894.513	0.0179383
894.591	0.0180356
894.669	0.0180025
894.747	0.0180077
894.825	0.0179249
894.904	0.0180807
894.982	0.0181013
895.060	0.0179540
895.138	0.0179663
895.216	0.0180198
895.294	0.0180805
895.372	0.0179236
895.450	0.0179031
895.529	0.0179936
895.607	0.0180553
895.685	0.0179142
895.763	0.0178023
895.841	0.0179337
895.919	0.0180880
895.997	0.0180408
896.075	0.0178629
896.154	0.0178895
896.232	0.0179844
896.310	0.0178797
896.388	0.0179608
896.466	0.0179226
896.544	0.0179055
896.622	0.0179296
896.700	0.0179817
896.779	0.0178481
896.857	0.0178745
896.935	0.0179034
897.013	0.0178728
897.091	0.0178616
897.169	0.0178491
897.247	0.0178878
897.325	0.0179678
897.404	0.0177853
897.482	0.0176918
897.560	0.0177158
897.638	0.0177264
897.716	0.0178952
897.794	0.0177273
897.872	0.0178597
897.950	0.0178495
898.029	0.0177122
898.107	0.0177046
898.185	0.0178181
898.263	0.0176685
898.341	0.0177872
898.419	0.0177341
898.497	0.0177947
898.575	0.0179058
898.654	0.0177331
898.732	0.0176930
898.810	0.0178028
898.888	0.0179092
898.966	0.0178823
899.044	0.0178533
899.122	0.0178423
899.200	0.0178173
899.279	0.0177657
899.357	0.0177939
899.435	0.0178616
899.513	0.0176658
899.591	0.0177985
899.669	0.0177920
899.747	0.0179087
899.825	0.0178886
899.904	0.0178644
899.982	0.0178358
900.060	0.0176646
900.138	0.0176496
900.216	0.0177542
900.294	0.0177374
900.372	0.0177934
900.450	0.0178064
900.529	0.0178131
900.607	0.0177945
900.685	0.0177747
900.763	0.0178596
900.841	0.0176873
900.919	0.0179167
900.997	0.0178647
901.075	0.0177192
901.154	0.0178669
901.232	0.0177660
901.310	0.0179906
901.388	0.0179545
901.466	0.0177769
901.544	0.0177702
901.622	0.0177555
901.700	0.0177173
901.779	0.0178647
901.857	0.0178573
901.935	0.0177803
902.013	0.0178745
902.091	0.0177169
902.169	0.0178316
902.247	0.0178685
902.325	0.0177637
902.404	0.0177537
902.482	0.0178179
902.560	0.0179483
902.638	0.0179202
902.716	0.0178998
902.794	0.0179028
902.872	0.0177962
902.950	0.0178413
903.029	0.0179773
903.107	0.0179369
903.185	0.0180051
903.263	0.0177995
903.341	0.0179871
903.419	0.0180183
903.497	0.0179086
903.575	0.0179488
903.654	0.0179470
903.732	0.0179722
903.810	0.0178583
903.888	0.0179790
903.966	0.0180553
904.044	0.0179086
904.122	0.0180441
904.200	0.0178787
904.279	0.0178603
904.357	0.0179472
904.435	0.0179241
904.513	0.0178073
904.591	0.0179034
904.669	0.0177663
904.747	0.0178169
904.825	0.0179319
904.904	0.0178121
904.982	0.0176604
905.060	0.0179734
905.138	0.0178774
905.216	0.0177517
905.294	0.0178136
905.372	0.0178323
905.450	0.0177745
905.529	0.0178626
905.607	0.0179103
905.685	0.0177655
905.763	0.0177841
905.841	0.0177961
905.919	0.0178565
905.997	0.0178279
906.075	0.0176859
906.154	0.0178587
906.232	0.0177979
906.310	0.0177544
906.388	0.0177467
906.466	0.0176801
906.544	0.0177336
906.622	0.0177655
906.700	0.0176609
906.779	0.0175536
906.857	0.0176041
906.935	0.0176396
907.013	0.0177338
907.091	0.0175266
907.169	0.0176197
907.247	0.0177837
907.325	0.0176949
907.404	0.0177303
907.482	0.0176868
907.560	0.0175935
907.638	0.0177558
907.716	0.0178465
907.794	0.0177057
907.872	0.0176826
907.950	0.0177977
908.029	0.0178842
908.107	0.0178422
908.185	0.0176600
908.263	0.0177418
908.341	0.0178017
908.419	0.0177451
908.497	0.0176744
908.575	0.0177676
908.654	0.0178120
908.732	0.0177927
908.810	0.0177840
908.888	0.0177561
908.966	0.0176434
909.044	0.0177803
909.122	0.0178177
909.200	0.0177375
909.279	0.0177351
909.357	0.0177949
909.435	0.0177074
909.513	0.0178150
909.591	0.0176327
909.669	0.0177689
909.747	0.0177215
909.825	0.0178121
909.904	0.0177196
909.982	0.0177206
910.060	0.0177372
910.138	0.0177383
910.216	0.0176733
910.294	0.0177213
910.372	0.0178089
910.450	0.0176981
910.529	0.0178671
910.607	0.0177358
910.685	0.0177840
910.763	0.0176606
910.841	0.0177518
910.919	0.0177794
910.997	0.0176653
911.075	0.0177736
911.154	0.0176607
911.232	0.0176960
911.310	0.0176313
911.388	0.0175267
911.466	0.0177386
911.544	0.0176330
911.622	0.0176456
911.700	0.0176421
911.779	0.0177457
911.857	0.0176336
911.935	0.0177565
912.013	0.0178516
912.091	0.0177908
912.169	0.0179189
912.247	0.0177576
912.325	0.0178795
912.404	0.0178425
912.482	0.0178919
912.560	0.0179763
912.638	0.0179679
912.716	0.0180133
912.794	0.0180428
912.872	0.0179166
912.950	0.0179951
913.029	0.0180800
913.107	0.0180236
913.185	0.0178722
913.263	0.0178430
913.341	0.0179540
913.419	0.0178957
913.497	0.0178708
913.575	0.0178697
913.654	0.0178025
913.732	0.0178625
913.810	0.0179085
913.888	0.0179208
913.966	0.0178587
914.044	0.0179758
914.122	0.0178290
914.200	0.0178736
914.279	0.0179609
914.357	0.0179881
914.435	0.0179613
914.513	0.0179243
914.591	0.0178853
914.669	0.0180910
914.747	0.0178921
914.825	0.0178188
914.904	0.0178434
914.982	0.0179910
915.060	0.0178702
915.138	0.0180193
915.216	0.0178477
915.294	0.0179437
915.372	0.0179683
915.450	0.0178652
915.529	0.0179775
915.607	0.0179172
915.685	0.0179419
915.763	0.0179182
915.841	0.0178577
915.919	0.0179311
915.997	0.0179830
916.075	0.0179243
916.154	0.0180156
916.232	0.0179884
916.310	0.0180205
916.388	0.0180072
916.466	0.0179816
916.544	0.0180988
916.622	0.0181957
916.700	0.0178815
916.779	0.0180799
916.857	0.0180441
916.935	0.0180591
917.013	0.0179839
917.091	0.0180722
917.169	0.0178281
917.247	0.0179622
917.325	0.0179176
917.404	0.0179584
917.482	0.0180138
917.560	0.0179361
917.638	0.0178189
917.716	0.0177877
917.794	0.0179470
917.872	0.0180385
917.950	0.0178893
918.029	0.0179733
918.107	0.0178617
918.185	0.0177705
918.263	0.0180122
918.341	0.0178305
918.419	0.0178233
918.497	0.0178573
918.575	0.0179365
918.654	0.0178854
918.732	0.0178934
918.810	0.0178701
918.888	0.0178313
918.966	0.0180479
919.044	0.0179411
919.122	0.0178718
919.200	0.0179283
919.279	0.0178071
919.357	0.0179152
919.435	0.0180107
919.513	0.0179079
919.591	0.0178768
919.669	0.0177715
919.747	0.0179294
919.825	0.0178794
919.904	0.0178257
