06/10/2022	16:39:28	Ver.	4.1	UNKNOWN
Optical Delay	600.015094	Delta X		0.078125	Sweeps	1	Scan Rate	0/0
Coordinates	Axis 1	NaN	Axis 2	NaN	Axis 3	NaN	Axis 4	NaN	Axis 5	NaN	Axis 6	0.000000
TX Power	0.000000	RX Power	0.000000

600.015	0.0164471
600.093	0.0163918
600.171	0.0163899
600.249	0.0162359
600.328	0.0164914
600.406	0.0163887
600.484	0.0164470
600.562	0.0163758
600.640	0.0163264
600.718	0.0164544
600.796	0.0164081
600.874	0.0164030
600.953	0.0164169
601.031	0.0164601
601.109	0.0163326
601.187	0.0165204
601.265	0.0164223
601.343	0.0164303
601.421	0.0164349
601.499	0.0164692
601.578	0.0164384
601.656	0.0164843
601.734	0.0164978
601.812	0.0163712
601.890	0.0164451
601.968	0.0163986
602.046	0.0163613
602.124	0.0164319
602.203	0.0163313
602.281	0.0164645
602.359	0.0164683
602.437	0.0165144
602.515	0.0163336
602.593	0.0164018
602.671	0.0164920
602.749	0.0164772
602.828	0.0165514
602.906	0.0164750
602.984	0.0164099
603.062	0.0164447
603.140	0.0164950
603.218	0.0166428
603.296	0.0164928
603.374	0.0164630
603.453	0.0165737
603.531	0.0165544
603.609	0.0165867
603.687	0.0166158
603.765	0.0165717
603.843	0.0165625
603.921	0.0165446
603.999	0.0166720
604.078	0.0166617
604.156	0.0166952
604.234	0.0165241
604.312	0.0167184
604.390	0.0167153
604.468	0.0167236
604.546	0.0165930
604.624	0.0166225
604.703	0.0168245
604.781	0.0166739
604.859	0.0167870
604.937	0.0167644
605.015	0.0165879
605.093	0.0165820
605.171	0.0166358
605.249	0.0166902
605.328	0.0167490
605.406	0.0167176
605.484	0.0167199
605.562	0.0167114
605.640	0.0166862
605.718	0.0167082
605.796	0.0166573
605.874	0.0168487
605.953	0.0166278
606.031	0.0167059
606.109	0.0166612
606.187	0.0167542
606.265	0.0167481
606.343	0.0166974
606.421	0.0166484
606.499	0.0165413
606.578	0.0164995
606.656	0.0165952
606.734	0.0166322
606.812	0.0166276
606.890	0.0165440
606.968	0.0167038
607.046	0.0165259
607.124	0.0164526
607.203	0.0165123
607.281	0.0163091
607.359	0.0165343
607.437	0.0165379
607.515	0.0165473
607.593	0.0165511
607.671	0.0165653
607.749	0.0165809
607.828	0.0164772
607.906	0.0165755
607.984	0.0166164
608.062	0.0164754
608.140	0.0165588
608.218	0.0166070
608.296	0.0165419
608.374	0.0166142
608.453	0.0165827
608.531	0.0165343
608.609	0.0166423
608.687	0.0165572
608.765	0.0166679
608.843	0.0165328
608.921	0.0164944
608.999	0.0164612
609.078	0.0163905
609.156	0.0163707
609.234	0.0165443
609.312	0.0166521
609.390	0.0164838
609.468	0.0164584
609.546	0.0165730
609.624	0.0163916
609.703	0.0164254
609.781	0.0162745
609.859	0.0165656
609.937	0.0164838
610.015	0.0165161
610.093	0.0164799
610.171	0.0164186
610.249	0.0164859
610.328	0.0165240
610.406	0.0164797
610.484	0.0165376
610.562	0.0164824
610.640	0.0164414
610.718	0.0164856
610.796	0.0165388
610.874	0.0164205
610.953	0.0164183
611.031	0.0164387
611.109	0.0164811
611.187	0.0164174
611.265	0.0163842
611.343	0.0164513
611.421	0.0164714
611.499	0.0165179
611.578	0.0164704
611.656	0.0164163
611.734	0.0164399
611.812	0.0164866
611.890	0.0163592
611.968	0.0164240
612.046	0.0165455
612.124	0.0165523
612.203	0.0163346
612.281	0.0163549
612.359	0.0163858
612.437	0.0163927
612.515	0.0164770
612.593	0.0166356
612.671	0.0165592
612.749	0.0164603
612.828	0.0164992
612.906	0.0165242
612.984	0.0165728
613.062	0.0164083
613.140	0.0165079
613.218	0.0166724
613.296	0.0167154
613.374	0.0164516
613.453	0.0165825
613.531	0.0165884
613.609	0.0165907
613.687	0.0165387
613.765	0.0166368
613.843	0.0165652
613.921	0.0164277
613.999	0.0165907
614.078	0.0166184
614.156	0.0166831
614.234	0.0163937
614.312	0.0164420
614.390	0.0166389
614.468	0.0167287
614.546	0.0166625
614.624	0.0165442
614.703	0.0167267
614.781	0.0166203
614.859	0.0166067
614.937	0.0165306
615.015	0.0165881
615.093	0.0166669
615.171	0.0166823
615.249	0.0165710
615.328	0.0166396
615.406	0.0165981
615.484	0.0166805
615.562	0.0165909
615.640	0.0166857
615.718	0.0165791
615.796	0.0166540
615.874	0.0166098
615.953	0.0164633
616.031	0.0165949
616.109	0.0166891
616.187	0.0164709
616.265	0.0164133
616.343	0.0165697
616.421	0.0165920
616.499	0.0165179
616.578	0.0165185
616.656	0.0164987
616.734	0.0164758
616.812	0.0164764
616.890	0.0163944
616.968	0.0164694
617.046	0.0164691
617.124	0.0164137
617.203	0.0164501
617.281	0.0164524
617.359	0.0163937
617.437	0.0163979
617.515	0.0165396
617.593	0.0164685
617.671	0.0165155
617.749	0.0164625
617.828	0.0164529
617.906	0.0163923
617.984	0.0163212
618.062	0.0163649
618.140	0.0162586
618.218	0.0164894
618.296	0.0166384
618.374	0.0165076
618.453	0.0164526
618.531	0.0163542
618.609	0.0164680
618.687	0.0164943
618.765	0.0164889
618.843	0.0163800
618.921	0.0164163
618.999	0.0164558
619.078	0.0164989
619.156	0.0164294
619.234	0.0164658
619.312	0.0163757
619.390	0.0164812
619.468	0.0164061
619.546	0.0164954
619.624	0.0164503
619.703	0.0163811
619.781	0.0163927
619.859	0.0165055
619.937	0.0163666
620.015	0.0162825
620.093	0.0163837
620.171	0.0164390
620.249	0.0163482
620.328	0.0164465
620.406	0.0162990
620.484	0.0163876
620.562	0.0164261
620.640	0.0163762
620.718	0.0163986
620.796	0.0165183
620.874	0.0164510
620.953	0.0163498
621.031	0.0163242
621.109	0.0164388
621.187	0.0163671
621.265	0.0163718
621.343	0.0163985
621.421	0.0164558
621.499	0.0165092
621.578	0.0163590
621.656	0.0164185
621.734	0.0165022
621.812	0.0162993
621.890	0.0165079
621.968	0.0164602
622.046	0.0164559
622.124	0.0164062
622.203	0.0164323
622.281	0.0164761
622.359	0.0164880
622.437	0.0165365
622.515	0.0164528
622.593	0.0163818
622.671	0.0164188
622.749	0.0164517
622.828	0.0165231
622.906	0.0165135
622.984	0.0165252
623.062	0.0165448
623.140	0.0164242
623.218	0.0164896
623.296	0.0164223
623.374	0.0164469
623.453	0.0164070
623.531	0.0165697
623.609	0.0165696
623.687	0.0165583
623.765	0.0164170
623.843	0.0164515
623.921	0.0165815
623.999	0.0164664
624.078	0.0163771
624.156	0.0164999
624.234	0.0164525
624.312	0.0164667
624.390	0.0164626
624.468	0.0163889
624.546	0.0165144
624.624	0.0165319
624.703	0.0164670
624.781	0.0163907
624.859	0.0164766
624.937	0.0166402
625.015	0.0165822
625.093	0.0166483
625.171	0.0166374
625.249	0.0164781
625.328	0.0165411
625.406	0.0165505
625.484	0.0165652
625.562	0.0164962
625.640	0.0165717
625.718	0.0166028
625.796	0.0165173
625.874	0.0165371
625.953	0.0165126
626.031	0.0165730
626.109	0.0165269
626.187	0.0166538
626.265	0.0164864
626.343	0.0164860
626.421	0.0165144
626.499	0.0165430
626.578	0.0164437
626.656	0.0165434
626.734	0.0164430
626.812	0.0165324
626.890	0.0165572
626.968	0.0165394
627.046	0.0166202
627.124	0.0164259
627.203	0.0164364
627.281	0.0164375
627.359	0.0164803
627.437	0.0164525
627.515	0.0166205
627.593	0.0166304
627.671	0.0165672
627.749	0.0165086
627.828	0.0166487
627.906	0.0165246
627.984	0.0164288
628.062	0.0165131
628.140	0.0165448
628.218	0.0165649
628.296	0.0163885
628.374	0.0165936
628.453	0.0164721
628.531	0.0166137
628.609	0.0165732
628.687	0.0165169
628.765	0.0164137
628.843	0.0166699
628.921	0.0165979
628.999	0.0165423
629.078	0.0164822
629.156	0.0166269
629.234	0.0165911
629.312	0.0164411
629.390	0.0166393
629.468	0.0165174
629.546	0.0165382
629.624	0.0166028
629.703	0.0164143
629.781	0.0166578
629.859	0.0165278
629.937	0.0165343
630.015	0.0166031
630.093	0.0164157
630.171	0.0165114
630.249	0.0165553
630.328	0.0164629
630.406	0.0166769
630.484	0.0164485
630.562	0.0166082
630.640	0.0165056
630.718	0.0164278
630.796	0.0163589
630.874	0.0167049
630.953	0.0166676
631.031	0.0164571
631.109	0.0164602
631.187	0.0165469
631.265	0.0165747
631.343	0.0164980
631.421	0.0163580
631.499	0.0165826
631.578	0.0165169
631.656	0.0165189
631.734	0.0165103
631.812	0.0166256
631.890	0.0166178
631.968	0.0164198
632.046	0.0164796
632.124	0.0166314
632.203	0.0166068
632.281	0.0164906
632.359	0.0164627
632.437	0.0165264
632.515	0.0163835
632.593	0.0165739
632.671	0.0165797
632.749	0.0165320
632.828	0.0165947
632.906	0.0166071
632.984	0.0166031
633.062	0.0164390
633.140	0.0165543
633.218	0.0166355
633.296	0.0165396
633.374	0.0164150
633.453	0.0166546
633.531	0.0164326
633.609	0.0164456
633.687	0.0165323
633.765	0.0166167
633.843	0.0163844
633.921	0.0164569
633.999	0.0164553
634.078	0.0165594
634.156	0.0164867
634.234	0.0165784
634.312	0.0164898
634.390	0.0164439
634.468	0.0165054
634.546	0.0163194
634.624	0.0165850
634.703	0.0163381
634.781	0.0163477
634.859	0.0164739
634.937	0.0163964
635.015	0.0164027
635.093	0.0165412
635.171	0.0164117
635.249	0.0164440
635.328	0.0163699
635.406	0.0164309
635.484	0.0164735
635.562	0.0164379
635.640	0.0164379
635.718	0.0164046
635.796	0.0166210
635.874	0.0164807
635.953	0.0166045
636.031	0.0164145
636.109	0.0165141
636.187	0.0164117
636.265	0.0165115
636.343	0.0164163
636.421	0.0165104
636.499	0.0166150
636.578	0.0164620
636.656	0.0164603
636.734	0.0165151
636.812	0.0165414
636.890	0.0165150
636.968	0.0164049
637.046	0.0165386
637.124	0.0164149
637.203	0.0165222
637.281	0.0165186
637.359	0.0164999
637.437	0.0165747
637.515	0.0165674
637.593	0.0165137
637.671	0.0164920
637.749	0.0165898
637.828	0.0164524
637.906	0.0164214
637.984	0.0165570
638.062	0.0165118
638.140	0.0165314
638.218	0.0164616
638.296	0.0164410
638.374	0.0164464
638.453	0.0166210
638.531	0.0164017
638.609	0.0164246
638.687	0.0164001
638.765	0.0164749
638.843	0.0163498
638.921	0.0164713
638.999	0.0164658
639.078	0.0165099
639.156	0.0165770
639.234	0.0163803
639.312	0.0164544
639.390	0.0165002
639.468	0.0164442
639.546	0.0164992
639.624	0.0163713
639.703	0.0163120
639.781	0.0164156
639.859	0.0163885
639.937	0.0162879
640.015	0.0164819
640.093	0.0163493
640.171	0.0163359
640.249	0.0164661
640.328	0.0164569
640.406	0.0163982
640.484	0.0164247
640.562	0.0164517
640.640	0.0164230
640.718	0.0163126
640.796	0.0163381
640.874	0.0163721
640.953	0.0162884
641.031	0.0164993
641.109	0.0164366
641.187	0.0163747
641.265	0.0163033
641.343	0.0164951
641.421	0.0164857
641.499	0.0164551
641.578	0.0163971
641.656	0.0164610
641.734	0.0164327
641.812	0.0164277
641.890	0.0164941
641.968	0.0164597
642.046	0.0164597
642.124	0.0163284
642.203	0.0164721
642.281	0.0163589
642.359	0.0164062
642.437	0.0165539
642.515	0.0164377
642.593	0.0164411
642.671	0.0163222
642.749	0.0163949
642.828	0.0164509
642.906	0.0165432
642.984	0.0165189
643.062	0.0164091
643.140	0.0165352
643.218	0.0165252
643.296	0.0164640
643.374	0.0164590
643.453	0.0163501
643.531	0.0164169
643.609	0.0164703
643.687	0.0164591
643.765	0.0164780
643.843	0.0165187
643.921	0.0164519
643.999	0.0164820
644.078	0.0166029
644.156	0.0163927
644.234	0.0165189
644.312	0.0164845
644.390	0.0165876
644.468	0.0164442
644.546	0.0166363
644.624	0.0164497
644.703	0.0163897
644.781	0.0165466
644.859	0.0165181
644.937	0.0165334
645.015	0.0165954
645.093	0.0165602
645.171	0.0165086
645.249	0.0164692
645.328	0.0166100
645.406	0.0166135
645.484	0.0167105
645.562	0.0166509
645.640	0.0164304
645.718	0.0165363
645.796	0.0164322
645.874	0.0165596
645.953	0.0165519
646.031	0.0165231
646.109	0.0164063
646.187	0.0164802
646.265	0.0165868
646.343	0.0166692
646.421	0.0164323
646.499	0.0164277
646.578	0.0165812
646.656	0.0166333
646.734	0.0164753
646.812	0.0164799
646.890	0.0165936
646.968	0.0165759
647.046	0.0165874
647.124	0.0165127
647.203	0.0164297
647.281	0.0165549
647.359	0.0165726
647.437	0.0164927
647.515	0.0164272
647.593	0.0165530
647.671	0.0164530
647.749	0.0165718
647.828	0.0164370
647.906	0.0163786
647.984	0.0166068
648.062	0.0165636
648.140	0.0164844
648.218	0.0163605
648.296	0.0164227
648.374	0.0164076
648.453	0.0164829
648.531	0.0163041
648.609	0.0163406
648.687	0.0164407
648.765	0.0164151
648.843	0.0165692
648.921	0.0163755
648.999	0.0162106
649.078	0.0164334
649.156	0.0165443
649.234	0.0164439
649.312	0.0165040
649.390	0.0163478
649.468	0.0164443
649.546	0.0164808
649.624	0.0163937
649.703	0.0163219
649.781	0.0163688
649.859	0.0164275
649.937	0.0164960
650.015	0.0163309
650.093	0.0164917
650.171	0.0164558
650.249	0.0162854
650.328	0.0163743
650.406	0.0163589
650.484	0.0163789
650.562	0.0163751
650.640	0.0164812
650.718	0.0164331
650.796	0.0163898
650.874	0.0163907
650.953	0.0163856
651.031	0.0164462
651.109	0.0163788
651.187	0.0163320
651.265	0.0162569
651.343	0.0164297
651.421	0.0162843
651.499	0.0163212
651.578	0.0164392
651.656	0.0164605
651.734	0.0163589
651.812	0.0163601
651.890	0.0163586
651.968	0.0164975
652.046	0.0165654
652.124	0.0163593
652.203	0.0163740
652.281	0.0163938
652.359	0.0163691
652.437	0.0163170
652.515	0.0163358
652.593	0.0164598
652.671	0.0164043
652.749	0.0163840
652.828	0.0163709
652.906	0.0163560
652.984	0.0165570
653.062	0.0164822
653.140	0.0163901
653.218	0.0163698
653.296	0.0163385
653.374	0.0163037
653.453	0.0162605
653.531	0.0163872
653.609	0.0164951
653.687	0.0165269
653.765	0.0163860
653.843	0.0164527
653.921	0.0163535
653.999	0.0163654
654.078	0.0163110
654.156	0.0163110
654.234	0.0163784
654.312	0.0164323
654.390	0.0163976
654.468	0.0163979
654.546	0.0164544
654.624	0.0163898
654.703	0.0164128
654.781	0.0163831
654.859	0.0164683
654.937	0.0164557
655.015	0.0163782
655.093	0.0165208
655.171	0.0164287
655.249	0.0166057
655.328	0.0166085
655.406	0.0165193
655.484	0.0165440
655.562	0.0165025
655.640	0.0165553
655.718	0.0164880
655.796	0.0164740
655.874	0.0164027
655.953	0.0165650
656.031	0.0165041
656.109	0.0166084
656.187	0.0167219
656.265	0.0164953
656.343	0.0165540
656.421	0.0165097
656.499	0.0165378
656.578	0.0165112
656.656	0.0164335
656.734	0.0165053
656.812	0.0165356
656.890	0.0165820
656.968	0.0164323
657.046	0.0164828
657.124	0.0165340
657.203	0.0165845
657.281	0.0166828
657.359	0.0164555
657.437	0.0164998
657.515	0.0164631
657.593	0.0164640
657.671	0.0162659
657.749	0.0164388
657.828	0.0165015
657.906	0.0165147
657.984	0.0165082
658.062	0.0165055
658.140	0.0163509
658.218	0.0164988
658.296	0.0165392
658.374	0.0165489
658.453	0.0165366
658.531	0.0163309
658.609	0.0165022
658.687	0.0164897
658.765	0.0164382
658.843	0.0164574
658.921	0.0164804
658.999	0.0165514
659.078	0.0165560
659.156	0.0165965
659.234	0.0165054
659.312	0.0166277
659.390	0.0165379
659.468	0.0165163
659.546	0.0165414
659.624	0.0165555
659.703	0.0164151
659.781	0.0165489
659.859	0.0163910
659.937	0.0165779
660.015	0.0164616
660.093	0.0165599
660.171	0.0164928
660.249	0.0165392
660.328	0.0166741
660.406	0.0165108
660.484	0.0164188
660.562	0.0164428
660.640	0.0166631
660.718	0.0164883
660.796	0.0165472
660.874	0.0164722
660.953	0.0164977
661.031	0.0164381
661.109	0.0165051
661.187	0.0165040
661.265	0.0165221
661.343	0.0164577
661.421	0.0165147
661.499	0.0166154
661.578	0.0164363
661.656	0.0164360
661.734	0.0165233
661.812	0.0164735
661.890	0.0165561
661.968	0.0164403
662.046	0.0165630
662.124	0.0164585
662.203	0.0164731
662.281	0.0163971
662.359	0.0162432
662.437	0.0165221
662.515	0.0165237
662.593	0.0164519
662.671	0.0164709
662.749	0.0164821
662.828	0.0164809
662.906	0.0164476
662.984	0.0163958
663.062	0.0165023
663.140	0.0164189
663.218	0.0164047
663.296	0.0164219
663.374	0.0164725
663.453	0.0165038
663.531	0.0165392
663.609	0.0164595
663.687	0.0163979
663.765	0.0164780
663.843	0.0165944
663.921	0.0165393
663.999	0.0165884
664.078	0.0163625
664.156	0.0164598
664.234	0.0165512
664.312	0.0164921
664.390	0.0165324
664.468	0.0164661
664.546	0.0165636
664.624	0.0164335
664.703	0.0164431
664.781	0.0165240
664.859	0.0165321
664.937	0.0164517
665.015	0.0164706
665.093	0.0164561
665.171	0.0163874
665.249	0.0164565
665.328	0.0165511
665.406	0.0166502
665.484	0.0166265
665.562	0.0165325
665.640	0.0164838
665.718	0.0164486
665.796	0.0164489
665.874	0.0164648
665.953	0.0166116
666.031	0.0165467
666.109	0.0165297
666.187	0.0164313
666.265	0.0164445
666.343	0.0164767
666.421	0.0165297
666.499	0.0164880
666.578	0.0164010
666.656	0.0165785
666.734	0.0165560
666.812	0.0165379
666.890	0.0164378
666.968	0.0165462
667.046	0.0164161
667.124	0.0165826
667.203	0.0164734
667.281	0.0164950
667.359	0.0164229
667.437	0.0166074
667.515	0.0165974
667.593	0.0164959
667.671	0.0164069
667.749	0.0165376
667.828	0.0165501
667.906	0.0165666
667.984	0.0164591
668.062	0.0164979
668.140	0.0165473
668.218	0.0164815
668.296	0.0164536
668.374	0.0165303
668.453	0.0165672
668.531	0.0165162
668.609	0.0164592
668.687	0.0164190
668.765	0.0163894
668.843	0.0165530
668.921	0.0165257
668.999	0.0164716
669.078	0.0165307
669.156	0.0165466
669.234	0.0164443
669.312	0.0163566
669.390	0.0164848
669.468	0.0165433
669.546	0.0164987
669.624	0.0164896
669.703	0.0164506
669.781	0.0165500
669.859	0.0164104
669.937	0.0164795
670.015	0.0164620
670.093	0.0165635
670.171	0.0164426
670.249	0.0165121
670.328	0.0165277
670.406	0.0165305
670.484	0.0164904
670.562	0.0164752
670.640	0.0163905
670.718	0.0164677
670.796	0.0164209
670.874	0.0165231
670.953	0.0163987
671.031	0.0165367
671.109	0.0164598
671.187	0.0164532
671.265	0.0165369
671.343	0.0164693
671.421	0.0164861
671.499	0.0164798
671.578	0.0164596
671.656	0.0163384
671.734	0.0164356
671.812	0.0164903
671.890	0.0164532
671.968	0.0164402
672.046	0.0164865
672.124	0.0164697
672.203	0.0163631
672.281	0.0165045
672.359	0.0164675
672.437	0.0164905
672.515	0.0163869
672.593	0.0164352
672.671	0.0165312
672.749	0.0165299
672.828	0.0164398
672.906	0.0163451
672.984	0.0163675
673.062	0.0164446
673.140	0.0164218
673.218	0.0165480
673.296	0.0164539
673.374	0.0164039
673.453	0.0164635
673.531	0.0163720
673.609	0.0164243
673.687	0.0165966
673.765	0.0164671
673.843	0.0164529
673.921	0.0164799
673.999	0.0165401
674.078	0.0165886
674.156	0.0164399
674.234	0.0164388
674.312	0.0165208
674.390	0.0164426
674.468	0.0164510
674.546	0.0165981
674.624	0.0164237
674.703	0.0165639
674.781	0.0164021
674.859	0.0164834
674.937	0.0164462
675.015	0.0164135
675.093	0.0164693
675.171	0.0164655
675.249	0.0163463
675.328	0.0164007
675.406	0.0164616
675.484	0.0165536
675.562	0.0162751
675.640	0.0162767
675.718	0.0164693
675.796	0.0165353
675.874	0.0164427
675.953	0.0164830
676.031	0.0165363
676.109	0.0166340
676.187	0.0164934
676.265	0.0163479
676.343	0.0165650
676.421	0.0164348
676.499	0.0164559
676.578	0.0164262
676.656	0.0165466
676.734	0.0164661
676.812	0.0163605
676.890	0.0164703
676.968	0.0165423
677.046	0.0166338
677.124	0.0165306
677.203	0.0164637
677.281	0.0165199
677.359	0.0165624
677.437	0.0165884
677.515	0.0164864
677.593	0.0164245
677.671	0.0163976
677.749	0.0165189
677.828	0.0164851
677.906	0.0164462
677.984	0.0165639
678.062	0.0166045
678.140	0.0165802
678.218	0.0165651
678.296	0.0165157
678.374	0.0165939
678.453	0.0165267
678.531	0.0166308
678.609	0.0164853
678.687	0.0164959
678.765	0.0166351
678.843	0.0165715
678.921	0.0165408
678.999	0.0165946
679.078	0.0165621
679.156	0.0165297
679.234	0.0165565
679.312	0.0165059
679.390	0.0166526
679.468	0.0165269
679.546	0.0165333
679.624	0.0166158
679.703	0.0165973
679.781	0.0165025
679.859	0.0164622
679.937	0.0165418
680.015	0.0166719
680.093	0.0165385
680.171	0.0164973
680.249	0.0165172
680.328	0.0164870
680.406	0.0165366
680.484	0.0165367
680.562	0.0166225
680.640	0.0166543
680.718	0.0165482
680.796	0.0165131
680.874	0.0164900
680.953	0.0164888
681.031	0.0165862
681.109	0.0166156
681.187	0.0165205
681.265	0.0165359
681.343	0.0165130
681.421	0.0165869
681.499	0.0165183
681.578	0.0164354
681.656	0.0165968
681.734	0.0165663
681.812	0.0164749
681.890	0.0166618
681.968	0.0165691
682.046	0.0166647
682.124	0.0166995
682.203	0.0164796
682.281	0.0166202
682.359	0.0166760
682.437	0.0165525
682.515	0.0164585
682.593	0.0165436
682.671	0.0167005
682.749	0.0166429
682.828	0.0166090
682.906	0.0165816
682.984	0.0164291
683.062	0.0164892
683.140	0.0167030
683.218	0.0165693
683.296	0.0166215
683.374	0.0165349
683.453	0.0166267
683.531	0.0165673
683.609	0.0165054
683.687	0.0166087
683.765	0.0165920
683.843	0.0165545
683.921	0.0166272
683.999	0.0164268
684.078	0.0166157
684.156	0.0166412
684.234	0.0165133
684.312	0.0164666
684.390	0.0167152
684.468	0.0165922
684.546	0.0165351
684.624	0.0165409
684.703	0.0164261
684.781	0.0164556
684.859	0.0165572
684.937	0.0164960
685.015	0.0164980
685.093	0.0165640
685.171	0.0165013
685.249	0.0163731
685.328	0.0166022
685.406	0.0166156
685.484	0.0166370
685.562	0.0165411
685.640	0.0165130
685.718	0.0166079
685.796	0.0165134
685.874	0.0164684
685.953	0.0164441
686.031	0.0166515
686.109	0.0165254
686.187	0.0166070
686.265	0.0165968
686.343	0.0166454
686.421	0.0166440
686.499	0.0166517
686.578	0.0166029
686.656	0.0164319
686.734	0.0165548
686.812	0.0165696
686.890	0.0165150
686.968	0.0165126
687.046	0.0164943
687.124	0.0166618
687.203	0.0165729
687.281	0.0165525
687.359	0.0165831
687.437	0.0164734
687.515	0.0166461
687.593	0.0166488
687.671	0.0164420
687.749	0.0165111
687.828	0.0166822
687.906	0.0165770
687.984	0.0165833
688.062	0.0166534
688.140	0.0166389
688.218	0.0164797
688.296	0.0167029
688.374	0.0166585
688.453	0.0163851
688.531	0.0166035
688.609	0.0165767
688.687	0.0165806
688.765	0.0165503
688.843	0.0165611
688.921	0.0167632
688.999	0.0165936
689.078	0.0165448
689.156	0.0166349
689.234	0.0164852
689.312	0.0165256
689.390	0.0166276
689.468	0.0165452
689.546	0.0166702
689.624	0.0166022
689.703	0.0165181
689.781	0.0164442
689.859	0.0164980
689.937	0.0166409
690.015	0.0164706
690.093	0.0165204
690.171	0.0164836
690.249	0.0165401
690.328	0.0165845
690.406	0.0165687
690.484	0.0165287
690.562	0.0165021
690.640	0.0165647
690.718	0.0164648
690.796	0.0166163
690.874	0.0165312
690.953	0.0164535
691.031	0.0164746
691.109	0.0166174
691.187	0.0164602
691.265	0.0164903
691.343	0.0166026
691.421	0.0165160
691.499	0.0166198
691.578	0.0164814
691.656	0.0165041
691.734	0.0165306
691.812	0.0165419
691.890	0.0163510
691.968	0.0164785
692.046	0.0165812
692.124	0.0164657
692.203	0.0165113
692.281	0.0164706
692.359	0.0165298
692.437	0.0165760
692.515	0.0164563
692.593	0.0165219
692.671	0.0165094
692.749	0.0165088
692.828	0.0165278
692.906	0.0164912
692.984	0.0165662
693.062	0.0165173
693.140	0.0166036
693.218	0.0165004
693.296	0.0165205
693.374	0.0164188
693.453	0.0164983
693.531	0.0165686
693.609	0.0164096
693.687	0.0165504
693.765	0.0165366
693.843	0.0165269
693.921	0.0164659
693.999	0.0166007
694.078	0.0164846
694.156	0.0163442
694.234	0.0164275
694.312	0.0164618
694.390	0.0164546
694.468	0.0163635
694.546	0.0163525
694.624	0.0165259
694.703	0.0163802
694.781	0.0163637
694.859	0.0163483
694.937	0.0164314
695.015	0.0163946
695.093	0.0164533
695.171	0.0165462
695.249	0.0164809
695.328	0.0164322
695.406	0.0164745
695.484	0.0163884
695.562	0.0164378
695.640	0.0164877
695.718	0.0164060
695.796	0.0165015
695.874	0.0165182
695.953	0.0164047
696.031	0.0166139
696.109	0.0164212
696.187	0.0163683
696.265	0.0165139
696.343	0.0164798
696.421	0.0164119
696.499	0.0166306
696.578	0.0165735
696.656	0.0163927
696.734	0.0164015
696.812	0.0163787
696.890	0.0164052
696.968	0.0166652
697.046	0.0164240
697.124	0.0163504
697.203	0.0166091
697.281	0.0165195
697.359	0.0165356
697.437	0.0165915
697.515	0.0165125
697.593	0.0164626
697.671	0.0164479
697.749	0.0165602
697.828	0.0165529
697.906	0.0164084
697.984	0.0165575
698.062	0.0164090
698.140	0.0164404
698.218	0.0164537
698.296	0.0164522
698.374	0.0165382
698.453	0.0166348
698.531	0.0165258
698.609	0.0164874
698.687	0.0165612
698.765	0.0165479
698.843	0.0165643
698.921	0.0163890
698.999	0.0163696
699.078	0.0164650
699.156	0.0165372
699.234	0.0166217
699.312	0.0165507
699.390	0.0164769
699.468	0.0165607
699.546	0.0166003
699.624	0.0164359
699.703	0.0164659
699.781	0.0165186
699.859	0.0166598
699.937	0.0165359
700.015	0.0165453
700.093	0.0163969
700.171	0.0165466
700.249	0.0165470
700.328	0.0164950
700.406	0.0164111
700.484	0.0164995
700.562	0.0165633
700.640	0.0164436
700.718	0.0165283
700.796	0.0165265
700.874	0.0165405
700.953	0.0164705
701.031	0.0165980
701.109	0.0164270
701.187	0.0165587
701.265	0.0166041
701.343	0.0166370
701.421	0.0164803
701.499	0.0167035
701.578	0.0166076
701.656	0.0166154
701.734	0.0164497
701.812	0.0165477
701.890	0.0166154
701.968	0.0167581
702.046	0.0165627
702.124	0.0165036
702.203	0.0165090
702.281	0.0165619
702.359	0.0165209
702.437	0.0165387
702.515	0.0164660
702.593	0.0165846
702.671	0.0166740
702.749	0.0165931
702.828	0.0164007
702.906	0.0164487
702.984	0.0167070
703.062	0.0165611
703.140	0.0164751
703.218	0.0166231
703.296	0.0165218
703.374	0.0166496
703.453	0.0167328
703.531	0.0166621
703.609	0.0166396
703.687	0.0165839
703.765	0.0166532
703.843	0.0166010
703.921	0.0165221
703.999	0.0164844
704.078	0.0164906
704.156	0.0166628
704.234	0.0166241
704.312	0.0164891
704.390	0.0166054
704.468	0.0166578
704.546	0.0165820
704.624	0.0166690
704.703	0.0166217
704.781	0.0165331
704.859	0.0166483
704.937	0.0167062
705.015	0.0165300
705.093	0.0166154
705.171	0.0167027
705.249	0.0165733
705.328	0.0165874
705.406	0.0164035
705.484	0.0165807
705.562	0.0167169
705.640	0.0166917
705.718	0.0164999
705.796	0.0164830
705.874	0.0165390
705.953	0.0166022
706.031	0.0166470
706.109	0.0166631
706.187	0.0166785
706.265	0.0166606
706.343	0.0165537
706.421	0.0166185
706.499	0.0166545
706.578	0.0163969
706.656	0.0164721
706.734	0.0167376
706.812	0.0167200
706.890	0.0165948
706.968	0.0166545
707.046	0.0166202
707.124	0.0165665
707.203	0.0166008
707.281	0.0165482
707.359	0.0165153
707.437	0.0167052
707.515	0.0166904
707.593	0.0165958
707.671	0.0166621
707.749	0.0164935
707.828	0.0166341
707.906	0.0165529
707.984	0.0166772
708.062	0.0165292
708.140	0.0165969
708.218	0.0165941
708.296	0.0165877
708.374	0.0166001
708.453	0.0165046
708.531	0.0164921
708.609	0.0165728
708.687	0.0164834
708.765	0.0164983
708.843	0.0165160
708.921	0.0166241
708.999	0.0164844
709.078	0.0166579
709.156	0.0165448
709.234	0.0166431
709.312	0.0166257
709.390	0.0165954
709.468	0.0164167
709.546	0.0166743
709.624	0.0166151
709.703	0.0165170
709.781	0.0165723
709.859	0.0165685
709.937	0.0165385
710.015	0.0165237
710.093	0.0165938
710.171	0.0165243
710.249	0.0163607
710.328	0.0163847
710.406	0.0164424
710.484	0.0163659
710.562	0.0164124
710.640	0.0164849
710.718	0.0164310
710.796	0.0164935
710.874	0.0165548
710.953	0.0165093
711.031	0.0165534
711.109	0.0165504
711.187	0.0166375
711.265	0.0165140
711.343	0.0167070
711.421	0.0165495
711.499	0.0166463
711.578	0.0166248
711.656	0.0165405
711.734	0.0165674
711.812	0.0163687
711.890	0.0164798
711.968	0.0163843
712.046	0.0163853
712.124	0.0163821
712.203	0.0163854
712.281	0.0163553
712.359	0.0163396
712.437	0.0164368
712.515	0.0164802
712.593	0.0165200
712.671	0.0164657
712.749	0.0164741
712.828	0.0165158
712.906	0.0167022
712.984	0.0166455
713.062	0.0165949
713.140	0.0165350
713.218	0.0166286
713.296	0.0166549
713.374	0.0165489
713.453	0.0165061
713.531	0.0164903
713.609	0.0165385
713.687	0.0163187
713.765	0.0163396
713.843	0.0166416
713.921	0.0165865
713.999	0.0164832
714.078	0.0165431
714.156	0.0165218
714.234	0.0163634
714.312	0.0164970
714.390	0.0165168
714.468	0.0164740
714.546	0.0166360
714.624	0.0165329
714.703	0.0166431
714.781	0.0166581
714.859	0.0165308
714.937	0.0164709
715.015	0.0165781
715.093	0.0166338
715.171	0.0164047
715.249	0.0166260
715.328	0.0164962
715.406	0.0164622
715.484	0.0165656
715.562	0.0167944
715.640	0.0166669
715.718	0.0165736
715.796	0.0166788
715.874	0.0166187
715.953	0.0166125
716.031	0.0165446
716.109	0.0164829
716.187	0.0164925
716.265	0.0163866
716.343	0.0163911
716.421	0.0163939
716.499	0.0162946
716.578	0.0161238
716.656	0.0163376
716.734	0.0163351
716.812	0.0163245
716.890	0.0163453
716.968	0.0166127
717.046	0.0164255
717.124	0.0166444
717.203	0.0165393
717.281	0.0164584
717.359	0.0166050
717.437	0.0165770
717.515	0.0166874
717.593	0.0165803
717.671	0.0166711
717.749	0.0165697
717.828	0.0166104
717.906	0.0164226
717.984	0.0163419
718.062	0.0163743
718.140	0.0163977
718.218	0.0165563
718.296	0.0163656
718.374	0.0162091
718.453	0.0163773
718.531	0.0162304
718.609	0.0162260
718.687	0.0161671
718.765	0.0162294
718.843	0.0163557
718.921	0.0162286
718.999	0.0161759
719.078	0.0163302
719.156	0.0163783
719.234	0.0163095
719.312	0.0163319
719.390	0.0165031
719.468	0.0164420
719.546	0.0164309
719.624	0.0164036
719.703	0.0164000
719.781	0.0164723
719.859	0.0163390
719.937	0.0164562
720.015	0.0163546
720.093	0.0164891
720.171	0.0164677
720.249	0.0162731
720.328	0.0163952
720.406	0.0163385
720.484	0.0163939
720.562	0.0164787
720.640	0.0163389
720.718	0.0163671
720.796	0.0162428
720.874	0.0162056
720.953	0.0164276
721.031	0.0164114
721.109	0.0164545
721.187	0.0164046
721.265	0.0163483
721.343	0.0163905
721.421	0.0162695
721.499	0.0163432
721.578	0.0162403
721.656	0.0164999
721.734	0.0164658
721.812	0.0164483
721.890	0.0163588
721.968	0.0165096
722.046	0.0165498
722.124	0.0163929
722.203	0.0165833
722.281	0.0165690
722.359	0.0165019
722.437	0.0164819
722.515	0.0164552
722.593	0.0165233
722.671	0.0164280
722.749	0.0165002
722.828	0.0164489
722.906	0.0163921
722.984	0.0163703
723.062	0.0163014
723.140	0.0163755
723.218	0.0165053
723.296	0.0163709
723.374	0.0163137
723.453	0.0164429
723.531	0.0163190
723.609	0.0165038
723.687	0.0162621
723.765	0.0163194
723.843	0.0164288
723.921	0.0164136
723.999	0.0163600
724.078	0.0163200
724.156	0.0164484
724.234	0.0164998
724.312	0.0164936
724.390	0.0164857
724.468	0.0164075
724.546	0.0163820
724.624	0.0165108
724.703	0.0164935
724.781	0.0165070
724.859	0.0163599
724.937	0.0163589
725.015	0.0162859
725.093	0.0164499
725.171	0.0164936
725.249	0.0163320
725.328	0.0162981
725.406	0.0163895
725.484	0.0164748
725.562	0.0164701
725.640	0.0165487
725.718	0.0163383
725.796	0.0164070
725.874	0.0165839
725.953	0.0163013
726.031	0.0164584
726.109	0.0164708
726.187	0.0164046
726.265	0.0164132
726.343	0.0163435
726.421	0.0165079
726.499	0.0163641
726.578	0.0164594
726.656	0.0164217
726.734	0.0163533
726.812	0.0163563
726.890	0.0162906
726.968	0.0163139
727.046	0.0162784
727.124	0.0163038
727.203	0.0163871
727.281	0.0163873
727.359	0.0163728
727.437	0.0164532
727.515	0.0163673
727.593	0.0165490
727.671	0.0165223
727.749	0.0164188
727.828	0.0163658
727.906	0.0164841
727.984	0.0164994
728.062	0.0163845
728.140	0.0164954
728.218	0.0164491
728.296	0.0163484
728.374	0.0164465
728.453	0.0165401
728.531	0.0165108
728.609	0.0163614
728.687	0.0163028
728.765	0.0162956
728.843	0.0164082
728.921	0.0164529
728.999	0.0163979
729.078	0.0164327
729.156	0.0165088
729.234	0.0165317
729.312	0.0164384
729.390	0.0165916
729.468	0.0165003
729.546	0.0164511
729.624	0.0166039
729.703	0.0163987
729.781	0.0165245
729.859	0.0165466
729.937	0.0167542
730.015	0.0165556
730.093	0.0165065
730.171	0.0165385
730.249	0.0165062
730.328	0.0164558
730.406	0.0164933
730.484	0.0164616
730.562	0.0165430
730.640	0.0165536
730.718	0.0164556
730.796	0.0164712
730.874	0.0166023
730.953	0.0164093
731.031	0.0164806
731.109	0.0165281
731.187	0.0164814
731.265	0.0163705
731.343	0.0166475
731.421	0.0165049
731.499	0.0164397
731.578	0.0164390
731.656	0.0164373
731.734	0.0164741
731.812	0.0164357
731.890	0.0165030
731.968	0.0164453
732.046	0.0164989
732.124	0.0164629
732.203	0.0164610
732.281	0.0164959
732.359	0.0165143
732.437	0.0165405
732.515	0.0164921
732.593	0.0164882
732.671	0.0165608
732.749	0.0166354
732.828	0.0164365
732.906	0.0164806
732.984	0.0164397
733.062	0.0165358
733.140	0.0165565
733.218	0.0163795
733.296	0.0164603
733.374	0.0163814
733.453	0.0164512
733.531	0.0165572
733.609	0.0165269
733.687	0.0163893
733.765	0.0164536
733.843	0.0163859
733.921	0.0164400
733.999	0.0164644
734.078	0.0164491
734.156	0.0165053
734.234	0.0164224
734.312	0.0164916
734.390	0.0164256
734.468	0.0163960
734.546	0.0165283
734.624	0.0166244
734.703	0.0164742
734.781	0.0163684
734.859	0.0163300
734.937	0.0165028
735.015	0.0165893
735.093	0.0163239
735.171	0.0166084
735.249	0.0165282
735.328	0.0163766
735.406	0.0164472
735.484	0.0164327
735.562	0.0164976
735.640	0.0166306
735.718	0.0165131
735.796	0.0164409
735.874	0.0165706
735.953	0.0164737
736.031	0.0164600
736.109	0.0163730
736.187	0.0165273
736.265	0.0165112
736.343	0.0163657
736.421	0.0164646
736.499	0.0164811
736.578	0.0163670
736.656	0.0165553
736.734	0.0164154
736.812	0.0164242
736.890	0.0164005
736.968	0.0164139
737.046	0.0165569
737.124	0.0164117
737.203	0.0165160
737.281	0.0163475
737.359	0.0164627
737.437	0.0164886
737.515	0.0164214
737.593	0.0163255
737.671	0.0165051
737.749	0.0165215
737.828	0.0164146
737.906	0.0163879
737.984	0.0163409
738.062	0.0164262
738.140	0.0163487
738.218	0.0163467
738.296	0.0165850
738.374	0.0164385
738.453	0.0164214
738.531	0.0163725
738.609	0.0164989
738.687	0.0165440
738.765	0.0163979
738.843	0.0165171
738.921	0.0164382
738.999	0.0163746
739.078	0.0164015
739.156	0.0164969
739.234	0.0164903
739.312	0.0163990
739.390	0.0164858
739.468	0.0164709
739.546	0.0164135
739.624	0.0164818
739.703	0.0163482
739.781	0.0164520
739.859	0.0165057
739.937	0.0163932
740.015	0.0163761
740.093	0.0164603
740.171	0.0164426
740.249	0.0164210
740.328	0.0164292
740.406	0.0164366
740.484	0.0164268
740.562	0.0163898
740.640	0.0164343
740.718	0.0163703
740.796	0.0163744
740.874	0.0164668
740.953	0.0163535
741.031	0.0163128
741.109	0.0164414
741.187	0.0162991
741.265	0.0163657
741.343	0.0163276
741.421	0.0162302
741.499	0.0164518
741.578	0.0163697
741.656	0.0163542
741.734	0.0164164
741.812	0.0164487
741.890	0.0165182
741.968	0.0164486
742.046	0.0163692
742.124	0.0164919
742.203	0.0164247
742.281	0.0164589
742.359	0.0164518
742.437	0.0163564
742.515	0.0164764
742.593	0.0164672
742.671	0.0163802
742.749	0.0163684
742.828	0.0164273
742.906	0.0165028
742.984	0.0165095
743.062	0.0164363
743.140	0.0163202
743.218	0.0163873
743.296	0.0164465
743.374	0.0162872
743.453	0.0162661
743.531	0.0165167
743.609	0.0164809
743.687	0.0163222
743.765	0.0164226
743.843	0.0164516
743.921	0.0162982
743.999	0.0164129
744.078	0.0164766
744.156	0.0165691
744.234	0.0163630
744.312	0.0162889
744.390	0.0162627
744.468	0.0163667
744.546	0.0163737
744.624	0.0164745
744.703	0.0164122
744.781	0.0163639
744.859	0.0165604
744.937	0.0164294
745.015	0.0163815
745.093	0.0164803
745.171	0.0163226
745.249	0.0164448
745.328	0.0165693
745.406	0.0164637
745.484	0.0164196
745.562	0.0164068
745.640	0.0163594
745.718	0.0164503
745.796	0.0164879
745.874	0.0163528
745.953	0.0164088
746.031	0.0164311
746.109	0.0165711
746.187	0.0163921
746.265	0.0163406
746.343	0.0163398
746.421	0.0163664
746.499	0.0164247
746.578	0.0164466
746.656	0.0163506
746.734	0.0163340
746.812	0.0165001
746.890	0.0163882
746.968	0.0164216
747.046	0.0166063
747.124	0.0163768
747.203	0.0164851
747.281	0.0163946
747.359	0.0163869
747.437	0.0163615
747.515	0.0163049
747.593	0.0163531
747.671	0.0164638
747.749	0.0163812
747.828	0.0163445
747.906	0.0164393
747.984	0.0163292
748.062	0.0164078
748.140	0.0164664
748.218	0.0164055
748.296	0.0164843
748.374	0.0165155
748.453	0.0165142
748.531	0.0165720
748.609	0.0166173
748.687	0.0165067
748.765	0.0166024
748.843	0.0164833
748.921	0.0164507
748.999	0.0164098
749.078	0.0164761
749.156	0.0166412
749.234	0.0165399
749.312	0.0164909
749.390	0.0165781
749.468	0.0164223
749.546	0.0165777
749.624	0.0165303
749.703	0.0164223
749.781	0.0164466
749.859	0.0164491
749.937	0.0164126
750.015	0.0165036
750.093	0.0164606
750.171	0.0164585
750.249	0.0163994
750.328	0.0164612
750.406	0.0165189
750.484	0.0165003
750.562	0.0165067
750.640	0.0165598
750.718	0.0165119
750.796	0.0164850
750.874	0.0163872
750.953	0.0164881
751.031	0.0164758
751.109	0.0164210
751.187	0.0163234
751.265	0.0164423
751.343	0.0167379
751.421	0.0165253
751.499	0.0163528
751.578	0.0165160
751.656	0.0165205
751.734	0.0164011
751.812	0.0164772
751.890	0.0164375
751.968	0.0164412
752.046	0.0165333
752.124	0.0163518
752.203	0.0166161
752.281	0.0164162
752.359	0.0163946
752.437	0.0164978
752.515	0.0164479
752.593	0.0165749
752.671	0.0164751
752.749	0.0163760
752.828	0.0163610
752.906	0.0164100
752.984	0.0165578
753.062	0.0163644
753.140	0.0162675
753.218	0.0163113
753.296	0.0163843
753.374	0.0164558
753.453	0.0164434
753.531	0.0165287
753.609	0.0165253
753.687	0.0164742
753.765	0.0164997
753.843	0.0162845
753.921	0.0164201
753.999	0.0164178
754.078	0.0164133
754.156	0.0164457
754.234	0.0165168
754.312	0.0165138
754.390	0.0164034
754.468	0.0163225
754.546	0.0163663
754.624	0.0164123
754.703	0.0165281
754.781	0.0164272
754.859	0.0163576
754.937	0.0165882
755.015	0.0165086
755.093	0.0164119
755.171	0.0164647
755.249	0.0164393
755.328	0.0165058
755.406	0.0164581
755.484	0.0164265
755.562	0.0163728
755.640	0.0164783
755.718	0.0165085
755.796	0.0165010
755.874	0.0165350
755.953	0.0166276
756.031	0.0165972
756.109	0.0166444
756.187	0.0163819
756.265	0.0164049
756.343	0.0166198
756.421	0.0164513
756.499	0.0164886
756.578	0.0165017
756.656	0.0164484
756.734	0.0165058
756.812	0.0164793
756.890	0.0167025
756.968	0.0165835
757.046	0.0163811
757.124	0.0164297
757.203	0.0165475
757.281	0.0165351
757.359	0.0165427
757.437	0.0166338
757.515	0.0165668
757.593	0.0164224
757.671	0.0166200
757.749	0.0165907
757.828	0.0166354
757.906	0.0165098
757.984	0.0166024
758.062	0.0166036
758.140	0.0166371
758.218	0.0166908
758.296	0.0166281
758.374	0.0166530
758.453	0.0167155
758.531	0.0166199
758.609	0.0166883
758.687	0.0166036
758.765	0.0165582
758.843	0.0166579
758.921	0.0166486
758.999	0.0165517
759.078	0.0165791
759.156	0.0166106
759.234	0.0165307
759.312	0.0164359
759.390	0.0165574
759.468	0.0164565
759.546	0.0164443
759.624	0.0164597
759.703	0.0165930
759.781	0.0165204
759.859	0.0164663
759.937	0.0164410
760.015	0.0165273
760.093	0.0166261
760.171	0.0166022
760.249	0.0166847
760.328	0.0164832
760.406	0.0166875
760.484	0.0166177
760.562	0.0165686
760.640	0.0166681
760.718	0.0165502
760.796	0.0166098
760.874	0.0166525
760.953	0.0166631
761.031	0.0166178
761.109	0.0166146
761.187	0.0166766
761.265	0.0166740
761.343	0.0167265
761.421	0.0166955
761.499	0.0166312
761.578	0.0166580
761.656	0.0166783
761.734	0.0166636
761.812	0.0164951
761.890	0.0165246
761.968	0.0167672
762.046	0.0165495
762.124	0.0164659
762.203	0.0165376
762.281	0.0165317
762.359	0.0165741
762.437	0.0164513
762.515	0.0164551
762.593	0.0164970
762.671	0.0164378
762.749	0.0164265
762.828	0.0164315
762.906	0.0164313
762.984	0.0163923
763.062	0.0164635
763.140	0.0164719
763.218	0.0164859
763.296	0.0165026
763.374	0.0164768
763.453	0.0164379
763.531	0.0165057
763.609	0.0164880
763.687	0.0163432
763.765	0.0164359
763.843	0.0164764
763.921	0.0164671
763.999	0.0165863
764.078	0.0165882
764.156	0.0166018
764.234	0.0165970
764.312	0.0165547
764.390	0.0166823
764.468	0.0166685
764.546	0.0165395
764.624	0.0166354
764.703	0.0166467
764.781	0.0166811
764.859	0.0165385
764.937	0.0165304
765.015	0.0166158
765.093	0.0164762
765.171	0.0165855
765.249	0.0166720
765.328	0.0165336
765.406	0.0165357
765.484	0.0166624
765.562	0.0166407
765.640	0.0165382
765.718	0.0165532
765.796	0.0165929
765.874	0.0164901
765.953	0.0166750
766.031	0.0165511
766.109	0.0165511
766.187	0.0165247
766.265	0.0166245
766.343	0.0164919
766.421	0.0165936
766.499	0.0166310
766.578	0.0165147
766.656	0.0164713
766.734	0.0163670
766.812	0.0164561
766.890	0.0165511
766.968	0.0165011
767.046	0.0165694
767.124	0.0164853
767.203	0.0163259
767.281	0.0164375
767.359	0.0165207
767.437	0.0164937
767.515	0.0165145
767.593	0.0164471
767.671	0.0164809
767.749	0.0164090
767.828	0.0163684
767.906	0.0164611
767.984	0.0165529
768.062	0.0165170
768.140	0.0165446
768.218	0.0167229
768.296	0.0166235
768.374	0.0166459
768.453	0.0167203
768.531	0.0168391
768.609	0.0168475
768.687	0.0167933
768.765	0.0168782
768.843	0.0168259
768.921	0.0167109
768.999	0.0166940
769.078	0.0167463
769.156	0.0167167
769.234	0.0166859
769.312	0.0165912
769.390	0.0164369
769.468	0.0165651
769.546	0.0164688
769.624	0.0165028
769.703	0.0165291
769.781	0.0164639
769.859	0.0164539
769.937	0.0165452
770.015	0.0164462
770.093	0.0164746
770.171	0.0164760
770.249	0.0165033
770.328	0.0163761
770.406	0.0163644
770.484	0.0166056
770.562	0.0165347
770.640	0.0164338
770.718	0.0162841
770.796	0.0164249
770.874	0.0164497
770.953	0.0165228
771.031	0.0165141
771.109	0.0165395
771.187	0.0164561
771.265	0.0165247
771.343	0.0165987
771.421	0.0164266
771.499	0.0165452
771.578	0.0166637
771.656	0.0166120
771.734	0.0166012
771.812	0.0165420
771.890	0.0165675
771.968	0.0166918
772.046	0.0165849
772.124	0.0164566
772.203	0.0164890
772.281	0.0165185
772.359	0.0163971
772.437	0.0164422
772.515	0.0165256
772.593	0.0164804
772.671	0.0164858
772.749	0.0165685
772.828	0.0166222
772.906	0.0165126
772.984	0.0167392
773.062	0.0165988
773.140	0.0167382
773.218	0.0166482
773.296	0.0165879
773.374	0.0167632
773.453	0.0165145
773.531	0.0165943
773.609	0.0167152
773.687	0.0167159
773.765	0.0165922
773.843	0.0165204
773.921	0.0165608
773.999	0.0164803
774.078	0.0165201
774.156	0.0164668
774.234	0.0162990
774.312	0.0164359
774.390	0.0163840
774.468	0.0164209
774.546	0.0163490
774.624	0.0165004
774.703	0.0165005
774.781	0.0164868
774.859	0.0163809
774.937	0.0164341
775.015	0.0162186
775.093	0.0164017
775.171	0.0164462
775.249	0.0164427
775.328	0.0164667
775.406	0.0164858
775.484	0.0165252
775.562	0.0164655
775.640	0.0163634
775.718	0.0163852
775.796	0.0164510
775.874	0.0163774
775.953	0.0163766
776.031	0.0164384
776.109	0.0164600
776.187	0.0165566
776.265	0.0164595
776.343	0.0164051
776.421	0.0163068
776.499	0.0165736
776.578	0.0165502
776.656	0.0165338
776.734	0.0164137
776.812	0.0166131
776.890	0.0166673
776.968	0.0166312
777.046	0.0165619
777.124	0.0166560
777.203	0.0166573
777.281	0.0165569
777.359	0.0165400
777.437	0.0166496
777.515	0.0165379
777.593	0.0166045
777.671	0.0166416
777.749	0.0166821
777.828	0.0166290
777.906	0.0166537
777.984	0.0168101
778.062	0.0166431
778.140	0.0166170
778.218	0.0166021
778.296	0.0166773
778.374	0.0166706
778.453	0.0166499
778.531	0.0165180
778.609	0.0164119
778.687	0.0166796
778.765	0.0164774
778.843	0.0165303
778.921	0.0165227
778.999	0.0164983
779.078	0.0163907
779.156	0.0163728
779.234	0.0165469
779.312	0.0164999
779.390	0.0166336
779.468	0.0165848
779.546	0.0165965
779.624	0.0166841
779.703	0.0165240
779.781	0.0166296
779.859	0.0167306
779.937	0.0166456
780.015	0.0166325
780.093	0.0166720
780.171	0.0166226
780.249	0.0165767
780.328	0.0165833
780.406	0.0166126
780.484	0.0166424
780.562	0.0166209
780.640	0.0166292
780.718	0.0165306
780.796	0.0167013
780.874	0.0167122
780.953	0.0166586
781.031	0.0167416
781.109	0.0165458
781.187	0.0163674
781.265	0.0162959
781.343	0.0163145
781.421	0.0163401
781.499	0.0161935
781.578	0.0160479
781.656	0.0160831
781.734	0.0161596
781.812	0.0162606
781.890	0.0161707
781.968	0.0160176
782.046	0.0161346
782.124	0.0162626
782.203	0.0163207
782.281	0.0164786
782.359	0.0163589
782.437	0.0164509
782.515	0.0163920
782.593	0.0166608
782.671	0.0166331
782.749	0.0166324
782.828	0.0166177
782.906	0.0167670
782.984	0.0167606
783.062	0.0167196
783.140	0.0167972
783.218	0.0169250
783.296	0.0169970
783.374	0.0170412
783.453	0.0170950
783.531	0.0169897
783.609	0.0171828
783.687	0.0171637
783.765	0.0169141
783.843	0.0168691
783.921	0.0168967
783.999	0.0167965
784.078	0.0166332
784.156	0.0167316
784.234	0.0165263
784.312	0.0165147
784.390	0.0163000
784.468	0.0162091
784.546	0.0164906
784.624	0.0162639
784.703	0.0162450
784.781	0.0160950
784.859	0.0160817
784.937	0.0162079
785.015	0.0161383
785.093	0.0160758
785.171	0.0160165
785.249	0.0161988
785.328	0.0162241
785.406	0.0162396
785.484	0.0163352
785.562	0.0161778
785.640	0.0163064
785.718	0.0164459
785.796	0.0164379
785.874	0.0164034
785.953	0.0164996
786.031	0.0164023
786.109	0.0164745
786.187	0.0164204
786.265	0.0163872
786.343	0.0164403
786.421	0.0165323
786.499	0.0166629
786.578	0.0166561
786.656	0.0165525
786.734	0.0166030
786.812	0.0167059
786.890	0.0165916
786.968	0.0165025
787.046	0.0164753
787.124	0.0165242
787.203	0.0165257
787.281	0.0165186
787.359	0.0164880
787.437	0.0164655
787.515	0.0164876
787.593	0.0166903
787.671	0.0166322
787.749	0.0166296
787.828	0.0166342
787.906	0.0166539
787.984	0.0166382
788.062	0.0165195
788.140	0.0167391
788.218	0.0166411
788.296	0.0167199
788.374	0.0166493
788.453	0.0166661
788.531	0.0168407
788.609	0.0166906
788.687	0.0167622
788.765	0.0167839
788.843	0.0167264
788.921	0.0167110
788.999	0.0166049
789.078	0.0168069
789.156	0.0166466
789.234	0.0165451
789.312	0.0163531
789.390	0.0164310
789.468	0.0165357
789.546	0.0164426
789.624	0.0163439
789.703	0.0162225
789.781	0.0164508
789.859	0.0163746
789.937	0.0163707
790.015	0.0162447
790.093	0.0164593
790.171	0.0164329
790.249	0.0163159
790.328	0.0164606
790.406	0.0163524
790.484	0.0163848
790.562	0.0164108
790.640	0.0165733
790.718	0.0164836
790.796	0.0164886
790.874	0.0165015
790.953	0.0164324
791.031	0.0163376
791.109	0.0165275
791.187	0.0165195
791.265	0.0163290
791.343	0.0164293
791.421	0.0164163
791.499	0.0164632
791.578	0.0163007
791.656	0.0162250
791.734	0.0162030
791.812	0.0162269
791.890	0.0162978
791.968	0.0161687
792.046	0.0162644
792.124	0.0163406
792.203	0.0161453
792.281	0.0163817
792.359	0.0164394
792.437	0.0163583
792.515	0.0165833
792.593	0.0165331
792.671	0.0165067
792.749	0.0165592
792.828	0.0166434
792.906	0.0165575
792.984	0.0164976
793.062	0.0167654
793.140	0.0169159
793.218	0.0168169
793.296	0.0168552
793.374	0.0167986
793.453	0.0169533
793.531	0.0169189
793.609	0.0170398
793.687	0.0169637
793.765	0.0169570
793.843	0.0170780
793.921	0.0168809
793.999	0.0168115
794.078	0.0170595
794.156	0.0169992
794.234	0.0168147
794.312	0.0168372
794.390	0.0167113
794.468	0.0166129
794.546	0.0166154
794.624	0.0166444
794.703	0.0164983
794.781	0.0163704
794.859	0.0164079
794.937	0.0163388
795.015	0.0162688
795.093	0.0161852
795.171	0.0160623
795.249	0.0161404
795.328	0.0160191
795.406	0.0159855
795.484	0.0158850
795.562	0.0157396
795.640	0.0158009
795.718	0.0159074
795.796	0.0158607
795.874	0.0158739
795.953	0.0159911
796.031	0.0159900
796.109	0.0159686
796.187	0.0160347
796.265	0.0161899
796.343	0.0162914
796.421	0.0164106
796.499	0.0162933
796.578	0.0164824
796.656	0.0165113
796.734	0.0165720
796.812	0.0166966
796.890	0.0166282
796.968	0.0166215
797.046	0.0166616
797.124	0.0166171
797.203	0.0166463
797.281	0.0166193
797.359	0.0165541
797.437	0.0165121
797.515	0.0164263
797.593	0.0164582
797.671	0.0163768
797.749	0.0164096
797.828	0.0164387
797.906	0.0163742
797.984	0.0163808
798.062	0.0164037
798.140	0.0164262
798.218	0.0162911
798.296	0.0162862
798.374	0.0162898
798.453	0.0164440
798.531	0.0162373
798.609	0.0164329
798.687	0.0165273
798.765	0.0165590
798.843	0.0165925
798.921	0.0167423
798.999	0.0168880
799.078	0.0168758
799.156	0.0166769
799.234	0.0168560
799.312	0.0170001
799.390	0.0170901
799.468	0.0171168
799.546	0.0170452
799.624	0.0169745
799.703	0.0171582
799.781	0.0169711
799.859	0.0170005
799.937	0.0170046
800.015	0.0169734
800.093	0.0168769
800.171	0.0167780
800.249	0.0167033
800.328	0.0166029
800.406	0.0165388
800.484	0.0164098
800.562	0.0161913
800.640	0.0160728
800.718	0.0160493
800.796	0.0158234
800.874	0.0156435
800.953	0.0156491
801.031	0.0154613
801.109	0.0154742
801.187	0.0153603
801.265	0.0154964
801.343	0.0154294
801.421	0.0154562
801.499	0.0154574
801.578	0.0155944
801.656	0.0156698
801.734	0.0156551
801.812	0.0156616
801.890	0.0158241
801.968	0.0159606
802.046	0.0159943
802.124	0.0160693
802.203	0.0161820
802.281	0.0165269
802.359	0.0166224
802.437	0.0166058
802.515	0.0166991
802.593	0.0168592
802.671	0.0168406
802.749	0.0169518
802.828	0.0170391
802.906	0.0170872
802.984	0.0170412
803.062	0.0171356
803.140	0.0171600
803.218	0.0171026
803.296	0.0173814
803.374	0.0172099
803.453	0.0170506
803.531	0.0171732
803.609	0.0172586
803.687	0.0171982
803.765	0.0171980
803.843	0.0170994
803.921	0.0171637
803.999	0.0171549
804.078	0.0170782
804.156	0.0169122
804.234	0.0169243
804.312	0.0168481
804.390	0.0167546
804.468	0.0166390
804.546	0.0166433
804.624	0.0166941
804.703	0.0164173
804.781	0.0164704
804.859	0.0163518
804.937	0.0163250
805.015	0.0162116
805.093	0.0161826
805.171	0.0161379
805.249	0.0160463
805.328	0.0159407
805.406	0.0161107
805.484	0.0159401
805.562	0.0159436
805.640	0.0157995
805.718	0.0158503
805.796	0.0158758
805.874	0.0159819
805.953	0.0160685
806.031	0.0160094
806.109	0.0160654
806.187	0.0161091
806.265	0.0162838
806.343	0.0164263
806.421	0.0162806
806.499	0.0164336
806.578	0.0163688
806.656	0.0164236
806.734	0.0164632
806.812	0.0164032
806.890	0.0165417
806.968	0.0163798
807.046	0.0164033
807.124	0.0163485
807.203	0.0164771
807.281	0.0163222
807.359	0.0162604
807.437	0.0162621
807.515	0.0162019
807.593	0.0163355
807.671	0.0161133
807.749	0.0161391
807.828	0.0162366
807.906	0.0161787
807.984	0.0161003
808.062	0.0163058
808.140	0.0162103
808.218	0.0162314
808.296	0.0163580
808.374	0.0164384
808.453	0.0164684
808.531	0.0165321
808.609	0.0164265
808.687	0.0164211
808.765	0.0164232
808.843	0.0166611
808.921	0.0168050
808.999	0.0168189
809.078	0.0168400
809.156	0.0170298
809.234	0.0170565
809.312	0.0170594
809.390	0.0169779
809.468	0.0170802
809.546	0.0171207
809.624	0.0170519
809.703	0.0170997
809.781	0.0170695
809.859	0.0169820
809.937	0.0170304
810.015	0.0168362
810.093	0.0168507
810.171	0.0166012
810.249	0.0167374
810.328	0.0166640
810.406	0.0166090
810.484	0.0163158
810.562	0.0160863
810.640	0.0161034
810.718	0.0161126
810.796	0.0160107
810.874	0.0158218
810.953	0.0157875
811.031	0.0158443
811.109	0.0156627
811.187	0.0156351
811.265	0.0156364
811.343	0.0157052
811.421	0.0154575
811.499	0.0154278
811.578	0.0155697
811.656	0.0155856
811.734	0.0157224
811.812	0.0157501
811.890	0.0158336
811.968	0.0158231
812.046	0.0159662
812.124	0.0160342
812.203	0.0160961
812.281	0.0162646
812.359	0.0162584
812.437	0.0165615
812.515	0.0165373
812.593	0.0166777
812.671	0.0167166
812.749	0.0167719
812.828	0.0167834
812.906	0.0169241
812.984	0.0168924
813.062	0.0169730
813.140	0.0168843
813.218	0.0169521
813.296	0.0171014
813.374	0.0170004
813.453	0.0168404
813.531	0.0168365
813.609	0.0167921
813.687	0.0168551
813.765	0.0167358
813.843	0.0166213
813.921	0.0165510
813.999	0.0166728
814.078	0.0165501
814.156	0.0164973
814.234	0.0164241
814.312	0.0164809
814.390	0.0164504
814.468	0.0165015
814.546	0.0165436
814.624	0.0164243
814.703	0.0164868
814.781	0.0166644
814.859	0.0167748
814.937	0.0167742
815.015	0.0167307
815.093	0.0168446
815.171	0.0167273
815.249	0.0168676
815.328	0.0167598
815.406	0.0166508
815.484	0.0167861
815.562	0.0166636
815.640	0.0165725
815.718	0.0164433
815.796	0.0163351
815.874	0.0164761
815.953	0.0164359
816.031	0.0164374
816.109	0.0164352
816.187	0.0163760
816.265	0.0164126
816.343	0.0163921
816.421	0.0162402
816.499	0.0163386
816.578	0.0164366
816.656	0.0164688
816.734	0.0162431
816.812	0.0161485
816.890	0.0162769
816.968	0.0163885
817.046	0.0162122
817.124	0.0162360
817.203	0.0163789
817.281	0.0161694
817.359	0.0161678
817.437	0.0163310
817.515	0.0161118
817.593	0.0162480
817.671	0.0163069
817.749	0.0162473
817.828	0.0162228
817.906	0.0163972
817.984	0.0164185
818.062	0.0163484
818.140	0.0162495
818.218	0.0165620
818.296	0.0165245
818.374	0.0165281
818.453	0.0165160
818.531	0.0166426
818.609	0.0165999
818.687	0.0166595
818.765	0.0164931
818.843	0.0164456
818.921	0.0167226
818.999	0.0164422
819.078	0.0164627
819.156	0.0164384
819.234	0.0164400
819.312	0.0162860
819.390	0.0162864
819.468	0.0163944
819.546	0.0163194
819.624	0.0163287
819.703	0.0163010
819.781	0.0165205
819.859	0.0166211
819.937	0.0163448
820.015	0.0164272
820.093	0.0167350
820.171	0.0168420
820.249	0.0168847
820.328	0.0167787
820.406	0.0167904
820.484	0.0169937
820.562	0.0170007
820.640	0.0169950
820.718	0.0168222
820.796	0.0168270
820.874	0.0167907
820.953	0.0169128
821.031	0.0169256
821.109	0.0167397
821.187	0.0165948
821.265	0.0165199
821.343	0.0165490
821.421	0.0164465
821.499	0.0162099
821.578	0.0162119
821.656	0.0162029
821.734	0.0161260
821.812	0.0160677
821.890	0.0159088
821.968	0.0158228
822.046	0.0157491
822.124	0.0157416
822.203	0.0155494
822.281	0.0155846
822.359	0.0155985
822.437	0.0156322
822.515	0.0156223
822.593	0.0154570
822.671	0.0156913
822.749	0.0158334
822.828	0.0158284
822.906	0.0157342
822.984	0.0160371
823.062	0.0161452
823.140	0.0161835
823.218	0.0162720
823.296	0.0163059
823.374	0.0166373
823.453	0.0166788
823.531	0.0166343
823.609	0.0168070
823.687	0.0167621
823.765	0.0169707
823.843	0.0169676
823.921	0.0171170
823.999	0.0170345
824.078	0.0169293
824.156	0.0170523
824.234	0.0171135
824.312	0.0171988
824.390	0.0170451
824.468	0.0170139
824.546	0.0170288
824.624	0.0168129
824.703	0.0168736
824.781	0.0167910
824.859	0.0166960
824.937	0.0165694
825.015	0.0165187
825.093	0.0166476
825.171	0.0163737
825.249	0.0163252
825.328	0.0161127
825.406	0.0160868
825.484	0.0161301
825.562	0.0161295
825.640	0.0159937
825.718	0.0160697
825.796	0.0160026
825.874	0.0161172
825.953	0.0162934
826.031	0.0161745
826.109	0.0162891
826.187	0.0164026
826.265	0.0163821
826.343	0.0163860
826.421	0.0165234
826.499	0.0165460
826.578	0.0166405
826.656	0.0166046
826.734	0.0166522
826.812	0.0166789
826.890	0.0166370
826.968	0.0165937
827.046	0.0166012
827.124	0.0165395
827.203	0.0165701
827.281	0.0163573
827.359	0.0162447
827.437	0.0163142
827.515	0.0161718
827.593	0.0160788
827.671	0.0159703
827.749	0.0158823
827.828	0.0158656
827.906	0.0158356
827.984	0.0157697
828.062	0.0157465
828.140	0.0157791
828.218	0.0158305
828.296	0.0160140
828.374	0.0158990
828.453	0.0159710
828.531	0.0160722
828.609	0.0161633
828.687	0.0161681
828.765	0.0164967
828.843	0.0164856
828.921	0.0164921
828.999	0.0164704
829.078	0.0167562
829.156	0.0168829
829.234	0.0169438
829.312	0.0168104
829.390	0.0168156
829.468	0.0170990
829.546	0.0169637
829.624	0.0168346
829.703	0.0169192
829.781	0.0168108
829.859	0.0168900
829.937	0.0168484
830.015	0.0166805
830.093	0.0167612
830.171	0.0166423
830.249	0.0166299
830.328	0.0164247
830.406	0.0166026
830.484	0.0167078
830.562	0.0164690
830.640	0.0162952
830.718	0.0162673
830.796	0.0162926
830.874	0.0163398
830.953	0.0162427
831.031	0.0161270
831.109	0.0160303
831.187	0.0161888
831.265	0.0161861
831.343	0.0160983
831.421	0.0160934
831.499	0.0161446
831.578	0.0160835
831.656	0.0162272
831.734	0.0162507
831.812	0.0161703
831.890	0.0163235
831.968	0.0162415
832.046	0.0163251
832.124	0.0163436
832.203	0.0163174
832.281	0.0162543
832.359	0.0164016
832.437	0.0165269
832.515	0.0163808
832.593	0.0166096
832.671	0.0164124
832.749	0.0162581
832.828	0.0162762
832.906	0.0163062
832.984	0.0164310
833.062	0.0164013
833.140	0.0162869
833.218	0.0164445
833.296	0.0164914
833.374	0.0164140
833.453	0.0163939
833.531	0.0164991
833.609	0.0165401
833.687	0.0164424
833.765	0.0167219
833.843	0.0166493
833.921	0.0167612
833.999	0.0167620
834.078	0.0168002
834.156	0.0166979
834.234	0.0168382
834.312	0.0166550
834.390	0.0168151
834.468	0.0167884
834.546	0.0169889
834.624	0.0168867
834.703	0.0167845
834.781	0.0168005
834.859	0.0166368
834.937	0.0165385
835.015	0.0165228
835.093	0.0164232
835.171	0.0164747
835.249	0.0165513
835.328	0.0164925
835.406	0.0163242
835.484	0.0164465
835.562	0.0164088
835.640	0.0164262
835.718	0.0162924
835.796	0.0164385
835.874	0.0164812
835.953	0.0162702
836.031	0.0163245
836.109	0.0161990
836.187	0.0162582
836.265	0.0162897
836.343	0.0163729
836.421	0.0161114
836.499	0.0162288
836.578	0.0163341
836.656	0.0163029
836.734	0.0162856
836.812	0.0163748
836.890	0.0162719
836.968	0.0163982
837.046	0.0165072
837.124	0.0164816
837.203	0.0165741
837.281	0.0165462
837.359	0.0166781
837.437	0.0166635
837.515	0.0167891
837.593	0.0169173
837.671	0.0168835
837.749	0.0169451
837.828	0.0168263
837.906	0.0167156
837.984	0.0167889
838.062	0.0167039
838.140	0.0166599
838.218	0.0166301
838.296	0.0165446
838.374	0.0164047
838.453	0.0164121
838.531	0.0164071
838.609	0.0162417
838.687	0.0163183
838.765	0.0162910
838.843	0.0161604
838.921	0.0161783
838.999	0.0162737
839.078	0.0162421
839.156	0.0162312
839.234	0.0162442
839.312	0.0162997
839.390	0.0162759
839.468	0.0163591
839.546	0.0164359
839.624	0.0163795
839.703	0.0164863
839.781	0.0166267
839.859	0.0167098
839.937	0.0167567
840.015	0.0166462
840.093	0.0166983
840.171	0.0167927
840.249	0.0170056
840.328	0.0168441
840.406	0.0168211
840.484	0.0167091
840.562	0.0167741
840.640	0.0167024
840.718	0.0167520
840.796	0.0166666
840.874	0.0167073
840.953	0.0165791
841.031	0.0164621
841.109	0.0165969
841.187	0.0165115
841.265	0.0164258
841.343	0.0163754
841.421	0.0164379
841.499	0.0164117
841.578	0.0165151
841.656	0.0164405
841.734	0.0164162
841.812	0.0164323
841.890	0.0163649
841.968	0.0163868
842.046	0.0165312
842.124	0.0164760
842.203	0.0164632
842.281	0.0166223
842.359	0.0166546
842.437	0.0164845
842.515	0.0164870
842.593	0.0166087
842.671	0.0163956
842.749	0.0165313
842.828	0.0164330
842.906	0.0165587
842.984	0.0164939
843.062	0.0165254
843.140	0.0164481
843.218	0.0165057
843.296	0.0165284
843.374	0.0164809
843.453	0.0165838
843.531	0.0166264
843.609	0.0165168
843.687	0.0165149
843.765	0.0167233
843.843	0.0166740
843.921	0.0166055
843.999	0.0167119
844.078	0.0166013
844.156	0.0166999
844.234	0.0167738
844.312	0.0165972
844.390	0.0166750
844.468	0.0165799
844.546	0.0165348
844.624	0.0165140
844.703	0.0165347
844.781	0.0164737
844.859	0.0164534
844.937	0.0164567
845.015	0.0164639
845.093	0.0162562
845.171	0.0162459
845.249	0.0163746
845.328	0.0163267
845.406	0.0163826
845.484	0.0162929
845.562	0.0161893
845.640	0.0163607
845.718	0.0163029
845.796	0.0163673
845.874	0.0164423
845.953	0.0165440
846.031	0.0166494
846.109	0.0165628
846.187	0.0166656
846.265	0.0165643
846.343	0.0165626
846.421	0.0166264
846.499	0.0167940
846.578	0.0167567
846.656	0.0167999
846.734	0.0166746
846.812	0.0167022
846.890	0.0166911
846.968	0.0167304
847.046	0.0166451
847.124	0.0165650
847.203	0.0165828
847.281	0.0165800
847.359	0.0165592
847.437	0.0164969
847.515	0.0165312
847.593	0.0163657
847.671	0.0165152
847.749	0.0164221
847.828	0.0164783
847.906	0.0165008
847.984	0.0163584
848.062	0.0164663
848.140	0.0163402
848.218	0.0163689
848.296	0.0164172
848.374	0.0162328
848.453	0.0163770
848.531	0.0163179
848.609	0.0162920
848.687	0.0163747
848.765	0.0165607
848.843	0.0163783
848.921	0.0164368
848.999	0.0163799
849.078	0.0164483
849.156	0.0162988
849.234	0.0164317
849.312	0.0164109
849.390	0.0162249
849.468	0.0164525
849.546	0.0166313
849.624	0.0166293
849.703	0.0164605
849.781	0.0165266
849.859	0.0165780
849.937	0.0166155
850.015	0.0167251
850.093	0.0167017
850.171	0.0167454
850.249	0.0166741
850.328	0.0167011
850.406	0.0165602
850.484	0.0164987
850.562	0.0164936
850.640	0.0165997
850.718	0.0165628
850.796	0.0164265
850.874	0.0164697
850.953	0.0163920
851.031	0.0163018
851.109	0.0162306
851.187	0.0163655
851.265	0.0163309
851.343	0.0163320
851.421	0.0163236
851.499	0.0163308
851.578	0.0164782
851.656	0.0162742
851.734	0.0163792
851.812	0.0165324
851.890	0.0164226
851.968	0.0163919
852.046	0.0165489
852.124	0.0163409
852.203	0.0164938
852.281	0.0165209
852.359	0.0166240
852.437	0.0164559
852.515	0.0164533
852.593	0.0165713
852.671	0.0166100
852.749	0.0164212
852.828	0.0164101
852.906	0.0163183
852.984	0.0164066
853.062	0.0165160
853.140	0.0164204
853.218	0.0165337
853.296	0.0164640
853.374	0.0165475
853.453	0.0165047
853.531	0.0166691
853.609	0.0165350
853.687	0.0166519
853.765	0.0166362
853.843	0.0166167
853.921	0.0167524
853.999	0.0166640
854.078	0.0167659
854.156	0.0168612
854.234	0.0167996
854.312	0.0169566
854.390	0.0169136
854.468	0.0169260
854.546	0.0167973
854.624	0.0169659
854.703	0.0168738
854.781	0.0169422
854.859	0.0168650
854.937	0.0167731
855.015	0.0166970
855.093	0.0166818
855.171	0.0165761
855.249	0.0163522
855.328	0.0165062
855.406	0.0163811
855.484	0.0163245
855.562	0.0162505
855.640	0.0162692
855.718	0.0161822
855.796	0.0161623
855.874	0.0161377
855.953	0.0162605
856.031	0.0160081
856.109	0.0161236
856.187	0.0162274
856.265	0.0162302
856.343	0.0160587
856.421	0.0162599
856.499	0.0163862
856.578	0.0164212
856.656	0.0164512
856.734	0.0164436
856.812	0.0166277
856.890	0.0165583
856.968	0.0166888
857.046	0.0165688
857.124	0.0165558
857.203	0.0166687
857.281	0.0165820
857.359	0.0168015
857.437	0.0166707
857.515	0.0168124
857.593	0.0167359
857.671	0.0166761
857.749	0.0168511
857.828	0.0167825
857.906	0.0167555
857.984	0.0167345
858.062	0.0166111
858.140	0.0167867
858.218	0.0166959
858.296	0.0167014
858.374	0.0166739
858.453	0.0166380
858.531	0.0166154
858.609	0.0166039
858.687	0.0165880
858.765	0.0164005
858.843	0.0164488
858.921	0.0165869
858.999	0.0164966
859.078	0.0165540
859.156	0.0166216
859.234	0.0164756
859.312	0.0165823
859.390	0.0165834
859.468	0.0165672
859.546	0.0165016
859.624	0.0165064
859.703	0.0164973
859.781	0.0165435
859.859	0.0164074
859.937	0.0164146
860.015	0.0165903
860.093	0.0165566
860.171	0.0166170
860.249	0.0164584
860.328	0.0165108
860.406	0.0166001
860.484	0.0166118
860.562	0.0165289
860.640	0.0166214
860.718	0.0165234
860.796	0.0165202
860.874	0.0165971
860.953	0.0166469
861.031	0.0167132
861.109	0.0166925
861.187	0.0166525
861.265	0.0166244
861.343	0.0166751
861.421	0.0166076
861.499	0.0165517
861.578	0.0166092
861.656	0.0167648
861.734	0.0165819
861.812	0.0165570
861.890	0.0166001
861.968	0.0165565
862.046	0.0164201
862.124	0.0164074
862.203	0.0163930
862.281	0.0164010
862.359	0.0164500
862.437	0.0162164
862.515	0.0162335
862.593	0.0163383
862.671	0.0163369
862.749	0.0163169
862.828	0.0161964
862.906	0.0163000
862.984	0.0163111
863.062	0.0162347
863.140	0.0165509
863.218	0.0163386
863.296	0.0163543
863.374	0.0165224
863.453	0.0165783
863.531	0.0166860
863.609	0.0166650
863.687	0.0167359
863.765	0.0166576
863.843	0.0167929
863.921	0.0167130
863.999	0.0167594
864.078	0.0167522
864.156	0.0166944
864.234	0.0166328
864.312	0.0165948
864.390	0.0165703
864.468	0.0166181
864.546	0.0167846
864.624	0.0165293
864.703	0.0167201
864.781	0.0165529
864.859	0.0166424
864.937	0.0164659
865.015	0.0165636
865.093	0.0164680
865.171	0.0165627
865.249	0.0166227
865.328	0.0166300
865.406	0.0166356
865.484	0.0167092
865.562	0.0165168
865.640	0.0166028
865.718	0.0164626
865.796	0.0165813
865.874	0.0165489
865.953	0.0165366
866.031	0.0165385
866.109	0.0165704
866.187	0.0163981
866.265	0.0163827
866.343	0.0165053
866.421	0.0164404
866.499	0.0163873
866.578	0.0164835
866.656	0.0164107
866.734	0.0164806
866.812	0.0164964
866.890	0.0163488
866.968	0.0163117
867.046	0.0164336
867.124	0.0165141
867.203	0.0165241
867.281	0.0165173
867.359	0.0163850
867.437	0.0163580
867.515	0.0164842
867.593	0.0164119
867.671	0.0164832
867.749	0.0164465
867.828	0.0163541
867.906	0.0164947
867.984	0.0163857
868.062	0.0164549
868.140	0.0165304
868.218	0.0164036
868.296	0.0163260
868.374	0.0164269
868.453	0.0164107
868.531	0.0164828
868.609	0.0164884
868.687	0.0165927
868.765	0.0164845
868.843	0.0165003
868.921	0.0164774
868.999	0.0165165
869.078	0.0166997
869.156	0.0165822
869.234	0.0165764
869.312	0.0166032
869.390	0.0165952
869.468	0.0164310
869.546	0.0165277
869.624	0.0164190
869.703	0.0164290
869.781	0.0166312
869.859	0.0165506
869.937	0.0165691
870.015	0.0163435
870.093	0.0163686
870.171	0.0163525
870.249	0.0163836
870.328	0.0165368
870.406	0.0162510
870.484	0.0163859
870.562	0.0164658
870.640	0.0163076
870.718	0.0164093
870.796	0.0165472
870.874	0.0164996
870.953	0.0165938
871.031	0.0164604
871.109	0.0165313
871.187	0.0165126
871.265	0.0166248
871.343	0.0166656
871.421	0.0166657
871.499	0.0165053
871.578	0.0166412
871.656	0.0166884
871.734	0.0165012
871.812	0.0165660
871.890	0.0165639
871.968	0.0164944
872.046	0.0164148
872.124	0.0165170
872.203	0.0164447
872.281	0.0164194
872.359	0.0164445
872.437	0.0164298
872.515	0.0163110
872.593	0.0164324
872.671	0.0165495
872.749	0.0164690
872.828	0.0163976
872.906	0.0165132
872.984	0.0165924
873.062	0.0165960
873.140	0.0164890
873.218	0.0165045
873.296	0.0164898
873.374	0.0165320
873.453	0.0165961
873.531	0.0166956
873.609	0.0165145
873.687	0.0165412
873.765	0.0165762
873.843	0.0165565
873.921	0.0164569
873.999	0.0165435
874.078	0.0167204
874.156	0.0165064
874.234	0.0164699
874.312	0.0164735
874.390	0.0165330
874.468	0.0164498
874.546	0.0164250
874.624	0.0163454
874.703	0.0162457
874.781	0.0164180
874.859	0.0163961
874.937	0.0166006
875.015	0.0163906
875.093	0.0163437
875.171	0.0163518
875.249	0.0164278
875.328	0.0164660
875.406	0.0165460
875.484	0.0164532
875.562	0.0165392
875.640	0.0165678
875.718	0.0165685
875.796	0.0167276
875.874	0.0165762
875.953	0.0167472
876.031	0.0167554
876.109	0.0167035
876.187	0.0167878
876.265	0.0169165
876.343	0.0167825
876.421	0.0167606
876.499	0.0169315
876.578	0.0168784
876.656	0.0167934
876.734	0.0168507
876.812	0.0168110
876.890	0.0167931
876.968	0.0167654
877.046	0.0166403
877.124	0.0165999
877.203	0.0166928
877.281	0.0166480
877.359	0.0166051
877.437	0.0165252
877.515	0.0164276
877.593	0.0164230
877.671	0.0163580
877.749	0.0164457
877.828	0.0165681
877.906	0.0164328
877.984	0.0162051
878.062	0.0163950
878.140	0.0164582
878.218	0.0163926
878.296	0.0164646
878.374	0.0165636
878.453	0.0163336
878.531	0.0163868
878.609	0.0164243
878.687	0.0165087
878.765	0.0165580
878.843	0.0164348
878.921	0.0165089
878.999	0.0166351
879.078	0.0165656
879.156	0.0165382
879.234	0.0166348
879.312	0.0167813
879.390	0.0167236
879.468	0.0166476
879.546	0.0166104
879.624	0.0166806
879.703	0.0166782
879.781	0.0165768
879.859	0.0165637
879.937	0.0164293
880.015	0.0164214
880.093	0.0165575
880.171	0.0165424
880.249	0.0165331
880.328	0.0163311
880.406	0.0163661
880.484	0.0164673
880.562	0.0163341
880.640	0.0164601
880.718	0.0162106
880.796	0.0162985
880.874	0.0163213
880.953	0.0164151
881.031	0.0162624
881.109	0.0162041
881.187	0.0163616
881.265	0.0163654
881.343	0.0163142
881.421	0.0164172
881.499	0.0164411
881.578	0.0164566
881.656	0.0164048
881.734	0.0164993
881.812	0.0165921
881.890	0.0164758
881.968	0.0164742
882.046	0.0166424
882.124	0.0165399
882.203	0.0165313
882.281	0.0165365
882.359	0.0165105
882.437	0.0164381
882.515	0.0165674
882.593	0.0165981
882.671	0.0164166
882.749	0.0164441
882.828	0.0164342
882.906	0.0164890
882.984	0.0164304
883.062	0.0165242
883.140	0.0163155
883.218	0.0163681
883.296	0.0164696
883.374	0.0163725
883.453	0.0163176
883.531	0.0164426
883.609	0.0163999
883.687	0.0163735
883.765	0.0163440
883.843	0.0163895
883.921	0.0164481
883.999	0.0165108
884.078	0.0165476
884.156	0.0164222
884.234	0.0164237
884.312	0.0164825
884.390	0.0163942
884.468	0.0164899
884.546	0.0165562
884.624	0.0164678
884.703	0.0164954
884.781	0.0163732
884.859	0.0165019
884.937	0.0163032
885.015	0.0163969
885.093	0.0164817
885.171	0.0164935
885.249	0.0165551
885.328	0.0164822
885.406	0.0164462
885.484	0.0165189
885.562	0.0164445
885.640	0.0165049
885.718	0.0166171
885.796	0.0166991
885.874	0.0164687
885.953	0.0165923
886.031	0.0164230
886.109	0.0164550
886.187	0.0165115
886.265	0.0166626
886.343	0.0164536
886.421	0.0163870
886.499	0.0164054
886.578	0.0164925
886.656	0.0163168
886.734	0.0164565
886.812	0.0165545
886.890	0.0164030
886.968	0.0163435
887.046	0.0165000
887.124	0.0163589
887.203	0.0164249
887.281	0.0164962
887.359	0.0164324
887.437	0.0164447
887.515	0.0164136
887.593	0.0164230
887.671	0.0165131
887.749	0.0164335
887.828	0.0163653
887.906	0.0164727
887.984	0.0165620
888.062	0.0163974
888.140	0.0163671
888.218	0.0165218
888.296	0.0162773
888.374	0.0163384
888.453	0.0163944
888.531	0.0162796
888.609	0.0164454
888.687	0.0164272
888.765	0.0164867
888.843	0.0163677
888.921	0.0163100
888.999	0.0162992
889.078	0.0164402
889.156	0.0163311
889.234	0.0163963
889.312	0.0164059
889.390	0.0162074
889.468	0.0164433
889.546	0.0163854
889.624	0.0163151
889.703	0.0164609
889.781	0.0164689
889.859	0.0163084
889.937	0.0164047
890.015	0.0164961
890.093	0.0163869
890.171	0.0164911
890.249	0.0164336
890.328	0.0162956
890.406	0.0163920
890.484	0.0164414
890.562	0.0163015
890.640	0.0164207
890.718	0.0164259
890.796	0.0164404
890.874	0.0164237
890.953	0.0165434
891.031	0.0164190
891.109	0.0163261
891.187	0.0164366
891.265	0.0163881
891.343	0.0163773
891.421	0.0165251
891.499	0.0164009
891.578	0.0163290
891.656	0.0164890
891.734	0.0164766
891.812	0.0164293
891.890	0.0163422
891.968	0.0163931
892.046	0.0165188
892.124	0.0164396
892.203	0.0163898
892.281	0.0163397
892.359	0.0164231
892.437	0.0164240
892.515	0.0163846
892.593	0.0163473
892.671	0.0163355
892.749	0.0163332
892.828	0.0164033
892.906	0.0163947
892.984	0.0162903
893.062	0.0163741
893.140	0.0163661
893.218	0.0164567
893.296	0.0163465
893.374	0.0164388
893.453	0.0163918
893.531	0.0164814
893.609	0.0163993
893.687	0.0165305
893.765	0.0162640
893.843	0.0164565
893.921	0.0163958
893.999	0.0164684
894.078	0.0165238
894.156	0.0164282
894.234	0.0164361
894.312	0.0164677
894.390	0.0165632
894.468	0.0165333
894.546	0.0164307
894.624	0.0164777
894.703	0.0165155
894.781	0.0165925
894.859	0.0164173
894.937	0.0165255
895.015	0.0164145
895.093	0.0164481
895.171	0.0166329
895.249	0.0163811
895.328	0.0164152
895.406	0.0163577
895.484	0.0164735
895.562	0.0165187
895.640	0.0163934
895.718	0.0163659
895.796	0.0162806
895.874	0.0164214
895.953	0.0165427
896.031	0.0163570
896.109	0.0163513
896.187	0.0164610
896.265	0.0164723
896.343	0.0164581
896.421	0.0164065
896.499	0.0164997
896.578	0.0165283
896.656	0.0164888
896.734	0.0164452
896.812	0.0166196
896.890	0.0164722
896.968	0.0165527
897.046	0.0165973
897.124	0.0166148
897.203	0.0164989
897.281	0.0165580
897.359	0.0165416
897.437	0.0165486
897.515	0.0164042
897.593	0.0164598
897.671	0.0164970
897.749	0.0164723
897.828	0.0164975
897.906	0.0165085
897.984	0.0164943
898.062	0.0164870
898.140	0.0164612
898.218	0.0165311
898.296	0.0164281
898.374	0.0165079
898.453	0.0165623
898.531	0.0164194
898.609	0.0165331
898.687	0.0164491
898.765	0.0163335
898.843	0.0165747
898.921	0.0166054
898.999	0.0164091
899.078	0.0165312
899.156	0.0164923
899.234	0.0166275
899.312	0.0166663
899.390	0.0165306
899.468	0.0165701
899.546	0.0165581
899.624	0.0166798
899.703	0.0165697
899.781	0.0166319
899.859	0.0166806
899.937	0.0167554
900.015	0.0167260
900.093	0.0166190
900.171	0.0167267
900.249	0.0167264
900.328	0.0167342
900.406	0.0166549
900.484	0.0167917
900.562	0.0166226
900.640	0.0165636
900.718	0.0166125
900.796	0.0164665
900.874	0.0165986
900.953	0.0165577
901.031	0.0164947
901.109	0.0163999
901.187	0.0162894
901.265	0.0162611
901.343	0.0163664
901.421	0.0163496
901.499	0.0161626
901.578	0.0162974
901.656	0.0161119
901.734	0.0161306
901.812	0.0160938
901.890	0.0161530
901.968	0.0163160
902.046	0.0162466
902.124	0.0161383
902.203	0.0163297
902.281	0.0165234
902.359	0.0164111
902.437	0.0164314
902.515	0.0165021
902.593	0.0164603
902.671	0.0167078
902.749	0.0165935
902.828	0.0164626
902.906	0.0166857
902.984	0.0164685
903.062	0.0166629
903.140	0.0165910
903.218	0.0167133
903.296	0.0166518
903.374	0.0166252
903.453	0.0164926
903.531	0.0165489
903.609	0.0164825
903.687	0.0165509
903.765	0.0165617
903.843	0.0166351
903.921	0.0165309
903.999	0.0164989
904.078	0.0164442
904.156	0.0164514
904.234	0.0166370
904.312	0.0165019
904.390	0.0164509
904.468	0.0166012
904.546	0.0166480
904.624	0.0165582
904.703	0.0164117
904.781	0.0164402
904.859	0.0164025
904.937	0.0164034
905.015	0.0164429
905.093	0.0164336
905.171	0.0164127
905.249	0.0163468
905.328	0.0163030
905.406	0.0162714
905.484	0.0163322
905.562	0.0162843
905.640	0.0164221
905.718	0.0163143
905.796	0.0163174
905.874	0.0163377
905.953	0.0164684
906.031	0.0164555
906.109	0.0163460
906.187	0.0163365
906.265	0.0163322
906.343	0.0163120
906.421	0.0164005
906.499	0.0164278
906.578	0.0165025
906.656	0.0164726
906.734	0.0163622
906.812	0.0164684
906.890	0.0164132
906.968	0.0163490
907.046	0.0162920
907.124	0.0162046
907.203	0.0163897
907.281	0.0163067
907.359	0.0161215
907.437	0.0162065
907.515	0.0160593
907.593	0.0161885
907.671	0.0161839
907.749	0.0161189
907.828	0.0161121
907.906	0.0160899
907.984	0.0159788
908.062	0.0161945
908.140	0.0162399
908.218	0.0163119
908.296	0.0162955
908.374	0.0163207
908.453	0.0165054
908.531	0.0164821
908.609	0.0164744
908.687	0.0166249
908.765	0.0166648
908.843	0.0167152
908.921	0.0166833
908.999	0.0166370
909.078	0.0166455
909.156	0.0167218
909.234	0.0166307
909.312	0.0165348
909.390	0.0166783
909.468	0.0164969
909.546	0.0163797
909.624	0.0164322
909.703	0.0164975
909.781	0.0164877
909.859	0.0164795
909.937	0.0163736
910.015	0.0165807
910.093	0.0165146
910.171	0.0165255
910.249	0.0164527
910.328	0.0165535
910.406	0.0167494
910.484	0.0167578
910.562	0.0167052
910.640	0.0165098
910.718	0.0166377
910.796	0.0166492
910.874	0.0167150
910.953	0.0166312
911.031	0.0167036
911.109	0.0166652
911.187	0.0164320
911.265	0.0165277
911.343	0.0166284
911.421	0.0164061
911.499	0.0165434
911.578	0.0163457
911.656	0.0163148
911.734	0.0163571
911.812	0.0163434
911.890	0.0162147
911.968	0.0163122
912.046	0.0161979
912.124	0.0161794
912.203	0.0161994
912.281	0.0160482
912.359	0.0161846
912.437	0.0161363
912.515	0.0161541
912.593	0.0160713
912.671	0.0161252
912.749	0.0161512
912.828	0.0161430
912.906	0.0162346
912.984	0.0163548
913.062	0.0163995
913.140	0.0162340
913.218	0.0163429
913.296	0.0162914
913.374	0.0161560
913.453	0.0163598
913.531	0.0163590
913.609	0.0162255
913.687	0.0162746
913.765	0.0162425
913.843	0.0161555
913.921	0.0161950
913.999	0.0162191
914.078	0.0161568
914.156	0.0161966
914.234	0.0162200
914.312	0.0163995
914.390	0.0163264
914.468	0.0162731
914.546	0.0162196
914.624	0.0163919
914.703	0.0164436
914.781	0.0164731
914.859	0.0163920
914.937	0.0165340
915.015	0.0165204
915.093	0.0166847
915.171	0.0166692
915.249	0.0166499
915.328	0.0168374
915.406	0.0167463
915.484	0.0167741
915.562	0.0166801
915.640	0.0165379
915.718	0.0166941
915.796	0.0167092
915.874	0.0167525
915.953	0.0167726
916.031	0.0165740
916.109	0.0166120
916.187	0.0165266
916.265	0.0165652
916.343	0.0166591
916.421	0.0166631
916.499	0.0164847
916.578	0.0163599
916.656	0.0166276
916.734	0.0164029
916.812	0.0165106
916.890	0.0167345
916.968	0.0165638
917.046	0.0165387
917.124	0.0164191
917.203	0.0164460
917.281	0.0165451
917.359	0.0165059
917.437	0.0163895
917.515	0.0163513
917.593	0.0164207
917.671	0.0164091
917.749	0.0163866
917.828	0.0165213
917.906	0.0164389
917.984	0.0165195
918.062	0.0163195
918.140	0.0164156
918.218	0.0163713
918.296	0.0162155
918.374	0.0163394
918.453	0.0163165
918.531	0.0163927
918.609	0.0162943
918.687	0.0161872
918.765	0.0162604
918.843	0.0162397
918.921	0.0164150
918.999	0.0162796
919.078	0.0163041
919.156	0.0161816
919.234	0.0163592
919.312	0.0163727
919.390	0.0163385
919.468	0.0164344
919.546	0.0162690
919.624	0.0164283
919.703	0.0163683
919.781	0.0162708
919.859	0.0165693
919.937	0.0164375
