06/10/2022	16:40:43	Ver.	4.1	UNKNOWN
Optical Delay	600.015094	Delta X		0.078125	Sweeps	1	Scan Rate	0/0
Coordinates	Axis 1	NaN	Axis 2	NaN	Axis 3	NaN	Axis 4	NaN	Axis 5	NaN	Axis 6	0.000000
TX Power	0.000000	RX Power	0.000000

600.015	0.0159105
600.093	0.0158872
600.171	0.0158294
600.249	0.0158463
600.328	0.0159013
600.406	0.0157415
600.484	0.0157879
600.562	0.0157684
600.640	0.0157870
600.718	0.0158591
600.796	0.0157428
600.874	0.0157579
600.953	0.0158188
601.031	0.0157470
601.109	0.0157851
601.187	0.0159051
601.265	0.0159167
601.343	0.0157635
601.421	0.0159296
601.499	0.0158733
601.578	0.0158386
601.656	0.0158492
601.734	0.0156977
601.812	0.0158304
601.890	0.0156976
601.968	0.0157707
602.046	0.0157933
602.124	0.0158689
602.203	0.0157050
602.281	0.0158300
602.359	0.0158511
602.437	0.0158285
602.515	0.0158645
602.593	0.0159351
602.671	0.0158460
602.749	0.0158900
602.828	0.0159365
602.906	0.0159074
602.984	0.0160390
603.062	0.0159830
603.140	0.0159896
603.218	0.0159936
603.296	0.0159234
603.374	0.0159391
603.453	0.0160223
603.531	0.0159187
603.609	0.0159208
603.687	0.0158739
603.765	0.0159711
603.843	0.0159776
603.921	0.0159602
603.999	0.0159753
604.078	0.0159245
604.156	0.0159630
604.234	0.0159115
604.312	0.0160587
604.390	0.0159592
604.468	0.0160840
604.546	0.0159484
604.624	0.0160120
604.703	0.0158244
604.781	0.0158530
604.859	0.0159739
604.937	0.0159261
605.015	0.0160446
605.093	0.0159968
605.171	0.0160593
605.249	0.0159200
605.328	0.0158199
605.406	0.0159605
605.484	0.0160220
605.562	0.0159622
605.640	0.0158675
605.718	0.0160603
605.796	0.0159944
605.874	0.0158984
605.953	0.0158662
606.031	0.0159078
606.109	0.0159498
606.187	0.0157969
606.265	0.0158882
606.343	0.0157757
606.421	0.0158578
606.499	0.0159046
606.578	0.0157823
606.656	0.0157086
606.734	0.0158132
606.812	0.0158688
606.890	0.0158357
606.968	0.0157614
607.046	0.0157793
607.124	0.0157550
607.203	0.0158415
607.281	0.0158147
607.359	0.0157966
607.437	0.0157681
607.515	0.0158473
607.593	0.0159116
607.671	0.0155856
607.749	0.0156773
607.828	0.0158218
607.906	0.0158612
607.984	0.0158482
608.062	0.0157986
608.140	0.0157092
608.218	0.0158304
608.296	0.0157362
608.374	0.0158144
608.453	0.0156734
608.531	0.0157095
608.609	0.0158165
608.687	0.0156966
608.765	0.0158257
608.843	0.0157490
608.921	0.0157554
608.999	0.0158070
609.078	0.0157492
609.156	0.0158554
609.234	0.0158144
609.312	0.0158559
609.390	0.0158881
609.468	0.0158466
609.546	0.0158544
609.624	0.0157915
609.703	0.0157359
609.781	0.0158305
609.859	0.0158751
609.937	0.0159108
610.015	0.0158503
610.093	0.0158196
610.171	0.0157648
610.249	0.0159414
610.328	0.0157844
610.406	0.0156296
610.484	0.0157034
610.562	0.0157709
610.640	0.0157959
610.718	0.0157156
610.796	0.0158254
610.874	0.0159115
610.953	0.0159198
611.031	0.0158052
611.109	0.0157668
611.187	0.0157234
611.265	0.0159204
611.343	0.0159146
611.421	0.0157229
611.499	0.0158320
611.578	0.0158562
611.656	0.0158487
611.734	0.0158298
611.812	0.0158602
611.890	0.0158472
611.968	0.0158414
612.046	0.0158240
612.124	0.0158326
612.203	0.0157864
612.281	0.0157539
612.359	0.0159316
612.437	0.0159013
612.515	0.0158194
612.593	0.0157972
612.671	0.0157666
612.749	0.0158241
612.828	0.0159102
612.906	0.0159478
612.984	0.0157726
613.062	0.0156798
613.140	0.0158977
613.218	0.0159310
613.296	0.0158949
613.374	0.0158835
613.453	0.0158417
613.531	0.0158787
613.609	0.0158376
613.687	0.0159631
613.765	0.0158907
613.843	0.0159123
613.921	0.0159667
613.999	0.0158274
614.078	0.0158940
614.156	0.0159646
614.234	0.0159570
614.312	0.0160120
614.390	0.0158549
614.468	0.0158794
614.546	0.0159268
614.624	0.0158872
614.703	0.0159102
614.781	0.0158706
614.859	0.0159319
614.937	0.0159247
615.015	0.0158717
615.093	0.0159156
615.171	0.0159962
615.249	0.0157738
615.328	0.0159126
615.406	0.0159010
615.484	0.0158577
615.562	0.0158405
615.640	0.0158464
615.718	0.0159402
615.796	0.0158042
615.874	0.0159093
615.953	0.0158762
616.031	0.0158403
616.109	0.0158871
616.187	0.0159236
616.265	0.0159042
616.343	0.0160302
616.421	0.0159838
616.499	0.0158768
616.578	0.0159091
616.656	0.0158869
616.734	0.0158495
616.812	0.0159013
616.890	0.0157429
616.968	0.0158089
617.046	0.0158538
617.124	0.0158499
617.203	0.0158668
617.281	0.0159153
617.359	0.0159451
617.437	0.0158954
617.515	0.0159286
617.593	0.0159482
617.671	0.0159097
617.749	0.0158854
617.828	0.0158904
617.906	0.0158312
617.984	0.0159209
618.062	0.0158495
618.140	0.0159047
618.218	0.0158206
618.296	0.0158228
618.374	0.0159814
618.453	0.0158788
618.531	0.0158540
618.609	0.0159003
618.687	0.0158952
618.765	0.0159016
618.843	0.0159198
618.921	0.0158976
618.999	0.0159367
619.078	0.0159279
619.156	0.0159265
619.234	0.0159515
619.312	0.0159007
619.390	0.0158878
619.468	0.0158672
619.546	0.0158406
619.624	0.0159483
619.703	0.0158152
619.781	0.0160425
619.859	0.0159728
619.937	0.0158148
620.015	0.0159383
620.093	0.0160631
620.171	0.0159995
620.249	0.0158509
620.328	0.0159458
620.406	0.0159035
620.484	0.0158971
620.562	0.0158586
620.640	0.0159376
620.718	0.0159977
620.796	0.0160044
620.874	0.0159647
620.953	0.0159292
621.031	0.0159921
621.109	0.0160159
621.187	0.0159474
621.265	0.0160637
621.343	0.0159917
621.421	0.0157889
621.499	0.0159383
621.578	0.0160706
621.656	0.0160607
621.734	0.0158958
621.812	0.0159193
621.890	0.0158980
621.968	0.0159294
622.046	0.0160345
622.124	0.0159618
622.203	0.0159339
622.281	0.0159813
622.359	0.0158745
622.437	0.0159534
622.515	0.0158469
622.593	0.0159499
622.671	0.0159952
622.749	0.0158359
622.828	0.0158820
622.906	0.0159166
622.984	0.0158904
623.062	0.0158373
623.140	0.0159270
623.218	0.0158230
623.296	0.0159500
623.374	0.0158183
623.453	0.0159814
623.531	0.0159248
623.609	0.0159434
623.687	0.0158778
623.765	0.0159531
623.843	0.0158599
623.921	0.0159114
623.999	0.0159141
624.078	0.0158754
624.156	0.0157722
624.234	0.0158719
624.312	0.0159683
624.390	0.0159083
624.468	0.0160180
624.546	0.0158802
624.624	0.0159221
624.703	0.0160281
624.781	0.0159055
624.859	0.0158911
624.937	0.0161232
625.015	0.0159415
625.093	0.0159184
625.171	0.0160172
625.249	0.0159707
625.328	0.0159248
625.406	0.0161053
625.484	0.0159759
625.562	0.0161430
625.640	0.0161800
625.718	0.0159709
625.796	0.0161381
625.874	0.0161897
625.953	0.0160711
626.031	0.0160936
626.109	0.0160161
626.187	0.0160526
626.265	0.0159177
626.343	0.0160549
626.421	0.0161113
626.499	0.0159900
626.578	0.0161142
626.656	0.0161189
626.734	0.0160550
626.812	0.0160571
626.890	0.0159155
626.968	0.0159978
627.046	0.0160330
627.124	0.0160370
627.203	0.0159850
627.281	0.0159739
627.359	0.0161824
627.437	0.0159243
627.515	0.0160426
627.593	0.0160833
627.671	0.0160011
627.749	0.0160515
627.828	0.0160554
627.906	0.0160845
627.984	0.0159844
628.062	0.0159587
628.140	0.0159664
628.218	0.0159719
628.296	0.0160036
628.374	0.0159805
628.453	0.0160008
628.531	0.0160947
628.609	0.0160308
628.687	0.0161113
628.765	0.0159995
628.843	0.0158267
628.921	0.0160359
628.999	0.0160244
629.078	0.0159804
629.156	0.0160014
629.234	0.0160490
629.312	0.0160577
629.390	0.0158310
629.468	0.0159407
629.546	0.0159241
629.624	0.0159470
629.703	0.0159312
629.781	0.0157729
629.859	0.0160237
629.937	0.0159710
630.015	0.0158346
630.093	0.0159475
630.171	0.0159203
630.249	0.0160203
630.328	0.0159743
630.406	0.0157692
630.484	0.0158638
630.562	0.0158672
630.640	0.0158087
630.718	0.0158925
630.796	0.0159263
630.874	0.0159467
630.953	0.0160214
631.031	0.0159430
631.109	0.0157795
631.187	0.0158452
631.265	0.0158923
631.343	0.0158252
631.421	0.0158018
631.499	0.0159147
631.578	0.0158046
631.656	0.0157304
631.734	0.0158633
631.812	0.0157573
631.890	0.0157157
631.968	0.0157354
632.046	0.0157922
632.124	0.0157333
632.203	0.0158495
632.281	0.0157975
632.359	0.0158316
632.437	0.0156586
632.515	0.0156326
632.593	0.0157671
632.671	0.0157372
632.749	0.0157402
632.828	0.0157615
632.906	0.0158555
632.984	0.0158926
633.062	0.0157700
633.140	0.0157043
633.218	0.0156965
633.296	0.0157627
633.374	0.0157892
633.453	0.0157722
633.531	0.0157375
633.609	0.0158249
633.687	0.0158070
633.765	0.0157437
633.843	0.0157533
633.921	0.0157819
633.999	0.0158437
634.078	0.0157326
634.156	0.0157358
634.234	0.0156847
634.312	0.0157012
634.390	0.0157051
634.468	0.0155743
634.546	0.0156641
634.624	0.0156905
634.703	0.0156638
634.781	0.0157626
634.859	0.0157056
634.937	0.0156588
635.015	0.0156760
635.093	0.0156961
635.171	0.0156903
635.249	0.0155430
635.328	0.0157762
635.406	0.0158283
635.484	0.0157057
635.562	0.0156680
635.640	0.0156042
635.718	0.0156253
635.796	0.0157318
635.874	0.0156371
635.953	0.0158019
636.031	0.0156067
636.109	0.0156878
636.187	0.0157986
636.265	0.0157114
636.343	0.0156560
636.421	0.0157310
636.499	0.0156715
636.578	0.0156994
636.656	0.0157430
636.734	0.0156806
636.812	0.0157307
636.890	0.0156879
636.968	0.0156645
637.046	0.0157851
637.124	0.0157850
637.203	0.0158414
637.281	0.0157990
637.359	0.0157736
637.437	0.0157902
637.515	0.0155715
637.593	0.0156830
637.671	0.0158855
637.749	0.0156886
637.828	0.0157388
637.906	0.0159017
637.984	0.0157113
638.062	0.0157838
638.140	0.0158534
638.218	0.0158820
638.296	0.0157516
638.374	0.0156962
638.453	0.0158267
638.531	0.0158069
638.609	0.0158006
638.687	0.0156714
638.765	0.0158151
638.843	0.0156878
638.921	0.0157307
638.999	0.0158080
639.078	0.0158425
639.156	0.0158202
639.234	0.0157856
639.312	0.0157178
639.390	0.0157930
639.468	0.0157003
639.546	0.0158683
639.624	0.0158799
639.703	0.0158355
639.781	0.0158018
639.859	0.0159581
639.937	0.0158203
640.015	0.0157690
640.093	0.0158891
640.171	0.0158323
640.249	0.0157207
640.328	0.0158817
640.406	0.0158833
640.484	0.0159896
640.562	0.0158192
640.640	0.0157866
640.718	0.0159080
640.796	0.0160605
640.874	0.0159225
640.953	0.0158401
641.031	0.0159482
641.109	0.0158674
641.187	0.0158763
641.265	0.0158753
641.343	0.0158730
641.421	0.0159055
641.499	0.0158437
641.578	0.0158654
641.656	0.0157266
641.734	0.0158819
641.812	0.0159082
641.890	0.0159703
641.968	0.0158150
642.046	0.0160174
642.124	0.0158190
642.203	0.0157849
642.281	0.0161116
642.359	0.0159483
642.437	0.0158317
642.515	0.0159829
642.593	0.0158900
642.671	0.0159283
642.749	0.0158878
642.828	0.0158224
642.906	0.0159820
642.984	0.0158340
643.062	0.0158595
643.140	0.0158099
643.218	0.0157840
643.296	0.0159255
643.374	0.0157497
643.453	0.0159319
643.531	0.0158741
643.609	0.0158324
643.687	0.0158820
643.765	0.0158128
643.843	0.0159985
643.921	0.0157475
643.999	0.0157970
644.078	0.0159254
644.156	0.0158934
644.234	0.0159401
644.312	0.0159362
644.390	0.0160643
644.468	0.0158725
644.546	0.0158651
644.624	0.0159711
644.703	0.0158685
644.781	0.0158984
644.859	0.0159357
644.937	0.0159119
645.015	0.0159075
645.093	0.0159441
645.171	0.0159225
645.249	0.0158331
645.328	0.0159042
645.406	0.0158384
645.484	0.0159300
645.562	0.0159024
645.640	0.0159775
645.718	0.0158640
645.796	0.0159357
645.874	0.0159375
645.953	0.0158390
646.031	0.0158795
646.109	0.0159135
646.187	0.0158956
646.265	0.0159093
646.343	0.0158891
646.421	0.0159071
646.499	0.0159042
646.578	0.0159857
646.656	0.0160163
646.734	0.0159901
646.812	0.0159286
646.890	0.0158867
646.968	0.0158170
647.046	0.0158949
647.124	0.0159590
647.203	0.0158644
647.281	0.0158749
647.359	0.0159897
647.437	0.0160263
647.515	0.0159023
647.593	0.0157856
647.671	0.0158186
647.749	0.0159438
647.828	0.0158826
647.906	0.0159025
647.984	0.0159582
648.062	0.0159644
648.140	0.0158768
648.218	0.0158891
648.296	0.0160251
648.374	0.0159488
648.453	0.0159038
648.531	0.0158967
648.609	0.0159289
648.687	0.0159267
648.765	0.0157594
648.843	0.0159507
648.921	0.0160282
648.999	0.0160455
649.078	0.0159373
649.156	0.0158041
649.234	0.0159167
649.312	0.0159631
649.390	0.0158551
649.468	0.0158610
649.546	0.0159129
649.624	0.0159450
649.703	0.0159997
649.781	0.0158302
649.859	0.0159045
649.937	0.0158717
650.015	0.0159154
650.093	0.0159393
650.171	0.0158865
650.249	0.0159044
650.328	0.0159408
650.406	0.0159107
650.484	0.0160345
650.562	0.0158973
650.640	0.0158656
650.718	0.0159490
650.796	0.0159256
650.874	0.0158302
650.953	0.0159610
651.031	0.0159837
651.109	0.0159094
651.187	0.0157298
651.265	0.0158378
651.343	0.0159523
651.421	0.0160856
651.499	0.0158999
651.578	0.0158580
651.656	0.0159828
651.734	0.0158424
651.812	0.0159907
651.890	0.0159147
651.968	0.0158375
652.046	0.0158022
652.124	0.0160201
652.203	0.0157619
652.281	0.0156696
652.359	0.0159187
652.437	0.0158782
652.515	0.0159692
652.593	0.0158866
652.671	0.0158239
652.749	0.0159040
652.828	0.0159071
652.906	0.0158736
652.984	0.0159126
653.062	0.0159846
653.140	0.0159326
653.218	0.0158960
653.296	0.0159405
653.374	0.0158257
653.453	0.0156880
653.531	0.0159619
653.609	0.0158169
653.687	0.0158257
653.765	0.0157360
653.843	0.0158739
653.921	0.0159676
653.999	0.0158417
654.078	0.0159606
654.156	0.0159365
654.234	0.0160143
654.312	0.0159297
654.390	0.0157919
654.468	0.0157795
654.546	0.0158135
654.624	0.0159230
654.703	0.0160210
654.781	0.0159312
654.859	0.0159327
654.937	0.0158528
655.015	0.0158942
655.093	0.0158651
655.171	0.0159216
655.249	0.0158071
655.328	0.0159095
655.406	0.0158855
655.484	0.0158690
655.562	0.0159238
655.640	0.0157513
655.718	0.0159035
655.796	0.0158319
655.874	0.0158936
655.953	0.0158010
656.031	0.0157900
656.109	0.0157983
656.187	0.0157979
656.265	0.0158105
656.343	0.0158394
656.421	0.0159299
656.499	0.0158684
656.578	0.0158519
656.656	0.0158762
656.734	0.0157544
656.812	0.0158438
656.890	0.0158395
656.968	0.0158309
657.046	0.0159003
657.124	0.0158630
657.203	0.0158267
657.281	0.0158765
657.359	0.0157571
657.437	0.0158622
657.515	0.0158416
657.593	0.0157944
657.671	0.0158306
657.749	0.0158061
657.828	0.0157677
657.906	0.0157882
657.984	0.0159806
658.062	0.0158088
658.140	0.0157413
658.218	0.0158037
658.296	0.0158497
658.374	0.0159242
658.453	0.0157264
658.531	0.0157339
658.609	0.0158369
658.687	0.0158636
658.765	0.0158346
658.843	0.0157790
658.921	0.0158771
658.999	0.0158805
659.078	0.0156025
659.156	0.0158440
659.234	0.0156930
659.312	0.0158471
659.390	0.0159872
659.468	0.0157504
659.546	0.0156647
659.624	0.0158427
659.703	0.0158107
659.781	0.0157954
659.859	0.0157385
659.937	0.0158615
660.015	0.0157999
660.093	0.0157821
660.171	0.0155715
660.249	0.0159928
660.328	0.0159016
660.406	0.0157521
660.484	0.0159428
660.562	0.0158048
660.640	0.0156690
660.718	0.0158178
660.796	0.0158672
660.874	0.0158309
660.953	0.0159095
661.031	0.0157990
661.109	0.0158511
661.187	0.0159380
661.265	0.0157169
661.343	0.0157896
661.421	0.0158466
661.499	0.0158526
661.578	0.0157322
661.656	0.0157054
661.734	0.0158756
661.812	0.0158219
661.890	0.0157451
661.968	0.0157912
662.046	0.0157862
662.124	0.0158658
662.203	0.0159212
662.281	0.0156738
662.359	0.0157388
662.437	0.0158160
662.515	0.0158041
662.593	0.0157463
662.671	0.0158463
662.749	0.0157269
662.828	0.0157204
662.906	0.0156938
662.984	0.0157031
663.062	0.0157844
663.140	0.0157394
663.218	0.0157594
663.296	0.0159106
663.374	0.0157909
663.453	0.0156419
663.531	0.0157568
663.609	0.0158257
663.687	0.0158578
663.765	0.0158414
663.843	0.0156875
663.921	0.0157746
663.999	0.0159220
664.078	0.0159134
664.156	0.0158178
664.234	0.0158137
664.312	0.0157305
664.390	0.0158499
664.468	0.0158260
664.546	0.0159715
664.624	0.0158683
664.703	0.0157056
664.781	0.0158134
664.859	0.0158392
664.937	0.0158980
665.015	0.0159026
665.093	0.0157993
665.171	0.0158933
665.249	0.0158584
665.328	0.0158462
665.406	0.0157818
665.484	0.0159515
665.562	0.0159176
665.640	0.0158855
665.718	0.0159190
665.796	0.0157513
665.874	0.0158876
665.953	0.0158643
666.031	0.0158143
666.109	0.0158569
666.187	0.0159279
666.265	0.0157880
666.343	0.0159666
666.421	0.0158250
666.499	0.0159383
666.578	0.0159569
666.656	0.0158085
666.734	0.0157790
666.812	0.0158899
666.890	0.0159686
666.968	0.0159776
667.046	0.0159801
667.124	0.0158652
667.203	0.0157813
667.281	0.0159159
667.359	0.0159657
667.437	0.0159367
667.515	0.0159812
667.593	0.0159549
667.671	0.0157458
667.749	0.0160380
667.828	0.0159131
667.906	0.0159241
667.984	0.0159109
668.062	0.0158748
668.140	0.0160172
668.218	0.0158408
668.296	0.0158643
668.374	0.0159162
668.453	0.0157262
668.531	0.0158704
668.609	0.0159039
668.687	0.0157555
668.765	0.0158260
668.843	0.0157533
668.921	0.0157707
668.999	0.0158810
669.078	0.0158656
669.156	0.0160036
669.234	0.0160016
669.312	0.0158629
669.390	0.0159270
669.468	0.0159806
669.546	0.0159062
669.624	0.0158857
669.703	0.0156658
669.781	0.0159236
669.859	0.0161018
669.937	0.0159740
670.015	0.0158228
670.093	0.0159801
670.171	0.0158954
670.249	0.0159438
670.328	0.0159054
670.406	0.0160082
670.484	0.0159412
670.562	0.0158826
670.640	0.0158666
670.718	0.0160275
670.796	0.0160056
670.874	0.0158463
670.953	0.0158379
671.031	0.0160079
671.109	0.0159883
671.187	0.0160287
671.265	0.0159774
671.343	0.0159385
671.421	0.0158782
671.499	0.0159839
671.578	0.0159496
671.656	0.0159612
671.734	0.0159319
671.812	0.0159488
671.890	0.0159576
671.968	0.0159621
672.046	0.0158807
672.124	0.0160618
672.203	0.0158812
672.281	0.0159837
672.359	0.0160453
672.437	0.0160242
672.515	0.0160823
672.593	0.0159167
672.671	0.0159413
672.749	0.0159514
672.828	0.0160969
672.906	0.0160528
672.984	0.0160552
673.062	0.0160357
673.140	0.0159705
673.218	0.0159342
673.296	0.0160120
673.374	0.0161458
673.453	0.0159895
673.531	0.0159941
673.609	0.0160844
673.687	0.0160686
673.765	0.0161393
673.843	0.0161535
673.921	0.0161085
673.999	0.0160440
674.078	0.0160981
674.156	0.0160824
674.234	0.0159380
674.312	0.0160017
674.390	0.0160278
674.468	0.0160698
674.546	0.0160768
674.624	0.0160291
674.703	0.0159324
674.781	0.0160104
674.859	0.0160682
674.937	0.0159777
675.015	0.0159071
675.093	0.0159015
675.171	0.0160199
675.249	0.0160384
675.328	0.0160749
675.406	0.0160103
675.484	0.0159442
675.562	0.0159357
675.640	0.0161140
675.718	0.0158958
675.796	0.0160615
675.874	0.0158402
675.953	0.0159734
676.031	0.0159182
676.109	0.0158562
676.187	0.0160007
676.265	0.0160395
676.343	0.0159878
676.421	0.0159493
676.499	0.0159715
676.578	0.0158860
676.656	0.0157833
676.734	0.0159943
676.812	0.0158816
676.890	0.0159304
676.968	0.0159798
677.046	0.0161209
677.124	0.0159520
677.203	0.0158537
677.281	0.0159810
677.359	0.0159114
677.437	0.0158005
677.515	0.0158532
677.593	0.0160713
677.671	0.0159460
677.749	0.0159310
677.828	0.0160491
677.906	0.0159936
677.984	0.0159470
678.062	0.0160872
678.140	0.0158693
678.218	0.0159792
678.296	0.0160328
678.374	0.0158609
678.453	0.0160785
678.531	0.0160020
678.609	0.0159756
678.687	0.0159836
678.765	0.0159372
678.843	0.0159743
678.921	0.0157774
678.999	0.0158734
679.078	0.0159907
679.156	0.0158659
679.234	0.0158913
679.312	0.0159986
679.390	0.0159006
679.468	0.0159749
679.546	0.0159740
679.624	0.0158698
679.703	0.0158094
679.781	0.0159383
679.859	0.0160598
679.937	0.0158728
680.015	0.0157780
680.093	0.0158553
680.171	0.0159082
680.249	0.0158968
680.328	0.0159930
680.406	0.0160741
680.484	0.0159212
680.562	0.0159122
680.640	0.0159335
680.718	0.0158794
680.796	0.0159127
680.874	0.0158949
680.953	0.0159629
681.031	0.0158992
681.109	0.0159953
681.187	0.0159158
681.265	0.0158103
681.343	0.0158819
681.421	0.0159068
681.499	0.0157830
681.578	0.0160033
681.656	0.0158784
681.734	0.0160213
681.812	0.0158644
681.890	0.0157671
681.968	0.0157275
682.046	0.0159706
682.124	0.0158669
682.203	0.0158129
682.281	0.0157347
682.359	0.0158584
682.437	0.0157358
682.515	0.0157102
682.593	0.0157903
682.671	0.0157965
682.749	0.0159773
682.828	0.0159301
682.906	0.0158976
682.984	0.0158869
683.062	0.0158585
683.140	0.0159135
683.218	0.0158490
683.296	0.0158897
683.374	0.0157664
683.453	0.0159138
683.531	0.0159345
683.609	0.0158023
683.687	0.0156931
683.765	0.0159422
683.843	0.0158805
683.921	0.0157975
683.999	0.0157035
684.078	0.0156726
684.156	0.0158399
684.234	0.0158078
684.312	0.0157706
684.390	0.0157449
684.468	0.0159116
684.546	0.0158188
684.624	0.0156776
684.703	0.0157955
684.781	0.0157781
684.859	0.0158432
684.937	0.0157001
685.015	0.0158231
685.093	0.0157672
685.171	0.0157001
685.249	0.0157861
685.328	0.0159928
685.406	0.0159158
685.484	0.0157704
685.562	0.0158117
685.640	0.0158154
685.718	0.0159773
685.796	0.0159147
685.874	0.0158043
685.953	0.0157993
686.031	0.0158704
686.109	0.0158784
686.187	0.0158689
686.265	0.0158487
686.343	0.0156105
686.421	0.0158528
686.499	0.0157893
686.578	0.0156144
686.656	0.0157302
686.734	0.0157339
686.812	0.0156696
686.890	0.0157314
686.968	0.0157829
687.046	0.0157185
687.124	0.0158454
687.203	0.0157012
687.281	0.0157880
687.359	0.0159283
687.437	0.0157075
687.515	0.0158062
687.593	0.0158590
687.671	0.0159247
687.749	0.0158716
687.828	0.0159882
687.906	0.0159521
687.984	0.0158360
688.062	0.0157890
688.140	0.0158745
688.218	0.0157888
688.296	0.0159410
688.374	0.0158242
688.453	0.0157706
688.531	0.0158781
688.609	0.0158525
688.687	0.0158174
688.765	0.0159595
688.843	0.0158243
688.921	0.0158253
688.999	0.0158689
689.078	0.0158292
689.156	0.0159356
689.234	0.0160236
689.312	0.0158443
689.390	0.0159381
689.468	0.0158254
689.546	0.0158942
689.624	0.0157610
689.703	0.0157870
689.781	0.0159870
689.859	0.0160190
689.937	0.0159355
690.015	0.0158627
690.093	0.0159058
690.171	0.0158382
690.249	0.0158229
690.328	0.0159548
690.406	0.0159731
690.484	0.0158955
690.562	0.0159602
690.640	0.0158361
690.718	0.0159654
690.796	0.0159636
690.874	0.0158852
690.953	0.0159259
691.031	0.0158201
691.109	0.0157996
691.187	0.0158733
691.265	0.0159207
691.343	0.0158563
691.421	0.0158266
691.499	0.0157999
691.578	0.0160545
691.656	0.0159747
691.734	0.0159464
691.812	0.0158227
691.890	0.0160606
691.968	0.0160361
692.046	0.0159263
692.124	0.0159773
692.203	0.0159145
692.281	0.0159021
692.359	0.0159576
692.437	0.0159418
692.515	0.0159129
692.593	0.0158569
692.671	0.0159544
692.749	0.0160710
692.828	0.0158992
692.906	0.0160133
692.984	0.0159275
693.062	0.0158282
693.140	0.0160031
693.218	0.0159985
693.296	0.0159441
693.374	0.0160327
693.453	0.0159595
693.531	0.0159107
693.609	0.0158324
693.687	0.0159403
693.765	0.0159563
693.843	0.0159044
693.921	0.0159765
693.999	0.0158288
694.078	0.0159640
694.156	0.0160201
694.234	0.0159142
694.312	0.0159910
694.390	0.0158699
694.468	0.0159003
694.546	0.0159733
694.624	0.0159403
694.703	0.0158779
694.781	0.0159578
694.859	0.0159743
694.937	0.0160306
695.015	0.0158707
695.093	0.0160098
695.171	0.0159348
695.249	0.0158749
695.328	0.0159309
695.406	0.0159389
695.484	0.0159497
695.562	0.0159912
695.640	0.0161078
695.718	0.0159026
695.796	0.0159907
695.874	0.0161111
695.953	0.0160239
696.031	0.0160379
696.109	0.0159667
696.187	0.0159482
696.265	0.0159985
696.343	0.0159129
696.421	0.0160123
696.499	0.0158895
696.578	0.0159413
696.656	0.0159938
696.734	0.0158698
696.812	0.0159523
696.890	0.0159527
696.968	0.0159776
697.046	0.0159502
697.124	0.0160188
697.203	0.0159457
697.281	0.0160155
697.359	0.0160848
697.437	0.0160625
697.515	0.0159369
697.593	0.0160462
697.671	0.0160274
697.749	0.0160526
697.828	0.0160669
697.906	0.0160048
697.984	0.0159605
698.062	0.0159473
698.140	0.0160405
698.218	0.0160169
698.296	0.0159789
698.374	0.0161580
698.453	0.0160042
698.531	0.0160924
698.609	0.0159534
698.687	0.0159007
698.765	0.0158966
698.843	0.0159631
698.921	0.0158644
698.999	0.0159108
699.078	0.0159101
699.156	0.0160200
699.234	0.0158888
699.312	0.0159489
699.390	0.0160350
699.468	0.0158530
699.546	0.0159895
699.624	0.0159606
699.703	0.0159440
699.781	0.0159048
699.859	0.0158846
699.937	0.0159606
700.015	0.0158925
700.093	0.0159749
700.171	0.0159783
700.249	0.0158485
700.328	0.0158085
700.406	0.0160692
700.484	0.0159782
700.562	0.0158031
700.640	0.0159563
700.718	0.0159772
700.796	0.0159518
700.874	0.0159056
700.953	0.0160116
701.031	0.0158601
701.109	0.0158109
701.187	0.0158533
701.265	0.0158914
701.343	0.0160562
701.421	0.0158477
701.499	0.0158978
701.578	0.0158913
701.656	0.0158236
701.734	0.0158001
701.812	0.0158608
701.890	0.0159238
701.968	0.0159220
702.046	0.0160436
702.124	0.0159875
702.203	0.0159489
702.281	0.0159646
702.359	0.0159682
702.437	0.0158943
702.515	0.0159421
702.593	0.0159348
702.671	0.0159666
702.749	0.0159322
702.828	0.0159116
702.906	0.0159392
702.984	0.0158400
703.062	0.0159995
703.140	0.0159384
703.218	0.0159277
703.296	0.0159277
703.374	0.0160151
703.453	0.0158888
703.531	0.0159431
703.609	0.0159625
703.687	0.0158449
703.765	0.0159057
703.843	0.0159563
703.921	0.0158447
703.999	0.0159343
704.078	0.0159176
704.156	0.0158449
704.234	0.0158630
704.312	0.0159139
704.390	0.0159324
704.468	0.0158887
704.546	0.0158395
704.624	0.0158650
704.703	0.0159364
704.781	0.0159123
704.859	0.0159648
704.937	0.0158716
705.015	0.0157852
705.093	0.0158294
705.171	0.0157735
705.249	0.0158324
705.328	0.0158906
705.406	0.0158672
705.484	0.0159097
705.562	0.0158528
705.640	0.0157059
705.718	0.0157382
705.796	0.0158227
705.874	0.0158389
705.953	0.0158516
706.031	0.0158507
706.109	0.0159818
706.187	0.0157961
706.265	0.0158109
706.343	0.0158783
706.421	0.0159050
706.499	0.0159175
706.578	0.0159228
706.656	0.0158690
706.734	0.0160083
706.812	0.0159406
706.890	0.0160313
706.968	0.0158142
707.046	0.0159625
707.124	0.0159409
707.203	0.0158525
707.281	0.0158383
707.359	0.0158128
707.437	0.0158447
707.515	0.0158009
707.593	0.0156820
707.671	0.0156709
707.749	0.0156951
707.828	0.0159659
707.906	0.0157613
707.984	0.0157558
708.062	0.0157845
708.140	0.0158391
708.218	0.0158056
708.296	0.0158427
708.374	0.0157922
708.453	0.0157703
708.531	0.0158434
708.609	0.0158849
708.687	0.0158504
708.765	0.0157988
708.843	0.0158475
708.921	0.0158826
708.999	0.0156924
709.078	0.0157120
709.156	0.0157148
709.234	0.0157338
709.312	0.0157405
709.390	0.0157405
709.468	0.0157316
709.546	0.0158842
709.624	0.0156125
709.703	0.0156369
709.781	0.0157232
709.859	0.0155704
709.937	0.0157758
710.015	0.0157323
710.093	0.0155905
710.171	0.0156036
710.249	0.0157159
710.328	0.0156778
710.406	0.0157001
710.484	0.0157106
710.562	0.0157233
710.640	0.0157091
710.718	0.0157410
710.796	0.0157291
710.874	0.0156356
710.953	0.0157827
711.031	0.0158947
711.109	0.0158398
711.187	0.0157545
711.265	0.0157395
711.343	0.0157874
711.421	0.0158411
711.499	0.0157449
711.578	0.0156999
711.656	0.0157761
711.734	0.0157365
711.812	0.0155814
711.890	0.0157616
711.968	0.0156993
712.046	0.0157616
712.124	0.0156947
712.203	0.0155318
712.281	0.0154397
712.359	0.0154881
712.437	0.0157877
712.515	0.0155484
712.593	0.0155739
712.671	0.0156765
712.749	0.0157458
712.828	0.0156352
712.906	0.0157642
712.984	0.0158121
713.062	0.0158141
713.140	0.0158524
713.218	0.0158040
713.296	0.0158580
713.374	0.0158201
713.453	0.0158182
713.531	0.0159261
713.609	0.0158562
713.687	0.0157058
713.765	0.0158249
713.843	0.0157497
713.921	0.0157536
713.999	0.0156721
714.078	0.0158234
714.156	0.0157078
714.234	0.0156107
714.312	0.0157271
714.390	0.0156986
714.468	0.0156747
714.546	0.0158658
714.624	0.0156660
714.703	0.0156759
714.781	0.0156545
714.859	0.0158202
714.937	0.0158098
715.015	0.0158145
715.093	0.0158431
715.171	0.0157939
715.249	0.0158184
715.328	0.0158665
715.406	0.0158679
715.484	0.0157623
715.562	0.0158036
715.640	0.0157386
715.718	0.0157802
715.796	0.0158506
715.874	0.0158727
715.953	0.0157494
716.031	0.0158109
716.109	0.0157307
716.187	0.0158324
716.265	0.0158063
716.343	0.0158857
716.421	0.0157907
716.499	0.0158855
716.578	0.0157646
716.656	0.0157677
716.734	0.0157448
716.812	0.0159052
716.890	0.0157711
716.968	0.0158656
717.046	0.0158622
717.124	0.0158109
717.203	0.0157479
717.281	0.0159109
717.359	0.0161096
717.437	0.0157920
717.515	0.0158410
717.593	0.0159092
717.671	0.0160341
717.749	0.0159537
717.828	0.0160443
717.906	0.0158883
717.984	0.0159293
718.062	0.0160491
718.140	0.0158552
718.218	0.0159404
718.296	0.0159592
718.374	0.0160074
718.453	0.0158491
718.531	0.0159280
718.609	0.0158843
718.687	0.0158521
718.765	0.0159320
718.843	0.0158303
718.921	0.0158085
718.999	0.0159589
719.078	0.0159158
719.156	0.0158499
719.234	0.0158551
719.312	0.0158885
719.390	0.0158646
719.468	0.0159002
719.546	0.0161069
719.624	0.0160487
719.703	0.0158734
719.781	0.0159348
719.859	0.0159727
719.937	0.0159461
720.015	0.0159946
720.093	0.0160634
720.171	0.0158635
720.249	0.0159326
720.328	0.0157635
720.406	0.0160966
720.484	0.0159697
720.562	0.0158844
720.640	0.0158580
720.718	0.0159020
720.796	0.0159118
720.874	0.0159084
720.953	0.0159418
721.031	0.0159020
721.109	0.0157565
721.187	0.0158244
721.265	0.0159519
721.343	0.0158958
721.421	0.0159319
721.499	0.0160744
721.578	0.0159204
721.656	0.0158404
721.734	0.0158068
721.812	0.0159579
721.890	0.0158745
721.968	0.0158266
722.046	0.0157921
722.124	0.0158945
722.203	0.0157977
722.281	0.0158956
722.359	0.0159018
722.437	0.0158817
722.515	0.0157280
722.593	0.0158274
722.671	0.0158540
722.749	0.0159687
722.828	0.0160597
722.906	0.0159668
722.984	0.0158582
723.062	0.0159872
723.140	0.0157863
723.218	0.0158559
723.296	0.0158918
723.374	0.0159489
723.453	0.0159077
723.531	0.0158300
723.609	0.0160365
723.687	0.0160707
723.765	0.0160418
723.843	0.0160426
723.921	0.0159152
723.999	0.0159287
724.078	0.0158980
724.156	0.0159328
724.234	0.0160268
724.312	0.0158694
724.390	0.0159086
724.468	0.0159359
724.546	0.0159006
724.624	0.0159039
724.703	0.0160394
724.781	0.0159580
724.859	0.0158871
724.937	0.0159632
725.015	0.0159030
725.093	0.0159066
725.171	0.0159256
725.249	0.0159474
725.328	0.0157714
725.406	0.0159522
725.484	0.0158877
725.562	0.0160924
725.640	0.0160001
725.718	0.0157393
725.796	0.0157998
725.874	0.0158588
725.953	0.0157964
726.031	0.0157828
726.109	0.0158914
726.187	0.0159760
726.265	0.0159228
726.343	0.0158290
726.421	0.0159221
726.499	0.0159277
726.578	0.0159377
726.656	0.0159628
726.734	0.0158536
726.812	0.0159142
726.890	0.0159287
726.968	0.0159097
727.046	0.0158656
727.124	0.0158524
727.203	0.0158962
727.281	0.0159589
727.359	0.0158134
727.437	0.0158935
727.515	0.0159074
727.593	0.0158817
727.671	0.0157015
727.749	0.0159451
727.828	0.0158997
727.906	0.0158900
727.984	0.0159750
728.062	0.0158945
728.140	0.0159245
728.218	0.0159046
728.296	0.0159605
728.374	0.0159650
728.453	0.0159564
728.531	0.0159243
728.609	0.0160427
728.687	0.0158936
728.765	0.0159856
728.843	0.0159187
728.921	0.0159768
728.999	0.0158823
729.078	0.0158370
729.156	0.0159141
729.234	0.0159168
729.312	0.0159632
729.390	0.0158875
729.468	0.0159057
729.546	0.0159248
729.624	0.0159966
729.703	0.0158611
729.781	0.0158117
729.859	0.0158318
729.937	0.0158955
730.015	0.0158884
730.093	0.0159225
730.171	0.0157652
730.249	0.0157897
730.328	0.0158440
730.406	0.0158438
730.484	0.0159422
730.562	0.0159481
730.640	0.0158071
730.718	0.0158155
730.796	0.0158642
730.874	0.0158221
730.953	0.0157988
731.031	0.0158620
731.109	0.0158175
731.187	0.0157960
731.265	0.0157181
731.343	0.0157415
731.421	0.0158806
731.499	0.0159852
731.578	0.0158459
731.656	0.0158287
731.734	0.0158654
731.812	0.0158551
731.890	0.0159306
731.968	0.0157246
732.046	0.0158781
732.124	0.0156876
732.203	0.0157905
732.281	0.0158289
732.359	0.0157421
732.437	0.0158068
732.515	0.0157222
732.593	0.0157951
732.671	0.0158206
732.749	0.0157901
732.828	0.0157682
732.906	0.0157184
732.984	0.0157201
733.062	0.0157735
733.140	0.0157162
733.218	0.0158123
733.296	0.0158181
733.374	0.0158427
733.453	0.0157640
733.531	0.0157162
733.609	0.0157420
733.687	0.0158381
733.765	0.0159316
733.843	0.0157234
733.921	0.0157372
733.999	0.0156711
734.078	0.0157506
734.156	0.0158483
734.234	0.0156981
734.312	0.0157117
734.390	0.0157894
734.468	0.0157229
734.546	0.0157026
734.624	0.0157464
734.703	0.0156553
734.781	0.0157079
734.859	0.0156956
734.937	0.0157077
735.015	0.0157755
735.093	0.0157792
735.171	0.0157381
735.249	0.0156773
735.328	0.0157377
735.406	0.0156956
735.484	0.0157771
735.562	0.0156738
735.640	0.0157788
735.718	0.0157513
735.796	0.0157500
735.874	0.0158165
735.953	0.0157540
736.031	0.0158157
736.109	0.0158034
736.187	0.0157220
736.265	0.0158923
736.343	0.0157026
736.421	0.0158378
736.499	0.0158215
736.578	0.0156862
736.656	0.0158108
736.734	0.0157132
736.812	0.0157687
736.890	0.0158955
736.968	0.0157928
737.046	0.0157430
737.124	0.0158640
737.203	0.0157174
737.281	0.0158451
737.359	0.0159223
737.437	0.0159049
737.515	0.0157821
737.593	0.0158170
737.671	0.0158123
737.749	0.0158652
737.828	0.0158424
737.906	0.0158156
737.984	0.0158225
738.062	0.0158745
738.140	0.0158518
738.218	0.0158804
738.296	0.0158537
738.374	0.0159137
738.453	0.0158328
738.531	0.0158543
738.609	0.0159870
738.687	0.0159255
738.765	0.0158764
738.843	0.0158102
738.921	0.0157323
738.999	0.0157803
739.078	0.0158552
739.156	0.0157951
739.234	0.0159409
739.312	0.0159180
739.390	0.0159160
739.468	0.0158666
739.546	0.0157594
739.624	0.0158008
739.703	0.0158818
739.781	0.0158183
739.859	0.0158755
739.937	0.0157449
740.015	0.0158450
740.093	0.0160303
740.171	0.0160159
740.249	0.0159459
740.328	0.0159721
740.406	0.0159100
740.484	0.0159260
740.562	0.0158894
740.640	0.0158581
740.718	0.0158656
740.796	0.0159260
740.874	0.0160236
740.953	0.0158596
741.031	0.0159071
741.109	0.0159261
741.187	0.0159406
741.265	0.0160120
741.343	0.0158987
741.421	0.0159512
741.499	0.0159301
741.578	0.0159789
741.656	0.0158967
741.734	0.0158747
741.812	0.0158546
741.890	0.0159309
741.968	0.0160083
742.046	0.0160502
742.124	0.0157283
742.203	0.0160091
742.281	0.0160001
742.359	0.0158718
742.437	0.0159605
742.515	0.0159625
742.593	0.0159204
742.671	0.0159350
742.749	0.0158675
742.828	0.0159766
742.906	0.0158813
742.984	0.0158730
743.062	0.0159164
743.140	0.0157941
743.218	0.0158844
743.296	0.0159270
743.374	0.0159657
743.453	0.0159793
743.531	0.0159000
743.609	0.0158167
743.687	0.0159578
743.765	0.0159270
743.843	0.0159253
743.921	0.0158939
743.999	0.0159180
744.078	0.0157848
744.156	0.0158836
744.234	0.0159622
744.312	0.0158704
744.390	0.0159066
744.468	0.0159709
744.546	0.0160087
744.624	0.0158602
744.703	0.0158830
744.781	0.0158528
744.859	0.0159190
744.937	0.0160392
745.015	0.0157481
745.093	0.0160114
745.171	0.0158303
745.249	0.0159386
745.328	0.0160257
745.406	0.0160246
745.484	0.0158699
745.562	0.0158263
745.640	0.0159428
745.718	0.0159035
745.796	0.0160020
745.874	0.0160218
745.953	0.0159371
746.031	0.0159695
746.109	0.0159312
746.187	0.0161526
746.265	0.0158553
746.343	0.0160048
746.421	0.0161169
746.499	0.0160142
746.578	0.0159489
746.656	0.0159547
746.734	0.0159666
746.812	0.0159226
746.890	0.0160534
746.968	0.0159539
747.046	0.0159308
747.124	0.0158717
747.203	0.0160243
747.281	0.0159002
747.359	0.0160571
747.437	0.0160951
747.515	0.0159892
747.593	0.0161156
747.671	0.0159566
747.749	0.0159653
747.828	0.0158997
747.906	0.0160069
747.984	0.0161039
748.062	0.0158539
748.140	0.0158092
748.218	0.0159319
748.296	0.0160020
748.374	0.0159652
748.453	0.0159381
748.531	0.0160206
748.609	0.0159565
748.687	0.0160795
748.765	0.0158788
748.843	0.0159964
748.921	0.0160236
748.999	0.0160520
749.078	0.0160757
749.156	0.0160400
749.234	0.0159372
749.312	0.0160710
749.390	0.0160413
749.468	0.0159519
749.546	0.0160350
749.624	0.0160592
749.703	0.0160904
749.781	0.0160995
749.859	0.0158978
749.937	0.0160633
750.015	0.0161351
750.093	0.0160554
750.171	0.0159515
750.249	0.0159865
750.328	0.0160396
750.406	0.0160069
750.484	0.0161096
750.562	0.0161292
750.640	0.0160856
750.718	0.0158379
750.796	0.0159792
750.874	0.0160838
750.953	0.0159888
751.031	0.0159525
751.109	0.0160047
751.187	0.0160721
751.265	0.0159578
751.343	0.0160884
751.421	0.0159421
751.499	0.0159212
751.578	0.0161665
751.656	0.0161572
751.734	0.0160217
751.812	0.0160860
751.890	0.0160701
751.968	0.0158916
752.046	0.0159557
752.124	0.0160811
752.203	0.0160313
752.281	0.0159985
752.359	0.0158572
752.437	0.0160764
752.515	0.0159052
752.593	0.0159739
752.671	0.0160636
752.749	0.0160213
752.828	0.0158444
752.906	0.0160778
752.984	0.0159578
753.062	0.0159661
753.140	0.0160556
753.218	0.0159564
753.296	0.0159952
753.374	0.0160979
753.453	0.0159672
753.531	0.0160164
753.609	0.0160389
753.687	0.0158965
753.765	0.0159559
753.843	0.0160562
753.921	0.0160213
753.999	0.0159967
754.078	0.0159525
754.156	0.0159010
754.234	0.0160931
754.312	0.0161446
754.390	0.0158895
754.468	0.0159676
754.546	0.0159589
754.624	0.0160095
754.703	0.0158219
754.781	0.0159097
754.859	0.0159719
754.937	0.0158208
755.015	0.0160719
755.093	0.0160214
755.171	0.0157729
755.249	0.0158297
755.328	0.0158498
755.406	0.0157821
755.484	0.0159077
755.562	0.0157979
755.640	0.0158860
755.718	0.0158927
755.796	0.0158201
755.874	0.0158071
755.953	0.0158715
756.031	0.0157733
756.109	0.0158145
756.187	0.0158398
756.265	0.0159218
756.343	0.0160147
756.421	0.0160006
756.499	0.0157890
756.578	0.0158437
756.656	0.0159912
756.734	0.0159609
756.812	0.0159296
756.890	0.0158791
756.968	0.0160418
757.046	0.0158995
757.124	0.0157782
757.203	0.0159576
757.281	0.0159525
757.359	0.0159726
757.437	0.0159191
757.515	0.0158391
757.593	0.0159082
757.671	0.0158227
757.749	0.0157475
757.828	0.0157168
757.906	0.0159044
757.984	0.0158616
758.062	0.0157127
758.140	0.0158508
758.218	0.0157273
758.296	0.0157368
758.374	0.0158061
758.453	0.0159021
758.531	0.0157706
758.609	0.0157801
758.687	0.0156607
758.765	0.0159444
758.843	0.0159108
758.921	0.0158472
758.999	0.0158156
759.078	0.0159897
759.156	0.0159335
759.234	0.0159827
759.312	0.0158136
759.390	0.0159325
759.468	0.0159356
759.546	0.0158337
759.624	0.0159601
759.703	0.0158971
759.781	0.0159270
759.859	0.0159836
759.937	0.0159031
760.015	0.0159795
760.093	0.0161032
760.171	0.0159674
760.249	0.0159375
760.328	0.0159277
760.406	0.0160327
760.484	0.0158997
760.562	0.0159454
760.640	0.0158813
760.718	0.0159054
760.796	0.0156081
760.874	0.0157540
760.953	0.0158585
761.031	0.0157162
761.109	0.0157973
761.187	0.0157793
761.265	0.0158247
761.343	0.0156684
761.421	0.0157160
761.499	0.0157731
761.578	0.0158250
761.656	0.0158619
761.734	0.0158999
761.812	0.0157983
761.890	0.0158927
761.968	0.0160959
762.046	0.0158283
762.124	0.0156745
762.203	0.0157790
762.281	0.0158662
762.359	0.0158047
762.437	0.0159798
762.515	0.0157999
762.593	0.0158820
762.671	0.0160068
762.749	0.0159445
762.828	0.0160481
762.906	0.0160676
762.984	0.0159769
763.062	0.0159802
763.140	0.0159348
763.218	0.0158875
763.296	0.0158655
763.374	0.0158279
763.453	0.0159804
763.531	0.0159480
763.609	0.0158853
763.687	0.0159209
763.765	0.0159187
763.843	0.0157963
763.921	0.0158622
763.999	0.0158142
764.078	0.0158153
764.156	0.0157457
764.234	0.0159341
764.312	0.0158392
764.390	0.0158257
764.468	0.0158065
764.546	0.0158689
764.624	0.0159734
764.703	0.0157941
764.781	0.0160959
764.859	0.0159970
764.937	0.0159318
765.015	0.0160084
765.093	0.0160030
765.171	0.0158472
765.249	0.0158623
765.328	0.0161028
765.406	0.0159463
765.484	0.0159888
765.562	0.0158985
765.640	0.0158212
765.718	0.0158943
765.796	0.0158769
765.874	0.0157870
765.953	0.0157838
766.031	0.0158632
766.109	0.0157463
766.187	0.0157448
766.265	0.0158241
766.343	0.0158147
766.421	0.0157475
766.499	0.0157125
766.578	0.0159203
766.656	0.0157980
766.734	0.0158569
766.812	0.0158126
766.890	0.0157617
766.968	0.0158529
767.046	0.0160012
767.124	0.0159689
767.203	0.0160023
767.281	0.0158284
767.359	0.0159122
767.437	0.0159587
767.515	0.0161798
767.593	0.0162183
767.671	0.0160666
767.749	0.0161284
767.828	0.0162444
767.906	0.0161823
767.984	0.0161319
768.062	0.0160376
768.140	0.0161247
768.218	0.0160371
768.296	0.0160235
768.374	0.0158786
768.453	0.0159218
768.531	0.0157468
768.609	0.0158865
768.687	0.0158595
768.765	0.0158470
768.843	0.0159195
768.921	0.0157348
768.999	0.0158657
769.078	0.0158010
769.156	0.0158118
769.234	0.0157830
769.312	0.0157963
769.390	0.0157445
769.468	0.0157623
769.546	0.0157358
769.624	0.0157526
769.703	0.0159594
769.781	0.0158212
769.859	0.0158088
769.937	0.0158968
770.015	0.0157913
770.093	0.0158642
770.171	0.0158701
770.249	0.0159259
770.328	0.0158863
770.406	0.0158423
770.484	0.0158805
770.562	0.0160830
770.640	0.0160060
770.718	0.0158702
770.796	0.0158509
770.874	0.0159883
770.953	0.0160631
771.031	0.0162032
771.109	0.0162081
771.187	0.0160796
771.265	0.0161008
771.343	0.0161376
771.421	0.0159918
771.499	0.0160133
771.578	0.0160339
771.656	0.0159118
771.734	0.0159764
771.812	0.0159824
771.890	0.0160162
771.968	0.0159099
772.046	0.0160015
772.124	0.0159067
772.203	0.0161388
772.281	0.0161744
772.359	0.0162454
772.437	0.0161623
772.515	0.0161356
772.593	0.0160755
772.671	0.0161673
772.749	0.0159909
772.828	0.0159470
772.906	0.0159642
772.984	0.0160460
773.062	0.0158621
773.140	0.0159876
773.218	0.0158277
773.296	0.0157721
773.374	0.0159354
773.453	0.0159747
773.531	0.0158366
773.609	0.0158073
773.687	0.0158955
773.765	0.0159547
773.843	0.0159168
773.921	0.0158129
773.999	0.0159199
774.078	0.0159766
774.156	0.0159245
774.234	0.0157032
774.312	0.0158205
774.390	0.0157668
774.468	0.0159155
774.546	0.0157571
774.624	0.0157618
774.703	0.0158796
774.781	0.0157903
774.859	0.0158316
774.937	0.0159503
775.015	0.0160662
775.093	0.0159212
775.171	0.0159219
775.249	0.0158761
775.328	0.0159331
775.406	0.0160168
775.484	0.0159106
775.562	0.0159702
775.640	0.0160009
775.718	0.0158994
775.796	0.0159579
775.874	0.0161117
775.953	0.0160287
776.031	0.0159841
776.109	0.0161043
776.187	0.0160841
776.265	0.0161943
776.343	0.0161927
776.421	0.0159829
776.499	0.0160964
776.578	0.0161643
776.656	0.0162218
776.734	0.0162763
776.812	0.0161966
776.890	0.0161245
776.968	0.0160028
777.046	0.0161062
777.124	0.0160132
777.203	0.0159925
777.281	0.0158858
777.359	0.0160623
777.437	0.0161003
777.515	0.0158761
777.593	0.0159545
777.671	0.0157993
777.749	0.0157310
777.828	0.0157836
777.906	0.0157800
777.984	0.0157410
778.062	0.0158134
778.140	0.0155080
778.218	0.0157582
778.296	0.0156430
778.374	0.0157105
778.453	0.0158310
778.531	0.0157330
778.609	0.0157494
778.687	0.0158781
778.765	0.0158092
778.843	0.0157800
778.921	0.0157984
778.999	0.0158875
779.078	0.0157047
779.156	0.0158564
779.234	0.0158360
779.312	0.0157893
779.390	0.0158483
779.468	0.0158508
779.546	0.0160074
779.624	0.0159599
779.703	0.0159787
779.781	0.0158857
779.859	0.0159221
779.937	0.0159749
780.015	0.0161095
780.093	0.0161279
780.171	0.0159821
780.249	0.0158715
780.328	0.0160224
780.406	0.0160532
780.484	0.0158781
780.562	0.0158705
780.640	0.0160213
780.718	0.0159077
780.796	0.0156906
780.874	0.0158383
780.953	0.0157817
781.031	0.0156641
781.109	0.0155869
781.187	0.0158128
781.265	0.0157169
781.343	0.0156161
781.421	0.0157952
781.499	0.0156631
781.578	0.0156876
781.656	0.0158247
781.734	0.0156214
781.812	0.0157906
781.890	0.0157861
781.968	0.0157547
782.046	0.0158795
782.124	0.0157900
782.203	0.0157732
782.281	0.0157178
782.359	0.0157833
782.437	0.0159317
782.515	0.0159458
782.593	0.0158994
782.671	0.0158621
782.749	0.0159991
782.828	0.0159451
782.906	0.0159602
782.984	0.0160922
783.062	0.0160117
783.140	0.0160054
783.218	0.0159707
783.296	0.0161029
783.374	0.0160563
783.453	0.0160062
783.531	0.0160781
783.609	0.0160963
783.687	0.0159889
783.765	0.0160355
783.843	0.0159232
783.921	0.0158652
783.999	0.0158447
784.078	0.0158660
784.156	0.0158420
784.234	0.0157577
784.312	0.0156348
784.390	0.0158082
784.468	0.0156391
784.546	0.0154618
784.624	0.0155936
784.703	0.0155868
784.781	0.0156419
784.859	0.0155479
784.937	0.0154782
785.015	0.0155993
785.093	0.0155759
785.171	0.0156935
785.249	0.0155285
785.328	0.0156201
785.406	0.0156628
785.484	0.0156138
785.562	0.0156152
785.640	0.0157227
785.718	0.0156207
785.796	0.0157413
785.874	0.0158482
785.953	0.0159663
786.031	0.0159183
786.109	0.0159538
786.187	0.0158410
786.265	0.0160590
786.343	0.0159986
786.421	0.0159485
786.499	0.0160365
786.578	0.0159653
786.656	0.0161491
786.734	0.0160680
786.812	0.0160788
786.890	0.0160771
786.968	0.0160883
787.046	0.0160082
787.124	0.0162906
787.203	0.0161348
787.281	0.0161250
787.359	0.0160746
787.437	0.0161425
787.515	0.0160863
787.593	0.0161597
787.671	0.0161424
787.749	0.0160097
787.828	0.0159781
787.906	0.0158645
787.984	0.0159556
788.062	0.0158179
788.140	0.0156763
788.218	0.0157555
788.296	0.0156329
788.374	0.0157098
788.453	0.0155841
788.531	0.0156023
788.609	0.0157360
788.687	0.0155038
788.765	0.0155101
788.843	0.0155055
788.921	0.0155264
788.999	0.0155982
789.078	0.0155505
789.156	0.0155273
789.234	0.0156785
789.312	0.0155587
789.390	0.0154483
789.468	0.0155054
789.546	0.0156122
789.624	0.0155798
789.703	0.0155883
789.781	0.0155486
789.859	0.0154785
789.937	0.0156944
790.015	0.0156768
790.093	0.0155849
790.171	0.0157042
790.249	0.0155441
790.328	0.0157430
790.406	0.0157510
790.484	0.0156749
790.562	0.0156664
790.640	0.0157166
790.718	0.0157606
790.796	0.0157656
790.874	0.0159225
790.953	0.0157956
791.031	0.0159600
791.109	0.0158098
791.187	0.0159314
791.265	0.0157984
791.343	0.0158854
791.421	0.0159760
791.499	0.0159545
791.578	0.0161108
791.656	0.0159455
791.734	0.0160545
791.812	0.0159220
791.890	0.0159452
791.968	0.0160389
792.046	0.0161499
792.124	0.0161042
792.203	0.0160457
792.281	0.0159332
792.359	0.0159207
792.437	0.0159096
792.515	0.0159809
792.593	0.0160674
792.671	0.0159608
792.749	0.0158781
792.828	0.0157837
792.906	0.0159930
792.984	0.0158205
793.062	0.0158654
793.140	0.0158166
793.218	0.0157984
793.296	0.0157629
793.374	0.0158440
793.453	0.0157925
793.531	0.0157145
793.609	0.0157617
793.687	0.0156733
793.765	0.0158411
793.843	0.0158321
793.921	0.0156579
793.999	0.0158911
794.078	0.0157999
794.156	0.0157877
794.234	0.0158477
794.312	0.0159524
794.390	0.0158163
794.468	0.0159447
794.546	0.0159381
794.624	0.0158942
794.703	0.0159145
794.781	0.0158844
794.859	0.0158295
794.937	0.0159846
795.015	0.0159874
795.093	0.0159258
795.171	0.0157938
795.249	0.0158620
795.328	0.0159908
795.406	0.0159514
795.484	0.0158276
795.562	0.0155412
795.640	0.0156105
795.718	0.0156799
795.796	0.0156119
795.874	0.0155297
795.953	0.0155865
796.031	0.0154971
796.109	0.0155219
796.187	0.0155484
796.265	0.0155758
796.343	0.0154854
796.421	0.0155309
796.499	0.0155183
796.578	0.0155673
796.656	0.0156419
796.734	0.0158420
796.812	0.0158546
796.890	0.0158647
796.968	0.0159045
797.046	0.0158765
797.124	0.0159607
797.203	0.0160725
797.281	0.0160454
797.359	0.0161285
797.437	0.0163474
797.515	0.0161567
797.593	0.0161974
797.671	0.0161736
797.749	0.0161338
797.828	0.0162331
797.906	0.0162881
797.984	0.0160098
798.062	0.0160806
798.140	0.0160248
798.218	0.0161076
798.296	0.0159667
798.374	0.0160533
798.453	0.0159570
798.531	0.0159160
798.609	0.0159116
798.687	0.0159547
798.765	0.0159097
798.843	0.0160231
798.921	0.0158514
798.999	0.0157533
799.078	0.0159451
799.156	0.0159738
799.234	0.0159562
799.312	0.0158039
799.390	0.0155842
799.468	0.0155806
799.546	0.0156146
799.624	0.0156725
799.703	0.0156780
799.781	0.0155045
799.859	0.0155958
799.937	0.0155933
800.015	0.0155363
800.093	0.0155653
800.171	0.0156354
800.249	0.0153730
800.328	0.0153128
800.406	0.0153067
800.484	0.0154418
800.562	0.0155862
800.640	0.0155520
800.718	0.0155859
800.796	0.0155266
800.874	0.0157518
800.953	0.0156489
801.031	0.0158073
801.109	0.0155695
801.187	0.0157624
801.265	0.0157411
801.343	0.0156664
801.421	0.0157417
801.499	0.0155703
801.578	0.0157383
801.656	0.0157135
801.734	0.0156574
801.812	0.0157528
801.890	0.0157684
801.968	0.0157008
802.046	0.0158520
802.124	0.0156696
802.203	0.0158162
802.281	0.0157956
802.359	0.0158462
802.437	0.0159670
802.515	0.0161025
802.593	0.0158746
802.671	0.0159821
802.749	0.0160412
802.828	0.0161536
802.906	0.0160383
802.984	0.0160060
803.062	0.0161473
803.140	0.0162188
803.218	0.0160543
803.296	0.0161697
803.374	0.0162186
803.453	0.0160743
803.531	0.0162210
803.609	0.0164104
803.687	0.0161637
803.765	0.0161741
803.843	0.0162141
803.921	0.0163380
803.999	0.0161792
804.078	0.0161965
804.156	0.0160538
804.234	0.0160472
804.312	0.0158424
804.390	0.0160426
804.468	0.0161285
804.546	0.0159007
804.624	0.0158446
804.703	0.0157615
804.781	0.0157716
804.859	0.0157855
804.937	0.0156072
805.015	0.0155328
805.093	0.0154582
805.171	0.0156092
805.249	0.0155148
805.328	0.0153283
805.406	0.0154388
805.484	0.0153881
805.562	0.0152832
805.640	0.0153304
805.718	0.0152473
805.796	0.0153417
805.874	0.0153311
805.953	0.0154626
806.031	0.0154445
806.109	0.0154618
806.187	0.0154727
806.265	0.0156025
806.343	0.0156395
806.421	0.0156014
806.499	0.0157354
806.578	0.0159705
806.656	0.0158757
806.734	0.0157561
806.812	0.0158379
806.890	0.0160172
806.968	0.0160758
807.046	0.0159818
807.124	0.0159538
807.203	0.0159177
807.281	0.0160967
807.359	0.0160805
807.437	0.0159092
807.515	0.0161179
807.593	0.0160112
807.671	0.0159435
807.749	0.0159413
807.828	0.0160493
807.906	0.0158464
807.984	0.0159684
808.062	0.0159081
808.140	0.0159074
808.218	0.0160140
808.296	0.0159533
808.374	0.0157015
808.453	0.0158713
808.531	0.0159256
808.609	0.0158479
808.687	0.0158094
808.765	0.0158501
808.843	0.0158823
808.921	0.0158478
808.999	0.0159638
809.078	0.0158904
809.156	0.0159653
809.234	0.0160436
809.312	0.0160546
809.390	0.0161118
809.468	0.0158850
809.546	0.0159650
809.624	0.0159953
809.703	0.0157604
809.781	0.0160295
809.859	0.0158485
809.937	0.0159194
810.015	0.0157710
810.093	0.0157981
810.171	0.0156308
810.249	0.0157763
810.328	0.0157639
810.406	0.0157065
810.484	0.0154818
810.562	0.0157839
810.640	0.0156719
810.718	0.0155640
810.796	0.0155901
810.874	0.0155215
810.953	0.0156495
811.031	0.0154123
811.109	0.0155634
811.187	0.0155159
811.265	0.0156499
811.343	0.0155180
811.421	0.0155379
811.499	0.0156300
811.578	0.0155048
811.656	0.0155965
811.734	0.0156230
811.812	0.0155024
811.890	0.0155138
811.968	0.0155692
812.046	0.0154364
812.124	0.0153889
812.203	0.0155853
812.281	0.0155813
812.359	0.0154731
812.437	0.0155088
812.515	0.0155799
812.593	0.0155447
812.671	0.0155004
812.749	0.0157325
812.828	0.0156066
812.906	0.0156151
812.984	0.0156937
813.062	0.0158279
813.140	0.0157949
813.218	0.0157846
813.296	0.0158996
813.374	0.0159763
813.453	0.0161076
813.531	0.0162067
813.609	0.0161824
813.687	0.0163510
813.765	0.0164238
813.843	0.0164962
813.921	0.0163573
813.999	0.0165597
814.078	0.0165904
814.156	0.0165495
814.234	0.0165572
814.312	0.0165456
814.390	0.0164005
814.468	0.0164594
814.546	0.0165217
814.624	0.0163219
814.703	0.0162905
814.781	0.0162783
814.859	0.0161573
814.937	0.0160540
815.015	0.0159868
815.093	0.0159557
815.171	0.0159067
815.249	0.0160249
815.328	0.0157895
815.406	0.0156918
815.484	0.0155984
815.562	0.0154751
815.640	0.0154878
815.718	0.0154099
815.796	0.0151588
815.874	0.0152199
815.953	0.0153051
816.031	0.0152292
816.109	0.0151585
816.187	0.0152161
816.265	0.0152279
816.343	0.0152864
816.421	0.0152378
816.499	0.0154702
816.578	0.0155917
816.656	0.0156224
816.734	0.0153567
816.812	0.0156128
816.890	0.0156922
816.968	0.0157788
817.046	0.0158122
817.124	0.0159348
817.203	0.0159359
817.281	0.0159888
817.359	0.0160925
817.437	0.0161530
817.515	0.0161542
817.593	0.0162379
817.671	0.0163360
817.749	0.0163174
817.828	0.0161804
817.906	0.0161802
817.984	0.0161861
818.062	0.0162439
818.140	0.0160070
818.218	0.0159993
818.296	0.0158402
818.374	0.0159374
818.453	0.0158998
818.531	0.0159194
818.609	0.0157476
818.687	0.0157315
818.765	0.0157848
818.843	0.0156378
818.921	0.0157383
818.999	0.0158176
819.078	0.0157533
819.156	0.0157473
819.234	0.0158086
819.312	0.0158828
819.390	0.0159135
819.468	0.0159685
819.546	0.0160285
819.624	0.0160511
819.703	0.0162197
819.781	0.0161916
819.859	0.0162072
819.937	0.0163445
820.015	0.0163390
820.093	0.0161839
820.171	0.0162409
820.249	0.0162237
820.328	0.0161483
820.406	0.0161162
820.484	0.0161884
820.562	0.0161015
820.640	0.0159858
820.718	0.0160105
820.796	0.0158379
820.874	0.0158233
820.953	0.0156979
821.031	0.0157066
821.109	0.0155155
821.187	0.0155061
821.265	0.0154720
821.343	0.0153850
821.421	0.0153883
821.499	0.0153994
821.578	0.0155251
821.656	0.0154518
821.734	0.0155283
821.812	0.0154782
821.890	0.0156376
821.968	0.0156013
822.046	0.0156369
822.124	0.0159141
822.203	0.0158072
822.281	0.0158060
822.359	0.0158871
822.437	0.0160264
822.515	0.0160045
822.593	0.0160666
822.671	0.0160342
822.749	0.0160467
822.828	0.0158543
822.906	0.0162090
822.984	0.0161502
823.062	0.0161835
823.140	0.0160790
823.218	0.0159843
823.296	0.0160333
823.374	0.0161165
823.453	0.0161317
823.531	0.0160719
823.609	0.0161383
823.687	0.0158722
823.765	0.0158901
823.843	0.0159917
823.921	0.0157595
823.999	0.0156944
824.078	0.0157004
824.156	0.0157814
824.234	0.0156581
824.312	0.0154418
824.390	0.0154244
824.468	0.0153719
824.546	0.0155052
824.624	0.0154819
824.703	0.0152966
824.781	0.0152367
824.859	0.0154034
824.937	0.0154115
825.015	0.0155623
825.093	0.0154442
825.171	0.0156947
825.249	0.0157822
825.328	0.0158657
825.406	0.0159541
825.484	0.0161621
825.562	0.0161986
825.640	0.0163390
825.718	0.0163712
825.796	0.0163557
825.874	0.0164735
825.953	0.0165015
826.031	0.0165401
826.109	0.0167357
826.187	0.0165173
826.265	0.0166147
826.343	0.0166866
826.421	0.0165713
826.499	0.0164180
826.578	0.0165027
826.656	0.0163507
826.734	0.0163268
826.812	0.0162094
826.890	0.0161434
826.968	0.0160477
827.046	0.0160418
827.124	0.0159558
827.203	0.0157544
827.281	0.0158000
827.359	0.0155476
827.437	0.0156669
827.515	0.0155225
827.593	0.0153857
827.671	0.0154710
827.749	0.0154431
827.828	0.0152616
827.906	0.0152516
827.984	0.0153003
828.062	0.0153751
828.140	0.0153383
828.218	0.0153323
828.296	0.0153602
828.374	0.0153283
828.453	0.0154187
828.531	0.0155707
828.609	0.0154812
828.687	0.0155607
828.765	0.0154296
828.843	0.0157283
828.921	0.0155998
828.999	0.0158801
829.078	0.0158434
829.156	0.0158098
829.234	0.0160004
829.312	0.0160325
829.390	0.0161038
829.468	0.0162323
829.546	0.0162275
829.624	0.0162863
829.703	0.0163244
829.781	0.0164653
829.859	0.0163839
829.937	0.0164782
830.015	0.0165711
830.093	0.0166639
830.171	0.0165671
830.249	0.0165950
830.328	0.0165975
830.406	0.0165993
830.484	0.0165163
830.562	0.0164910
830.640	0.0165729
830.718	0.0163670
830.796	0.0162173
830.874	0.0162242
830.953	0.0161778
831.031	0.0160715
831.109	0.0160300
831.187	0.0160210
831.265	0.0159877
831.343	0.0159248
831.421	0.0158565
831.499	0.0159538
831.578	0.0158778
831.656	0.0157904
831.734	0.0157442
831.812	0.0158329
831.890	0.0157937
831.968	0.0158047
832.046	0.0158795
832.124	0.0157420
832.203	0.0157310
832.281	0.0157964
832.359	0.0157011
832.437	0.0155716
832.515	0.0156008
832.593	0.0155952
832.671	0.0154166
832.749	0.0155692
832.828	0.0154562
832.906	0.0154414
832.984	0.0154558
833.062	0.0154700
833.140	0.0154725
833.218	0.0155164
833.296	0.0154869
833.374	0.0154554
833.453	0.0155232
833.531	0.0156495
833.609	0.0155569
833.687	0.0157977
833.765	0.0158369
833.843	0.0158295
833.921	0.0159802
833.999	0.0159895
834.078	0.0161861
834.156	0.0161668
834.234	0.0161246
834.312	0.0162881
834.390	0.0162733
834.468	0.0163194
834.546	0.0162857
834.624	0.0163908
834.703	0.0162962
834.781	0.0164301
834.859	0.0164146
834.937	0.0163312
835.015	0.0162042
835.093	0.0162309
835.171	0.0161642
835.249	0.0162786
835.328	0.0161819
835.406	0.0162500
835.484	0.0162217
835.562	0.0162567
835.640	0.0162037
835.718	0.0161378
835.796	0.0161468
835.874	0.0160725
835.953	0.0161012
836.031	0.0160078
836.109	0.0159527
836.187	0.0157259
836.265	0.0157159
836.343	0.0157455
836.421	0.0156481
836.499	0.0155441
836.578	0.0155024
836.656	0.0154507
836.734	0.0154208
836.812	0.0152317
836.890	0.0154929
836.968	0.0153308
837.046	0.0153757
837.124	0.0153655
837.203	0.0153608
837.281	0.0155293
837.359	0.0156406
837.437	0.0156274
837.515	0.0157005
837.593	0.0157588
837.671	0.0159123
837.749	0.0159441
837.828	0.0158598
837.906	0.0159191
837.984	0.0161255
838.062	0.0161267
838.140	0.0160348
838.218	0.0162743
838.296	0.0163053
838.374	0.0162241
838.453	0.0162235
838.531	0.0161961
838.609	0.0161665
838.687	0.0161121
838.765	0.0161676
838.843	0.0160523
838.921	0.0158902
838.999	0.0158128
839.078	0.0158280
839.156	0.0159151
839.234	0.0158998
839.312	0.0158253
839.390	0.0158176
839.468	0.0157720
839.546	0.0158144
839.624	0.0158451
839.703	0.0157842
839.781	0.0157928
839.859	0.0158698
839.937	0.0159278
840.015	0.0158797
840.093	0.0158973
840.171	0.0159362
840.249	0.0161139
840.328	0.0161578
840.406	0.0161035
840.484	0.0159006
840.562	0.0159827
840.640	0.0161134
840.718	0.0160421
840.796	0.0159976
840.874	0.0159454
840.953	0.0159557
841.031	0.0159038
841.109	0.0158936
841.187	0.0158775
841.265	0.0158471
841.343	0.0158884
841.421	0.0158134
841.499	0.0156592
841.578	0.0157430
841.656	0.0157648
841.734	0.0157965
841.812	0.0156429
841.890	0.0157558
841.968	0.0157545
842.046	0.0157475
842.124	0.0158477
842.203	0.0158150
842.281	0.0157774
842.359	0.0158829
842.437	0.0159616
842.515	0.0158819
842.593	0.0159303
842.671	0.0158916
842.749	0.0159967
842.828	0.0159832
842.906	0.0160493
842.984	0.0159909
843.062	0.0160665
843.140	0.0160564
843.218	0.0160183
843.296	0.0158830
843.374	0.0160088
843.453	0.0159546
843.531	0.0161021
843.609	0.0161577
843.687	0.0160661
843.765	0.0160259
843.843	0.0160574
843.921	0.0161541
843.999	0.0159135
844.078	0.0160638
844.156	0.0160657
844.234	0.0158739
844.312	0.0158920
844.390	0.0159779
844.468	0.0158080
844.546	0.0157472
844.624	0.0157274
844.703	0.0158102
844.781	0.0157998
844.859	0.0155357
844.937	0.0157409
845.015	0.0156599
845.093	0.0157260
845.171	0.0157228
845.249	0.0157114
845.328	0.0156422
845.406	0.0159032
845.484	0.0156667
845.562	0.0157823
845.640	0.0158752
845.718	0.0159984
845.796	0.0159029
845.874	0.0160620
845.953	0.0160909
846.031	0.0160487
846.109	0.0161807
846.187	0.0161298
846.265	0.0161746
846.343	0.0163011
846.421	0.0162640
846.499	0.0160426
846.578	0.0161339
846.656	0.0159398
846.734	0.0161262
846.812	0.0159866
846.890	0.0158643
846.968	0.0159167
847.046	0.0159395
847.124	0.0159405
847.203	0.0158667
847.281	0.0157365
847.359	0.0159308
847.437	0.0158206
847.515	0.0157542
847.593	0.0157560
847.671	0.0158189
847.749	0.0158532
847.828	0.0157565
847.906	0.0158776
847.984	0.0159212
848.062	0.0158379
848.140	0.0159342
848.218	0.0158357
848.296	0.0158004
848.374	0.0159704
848.453	0.0158333
848.531	0.0157963
848.609	0.0159375
848.687	0.0161118
848.765	0.0161076
848.843	0.0161327
848.921	0.0161467
848.999	0.0159711
849.078	0.0161510
849.156	0.0162118
849.234	0.0162109
849.312	0.0160645
849.390	0.0161398
849.468	0.0161384
849.546	0.0161042
849.624	0.0160535
849.703	0.0159135
849.781	0.0159566
849.859	0.0158066
849.937	0.0158099
850.015	0.0158565
850.093	0.0159874
850.171	0.0158026
850.249	0.0156347
850.328	0.0158200
850.406	0.0158806
850.484	0.0157880
850.562	0.0157728
850.640	0.0158144
850.718	0.0157936
850.796	0.0159456
850.874	0.0157527
850.953	0.0157951
851.031	0.0158597
851.109	0.0160017
851.187	0.0158661
851.265	0.0158868
851.343	0.0159169
851.421	0.0159396
851.499	0.0159497
851.578	0.0160660
851.656	0.0159328
851.734	0.0161925
851.812	0.0161774
851.890	0.0161667
851.968	0.0160764
852.046	0.0160510
852.124	0.0161896
852.203	0.0160338
852.281	0.0160853
852.359	0.0161958
852.437	0.0161504
852.515	0.0162627
852.593	0.0160722
852.671	0.0160661
852.749	0.0160371
852.828	0.0160575
852.906	0.0158143
852.984	0.0158618
853.062	0.0159779
853.140	0.0160446
853.218	0.0159380
853.296	0.0160329
853.374	0.0160270
853.453	0.0158707
853.531	0.0159604
853.609	0.0161017
853.687	0.0161138
853.765	0.0161765
853.843	0.0158849
853.921	0.0159338
853.999	0.0161146
854.078	0.0161401
854.156	0.0159903
854.234	0.0159929
854.312	0.0159842
854.390	0.0158972
854.468	0.0158813
854.546	0.0159232
854.624	0.0158526
854.703	0.0159146
854.781	0.0157857
854.859	0.0157298
854.937	0.0157100
855.015	0.0157822
855.093	0.0155361
855.171	0.0156609
855.249	0.0157080
855.328	0.0157774
855.406	0.0157169
855.484	0.0157885
855.562	0.0157296
855.640	0.0158632
855.718	0.0158444
855.796	0.0159398
855.874	0.0160289
855.953	0.0159900
856.031	0.0159326
856.109	0.0160475
856.187	0.0161416
856.265	0.0160788
856.343	0.0159624
856.421	0.0160676
856.499	0.0161098
856.578	0.0160892
856.656	0.0161335
856.734	0.0161714
856.812	0.0162222
856.890	0.0160837
856.968	0.0161370
857.046	0.0160958
857.124	0.0159534
857.203	0.0160192
857.281	0.0158716
857.359	0.0158794
857.437	0.0159512
857.515	0.0158700
857.593	0.0158572
857.671	0.0158383
857.749	0.0158423
857.828	0.0158012
857.906	0.0158623
857.984	0.0158961
858.062	0.0157538
858.140	0.0157629
858.218	0.0157082
858.296	0.0157916
858.374	0.0158506
858.453	0.0158614
858.531	0.0157433
858.609	0.0158898
858.687	0.0158974
858.765	0.0160349
858.843	0.0160745
858.921	0.0159991
858.999	0.0160208
859.078	0.0160818
859.156	0.0160120
859.234	0.0160001
859.312	0.0161210
859.390	0.0160073
859.468	0.0159619
859.546	0.0159821
859.624	0.0160841
859.703	0.0160401
859.781	0.0160471
859.859	0.0159546
859.937	0.0159981
860.015	0.0158895
860.093	0.0158885
860.171	0.0159496
860.249	0.0157842
860.328	0.0157778
860.406	0.0158380
860.484	0.0158362
860.562	0.0156400
860.640	0.0157254
860.718	0.0156130
860.796	0.0156308
860.874	0.0156678
860.953	0.0157555
861.031	0.0157111
861.109	0.0155700
861.187	0.0157712
861.265	0.0156746
861.343	0.0156400
861.421	0.0156814
861.499	0.0158370
861.578	0.0158597
861.656	0.0159676
861.734	0.0159515
861.812	0.0160129
861.890	0.0159563
861.968	0.0160902
862.046	0.0160507
862.124	0.0160031
862.203	0.0158787
862.281	0.0161412
862.359	0.0159727
862.437	0.0158350
862.515	0.0159277
862.593	0.0159837
862.671	0.0157849
862.749	0.0158032
862.828	0.0157424
862.906	0.0157901
862.984	0.0158356
863.062	0.0157177
863.140	0.0157442
863.218	0.0157281
863.296	0.0156480
863.374	0.0156454
863.453	0.0157069
863.531	0.0156413
863.609	0.0157444
863.687	0.0158221
863.765	0.0158939
863.843	0.0157242
863.921	0.0158295
863.999	0.0159296
864.078	0.0159608
864.156	0.0157353
864.234	0.0158846
864.312	0.0158755
864.390	0.0158403
864.468	0.0158228
864.546	0.0160160
864.624	0.0158986
864.703	0.0160285
864.781	0.0159882
864.859	0.0159669
864.937	0.0160032
865.015	0.0159557
865.093	0.0160152
865.171	0.0160016
865.249	0.0158892
865.328	0.0159965
865.406	0.0159776
865.484	0.0159075
865.562	0.0159080
865.640	0.0156997
865.718	0.0156249
865.796	0.0158701
865.874	0.0157188
865.953	0.0158650
866.031	0.0156213
866.109	0.0156630
866.187	0.0157996
866.265	0.0156141
866.343	0.0157581
866.421	0.0158166
866.499	0.0157513
866.578	0.0158291
866.656	0.0158273
866.734	0.0157108
866.812	0.0158901
866.890	0.0160320
866.968	0.0159489
867.046	0.0159785
867.124	0.0159974
867.203	0.0160263
867.281	0.0160558
867.359	0.0160711
867.437	0.0161288
867.515	0.0160007
867.593	0.0160128
867.671	0.0158231
867.749	0.0159138
867.828	0.0160294
867.906	0.0158943
867.984	0.0160872
868.062	0.0158066
868.140	0.0157568
868.218	0.0156724
868.296	0.0156817
868.374	0.0157375
868.453	0.0156733
868.531	0.0156831
868.609	0.0158788
868.687	0.0156713
868.765	0.0156763
868.843	0.0157464
868.921	0.0157079
868.999	0.0155986
869.078	0.0157733
869.156	0.0157212
869.234	0.0157327
869.312	0.0158737
869.390	0.0157782
869.468	0.0155879
869.546	0.0156375
869.624	0.0157034
869.703	0.0159251
869.781	0.0159105
869.859	0.0159331
869.937	0.0158958
870.015	0.0158219
870.093	0.0158630
870.171	0.0157977
870.249	0.0157880
870.328	0.0157285
870.406	0.0159078
870.484	0.0160084
870.562	0.0159687
870.640	0.0158716
870.718	0.0158102
870.796	0.0157737
870.874	0.0157798
870.953	0.0158189
871.031	0.0158673
871.109	0.0160020
871.187	0.0158807
871.265	0.0157243
871.343	0.0159107
871.421	0.0157858
871.499	0.0158866
871.578	0.0159244
871.656	0.0158701
871.734	0.0157177
871.812	0.0157507
871.890	0.0158134
871.968	0.0158521
872.046	0.0158882
872.124	0.0156782
872.203	0.0157452
872.281	0.0157510
872.359	0.0158257
872.437	0.0158307
872.515	0.0157840
872.593	0.0158672
872.671	0.0158781
872.749	0.0158546
872.828	0.0159747
872.906	0.0158282
872.984	0.0160558
873.062	0.0160307
873.140	0.0160195
873.218	0.0159628
873.296	0.0160219
873.374	0.0160337
873.453	0.0160876
873.531	0.0159912
873.609	0.0160271
873.687	0.0159160
873.765	0.0159750
873.843	0.0159608
873.921	0.0159382
873.999	0.0160176
874.078	0.0157349
874.156	0.0160082
874.234	0.0158846
874.312	0.0158067
874.390	0.0157402
874.468	0.0157661
874.546	0.0157889
874.624	0.0157462
874.703	0.0156909
874.781	0.0156773
874.859	0.0157442
874.937	0.0158062
875.015	0.0157006
875.093	0.0157723
875.171	0.0158993
875.249	0.0157240
875.328	0.0158761
875.406	0.0158508
875.484	0.0157760
875.562	0.0158855
875.640	0.0157400
875.718	0.0157755
875.796	0.0157741
875.874	0.0157663
875.953	0.0157338
876.031	0.0157726
876.109	0.0158819
876.187	0.0158106
876.265	0.0159135
876.343	0.0158437
876.421	0.0159044
876.499	0.0158550
876.578	0.0159606
876.656	0.0158657
876.734	0.0159225
876.812	0.0158727
876.890	0.0159370
876.968	0.0158356
877.046	0.0158547
877.124	0.0159473
877.203	0.0158294
877.281	0.0159348
877.359	0.0159108
877.437	0.0158670
877.515	0.0159198
877.593	0.0159450
877.671	0.0158222
877.749	0.0158811
877.828	0.0158535
877.906	0.0158976
877.984	0.0158647
878.062	0.0158202
878.140	0.0158967
878.218	0.0158781
878.296	0.0158894
878.374	0.0159718
878.453	0.0159130
878.531	0.0159315
878.609	0.0158609
878.687	0.0159157
878.765	0.0160559
878.843	0.0158642
878.921	0.0159064
878.999	0.0158891
879.078	0.0159179
879.156	0.0158871
879.234	0.0160300
879.312	0.0159885
879.390	0.0159214
879.468	0.0158579
879.546	0.0157733
879.624	0.0158217
879.703	0.0157899
879.781	0.0157714
879.859	0.0156343
879.937	0.0155830
880.015	0.0156928
880.093	0.0157872
880.171	0.0157751
880.249	0.0157084
880.328	0.0156133
880.406	0.0157394
880.484	0.0157808
880.562	0.0158233
880.640	0.0157388
880.718	0.0156806
880.796	0.0157845
880.874	0.0156931
880.953	0.0158567
881.031	0.0156913
881.109	0.0158585
881.187	0.0158936
881.265	0.0158151
881.343	0.0159196
881.421	0.0158212
881.499	0.0158315
881.578	0.0158059
881.656	0.0156509
881.734	0.0157288
881.812	0.0159081
881.890	0.0156772
881.968	0.0158483
882.046	0.0157930
882.124	0.0156964
882.203	0.0156042
882.281	0.0157338
882.359	0.0158196
882.437	0.0157283
882.515	0.0158401
882.593	0.0158788
882.671	0.0157140
882.749	0.0157502
882.828	0.0156818
882.906	0.0156983
882.984	0.0156895
883.062	0.0157990
883.140	0.0157776
883.218	0.0157808
883.296	0.0158567
883.374	0.0157150
883.453	0.0158956
883.531	0.0159573
883.609	0.0158644
883.687	0.0159924
883.765	0.0159166
883.843	0.0160322
883.921	0.0158711
883.999	0.0159068
884.078	0.0157973
884.156	0.0158976
884.234	0.0160013
884.312	0.0160236
884.390	0.0159505
884.468	0.0159581
884.546	0.0160253
884.624	0.0159966
884.703	0.0158839
884.781	0.0159714
884.859	0.0159213
884.937	0.0159269
885.015	0.0158115
885.093	0.0157968
885.171	0.0158912
885.249	0.0159224
885.328	0.0158923
885.406	0.0157199
885.484	0.0158095
885.562	0.0158224
885.640	0.0157755
885.718	0.0155852
885.796	0.0157133
885.874	0.0156734
885.953	0.0157519
886.031	0.0159105
886.109	0.0156904
886.187	0.0156577
886.265	0.0156787
886.343	0.0156770
886.421	0.0156443
886.499	0.0157275
886.578	0.0158120
886.656	0.0156100
886.734	0.0155412
886.812	0.0156588
886.890	0.0156815
886.968	0.0157350
887.046	0.0157939
887.124	0.0158629
887.203	0.0158311
887.281	0.0157784
887.359	0.0158730
887.437	0.0158205
887.515	0.0158786
887.593	0.0158964
887.671	0.0159028
887.749	0.0158808
887.828	0.0160387
887.906	0.0157672
887.984	0.0158286
888.062	0.0159087
888.140	0.0159756
888.218	0.0161672
888.296	0.0160149
888.374	0.0159073
888.453	0.0160803
888.531	0.0158322
888.609	0.0160891
888.687	0.0159874
888.765	0.0158525
888.843	0.0161071
888.921	0.0159243
888.999	0.0158591
889.078	0.0160387
889.156	0.0160561
889.234	0.0160733
889.312	0.0159003
889.390	0.0159292
889.468	0.0157856
889.546	0.0157867
889.624	0.0157710
889.703	0.0157647
889.781	0.0157632
889.859	0.0159012
889.937	0.0157669
890.015	0.0157009
890.093	0.0156672
890.171	0.0157206
890.249	0.0156560
890.328	0.0157755
890.406	0.0157845
890.484	0.0158490
890.562	0.0157761
890.640	0.0157143
890.718	0.0157833
890.796	0.0158331
890.874	0.0158739
890.953	0.0159212
891.031	0.0158779
891.109	0.0159835
891.187	0.0159178
891.265	0.0157137
891.343	0.0157758
891.421	0.0159306
891.499	0.0161365
891.578	0.0158974
891.656	0.0159696
891.734	0.0157235
891.812	0.0158156
891.890	0.0159419
891.968	0.0157988
892.046	0.0159520
892.124	0.0158152
892.203	0.0159033
892.281	0.0158447
892.359	0.0157634
892.437	0.0158202
892.515	0.0157410
892.593	0.0157351
892.671	0.0158836
892.749	0.0157876
892.828	0.0159060
892.906	0.0157670
892.984	0.0159933
893.062	0.0158394
893.140	0.0156668
893.218	0.0159159
893.296	0.0159684
893.374	0.0157644
893.453	0.0159698
893.531	0.0160115
893.609	0.0159626
893.687	0.0158393
893.765	0.0159433
893.843	0.0159394
893.921	0.0158030
893.999	0.0159509
894.078	0.0159034
894.156	0.0159227
894.234	0.0159921
894.312	0.0159341
894.390	0.0159235
894.468	0.0157526
894.546	0.0161620
894.624	0.0158265
894.703	0.0157809
894.781	0.0158096
894.859	0.0157209
894.937	0.0158808
895.015	0.0159456
895.093	0.0159187
895.171	0.0159004
895.249	0.0158871
895.328	0.0159769
895.406	0.0159830
895.484	0.0157414
895.562	0.0158474
895.640	0.0158471
895.718	0.0159259
895.796	0.0159349
895.874	0.0159547
895.953	0.0159521
896.031	0.0159524
896.109	0.0159602
896.187	0.0159719
896.265	0.0160048
896.343	0.0160078
896.421	0.0160110
896.499	0.0160956
896.578	0.0160008
896.656	0.0160504
896.734	0.0159858
896.812	0.0160560
896.890	0.0160217
896.968	0.0158952
897.046	0.0159042
897.124	0.0157800
897.203	0.0158193
897.281	0.0159203
897.359	0.0159248
897.437	0.0158412
897.515	0.0157260
897.593	0.0158001
897.671	0.0158279
897.749	0.0157247
897.828	0.0158492
897.906	0.0156958
897.984	0.0156817
898.062	0.0158099
898.140	0.0157492
898.218	0.0157638
898.296	0.0156535
898.374	0.0157587
898.453	0.0157804
898.531	0.0158685
898.609	0.0157957
898.687	0.0157309
898.765	0.0158418
898.843	0.0159928
898.921	0.0158518
898.999	0.0158148
899.078	0.0159218
899.156	0.0159594
899.234	0.0157990
899.312	0.0158650
899.390	0.0159293
899.468	0.0160307
899.546	0.0160511
899.624	0.0160239
899.703	0.0159887
899.781	0.0159522
899.859	0.0159749
899.937	0.0160149
900.015	0.0158861
900.093	0.0159103
900.171	0.0159756
900.249	0.0158523
900.328	0.0159355
900.406	0.0157993
900.484	0.0158549
900.562	0.0159530
900.640	0.0157683
900.718	0.0158450
900.796	0.0157978
900.874	0.0158047
900.953	0.0158811
901.031	0.0156971
901.109	0.0157700
901.187	0.0158320
901.265	0.0158099
901.343	0.0157102
901.421	0.0158027
901.499	0.0157630
901.578	0.0157578
901.656	0.0158105
901.734	0.0157458
901.812	0.0156864
901.890	0.0158279
901.968	0.0158984
902.046	0.0157800
902.124	0.0158116
902.203	0.0156784
902.281	0.0157674
902.359	0.0158389
902.437	0.0158118
902.515	0.0156378
902.593	0.0155323
902.671	0.0156866
902.749	0.0156490
902.828	0.0155203
902.906	0.0155429
902.984	0.0155151
903.062	0.0155939
903.140	0.0156081
903.218	0.0157081
903.296	0.0154909
903.374	0.0155608
903.453	0.0155669
903.531	0.0156051
903.609	0.0157064
903.687	0.0156159
903.765	0.0156064
903.843	0.0156410
903.921	0.0156017
903.999	0.0156927
904.078	0.0157625
904.156	0.0158800
904.234	0.0158402
904.312	0.0157185
904.390	0.0158459
904.468	0.0158983
904.546	0.0159270
904.624	0.0159457
904.703	0.0160342
904.781	0.0158176
904.859	0.0158975
904.937	0.0160343
905.015	0.0159213
905.093	0.0159299
905.171	0.0159219
905.249	0.0157445
905.328	0.0158002
905.406	0.0159680
905.484	0.0159521
905.562	0.0158335
905.640	0.0159061
905.718	0.0159254
905.796	0.0158793
905.874	0.0159366
905.953	0.0159223
906.031	0.0158179
906.109	0.0158837
906.187	0.0158998
906.265	0.0159414
906.343	0.0159528
906.421	0.0159250
906.499	0.0157668
906.578	0.0158405
906.656	0.0158854
906.734	0.0158052
906.812	0.0157859
906.890	0.0158104
906.968	0.0159257
907.046	0.0159555
907.124	0.0157558
907.203	0.0158025
907.281	0.0157858
907.359	0.0157742
907.437	0.0157652
907.515	0.0158530
907.593	0.0158237
907.671	0.0157471
907.749	0.0159144
907.828	0.0157551
907.906	0.0158969
907.984	0.0157449
908.062	0.0158241
908.140	0.0157793
908.218	0.0159348
908.296	0.0159517
908.374	0.0158472
908.453	0.0158113
908.531	0.0159085
908.609	0.0159942
908.687	0.0159732
908.765	0.0159949
908.843	0.0159220
908.921	0.0157749
908.999	0.0159439
909.078	0.0160161
909.156	0.0159165
909.234	0.0157871
909.312	0.0158869
909.390	0.0158906
909.468	0.0157757
909.546	0.0158810
909.624	0.0157683
909.703	0.0159066
909.781	0.0156796
909.859	0.0157661
909.937	0.0158524
910.015	0.0158120
910.093	0.0158022
910.171	0.0158303
910.249	0.0159038
910.328	0.0159008
910.406	0.0158411
910.484	0.0159304
910.562	0.0159963
910.640	0.0161353
910.718	0.0160102
910.796	0.0160732
910.874	0.0161097
910.953	0.0161823
911.031	0.0160191
911.109	0.0160053
911.187	0.0160706
911.265	0.0162039
911.343	0.0159980
911.421	0.0160322
911.499	0.0160386
911.578	0.0160882
911.656	0.0159552
911.734	0.0160207
911.812	0.0161436
911.890	0.0160810
911.968	0.0159595
912.046	0.0159226
912.124	0.0160606
912.203	0.0160074
912.281	0.0159613
912.359	0.0158785
912.437	0.0159814
912.515	0.0158947
912.593	0.0158833
912.671	0.0158430
912.749	0.0158514
912.828	0.0159446
912.906	0.0158636
912.984	0.0158957
913.062	0.0159272
913.140	0.0157645
913.218	0.0159026
913.296	0.0160965
913.374	0.0158787
913.453	0.0156665
913.531	0.0158196
913.609	0.0157602
913.687	0.0157883
913.765	0.0157878
913.843	0.0157886
913.921	0.0158518
913.999	0.0156364
914.078	0.0156601
914.156	0.0157365
914.234	0.0157691
914.312	0.0157355
914.390	0.0156656
914.468	0.0156574
914.546	0.0157835
914.624	0.0158974
914.703	0.0159560
914.781	0.0157536
914.859	0.0159174
914.937	0.0160842
915.015	0.0159109
915.093	0.0157712
915.171	0.0159564
915.249	0.0159106
915.328	0.0158824
915.406	0.0158805
915.484	0.0158942
915.562	0.0158083
915.640	0.0158601
915.718	0.0158933
915.796	0.0159650
915.874	0.0159418
915.953	0.0158152
916.031	0.0157845
916.109	0.0159399
916.187	0.0159673
916.265	0.0158975
916.343	0.0158003
916.421	0.0159329
916.499	0.0159413
916.578	0.0159311
916.656	0.0158733
916.734	0.0160582
916.812	0.0160481
916.890	0.0160202
916.968	0.0160439
917.046	0.0160529
917.124	0.0160400
917.203	0.0160284
917.281	0.0160780
917.359	0.0159675
917.437	0.0158574
917.515	0.0159222
917.593	0.0159521
917.671	0.0159841
917.749	0.0158298
917.828	0.0158527
917.906	0.0159157
917.984	0.0159720
918.062	0.0159149
918.140	0.0158887
918.218	0.0157926
918.296	0.0160320
918.374	0.0157691
918.453	0.0159045
918.531	0.0160078
918.609	0.0158691
918.687	0.0159200
918.765	0.0160348
918.843	0.0159122
918.921	0.0159136
918.999	0.0159766
919.078	0.0159901
919.156	0.0158649
919.234	0.0159470
919.312	0.0160136
919.390	0.0158688
919.468	0.0159376
919.546	0.0158635
919.624	0.0158482
919.703	0.0157421
919.781	0.0158209
919.859	0.0158061
919.937	0.0157404
