06/10/2022	16:41:13	Ver.	4.1	UNKNOWN
Optical Delay	600.015094	Delta X		0.078125	Sweeps	1	Scan Rate	0/0
Coordinates	Axis 1	NaN	Axis 2	NaN	Axis 3	NaN	Axis 4	NaN	Axis 5	NaN	Axis 6	0.000000
TX Power	0.000000	RX Power	0.000000

600.015	0.0160600
600.093	0.0160271
600.171	0.0160895
600.249	0.0160664
600.328	0.0161027
600.406	0.0160667
600.484	0.0160789
600.562	0.0159819
600.640	0.0160250
600.718	0.0160728
600.796	0.0160756
600.874	0.0160224
600.953	0.0160052
601.031	0.0159651
601.109	0.0160320
601.187	0.0160637
601.265	0.0160355
601.343	0.0160213
601.421	0.0159361
601.499	0.0158970
601.578	0.0160300
601.656	0.0159521
601.734	0.0158670
601.812	0.0159750
601.890	0.0158900
601.968	0.0158941
602.046	0.0159989
602.124	0.0159748
602.203	0.0159333
602.281	0.0159124
602.359	0.0158987
602.437	0.0159469
602.515	0.0160485
602.593	0.0159101
602.671	0.0160213
602.749	0.0159360
602.828	0.0160576
602.906	0.0160003
602.984	0.0158569
603.062	0.0158129
603.140	0.0158298
603.218	0.0158367
603.296	0.0158593
603.374	0.0158440
603.453	0.0160115
603.531	0.0160483
603.609	0.0158260
603.687	0.0159540
603.765	0.0158770
603.843	0.0159090
603.921	0.0159184
603.999	0.0158848
604.078	0.0159096
604.156	0.0158051
604.234	0.0158591
604.312	0.0159639
604.390	0.0158381
604.468	0.0159913
604.546	0.0160217
604.624	0.0158582
604.703	0.0158507
604.781	0.0159802
604.859	0.0159174
604.937	0.0158693
605.015	0.0158874
605.093	0.0158070
605.171	0.0158783
605.249	0.0158120
605.328	0.0158702
605.406	0.0157964
605.484	0.0159699
605.562	0.0158620
605.640	0.0158855
605.718	0.0158969
605.796	0.0157797
605.874	0.0157941
605.953	0.0158884
606.031	0.0159821
606.109	0.0159392
606.187	0.0159204
606.265	0.0159142
606.343	0.0157994
606.421	0.0159820
606.499	0.0158492
606.578	0.0159454
606.656	0.0159944
606.734	0.0159123
606.812	0.0159949
606.890	0.0158913
606.968	0.0160171
607.046	0.0159405
607.124	0.0159911
607.203	0.0159234
607.281	0.0159843
607.359	0.0159868
607.437	0.0160229
607.515	0.0159775
607.593	0.0159172
607.671	0.0160860
607.749	0.0159548
607.828	0.0159211
607.906	0.0159370
607.984	0.0160038
608.062	0.0159404
608.140	0.0158574
608.218	0.0160207
608.296	0.0161127
608.374	0.0160314
608.453	0.0159322
608.531	0.0159431
608.609	0.0158743
608.687	0.0158978
608.765	0.0160603
608.843	0.0160385
608.921	0.0158780
608.999	0.0158870
609.078	0.0159406
609.156	0.0160426
609.234	0.0160921
609.312	0.0160902
609.390	0.0159808
609.468	0.0159390
609.546	0.0159334
609.624	0.0159238
609.703	0.0159218
609.781	0.0160133
609.859	0.0159921
609.937	0.0157132
610.015	0.0159015
610.093	0.0161152
610.171	0.0160027
610.249	0.0160902
610.328	0.0160340
610.406	0.0159911
610.484	0.0158966
610.562	0.0159156
610.640	0.0159481
610.718	0.0158784
610.796	0.0157612
610.874	0.0160153
610.953	0.0160398
611.031	0.0159773
611.109	0.0159136
611.187	0.0159831
611.265	0.0158822
611.343	0.0159601
611.421	0.0160477
611.499	0.0160626
611.578	0.0159412
611.656	0.0159655
611.734	0.0159232
611.812	0.0160138
611.890	0.0158736
611.968	0.0160498
612.046	0.0160727
612.124	0.0159512
612.203	0.0160131
612.281	0.0159136
612.359	0.0159991
612.437	0.0158582
612.515	0.0159137
612.593	0.0158860
612.671	0.0159532
612.749	0.0160670
612.828	0.0160454
612.906	0.0159474
612.984	0.0159898
613.062	0.0160300
613.140	0.0161037
613.218	0.0160294
613.296	0.0159795
613.374	0.0160515
613.453	0.0159045
613.531	0.0160777
613.609	0.0161239
613.687	0.0160630
613.765	0.0160883
613.843	0.0160069
613.921	0.0159559
613.999	0.0160410
614.078	0.0159959
614.156	0.0159344
614.234	0.0160403
614.312	0.0159188
614.390	0.0160702
614.468	0.0159051
614.546	0.0160122
614.624	0.0159221
614.703	0.0160562
614.781	0.0159824
614.859	0.0159940
614.937	0.0159692
615.015	0.0158792
615.093	0.0160130
615.171	0.0159405
615.249	0.0159064
615.328	0.0159703
615.406	0.0159229
615.484	0.0159911
615.562	0.0160250
615.640	0.0159385
615.718	0.0159418
615.796	0.0159731
615.874	0.0160033
615.953	0.0160545
616.031	0.0160062
616.109	0.0161455
616.187	0.0160886
616.265	0.0158925
616.343	0.0160599
616.421	0.0159485
616.499	0.0159492
616.578	0.0159630
616.656	0.0160378
616.734	0.0159940
616.812	0.0159438
616.890	0.0160349
616.968	0.0161188
617.046	0.0160993
617.124	0.0160754
617.203	0.0160451
617.281	0.0161100
617.359	0.0160668
617.437	0.0161427
617.515	0.0160670
617.593	0.0160563
617.671	0.0161539
617.749	0.0159586
617.828	0.0159936
617.906	0.0161733
617.984	0.0159434
618.062	0.0161491
618.140	0.0161044
618.218	0.0160720
618.296	0.0159961
618.374	0.0160778
618.453	0.0161077
618.531	0.0161743
618.609	0.0161042
618.687	0.0159621
618.765	0.0159731
618.843	0.0161382
618.921	0.0160978
618.999	0.0159987
619.078	0.0161085
619.156	0.0160877
619.234	0.0160333
619.312	0.0161250
619.390	0.0161301
619.468	0.0161417
619.546	0.0161076
619.624	0.0160524
619.703	0.0161101
619.781	0.0161155
619.859	0.0160220
619.937	0.0161474
620.015	0.0161510
620.093	0.0160889
620.171	0.0160164
620.249	0.0161257
620.328	0.0160805
620.406	0.0161391
620.484	0.0160086
620.562	0.0160463
620.640	0.0162177
620.718	0.0162248
620.796	0.0159911
620.874	0.0159092
620.953	0.0159468
621.031	0.0162154
621.109	0.0161715
621.187	0.0159669
621.265	0.0160725
621.343	0.0160539
621.421	0.0161245
621.499	0.0159817
621.578	0.0160469
621.656	0.0160860
621.734	0.0160691
621.812	0.0159984
621.890	0.0161119
621.968	0.0160133
622.046	0.0159750
622.124	0.0160658
622.203	0.0160344
622.281	0.0158986
622.359	0.0160503
622.437	0.0159634
622.515	0.0159347
622.593	0.0159736
622.671	0.0160108
622.749	0.0159920
622.828	0.0159425
622.906	0.0158792
622.984	0.0159969
623.062	0.0160499
623.140	0.0159995
623.218	0.0159254
623.296	0.0158762
623.374	0.0160338
623.453	0.0159245
623.531	0.0158977
623.609	0.0160277
623.687	0.0160438
623.765	0.0161290
623.843	0.0159965
623.921	0.0158179
623.999	0.0159858
624.078	0.0160133
624.156	0.0157874
624.234	0.0159233
624.312	0.0159254
624.390	0.0158759
624.468	0.0158588
624.546	0.0160891
624.624	0.0159818
624.703	0.0159314
624.781	0.0158216
624.859	0.0158694
624.937	0.0158419
625.015	0.0158482
625.093	0.0159267
625.171	0.0160063
625.249	0.0158874
625.328	0.0158841
625.406	0.0157847
625.484	0.0159515
625.562	0.0159461
625.640	0.0158872
625.718	0.0158820
625.796	0.0157224
625.874	0.0158105
625.953	0.0159065
626.031	0.0159436
626.109	0.0157280
626.187	0.0157893
626.265	0.0158143
626.343	0.0158331
626.421	0.0158521
626.499	0.0158301
626.578	0.0158237
626.656	0.0158696
626.734	0.0158886
626.812	0.0159402
626.890	0.0158472
626.968	0.0157892
627.046	0.0158027
627.124	0.0159125
627.203	0.0158060
627.281	0.0157225
627.359	0.0158471
627.437	0.0158546
627.515	0.0157851
627.593	0.0158507
627.671	0.0157980
627.749	0.0157542
627.828	0.0158421
627.906	0.0157123
627.984	0.0157078
628.062	0.0157095
628.140	0.0157944
628.218	0.0157153
628.296	0.0158154
628.374	0.0158479
628.453	0.0158472
628.531	0.0157196
628.609	0.0159126
628.687	0.0158904
628.765	0.0158222
628.843	0.0158303
628.921	0.0158099
628.999	0.0159126
629.078	0.0158064
629.156	0.0158381
629.234	0.0158191
629.312	0.0160030
629.390	0.0158963
629.468	0.0158032
629.546	0.0157643
629.624	0.0158779
629.703	0.0159583
629.781	0.0158028
629.859	0.0158072
629.937	0.0158956
630.015	0.0160313
630.093	0.0158527
630.171	0.0159692
630.249	0.0158936
630.328	0.0158952
630.406	0.0158820
630.484	0.0159178
630.562	0.0158324
630.640	0.0158181
630.718	0.0160716
630.796	0.0158812
630.874	0.0158778
630.953	0.0158791
631.031	0.0158679
631.109	0.0159881
631.187	0.0159134
631.265	0.0158466
631.343	0.0159970
631.421	0.0159915
631.499	0.0158351
631.578	0.0158060
631.656	0.0159678
631.734	0.0159017
631.812	0.0156940
631.890	0.0159612
631.968	0.0159539
632.046	0.0159169
632.124	0.0158128
632.203	0.0157422
632.281	0.0158963
632.359	0.0160330
632.437	0.0160013
632.515	0.0158788
632.593	0.0159105
632.671	0.0159947
632.749	0.0158379
632.828	0.0159946
632.906	0.0158508
632.984	0.0158678
633.062	0.0159429
633.140	0.0159717
633.218	0.0159972
633.296	0.0159294
633.374	0.0159605
633.453	0.0158020
633.531	0.0159829
633.609	0.0160174
633.687	0.0158297
633.765	0.0159373
633.843	0.0158887
633.921	0.0158916
633.999	0.0158469
634.078	0.0158372
634.156	0.0158818
634.234	0.0159322
634.312	0.0158692
634.390	0.0159661
634.468	0.0159628
634.546	0.0159909
634.624	0.0159023
634.703	0.0159750
634.781	0.0158961
634.859	0.0159871
634.937	0.0158534
635.015	0.0159116
635.093	0.0158336
635.171	0.0158505
635.249	0.0159520
635.328	0.0159288
635.406	0.0158614
635.484	0.0159291
635.562	0.0159608
635.640	0.0158828
635.718	0.0159814
635.796	0.0159494
635.874	0.0159016
635.953	0.0158849
636.031	0.0159750
636.109	0.0159311
636.187	0.0158607
636.265	0.0158884
636.343	0.0160537
636.421	0.0159019
636.499	0.0159767
636.578	0.0159192
636.656	0.0159234
636.734	0.0160171
636.812	0.0158679
636.890	0.0157938
636.968	0.0159149
637.046	0.0159373
637.124	0.0158791
637.203	0.0159779
637.281	0.0159467
637.359	0.0157807
637.437	0.0158189
637.515	0.0158566
637.593	0.0158070
637.671	0.0158858
637.749	0.0159099
637.828	0.0159402
637.906	0.0158390
637.984	0.0159321
638.062	0.0158379
638.140	0.0158730
638.218	0.0158842
638.296	0.0159520
638.374	0.0160164
638.453	0.0160958
638.531	0.0160429
638.609	0.0159395
638.687	0.0160027
638.765	0.0160354
638.843	0.0159936
638.921	0.0159451
638.999	0.0159551
639.078	0.0160298
639.156	0.0159871
639.234	0.0159998
639.312	0.0160955
639.390	0.0160730
639.468	0.0160092
639.546	0.0160901
639.624	0.0160596
639.703	0.0160722
639.781	0.0158847
639.859	0.0160011
639.937	0.0160895
640.015	0.0159362
640.093	0.0160978
640.171	0.0160128
640.249	0.0160780
640.328	0.0159058
640.406	0.0159663
640.484	0.0160519
640.562	0.0160196
640.640	0.0160449
640.718	0.0160355
640.796	0.0160002
640.874	0.0161170
640.953	0.0160835
641.031	0.0160928
641.109	0.0161391
641.187	0.0160677
641.265	0.0160231
641.343	0.0160686
641.421	0.0161240
641.499	0.0160986
641.578	0.0160288
641.656	0.0160783
641.734	0.0158906
641.812	0.0160677
641.890	0.0160089
641.968	0.0159969
642.046	0.0161739
642.124	0.0161319
642.203	0.0159491
642.281	0.0160492
642.359	0.0159998
642.437	0.0160937
642.515	0.0159922
642.593	0.0162245
642.671	0.0161388
642.749	0.0161028
642.828	0.0160453
642.906	0.0161916
642.984	0.0160274
643.062	0.0159843
643.140	0.0161537
643.218	0.0161334
643.296	0.0159801
643.374	0.0160851
643.453	0.0160949
643.531	0.0160226
643.609	0.0159774
643.687	0.0161476
643.765	0.0161168
643.843	0.0161174
643.921	0.0160697
643.999	0.0162070
644.078	0.0160411
644.156	0.0160118
644.234	0.0160249
644.312	0.0160688
644.390	0.0162155
644.468	0.0160885
644.546	0.0161095
644.624	0.0159898
644.703	0.0161157
644.781	0.0159946
644.859	0.0159856
644.937	0.0161274
645.015	0.0160728
645.093	0.0159729
645.171	0.0159071
645.249	0.0158337
645.328	0.0161864
645.406	0.0159187
645.484	0.0159357
645.562	0.0161014
645.640	0.0161393
645.718	0.0160201
645.796	0.0160348
645.874	0.0161926
645.953	0.0160298
646.031	0.0159582
646.109	0.0160310
646.187	0.0160729
646.265	0.0159522
646.343	0.0159464
646.421	0.0160037
646.499	0.0160143
646.578	0.0159400
646.656	0.0160353
646.734	0.0160164
646.812	0.0160947
646.890	0.0160201
646.968	0.0159531
647.046	0.0160782
647.124	0.0158118
647.203	0.0157754
647.281	0.0159601
647.359	0.0159672
647.437	0.0159338
647.515	0.0158357
647.593	0.0160096
647.671	0.0158151
647.749	0.0159406
647.828	0.0158630
647.906	0.0160149
647.984	0.0159120
648.062	0.0157690
648.140	0.0159238
648.218	0.0158398
648.296	0.0159144
648.374	0.0158483
648.453	0.0157954
648.531	0.0159760
648.609	0.0158817
648.687	0.0159373
648.765	0.0157536
648.843	0.0158624
648.921	0.0158972
648.999	0.0158055
649.078	0.0159743
649.156	0.0159660
649.234	0.0157522
649.312	0.0158548
649.390	0.0159341
649.468	0.0159860
649.546	0.0159587
649.624	0.0160077
649.703	0.0160660
649.781	0.0158257
649.859	0.0158444
649.937	0.0159164
650.015	0.0159890
650.093	0.0159557
650.171	0.0159861
650.249	0.0159937
650.328	0.0159708
650.406	0.0157669
650.484	0.0159789
650.562	0.0158340
650.640	0.0156620
650.718	0.0158299
650.796	0.0158958
650.874	0.0158330
650.953	0.0159217
651.031	0.0158755
651.109	0.0158762
651.187	0.0157647
651.265	0.0158344
651.343	0.0157858
651.421	0.0158052
651.499	0.0159203
651.578	0.0158570
651.656	0.0158258
651.734	0.0159566
651.812	0.0160221
651.890	0.0158054
651.968	0.0157510
652.046	0.0158969
652.124	0.0158575
652.203	0.0158834
652.281	0.0159118
652.359	0.0159260
652.437	0.0158469
652.515	0.0157488
652.593	0.0160103
652.671	0.0159466
652.749	0.0157323
652.828	0.0158823
652.906	0.0159518
652.984	0.0160322
653.062	0.0159130
653.140	0.0158617
653.218	0.0159077
653.296	0.0161382
653.374	0.0160468
653.453	0.0160202
653.531	0.0159103
653.609	0.0160504
653.687	0.0159667
653.765	0.0160439
653.843	0.0159781
653.921	0.0159164
653.999	0.0158899
654.078	0.0158065
654.156	0.0160259
654.234	0.0159992
654.312	0.0160043
654.390	0.0157838
654.468	0.0158440
654.546	0.0159690
654.624	0.0159184
654.703	0.0158788
654.781	0.0158461
654.859	0.0159555
654.937	0.0159598
655.015	0.0159435
655.093	0.0159944
655.171	0.0159860
655.249	0.0158408
655.328	0.0161739
655.406	0.0159183
655.484	0.0157997
655.562	0.0160004
655.640	0.0159756
655.718	0.0159457
655.796	0.0160278
655.874	0.0160758
655.953	0.0158836
656.031	0.0159854
656.109	0.0160148
656.187	0.0160655
656.265	0.0159516
656.343	0.0159007
656.421	0.0159177
656.499	0.0159859
656.578	0.0157797
656.656	0.0159969
656.734	0.0159827
656.812	0.0158771
656.890	0.0159323
656.968	0.0159666
657.046	0.0160365
657.124	0.0159180
657.203	0.0158411
657.281	0.0159822
657.359	0.0158865
657.437	0.0159230
657.515	0.0159525
657.593	0.0159332
657.671	0.0158880
657.749	0.0161066
657.828	0.0160079
657.906	0.0160725
657.984	0.0159163
658.062	0.0160359
658.140	0.0158565
658.218	0.0157960
658.296	0.0159135
658.374	0.0158904
658.453	0.0160827
658.531	0.0160162
658.609	0.0158880
658.687	0.0160014
658.765	0.0161079
658.843	0.0159755
658.921	0.0158347
658.999	0.0159177
659.078	0.0159383
659.156	0.0160397
659.234	0.0158522
659.312	0.0158601
659.390	0.0159996
659.468	0.0158652
659.546	0.0160030
659.624	0.0159200
659.703	0.0159911
659.781	0.0160940
659.859	0.0160397
659.937	0.0159493
660.015	0.0158170
660.093	0.0159750
660.171	0.0160090
660.249	0.0159565
660.328	0.0160258
660.406	0.0160188
660.484	0.0159393
660.562	0.0159760
660.640	0.0158833
660.718	0.0160873
660.796	0.0160811
660.874	0.0160647
660.953	0.0159721
661.031	0.0158706
661.109	0.0160275
661.187	0.0159678
661.265	0.0159953
661.343	0.0159869
661.421	0.0159519
661.499	0.0159978
661.578	0.0159615
661.656	0.0160386
661.734	0.0159406
661.812	0.0160831
661.890	0.0161274
661.968	0.0160222
662.046	0.0159200
662.124	0.0160325
662.203	0.0160809
662.281	0.0159837
662.359	0.0159619
662.437	0.0160065
662.515	0.0160497
662.593	0.0159682
662.671	0.0160612
662.749	0.0161467
662.828	0.0160455
662.906	0.0160171
662.984	0.0159869
663.062	0.0160941
663.140	0.0161143
663.218	0.0160857
663.296	0.0160587
663.374	0.0160038
663.453	0.0160739
663.531	0.0159515
663.609	0.0159970
663.687	0.0161244
663.765	0.0160674
663.843	0.0160402
663.921	0.0160593
663.999	0.0160798
664.078	0.0159467
664.156	0.0160502
664.234	0.0161214
664.312	0.0160572
664.390	0.0159913
664.468	0.0159801
664.546	0.0160981
664.624	0.0159801
664.703	0.0161587
664.781	0.0160299
664.859	0.0161236
664.937	0.0161421
665.015	0.0161572
665.093	0.0159630
665.171	0.0160883
665.249	0.0162492
665.328	0.0160509
665.406	0.0162154
665.484	0.0161869
665.562	0.0160991
665.640	0.0160141
665.718	0.0161556
665.796	0.0160243
665.874	0.0161820
665.953	0.0161263
666.031	0.0159509
666.109	0.0159477
666.187	0.0160847
666.265	0.0160056
666.343	0.0159889
666.421	0.0160869
666.499	0.0159368
666.578	0.0160526
666.656	0.0161623
666.734	0.0159877
666.812	0.0160948
666.890	0.0161404
666.968	0.0161198
667.046	0.0160092
667.124	0.0158958
667.203	0.0161437
667.281	0.0159242
667.359	0.0160730
667.437	0.0161978
667.515	0.0160601
667.593	0.0160346
667.671	0.0160919
667.749	0.0160130
667.828	0.0160012
667.906	0.0159316
667.984	0.0159698
668.062	0.0160877
668.140	0.0159345
668.218	0.0161073
668.296	0.0159142
668.374	0.0159241
668.453	0.0159512
668.531	0.0158928
668.609	0.0158039
668.687	0.0160019
668.765	0.0160162
668.843	0.0160938
668.921	0.0159621
668.999	0.0158601
669.078	0.0160346
669.156	0.0160111
669.234	0.0160646
669.312	0.0161396
669.390	0.0159285
669.468	0.0159991
669.546	0.0159518
669.624	0.0160906
669.703	0.0160669
669.781	0.0159789
669.859	0.0159679
669.937	0.0159387
670.015	0.0159829
670.093	0.0161678
670.171	0.0160070
670.249	0.0160947
670.328	0.0159497
670.406	0.0161012
670.484	0.0160806
670.562	0.0159783
670.640	0.0161098
670.718	0.0162130
670.796	0.0159715
670.874	0.0160986
670.953	0.0159930
671.031	0.0160014
671.109	0.0160723
671.187	0.0162086
671.265	0.0159844
671.343	0.0159339
671.421	0.0160043
671.499	0.0160050
671.578	0.0159605
671.656	0.0159076
671.734	0.0160442
671.812	0.0160063
671.890	0.0159863
671.968	0.0159711
672.046	0.0159978
672.124	0.0160759
672.203	0.0160456
672.281	0.0159653
672.359	0.0158563
672.437	0.0159694
672.515	0.0160360
672.593	0.0159809
672.671	0.0158739
672.749	0.0159501
672.828	0.0159660
672.906	0.0160767
672.984	0.0160301
673.062	0.0159142
673.140	0.0159786
673.218	0.0161494
673.296	0.0158288
673.374	0.0159256
673.453	0.0160399
673.531	0.0159091
673.609	0.0158165
673.687	0.0160783
673.765	0.0160673
673.843	0.0159639
673.921	0.0159677
673.999	0.0159209
674.078	0.0160233
674.156	0.0159377
674.234	0.0158825
674.312	0.0160113
674.390	0.0159978
674.468	0.0159333
674.546	0.0159950
674.624	0.0158884
674.703	0.0160744
674.781	0.0159975
674.859	0.0159164
674.937	0.0160326
675.015	0.0160837
675.093	0.0160151
675.171	0.0158537
675.249	0.0160081
675.328	0.0161015
675.406	0.0160774
675.484	0.0159863
675.562	0.0160257
675.640	0.0160874
675.718	0.0160036
675.796	0.0159488
675.874	0.0160326
675.953	0.0160181
676.031	0.0160490
676.109	0.0161362
676.187	0.0160419
676.265	0.0159312
676.343	0.0160477
676.421	0.0159398
676.499	0.0158878
676.578	0.0159634
676.656	0.0161266
676.734	0.0160378
676.812	0.0159760
676.890	0.0160682
676.968	0.0160238
677.046	0.0160860
677.124	0.0159594
677.203	0.0160862
677.281	0.0159196
677.359	0.0160207
677.437	0.0160251
677.515	0.0161070
677.593	0.0159362
677.671	0.0159219
677.749	0.0158976
677.828	0.0159688
677.906	0.0159844
677.984	0.0160134
678.062	0.0158753
678.140	0.0160253
678.218	0.0159057
678.296	0.0158916
678.374	0.0159446
678.453	0.0159566
678.531	0.0159943
678.609	0.0159197
678.687	0.0160495
678.765	0.0159666
678.843	0.0159451
678.921	0.0159890
678.999	0.0159802
679.078	0.0159422
679.156	0.0159023
679.234	0.0158578
679.312	0.0159016
679.390	0.0158934
679.468	0.0158300
679.546	0.0158007
679.624	0.0158695
679.703	0.0158658
679.781	0.0157800
679.859	0.0158933
679.937	0.0158191
680.015	0.0158446
680.093	0.0158749
680.171	0.0159162
680.249	0.0159486
680.328	0.0158485
680.406	0.0157675
680.484	0.0158770
680.562	0.0159153
680.640	0.0159742
680.718	0.0159108
680.796	0.0159074
680.874	0.0159834
680.953	0.0159686
681.031	0.0159746
681.109	0.0158683
681.187	0.0157804
681.265	0.0158735
681.343	0.0158739
681.421	0.0158846
681.499	0.0159581
681.578	0.0159674
681.656	0.0159578
681.734	0.0159892
681.812	0.0160303
681.890	0.0157539
681.968	0.0157497
682.046	0.0158862
682.124	0.0158542
682.203	0.0158672
682.281	0.0158559
682.359	0.0157729
682.437	0.0159801
682.515	0.0159245
682.593	0.0159685
682.671	0.0159055
682.749	0.0159438
682.828	0.0158176
682.906	0.0159928
682.984	0.0159099
683.062	0.0159915
683.140	0.0160662
683.218	0.0159921
683.296	0.0158737
683.374	0.0159494
683.453	0.0158878
683.531	0.0158357
683.609	0.0159362
683.687	0.0161156
683.765	0.0159470
683.843	0.0160307
683.921	0.0160358
683.999	0.0159614
684.078	0.0159750
684.156	0.0158466
684.234	0.0160700
684.312	0.0159467
684.390	0.0160410
684.468	0.0160233
684.546	0.0159064
684.624	0.0158820
684.703	0.0158491
684.781	0.0158563
684.859	0.0158779
684.937	0.0160425
685.015	0.0159819
685.093	0.0159100
685.171	0.0159473
685.249	0.0161240
685.328	0.0159281
685.406	0.0158981
685.484	0.0159647
685.562	0.0159562
685.640	0.0159890
685.718	0.0160276
685.796	0.0161102
685.874	0.0159391
685.953	0.0158842
686.031	0.0161269
686.109	0.0160849
686.187	0.0159819
686.265	0.0159609
686.343	0.0160284
686.421	0.0160238
686.499	0.0160056
686.578	0.0160067
686.656	0.0160621
686.734	0.0160520
686.812	0.0160702
686.890	0.0160912
686.968	0.0160233
687.046	0.0161016
687.124	0.0160371
687.203	0.0159428
687.281	0.0160217
687.359	0.0159883
687.437	0.0159444
687.515	0.0160499
687.593	0.0158548
687.671	0.0159462
687.749	0.0161455
687.828	0.0161713
687.906	0.0159901
687.984	0.0160188
688.062	0.0160872
688.140	0.0161410
688.218	0.0160577
688.296	0.0159093
688.374	0.0160084
688.453	0.0160568
688.531	0.0160461
688.609	0.0159714
688.687	0.0160122
688.765	0.0159379
688.843	0.0158781
688.921	0.0160018
688.999	0.0160086
689.078	0.0160524
689.156	0.0159124
689.234	0.0159914
689.312	0.0160935
689.390	0.0160185
689.468	0.0160291
689.546	0.0160242
689.624	0.0158851
689.703	0.0160406
689.781	0.0160281
689.859	0.0159781
689.937	0.0159830
690.015	0.0160092
690.093	0.0159198
690.171	0.0161255
690.249	0.0160388
690.328	0.0159245
690.406	0.0160207
690.484	0.0161521
690.562	0.0160144
690.640	0.0158733
690.718	0.0160933
690.796	0.0160949
690.874	0.0160895
690.953	0.0160004
691.031	0.0160713
691.109	0.0159345
691.187	0.0160853
691.265	0.0159418
691.343	0.0160677
691.421	0.0162167
691.499	0.0160758
691.578	0.0159834
691.656	0.0160329
691.734	0.0160230
691.812	0.0160337
691.890	0.0160764
691.968	0.0160584
692.046	0.0161250
692.124	0.0159932
692.203	0.0159503
692.281	0.0160459
692.359	0.0159330
692.437	0.0160886
692.515	0.0160478
692.593	0.0160689
692.671	0.0160958
692.749	0.0160083
692.828	0.0161026
692.906	0.0160644
692.984	0.0160698
693.062	0.0160515
693.140	0.0159680
693.218	0.0160078
693.296	0.0160388
693.374	0.0160085
693.453	0.0161260
693.531	0.0161659
693.609	0.0160244
693.687	0.0159666
693.765	0.0160012
693.843	0.0160171
693.921	0.0158405
693.999	0.0160215
694.078	0.0162560
694.156	0.0161575
694.234	0.0159834
694.312	0.0160300
694.390	0.0159711
694.468	0.0159767
694.546	0.0159286
694.624	0.0159610
694.703	0.0161155
694.781	0.0160323
694.859	0.0160313
694.937	0.0159049
695.015	0.0159712
695.093	0.0159589
695.171	0.0159296
695.249	0.0160644
695.328	0.0158794
695.406	0.0159865
695.484	0.0160320
695.562	0.0159593
695.640	0.0158970
695.718	0.0160131
695.796	0.0159833
695.874	0.0159861
695.953	0.0159335
696.031	0.0159830
696.109	0.0160442
696.187	0.0159902
696.265	0.0160323
696.343	0.0160658
696.421	0.0158600
696.499	0.0158285
696.578	0.0161138
696.656	0.0160118
696.734	0.0160867
696.812	0.0160018
696.890	0.0159194
696.968	0.0159589
697.046	0.0159496
697.124	0.0159690
697.203	0.0159526
697.281	0.0160167
697.359	0.0159972
697.437	0.0158586
697.515	0.0160003
697.593	0.0160760
697.671	0.0160667
697.749	0.0160374
697.828	0.0160096
697.906	0.0160009
697.984	0.0159137
698.062	0.0159771
698.140	0.0159175
698.218	0.0160027
698.296	0.0160295
698.374	0.0160298
698.453	0.0159878
698.531	0.0158968
698.609	0.0159155
698.687	0.0158928
698.765	0.0160220
698.843	0.0158969
698.921	0.0160050
698.999	0.0159633
699.078	0.0160022
699.156	0.0158567
699.234	0.0159205
699.312	0.0160623
699.390	0.0160511
699.468	0.0159896
699.546	0.0158414
699.624	0.0159391
699.703	0.0160091
699.781	0.0158955
699.859	0.0158966
699.937	0.0158952
700.015	0.0158916
700.093	0.0160362
700.171	0.0160067
700.249	0.0158685
700.328	0.0159211
700.406	0.0159019
700.484	0.0159487
700.562	0.0159188
700.640	0.0158831
700.718	0.0158619
700.796	0.0160506
700.874	0.0160705
700.953	0.0158337
701.031	0.0159037
701.109	0.0158876
701.187	0.0159560
701.265	0.0159405
701.343	0.0159712
701.421	0.0159032
701.499	0.0158340
701.578	0.0159636
701.656	0.0157500
701.734	0.0160291
701.812	0.0160416
701.890	0.0160374
701.968	0.0160069
702.046	0.0158404
702.124	0.0159818
702.203	0.0158973
702.281	0.0159933
702.359	0.0160320
702.437	0.0159920
702.515	0.0158842
702.593	0.0159117
702.671	0.0159595
702.749	0.0159490
702.828	0.0159840
702.906	0.0159626
702.984	0.0159283
703.062	0.0159290
703.140	0.0160185
703.218	0.0159969
703.296	0.0158579
703.374	0.0159340
703.453	0.0159177
703.531	0.0159406
703.609	0.0157742
703.687	0.0160283
703.765	0.0158884
703.843	0.0159188
703.921	0.0158124
703.999	0.0159600
704.078	0.0159971
704.156	0.0159410
704.234	0.0158183
704.312	0.0158218
704.390	0.0158451
704.468	0.0159869
704.546	0.0159828
704.624	0.0159586
704.703	0.0159428
704.781	0.0157992
704.859	0.0159943
704.937	0.0158646
705.015	0.0160222
705.093	0.0159191
705.171	0.0158231
705.249	0.0158443
705.328	0.0158219
705.406	0.0160059
705.484	0.0158499
705.562	0.0156299
705.640	0.0157883
705.718	0.0159259
705.796	0.0157952
705.874	0.0157520
705.953	0.0157776
706.031	0.0157958
706.109	0.0158836
706.187	0.0158437
706.265	0.0159688
706.343	0.0158282
706.421	0.0160101
706.499	0.0160342
706.578	0.0158124
706.656	0.0157545
706.734	0.0159754
706.812	0.0159842
706.890	0.0158588
706.968	0.0158344
707.046	0.0158347
707.124	0.0158948
707.203	0.0158430
707.281	0.0157956
707.359	0.0157890
707.437	0.0156542
707.515	0.0156932
707.593	0.0158756
707.671	0.0159945
707.749	0.0159808
707.828	0.0157970
707.906	0.0158911
707.984	0.0157016
708.062	0.0158279
708.140	0.0159489
708.218	0.0159636
708.296	0.0158093
708.374	0.0159173
708.453	0.0158952
708.531	0.0158926
708.609	0.0159644
708.687	0.0159058
708.765	0.0158900
708.843	0.0159590
708.921	0.0159004
708.999	0.0158775
709.078	0.0158435
709.156	0.0159814
709.234	0.0158918
709.312	0.0158779
709.390	0.0158874
709.468	0.0159934
709.546	0.0158843
709.624	0.0157815
709.703	0.0158710
709.781	0.0157738
709.859	0.0157687
709.937	0.0157278
710.015	0.0158746
710.093	0.0157410
710.171	0.0158392
710.249	0.0158067
710.328	0.0158759
710.406	0.0157606
710.484	0.0158376
710.562	0.0158924
710.640	0.0158501
710.718	0.0158411
710.796	0.0159215
710.874	0.0160081
710.953	0.0159631
711.031	0.0158732
711.109	0.0159044
711.187	0.0159180
711.265	0.0160440
711.343	0.0158961
711.421	0.0159087
711.499	0.0159143
711.578	0.0159720
711.656	0.0159190
711.734	0.0158553
711.812	0.0159466
711.890	0.0159483
711.968	0.0158628
712.046	0.0159010
712.124	0.0158911
712.203	0.0158923
712.281	0.0159884
712.359	0.0158383
712.437	0.0159692
712.515	0.0159211
712.593	0.0160013
712.671	0.0158755
712.749	0.0159356
712.828	0.0160392
712.906	0.0159863
712.984	0.0159643
713.062	0.0160089
713.140	0.0160700
713.218	0.0159309
713.296	0.0159212
713.374	0.0159624
713.453	0.0160435
713.531	0.0159843
713.609	0.0159983
713.687	0.0160819
713.765	0.0159651
713.843	0.0160611
713.921	0.0160245
713.999	0.0159971
714.078	0.0160333
714.156	0.0160432
714.234	0.0159372
714.312	0.0159523
714.390	0.0158932
714.468	0.0158813
714.546	0.0159086
714.624	0.0160356
714.703	0.0159977
714.781	0.0159865
714.859	0.0159000
714.937	0.0159657
715.015	0.0159353
715.093	0.0159193
715.171	0.0158568
715.249	0.0160241
715.328	0.0158961
715.406	0.0159010
715.484	0.0159648
715.562	0.0159199
715.640	0.0159869
715.718	0.0160165
715.796	0.0160727
715.874	0.0161166
715.953	0.0160909
716.031	0.0159689
716.109	0.0158858
716.187	0.0158884
716.265	0.0159934
716.343	0.0159544
716.421	0.0158954
716.499	0.0158873
716.578	0.0159627
716.656	0.0159604
716.734	0.0159161
716.812	0.0160202
716.890	0.0159194
716.968	0.0159378
717.046	0.0159610
717.124	0.0159132
717.203	0.0159278
717.281	0.0159721
717.359	0.0159180
717.437	0.0158328
717.515	0.0159048
717.593	0.0159113
717.671	0.0159329
717.749	0.0159855
717.828	0.0160706
717.906	0.0160229
717.984	0.0159940
718.062	0.0160581
718.140	0.0160397
718.218	0.0158767
718.296	0.0160940
718.374	0.0158688
718.453	0.0159081
718.531	0.0159975
718.609	0.0160653
718.687	0.0160844
718.765	0.0159332
718.843	0.0158536
718.921	0.0158546
718.999	0.0160407
719.078	0.0160960
719.156	0.0160034
719.234	0.0158485
719.312	0.0159739
719.390	0.0160942
719.468	0.0159723
719.546	0.0160818
719.624	0.0160786
719.703	0.0160078
719.781	0.0158960
719.859	0.0159615
719.937	0.0160861
720.015	0.0160319
720.093	0.0159689
720.171	0.0159998
720.249	0.0160081
720.328	0.0161931
720.406	0.0160310
720.484	0.0160770
720.562	0.0160267
720.640	0.0158387
720.718	0.0160538
720.796	0.0159512
720.874	0.0159969
720.953	0.0159576
721.031	0.0160670
721.109	0.0160197
721.187	0.0160934
721.265	0.0160048
721.343	0.0160985
721.421	0.0160985
721.499	0.0160084
721.578	0.0160466
721.656	0.0160850
721.734	0.0160114
721.812	0.0159879
721.890	0.0161298
721.968	0.0161079
722.046	0.0160931
722.124	0.0160059
722.203	0.0161834
722.281	0.0161430
722.359	0.0159386
722.437	0.0159717
722.515	0.0160722
722.593	0.0161803
722.671	0.0161040
722.749	0.0159841
722.828	0.0160019
722.906	0.0159804
722.984	0.0159603
723.062	0.0159463
723.140	0.0160509
723.218	0.0160522
723.296	0.0159738
723.374	0.0161056
723.453	0.0159852
723.531	0.0160184
723.609	0.0159872
723.687	0.0160153
723.765	0.0159857
723.843	0.0160369
723.921	0.0159949
723.999	0.0159699
724.078	0.0161378
724.156	0.0159933
724.234	0.0160837
724.312	0.0161494
724.390	0.0159451
724.468	0.0160073
724.546	0.0159279
724.624	0.0160089
724.703	0.0160739
724.781	0.0159391
724.859	0.0160267
724.937	0.0158633
725.015	0.0159444
725.093	0.0159324
725.171	0.0160027
725.249	0.0158532
725.328	0.0159501
725.406	0.0159663
725.484	0.0158655
725.562	0.0159758
725.640	0.0159596
725.718	0.0158595
725.796	0.0160558
725.874	0.0160207
725.953	0.0159338
726.031	0.0160608
726.109	0.0159295
726.187	0.0160140
726.265	0.0159143
726.343	0.0159589
726.421	0.0159454
726.499	0.0158857
726.578	0.0159187
726.656	0.0158967
726.734	0.0158538
726.812	0.0159494
726.890	0.0158987
726.968	0.0158401
727.046	0.0159935
727.124	0.0159229
727.203	0.0158305
727.281	0.0158615
727.359	0.0159823
727.437	0.0158656
727.515	0.0157629
727.593	0.0157440
727.671	0.0157931
727.749	0.0158281
727.828	0.0159080
727.906	0.0159151
727.984	0.0158322
728.062	0.0157896
728.140	0.0159068
728.218	0.0157771
728.296	0.0157338
728.374	0.0158532
728.453	0.0158389
728.531	0.0157838
728.609	0.0159144
728.687	0.0157913
728.765	0.0159991
728.843	0.0160344
728.921	0.0159491
728.999	0.0159056
729.078	0.0159270
729.156	0.0160355
729.234	0.0158970
729.312	0.0159104
729.390	0.0159398
729.468	0.0159700
729.546	0.0158817
729.624	0.0158652
729.703	0.0159749
729.781	0.0158006
729.859	0.0157985
729.937	0.0159143
730.015	0.0158636
730.093	0.0158644
730.171	0.0158450
730.249	0.0159342
730.328	0.0158984
730.406	0.0158413
730.484	0.0157976
730.562	0.0157493
730.640	0.0159844
730.718	0.0158720
730.796	0.0159254
730.874	0.0160291
730.953	0.0159638
731.031	0.0159732
731.109	0.0158390
731.187	0.0158858
731.265	0.0158616
731.343	0.0159323
731.421	0.0159329
731.499	0.0159563
731.578	0.0159987
731.656	0.0157932
731.734	0.0158213
731.812	0.0159565
731.890	0.0158990
731.968	0.0158705
732.046	0.0159418
732.124	0.0158321
732.203	0.0161739
732.281	0.0159110
732.359	0.0158789
732.437	0.0159933
732.515	0.0158867
732.593	0.0159732
732.671	0.0159377
732.749	0.0159732
732.828	0.0160928
732.906	0.0159605
732.984	0.0160107
733.062	0.0160810
733.140	0.0160156
733.218	0.0158781
733.296	0.0159801
733.374	0.0160237
733.453	0.0161038
733.531	0.0160608
733.609	0.0160841
733.687	0.0160142
733.765	0.0160695
733.843	0.0159721
733.921	0.0158980
733.999	0.0160123
734.078	0.0160700
734.156	0.0159108
734.234	0.0158395
734.312	0.0159024
734.390	0.0159616
734.468	0.0161182
734.546	0.0158935
734.624	0.0158562
734.703	0.0159690
734.781	0.0159618
734.859	0.0159184
734.937	0.0159843
735.015	0.0161238
735.093	0.0160988
735.171	0.0158823
735.249	0.0159782
735.328	0.0157980
735.406	0.0159532
735.484	0.0159061
735.562	0.0159171
735.640	0.0159364
735.718	0.0159877
735.796	0.0158818
735.874	0.0158880
735.953	0.0160950
736.031	0.0160366
736.109	0.0158356
736.187	0.0159814
736.265	0.0159341
736.343	0.0158855
736.421	0.0158718
736.499	0.0159522
736.578	0.0158704
736.656	0.0159526
736.734	0.0159258
736.812	0.0159100
736.890	0.0158090
736.968	0.0160247
737.046	0.0159515
737.124	0.0158929
737.203	0.0160191
737.281	0.0159744
737.359	0.0159474
737.437	0.0159332
737.515	0.0159921
737.593	0.0158457
737.671	0.0158662
737.749	0.0159516
737.828	0.0159243
737.906	0.0159614
737.984	0.0159175
738.062	0.0160048
738.140	0.0161797
738.218	0.0158710
738.296	0.0158771
738.374	0.0159788
738.453	0.0158460
738.531	0.0159431
738.609	0.0159237
738.687	0.0160640
738.765	0.0160338
738.843	0.0160400
738.921	0.0161216
738.999	0.0158848
739.078	0.0159942
739.156	0.0159867
739.234	0.0159502
739.312	0.0158913
739.390	0.0159386
739.468	0.0159970
739.546	0.0159318
739.624	0.0160761
739.703	0.0160628
739.781	0.0159985
739.859	0.0159123
739.937	0.0160216
740.015	0.0160364
740.093	0.0160400
740.171	0.0159442
740.249	0.0159695
740.328	0.0160271
740.406	0.0160362
740.484	0.0160077
740.562	0.0160764
740.640	0.0159842
740.718	0.0160532
740.796	0.0159147
740.874	0.0159820
740.953	0.0161239
741.031	0.0160328
741.109	0.0160748
741.187	0.0160291
741.265	0.0159654
741.343	0.0160482
741.421	0.0160333
741.499	0.0159722
741.578	0.0160708
741.656	0.0162185
741.734	0.0160625
741.812	0.0160451
741.890	0.0160619
741.968	0.0161468
742.046	0.0160617
742.124	0.0159309
742.203	0.0160885
742.281	0.0159837
742.359	0.0161107
742.437	0.0160693
742.515	0.0161783
742.593	0.0160873
742.671	0.0160709
742.749	0.0161400
742.828	0.0160494
742.906	0.0162686
742.984	0.0161276
743.062	0.0161154
743.140	0.0160981
743.218	0.0160608
743.296	0.0161036
743.374	0.0161959
743.453	0.0161814
743.531	0.0160635
743.609	0.0161039
743.687	0.0160931
743.765	0.0161120
743.843	0.0160815
743.921	0.0160149
743.999	0.0162196
744.078	0.0161997
744.156	0.0159496
744.234	0.0160744
744.312	0.0160990
744.390	0.0161053
744.468	0.0160355
744.546	0.0159873
744.624	0.0161201
744.703	0.0160921
744.781	0.0160085
744.859	0.0162012
744.937	0.0160432
745.015	0.0160829
745.093	0.0161049
745.171	0.0161333
745.249	0.0161803
745.328	0.0161593
745.406	0.0162306
745.484	0.0161166
745.562	0.0161797
745.640	0.0162137
745.718	0.0160295
745.796	0.0160767
745.874	0.0160596
745.953	0.0160767
746.031	0.0160284
746.109	0.0162003
746.187	0.0159997
746.265	0.0160562
746.343	0.0160828
746.421	0.0160950
746.499	0.0160865
746.578	0.0160142
746.656	0.0160216
746.734	0.0160750
746.812	0.0160922
746.890	0.0159158
746.968	0.0160602
747.046	0.0159113
747.124	0.0160443
747.203	0.0160339
747.281	0.0160829
747.359	0.0159927
747.437	0.0159661
747.515	0.0159159
747.593	0.0160992
747.671	0.0161110
747.749	0.0159394
747.828	0.0159112
747.906	0.0160155
747.984	0.0161323
748.062	0.0161771
748.140	0.0160501
748.218	0.0161774
748.296	0.0160932
748.374	0.0159676
748.453	0.0160301
748.531	0.0159549
748.609	0.0160646
748.687	0.0160667
748.765	0.0159776
748.843	0.0160142
748.921	0.0161226
748.999	0.0160440
749.078	0.0158407
749.156	0.0158372
749.234	0.0159294
749.312	0.0160021
749.390	0.0160139
749.468	0.0161451
749.546	0.0159705
749.624	0.0159428
749.703	0.0160180
749.781	0.0161063
749.859	0.0159067
749.937	0.0161255
750.015	0.0160543
750.093	0.0159801
750.171	0.0158431
750.249	0.0159816
750.328	0.0160727
750.406	0.0160526
750.484	0.0159582
750.562	0.0159107
750.640	0.0160438
750.718	0.0159167
750.796	0.0159521
750.874	0.0158799
750.953	0.0158637
751.031	0.0160255
751.109	0.0158780
751.187	0.0160226
751.265	0.0160023
751.343	0.0160200
751.421	0.0158498
751.499	0.0158382
751.578	0.0159635
751.656	0.0160191
751.734	0.0159013
751.812	0.0159409
751.890	0.0158752
751.968	0.0159329
752.046	0.0160193
752.124	0.0159203
752.203	0.0158263
752.281	0.0160461
752.359	0.0158170
752.437	0.0159650
752.515	0.0159760
752.593	0.0160149
752.671	0.0160550
752.749	0.0158315
752.828	0.0159818
752.906	0.0158805
752.984	0.0161209
753.062	0.0160409
753.140	0.0159737
753.218	0.0158154
753.296	0.0159509
753.374	0.0160055
753.453	0.0160809
753.531	0.0161079
753.609	0.0159074
753.687	0.0160260
753.765	0.0160926
753.843	0.0158555
753.921	0.0159712
753.999	0.0160538
754.078	0.0159318
754.156	0.0159857
754.234	0.0160065
754.312	0.0159250
754.390	0.0159505
754.468	0.0160623
754.546	0.0160458
754.624	0.0160643
754.703	0.0160310
754.781	0.0160339
754.859	0.0159457
754.937	0.0158863
755.015	0.0159917
755.093	0.0159973
755.171	0.0157556
755.249	0.0160645
755.328	0.0158943
755.406	0.0160285
755.484	0.0158906
755.562	0.0157517
755.640	0.0160465
755.718	0.0160490
755.796	0.0160850
755.874	0.0160054
755.953	0.0159203
756.031	0.0159980
756.109	0.0161330
756.187	0.0160580
756.265	0.0161253
756.343	0.0161107
756.421	0.0160971
756.499	0.0160886
756.578	0.0158801
756.656	0.0160825
756.734	0.0161053
756.812	0.0160109
756.890	0.0160899
756.968	0.0160341
757.046	0.0159614
757.124	0.0160748
757.203	0.0159183
757.281	0.0159987
757.359	0.0160006
757.437	0.0159449
757.515	0.0159135
757.593	0.0158039
757.671	0.0160809
757.749	0.0158435
757.828	0.0159896
757.906	0.0158997
757.984	0.0160111
758.062	0.0159236
758.140	0.0159540
758.218	0.0160095
758.296	0.0160489
758.374	0.0159624
758.453	0.0160055
758.531	0.0160157
758.609	0.0160176
758.687	0.0159752
758.765	0.0160949
758.843	0.0159761
758.921	0.0160893
758.999	0.0161404
759.078	0.0160095
759.156	0.0160294
759.234	0.0161325
759.312	0.0160353
759.390	0.0159427
759.468	0.0160851
759.546	0.0160335
759.624	0.0160892
759.703	0.0161487
759.781	0.0162087
759.859	0.0160588
759.937	0.0160435
760.015	0.0160408
760.093	0.0159602
760.171	0.0159845
760.249	0.0159982
760.328	0.0158997
760.406	0.0160309
760.484	0.0160205
760.562	0.0159782
760.640	0.0160593
760.718	0.0158043
760.796	0.0160268
760.874	0.0159736
760.953	0.0160346
761.031	0.0158512
761.109	0.0159378
761.187	0.0160603
761.265	0.0160061
761.343	0.0161271
761.421	0.0160424
761.499	0.0159268
761.578	0.0159644
761.656	0.0160378
761.734	0.0159706
761.812	0.0159714
761.890	0.0160092
761.968	0.0159673
762.046	0.0159683
762.124	0.0161224
762.203	0.0160456
762.281	0.0160612
762.359	0.0160650
762.437	0.0162320
762.515	0.0160542
762.593	0.0161401
762.671	0.0160623
762.749	0.0160627
762.828	0.0160697
762.906	0.0160748
762.984	0.0160854
763.062	0.0159685
763.140	0.0159399
763.218	0.0160402
763.296	0.0161191
763.374	0.0160459
763.453	0.0160243
763.531	0.0160915
763.609	0.0160944
763.687	0.0159364
763.765	0.0159363
763.843	0.0159248
763.921	0.0159875
763.999	0.0160218
764.078	0.0160989
764.156	0.0160453
764.234	0.0160158
764.312	0.0161621
764.390	0.0161871
764.468	0.0160318
764.546	0.0161380
764.624	0.0161918
764.703	0.0162546
764.781	0.0161365
764.859	0.0160909
764.937	0.0161018
765.015	0.0160851
765.093	0.0161019
765.171	0.0160326
765.249	0.0160867
765.328	0.0160085
765.406	0.0158734
765.484	0.0159297
765.562	0.0159206
765.640	0.0159405
765.718	0.0159586
765.796	0.0159068
765.874	0.0159595
765.953	0.0158651
766.031	0.0160411
766.109	0.0159399
766.187	0.0159442
766.265	0.0159506
766.343	0.0160939
766.421	0.0162044
766.499	0.0159550
766.578	0.0158744
766.656	0.0161445
766.734	0.0159565
766.812	0.0161948
766.890	0.0159992
766.968	0.0160847
767.046	0.0161208
767.124	0.0161922
767.203	0.0161724
767.281	0.0161899
767.359	0.0163503
767.437	0.0163317
767.515	0.0163401
767.593	0.0162736
767.671	0.0161674
767.749	0.0162043
767.828	0.0162077
767.906	0.0160539
767.984	0.0159354
768.062	0.0160020
768.140	0.0158902
768.218	0.0159587
768.296	0.0158893
768.374	0.0158833
768.453	0.0160001
768.531	0.0159703
768.609	0.0158143
768.687	0.0158691
768.765	0.0158434
768.843	0.0160458
768.921	0.0158414
768.999	0.0158329
769.078	0.0158643
769.156	0.0157154
769.234	0.0157574
769.312	0.0156486
769.390	0.0157855
769.468	0.0159673
769.546	0.0158162
769.624	0.0158078
769.703	0.0159328
769.781	0.0159610
769.859	0.0159431
769.937	0.0159197
770.015	0.0159180
770.093	0.0158236
770.171	0.0159450
770.249	0.0159242
770.328	0.0159163
770.406	0.0159715
770.484	0.0159901
770.562	0.0161454
770.640	0.0160960
770.718	0.0162082
770.796	0.0162521
770.874	0.0162614
770.953	0.0162347
771.031	0.0161588
771.109	0.0162867
771.187	0.0161664
771.265	0.0160368
771.343	0.0160477
771.421	0.0160061
771.499	0.0160153
771.578	0.0161838
771.656	0.0161203
771.734	0.0160918
771.812	0.0161037
771.890	0.0161227
771.968	0.0160548
772.046	0.0161495
772.124	0.0160992
772.203	0.0159821
772.281	0.0160856
772.359	0.0161409
772.437	0.0160588
772.515	0.0160041
772.593	0.0160355
772.671	0.0158172
772.749	0.0158462
772.828	0.0159488
772.906	0.0160124
772.984	0.0159725
773.062	0.0159509
773.140	0.0158884
773.218	0.0159705
773.296	0.0159837
773.374	0.0159833
773.453	0.0159715
773.531	0.0158645
773.609	0.0160696
773.687	0.0158204
773.765	0.0158405
773.843	0.0158726
773.921	0.0158329
773.999	0.0158565
774.078	0.0158752
774.156	0.0159151
774.234	0.0158618
774.312	0.0156590
774.390	0.0159710
774.468	0.0158683
774.546	0.0157545
774.624	0.0158482
774.703	0.0158295
774.781	0.0159430
774.859	0.0160560
774.937	0.0159324
775.015	0.0159048
775.093	0.0159446
775.171	0.0160031
775.249	0.0158321
775.328	0.0160257
775.406	0.0159258
775.484	0.0159945
775.562	0.0160332
775.640	0.0160706
775.718	0.0161684
775.796	0.0162428
775.874	0.0161668
775.953	0.0160950
776.031	0.0161378
776.109	0.0162274
776.187	0.0160738
776.265	0.0160997
776.343	0.0162315
776.421	0.0162075
776.499	0.0161686
776.578	0.0161573
776.656	0.0161001
776.734	0.0160174
776.812	0.0158949
776.890	0.0159486
776.968	0.0160119
777.046	0.0158934
777.124	0.0159066
777.203	0.0157418
777.281	0.0157980
777.359	0.0157877
777.437	0.0158879
777.515	0.0156051
777.593	0.0156879
777.671	0.0157970
777.749	0.0156753
777.828	0.0156783
777.906	0.0157034
777.984	0.0157595
778.062	0.0158615
778.140	0.0159383
778.218	0.0159156
778.296	0.0158530
778.374	0.0158695
778.453	0.0160004
778.531	0.0159135
778.609	0.0158018
778.687	0.0158112
778.765	0.0158109
778.843	0.0160187
778.921	0.0159213
778.999	0.0158263
779.078	0.0161119
779.156	0.0160034
779.234	0.0158832
779.312	0.0159813
779.390	0.0159802
779.468	0.0160566
779.546	0.0159577
779.624	0.0160110
779.703	0.0159388
779.781	0.0160135
779.859	0.0160101
779.937	0.0159785
780.015	0.0160463
780.093	0.0159241
780.171	0.0159338
780.249	0.0159467
780.328	0.0158353
780.406	0.0159053
780.484	0.0159544
780.562	0.0158200
780.640	0.0159362
780.718	0.0159870
780.796	0.0159721
780.874	0.0159116
780.953	0.0159992
781.031	0.0159826
781.109	0.0159314
781.187	0.0158854
781.265	0.0159540
781.343	0.0158929
781.421	0.0158898
781.499	0.0159151
781.578	0.0159094
781.656	0.0157937
781.734	0.0157823
781.812	0.0159467
781.890	0.0159241
781.968	0.0158324
782.046	0.0157593
782.124	0.0158039
782.203	0.0158417
782.281	0.0158052
782.359	0.0158947
782.437	0.0157457
782.515	0.0158080
782.593	0.0158759
782.671	0.0160966
782.749	0.0160215
782.828	0.0158981
782.906	0.0160210
782.984	0.0160220
783.062	0.0161806
783.140	0.0162389
783.218	0.0161091
783.296	0.0161459
783.374	0.0161128
783.453	0.0163395
783.531	0.0162699
783.609	0.0162495
783.687	0.0163174
783.765	0.0161775
783.843	0.0162749
783.921	0.0160184
783.999	0.0160350
784.078	0.0159424
784.156	0.0159483
784.234	0.0159650
784.312	0.0158942
784.390	0.0159720
784.468	0.0157822
784.546	0.0157273
784.624	0.0156277
784.703	0.0157963
784.781	0.0156753
784.859	0.0156484
784.937	0.0156176
785.015	0.0155984
785.093	0.0153868
785.171	0.0154230
785.249	0.0157075
785.328	0.0155273
785.406	0.0155991
785.484	0.0156655
785.562	0.0157851
785.640	0.0157257
785.718	0.0157721
785.796	0.0159056
785.874	0.0159079
785.953	0.0160351
786.031	0.0160435
786.109	0.0157980
786.187	0.0161211
786.265	0.0161543
786.343	0.0159067
786.421	0.0161140
786.499	0.0160622
786.578	0.0160632
786.656	0.0163798
786.734	0.0162665
786.812	0.0162801
786.890	0.0163053
786.968	0.0163627
787.046	0.0162447
787.124	0.0161937
787.203	0.0162799
787.281	0.0161933
787.359	0.0161431
787.437	0.0161775
787.515	0.0162137
787.593	0.0161115
787.671	0.0160939
787.749	0.0159669
787.828	0.0160740
787.906	0.0158939
787.984	0.0158350
788.062	0.0158090
788.140	0.0158755
788.218	0.0157973
788.296	0.0157362
788.374	0.0156899
788.453	0.0158443
788.531	0.0158114
788.609	0.0158229
788.687	0.0158913
788.765	0.0157172
788.843	0.0158738
788.921	0.0158041
788.999	0.0157739
789.078	0.0157525
789.156	0.0158372
789.234	0.0158318
789.312	0.0158831
789.390	0.0158283
789.468	0.0157820
789.546	0.0158451
789.624	0.0159721
789.703	0.0158001
789.781	0.0158778
789.859	0.0158720
789.937	0.0157924
790.015	0.0158399
790.093	0.0157767
790.171	0.0158120
790.249	0.0159927
790.328	0.0159315
790.406	0.0158678
790.484	0.0158027
790.562	0.0158772
790.640	0.0159834
790.718	0.0161931
790.796	0.0161705
790.874	0.0160781
790.953	0.0160551
791.031	0.0161749
791.109	0.0161475
791.187	0.0161159
791.265	0.0162267
791.343	0.0162152
791.421	0.0162665
791.499	0.0161022
791.578	0.0163030
791.656	0.0162148
791.734	0.0161720
791.812	0.0163219
791.890	0.0163773
791.968	0.0162316
792.046	0.0160796
792.124	0.0163086
792.203	0.0161515
792.281	0.0160623
792.359	0.0161543
792.437	0.0160323
792.515	0.0161994
792.593	0.0161071
792.671	0.0159061
792.749	0.0159131
792.828	0.0159190
792.906	0.0159766
792.984	0.0158042
793.062	0.0157858
793.140	0.0158224
793.218	0.0157226
793.296	0.0157451
793.374	0.0156055
793.453	0.0157014
793.531	0.0157056
793.609	0.0155558
793.687	0.0154520
793.765	0.0154818
793.843	0.0156905
793.921	0.0156113
793.999	0.0156340
794.078	0.0156313
794.156	0.0156060
794.234	0.0157178
794.312	0.0157257
794.390	0.0158408
794.468	0.0159850
794.546	0.0160062
794.624	0.0159686
794.703	0.0162188
794.781	0.0161375
794.859	0.0161565
794.937	0.0161317
795.015	0.0161546
795.093	0.0162673
795.171	0.0162747
795.249	0.0159851
795.328	0.0160246
795.406	0.0160927
795.484	0.0159386
795.562	0.0159539
795.640	0.0160601
795.718	0.0160651
795.796	0.0158569
795.874	0.0155643
795.953	0.0157746
796.031	0.0157274
796.109	0.0156742
796.187	0.0156080
796.265	0.0156581
796.343	0.0156978
796.421	0.0157612
796.499	0.0156847
796.578	0.0156916
796.656	0.0157388
796.734	0.0156196
796.812	0.0158224
796.890	0.0157368
796.968	0.0158498
797.046	0.0158977
797.124	0.0157711
797.203	0.0158112
797.281	0.0159094
797.359	0.0160640
797.437	0.0159407
797.515	0.0161007
797.593	0.0161400
797.671	0.0162195
797.749	0.0161607
797.828	0.0162063
797.906	0.0162509
797.984	0.0163524
798.062	0.0163264
798.140	0.0162872
798.218	0.0161996
798.296	0.0161872
798.374	0.0164657
798.453	0.0163145
798.531	0.0162175
798.609	0.0161966
798.687	0.0161979
798.765	0.0161901
798.843	0.0160891
798.921	0.0160587
798.999	0.0161758
799.078	0.0161000
799.156	0.0159990
799.234	0.0159019
799.312	0.0157566
799.390	0.0158923
799.468	0.0158058
799.546	0.0157423
799.624	0.0157905
799.703	0.0156736
799.781	0.0155894
799.859	0.0156638
799.937	0.0156382
800.015	0.0155483
800.093	0.0155685
800.171	0.0155862
800.249	0.0157411
800.328	0.0156158
800.406	0.0154651
800.484	0.0156588
800.562	0.0156339
800.640	0.0155936
800.718	0.0157215
800.796	0.0157343
800.874	0.0157096
800.953	0.0156904
801.031	0.0158609
801.109	0.0158665
801.187	0.0158402
801.265	0.0159422
801.343	0.0159924
801.421	0.0158121
801.499	0.0159328
801.578	0.0160087
801.656	0.0161829
801.734	0.0160712
801.812	0.0159248
801.890	0.0160960
801.968	0.0161877
802.046	0.0163181
802.124	0.0162048
802.203	0.0161773
802.281	0.0162521
802.359	0.0161375
802.437	0.0163421
802.515	0.0160576
802.593	0.0161732
802.671	0.0161736
802.749	0.0160635
802.828	0.0161886
802.906	0.0161710
802.984	0.0162663
803.062	0.0161497
803.140	0.0161677
803.218	0.0161563
803.296	0.0161198
803.374	0.0162060
803.453	0.0158898
803.531	0.0160598
803.609	0.0160918
803.687	0.0159364
803.765	0.0160928
803.843	0.0161753
803.921	0.0160801
803.999	0.0161693
804.078	0.0161434
804.156	0.0161648
804.234	0.0161797
804.312	0.0161359
804.390	0.0159846
804.468	0.0161452
804.546	0.0161222
804.624	0.0159755
804.703	0.0160263
804.781	0.0159540
804.859	0.0159100
804.937	0.0159065
805.015	0.0157618
805.093	0.0158120
805.171	0.0156039
805.249	0.0156934
805.328	0.0156421
805.406	0.0155740
805.484	0.0155893
805.562	0.0155938
805.640	0.0154869
805.718	0.0155813
805.796	0.0155968
805.874	0.0155740
805.953	0.0155678
806.031	0.0156879
806.109	0.0157579
806.187	0.0159471
806.265	0.0159181
806.343	0.0159499
806.421	0.0159035
806.499	0.0159770
806.578	0.0161515
806.656	0.0161842
806.734	0.0161539
806.812	0.0161887
806.890	0.0161906
806.968	0.0161435
807.046	0.0163144
807.124	0.0162015
807.203	0.0163351
807.281	0.0162416
807.359	0.0162386
807.437	0.0163457
807.515	0.0160967
807.593	0.0162285
807.671	0.0160675
807.749	0.0160187
807.828	0.0161232
807.906	0.0161459
807.984	0.0159433
808.062	0.0159368
808.140	0.0159633
808.218	0.0158531
808.296	0.0159592
808.374	0.0159776
808.453	0.0158228
808.531	0.0159753
808.609	0.0160103
808.687	0.0158293
808.765	0.0159902
808.843	0.0160320
808.921	0.0160071
808.999	0.0160065
809.078	0.0160619
809.156	0.0160843
809.234	0.0161034
809.312	0.0161167
809.390	0.0162141
809.468	0.0160877
809.546	0.0160993
809.624	0.0160419
809.703	0.0161325
809.781	0.0160873
809.859	0.0161816
809.937	0.0159616
810.015	0.0158884
810.093	0.0160046
810.171	0.0159096
810.249	0.0160829
810.328	0.0159007
810.406	0.0159520
810.484	0.0159828
810.562	0.0157698
810.640	0.0157548
810.718	0.0159103
810.796	0.0157509
810.874	0.0157159
810.953	0.0156618
811.031	0.0156009
811.109	0.0155549
811.187	0.0154594
811.265	0.0155676
811.343	0.0155562
811.421	0.0156475
811.499	0.0157072
811.578	0.0156155
811.656	0.0157982
811.734	0.0158895
811.812	0.0156666
811.890	0.0158835
811.968	0.0158746
812.046	0.0158167
812.124	0.0158549
812.203	0.0157671
812.281	0.0159022
812.359	0.0159456
812.437	0.0159753
812.515	0.0159698
812.593	0.0160049
812.671	0.0159123
812.749	0.0159097
812.828	0.0159515
812.906	0.0159555
812.984	0.0159300
813.062	0.0159100
813.140	0.0158740
813.218	0.0159544
813.296	0.0159566
813.374	0.0159206
813.453	0.0159946
813.531	0.0159085
813.609	0.0159294
813.687	0.0159731
813.765	0.0159693
813.843	0.0159999
813.921	0.0158418
813.999	0.0159960
814.078	0.0160355
814.156	0.0159974
814.234	0.0160499
814.312	0.0162959
814.390	0.0163480
814.468	0.0164342
814.546	0.0164671
814.624	0.0165265
814.703	0.0166858
814.781	0.0165535
814.859	0.0165409
814.937	0.0164591
815.015	0.0164013
815.093	0.0164034
815.171	0.0165115
815.249	0.0162984
815.328	0.0163015
815.406	0.0161318
815.484	0.0160545
815.562	0.0159110
815.640	0.0157593
815.718	0.0157450
815.796	0.0157660
815.874	0.0156206
815.953	0.0154651
816.031	0.0155029
816.109	0.0153960
816.187	0.0153858
816.265	0.0154375
816.343	0.0153526
816.421	0.0154111
816.499	0.0153747
816.578	0.0155789
816.656	0.0154125
816.734	0.0154666
816.812	0.0155521
816.890	0.0155897
816.968	0.0157190
817.046	0.0157401
817.124	0.0158340
817.203	0.0159370
817.281	0.0158786
817.359	0.0160593
817.437	0.0160918
817.515	0.0161207
817.593	0.0160880
817.671	0.0161554
817.749	0.0161592
817.828	0.0164017
817.906	0.0164266
817.984	0.0162959
818.062	0.0163103
818.140	0.0163930
818.218	0.0165628
818.296	0.0166110
818.374	0.0165423
818.453	0.0165529
818.531	0.0165063
818.609	0.0165071
818.687	0.0163666
818.765	0.0164122
818.843	0.0162957
818.921	0.0161355
818.999	0.0162014
819.078	0.0161156
819.156	0.0161253
819.234	0.0159979
819.312	0.0158492
819.390	0.0158272
819.468	0.0158712
819.546	0.0157887
819.624	0.0159054
819.703	0.0158159
819.781	0.0158678
819.859	0.0157774
819.937	0.0158263
820.015	0.0159480
820.093	0.0160114
820.171	0.0159342
820.249	0.0160948
820.328	0.0162026
820.406	0.0162006
820.484	0.0160897
820.562	0.0162477
820.640	0.0162099
820.718	0.0162621
820.796	0.0161919
820.874	0.0163578
820.953	0.0161382
821.031	0.0160941
821.109	0.0161894
821.187	0.0160456
821.265	0.0160921
821.343	0.0160247
821.421	0.0160422
821.499	0.0158727
821.578	0.0159651
821.656	0.0159139
821.734	0.0159821
821.812	0.0158766
821.890	0.0157583
821.968	0.0158264
822.046	0.0157456
822.124	0.0158228
822.203	0.0156194
822.281	0.0156310
822.359	0.0157100
822.437	0.0157126
822.515	0.0156914
822.593	0.0158836
822.671	0.0157599
822.749	0.0158355
822.828	0.0159410
822.906	0.0158643
822.984	0.0160297
823.062	0.0160761
823.140	0.0161006
823.218	0.0159705
823.296	0.0160351
823.374	0.0160817
823.453	0.0160406
823.531	0.0160805
823.609	0.0161893
823.687	0.0161502
823.765	0.0163728
823.843	0.0162149
823.921	0.0163909
823.999	0.0163218
824.078	0.0163560
824.156	0.0163956
824.234	0.0163420
824.312	0.0163475
824.390	0.0162835
824.468	0.0163908
824.546	0.0163026
824.624	0.0163645
824.703	0.0163524
824.781	0.0163583
824.859	0.0162131
824.937	0.0161979
825.015	0.0161318
825.093	0.0161330
825.171	0.0161208
825.249	0.0159312
825.328	0.0158608
825.406	0.0158221
825.484	0.0157105
825.562	0.0156892
825.640	0.0156690
825.718	0.0156547
825.796	0.0154999
825.874	0.0157286
825.953	0.0157288
826.031	0.0157241
826.109	0.0156365
826.187	0.0157616
826.265	0.0159916
826.343	0.0160091
826.421	0.0160848
826.499	0.0161027
826.578	0.0161668
826.656	0.0162804
826.734	0.0163030
826.812	0.0164478
826.890	0.0165215
826.968	0.0163816
827.046	0.0163879
827.124	0.0165308
827.203	0.0166010
827.281	0.0165903
827.359	0.0165914
827.437	0.0164786
827.515	0.0164706
827.593	0.0164171
827.671	0.0165442
827.749	0.0163947
827.828	0.0163156
827.906	0.0161556
827.984	0.0160806
828.062	0.0162196
828.140	0.0159910
828.218	0.0161053
828.296	0.0158810
828.374	0.0158542
828.453	0.0158115
828.531	0.0157609
828.609	0.0155979
828.687	0.0154867
828.765	0.0155177
828.843	0.0154572
828.921	0.0154093
828.999	0.0152373
829.078	0.0152335
829.156	0.0152945
829.234	0.0153870
829.312	0.0155208
829.390	0.0154942
829.468	0.0155698
829.546	0.0155974
829.624	0.0157676
829.703	0.0157384
829.781	0.0159581
829.859	0.0160285
829.937	0.0161692
830.015	0.0161662
830.093	0.0162855
830.171	0.0163219
830.249	0.0163509
830.328	0.0165915
830.406	0.0165355
830.484	0.0167284
830.562	0.0164577
830.640	0.0165704
830.718	0.0167687
830.796	0.0165874
830.874	0.0167422
830.953	0.0167299
831.031	0.0166881
831.109	0.0166117
831.187	0.0164921
831.265	0.0165114
831.343	0.0164496
831.421	0.0164830
831.499	0.0162647
831.578	0.0161250
831.656	0.0161605
831.734	0.0160448
831.812	0.0160262
831.890	0.0159161
831.968	0.0157413
832.046	0.0157331
832.124	0.0158928
832.203	0.0159205
832.281	0.0158438
832.359	0.0159499
832.437	0.0158799
832.515	0.0157850
832.593	0.0159089
832.671	0.0158123
832.749	0.0158040
832.828	0.0157309
832.906	0.0157900
832.984	0.0158918
833.062	0.0158820
833.140	0.0159788
833.218	0.0156791
833.296	0.0157846
833.374	0.0157233
833.453	0.0156144
833.531	0.0157097
833.609	0.0157137
833.687	0.0156711
833.765	0.0156142
833.843	0.0155514
833.921	0.0156981
833.999	0.0154708
834.078	0.0155757
834.156	0.0156584
834.234	0.0155228
834.312	0.0157121
834.390	0.0156973
834.468	0.0156097
834.546	0.0157712
834.624	0.0157848
834.703	0.0156910
834.781	0.0158125
834.859	0.0158826
834.937	0.0160398
835.015	0.0161176
835.093	0.0162215
835.171	0.0161580
835.249	0.0161848
835.328	0.0163603
835.406	0.0163857
835.484	0.0164521
835.562	0.0165612
835.640	0.0165445
835.718	0.0165147
835.796	0.0165628
835.874	0.0165687
835.953	0.0167105
836.031	0.0166664
836.109	0.0163770
836.187	0.0164501
836.265	0.0165796
836.343	0.0165021
836.421	0.0163705
836.499	0.0163558
836.578	0.0162547
836.656	0.0161742
836.734	0.0161617
836.812	0.0160373
836.890	0.0159684
836.968	0.0158081
837.046	0.0157617
837.124	0.0157038
837.203	0.0155650
837.281	0.0155295
837.359	0.0156447
837.437	0.0153688
837.515	0.0154277
837.593	0.0154539
837.671	0.0153583
837.749	0.0154546
837.828	0.0155578
837.906	0.0155573
837.984	0.0155302
838.062	0.0156997
838.140	0.0157169
838.218	0.0157596
838.296	0.0159691
838.374	0.0159919
838.453	0.0160027
838.531	0.0160264
838.609	0.0162162
838.687	0.0160870
838.765	0.0161066
838.843	0.0162958
838.921	0.0161723
838.999	0.0163300
839.078	0.0162941
839.156	0.0161934
839.234	0.0162981
839.312	0.0163395
839.390	0.0163436
839.468	0.0162595
839.546	0.0161338
839.624	0.0161660
839.703	0.0162236
839.781	0.0160498
839.859	0.0161014
839.937	0.0160511
840.015	0.0160036
840.093	0.0159180
840.171	0.0160506
840.249	0.0159692
840.328	0.0161189
840.406	0.0160271
840.484	0.0160458
840.562	0.0161591
840.640	0.0162132
840.718	0.0161657
840.796	0.0160850
840.874	0.0161446
840.953	0.0162507
841.031	0.0161739
841.109	0.0162051
841.187	0.0161378
841.265	0.0160362
841.343	0.0162629
841.421	0.0161787
841.499	0.0160965
841.578	0.0160728
841.656	0.0160420
841.734	0.0161939
841.812	0.0160139
841.890	0.0160275
841.968	0.0158117
842.046	0.0157373
842.124	0.0159082
842.203	0.0158479
842.281	0.0159191
842.359	0.0158611
842.437	0.0157136
842.515	0.0156963
842.593	0.0158073
842.671	0.0156763
842.749	0.0157932
842.828	0.0158320
842.906	0.0157087
842.984	0.0157263
843.062	0.0158015
843.140	0.0157848
843.218	0.0159063
843.296	0.0158656
843.374	0.0159522
843.453	0.0159962
843.531	0.0160816
843.609	0.0162026
843.687	0.0161954
843.765	0.0162124
843.843	0.0163009
843.921	0.0164677
843.999	0.0163742
844.078	0.0163793
844.156	0.0163966
844.234	0.0164491
844.312	0.0165604
844.390	0.0164890
844.468	0.0164240
844.546	0.0164861
844.624	0.0163248
844.703	0.0163364
844.781	0.0161870
844.859	0.0162733
844.937	0.0160603
845.015	0.0159313
845.093	0.0159047
845.171	0.0159251
845.249	0.0159539
845.328	0.0157726
845.406	0.0156898
845.484	0.0157196
845.562	0.0155923
845.640	0.0155670
845.718	0.0156934
845.796	0.0156595
845.874	0.0156656
845.953	0.0156599
846.031	0.0155733
846.109	0.0157880
846.187	0.0159088
846.265	0.0159859
846.343	0.0159896
846.421	0.0160270
846.499	0.0162650
846.578	0.0161986
846.656	0.0163351
846.734	0.0162910
846.812	0.0163840
846.890	0.0163101
846.968	0.0162601
847.046	0.0162959
847.124	0.0163407
847.203	0.0163483
847.281	0.0163582
847.359	0.0162411
847.437	0.0162495
847.515	0.0161969
847.593	0.0161521
847.671	0.0161861
847.749	0.0161470
847.828	0.0161022
847.906	0.0159447
847.984	0.0160147
848.062	0.0159002
848.140	0.0159141
848.218	0.0160079
848.296	0.0160127
848.374	0.0159746
848.453	0.0159928
848.531	0.0158383
848.609	0.0159817
848.687	0.0159937
848.765	0.0159540
848.843	0.0159167
848.921	0.0160642
848.999	0.0160920
849.078	0.0159423
849.156	0.0160161
849.234	0.0160243
849.312	0.0160103
849.390	0.0161143
849.468	0.0161351
849.546	0.0160815
849.624	0.0160777
849.703	0.0161156
849.781	0.0160661
849.859	0.0162624
849.937	0.0163054
850.015	0.0161658
850.093	0.0161119
850.171	0.0161737
850.249	0.0162006
850.328	0.0161635
850.406	0.0161008
850.484	0.0159304
850.562	0.0159552
850.640	0.0159354
850.718	0.0159404
850.796	0.0159861
850.874	0.0159779
850.953	0.0158201
851.031	0.0159235
851.109	0.0159620
851.187	0.0159229
851.265	0.0159110
851.343	0.0158598
851.421	0.0159518
851.499	0.0159307
851.578	0.0159356
851.656	0.0159626
851.734	0.0158479
851.812	0.0159787
851.890	0.0159940
851.968	0.0159558
852.046	0.0159823
852.124	0.0160803
852.203	0.0160706
852.281	0.0159869
852.359	0.0160970
852.437	0.0160178
852.515	0.0160960
852.593	0.0160429
852.671	0.0160722
852.749	0.0161301
852.828	0.0161535
852.906	0.0160227
852.984	0.0162094
853.062	0.0160908
853.140	0.0160674
853.218	0.0160838
853.296	0.0160735
853.374	0.0161607
853.453	0.0161157
853.531	0.0159722
853.609	0.0160860
853.687	0.0159885
853.765	0.0158220
853.843	0.0158420
853.921	0.0157294
853.999	0.0157446
854.078	0.0158488
854.156	0.0157844
854.234	0.0157923
854.312	0.0157118
854.390	0.0158200
854.468	0.0158704
854.546	0.0157471
854.624	0.0158464
854.703	0.0158971
854.781	0.0160542
854.859	0.0160859
854.937	0.0160195
855.015	0.0160074
855.093	0.0161143
855.171	0.0161269
855.249	0.0161874
855.328	0.0161160
855.406	0.0160722
855.484	0.0160563
855.562	0.0161517
855.640	0.0160246
855.718	0.0159934
855.796	0.0159068
855.874	0.0157800
855.953	0.0158924
856.031	0.0158253
856.109	0.0158887
856.187	0.0156139
856.265	0.0157774
856.343	0.0159217
856.421	0.0156898
856.499	0.0157648
856.578	0.0158186
856.656	0.0158204
856.734	0.0158370
856.812	0.0157750
856.890	0.0158759
856.968	0.0158865
857.046	0.0158717
857.124	0.0160596
857.203	0.0159527
857.281	0.0160277
857.359	0.0159260
857.437	0.0160854
857.515	0.0161089
857.593	0.0160246
857.671	0.0160255
857.749	0.0162077
857.828	0.0162566
857.906	0.0161855
857.984	0.0160542
858.062	0.0160664
858.140	0.0159799
858.218	0.0161465
858.296	0.0160918
858.374	0.0161064
858.453	0.0159908
858.531	0.0161091
858.609	0.0159512
858.687	0.0160170
858.765	0.0159908
858.843	0.0159641
858.921	0.0158054
858.999	0.0158649
859.078	0.0159792
859.156	0.0161044
859.234	0.0160592
859.312	0.0158901
859.390	0.0159671
859.468	0.0159142
859.546	0.0159151
859.624	0.0158886
859.703	0.0157811
859.781	0.0159388
859.859	0.0160223
859.937	0.0160479
860.015	0.0159633
860.093	0.0158303
860.171	0.0159071
860.249	0.0159260
860.328	0.0159844
860.406	0.0160021
860.484	0.0158828
860.562	0.0158592
860.640	0.0159943
860.718	0.0159544
860.796	0.0160596
860.874	0.0159245
860.953	0.0157799
861.031	0.0159713
861.109	0.0158752
861.187	0.0159398
861.265	0.0159306
861.343	0.0159262
861.421	0.0159240
861.499	0.0159218
861.578	0.0159022
861.656	0.0158833
861.734	0.0159143
861.812	0.0158381
861.890	0.0158118
861.968	0.0159822
862.046	0.0157216
862.124	0.0158884
862.203	0.0159188
862.281	0.0158135
862.359	0.0159790
862.437	0.0159615
862.515	0.0159874
862.593	0.0160207
862.671	0.0160055
862.749	0.0161025
862.828	0.0160966
862.906	0.0161385
862.984	0.0161770
863.062	0.0162727
863.140	0.0161391
863.218	0.0159651
863.296	0.0160323
863.374	0.0161927
863.453	0.0160737
863.531	0.0159842
863.609	0.0160603
863.687	0.0159669
863.765	0.0160083
863.843	0.0160481
863.921	0.0158817
863.999	0.0158806
864.078	0.0158610
864.156	0.0158315
864.234	0.0158328
864.312	0.0156573
864.390	0.0157985
864.468	0.0158167
864.546	0.0158593
864.624	0.0158125
864.703	0.0157461
864.781	0.0159508
864.859	0.0158868
864.937	0.0158263
865.015	0.0160827
865.093	0.0158904
865.171	0.0159087
865.249	0.0160270
865.328	0.0159666
865.406	0.0159655
865.484	0.0160262
865.562	0.0159559
865.640	0.0160134
865.718	0.0160244
865.796	0.0160005
865.874	0.0160297
865.953	0.0159253
866.031	0.0159793
866.109	0.0159770
866.187	0.0161657
866.265	0.0159655
866.343	0.0158816
866.421	0.0160149
866.499	0.0159810
866.578	0.0158833
866.656	0.0159046
866.734	0.0160812
866.812	0.0161380
866.890	0.0158645
866.968	0.0159021
867.046	0.0159248
867.124	0.0159084
867.203	0.0158596
867.281	0.0159317
867.359	0.0160147
867.437	0.0159727
867.515	0.0159712
867.593	0.0160015
867.671	0.0158915
867.749	0.0159760
867.828	0.0160393
867.906	0.0157305
867.984	0.0159451
868.062	0.0160570
868.140	0.0159885
868.218	0.0159393
868.296	0.0160281
868.374	0.0161635
868.453	0.0160674
868.531	0.0160732
868.609	0.0160985
868.687	0.0160655
868.765	0.0159911
868.843	0.0158662
868.921	0.0159242
868.999	0.0159735
869.078	0.0160586
869.156	0.0159614
869.234	0.0159064
869.312	0.0159449
869.390	0.0159306
869.468	0.0158041
869.546	0.0158428
869.624	0.0158425
869.703	0.0157835
869.781	0.0157464
869.859	0.0157019
869.937	0.0158352
870.015	0.0156390
870.093	0.0158669
870.171	0.0160299
870.249	0.0159081
870.328	0.0159708
870.406	0.0159156
870.484	0.0158714
870.562	0.0160332
870.640	0.0160982
870.718	0.0158570
870.796	0.0160767
870.874	0.0161796
870.953	0.0160909
871.031	0.0159555
871.109	0.0159387
871.187	0.0159567
871.265	0.0160326
871.343	0.0160517
871.421	0.0159825
871.499	0.0160500
871.578	0.0161311
871.656	0.0160501
871.734	0.0159422
871.812	0.0158103
871.890	0.0158299
871.968	0.0158401
872.046	0.0159238
872.124	0.0158189
872.203	0.0157748
872.281	0.0157343
872.359	0.0157994
872.437	0.0157914
872.515	0.0158394
872.593	0.0158012
872.671	0.0158218
872.749	0.0158584
872.828	0.0158919
872.906	0.0159691
872.984	0.0159235
873.062	0.0158816
873.140	0.0160559
873.218	0.0160212
873.296	0.0159943
873.374	0.0158850
873.453	0.0160380
873.531	0.0161078
873.609	0.0161933
873.687	0.0161116
873.765	0.0162107
873.843	0.0159031
873.921	0.0161404
873.999	0.0160696
874.078	0.0161966
874.156	0.0160842
874.234	0.0161049
874.312	0.0161870
874.390	0.0160599
874.468	0.0158385
874.546	0.0160963
874.624	0.0158876
874.703	0.0158756
874.781	0.0159148
874.859	0.0158736
874.937	0.0158542
875.015	0.0158714
875.093	0.0158815
875.171	0.0157130
875.249	0.0156079
875.328	0.0158146
875.406	0.0159437
875.484	0.0158984
875.562	0.0158843
875.640	0.0157030
875.718	0.0157977
875.796	0.0157675
875.874	0.0158242
875.953	0.0158980
876.031	0.0158559
876.109	0.0159032
876.187	0.0157629
876.265	0.0156911
876.343	0.0158715
876.421	0.0157711
876.499	0.0158463
876.578	0.0157881
876.656	0.0157728
876.734	0.0159358
876.812	0.0158382
876.890	0.0157967
876.968	0.0157795
877.046	0.0158089
877.124	0.0158916
877.203	0.0158321
877.281	0.0157594
877.359	0.0159434
877.437	0.0158176
877.515	0.0158060
877.593	0.0159373
877.671	0.0159798
877.749	0.0159148
877.828	0.0160825
877.906	0.0159160
877.984	0.0159076
878.062	0.0160056
878.140	0.0160213
878.218	0.0159314
878.296	0.0159470
878.374	0.0159794
878.453	0.0160275
878.531	0.0158938
878.609	0.0159530
878.687	0.0159539
878.765	0.0159195
878.843	0.0158922
878.921	0.0159328
878.999	0.0159366
879.078	0.0159642
879.156	0.0159383
879.234	0.0160067
879.312	0.0159765
879.390	0.0159812
879.468	0.0160725
879.546	0.0160789
879.624	0.0160813
879.703	0.0159414
879.781	0.0161298
879.859	0.0160343
879.937	0.0159464
880.015	0.0158572
880.093	0.0159949
880.171	0.0159425
880.249	0.0158633
880.328	0.0159134
880.406	0.0160032
880.484	0.0159999
880.562	0.0158788
880.640	0.0159068
880.718	0.0158717
880.796	0.0158103
880.874	0.0158826
880.953	0.0159123
881.031	0.0158636
881.109	0.0158224
881.187	0.0158852
881.265	0.0157653
881.343	0.0158367
881.421	0.0156915
881.499	0.0158188
881.578	0.0158518
881.656	0.0158290
881.734	0.0159121
881.812	0.0158266
881.890	0.0157848
881.968	0.0158267
882.046	0.0159173
882.124	0.0159227
882.203	0.0159702
882.281	0.0158995
882.359	0.0159566
882.437	0.0158752
882.515	0.0158600
882.593	0.0158588
882.671	0.0159451
882.749	0.0160056
882.828	0.0160764
882.906	0.0161337
882.984	0.0158054
883.062	0.0158582
883.140	0.0160107
883.218	0.0159227
883.296	0.0160445
883.374	0.0160378
883.453	0.0161170
883.531	0.0160339
883.609	0.0161127
883.687	0.0160998
883.765	0.0160024
883.843	0.0160480
883.921	0.0160818
883.999	0.0161590
884.078	0.0160520
884.156	0.0160311
884.234	0.0160940
884.312	0.0159673
884.390	0.0161655
884.468	0.0161185
884.546	0.0160689
884.624	0.0159553
884.703	0.0159681
884.781	0.0160258
884.859	0.0158517
884.937	0.0159467
885.015	0.0159516
885.093	0.0158689
885.171	0.0161870
885.249	0.0160370
885.328	0.0161047
885.406	0.0161497
885.484	0.0160507
885.562	0.0159834
885.640	0.0160540
885.718	0.0160577
885.796	0.0160460
885.874	0.0160686
885.953	0.0161026
886.031	0.0161017
886.109	0.0163355
886.187	0.0161887
886.265	0.0161086
886.343	0.0160303
886.421	0.0161564
886.499	0.0161203
886.578	0.0159840
886.656	0.0160981
886.734	0.0159719
886.812	0.0160736
886.890	0.0159921
886.968	0.0159529
887.046	0.0158122
887.124	0.0158393
887.203	0.0159119
887.281	0.0158683
887.359	0.0158878
887.437	0.0160062
887.515	0.0159343
887.593	0.0158654
887.671	0.0158595
887.749	0.0159112
887.828	0.0159583
887.906	0.0160078
887.984	0.0159439
888.062	0.0159478
888.140	0.0159640
888.218	0.0160063
888.296	0.0159886
888.374	0.0159858
888.453	0.0159377
888.531	0.0160582
888.609	0.0159322
888.687	0.0159544
888.765	0.0160320
888.843	0.0162049
888.921	0.0160684
888.999	0.0161289
889.078	0.0160383
889.156	0.0161954
889.234	0.0160727
889.312	0.0159888
889.390	0.0161524
889.468	0.0161900
889.546	0.0160525
889.624	0.0160036
889.703	0.0159655
889.781	0.0161217
889.859	0.0159574
889.937	0.0158340
890.015	0.0159793
890.093	0.0159810
890.171	0.0159511
890.249	0.0157946
890.328	0.0157280
890.406	0.0159691
890.484	0.0157700
890.562	0.0157680
890.640	0.0159180
890.718	0.0158907
890.796	0.0157832
890.874	0.0158441
890.953	0.0158300
891.031	0.0158502
891.109	0.0158867
891.187	0.0159306
891.265	0.0158968
891.343	0.0159943
891.421	0.0158459
891.499	0.0159202
891.578	0.0159610
891.656	0.0160074
891.734	0.0161129
891.812	0.0158755
891.890	0.0159583
891.968	0.0160507
892.046	0.0160780
892.124	0.0161586
892.203	0.0159835
892.281	0.0159665
892.359	0.0160751
892.437	0.0160487
892.515	0.0159483
892.593	0.0160728
892.671	0.0159491
892.749	0.0158660
892.828	0.0159666
892.906	0.0159017
892.984	0.0157942
893.062	0.0158142
893.140	0.0158366
893.218	0.0157532
893.296	0.0156873
893.374	0.0157780
893.453	0.0156933
893.531	0.0157474
893.609	0.0158649
893.687	0.0157421
893.765	0.0157999
893.843	0.0158492
893.921	0.0157934
893.999	0.0159519
894.078	0.0158827
894.156	0.0158203
894.234	0.0158943
894.312	0.0158804
894.390	0.0160893
894.468	0.0159986
894.546	0.0158894
894.624	0.0160314
894.703	0.0159446
894.781	0.0159888
894.859	0.0159269
894.937	0.0158074
895.015	0.0159602
895.093	0.0157770
895.171	0.0158722
895.249	0.0158820
895.328	0.0158588
895.406	0.0158807
895.484	0.0159088
895.562	0.0158538
895.640	0.0160213
895.718	0.0159232
895.796	0.0160204
895.874	0.0159090
895.953	0.0160135
896.031	0.0159134
896.109	0.0159700
896.187	0.0158431
896.265	0.0158535
896.343	0.0159872
896.421	0.0159255
896.499	0.0158179
896.578	0.0159576
896.656	0.0159825
896.734	0.0159941
896.812	0.0159020
896.890	0.0159856
896.968	0.0159935
897.046	0.0158373
897.124	0.0159650
897.203	0.0160317
897.281	0.0160229
897.359	0.0160606
897.437	0.0159348
897.515	0.0161156
897.593	0.0160240
897.671	0.0160854
897.749	0.0160609
897.828	0.0160191
897.906	0.0159312
897.984	0.0160276
898.062	0.0158920
898.140	0.0159242
898.218	0.0158906
898.296	0.0158141
898.374	0.0158891
898.453	0.0158179
898.531	0.0159828
898.609	0.0158306
898.687	0.0157340
898.765	0.0158045
898.843	0.0156565
898.921	0.0157448
898.999	0.0157423
899.078	0.0157162
899.156	0.0157751
899.234	0.0157582
899.312	0.0157790
899.390	0.0157954
899.468	0.0157829
899.546	0.0157384
899.624	0.0157101
899.703	0.0158688
899.781	0.0159016
899.859	0.0158491
899.937	0.0158586
900.015	0.0159698
900.093	0.0161671
900.171	0.0160144
900.249	0.0160032
900.328	0.0160220
900.406	0.0161908
900.484	0.0160553
900.562	0.0162659
900.640	0.0161087
900.718	0.0160454
900.796	0.0159727
900.874	0.0159923
900.953	0.0160744
901.031	0.0159531
901.109	0.0161163
901.187	0.0159974
901.265	0.0160330
901.343	0.0160600
901.421	0.0159758
901.499	0.0160193
901.578	0.0161356
901.656	0.0160178
901.734	0.0159799
901.812	0.0161897
901.890	0.0161773
901.968	0.0159863
902.046	0.0158517
902.124	0.0160995
902.203	0.0161972
902.281	0.0159305
902.359	0.0161505
902.437	0.0161884
902.515	0.0160263
902.593	0.0160052
902.671	0.0160984
902.749	0.0159093
902.828	0.0159991
902.906	0.0160152
902.984	0.0160966
903.062	0.0159647
903.140	0.0158293
903.218	0.0158562
903.296	0.0159949
903.374	0.0159340
903.453	0.0161530
903.531	0.0160504
903.609	0.0160712
903.687	0.0161150
903.765	0.0161280
903.843	0.0159812
903.921	0.0161362
903.999	0.0162177
904.078	0.0161388
904.156	0.0161680
904.234	0.0160512
904.312	0.0160191
904.390	0.0160415
904.468	0.0160583
904.546	0.0161426
904.624	0.0160900
904.703	0.0159615
904.781	0.0160056
904.859	0.0159943
904.937	0.0161453
905.015	0.0159991
905.093	0.0159885
905.171	0.0161622
905.249	0.0160407
905.328	0.0159483
905.406	0.0161510
905.484	0.0161792
905.562	0.0160405
905.640	0.0159113
905.718	0.0159917
905.796	0.0160397
905.874	0.0160459
905.953	0.0159196
906.031	0.0159134
906.109	0.0161337
906.187	0.0160811
906.265	0.0160213
906.343	0.0160990
906.421	0.0159715
906.499	0.0160987
906.578	0.0160295
906.656	0.0160175
906.734	0.0161394
906.812	0.0161383
906.890	0.0159126
906.968	0.0161478
907.046	0.0161189
907.124	0.0160883
907.203	0.0160530
907.281	0.0161013
907.359	0.0161665
907.437	0.0160076
907.515	0.0159052
907.593	0.0159805
907.671	0.0159197
907.749	0.0160662
907.828	0.0159854
907.906	0.0158987
907.984	0.0160515
908.062	0.0160291
908.140	0.0159592
908.218	0.0159473
908.296	0.0160390
908.374	0.0159805
908.453	0.0159323
908.531	0.0160495
908.609	0.0158952
908.687	0.0158525
908.765	0.0159737
908.843	0.0159778
908.921	0.0159545
908.999	0.0160178
909.078	0.0161570
909.156	0.0159729
909.234	0.0159370
909.312	0.0158534
909.390	0.0160903
909.468	0.0159675
909.546	0.0159597
909.624	0.0159501
909.703	0.0158992
909.781	0.0160148
909.859	0.0159598
909.937	0.0159157
910.015	0.0160389
910.093	0.0159964
910.171	0.0160931
910.249	0.0158305
910.328	0.0158924
910.406	0.0159952
910.484	0.0159264
910.562	0.0158775
910.640	0.0158749
910.718	0.0159088
910.796	0.0158701
910.874	0.0160023
910.953	0.0158916
911.031	0.0158832
911.109	0.0158324
911.187	0.0160191
911.265	0.0158935
911.343	0.0159190
911.421	0.0160178
911.499	0.0159683
911.578	0.0159790
911.656	0.0161430
911.734	0.0160540
911.812	0.0159509
911.890	0.0160524
911.968	0.0161008
912.046	0.0160997
912.124	0.0160484
912.203	0.0162769
912.281	0.0161146
912.359	0.0161847
912.437	0.0161738
912.515	0.0160794
912.593	0.0161874
912.671	0.0160854
912.749	0.0160007
912.828	0.0160513
912.906	0.0161131
912.984	0.0161301
913.062	0.0159808
913.140	0.0159835
913.218	0.0159933
913.296	0.0159112
913.374	0.0159618
913.453	0.0160174
913.531	0.0159331
913.609	0.0156648
913.687	0.0157728
913.765	0.0159102
913.843	0.0160506
913.921	0.0160075
913.999	0.0158815
914.078	0.0158149
914.156	0.0158283
914.234	0.0159331
914.312	0.0159592
914.390	0.0158316
914.468	0.0159413
914.546	0.0159663
914.624	0.0158881
914.703	0.0158025
914.781	0.0159986
914.859	0.0158992
914.937	0.0158078
915.015	0.0159142
915.093	0.0159889
915.171	0.0159154
915.249	0.0159116
915.328	0.0159649
915.406	0.0159390
915.484	0.0158282
915.562	0.0160625
915.640	0.0160363
915.718	0.0158451
915.796	0.0159661
915.874	0.0158865
915.953	0.0160764
916.031	0.0160690
916.109	0.0159962
916.187	0.0158839
916.265	0.0159542
916.343	0.0158784
916.421	0.0159641
916.499	0.0160141
916.578	0.0159909
916.656	0.0160329
916.734	0.0159811
916.812	0.0159694
916.890	0.0159967
916.968	0.0159568
917.046	0.0161311
917.124	0.0160799
917.203	0.0161402
917.281	0.0161590
917.359	0.0159679
917.437	0.0161103
917.515	0.0159843
917.593	0.0161613
917.671	0.0161554
917.749	0.0161134
917.828	0.0160409
917.906	0.0161156
917.984	0.0161920
918.062	0.0160368
918.140	0.0161455
918.218	0.0160435
918.296	0.0160070
918.374	0.0159817
918.453	0.0158759
918.531	0.0161282
918.609	0.0159186
918.687	0.0159109
918.765	0.0158286
918.843	0.0158461
918.921	0.0159805
918.999	0.0161207
919.078	0.0160036
919.156	0.0160178
919.234	0.0160764
919.312	0.0159388
919.390	0.0159310
919.468	0.0158979
919.546	0.0160300
919.624	0.0161189
919.703	0.0161803
919.781	0.0162494
919.859	0.0161591
919.937	0.0162777
