06/10/2022	16:41:33	Ver.	4.1	UNKNOWN
Optical Delay	600.015094	Delta X		0.078125	Sweeps	1	Scan Rate	0/0
Coordinates	Axis 1	NaN	Axis 2	NaN	Axis 3	NaN	Axis 4	NaN	Axis 5	NaN	Axis 6	0.000000
TX Power	0.000000	RX Power	0.000000

600.015	0.0162943
600.093	0.0161881
600.171	0.0160928
600.249	0.0161039
600.328	0.0161765
600.406	0.0161407
600.484	0.0161388
600.562	0.0163101
600.640	0.0161992
600.718	0.0161271
600.796	0.0162165
600.874	0.0161664
600.953	0.0161599
601.031	0.0162222
601.109	0.0162927
601.187	0.0162218
601.265	0.0161465
601.343	0.0161732
601.421	0.0161937
601.499	0.0161552
601.578	0.0161880
601.656	0.0161964
601.734	0.0161499
601.812	0.0160995
601.890	0.0162173
601.968	0.0162614
602.046	0.0162337
602.124	0.0161256
602.203	0.0159628
602.281	0.0162179
602.359	0.0160864
602.437	0.0162415
602.515	0.0161735
602.593	0.0160101
602.671	0.0162987
602.749	0.0160571
602.828	0.0162240
602.906	0.0161401
602.984	0.0161266
603.062	0.0161870
603.140	0.0161962
603.218	0.0161420
603.296	0.0161029
603.374	0.0161224
603.453	0.0161843
603.531	0.0162170
603.609	0.0161451
603.687	0.0162164
603.765	0.0159273
603.843	0.0160334
603.921	0.0161469
603.999	0.0161681
604.078	0.0162756
604.156	0.0163313
604.234	0.0161566
604.312	0.0162114
604.390	0.0162656
604.468	0.0162305
604.546	0.0160860
604.624	0.0160593
604.703	0.0163014
604.781	0.0163178
604.859	0.0163349
604.937	0.0161664
605.015	0.0161568
605.093	0.0161948
605.171	0.0160784
605.249	0.0162584
605.328	0.0162754
605.406	0.0163841
605.484	0.0161052
605.562	0.0161696
605.640	0.0161065
605.718	0.0161265
605.796	0.0161671
605.874	0.0163265
605.953	0.0160695
606.031	0.0161711
606.109	0.0162005
606.187	0.0162388
606.265	0.0161838
606.343	0.0161052
606.421	0.0161961
606.499	0.0161993
606.578	0.0162410
606.656	0.0161712
606.734	0.0161166
606.812	0.0162268
606.890	0.0162206
606.968	0.0162041
607.046	0.0162547
607.124	0.0162132
607.203	0.0163223
607.281	0.0162276
607.359	0.0162644
607.437	0.0162350
607.515	0.0162688
607.593	0.0162697
607.671	0.0161391
607.749	0.0162621
607.828	0.0162233
607.906	0.0161436
607.984	0.0162940
608.062	0.0163912
608.140	0.0161047
608.218	0.0161836
608.296	0.0161481
608.374	0.0161994
608.453	0.0162453
608.531	0.0162809
608.609	0.0161746
608.687	0.0161787
608.765	0.0162495
608.843	0.0162629
608.921	0.0163178
608.999	0.0162505
609.078	0.0164523
609.156	0.0162596
609.234	0.0161895
609.312	0.0161996
609.390	0.0162603
609.468	0.0162550
609.546	0.0161999
609.624	0.0162175
609.703	0.0162736
609.781	0.0163255
609.859	0.0162036
609.937	0.0162502
610.015	0.0161472
610.093	0.0161697
610.171	0.0163085
610.249	0.0162211
610.328	0.0162392
610.406	0.0163284
610.484	0.0161496
610.562	0.0161938
610.640	0.0162885
610.718	0.0163139
610.796	0.0163269
610.874	0.0162570
610.953	0.0163660
611.031	0.0163558
611.109	0.0162898
611.187	0.0162672
611.265	0.0162600
611.343	0.0162180
611.421	0.0163126
611.499	0.0162590
611.578	0.0162525
611.656	0.0161627
611.734	0.0161820
611.812	0.0162408
611.890	0.0161930
611.968	0.0162904
612.046	0.0162246
612.124	0.0162300
612.203	0.0162498
612.281	0.0163254
612.359	0.0162838
612.437	0.0162169
612.515	0.0161987
612.593	0.0164040
612.671	0.0163622
612.749	0.0162633
612.828	0.0162059
612.906	0.0164285
612.984	0.0163171
613.062	0.0162841
613.140	0.0163963
613.218	0.0164358
613.296	0.0162197
613.374	0.0163220
613.453	0.0163340
613.531	0.0163058
613.609	0.0164111
613.687	0.0161880
613.765	0.0162788
613.843	0.0162846
613.921	0.0163906
613.999	0.0163030
614.078	0.0163597
614.156	0.0163271
614.234	0.0163098
614.312	0.0163213
614.390	0.0162664
614.468	0.0162653
614.546	0.0162487
614.624	0.0162638
614.703	0.0162416
614.781	0.0163701
614.859	0.0164986
614.937	0.0162913
615.015	0.0162634
615.093	0.0163193
615.171	0.0163121
615.249	0.0164225
615.328	0.0162791
615.406	0.0162623
615.484	0.0164215
615.562	0.0162112
615.640	0.0162582
615.718	0.0163078
615.796	0.0163110
615.874	0.0162466
615.953	0.0164721
616.031	0.0162595
616.109	0.0162781
616.187	0.0162321
616.265	0.0162486
616.343	0.0161874
616.421	0.0162672
616.499	0.0163356
616.578	0.0163966
616.656	0.0162586
616.734	0.0162945
616.812	0.0164108
616.890	0.0163450
616.968	0.0163341
617.046	0.0163834
617.124	0.0163761
617.203	0.0163067
617.281	0.0164331
617.359	0.0162938
617.437	0.0164309
617.515	0.0163165
617.593	0.0163747
617.671	0.0163211
617.749	0.0164039
617.828	0.0163454
617.906	0.0163517
617.984	0.0163425
618.062	0.0163180
618.140	0.0163758
618.218	0.0162486
618.296	0.0163190
618.374	0.0163877
618.453	0.0163864
618.531	0.0163350
618.609	0.0163374
618.687	0.0163843
618.765	0.0163556
618.843	0.0162901
618.921	0.0161921
618.999	0.0161420
619.078	0.0162614
619.156	0.0163713
619.234	0.0163586
619.312	0.0163158
619.390	0.0162144
619.468	0.0162025
619.546	0.0161356
619.624	0.0163304
619.703	0.0162606
619.781	0.0162386
619.859	0.0162817
619.937	0.0161645
620.015	0.0160532
620.093	0.0162434
620.171	0.0161564
620.249	0.0162245
620.328	0.0161918
620.406	0.0162346
620.484	0.0161617
620.562	0.0161959
620.640	0.0161441
620.718	0.0161246
620.796	0.0162250
620.874	0.0161061
620.953	0.0160985
621.031	0.0162840
621.109	0.0162146
621.187	0.0160590
621.265	0.0161730
621.343	0.0161949
621.421	0.0160698
621.499	0.0161126
621.578	0.0162187
621.656	0.0161962
621.734	0.0161488
621.812	0.0160735
621.890	0.0159753
621.968	0.0160986
622.046	0.0161076
622.124	0.0160643
622.203	0.0161493
622.281	0.0161217
622.359	0.0161398
622.437	0.0161761
622.515	0.0161456
622.593	0.0161115
622.671	0.0160573
622.749	0.0161320
622.828	0.0160158
622.906	0.0161395
622.984	0.0162418
623.062	0.0160690
623.140	0.0160503
623.218	0.0162440
623.296	0.0161454
623.374	0.0160134
623.453	0.0161369
623.531	0.0161534
623.609	0.0159983
623.687	0.0159451
623.765	0.0160394
623.843	0.0160456
623.921	0.0160804
623.999	0.0161798
624.078	0.0161217
624.156	0.0159382
624.234	0.0160857
624.312	0.0161530
624.390	0.0161327
624.468	0.0161420
624.546	0.0162270
624.624	0.0160851
624.703	0.0161024
624.781	0.0160043
624.859	0.0160764
624.937	0.0161789
625.015	0.0161198
625.093	0.0160519
625.171	0.0159808
625.249	0.0160231
625.328	0.0160429
625.406	0.0161509
625.484	0.0161745
625.562	0.0160905
625.640	0.0163031
625.718	0.0161072
625.796	0.0162025
625.874	0.0160852
625.953	0.0160831
626.031	0.0161731
626.109	0.0160358
626.187	0.0160712
626.265	0.0161476
626.343	0.0161324
626.421	0.0161732
626.499	0.0161201
626.578	0.0161607
626.656	0.0161492
626.734	0.0162683
626.812	0.0161825
626.890	0.0162558
626.968	0.0161278
627.046	0.0161406
627.124	0.0162692
627.203	0.0161331
627.281	0.0161246
627.359	0.0160901
627.437	0.0162119
627.515	0.0161762
627.593	0.0161346
627.671	0.0161963
627.749	0.0161881
627.828	0.0161826
627.906	0.0161535
627.984	0.0161629
628.062	0.0161269
628.140	0.0163077
628.218	0.0163271
628.296	0.0162074
628.374	0.0161165
628.453	0.0162689
628.531	0.0161555
628.609	0.0162325
628.687	0.0161885
628.765	0.0162249
628.843	0.0161890
628.921	0.0161311
628.999	0.0161617
629.078	0.0161511
629.156	0.0161555
629.234	0.0160650
629.312	0.0162278
629.390	0.0161762
629.468	0.0161575
629.546	0.0161604
629.624	0.0162284
629.703	0.0161651
629.781	0.0161315
629.859	0.0161412
629.937	0.0160630
630.015	0.0161205
630.093	0.0161756
630.171	0.0161387
630.249	0.0162394
630.328	0.0160816
630.406	0.0162264
630.484	0.0161873
630.562	0.0160741
630.640	0.0161894
630.718	0.0162898
630.796	0.0161314
630.874	0.0160995
630.953	0.0161128
631.031	0.0160036
631.109	0.0161285
631.187	0.0160992
631.265	0.0161320
631.343	0.0161469
631.421	0.0162592
631.499	0.0160877
631.578	0.0161041
631.656	0.0161128
631.734	0.0161342
631.812	0.0160795
631.890	0.0160998
631.968	0.0162029
632.046	0.0162460
632.124	0.0161958
632.203	0.0161483
632.281	0.0161443
632.359	0.0162117
632.437	0.0160818
632.515	0.0162180
632.593	0.0161234
632.671	0.0161086
632.749	0.0162160
632.828	0.0163510
632.906	0.0160123
632.984	0.0160178
633.062	0.0161269
633.140	0.0161827
633.218	0.0161867
633.296	0.0161890
633.374	0.0162208
633.453	0.0161786
633.531	0.0161044
633.609	0.0161103
633.687	0.0161824
633.765	0.0162742
633.843	0.0162212
633.921	0.0162719
633.999	0.0162178
634.078	0.0162549
634.156	0.0162606
634.234	0.0161357
634.312	0.0160376
634.390	0.0161555
634.468	0.0162791
634.546	0.0162523
634.624	0.0162148
634.703	0.0162370
634.781	0.0162527
634.859	0.0163238
634.937	0.0163257
635.015	0.0162310
635.093	0.0161675
635.171	0.0163999
635.249	0.0162815
635.328	0.0162531
635.406	0.0162007
635.484	0.0164119
635.562	0.0162997
635.640	0.0161973
635.718	0.0162257
635.796	0.0163422
635.874	0.0163221
635.953	0.0163582
636.031	0.0162937
636.109	0.0161658
636.187	0.0163207
636.265	0.0164342
636.343	0.0163638
636.421	0.0164095
636.499	0.0165143
636.578	0.0163983
636.656	0.0163215
636.734	0.0162884
636.812	0.0163084
636.890	0.0162775
636.968	0.0164542
637.046	0.0162698
637.124	0.0163213
637.203	0.0163398
637.281	0.0162903
637.359	0.0163194
637.437	0.0163457
637.515	0.0164229
637.593	0.0163266
637.671	0.0163916
637.749	0.0162401
637.828	0.0162846
637.906	0.0162897
637.984	0.0163173
638.062	0.0163579
638.140	0.0163773
638.218	0.0163868
638.296	0.0163329
638.374	0.0164088
638.453	0.0164167
638.531	0.0162209
638.609	0.0163959
638.687	0.0163768
638.765	0.0163406
638.843	0.0162611
638.921	0.0163054
638.999	0.0162904
639.078	0.0163515
639.156	0.0162324
639.234	0.0164088
639.312	0.0163953
639.390	0.0162276
639.468	0.0163863
639.546	0.0163553
639.624	0.0165115
639.703	0.0163782
639.781	0.0163251
639.859	0.0161472
639.937	0.0163619
640.015	0.0163815
640.093	0.0163322
640.171	0.0162992
640.249	0.0164561
640.328	0.0162968
640.406	0.0162669
640.484	0.0163908
640.562	0.0162661
640.640	0.0162669
640.718	0.0162981
640.796	0.0163213
640.874	0.0163480
640.953	0.0163424
641.031	0.0162346
641.109	0.0162877
641.187	0.0163264
641.265	0.0163299
641.343	0.0162586
641.421	0.0163960
641.499	0.0162763
641.578	0.0163261
641.656	0.0161736
641.734	0.0161729
641.812	0.0162514
641.890	0.0162200
641.968	0.0162408
642.046	0.0161355
642.124	0.0162514
642.203	0.0162665
642.281	0.0163054
642.359	0.0162270
642.437	0.0162203
642.515	0.0162244
642.593	0.0162710
642.671	0.0162763
642.749	0.0162853
642.828	0.0161481
642.906	0.0161321
642.984	0.0162715
643.062	0.0162748
643.140	0.0162270
643.218	0.0163107
643.296	0.0163945
643.374	0.0161165
643.453	0.0162293
643.531	0.0162577
643.609	0.0161694
643.687	0.0162631
643.765	0.0162021
643.843	0.0162438
643.921	0.0162334
643.999	0.0161591
644.078	0.0162513
644.156	0.0162006
644.234	0.0161636
644.312	0.0162613
644.390	0.0161085
644.468	0.0161687
644.546	0.0162521
644.624	0.0162801
644.703	0.0160703
644.781	0.0160783
644.859	0.0161494
644.937	0.0161646
645.015	0.0163127
645.093	0.0161866
645.171	0.0161407
645.249	0.0161665
645.328	0.0160957
645.406	0.0161631
645.484	0.0162040
645.562	0.0162606
645.640	0.0161881
645.718	0.0162505
645.796	0.0161550
645.874	0.0161005
645.953	0.0163523
646.031	0.0162251
646.109	0.0161140
646.187	0.0161195
646.265	0.0161760
646.343	0.0162176
646.421	0.0161005
646.499	0.0160398
646.578	0.0161195
646.656	0.0161636
646.734	0.0161932
646.812	0.0161103
646.890	0.0161840
646.968	0.0162704
647.046	0.0162652
647.124	0.0161897
647.203	0.0161393
647.281	0.0161431
647.359	0.0163094
647.437	0.0161698
647.515	0.0163028
647.593	0.0161437
647.671	0.0159813
647.749	0.0160665
647.828	0.0161508
647.906	0.0161019
647.984	0.0162066
648.062	0.0160871
648.140	0.0161423
648.218	0.0162748
648.296	0.0161652
648.374	0.0160529
648.453	0.0160791
648.531	0.0160758
648.609	0.0161386
648.687	0.0160677
648.765	0.0161997
648.843	0.0161674
648.921	0.0161185
648.999	0.0160800
649.078	0.0161156
649.156	0.0162879
649.234	0.0162289
649.312	0.0162744
649.390	0.0162093
649.468	0.0161355
649.546	0.0161487
649.624	0.0161147
649.703	0.0160022
649.781	0.0161676
649.859	0.0162192
649.937	0.0162129
650.015	0.0161454
650.093	0.0162359
650.171	0.0161271
650.249	0.0161811
650.328	0.0161227
650.406	0.0162113
650.484	0.0160976
650.562	0.0161399
650.640	0.0161983
650.718	0.0162244
650.796	0.0161807
650.874	0.0163749
650.953	0.0161981
651.031	0.0161503
651.109	0.0162541
651.187	0.0162494
651.265	0.0160818
651.343	0.0162445
651.421	0.0162165
651.499	0.0161948
651.578	0.0162698
651.656	0.0160985
651.734	0.0162267
651.812	0.0161692
651.890	0.0161347
651.968	0.0162148
652.046	0.0161957
652.124	0.0162112
652.203	0.0161777
652.281	0.0161343
652.359	0.0162109
652.437	0.0162049
652.515	0.0164156
652.593	0.0162899
652.671	0.0161182
652.749	0.0162133
652.828	0.0162352
652.906	0.0162547
652.984	0.0162317
653.062	0.0161965
653.140	0.0162577
653.218	0.0161769
653.296	0.0163133
653.374	0.0162686
653.453	0.0161488
653.531	0.0161358
653.609	0.0162671
653.687	0.0161289
653.765	0.0161021
653.843	0.0162428
653.921	0.0161824
653.999	0.0162618
654.078	0.0161673
654.156	0.0161655
654.234	0.0161652
654.312	0.0161723
654.390	0.0163405
654.468	0.0161314
654.546	0.0161572
654.624	0.0161782
654.703	0.0162118
654.781	0.0161537
654.859	0.0162865
654.937	0.0163449
655.015	0.0161117
655.093	0.0161773
655.171	0.0160886
655.249	0.0161355
655.328	0.0163115
655.406	0.0162303
655.484	0.0161613
655.562	0.0160632
655.640	0.0160615
655.718	0.0161282
655.796	0.0160360
655.874	0.0162832
655.953	0.0161081
656.031	0.0160952
656.109	0.0161102
656.187	0.0162485
656.265	0.0161388
656.343	0.0162279
656.421	0.0162703
656.499	0.0161549
656.578	0.0161900
656.656	0.0163155
656.734	0.0163018
656.812	0.0161396
656.890	0.0161265
656.968	0.0161754
657.046	0.0162508
657.124	0.0161543
657.203	0.0161655
657.281	0.0163593
657.359	0.0161593
657.437	0.0161702
657.515	0.0163097
657.593	0.0162305
657.671	0.0159522
657.749	0.0161945
657.828	0.0162202
657.906	0.0162524
657.984	0.0163023
658.062	0.0162382
658.140	0.0162180
658.218	0.0161760
658.296	0.0161771
658.374	0.0163412
658.453	0.0162148
658.531	0.0163628
658.609	0.0163235
658.687	0.0163179
658.765	0.0163065
658.843	0.0163588
658.921	0.0162304
658.999	0.0161485
659.078	0.0162767
659.156	0.0163064
659.234	0.0162694
659.312	0.0163523
659.390	0.0163633
659.468	0.0162361
659.546	0.0163392
659.624	0.0162890
659.703	0.0162273
659.781	0.0163262
659.859	0.0164542
659.937	0.0163664
660.015	0.0161959
660.093	0.0162301
660.171	0.0163125
660.249	0.0163691
660.328	0.0163548
660.406	0.0162668
660.484	0.0161754
660.562	0.0163290
660.640	0.0162157
660.718	0.0163657
660.796	0.0164130
660.874	0.0163564
660.953	0.0161088
661.031	0.0162587
661.109	0.0163257
661.187	0.0162788
661.265	0.0162513
661.343	0.0163121
661.421	0.0161665
661.499	0.0162594
661.578	0.0163406
661.656	0.0163248
661.734	0.0163486
661.812	0.0162750
661.890	0.0163190
661.968	0.0162875
662.046	0.0163701
662.124	0.0164058
662.203	0.0162148
662.281	0.0162181
662.359	0.0162942
662.437	0.0164063
662.515	0.0164010
662.593	0.0162146
662.671	0.0162955
662.749	0.0163206
662.828	0.0164053
662.906	0.0163051
662.984	0.0161892
663.062	0.0163891
663.140	0.0163559
663.218	0.0163123
663.296	0.0163386
663.374	0.0163392
663.453	0.0161774
663.531	0.0163374
663.609	0.0163468
663.687	0.0162625
663.765	0.0164246
663.843	0.0163216
663.921	0.0162083
663.999	0.0161629
664.078	0.0162465
664.156	0.0161696
664.234	0.0162985
664.312	0.0163834
664.390	0.0163534
664.468	0.0161326
664.546	0.0163204
664.624	0.0162787
664.703	0.0163987
664.781	0.0163291
664.859	0.0163361
664.937	0.0162978
665.015	0.0163309
665.093	0.0160488
665.171	0.0163925
665.249	0.0163495
665.328	0.0163213
665.406	0.0163178
665.484	0.0162373
665.562	0.0162492
665.640	0.0162626
665.718	0.0162844
665.796	0.0163256
665.874	0.0163058
665.953	0.0162931
666.031	0.0163575
666.109	0.0163175
666.187	0.0161411
666.265	0.0161839
666.343	0.0163104
666.421	0.0163566
666.499	0.0163832
666.578	0.0163486
666.656	0.0162183
666.734	0.0162991
666.812	0.0161636
666.890	0.0162064
666.968	0.0163350
667.046	0.0162547
667.124	0.0162785
667.203	0.0163967
667.281	0.0162424
667.359	0.0163038
667.437	0.0164462
667.515	0.0161590
667.593	0.0162103
667.671	0.0162712
667.749	0.0162127
667.828	0.0161431
667.906	0.0162948
667.984	0.0162858
668.062	0.0162865
668.140	0.0162930
668.218	0.0163200
668.296	0.0161844
668.374	0.0163469
668.453	0.0162478
668.531	0.0162473
668.609	0.0162036
668.687	0.0162613
668.765	0.0163916
668.843	0.0161904
668.921	0.0162353
668.999	0.0163370
669.078	0.0161250
669.156	0.0162261
669.234	0.0162935
669.312	0.0163249
669.390	0.0161840
669.468	0.0162956
669.546	0.0163371
669.624	0.0162614
669.703	0.0161478
669.781	0.0162551
669.859	0.0162956
669.937	0.0164513
670.015	0.0164046
670.093	0.0161396
670.171	0.0161697
670.249	0.0163232
670.328	0.0162230
670.406	0.0162500
670.484	0.0163203
670.562	0.0163076
670.640	0.0162659
670.718	0.0162723
670.796	0.0162531
670.874	0.0162330
670.953	0.0163235
671.031	0.0163161
671.109	0.0163766
671.187	0.0162098
671.265	0.0162901
671.343	0.0162689
671.421	0.0162979
671.499	0.0161148
671.578	0.0161559
671.656	0.0162851
671.734	0.0163440
671.812	0.0163130
671.890	0.0162318
671.968	0.0163048
672.046	0.0161972
672.124	0.0162962
672.203	0.0161933
672.281	0.0162293
672.359	0.0163087
672.437	0.0162514
672.515	0.0164117
672.593	0.0163956
672.671	0.0162109
672.749	0.0162469
672.828	0.0163361
672.906	0.0162959
672.984	0.0162872
673.062	0.0162629
673.140	0.0162910
673.218	0.0163410
673.296	0.0162440
673.374	0.0162429
673.453	0.0161308
673.531	0.0162189
673.609	0.0164455
673.687	0.0162193
673.765	0.0163241
673.843	0.0163128
673.921	0.0162561
673.999	0.0162494
674.078	0.0160313
674.156	0.0161858
674.234	0.0163005
674.312	0.0163567
674.390	0.0162765
674.468	0.0162107
674.546	0.0162526
674.624	0.0163203
674.703	0.0163535
674.781	0.0162196
674.859	0.0161642
674.937	0.0161470
675.015	0.0162099
675.093	0.0163641
675.171	0.0161622
675.249	0.0162137
675.328	0.0162193
675.406	0.0162898
675.484	0.0162115
675.562	0.0163368
675.640	0.0163187
675.718	0.0162303
675.796	0.0163367
675.874	0.0162503
675.953	0.0162768
676.031	0.0162679
676.109	0.0161028
676.187	0.0161700
676.265	0.0162694
676.343	0.0162289
676.421	0.0161659
676.499	0.0161484
676.578	0.0162241
676.656	0.0163396
676.734	0.0162340
676.812	0.0162675
676.890	0.0161444
676.968	0.0162941
677.046	0.0162021
677.124	0.0162347
677.203	0.0163302
677.281	0.0163002
677.359	0.0162080
677.437	0.0160957
677.515	0.0162486
677.593	0.0162727
677.671	0.0161752
677.749	0.0162257
677.828	0.0162954
677.906	0.0161207
677.984	0.0161021
678.062	0.0162139
678.140	0.0163667
678.218	0.0161137
678.296	0.0162111
678.374	0.0163053
678.453	0.0163507
678.531	0.0161015
678.609	0.0161418
678.687	0.0161659
678.765	0.0161558
678.843	0.0163040
678.921	0.0161469
678.999	0.0162505
679.078	0.0163252
679.156	0.0162756
679.234	0.0162126
679.312	0.0160892
679.390	0.0161848
679.468	0.0162295
679.546	0.0162949
679.624	0.0161343
679.703	0.0163098
679.781	0.0162030
679.859	0.0161823
679.937	0.0160644
680.015	0.0161749
680.093	0.0162181
680.171	0.0162248
680.249	0.0161934
680.328	0.0162788
680.406	0.0162022
680.484	0.0162087
680.562	0.0161148
680.640	0.0161566
680.718	0.0162682
680.796	0.0161666
680.874	0.0161375
680.953	0.0162081
681.031	0.0161760
681.109	0.0162381
681.187	0.0162593
681.265	0.0163350
681.343	0.0161931
681.421	0.0162176
681.499	0.0162615
681.578	0.0162582
681.656	0.0162200
681.734	0.0161861
681.812	0.0162166
681.890	0.0162512
681.968	0.0162325
682.046	0.0162711
682.124	0.0161794
682.203	0.0161702
682.281	0.0162624
682.359	0.0161696
682.437	0.0162856
682.515	0.0162930
682.593	0.0163983
682.671	0.0163196
682.749	0.0161286
682.828	0.0161745
682.906	0.0163706
682.984	0.0161528
683.062	0.0161984
683.140	0.0162777
683.218	0.0163485
683.296	0.0164081
683.374	0.0162822
683.453	0.0162696
683.531	0.0161707
683.609	0.0163219
683.687	0.0161900
683.765	0.0162664
683.843	0.0162871
683.921	0.0162572
683.999	0.0163052
684.078	0.0162923
684.156	0.0162147
684.234	0.0163022
684.312	0.0162362
684.390	0.0161979
684.468	0.0162555
684.546	0.0162665
684.624	0.0162181
684.703	0.0164026
684.781	0.0163208
684.859	0.0163234
684.937	0.0162891
685.015	0.0162585
685.093	0.0163843
685.171	0.0163420
685.249	0.0161754
685.328	0.0163519
685.406	0.0163892
685.484	0.0163047
685.562	0.0162656
685.640	0.0163647
685.718	0.0163602
685.796	0.0163711
685.874	0.0163628
685.953	0.0162292
686.031	0.0163280
686.109	0.0163502
686.187	0.0163662
686.265	0.0163673
686.343	0.0163480
686.421	0.0162514
686.499	0.0163129
686.578	0.0162901
686.656	0.0164774
686.734	0.0162345
686.812	0.0162476
686.890	0.0163380
686.968	0.0162639
687.046	0.0163578
687.124	0.0162708
687.203	0.0162387
687.281	0.0163556
687.359	0.0163094
687.437	0.0162835
687.515	0.0162402
687.593	0.0163060
687.671	0.0162336
687.749	0.0164493
687.828	0.0163670
687.906	0.0162962
687.984	0.0163252
688.062	0.0162163
688.140	0.0162357
688.218	0.0162868
688.296	0.0161652
688.374	0.0162708
688.453	0.0162650
688.531	0.0163562
688.609	0.0163192
688.687	0.0163429
688.765	0.0162928
688.843	0.0162144
688.921	0.0163333
688.999	0.0162805
689.078	0.0163181
689.156	0.0163824
689.234	0.0163226
689.312	0.0162614
689.390	0.0164170
689.468	0.0163086
689.546	0.0164005
689.624	0.0163493
689.703	0.0162860
689.781	0.0163514
689.859	0.0164393
689.937	0.0163693
690.015	0.0162574
690.093	0.0164031
690.171	0.0162099
690.249	0.0162811
690.328	0.0163492
690.406	0.0162061
690.484	0.0161780
690.562	0.0163280
690.640	0.0161947
690.718	0.0162994
690.796	0.0162228
690.874	0.0162700
690.953	0.0163053
691.031	0.0162915
691.109	0.0162914
691.187	0.0164254
691.265	0.0162497
691.343	0.0164359
691.421	0.0162766
691.499	0.0162968
691.578	0.0163098
691.656	0.0163266
691.734	0.0163194
691.812	0.0161878
691.890	0.0162914
691.968	0.0164288
692.046	0.0163297
692.124	0.0162655
692.203	0.0161239
692.281	0.0161582
692.359	0.0161652
692.437	0.0161681
692.515	0.0162338
692.593	0.0161330
692.671	0.0162409
692.749	0.0162813
692.828	0.0161521
692.906	0.0161935
692.984	0.0161951
693.062	0.0162019
693.140	0.0162445
693.218	0.0164142
693.296	0.0162572
693.374	0.0161153
693.453	0.0163283
693.531	0.0162946
693.609	0.0161243
693.687	0.0161745
693.765	0.0162565
693.843	0.0162415
693.921	0.0162459
693.999	0.0162296
694.078	0.0162534
694.156	0.0162509
694.234	0.0163561
694.312	0.0162027
694.390	0.0160722
694.468	0.0163895
694.546	0.0162708
694.624	0.0162796
694.703	0.0164064
694.781	0.0162949
694.859	0.0164059
694.937	0.0163466
695.015	0.0162917
695.093	0.0162664
695.171	0.0161613
695.249	0.0163070
695.328	0.0162823
695.406	0.0162602
695.484	0.0162493
695.562	0.0162421
695.640	0.0162893
695.718	0.0163676
695.796	0.0162212
695.874	0.0162352
695.953	0.0163074
696.031	0.0161550
696.109	0.0161861
696.187	0.0162918
696.265	0.0162576
696.343	0.0161961
696.421	0.0162090
696.499	0.0161623
696.578	0.0163277
696.656	0.0164139
696.734	0.0162274
696.812	0.0162889
696.890	0.0163001
696.968	0.0164043
697.046	0.0162141
697.124	0.0161964
697.203	0.0163742
697.281	0.0162309
697.359	0.0162263
697.437	0.0163039
697.515	0.0161781
697.593	0.0163564
697.671	0.0162806
697.749	0.0162589
697.828	0.0161431
697.906	0.0162477
697.984	0.0162621
698.062	0.0162544
698.140	0.0162173
698.218	0.0163853
698.296	0.0161829
698.374	0.0163014
698.453	0.0163840
698.531	0.0161893
698.609	0.0162736
698.687	0.0163416
698.765	0.0163058
698.843	0.0161929
698.921	0.0162119
698.999	0.0162893
699.078	0.0162601
699.156	0.0162022
699.234	0.0164271
699.312	0.0163288
699.390	0.0162900
699.468	0.0162532
699.546	0.0160777
699.624	0.0162202
699.703	0.0163158
699.781	0.0162746
699.859	0.0161538
699.937	0.0162154
700.015	0.0162305
700.093	0.0161803
700.171	0.0163052
700.249	0.0163454
700.328	0.0161678
700.406	0.0162128
700.484	0.0163106
700.562	0.0162752
700.640	0.0160535
700.718	0.0160814
700.796	0.0160801
700.874	0.0160876
700.953	0.0161028
701.031	0.0161739
701.109	0.0161689
701.187	0.0160637
701.265	0.0160285
701.343	0.0160903
701.421	0.0161179
701.499	0.0161335
701.578	0.0160755
701.656	0.0161608
701.734	0.0161018
701.812	0.0161559
701.890	0.0161466
701.968	0.0160863
702.046	0.0161733
702.124	0.0160666
702.203	0.0161038
702.281	0.0161542
702.359	0.0160073
702.437	0.0161641
702.515	0.0161626
702.593	0.0159330
702.671	0.0159938
702.749	0.0161458
702.828	0.0162304
702.906	0.0160165
702.984	0.0159619
703.062	0.0161320
703.140	0.0160994
703.218	0.0160710
703.296	0.0162514
703.374	0.0159599
703.453	0.0162070
703.531	0.0161046
703.609	0.0161207
703.687	0.0162560
703.765	0.0161123
703.843	0.0161076
703.921	0.0162716
703.999	0.0163123
704.078	0.0163208
704.156	0.0160149
704.234	0.0161069
704.312	0.0161440
704.390	0.0161387
704.468	0.0161367
704.546	0.0161835
704.624	0.0159343
704.703	0.0161665
704.781	0.0160865
704.859	0.0161535
704.937	0.0160407
705.015	0.0161226
705.093	0.0160647
705.171	0.0161071
705.249	0.0160194
705.328	0.0162314
705.406	0.0161546
705.484	0.0159878
705.562	0.0160785
705.640	0.0161356
705.718	0.0162524
705.796	0.0161427
705.874	0.0160830
705.953	0.0161666
706.031	0.0160233
706.109	0.0161016
706.187	0.0162102
706.265	0.0160469
706.343	0.0161490
706.421	0.0161956
706.499	0.0161088
706.578	0.0160490
706.656	0.0160283
706.734	0.0161711
706.812	0.0161395
706.890	0.0161443
706.968	0.0161554
707.046	0.0161871
707.124	0.0160434
707.203	0.0160863
707.281	0.0161449
707.359	0.0162117
707.437	0.0161491
707.515	0.0161486
707.593	0.0159917
707.671	0.0160532
707.749	0.0160606
707.828	0.0161472
707.906	0.0162720
707.984	0.0161716
708.062	0.0161249
708.140	0.0161523
708.218	0.0160588
708.296	0.0162186
708.374	0.0162582
708.453	0.0161721
708.531	0.0161607
708.609	0.0161958
708.687	0.0161430
708.765	0.0160253
708.843	0.0161485
708.921	0.0161063
708.999	0.0160045
709.078	0.0161440
709.156	0.0160314
709.234	0.0160338
709.312	0.0160996
709.390	0.0159861
709.468	0.0160547
709.546	0.0161961
709.624	0.0161166
709.703	0.0161597
709.781	0.0162309
709.859	0.0161608
709.937	0.0162154
710.015	0.0163056
710.093	0.0163294
710.171	0.0161657
710.249	0.0161813
710.328	0.0161732
710.406	0.0162093
710.484	0.0161699
710.562	0.0162196
710.640	0.0161363
710.718	0.0160688
710.796	0.0162545
710.874	0.0161407
710.953	0.0162267
711.031	0.0161808
711.109	0.0161913
711.187	0.0162370
711.265	0.0161494
711.343	0.0162891
711.421	0.0161129
711.499	0.0161868
711.578	0.0163097
711.656	0.0162274
711.734	0.0161201
711.812	0.0163262
711.890	0.0162114
711.968	0.0163299
712.046	0.0161192
712.124	0.0161977
712.203	0.0162605
712.281	0.0161171
712.359	0.0163688
712.437	0.0163375
712.515	0.0163067
712.593	0.0162419
712.671	0.0162605
712.749	0.0163200
712.828	0.0163869
712.906	0.0163809
712.984	0.0163102
713.062	0.0162621
713.140	0.0162594
713.218	0.0163508
713.296	0.0162155
713.374	0.0163969
713.453	0.0161473
713.531	0.0161383
713.609	0.0163445
713.687	0.0163331
713.765	0.0163014
713.843	0.0161712
713.921	0.0161698
713.999	0.0163269
714.078	0.0161990
714.156	0.0162689
714.234	0.0162404
714.312	0.0162598
714.390	0.0162109
714.468	0.0163161
714.546	0.0162469
714.624	0.0163450
714.703	0.0162741
714.781	0.0162524
714.859	0.0163086
714.937	0.0161530
715.015	0.0163860
715.093	0.0162704
715.171	0.0162932
715.249	0.0163905
715.328	0.0163805
715.406	0.0164196
715.484	0.0163980
715.562	0.0163082
715.640	0.0162989
715.718	0.0162068
715.796	0.0163651
715.874	0.0164124
715.953	0.0163450
716.031	0.0163869
716.109	0.0160991
716.187	0.0161763
716.265	0.0162371
716.343	0.0161981
716.421	0.0163343
716.499	0.0163824
716.578	0.0162981
716.656	0.0162347
716.734	0.0162857
716.812	0.0162546
716.890	0.0163319
716.968	0.0163023
717.046	0.0162260
717.124	0.0161363
717.203	0.0163535
717.281	0.0162054
717.359	0.0162193
717.437	0.0163719
717.515	0.0163145
717.593	0.0163536
717.671	0.0162332
717.749	0.0161390
717.828	0.0163741
717.906	0.0163577
717.984	0.0161990
718.062	0.0163037
718.140	0.0162810
718.218	0.0162029
718.296	0.0161805
718.374	0.0162675
718.453	0.0162716
718.531	0.0162972
718.609	0.0161835
718.687	0.0163820
718.765	0.0160714
718.843	0.0161997
718.921	0.0163007
718.999	0.0162720
719.078	0.0162530
719.156	0.0162519
719.234	0.0161786
719.312	0.0162979
719.390	0.0161578
719.468	0.0162422
719.546	0.0163598
719.624	0.0162648
719.703	0.0161981
719.781	0.0162279
719.859	0.0162023
719.937	0.0162135
720.015	0.0161877
720.093	0.0161727
720.171	0.0161868
720.249	0.0162299
720.328	0.0161974
720.406	0.0161459
720.484	0.0162314
720.562	0.0161208
720.640	0.0164487
720.718	0.0162146
720.796	0.0160445
720.874	0.0161573
720.953	0.0162073
721.031	0.0162595
721.109	0.0162134
721.187	0.0162157
721.265	0.0161126
721.343	0.0161291
721.421	0.0161346
721.499	0.0161549
721.578	0.0160465
721.656	0.0160536
721.734	0.0161310
721.812	0.0161740
721.890	0.0162386
721.968	0.0162151
722.046	0.0161997
722.124	0.0162138
722.203	0.0162804
722.281	0.0161939
722.359	0.0162019
722.437	0.0162661
722.515	0.0162184
722.593	0.0162265
722.671	0.0162929
722.749	0.0162157
722.828	0.0161733
722.906	0.0161972
722.984	0.0162849
723.062	0.0162449
723.140	0.0162254
723.218	0.0161423
723.296	0.0161724
723.374	0.0162842
723.453	0.0160996
723.531	0.0162138
723.609	0.0163289
723.687	0.0162417
723.765	0.0161419
723.843	0.0162566
723.921	0.0162630
723.999	0.0160517
724.078	0.0160258
724.156	0.0161568
724.234	0.0162189
724.312	0.0162367
724.390	0.0162055
724.468	0.0161047
724.546	0.0163289
724.624	0.0161414
724.703	0.0159986
724.781	0.0161238
724.859	0.0161865
724.937	0.0162281
725.015	0.0161929
725.093	0.0163602
725.171	0.0162606
725.249	0.0161869
725.328	0.0162850
725.406	0.0162229
725.484	0.0161417
725.562	0.0162421
725.640	0.0162017
725.718	0.0162610
725.796	0.0162223
725.874	0.0162333
725.953	0.0161536
726.031	0.0160077
726.109	0.0161636
726.187	0.0161280
726.265	0.0162501
726.343	0.0161946
726.421	0.0162774
726.499	0.0161491
726.578	0.0159928
726.656	0.0160218
726.734	0.0162084
726.812	0.0161098
726.890	0.0161884
726.968	0.0160583
727.046	0.0161389
727.124	0.0161555
727.203	0.0161421
727.281	0.0160853
727.359	0.0162097
727.437	0.0161636
727.515	0.0162446
727.593	0.0163512
727.671	0.0162352
727.749	0.0161701
727.828	0.0162460
727.906	0.0161252
727.984	0.0159987
728.062	0.0161732
728.140	0.0161732
728.218	0.0162161
728.296	0.0161286
728.374	0.0162231
728.453	0.0159808
728.531	0.0160734
728.609	0.0162033
728.687	0.0161708
728.765	0.0160810
728.843	0.0160400
728.921	0.0162669
728.999	0.0161843
729.078	0.0160813
729.156	0.0161881
729.234	0.0161885
729.312	0.0162433
729.390	0.0161771
729.468	0.0161124
729.546	0.0161457
729.624	0.0162458
729.703	0.0160249
729.781	0.0161485
729.859	0.0163449
729.937	0.0161026
730.015	0.0161263
730.093	0.0162209
730.171	0.0162353
730.249	0.0161657
730.328	0.0162492
730.406	0.0161143
730.484	0.0163023
730.562	0.0160941
730.640	0.0161875
730.718	0.0161581
730.796	0.0162365
730.874	0.0162146
730.953	0.0161613
731.031	0.0162325
731.109	0.0161744
731.187	0.0160951
731.265	0.0161219
731.343	0.0160945
731.421	0.0161060
731.499	0.0164079
731.578	0.0162091
731.656	0.0162704
731.734	0.0162617
731.812	0.0161777
731.890	0.0163392
731.968	0.0161446
732.046	0.0162356
732.124	0.0163233
732.203	0.0163436
732.281	0.0163255
732.359	0.0161687
732.437	0.0162373
732.515	0.0162219
732.593	0.0163097
732.671	0.0161901
732.749	0.0162730
732.828	0.0163224
732.906	0.0162325
732.984	0.0162164
733.062	0.0161629
733.140	0.0162460
733.218	0.0161807
733.296	0.0162278
733.374	0.0161945
733.453	0.0163367
733.531	0.0163410
733.609	0.0162647
733.687	0.0162962
733.765	0.0161972
733.843	0.0161981
733.921	0.0162907
733.999	0.0161191
734.078	0.0161385
734.156	0.0161989
734.234	0.0163683
734.312	0.0163078
734.390	0.0162503
734.468	0.0163065
734.546	0.0162183
734.624	0.0162529
734.703	0.0162087
734.781	0.0161607
734.859	0.0163260
734.937	0.0161561
735.015	0.0162125
735.093	0.0163135
735.171	0.0162220
735.249	0.0162646
735.328	0.0162313
735.406	0.0163356
735.484	0.0163092
735.562	0.0163190
735.640	0.0163078
735.718	0.0161780
735.796	0.0162113
735.874	0.0163327
735.953	0.0163926
736.031	0.0163868
736.109	0.0163536
736.187	0.0163722
736.265	0.0163982
736.343	0.0161809
736.421	0.0163729
736.499	0.0163549
736.578	0.0162291
736.656	0.0163537
736.734	0.0163387
736.812	0.0162925
736.890	0.0162535
736.968	0.0162421
737.046	0.0162984
737.124	0.0161768
737.203	0.0163954
737.281	0.0162606
737.359	0.0162323
737.437	0.0162455
737.515	0.0162626
737.593	0.0163122
737.671	0.0163710
737.749	0.0162489
737.828	0.0163795
737.906	0.0164016
737.984	0.0163834
738.062	0.0162455
738.140	0.0162264
738.218	0.0162236
738.296	0.0163325
738.374	0.0162491
738.453	0.0162559
738.531	0.0162952
738.609	0.0163338
738.687	0.0162167
738.765	0.0163448
738.843	0.0163309
738.921	0.0163762
738.999	0.0163121
739.078	0.0163126
739.156	0.0163206
739.234	0.0164455
739.312	0.0164321
739.390	0.0165402
739.468	0.0164767
739.546	0.0163815
739.624	0.0162943
739.703	0.0163963
739.781	0.0162330
739.859	0.0162931
739.937	0.0162949
740.015	0.0163457
740.093	0.0161375
740.171	0.0161599
740.249	0.0163762
740.328	0.0163700
740.406	0.0162095
740.484	0.0162192
740.562	0.0163291
740.640	0.0162104
740.718	0.0163528
740.796	0.0163607
740.874	0.0162746
740.953	0.0162334
741.031	0.0163131
741.109	0.0163383
741.187	0.0162896
741.265	0.0163306
741.343	0.0164330
741.421	0.0162853
741.499	0.0162832
741.578	0.0160968
741.656	0.0163291
741.734	0.0163154
741.812	0.0162399
741.890	0.0163788
741.968	0.0162502
742.046	0.0163228
742.124	0.0162944
742.203	0.0163320
742.281	0.0162665
742.359	0.0163430
742.437	0.0165620
742.515	0.0162681
742.593	0.0162883
742.671	0.0163720
742.749	0.0163293
742.828	0.0163852
742.906	0.0163055
742.984	0.0162361
743.062	0.0164165
743.140	0.0164209
743.218	0.0163272
743.296	0.0162885
743.374	0.0163300
743.453	0.0164680
743.531	0.0163760
743.609	0.0163470
743.687	0.0162734
743.765	0.0162739
743.843	0.0164104
743.921	0.0163363
743.999	0.0163199
744.078	0.0163910
744.156	0.0163711
744.234	0.0163293
744.312	0.0162760
744.390	0.0161784
744.468	0.0163725
744.546	0.0162761
744.624	0.0163283
744.703	0.0163023
744.781	0.0163274
744.859	0.0164054
744.937	0.0163568
745.015	0.0162795
745.093	0.0163918
745.171	0.0162693
745.249	0.0161745
745.328	0.0161874
745.406	0.0163187
745.484	0.0162941
745.562	0.0162362
745.640	0.0162729
745.718	0.0162582
745.796	0.0162483
745.874	0.0163370
745.953	0.0162362
746.031	0.0162274
746.109	0.0162676
746.187	0.0162322
746.265	0.0162515
746.343	0.0162989
746.421	0.0163984
746.499	0.0163850
746.578	0.0163267
746.656	0.0162093
746.734	0.0162342
746.812	0.0161970
746.890	0.0161630
746.968	0.0161593
747.046	0.0161623
747.124	0.0162830
747.203	0.0163979
747.281	0.0163229
747.359	0.0163918
747.437	0.0163734
747.515	0.0162504
747.593	0.0162106
747.671	0.0162191
747.749	0.0163166
747.828	0.0161729
747.906	0.0161971
747.984	0.0163145
748.062	0.0163055
748.140	0.0161298
748.218	0.0161323
748.296	0.0163671
748.374	0.0161392
748.453	0.0163402
748.531	0.0164102
748.609	0.0162608
748.687	0.0160857
748.765	0.0162699
748.843	0.0162489
748.921	0.0161772
748.999	0.0162730
749.078	0.0161716
749.156	0.0162489
749.234	0.0162701
749.312	0.0162790
749.390	0.0161892
749.468	0.0162434
749.546	0.0162331
749.624	0.0161777
749.703	0.0162161
749.781	0.0162063
749.859	0.0162153
749.937	0.0161925
750.015	0.0160987
750.093	0.0161862
750.171	0.0162204
750.249	0.0163246
750.328	0.0161489
750.406	0.0161549
750.484	0.0163627
750.562	0.0161248
750.640	0.0162539
750.718	0.0162209
750.796	0.0161537
750.874	0.0163664
750.953	0.0161212
751.031	0.0163718
751.109	0.0162617
751.187	0.0161430
751.265	0.0161920
751.343	0.0161985
751.421	0.0163162
751.499	0.0162309
751.578	0.0161645
751.656	0.0162794
751.734	0.0163135
751.812	0.0163280
751.890	0.0161964
751.968	0.0163039
752.046	0.0161574
752.124	0.0162520
752.203	0.0161515
752.281	0.0162393
752.359	0.0162598
752.437	0.0163694
752.515	0.0162462
752.593	0.0162417
752.671	0.0163183
752.749	0.0162975
752.828	0.0162495
752.906	0.0161447
752.984	0.0161816
753.062	0.0163008
753.140	0.0161097
753.218	0.0164526
753.296	0.0162347
753.374	0.0161721
753.453	0.0162968
753.531	0.0162733
753.609	0.0162875
753.687	0.0161771
753.765	0.0162312
753.843	0.0162115
753.921	0.0162569
753.999	0.0162447
754.078	0.0161613
754.156	0.0162527
754.234	0.0162688
754.312	0.0160899
754.390	0.0161052
754.468	0.0161277
754.546	0.0162727
754.624	0.0163464
754.703	0.0162917
754.781	0.0162735
754.859	0.0162363
754.937	0.0162428
755.015	0.0162582
755.093	0.0161438
755.171	0.0163543
755.249	0.0163375
755.328	0.0162505
755.406	0.0162509
755.484	0.0162508
755.562	0.0161884
755.640	0.0162062
755.718	0.0162198
755.796	0.0163024
755.874	0.0163605
755.953	0.0163229
756.031	0.0161796
756.109	0.0163247
756.187	0.0163199
756.265	0.0162647
756.343	0.0163461
756.421	0.0163850
756.499	0.0163409
756.578	0.0162888
756.656	0.0163002
756.734	0.0161906
756.812	0.0162033
756.890	0.0162527
756.968	0.0162247
757.046	0.0162490
757.124	0.0163772
757.203	0.0161980
757.281	0.0162552
757.359	0.0162711
757.437	0.0162331
757.515	0.0162369
757.593	0.0161708
757.671	0.0162340
757.749	0.0161765
757.828	0.0162665
757.906	0.0161527
757.984	0.0162408
758.062	0.0163496
758.140	0.0160719
758.218	0.0163145
758.296	0.0163277
758.374	0.0163320
758.453	0.0162885
758.531	0.0163176
758.609	0.0163384
758.687	0.0162309
758.765	0.0162486
758.843	0.0163301
758.921	0.0162588
758.999	0.0163654
759.078	0.0163401
759.156	0.0161966
759.234	0.0161917
759.312	0.0163563
759.390	0.0162263
759.468	0.0161921
759.546	0.0161371
759.624	0.0162520
759.703	0.0162801
759.781	0.0163800
759.859	0.0162411
759.937	0.0162186
760.015	0.0162931
760.093	0.0161591
760.171	0.0162362
760.249	0.0161676
760.328	0.0161936
760.406	0.0161764
760.484	0.0161282
760.562	0.0161722
760.640	0.0162080
760.718	0.0162857
760.796	0.0161586
760.874	0.0163170
760.953	0.0162313
761.031	0.0162177
761.109	0.0163204
761.187	0.0162478
761.265	0.0163306
761.343	0.0162181
761.421	0.0163325
761.499	0.0162370
761.578	0.0162565
761.656	0.0163415
761.734	0.0163203
761.812	0.0162659
761.890	0.0162965
761.968	0.0163618
762.046	0.0164215
762.124	0.0164507
762.203	0.0163151
762.281	0.0163407
762.359	0.0163432
762.437	0.0164234
762.515	0.0162689
762.593	0.0163085
762.671	0.0162555
762.749	0.0163686
762.828	0.0162961
762.906	0.0162389
762.984	0.0163185
763.062	0.0163369
763.140	0.0162914
763.218	0.0162418
763.296	0.0162171
763.374	0.0160718
763.453	0.0163249
763.531	0.0162891
763.609	0.0162805
763.687	0.0162108
763.765	0.0161884
763.843	0.0162161
763.921	0.0161260
763.999	0.0163327
764.078	0.0162917
764.156	0.0162680
764.234	0.0164716
764.312	0.0165091
764.390	0.0163752
764.468	0.0164933
764.546	0.0162226
764.624	0.0162193
764.703	0.0163831
764.781	0.0163210
764.859	0.0163091
764.937	0.0162116
765.015	0.0161604
765.093	0.0162714
765.171	0.0162403
765.249	0.0162481
765.328	0.0162415
765.406	0.0161458
765.484	0.0162141
765.562	0.0161224
765.640	0.0161771
765.718	0.0163171
765.796	0.0162224
765.874	0.0161086
765.953	0.0161910
766.031	0.0163219
766.109	0.0162486
766.187	0.0163042
766.265	0.0162262
766.343	0.0162840
766.421	0.0161947
766.499	0.0163663
766.578	0.0163825
766.656	0.0162277
766.734	0.0162176
766.812	0.0164195
766.890	0.0163757
766.968	0.0163914
767.046	0.0166239
767.124	0.0162982
767.203	0.0163311
767.281	0.0165201
767.359	0.0162941
767.437	0.0165103
767.515	0.0163510
767.593	0.0163706
767.671	0.0162301
767.749	0.0163450
767.828	0.0162828
767.906	0.0161449
767.984	0.0161843
768.062	0.0163171
768.140	0.0162182
768.218	0.0162572
768.296	0.0161870
768.374	0.0161948
768.453	0.0163135
768.531	0.0162869
768.609	0.0161182
768.687	0.0160977
768.765	0.0161245
768.843	0.0160935
768.921	0.0161204
768.999	0.0159740
769.078	0.0160380
769.156	0.0161084
769.234	0.0160249
769.312	0.0160966
769.390	0.0162374
769.468	0.0161366
769.546	0.0160675
769.624	0.0160873
769.703	0.0162189
769.781	0.0161790
769.859	0.0161633
769.937	0.0162567
770.015	0.0163383
770.093	0.0162834
770.171	0.0162689
770.249	0.0162780
770.328	0.0163927
770.406	0.0163552
770.484	0.0164362
770.562	0.0164450
770.640	0.0163626
770.718	0.0164091
770.796	0.0164499
770.874	0.0164484
770.953	0.0163728
771.031	0.0162046
771.109	0.0162929
771.187	0.0163113
771.265	0.0163136
771.343	0.0162692
771.421	0.0164396
771.499	0.0163376
771.578	0.0162846
771.656	0.0162605
771.734	0.0163061
771.812	0.0162390
771.890	0.0163511
771.968	0.0163450
772.046	0.0162629
772.124	0.0161705
772.203	0.0163238
772.281	0.0162038
772.359	0.0161527
772.437	0.0160973
772.515	0.0161939
772.593	0.0160331
772.671	0.0161481
772.749	0.0161593
772.828	0.0162048
772.906	0.0162000
772.984	0.0161299
773.062	0.0161704
773.140	0.0160722
773.218	0.0161376
773.296	0.0160610
773.374	0.0159882
773.453	0.0161816
773.531	0.0161208
773.609	0.0161771
773.687	0.0160364
773.765	0.0160065
773.843	0.0160643
773.921	0.0160699
773.999	0.0160072
774.078	0.0161131
774.156	0.0160753
774.234	0.0160900
774.312	0.0160619
774.390	0.0160347
774.468	0.0162734
774.546	0.0161899
774.624	0.0161166
774.703	0.0162778
774.781	0.0161308
774.859	0.0162259
774.937	0.0161299
775.015	0.0161612
775.093	0.0162405
775.171	0.0162047
775.249	0.0163057
775.328	0.0161639
775.406	0.0164538
775.484	0.0163142
775.562	0.0164838
775.640	0.0164708
775.718	0.0165899
775.796	0.0164220
775.874	0.0163895
775.953	0.0164319
776.031	0.0164874
776.109	0.0162823
776.187	0.0164387
776.265	0.0163411
776.343	0.0162968
776.421	0.0162646
776.499	0.0162740
776.578	0.0161687
776.656	0.0162208
776.734	0.0162074
776.812	0.0161141
776.890	0.0162306
776.968	0.0160514
777.046	0.0161233
777.124	0.0159246
777.203	0.0160002
777.281	0.0159743
777.359	0.0160558
777.437	0.0159782
777.515	0.0159243
777.593	0.0160172
777.671	0.0160877
777.749	0.0159835
777.828	0.0160603
777.906	0.0161485
777.984	0.0159824
778.062	0.0160382
778.140	0.0161835
778.218	0.0162103
778.296	0.0162062
778.374	0.0161657
778.453	0.0162861
778.531	0.0162854
778.609	0.0162585
778.687	0.0162976
778.765	0.0162945
778.843	0.0161582
778.921	0.0162064
778.999	0.0161995
779.078	0.0162391
779.156	0.0161725
779.234	0.0162311
779.312	0.0162251
779.390	0.0161073
779.468	0.0161835
779.546	0.0163609
779.624	0.0162876
779.703	0.0161219
779.781	0.0161980
779.859	0.0161198
779.937	0.0161617
780.015	0.0161198
780.093	0.0162422
780.171	0.0162871
780.249	0.0162059
780.328	0.0161134
780.406	0.0162312
780.484	0.0162009
780.562	0.0162715
780.640	0.0163446
780.718	0.0161636
780.796	0.0162994
780.874	0.0162682
780.953	0.0163353
781.031	0.0163458
781.109	0.0164455
781.187	0.0162064
781.265	0.0160599
781.343	0.0161144
781.421	0.0160669
781.499	0.0160498
781.578	0.0160282
781.656	0.0160838
781.734	0.0160125
781.812	0.0160821
781.890	0.0159216
781.968	0.0158920
782.046	0.0159628
782.124	0.0159342
782.203	0.0160522
782.281	0.0159988
782.359	0.0159156
782.437	0.0160363
782.515	0.0160232
782.593	0.0159703
782.671	0.0160932
782.749	0.0161479
782.828	0.0162306
782.906	0.0162469
782.984	0.0164196
783.062	0.0162897
783.140	0.0162822
783.218	0.0164778
783.296	0.0164523
783.374	0.0164886
783.453	0.0163250
783.531	0.0162422
783.609	0.0162786
783.687	0.0163158
783.765	0.0161763
783.843	0.0162254
783.921	0.0162395
783.999	0.0162206
784.078	0.0161900
784.156	0.0161756
784.234	0.0160908
784.312	0.0161298
784.390	0.0159480
784.468	0.0159784
784.546	0.0159735
784.624	0.0160567
784.703	0.0159561
784.781	0.0157552
784.859	0.0158884
784.937	0.0159637
785.015	0.0157713
785.093	0.0156936
785.171	0.0159064
785.249	0.0159897
785.328	0.0158986
785.406	0.0159321
785.484	0.0160830
785.562	0.0161044
785.640	0.0161019
785.718	0.0162646
785.796	0.0163160
785.874	0.0162278
785.953	0.0162774
786.031	0.0162738
786.109	0.0163483
786.187	0.0164270
786.265	0.0165406
786.343	0.0163798
786.421	0.0164699
786.499	0.0164237
786.578	0.0165337
786.656	0.0166656
786.734	0.0166208
786.812	0.0165444
786.890	0.0166145
786.968	0.0166410
787.046	0.0165315
787.124	0.0164465
787.203	0.0164594
787.281	0.0165543
787.359	0.0164624
787.437	0.0163795
787.515	0.0161964
787.593	0.0161808
787.671	0.0163117
787.749	0.0161022
787.828	0.0160960
787.906	0.0160639
787.984	0.0159973
788.062	0.0159427
788.140	0.0159766
788.218	0.0161661
788.296	0.0160886
788.374	0.0160352
788.453	0.0159689
788.531	0.0159972
788.609	0.0160087
788.687	0.0159768
788.765	0.0161433
788.843	0.0160625
788.921	0.0159438
788.999	0.0160043
789.078	0.0160125
789.156	0.0160117
789.234	0.0160643
789.312	0.0160304
789.390	0.0160336
789.468	0.0160607
789.546	0.0160425
789.624	0.0160490
789.703	0.0160121
789.781	0.0161013
789.859	0.0161317
789.937	0.0160702
790.015	0.0159728
790.093	0.0160975
790.171	0.0161633
790.249	0.0160432
790.328	0.0160831
790.406	0.0160826
790.484	0.0163112
790.562	0.0162923
790.640	0.0162702
790.718	0.0161858
790.796	0.0163220
790.874	0.0162144
790.953	0.0163823
791.031	0.0164223
791.109	0.0163095
791.187	0.0163767
791.265	0.0164230
791.343	0.0165020
791.421	0.0164526
791.499	0.0164532
791.578	0.0166073
791.656	0.0165012
791.734	0.0164745
791.812	0.0165344
791.890	0.0163483
791.968	0.0164290
792.046	0.0165054
792.124	0.0165259
792.203	0.0165167
792.281	0.0165090
792.359	0.0164322
792.437	0.0163579
792.515	0.0163682
792.593	0.0162275
792.671	0.0162465
792.749	0.0162321
792.828	0.0160721
792.906	0.0160999
792.984	0.0158990
793.062	0.0157706
793.140	0.0160165
793.218	0.0158466
793.296	0.0157987
793.374	0.0157820
793.453	0.0157954
793.531	0.0157353
793.609	0.0157780
793.687	0.0156088
793.765	0.0156455
793.843	0.0158050
793.921	0.0158336
793.999	0.0157433
794.078	0.0157914
794.156	0.0159566
794.234	0.0160128
794.312	0.0160162
794.390	0.0161169
794.468	0.0162454
794.546	0.0163297
794.624	0.0162753
794.703	0.0164083
794.781	0.0165603
794.859	0.0165174
794.937	0.0163663
795.015	0.0165321
795.093	0.0166051
795.171	0.0165311
795.249	0.0165167
795.328	0.0165547
795.406	0.0164990
795.484	0.0164542
795.562	0.0163783
795.640	0.0163551
795.718	0.0162558
795.796	0.0162658
795.874	0.0162196
795.953	0.0160622
796.031	0.0161427
796.109	0.0162092
796.187	0.0161440
796.265	0.0161634
796.343	0.0160736
796.421	0.0160495
796.499	0.0160161
796.578	0.0160069
796.656	0.0160092
796.734	0.0160788
796.812	0.0161071
796.890	0.0159634
796.968	0.0160929
797.046	0.0160825
797.124	0.0161771
797.203	0.0163452
797.281	0.0162274
797.359	0.0162894
797.437	0.0162778
797.515	0.0165218
797.593	0.0163743
797.671	0.0166146
797.749	0.0164524
797.828	0.0165536
797.906	0.0167056
797.984	0.0165804
798.062	0.0165697
798.140	0.0166299
798.218	0.0165884
798.296	0.0165656
798.374	0.0165524
798.453	0.0166782
798.531	0.0165924
798.609	0.0164959
798.687	0.0165298
798.765	0.0164874
798.843	0.0164422
798.921	0.0162836
798.999	0.0163420
799.078	0.0161958
799.156	0.0162443
799.234	0.0162432
799.312	0.0161467
799.390	0.0161786
799.468	0.0161848
799.546	0.0161404
799.624	0.0160627
799.703	0.0159846
799.781	0.0159608
799.859	0.0158185
799.937	0.0158093
800.015	0.0160515
800.093	0.0160770
800.171	0.0158186
800.249	0.0159420
800.328	0.0158295
800.406	0.0158610
800.484	0.0159168
800.562	0.0159096
800.640	0.0159908
800.718	0.0159155
800.796	0.0159297
800.874	0.0160618
800.953	0.0160536
801.031	0.0158968
801.109	0.0160431
801.187	0.0162225
801.265	0.0160201
801.343	0.0162063
801.421	0.0163255
801.499	0.0162975
801.578	0.0163350
801.656	0.0163359
801.734	0.0163142
801.812	0.0163319
801.890	0.0163723
801.968	0.0165875
802.046	0.0164503
802.124	0.0164133
802.203	0.0164890
802.281	0.0164911
802.359	0.0163913
802.437	0.0164142
802.515	0.0164390
802.593	0.0162244
802.671	0.0165826
802.749	0.0163949
802.828	0.0162861
802.906	0.0164132
802.984	0.0162892
803.062	0.0163311
803.140	0.0162174
803.218	0.0161518
803.296	0.0161035
803.374	0.0161424
803.453	0.0162263
803.531	0.0162643
803.609	0.0161113
803.687	0.0161932
803.765	0.0162624
803.843	0.0161144
803.921	0.0161739
803.999	0.0163111
804.078	0.0161775
804.156	0.0163011
804.234	0.0162314
804.312	0.0161929
804.390	0.0160692
804.468	0.0162168
804.546	0.0162296
804.624	0.0160837
804.703	0.0160947
804.781	0.0161629
804.859	0.0160516
804.937	0.0159295
805.015	0.0158689
805.093	0.0159013
805.171	0.0158945
805.249	0.0159080
805.328	0.0158109
805.406	0.0159266
805.484	0.0158052
805.562	0.0157844
805.640	0.0158243
805.718	0.0158944
805.796	0.0159218
805.874	0.0158409
805.953	0.0159377
806.031	0.0161314
806.109	0.0160117
806.187	0.0160378
806.265	0.0160227
806.343	0.0161289
806.421	0.0161935
806.499	0.0163208
806.578	0.0163137
806.656	0.0163288
806.734	0.0163622
806.812	0.0164699
806.890	0.0163513
806.968	0.0163302
807.046	0.0163670
807.124	0.0164535
807.203	0.0165010
807.281	0.0165053
807.359	0.0165161
807.437	0.0164417
807.515	0.0163865
807.593	0.0164005
807.671	0.0165002
807.749	0.0164038
807.828	0.0164148
807.906	0.0163369
807.984	0.0163456
808.062	0.0163862
808.140	0.0160130
808.218	0.0162373
808.296	0.0161846
808.374	0.0161829
808.453	0.0161015
808.531	0.0161836
808.609	0.0162506
808.687	0.0162658
808.765	0.0161954
808.843	0.0161997
808.921	0.0160923
808.999	0.0161436
809.078	0.0160706
809.156	0.0161139
809.234	0.0161629
809.312	0.0161500
809.390	0.0162352
809.468	0.0161807
809.546	0.0163206
809.624	0.0164391
809.703	0.0163166
809.781	0.0162253
809.859	0.0163438
809.937	0.0163512
810.015	0.0163382
810.093	0.0163421
810.171	0.0162780
810.249	0.0164074
810.328	0.0162727
810.406	0.0162126
810.484	0.0161228
810.562	0.0161292
810.640	0.0160005
810.718	0.0159501
810.796	0.0160168
810.874	0.0157842
810.953	0.0157478
811.031	0.0158954
811.109	0.0157617
811.187	0.0159028
811.265	0.0157759
811.343	0.0157555
811.421	0.0157508
811.499	0.0157900
811.578	0.0157043
811.656	0.0158819
811.734	0.0160339
811.812	0.0160243
811.890	0.0160715
811.968	0.0161012
812.046	0.0162918
812.124	0.0162325
812.203	0.0161934
812.281	0.0162917
812.359	0.0164309
812.437	0.0163454
812.515	0.0164556
812.593	0.0163704
812.671	0.0162917
812.749	0.0162332
812.828	0.0162588
812.906	0.0163120
812.984	0.0162686
813.062	0.0162567
813.140	0.0162918
813.218	0.0161168
813.296	0.0162193
813.374	0.0161799
813.453	0.0162469
813.531	0.0162637
813.609	0.0162472
813.687	0.0162030
813.765	0.0161550
813.843	0.0163631
813.921	0.0163247
813.999	0.0164146
814.078	0.0164039
814.156	0.0163359
814.234	0.0163741
814.312	0.0164405
814.390	0.0165233
814.468	0.0165363
814.546	0.0164808
814.624	0.0165396
814.703	0.0165614
814.781	0.0167593
814.859	0.0166185
814.937	0.0167440
815.015	0.0167138
815.093	0.0167481
815.171	0.0165368
815.249	0.0166090
815.328	0.0165602
815.406	0.0165382
815.484	0.0164613
815.562	0.0163927
815.640	0.0162998
815.718	0.0163036
815.796	0.0161549
815.874	0.0160577
815.953	0.0161085
816.031	0.0159237
816.109	0.0159677
816.187	0.0159064
816.265	0.0158337
816.343	0.0157839
816.421	0.0159293
816.499	0.0157997
816.578	0.0157768
816.656	0.0157795
816.734	0.0159389
816.812	0.0158905
816.890	0.0157902
816.968	0.0159599
817.046	0.0160207
817.124	0.0159307
817.203	0.0159657
817.281	0.0161671
817.359	0.0160083
817.437	0.0161806
817.515	0.0161581
817.593	0.0162722
817.671	0.0163510
817.749	0.0164430
817.828	0.0164796
817.906	0.0165219
817.984	0.0166512
818.062	0.0165923
818.140	0.0167777
818.218	0.0167284
818.296	0.0167446
818.374	0.0168732
818.453	0.0167580
818.531	0.0166997
818.609	0.0166669
818.687	0.0166313
818.765	0.0167463
818.843	0.0166302
818.921	0.0167647
818.999	0.0164812
819.078	0.0165045
819.156	0.0163506
819.234	0.0163549
819.312	0.0162400
819.390	0.0163429
819.468	0.0161105
819.546	0.0161365
819.624	0.0161015
819.703	0.0162352
819.781	0.0160410
819.859	0.0161055
819.937	0.0160788
820.015	0.0162014
820.093	0.0162704
820.171	0.0161469
820.249	0.0161266
820.328	0.0161302
820.406	0.0162521
820.484	0.0164427
820.562	0.0162404
820.640	0.0163414
820.718	0.0163737
820.796	0.0164558
820.874	0.0164594
820.953	0.0163205
821.031	0.0164362
821.109	0.0163848
821.187	0.0163248
821.265	0.0164488
821.343	0.0163663
821.421	0.0163741
821.499	0.0164123
821.578	0.0163849
821.656	0.0163184
821.734	0.0162170
821.812	0.0162422
821.890	0.0161710
821.968	0.0161659
822.046	0.0161406
822.124	0.0161118
822.203	0.0160735
822.281	0.0159681
822.359	0.0159310
822.437	0.0159469
822.515	0.0160805
822.593	0.0159986
822.671	0.0158141
822.749	0.0159867
822.828	0.0160360
822.906	0.0161021
822.984	0.0161262
823.062	0.0160950
823.140	0.0161797
823.218	0.0161922
823.296	0.0161418
823.374	0.0161790
823.453	0.0163251
823.531	0.0162189
823.609	0.0163725
823.687	0.0163357
823.765	0.0163824
823.843	0.0163422
823.921	0.0165821
823.999	0.0164079
824.078	0.0164273
824.156	0.0165889
824.234	0.0164626
824.312	0.0164817
824.390	0.0166212
824.468	0.0166404
824.546	0.0165896
824.624	0.0166776
824.703	0.0167658
824.781	0.0168177
824.859	0.0169038
824.937	0.0167306
825.015	0.0167699
825.093	0.0167624
825.171	0.0166945
825.249	0.0164725
825.328	0.0165138
825.406	0.0164314
825.484	0.0164764
825.562	0.0163508
825.640	0.0161163
825.718	0.0161515
825.796	0.0161871
825.874	0.0160358
825.953	0.0160944
826.031	0.0158774
826.109	0.0159327
826.187	0.0157843
826.265	0.0159790
826.343	0.0158930
826.421	0.0158912
826.499	0.0159537
826.578	0.0160165
826.656	0.0159991
826.734	0.0159633
826.812	0.0160724
826.890	0.0161378
826.968	0.0162492
827.046	0.0163461
827.124	0.0164407
827.203	0.0165754
827.281	0.0164548
827.359	0.0166078
827.437	0.0165855
827.515	0.0165089
827.593	0.0167546
827.671	0.0166071
827.749	0.0167412
827.828	0.0168138
827.906	0.0168157
827.984	0.0166982
828.062	0.0166663
828.140	0.0166125
828.218	0.0165857
828.296	0.0165355
828.374	0.0163762
828.453	0.0163506
828.531	0.0162468
828.609	0.0163541
828.687	0.0162061
828.765	0.0160680
828.843	0.0160434
828.921	0.0160617
828.999	0.0158856
829.078	0.0159314
829.156	0.0158310
829.234	0.0157309
829.312	0.0156955
829.390	0.0156264
829.468	0.0155044
829.546	0.0154684
829.624	0.0156288
829.703	0.0156075
829.781	0.0158300
829.859	0.0156188
829.937	0.0159042
830.015	0.0157539
830.093	0.0159622
830.171	0.0159257
830.249	0.0160707
830.328	0.0161238
830.406	0.0164517
830.484	0.0165385
830.562	0.0164964
830.640	0.0165556
830.718	0.0166219
830.796	0.0168717
830.874	0.0168559
830.953	0.0168195
831.031	0.0167845
831.109	0.0168237
831.187	0.0168782
831.265	0.0168909
831.343	0.0169206
831.421	0.0168793
831.499	0.0167297
831.578	0.0167056
831.656	0.0166777
831.734	0.0164859
831.812	0.0166389
831.890	0.0163837
831.968	0.0162600
832.046	0.0162478
832.124	0.0163276
832.203	0.0162402
832.281	0.0161436
832.359	0.0160214
832.437	0.0160558
832.515	0.0161111
832.593	0.0160286
832.671	0.0160427
832.749	0.0160370
832.828	0.0158328
832.906	0.0159332
832.984	0.0159344
833.062	0.0159880
833.140	0.0160117
833.218	0.0159085
833.296	0.0161475
833.374	0.0159747
833.453	0.0160436
833.531	0.0160560
833.609	0.0160390
833.687	0.0161578
833.765	0.0161575
833.843	0.0161131
833.921	0.0160400
833.999	0.0158543
834.078	0.0161608
834.156	0.0159261
834.234	0.0159510
834.312	0.0158183
834.390	0.0158136
834.468	0.0157275
834.546	0.0157122
834.624	0.0158536
834.703	0.0157959
834.781	0.0159512
834.859	0.0158777
834.937	0.0158797
835.015	0.0160950
835.093	0.0160676
835.171	0.0162132
835.249	0.0164655
835.328	0.0164494
835.406	0.0164505
835.484	0.0164602
835.562	0.0165912
835.640	0.0166178
835.718	0.0167955
835.796	0.0169131
835.874	0.0167671
835.953	0.0168163
836.031	0.0168843
836.109	0.0170048
836.187	0.0168657
836.265	0.0168767
836.343	0.0168186
836.421	0.0168851
836.499	0.0168576
836.578	0.0169161
836.656	0.0168008
836.734	0.0167233
836.812	0.0166562
836.890	0.0164518
836.968	0.0165746
837.046	0.0164631
837.124	0.0163097
837.203	0.0161885
837.281	0.0162170
837.359	0.0160968
837.437	0.0158065
837.515	0.0159030
837.593	0.0158528
837.671	0.0158939
837.749	0.0157825
837.828	0.0158883
837.906	0.0157191
837.984	0.0158080
838.062	0.0157053
838.140	0.0156658
838.218	0.0156947
838.296	0.0157941
838.374	0.0157568
838.453	0.0157941
838.531	0.0159200
838.609	0.0158901
838.687	0.0159412
838.765	0.0159518
838.843	0.0160807
838.921	0.0161906
838.999	0.0162659
839.078	0.0162622
839.156	0.0163158
839.234	0.0163689
839.312	0.0164359
839.390	0.0163217
839.468	0.0164895
839.546	0.0164811
839.624	0.0165947
839.703	0.0165890
839.781	0.0165806
839.859	0.0166697
839.937	0.0166076
840.015	0.0165636
840.093	0.0166441
840.171	0.0165794
840.249	0.0165251
840.328	0.0165514
840.406	0.0163777
840.484	0.0164051
840.562	0.0163731
840.640	0.0165211
840.718	0.0165122
840.796	0.0164818
840.874	0.0165306
840.953	0.0164306
841.031	0.0165984
841.109	0.0164824
841.187	0.0166202
841.265	0.0165659
841.343	0.0165514
841.421	0.0164931
841.499	0.0164412
841.578	0.0163557
841.656	0.0165547
841.734	0.0165041
841.812	0.0164896
841.890	0.0164184
841.968	0.0164014
842.046	0.0163313
842.124	0.0162554
842.203	0.0161833
842.281	0.0161478
842.359	0.0159923
842.437	0.0160281
842.515	0.0160157
842.593	0.0158704
842.671	0.0157051
842.749	0.0159068
842.828	0.0159725
842.906	0.0157452
842.984	0.0158245
843.062	0.0158453
843.140	0.0160021
843.218	0.0159374
843.296	0.0160914
843.374	0.0161446
843.453	0.0162060
843.531	0.0162571
843.609	0.0162242
843.687	0.0164251
843.765	0.0165474
843.843	0.0164451
843.921	0.0165504
843.999	0.0166183
844.078	0.0166389
844.156	0.0166621
844.234	0.0166364
844.312	0.0166608
844.390	0.0166537
844.468	0.0167818
844.546	0.0167072
844.624	0.0167555
844.703	0.0165844
844.781	0.0166838
844.859	0.0166006
844.937	0.0164654
845.015	0.0164054
845.093	0.0164665
845.171	0.0163886
845.249	0.0163229
845.328	0.0161101
845.406	0.0162486
845.484	0.0160433
845.562	0.0160905
845.640	0.0160207
845.718	0.0160718
845.796	0.0159619
845.874	0.0159576
845.953	0.0158704
846.031	0.0158082
846.109	0.0159271
846.187	0.0160205
846.265	0.0160399
846.343	0.0160433
846.421	0.0160983
846.499	0.0161691
846.578	0.0162685
846.656	0.0162172
846.734	0.0163394
846.812	0.0164224
846.890	0.0165097
846.968	0.0164149
847.046	0.0163704
847.124	0.0164659
847.203	0.0166727
847.281	0.0165802
847.359	0.0165685
847.437	0.0166646
847.515	0.0166369
847.593	0.0166747
847.671	0.0166277
847.749	0.0166120
847.828	0.0166109
847.906	0.0164440
847.984	0.0164812
848.062	0.0163863
848.140	0.0163923
848.218	0.0162657
848.296	0.0163278
848.374	0.0162285
848.453	0.0162638
848.531	0.0161466
848.609	0.0160239
848.687	0.0162181
848.765	0.0161704
848.843	0.0161394
848.921	0.0161919
848.999	0.0160742
849.078	0.0159954
849.156	0.0161285
849.234	0.0162102
849.312	0.0161508
849.390	0.0161583
849.468	0.0162275
849.546	0.0162974
849.624	0.0163334
849.703	0.0163058
849.781	0.0163257
849.859	0.0162846
849.937	0.0163097
850.015	0.0161571
850.093	0.0163393
850.171	0.0164421
850.249	0.0162505
850.328	0.0162611
850.406	0.0162813
850.484	0.0161826
850.562	0.0161877
850.640	0.0161911
850.718	0.0160893
850.796	0.0160487
850.874	0.0161266
850.953	0.0161561
851.031	0.0161059
851.109	0.0160283
851.187	0.0161543
851.265	0.0161608
851.343	0.0160792
851.421	0.0161882
851.499	0.0161344
851.578	0.0161907
851.656	0.0162516
851.734	0.0160521
851.812	0.0160858
851.890	0.0162305
851.968	0.0161874
852.046	0.0162344
852.124	0.0162676
852.203	0.0162500
852.281	0.0162127
852.359	0.0162594
852.437	0.0162723
852.515	0.0162566
852.593	0.0163959
852.671	0.0162503
852.749	0.0164060
852.828	0.0163115
852.906	0.0164510
852.984	0.0163128
853.062	0.0163429
853.140	0.0164353
853.218	0.0162916
853.296	0.0162243
853.374	0.0163741
853.453	0.0163129
853.531	0.0162151
853.609	0.0162665
853.687	0.0162581
853.765	0.0160891
853.843	0.0160734
853.921	0.0161471
853.999	0.0161077
854.078	0.0160034
854.156	0.0159451
854.234	0.0159451
854.312	0.0159088
854.390	0.0159828
854.468	0.0158993
854.546	0.0161671
854.624	0.0160727
854.703	0.0159578
854.781	0.0160880
854.859	0.0160436
854.937	0.0160348
855.015	0.0163057
855.093	0.0162354
855.171	0.0161855
855.249	0.0163877
855.328	0.0163797
855.406	0.0164433
855.484	0.0164213
855.562	0.0164691
855.640	0.0163967
855.718	0.0163165
855.796	0.0164816
855.874	0.0163786
855.953	0.0163676
856.031	0.0161981
856.109	0.0163377
856.187	0.0162843
856.265	0.0161137
856.343	0.0162210
856.421	0.0160781
856.499	0.0161555
856.578	0.0160519
856.656	0.0160909
856.734	0.0160907
856.812	0.0162899
856.890	0.0160097
856.968	0.0160758
857.046	0.0161573
857.124	0.0161105
857.203	0.0162528
857.281	0.0162581
857.359	0.0161514
857.437	0.0161957
857.515	0.0162323
857.593	0.0161047
857.671	0.0162088
857.749	0.0162904
857.828	0.0161939
857.906	0.0162964
857.984	0.0162923
858.062	0.0162132
858.140	0.0164240
858.218	0.0163423
858.296	0.0164272
858.374	0.0163613
858.453	0.0162288
858.531	0.0163208
858.609	0.0162875
858.687	0.0164961
858.765	0.0163372
858.843	0.0164229
858.921	0.0163258
858.999	0.0163570
859.078	0.0162424
859.156	0.0162132
859.234	0.0162318
859.312	0.0163559
859.390	0.0162542
859.468	0.0163052
859.546	0.0161144
859.624	0.0161871
859.703	0.0161562
859.781	0.0161250
859.859	0.0161021
859.937	0.0162690
860.015	0.0162877
860.093	0.0161742
860.171	0.0161855
860.249	0.0162575
860.328	0.0162207
860.406	0.0162114
860.484	0.0161977
860.562	0.0161499
860.640	0.0162100
860.718	0.0162197
860.796	0.0162461
860.874	0.0163070
860.953	0.0163279
861.031	0.0162775
861.109	0.0161633
861.187	0.0161973
861.265	0.0162357
861.343	0.0161473
861.421	0.0161877
861.499	0.0162148
861.578	0.0161148
861.656	0.0161751
861.734	0.0161192
861.812	0.0160849
861.890	0.0161105
861.968	0.0161108
862.046	0.0161349
862.124	0.0160461
862.203	0.0161958
862.281	0.0161375
862.359	0.0159128
862.437	0.0161480
862.515	0.0162734
862.593	0.0162019
862.671	0.0161069
862.749	0.0161973
862.828	0.0163030
862.906	0.0162999
862.984	0.0162734
863.062	0.0163262
863.140	0.0164608
863.218	0.0164504
863.296	0.0162789
863.374	0.0163446
863.453	0.0164483
863.531	0.0164406
863.609	0.0162881
863.687	0.0163271
863.765	0.0163983
863.843	0.0162379
863.921	0.0161875
863.999	0.0162795
864.078	0.0161334
864.156	0.0160492
864.234	0.0161521
864.312	0.0161010
864.390	0.0161626
864.468	0.0159724
864.546	0.0159037
864.624	0.0160899
864.703	0.0160584
864.781	0.0159654
864.859	0.0160108
864.937	0.0161405
865.015	0.0161595
865.093	0.0161205
865.171	0.0160638
865.249	0.0161639
865.328	0.0161200
865.406	0.0160921
865.484	0.0161358
865.562	0.0161818
865.640	0.0160987
865.718	0.0161771
865.796	0.0161633
865.874	0.0162274
865.953	0.0161961
866.031	0.0162154
866.109	0.0162218
866.187	0.0161996
866.265	0.0162642
866.343	0.0161481
866.421	0.0162220
866.499	0.0163226
866.578	0.0162916
866.656	0.0162808
866.734	0.0162390
866.812	0.0163482
866.890	0.0161053
866.968	0.0162147
867.046	0.0162091
867.124	0.0162048
867.203	0.0160802
867.281	0.0162781
867.359	0.0161873
867.437	0.0161884
867.515	0.0162215
867.593	0.0162459
867.671	0.0159885
867.749	0.0161740
867.828	0.0163088
867.906	0.0162260
867.984	0.0161073
868.062	0.0161828
868.140	0.0162091
868.218	0.0161174
868.296	0.0162634
868.374	0.0161370
868.453	0.0161966
868.531	0.0164080
868.609	0.0162876
868.687	0.0162765
868.765	0.0163641
868.843	0.0161733
868.921	0.0163197
868.999	0.0162061
869.078	0.0162010
869.156	0.0162784
869.234	0.0163675
869.312	0.0163806
869.390	0.0162658
869.468	0.0163480
869.546	0.0161457
869.624	0.0162092
869.703	0.0162207
869.781	0.0161187
869.859	0.0160205
869.937	0.0161258
870.015	0.0161087
870.093	0.0161063
870.171	0.0160944
870.249	0.0162117
870.328	0.0161086
870.406	0.0161390
870.484	0.0163222
870.562	0.0161891
870.640	0.0162244
870.718	0.0161264
870.796	0.0161266
870.874	0.0162286
870.953	0.0163420
871.031	0.0162812
871.109	0.0164564
871.187	0.0163333
871.265	0.0162606
871.343	0.0161930
871.421	0.0164069
871.499	0.0163910
871.578	0.0162927
871.656	0.0163641
871.734	0.0163393
871.812	0.0161895
871.890	0.0162055
871.968	0.0161297
872.046	0.0162209
872.124	0.0161874
872.203	0.0160378
872.281	0.0160640
872.359	0.0160857
872.437	0.0161557
872.515	0.0160229
872.593	0.0161079
872.671	0.0159192
872.749	0.0160362
872.828	0.0161893
872.906	0.0159348
872.984	0.0160604
873.062	0.0160247
873.140	0.0161784
873.218	0.0160886
873.296	0.0160348
873.374	0.0158730
873.453	0.0159985
873.531	0.0160760
873.609	0.0161533
873.687	0.0161117
873.765	0.0162633
873.843	0.0161388
873.921	0.0161328
873.999	0.0163460
874.078	0.0161487
874.156	0.0162280
874.234	0.0164098
874.312	0.0164255
874.390	0.0162651
874.468	0.0164103
874.546	0.0163682
874.624	0.0162670
874.703	0.0163177
874.781	0.0162802
874.859	0.0162383
874.937	0.0161125
875.015	0.0161898
875.093	0.0162256
875.171	0.0160920
875.249	0.0162511
875.328	0.0161270
875.406	0.0160574
875.484	0.0160082
875.562	0.0161531
875.640	0.0161047
875.718	0.0159596
875.796	0.0160329
875.874	0.0160287
875.953	0.0158948
876.031	0.0159055
876.109	0.0160016
876.187	0.0159743
876.265	0.0160430
876.343	0.0161325
876.421	0.0161023
876.499	0.0159351
876.578	0.0161165
876.656	0.0161361
876.734	0.0160022
876.812	0.0161808
876.890	0.0161041
876.968	0.0161177
877.046	0.0161231
877.124	0.0160347
877.203	0.0160615
877.281	0.0160542
877.359	0.0160857
877.437	0.0162032
877.515	0.0161418
877.593	0.0161038
877.671	0.0161875
877.749	0.0162381
877.828	0.0162004
877.906	0.0163660
877.984	0.0161136
878.062	0.0162455
878.140	0.0162278
878.218	0.0161402
878.296	0.0161761
878.374	0.0161501
878.453	0.0162663
878.531	0.0161890
878.609	0.0161685
878.687	0.0163587
878.765	0.0163400
878.843	0.0161176
878.921	0.0162560
878.999	0.0162547
879.078	0.0163175
879.156	0.0162107
879.234	0.0162379
879.312	0.0163107
879.390	0.0161754
879.468	0.0163342
879.546	0.0162796
879.624	0.0162708
879.703	0.0164021
879.781	0.0164034
879.859	0.0163327
879.937	0.0163057
880.015	0.0163145
880.093	0.0162238
880.171	0.0162148
880.249	0.0162888
880.328	0.0164854
880.406	0.0162418
880.484	0.0161983
880.562	0.0162852
880.640	0.0163511
880.718	0.0163123
880.796	0.0163218
880.874	0.0161647
880.953	0.0161226
881.031	0.0163993
881.109	0.0162492
881.187	0.0161899
881.265	0.0161229
881.343	0.0161801
881.421	0.0161568
881.499	0.0162442
881.578	0.0162411
881.656	0.0162618
881.734	0.0163207
881.812	0.0162407
881.890	0.0163200
881.968	0.0162952
882.046	0.0162129
882.124	0.0161200
882.203	0.0163003
882.281	0.0162153
882.359	0.0162763
882.437	0.0162743
882.515	0.0162141
882.593	0.0162788
882.671	0.0162771
882.749	0.0161260
882.828	0.0162782
882.906	0.0162275
882.984	0.0162174
883.062	0.0161915
883.140	0.0161995
883.218	0.0163095
883.296	0.0162636
883.374	0.0162234
883.453	0.0163551
883.531	0.0164001
883.609	0.0163194
883.687	0.0162597
883.765	0.0162440
883.843	0.0164750
883.921	0.0162713
883.999	0.0163653
884.078	0.0163512
884.156	0.0162056
884.234	0.0164137
884.312	0.0162563
884.390	0.0162619
884.468	0.0161454
884.546	0.0163366
884.624	0.0161781
884.703	0.0163106
884.781	0.0162778
884.859	0.0162290
884.937	0.0162292
885.015	0.0159766
885.093	0.0162006
885.171	0.0162584
885.249	0.0161958
885.328	0.0161436
885.406	0.0160152
885.484	0.0160682
885.562	0.0160461
885.640	0.0161107
885.718	0.0161542
885.796	0.0161147
885.874	0.0162334
885.953	0.0163354
886.031	0.0163198
886.109	0.0161722
886.187	0.0162691
886.265	0.0163895
886.343	0.0163825
886.421	0.0162342
886.499	0.0163895
886.578	0.0163156
886.656	0.0162434
886.734	0.0162926
886.812	0.0162574
886.890	0.0163446
886.968	0.0162548
887.046	0.0163182
887.124	0.0161867
887.203	0.0161367
887.281	0.0162000
887.359	0.0161288
887.437	0.0161536
887.515	0.0161607
887.593	0.0160724
887.671	0.0160561
887.749	0.0160220
887.828	0.0159830
887.906	0.0161459
887.984	0.0161637
888.062	0.0160722
888.140	0.0161143
888.218	0.0160937
888.296	0.0161465
888.374	0.0160820
888.453	0.0160960
888.531	0.0160368
888.609	0.0161152
888.687	0.0162211
888.765	0.0161514
888.843	0.0161804
888.921	0.0162614
888.999	0.0162804
889.078	0.0161975
889.156	0.0162365
889.234	0.0162005
889.312	0.0163226
889.390	0.0162248
889.468	0.0161959
889.546	0.0163384
889.624	0.0163413
889.703	0.0163171
889.781	0.0162961
889.859	0.0162875
889.937	0.0163128
890.015	0.0164198
890.093	0.0161720
890.171	0.0162732
890.249	0.0163055
890.328	0.0161342
890.406	0.0161987
890.484	0.0162999
890.562	0.0163156
890.640	0.0161970
890.718	0.0162740
890.796	0.0161313
890.874	0.0160921
890.953	0.0162465
891.031	0.0161126
891.109	0.0160861
891.187	0.0160802
891.265	0.0160221
891.343	0.0162189
891.421	0.0161266
891.499	0.0160950
891.578	0.0160417
891.656	0.0162411
891.734	0.0161893
891.812	0.0161987
891.890	0.0162991
891.968	0.0163593
892.046	0.0163228
892.124	0.0164372
892.203	0.0165452
892.281	0.0162481
892.359	0.0162044
892.437	0.0163940
892.515	0.0162981
892.593	0.0162586
892.671	0.0164183
892.749	0.0162728
892.828	0.0161954
892.906	0.0163614
892.984	0.0163895
893.062	0.0161749
893.140	0.0160284
893.218	0.0161158
893.296	0.0161323
893.374	0.0159979
893.453	0.0159923
893.531	0.0160261
893.609	0.0160081
893.687	0.0159590
893.765	0.0158988
893.843	0.0160133
893.921	0.0160748
893.999	0.0160548
894.078	0.0160307
894.156	0.0160223
894.234	0.0159499
894.312	0.0161218
894.390	0.0161050
894.468	0.0163094
894.546	0.0161381
894.624	0.0161736
894.703	0.0162231
894.781	0.0162189
894.859	0.0161440
894.937	0.0161680
895.015	0.0161583
895.093	0.0161684
895.171	0.0163130
895.249	0.0162885
895.328	0.0161945
895.406	0.0161042
895.484	0.0160994
895.562	0.0161749
895.640	0.0161597
895.718	0.0162225
895.796	0.0161302
895.874	0.0161103
895.953	0.0162227
896.031	0.0162592
896.109	0.0162788
896.187	0.0161426
896.265	0.0161310
896.343	0.0163271
896.421	0.0163250
896.499	0.0161476
896.578	0.0160998
896.656	0.0161593
896.734	0.0162387
896.812	0.0161790
896.890	0.0162679
896.968	0.0162280
897.046	0.0161361
897.124	0.0162733
897.203	0.0162382
897.281	0.0162312
897.359	0.0162952
897.437	0.0162295
897.515	0.0161173
897.593	0.0161881
897.671	0.0162632
897.749	0.0163226
897.828	0.0162831
897.906	0.0163645
897.984	0.0164393
898.062	0.0163772
898.140	0.0164639
898.218	0.0163686
898.296	0.0164735
898.374	0.0163568
898.453	0.0162707
898.531	0.0161840
898.609	0.0162214
898.687	0.0163263
898.765	0.0161422
898.843	0.0161703
898.921	0.0162141
898.999	0.0161044
899.078	0.0161806
899.156	0.0162311
899.234	0.0160754
899.312	0.0159876
899.390	0.0161041
899.468	0.0160323
899.546	0.0159510
899.624	0.0161929
899.703	0.0160461
899.781	0.0160072
899.859	0.0161168
899.937	0.0161327
900.015	0.0160788
900.093	0.0160753
900.171	0.0160774
900.249	0.0160855
900.328	0.0161246
900.406	0.0162539
900.484	0.0161997
900.562	0.0164455
900.640	0.0164584
900.718	0.0162180
900.796	0.0163409
900.874	0.0164658
900.953	0.0163470
901.031	0.0164205
901.109	0.0163849
901.187	0.0164020
901.265	0.0164437
901.343	0.0164398
901.421	0.0164590
901.499	0.0163248
901.578	0.0162904
901.656	0.0163566
901.734	0.0163439
901.812	0.0163358
901.890	0.0162620
901.968	0.0163926
902.046	0.0163157
902.124	0.0163092
902.203	0.0163546
902.281	0.0164359
902.359	0.0162963
902.437	0.0162287
902.515	0.0162963
902.593	0.0162613
902.671	0.0163805
902.749	0.0163619
902.828	0.0163190
902.906	0.0162600
902.984	0.0162047
903.062	0.0164483
903.140	0.0163303
903.218	0.0162820
903.296	0.0163763
903.374	0.0163684
903.453	0.0162266
903.531	0.0163143
903.609	0.0162416
903.687	0.0161971
903.765	0.0162167
903.843	0.0163354
903.921	0.0161327
903.999	0.0161918
904.078	0.0161798
904.156	0.0162420
904.234	0.0161919
904.312	0.0162027
904.390	0.0161996
904.468	0.0162692
904.546	0.0162996
904.624	0.0161037
904.703	0.0160876
904.781	0.0160886
904.859	0.0160960
904.937	0.0160005
905.015	0.0162581
905.093	0.0162076
905.171	0.0160764
905.249	0.0161272
905.328	0.0159991
905.406	0.0161318
905.484	0.0161073
905.562	0.0160511
905.640	0.0160694
905.718	0.0161073
905.796	0.0162066
905.874	0.0161604
905.953	0.0161275
906.031	0.0161488
906.109	0.0161726
906.187	0.0161627
906.265	0.0162534
906.343	0.0161534
906.421	0.0162727
906.499	0.0163326
906.578	0.0162475
906.656	0.0162956
906.734	0.0163792
906.812	0.0162899
906.890	0.0161969
906.968	0.0161624
907.046	0.0162247
907.124	0.0162467
907.203	0.0162333
907.281	0.0163620
907.359	0.0161555
907.437	0.0162485
907.515	0.0160976
907.593	0.0161332
907.671	0.0161887
907.749	0.0161830
907.828	0.0161587
907.906	0.0161006
907.984	0.0162319
908.062	0.0160317
908.140	0.0162048
908.218	0.0162125
908.296	0.0162672
908.374	0.0161196
908.453	0.0162530
908.531	0.0162361
908.609	0.0161973
908.687	0.0161879
908.765	0.0162936
908.843	0.0162510
908.921	0.0162540
908.999	0.0162955
909.078	0.0161922
909.156	0.0161649
909.234	0.0163340
909.312	0.0162457
909.390	0.0162275
909.468	0.0160864
909.546	0.0162778
909.624	0.0163366
909.703	0.0161897
909.781	0.0161716
909.859	0.0163137
909.937	0.0162608
910.015	0.0161668
910.093	0.0161922
910.171	0.0163510
910.249	0.0162198
910.328	0.0161520
910.406	0.0163171
910.484	0.0163834
910.562	0.0161853
910.640	0.0162827
910.718	0.0163007
910.796	0.0162980
910.874	0.0161952
910.953	0.0161250
911.031	0.0162347
911.109	0.0160924
911.187	0.0162826
911.265	0.0163192
911.343	0.0161599
911.421	0.0162883
911.499	0.0162566
911.578	0.0162185
911.656	0.0161824
911.734	0.0161751
911.812	0.0163126
911.890	0.0161205
911.968	0.0163881
912.046	0.0163758
912.124	0.0163471
912.203	0.0163089
912.281	0.0163132
912.359	0.0163441
912.437	0.0164104
912.515	0.0164252
912.593	0.0164339
912.671	0.0164786
912.749	0.0163184
912.828	0.0163647
912.906	0.0163005
912.984	0.0163805
913.062	0.0163564
913.140	0.0163441
913.218	0.0163492
913.296	0.0163428
913.374	0.0162698
913.453	0.0162363
913.531	0.0162289
913.609	0.0161543
913.687	0.0163136
913.765	0.0162082
913.843	0.0163107
913.921	0.0162072
913.999	0.0161272
914.078	0.0161993
914.156	0.0163019
914.234	0.0162782
914.312	0.0163130
914.390	0.0162319
914.468	0.0163422
914.546	0.0162679
914.624	0.0163424
914.703	0.0162446
914.781	0.0161904
914.859	0.0164046
914.937	0.0161060
915.015	0.0162264
915.093	0.0162745
915.171	0.0163022
915.249	0.0163585
915.328	0.0161911
915.406	0.0163757
915.484	0.0162919
915.562	0.0161943
915.640	0.0162447
915.718	0.0163670
915.796	0.0163068
915.874	0.0163180
915.953	0.0162429
916.031	0.0162098
916.109	0.0164366
916.187	0.0162125
916.265	0.0161936
916.343	0.0160973
916.421	0.0163889
916.499	0.0163072
916.578	0.0162585
916.656	0.0162884
916.734	0.0161861
916.812	0.0162971
916.890	0.0164722
916.968	0.0161842
917.046	0.0162358
917.124	0.0163292
917.203	0.0162920
917.281	0.0163369
917.359	0.0164416
917.437	0.0162613
917.515	0.0162895
917.593	0.0161723
917.671	0.0162181
917.749	0.0164251
917.828	0.0164709
917.906	0.0163240
917.984	0.0163738
918.062	0.0163113
918.140	0.0163450
918.218	0.0164290
918.296	0.0164109
918.374	0.0163684
918.453	0.0163727
918.531	0.0163745
918.609	0.0163910
918.687	0.0162498
918.765	0.0163115
918.843	0.0164560
918.921	0.0163159
918.999	0.0161820
919.078	0.0163097
919.156	0.0163486
919.234	0.0162593
919.312	0.0161533
919.390	0.0162301
919.468	0.0160606
919.546	0.0161568
919.624	0.0162820
919.703	0.0163105
919.781	0.0162621
919.859	0.0162392
919.937	0.0161259
