06/10/2022	16:42:08	Ver.	4.1	UNKNOWN
Optical Delay	600.015094	Delta X		0.078125	Sweeps	1	Scan Rate	0/0
Coordinates	Axis 1	NaN	Axis 2	NaN	Axis 3	NaN	Axis 4	NaN	Axis 5	NaN	Axis 6	0.000000
TX Power	0.000000	RX Power	0.000000

600.015	0.0161263
600.093	0.0161394
600.171	0.0160280
600.249	0.0162389
600.328	0.0161797
600.406	0.0161572
600.484	0.0162426
600.562	0.0161779
600.640	0.0161984
600.718	0.0162362
600.796	0.0161929
600.874	0.0160777
600.953	0.0161169
601.031	0.0161310
601.109	0.0162351
601.187	0.0162078
601.265	0.0161688
601.343	0.0162260
601.421	0.0161501
601.499	0.0161720
601.578	0.0162610
601.656	0.0162440
601.734	0.0161716
601.812	0.0161217
601.890	0.0161538
601.968	0.0163531
602.046	0.0162267
602.124	0.0161218
602.203	0.0161787
602.281	0.0162043
602.359	0.0163416
602.437	0.0162587
602.515	0.0162691
602.593	0.0162212
602.671	0.0161381
602.749	0.0160622
602.828	0.0162370
602.906	0.0161174
602.984	0.0162326
603.062	0.0162833
603.140	0.0161694
603.218	0.0160895
603.296	0.0162666
603.374	0.0161518
603.453	0.0162636
603.531	0.0161687
603.609	0.0161233
603.687	0.0162025
603.765	0.0163390
603.843	0.0162099
603.921	0.0162480
603.999	0.0163316
604.078	0.0163655
604.156	0.0163385
604.234	0.0161608
604.312	0.0162215
604.390	0.0162236
604.468	0.0162969
604.546	0.0161873
604.624	0.0163858
604.703	0.0163419
604.781	0.0163616
604.859	0.0163519
604.937	0.0161581
605.015	0.0163010
605.093	0.0162538
605.171	0.0164475
605.249	0.0162029
605.328	0.0161438
605.406	0.0163920
605.484	0.0162611
605.562	0.0162649
605.640	0.0163947
605.718	0.0163708
605.796	0.0163293
605.874	0.0162997
605.953	0.0164391
606.031	0.0163357
606.109	0.0162202
606.187	0.0163553
606.265	0.0164206
606.343	0.0163144
606.421	0.0163969
606.499	0.0163764
606.578	0.0164631
606.656	0.0162614
606.734	0.0161611
606.812	0.0163547
606.890	0.0163451
606.968	0.0164494
607.046	0.0164339
607.124	0.0162205
607.203	0.0163131
607.281	0.0162749
607.359	0.0162717
607.437	0.0163255
607.515	0.0162287
607.593	0.0163161
607.671	0.0162926
607.749	0.0162196
607.828	0.0162364
607.906	0.0163157
607.984	0.0162888
608.062	0.0163044
608.140	0.0162307
608.218	0.0162933
608.296	0.0163353
608.374	0.0164514
608.453	0.0163261
608.531	0.0163380
608.609	0.0162341
608.687	0.0163204
608.765	0.0163751
608.843	0.0162721
608.921	0.0163039
608.999	0.0163206
609.078	0.0162170
609.156	0.0162706
609.234	0.0162727
609.312	0.0164370
609.390	0.0163516
609.468	0.0162130
609.546	0.0164693
609.624	0.0162591
609.703	0.0161914
609.781	0.0163174
609.859	0.0163988
609.937	0.0163191
610.015	0.0163542
610.093	0.0163195
610.171	0.0163295
610.249	0.0162811
610.328	0.0163304
610.406	0.0163839
610.484	0.0162820
610.562	0.0162663
610.640	0.0162862
610.718	0.0163251
610.796	0.0162930
610.874	0.0164008
610.953	0.0162962
611.031	0.0162368
611.109	0.0162438
611.187	0.0163744
611.265	0.0163026
611.343	0.0164106
611.421	0.0161562
611.499	0.0161938
611.578	0.0162109
611.656	0.0161337
611.734	0.0162177
611.812	0.0163300
611.890	0.0161514
611.968	0.0162248
612.046	0.0162041
612.124	0.0163353
612.203	0.0163629
612.281	0.0163234
612.359	0.0161224
612.437	0.0161935
612.515	0.0162922
612.593	0.0162518
612.671	0.0161521
612.749	0.0161987
612.828	0.0162586
612.906	0.0163284
612.984	0.0162140
613.062	0.0162857
613.140	0.0164152
613.218	0.0163327
613.296	0.0162340
613.374	0.0162742
613.453	0.0163135
613.531	0.0164127
613.609	0.0163982
613.687	0.0162263
613.765	0.0163531
613.843	0.0162392
613.921	0.0162763
613.999	0.0162350
614.078	0.0163345
614.156	0.0162604
614.234	0.0162558
614.312	0.0163642
614.390	0.0161650
614.468	0.0163904
614.546	0.0162550
614.624	0.0162085
614.703	0.0163419
614.781	0.0163251
614.859	0.0161926
614.937	0.0162247
615.015	0.0162531
615.093	0.0161447
615.171	0.0162004
615.249	0.0163145
615.328	0.0162459
615.406	0.0160838
615.484	0.0163058
615.562	0.0161820
615.640	0.0163275
615.718	0.0161739
615.796	0.0162119
615.874	0.0162310
615.953	0.0161088
616.031	0.0161200
616.109	0.0162926
616.187	0.0161568
616.265	0.0161256
616.343	0.0161393
616.421	0.0162097
616.499	0.0161737
616.578	0.0160036
616.656	0.0161609
616.734	0.0160921
616.812	0.0163525
616.890	0.0161787
616.968	0.0161878
617.046	0.0161749
617.124	0.0159731
617.203	0.0161289
617.281	0.0162282
617.359	0.0161485
617.437	0.0163511
617.515	0.0161390
617.593	0.0161321
617.671	0.0161608
617.749	0.0161794
617.828	0.0162973
617.906	0.0162283
617.984	0.0161417
618.062	0.0162144
618.140	0.0162093
618.218	0.0162110
618.296	0.0162710
618.374	0.0161611
618.453	0.0162295
618.531	0.0162235
618.609	0.0162552
618.687	0.0161361
618.765	0.0160538
618.843	0.0161688
618.921	0.0160519
618.999	0.0163666
619.078	0.0161788
619.156	0.0162062
619.234	0.0161652
619.312	0.0162856
619.390	0.0163025
619.468	0.0161257
619.546	0.0161314
619.624	0.0161785
619.703	0.0161198
619.781	0.0161990
619.859	0.0162888
619.937	0.0162348
620.015	0.0160857
620.093	0.0160860
620.171	0.0162749
620.249	0.0163054
620.328	0.0161567
620.406	0.0160815
620.484	0.0160776
620.562	0.0160440
620.640	0.0162062
620.718	0.0161959
620.796	0.0162376
620.874	0.0161028
620.953	0.0160813
621.031	0.0160665
621.109	0.0162149
621.187	0.0163799
621.265	0.0161294
621.343	0.0162287
621.421	0.0161784
621.499	0.0161456
621.578	0.0161640
621.656	0.0162344
621.734	0.0161840
621.812	0.0162183
621.890	0.0160766
621.968	0.0163052
622.046	0.0162965
622.124	0.0162249
622.203	0.0162022
622.281	0.0161723
622.359	0.0161873
622.437	0.0162710
622.515	0.0161306
622.593	0.0162239
622.671	0.0162661
622.749	0.0162061
622.828	0.0162337
622.906	0.0163007
622.984	0.0161273
623.062	0.0162383
623.140	0.0161688
623.218	0.0161290
623.296	0.0162727
623.374	0.0162930
623.453	0.0160947
623.531	0.0163118
623.609	0.0160661
623.687	0.0161594
623.765	0.0163022
623.843	0.0162296
623.921	0.0162780
623.999	0.0162172
624.078	0.0162519
624.156	0.0162251
624.234	0.0161454
624.312	0.0162096
624.390	0.0163318
624.468	0.0162395
624.546	0.0162812
624.624	0.0163596
624.703	0.0162114
624.781	0.0161493
624.859	0.0162144
624.937	0.0163364
625.015	0.0163091
625.093	0.0161794
625.171	0.0161575
625.249	0.0162846
625.328	0.0160968
625.406	0.0163242
625.484	0.0161627
625.562	0.0162375
625.640	0.0161952
625.718	0.0163406
625.796	0.0162821
625.874	0.0162173
625.953	0.0161623
626.031	0.0162180
626.109	0.0162440
626.187	0.0161884
626.265	0.0163621
626.343	0.0162568
626.421	0.0162479
626.499	0.0162431
626.578	0.0161727
626.656	0.0162652
626.734	0.0162730
626.812	0.0161945
626.890	0.0162920
626.968	0.0162374
627.046	0.0162085
627.124	0.0161484
627.203	0.0161946
627.281	0.0161269
627.359	0.0163270
627.437	0.0163404
627.515	0.0161531
627.593	0.0162617
627.671	0.0162315
627.749	0.0162580
627.828	0.0161980
627.906	0.0163095
627.984	0.0161887
628.062	0.0162446
628.140	0.0162332
628.218	0.0162960
628.296	0.0162107
628.374	0.0161835
628.453	0.0161460
628.531	0.0161446
628.609	0.0162128
628.687	0.0163097
628.765	0.0163835
628.843	0.0161682
628.921	0.0161759
628.999	0.0162933
629.078	0.0162887
629.156	0.0162020
629.234	0.0161459
629.312	0.0161889
629.390	0.0163088
629.468	0.0162928
629.546	0.0163319
629.624	0.0162985
629.703	0.0162600
629.781	0.0162679
629.859	0.0162912
629.937	0.0163503
630.015	0.0162825
630.093	0.0161548
630.171	0.0162931
630.249	0.0162070
630.328	0.0161119
630.406	0.0163170
630.484	0.0162340
630.562	0.0161878
630.640	0.0162641
630.718	0.0163513
630.796	0.0162576
630.874	0.0161693
630.953	0.0162346
631.031	0.0162264
631.109	0.0162994
631.187	0.0162358
631.265	0.0162370
631.343	0.0162785
631.421	0.0162712
631.499	0.0162073
631.578	0.0161811
631.656	0.0162434
631.734	0.0162273
631.812	0.0163860
631.890	0.0163606
631.968	0.0163191
632.046	0.0162455
632.124	0.0163383
632.203	0.0161562
632.281	0.0163371
632.359	0.0162840
632.437	0.0160802
632.515	0.0163160
632.593	0.0162603
632.671	0.0163530
632.749	0.0163177
632.828	0.0162534
632.906	0.0163017
632.984	0.0162317
633.062	0.0163743
633.140	0.0163335
633.218	0.0162662
633.296	0.0162856
633.374	0.0162757
633.453	0.0162868
633.531	0.0162547
633.609	0.0163904
633.687	0.0163611
633.765	0.0161888
633.843	0.0162328
633.921	0.0162830
633.999	0.0163445
634.078	0.0163705
634.156	0.0162614
634.234	0.0162138
634.312	0.0163196
634.390	0.0162620
634.468	0.0161637
634.546	0.0163296
634.624	0.0162371
634.703	0.0162843
634.781	0.0163066
634.859	0.0162382
634.937	0.0163832
635.015	0.0162899
635.093	0.0162981
635.171	0.0162686
635.249	0.0162488
635.328	0.0162862
635.406	0.0161712
635.484	0.0162527
635.562	0.0160598
635.640	0.0163542
635.718	0.0164447
635.796	0.0162199
635.874	0.0162450
635.953	0.0161891
636.031	0.0163748
636.109	0.0163135
636.187	0.0161879
636.265	0.0162496
636.343	0.0162132
636.421	0.0163560
636.499	0.0163332
636.578	0.0162611
636.656	0.0163127
636.734	0.0161605
636.812	0.0163671
636.890	0.0163197
636.968	0.0163306
637.046	0.0163618
637.124	0.0163051
637.203	0.0162831
637.281	0.0161734
637.359	0.0163091
637.437	0.0164658
637.515	0.0163396
637.593	0.0162212
637.671	0.0163427
637.749	0.0163618
637.828	0.0162064
637.906	0.0163469
637.984	0.0162562
638.062	0.0162072
638.140	0.0163403
638.218	0.0162563
638.296	0.0163467
638.374	0.0163343
638.453	0.0163284
638.531	0.0162180
638.609	0.0161680
638.687	0.0163668
638.765	0.0163372
638.843	0.0162550
638.921	0.0162589
638.999	0.0162198
639.078	0.0163696
639.156	0.0162180
639.234	0.0162691
639.312	0.0162205
639.390	0.0161995
639.468	0.0163009
639.546	0.0163802
639.624	0.0163599
639.703	0.0162506
639.781	0.0161523
639.859	0.0162724
639.937	0.0162182
640.015	0.0163239
640.093	0.0163114
640.171	0.0164503
640.249	0.0162678
640.328	0.0161263
640.406	0.0162115
640.484	0.0162137
640.562	0.0161191
640.640	0.0162534
640.718	0.0163170
640.796	0.0163151
640.874	0.0163575
640.953	0.0163629
641.031	0.0161960
641.109	0.0163134
641.187	0.0163674
641.265	0.0162177
641.343	0.0162178
641.421	0.0163793
641.499	0.0162562
641.578	0.0162766
641.656	0.0162321
641.734	0.0162256
641.812	0.0163000
641.890	0.0162415
641.968	0.0161212
642.046	0.0162216
642.124	0.0161619
642.203	0.0163314
642.281	0.0162240
642.359	0.0162630
642.437	0.0162053
642.515	0.0163197
642.593	0.0162679
642.671	0.0160940
642.749	0.0162360
642.828	0.0161819
642.906	0.0161275
642.984	0.0161456
643.062	0.0162447
643.140	0.0163255
643.218	0.0162531
643.296	0.0162076
643.374	0.0162160
643.453	0.0164071
643.531	0.0162174
643.609	0.0161285
643.687	0.0161877
643.765	0.0161839
643.843	0.0162923
643.921	0.0163874
643.999	0.0161451
644.078	0.0161097
644.156	0.0162266
644.234	0.0161565
644.312	0.0161975
644.390	0.0161978
644.468	0.0162525
644.546	0.0163167
644.624	0.0163215
644.703	0.0161847
644.781	0.0162535
644.859	0.0162242
644.937	0.0162504
645.015	0.0162100
645.093	0.0161557
645.171	0.0161855
645.249	0.0162260
645.328	0.0162294
645.406	0.0161543
645.484	0.0163153
645.562	0.0163416
645.640	0.0161250
645.718	0.0161717
645.796	0.0161831
645.874	0.0162146
645.953	0.0162585
646.031	0.0162801
646.109	0.0161413
646.187	0.0163081
646.265	0.0162518
646.343	0.0160937
646.421	0.0162428
646.499	0.0162158
646.578	0.0162218
646.656	0.0162139
646.734	0.0161777
646.812	0.0163013
646.890	0.0162943
646.968	0.0162128
647.046	0.0161778
647.124	0.0162193
647.203	0.0162364
647.281	0.0163031
647.359	0.0163271
647.437	0.0162524
647.515	0.0162066
647.593	0.0162593
647.671	0.0162162
647.749	0.0161999
647.828	0.0162276
647.906	0.0162984
647.984	0.0161244
648.062	0.0161559
648.140	0.0162352
648.218	0.0162642
648.296	0.0162041
648.374	0.0161692
648.453	0.0161008
648.531	0.0161791
648.609	0.0161038
648.687	0.0161299
648.765	0.0163749
648.843	0.0161697
648.921	0.0161533
648.999	0.0162951
649.078	0.0162370
649.156	0.0163202
649.234	0.0162047
649.312	0.0161320
649.390	0.0161416
649.468	0.0163284
649.546	0.0162468
649.624	0.0159831
649.703	0.0161739
649.781	0.0162041
649.859	0.0161748
649.937	0.0161442
650.015	0.0161472
650.093	0.0162187
650.171	0.0162709
650.249	0.0162718
650.328	0.0161442
650.406	0.0162614
650.484	0.0160548
650.562	0.0161875
650.640	0.0163548
650.718	0.0162274
650.796	0.0160984
650.874	0.0163551
650.953	0.0163024
651.031	0.0162181
651.109	0.0162226
651.187	0.0162286
651.265	0.0162801
651.343	0.0161604
651.421	0.0162348
651.499	0.0162253
651.578	0.0163334
651.656	0.0161110
651.734	0.0162458
651.812	0.0162404
651.890	0.0161922
651.968	0.0162416
652.046	0.0163490
652.124	0.0163116
652.203	0.0163083
652.281	0.0162521
652.359	0.0163029
652.437	0.0162854
652.515	0.0161714
652.593	0.0161832
652.671	0.0163068
652.749	0.0163203
652.828	0.0161797
652.906	0.0162897
652.984	0.0162991
653.062	0.0163573
653.140	0.0162767
653.218	0.0162993
653.296	0.0163707
653.374	0.0162028
653.453	0.0160802
653.531	0.0162326
653.609	0.0164204
653.687	0.0162689
653.765	0.0162212
653.843	0.0163464
653.921	0.0161871
653.999	0.0162556
654.078	0.0161626
654.156	0.0163300
654.234	0.0162979
654.312	0.0163260
654.390	0.0163320
654.468	0.0162095
654.546	0.0162502
654.624	0.0163306
654.703	0.0163931
654.781	0.0163629
654.859	0.0163445
654.937	0.0163878
655.015	0.0162302
655.093	0.0162879
655.171	0.0164037
655.249	0.0163302
655.328	0.0164719
655.406	0.0162626
655.484	0.0162112
655.562	0.0162662
655.640	0.0162769
655.718	0.0163608
655.796	0.0163875
655.874	0.0163911
655.953	0.0163423
656.031	0.0162705
656.109	0.0163684
656.187	0.0163654
656.265	0.0162074
656.343	0.0161416
656.421	0.0162466
656.499	0.0164081
656.578	0.0163459
656.656	0.0163078
656.734	0.0162627
656.812	0.0164256
656.890	0.0162556
656.968	0.0163371
657.046	0.0163412
657.124	0.0161385
657.203	0.0162025
657.281	0.0163126
657.359	0.0163599
657.437	0.0163081
657.515	0.0161531
657.593	0.0164329
657.671	0.0164616
657.749	0.0162907
657.828	0.0163730
657.906	0.0162888
657.984	0.0163864
658.062	0.0164945
658.140	0.0164735
658.218	0.0162366
658.296	0.0161953
658.374	0.0162891
658.453	0.0163234
658.531	0.0163898
658.609	0.0162707
658.687	0.0162756
658.765	0.0164109
658.843	0.0163946
658.921	0.0163190
658.999	0.0162656
659.078	0.0162756
659.156	0.0162062
659.234	0.0163022
659.312	0.0164758
659.390	0.0162888
659.468	0.0162428
659.546	0.0164089
659.624	0.0163990
659.703	0.0164023
659.781	0.0163760
659.859	0.0163438
659.937	0.0162750
660.015	0.0162375
660.093	0.0163309
660.171	0.0163731
660.249	0.0162865
660.328	0.0163360
660.406	0.0161980
660.484	0.0163049
660.562	0.0162298
660.640	0.0164102
660.718	0.0163401
660.796	0.0164450
660.874	0.0163532
660.953	0.0163820
661.031	0.0163343
661.109	0.0162455
661.187	0.0162743
661.265	0.0163419
661.343	0.0163425
661.421	0.0162169
661.499	0.0162444
661.578	0.0163047
661.656	0.0163254
661.734	0.0162875
661.812	0.0163026
661.890	0.0163040
661.968	0.0163103
662.046	0.0162717
662.124	0.0161455
662.203	0.0163012
662.281	0.0161867
662.359	0.0162560
662.437	0.0163725
662.515	0.0162285
662.593	0.0163071
662.671	0.0162248
662.749	0.0162563
662.828	0.0163572
662.906	0.0162711
662.984	0.0162700
663.062	0.0162766
663.140	0.0163116
663.218	0.0163216
663.296	0.0163304
663.374	0.0164285
663.453	0.0163130
663.531	0.0162833
663.609	0.0162537
663.687	0.0162152
663.765	0.0162585
663.843	0.0163150
663.921	0.0163702
663.999	0.0164440
664.078	0.0162644
664.156	0.0162283
664.234	0.0163206
664.312	0.0162269
664.390	0.0162539
664.468	0.0163011
664.546	0.0161071
664.624	0.0163197
664.703	0.0164404
664.781	0.0163560
664.859	0.0162579
664.937	0.0163657
665.015	0.0163953
665.093	0.0161906
665.171	0.0163033
665.249	0.0163478
665.328	0.0162772
665.406	0.0163397
665.484	0.0162155
665.562	0.0163062
665.640	0.0163860
665.718	0.0162679
665.796	0.0163975
665.874	0.0163493
665.953	0.0162105
666.031	0.0163663
666.109	0.0162856
666.187	0.0162830
666.265	0.0162061
666.343	0.0163344
666.421	0.0164161
666.499	0.0163349
666.578	0.0162754
666.656	0.0162923
666.734	0.0162940
666.812	0.0163931
666.890	0.0162380
666.968	0.0163768
667.046	0.0162460
667.124	0.0162623
667.203	0.0162774
667.281	0.0162307
667.359	0.0163944
667.437	0.0163121
667.515	0.0162376
667.593	0.0161707
667.671	0.0162705
667.749	0.0163049
667.828	0.0162663
667.906	0.0164023
667.984	0.0163378
668.062	0.0162869
668.140	0.0162845
668.218	0.0162566
668.296	0.0162855
668.374	0.0163532
668.453	0.0162566
668.531	0.0162518
668.609	0.0162602
668.687	0.0164433
668.765	0.0162367
668.843	0.0161820
668.921	0.0162299
668.999	0.0163149
669.078	0.0162531
669.156	0.0161836
669.234	0.0161430
669.312	0.0161940
669.390	0.0163181
669.468	0.0162572
669.546	0.0162577
669.624	0.0163580
669.703	0.0162935
669.781	0.0161986
669.859	0.0163503
669.937	0.0161616
670.015	0.0162034
670.093	0.0162125
670.171	0.0162153
670.249	0.0163272
670.328	0.0162812
670.406	0.0162629
670.484	0.0161314
670.562	0.0162920
670.640	0.0162759
670.718	0.0162561
670.796	0.0163182
670.874	0.0162093
670.953	0.0162446
671.031	0.0160830
671.109	0.0163315
671.187	0.0162218
671.265	0.0161153
671.343	0.0162465
671.421	0.0162279
671.499	0.0162051
671.578	0.0162476
671.656	0.0162259
671.734	0.0161651
671.812	0.0159898
671.890	0.0162551
671.968	0.0163196
672.046	0.0161381
672.124	0.0161731
672.203	0.0162820
672.281	0.0161648
672.359	0.0161891
672.437	0.0162905
672.515	0.0160857
672.593	0.0162840
672.671	0.0163206
672.749	0.0161409
672.828	0.0161406
672.906	0.0162656
672.984	0.0163524
673.062	0.0160959
673.140	0.0162703
673.218	0.0163058
673.296	0.0161814
673.374	0.0162428
673.453	0.0162366
673.531	0.0162970
673.609	0.0161617
673.687	0.0162276
673.765	0.0161866
673.843	0.0163768
673.921	0.0163330
673.999	0.0161808
674.078	0.0162218
674.156	0.0162411
674.234	0.0162818
674.312	0.0162813
674.390	0.0162435
674.468	0.0161606
674.546	0.0162728
674.624	0.0161623
674.703	0.0162690
674.781	0.0162835
674.859	0.0162353
674.937	0.0161704
675.015	0.0162141
675.093	0.0161806
675.171	0.0162495
675.249	0.0162231
675.328	0.0162461
675.406	0.0162617
675.484	0.0163503
675.562	0.0161779
675.640	0.0160822
675.718	0.0163383
675.796	0.0162678
675.874	0.0162766
675.953	0.0162502
676.031	0.0162552
676.109	0.0162523
676.187	0.0163540
676.265	0.0161548
676.343	0.0161901
676.421	0.0163758
676.499	0.0162635
676.578	0.0163597
676.656	0.0161160
676.734	0.0162383
676.812	0.0162057
676.890	0.0162457
676.968	0.0162051
677.046	0.0162545
677.124	0.0161938
677.203	0.0162753
677.281	0.0161363
677.359	0.0160955
677.437	0.0161607
677.515	0.0162607
677.593	0.0162331
677.671	0.0162376
677.749	0.0161494
677.828	0.0162494
677.906	0.0161941
677.984	0.0161839
678.062	0.0162234
678.140	0.0161370
678.218	0.0163148
678.296	0.0162300
678.374	0.0162158
678.453	0.0162224
678.531	0.0163422
678.609	0.0162540
678.687	0.0162610
678.765	0.0163059
678.843	0.0161832
678.921	0.0162976
678.999	0.0162975
679.078	0.0163689
679.156	0.0163295
679.234	0.0162927
679.312	0.0162099
679.390	0.0162299
679.468	0.0163252
679.546	0.0163037
679.624	0.0161953
679.703	0.0162658
679.781	0.0162742
679.859	0.0163812
679.937	0.0163214
680.015	0.0162980
680.093	0.0163429
680.171	0.0163592
680.249	0.0162862
680.328	0.0162260
680.406	0.0162952
680.484	0.0161725
680.562	0.0164817
680.640	0.0164825
680.718	0.0162182
680.796	0.0163964
680.874	0.0162544
680.953	0.0163811
681.031	0.0163817
681.109	0.0162378
681.187	0.0162414
681.265	0.0162337
681.343	0.0161240
681.421	0.0163619
681.499	0.0163927
681.578	0.0162256
681.656	0.0163122
681.734	0.0162363
681.812	0.0163408
681.890	0.0163511
681.968	0.0162556
682.046	0.0161908
682.124	0.0162618
682.203	0.0162752
682.281	0.0161864
682.359	0.0162249
682.437	0.0162861
682.515	0.0163783
682.593	0.0162769
682.671	0.0162280
682.749	0.0164713
682.828	0.0163000
682.906	0.0162018
682.984	0.0162874
683.062	0.0162608
683.140	0.0162721
683.218	0.0163206
683.296	0.0163219
683.374	0.0163273
683.453	0.0162275
683.531	0.0162729
683.609	0.0162843
683.687	0.0162694
683.765	0.0162571
683.843	0.0162132
683.921	0.0161710
683.999	0.0163699
684.078	0.0162794
684.156	0.0162617
684.234	0.0163012
684.312	0.0163341
684.390	0.0164017
684.468	0.0162622
684.546	0.0162526
684.624	0.0163416
684.703	0.0162799
684.781	0.0163145
684.859	0.0164021
684.937	0.0163605
685.015	0.0162919
685.093	0.0162924
685.171	0.0163408
685.249	0.0162993
685.328	0.0162773
685.406	0.0162856
685.484	0.0161209
685.562	0.0163501
685.640	0.0163937
685.718	0.0163081
685.796	0.0163706
685.874	0.0165147
685.953	0.0163319
686.031	0.0162434
686.109	0.0162564
686.187	0.0164046
686.265	0.0162935
686.343	0.0163500
686.421	0.0162996
686.499	0.0164814
686.578	0.0162365
686.656	0.0162433
686.734	0.0162609
686.812	0.0162988
686.890	0.0164182
686.968	0.0164191
687.046	0.0164425
687.124	0.0162297
687.203	0.0162701
687.281	0.0164568
687.359	0.0163711
687.437	0.0164806
687.515	0.0162376
687.593	0.0163509
687.671	0.0162620
687.749	0.0163880
687.828	0.0163528
687.906	0.0162922
687.984	0.0163269
688.062	0.0163862
688.140	0.0162787
688.218	0.0162589
688.296	0.0162690
688.374	0.0163469
688.453	0.0163342
688.531	0.0163595
688.609	0.0162263
688.687	0.0162340
688.765	0.0163509
688.843	0.0164722
688.921	0.0163119
688.999	0.0162859
689.078	0.0163247
689.156	0.0163146
689.234	0.0163274
689.312	0.0162487
689.390	0.0163041
689.468	0.0163520
689.546	0.0164030
689.624	0.0163613
689.703	0.0163026
689.781	0.0162597
689.859	0.0163432
689.937	0.0164058
690.015	0.0162276
690.093	0.0163031
690.171	0.0164175
690.249	0.0163623
690.328	0.0163946
690.406	0.0164629
690.484	0.0164346
690.562	0.0163204
690.640	0.0163339
690.718	0.0164368
690.796	0.0162836
690.874	0.0162062
690.953	0.0163272
691.031	0.0162627
691.109	0.0163199
691.187	0.0163505
691.265	0.0163420
691.343	0.0162903
691.421	0.0162746
691.499	0.0163300
691.578	0.0163140
691.656	0.0161402
691.734	0.0162506
691.812	0.0163239
691.890	0.0162968
691.968	0.0162460
692.046	0.0162876
692.124	0.0162984
692.203	0.0162484
692.281	0.0163695
692.359	0.0162116
692.437	0.0163096
692.515	0.0162186
692.593	0.0162817
692.671	0.0163003
692.749	0.0161005
692.828	0.0162667
692.906	0.0162615
692.984	0.0162353
693.062	0.0162727
693.140	0.0162341
693.218	0.0162333
693.296	0.0162737
693.374	0.0163125
693.453	0.0161848
693.531	0.0162994
693.609	0.0162891
693.687	0.0163156
693.765	0.0162587
693.843	0.0163464
693.921	0.0161880
693.999	0.0162537
694.078	0.0161609
694.156	0.0162635
694.234	0.0161930
694.312	0.0162521
694.390	0.0161354
694.468	0.0162482
694.546	0.0162654
694.624	0.0162457
694.703	0.0161659
694.781	0.0162868
694.859	0.0162735
694.937	0.0162091
695.015	0.0161282
695.093	0.0162255
695.171	0.0161134
695.249	0.0163188
695.328	0.0162380
695.406	0.0161874
695.484	0.0162958
695.562	0.0162353
695.640	0.0161889
695.718	0.0161260
695.796	0.0161234
695.874	0.0163000
695.953	0.0161713
696.031	0.0160860
696.109	0.0161938
696.187	0.0161674
696.265	0.0161365
696.343	0.0160848
696.421	0.0162171
696.499	0.0161514
696.578	0.0160527
696.656	0.0161655
696.734	0.0160706
696.812	0.0160657
696.890	0.0162566
696.968	0.0162215
697.046	0.0160769
697.124	0.0160831
697.203	0.0161003
697.281	0.0160817
697.359	0.0161463
697.437	0.0160687
697.515	0.0159443
697.593	0.0160902
697.671	0.0160772
697.749	0.0160930
697.828	0.0160092
697.906	0.0161269
697.984	0.0162138
698.062	0.0161333
698.140	0.0160144
698.218	0.0161099
698.296	0.0161791
698.374	0.0161369
698.453	0.0161197
698.531	0.0161327
698.609	0.0160863
698.687	0.0162236
698.765	0.0161594
698.843	0.0161845
698.921	0.0160765
698.999	0.0160530
699.078	0.0161242
699.156	0.0161568
699.234	0.0161393
699.312	0.0160435
699.390	0.0161666
699.468	0.0160775
699.546	0.0160019
699.624	0.0159604
699.703	0.0161783
699.781	0.0161703
699.859	0.0160658
699.937	0.0160204
700.015	0.0159929
700.093	0.0161069
700.171	0.0161324
700.249	0.0160426
700.328	0.0160054
700.406	0.0160682
700.484	0.0161661
700.562	0.0161594
700.640	0.0160280
700.718	0.0161972
700.796	0.0161063
700.874	0.0160738
700.953	0.0162128
701.031	0.0162122
701.109	0.0160648
701.187	0.0162116
701.265	0.0161665
701.343	0.0161829
701.421	0.0161913
701.499	0.0161724
701.578	0.0161942
701.656	0.0161523
701.734	0.0161694
701.812	0.0162230
701.890	0.0162325
701.968	0.0161234
702.046	0.0161748
702.124	0.0161257
702.203	0.0161292
702.281	0.0161417
702.359	0.0161728
702.437	0.0161652
702.515	0.0162489
702.593	0.0161748
702.671	0.0161852
702.749	0.0161223
702.828	0.0161586
702.906	0.0161047
702.984	0.0161391
703.062	0.0161768
703.140	0.0161061
703.218	0.0161980
703.296	0.0163401
703.374	0.0161572
703.453	0.0160955
703.531	0.0163139
703.609	0.0162744
703.687	0.0161735
703.765	0.0162820
703.843	0.0162899
703.921	0.0161045
703.999	0.0160516
704.078	0.0161831
704.156	0.0163355
704.234	0.0162034
704.312	0.0161985
704.390	0.0162659
704.468	0.0161270
704.546	0.0162613
704.624	0.0163382
704.703	0.0161565
704.781	0.0163030
704.859	0.0162420
704.937	0.0161890
705.015	0.0162777
705.093	0.0161546
705.171	0.0162093
705.249	0.0162096
705.328	0.0163837
705.406	0.0162707
705.484	0.0164039
705.562	0.0163944
705.640	0.0164003
705.718	0.0162872
705.796	0.0163998
705.874	0.0162679
705.953	0.0165401
706.031	0.0163805
706.109	0.0165086
706.187	0.0164531
706.265	0.0162043
706.343	0.0162965
706.421	0.0164673
706.499	0.0165189
706.578	0.0162891
706.656	0.0163355
706.734	0.0163581
706.812	0.0163894
706.890	0.0163329
706.968	0.0161286
707.046	0.0163077
707.124	0.0163136
707.203	0.0161929
707.281	0.0163607
707.359	0.0161797
707.437	0.0162329
707.515	0.0163653
707.593	0.0162871
707.671	0.0162616
707.749	0.0164314
707.828	0.0162994
707.906	0.0162630
707.984	0.0164036
708.062	0.0164338
708.140	0.0163467
708.218	0.0164140
708.296	0.0163391
708.374	0.0163964
708.453	0.0162711
708.531	0.0163980
708.609	0.0163386
708.687	0.0162267
708.765	0.0163346
708.843	0.0163010
708.921	0.0162247
708.999	0.0164902
709.078	0.0163371
709.156	0.0162722
709.234	0.0162625
709.312	0.0162917
709.390	0.0162195
709.468	0.0163578
709.546	0.0162541
709.624	0.0163025
709.703	0.0162598
709.781	0.0162467
709.859	0.0161912
709.937	0.0163196
710.015	0.0162160
710.093	0.0163663
710.171	0.0165042
710.249	0.0163599
710.328	0.0162546
710.406	0.0162986
710.484	0.0164340
710.562	0.0161946
710.640	0.0162410
710.718	0.0162770
710.796	0.0163017
710.874	0.0163606
710.953	0.0163413
711.031	0.0162974
711.109	0.0163421
711.187	0.0162228
711.265	0.0162085
711.343	0.0162687
711.421	0.0162590
711.499	0.0160841
711.578	0.0162885
711.656	0.0162887
711.734	0.0161793
711.812	0.0163084
711.890	0.0162557
711.968	0.0161182
712.046	0.0163675
712.124	0.0162739
712.203	0.0161963
712.281	0.0162277
712.359	0.0162567
712.437	0.0163807
712.515	0.0162830
712.593	0.0163531
712.671	0.0163659
712.749	0.0162480
712.828	0.0162855
712.906	0.0163076
712.984	0.0163068
713.062	0.0164536
713.140	0.0163190
713.218	0.0162334
713.296	0.0162457
713.374	0.0163284
713.453	0.0162986
713.531	0.0162810
713.609	0.0162531
713.687	0.0164391
713.765	0.0162656
713.843	0.0162762
713.921	0.0161472
713.999	0.0162703
714.078	0.0161589
714.156	0.0162595
714.234	0.0162609
714.312	0.0162988
714.390	0.0162949
714.468	0.0161575
714.546	0.0162508
714.624	0.0162823
714.703	0.0162415
714.781	0.0163182
714.859	0.0160905
714.937	0.0163547
715.015	0.0163853
715.093	0.0163840
715.171	0.0161990
715.249	0.0162630
715.328	0.0163474
715.406	0.0162006
715.484	0.0163898
715.562	0.0162688
715.640	0.0162979
715.718	0.0164199
715.796	0.0162395
715.874	0.0163106
715.953	0.0162995
716.031	0.0161394
716.109	0.0162524
716.187	0.0162362
716.265	0.0162797
716.343	0.0163080
716.421	0.0162868
716.499	0.0164437
716.578	0.0162766
716.656	0.0163088
716.734	0.0160897
716.812	0.0162901
716.890	0.0163715
716.968	0.0162615
717.046	0.0161920
717.124	0.0162048
717.203	0.0162926
717.281	0.0163974
717.359	0.0163092
717.437	0.0161121
717.515	0.0163025
717.593	0.0162740
717.671	0.0162113
717.749	0.0162292
717.828	0.0162887
717.906	0.0161996
717.984	0.0161603
718.062	0.0162383
718.140	0.0161876
718.218	0.0162469
718.296	0.0163004
718.374	0.0161898
718.453	0.0163220
718.531	0.0163089
718.609	0.0161739
718.687	0.0161534
718.765	0.0163367
718.843	0.0162389
718.921	0.0161785
718.999	0.0162135
719.078	0.0162196
719.156	0.0162862
719.234	0.0163462
719.312	0.0163732
719.390	0.0161834
719.468	0.0162109
719.546	0.0163418
719.624	0.0162474
719.703	0.0161438
719.781	0.0161285
719.859	0.0163223
719.937	0.0162601
720.015	0.0161572
720.093	0.0162017
720.171	0.0162585
720.249	0.0160196
720.328	0.0161868
720.406	0.0162021
720.484	0.0161305
720.562	0.0162029
720.640	0.0162288
720.718	0.0161178
720.796	0.0162533
720.874	0.0163512
720.953	0.0162620
721.031	0.0162818
721.109	0.0161704
721.187	0.0161732
721.265	0.0162889
721.343	0.0162302
721.421	0.0162829
721.499	0.0162171
721.578	0.0162447
721.656	0.0160741
721.734	0.0161736
721.812	0.0162586
721.890	0.0162965
721.968	0.0161649
722.046	0.0161066
722.124	0.0163510
722.203	0.0160812
722.281	0.0161007
722.359	0.0161095
722.437	0.0162184
722.515	0.0162849
722.593	0.0161752
722.671	0.0161369
722.749	0.0161871
722.828	0.0162011
722.906	0.0162254
722.984	0.0162190
723.062	0.0162416
723.140	0.0160690
723.218	0.0161337
723.296	0.0161747
723.374	0.0162002
723.453	0.0162281
723.531	0.0161326
723.609	0.0162498
723.687	0.0162695
723.765	0.0162236
723.843	0.0162135
723.921	0.0161928
723.999	0.0161994
724.078	0.0161626
724.156	0.0161600
724.234	0.0161861
724.312	0.0161366
724.390	0.0161829
724.468	0.0160528
724.546	0.0161218
724.624	0.0161929
724.703	0.0161958
724.781	0.0160994
724.859	0.0162102
724.937	0.0162352
725.015	0.0160877
725.093	0.0161316
725.171	0.0161768
725.249	0.0161562
725.328	0.0160647
725.406	0.0163165
725.484	0.0162110
725.562	0.0162598
725.640	0.0161415
725.718	0.0162338
725.796	0.0161004
725.874	0.0163039
725.953	0.0162094
726.031	0.0161358
726.109	0.0162119
726.187	0.0163052
726.265	0.0162848
726.343	0.0163555
726.421	0.0163599
726.499	0.0161692
726.578	0.0161166
726.656	0.0163163
726.734	0.0163033
726.812	0.0162745
726.890	0.0162643
726.968	0.0162624
727.046	0.0162844
727.124	0.0162234
727.203	0.0162502
727.281	0.0160936
727.359	0.0161160
727.437	0.0162914
727.515	0.0162216
727.593	0.0162413
727.671	0.0161895
727.749	0.0161548
727.828	0.0161843
727.906	0.0161328
727.984	0.0161241
728.062	0.0163097
728.140	0.0162350
728.218	0.0161406
728.296	0.0162721
728.374	0.0163255
728.453	0.0163248
728.531	0.0162692
728.609	0.0161163
728.687	0.0162761
728.765	0.0163493
728.843	0.0163512
728.921	0.0162239
728.999	0.0161782
729.078	0.0163322
729.156	0.0162358
729.234	0.0162683
729.312	0.0164168
729.390	0.0162570
729.468	0.0161954
729.546	0.0163678
729.624	0.0163065
729.703	0.0162294
729.781	0.0162295
729.859	0.0163184
729.937	0.0163936
730.015	0.0162463
730.093	0.0163772
730.171	0.0163123
730.249	0.0163281
730.328	0.0162704
730.406	0.0162426
730.484	0.0163498
730.562	0.0162708
730.640	0.0163566
730.718	0.0163372
730.796	0.0162411
730.874	0.0163355
730.953	0.0162931
731.031	0.0162780
731.109	0.0163234
731.187	0.0162093
731.265	0.0162714
731.343	0.0163790
731.421	0.0163229
731.499	0.0161565
731.578	0.0163155
731.656	0.0163318
731.734	0.0162923
731.812	0.0163088
731.890	0.0162884
731.968	0.0162959
732.046	0.0163686
732.124	0.0163325
732.203	0.0163376
732.281	0.0164046
732.359	0.0162096
732.437	0.0162854
732.515	0.0163016
732.593	0.0162464
732.671	0.0163668
732.749	0.0162347
732.828	0.0163810
732.906	0.0164653
732.984	0.0163360
733.062	0.0163188
733.140	0.0162507
733.218	0.0162932
733.296	0.0163397
733.374	0.0162928
733.453	0.0163820
733.531	0.0162878
733.609	0.0163281
733.687	0.0163419
733.765	0.0163123
733.843	0.0163125
733.921	0.0162836
733.999	0.0162399
734.078	0.0163969
734.156	0.0162718
734.234	0.0163794
734.312	0.0163235
734.390	0.0162068
734.468	0.0162844
734.546	0.0162881
734.624	0.0162802
734.703	0.0162587
734.781	0.0163722
734.859	0.0164763
734.937	0.0160919
735.015	0.0163027
735.093	0.0162076
735.171	0.0163463
735.249	0.0162892
735.328	0.0162934
735.406	0.0163876
735.484	0.0164260
735.562	0.0163461
735.640	0.0162365
735.718	0.0163451
735.796	0.0164835
735.874	0.0164287
735.953	0.0163411
736.031	0.0163978
736.109	0.0163694
736.187	0.0163511
736.265	0.0164649
736.343	0.0164923
736.421	0.0163599
736.499	0.0162942
736.578	0.0162802
736.656	0.0162990
736.734	0.0163800
736.812	0.0162757
736.890	0.0164281
736.968	0.0161929
737.046	0.0163016
737.124	0.0162878
737.203	0.0163002
737.281	0.0164739
737.359	0.0164485
737.437	0.0163483
737.515	0.0162943
737.593	0.0163313
737.671	0.0163316
737.749	0.0162410
737.828	0.0163311
737.906	0.0164078
737.984	0.0163068
738.062	0.0162138
738.140	0.0163418
738.218	0.0164516
738.296	0.0164404
738.374	0.0162612
738.453	0.0164133
738.531	0.0164134
738.609	0.0164037
738.687	0.0164044
738.765	0.0163981
738.843	0.0163456
738.921	0.0164141
738.999	0.0163553
739.078	0.0163853
739.156	0.0165276
739.234	0.0164574
739.312	0.0162202
739.390	0.0163285
739.468	0.0163411
739.546	0.0162777
739.624	0.0163584
739.703	0.0162025
739.781	0.0162755
739.859	0.0164356
739.937	0.0164236
740.015	0.0163801
740.093	0.0164272
740.171	0.0162024
740.249	0.0164249
740.328	0.0163931
740.406	0.0162886
740.484	0.0163800
740.562	0.0163075
740.640	0.0163677
740.718	0.0163561
740.796	0.0163967
740.874	0.0163422
740.953	0.0164660
741.031	0.0163354
741.109	0.0164899
741.187	0.0164992
741.265	0.0161536
741.343	0.0162482
741.421	0.0164072
741.499	0.0163134
741.578	0.0164191
741.656	0.0163521
741.734	0.0161820
741.812	0.0163829
741.890	0.0162750
741.968	0.0162447
742.046	0.0162674
742.124	0.0162601
742.203	0.0163298
742.281	0.0162842
742.359	0.0162644
742.437	0.0162329
742.515	0.0162761
742.593	0.0162694
742.671	0.0162959
742.749	0.0162958
742.828	0.0163353
742.906	0.0162040
742.984	0.0163534
743.062	0.0163921
743.140	0.0162729
743.218	0.0162462
743.296	0.0163433
743.374	0.0162708
743.453	0.0164253
743.531	0.0162009
743.609	0.0162539
743.687	0.0164049
743.765	0.0161212
743.843	0.0162244
743.921	0.0161115
743.999	0.0162311
744.078	0.0162434
744.156	0.0162090
744.234	0.0161793
744.312	0.0162331
744.390	0.0162619
744.468	0.0162863
744.546	0.0161707
744.624	0.0162716
744.703	0.0162247
744.781	0.0160857
744.859	0.0161652
744.937	0.0161250
745.015	0.0161921
745.093	0.0161662
745.171	0.0163774
745.249	0.0161169
745.328	0.0162177
745.406	0.0161151
745.484	0.0162719
745.562	0.0162636
745.640	0.0162797
745.718	0.0161389
745.796	0.0162108
745.874	0.0161024
745.953	0.0161507
746.031	0.0161451
746.109	0.0161337
746.187	0.0161208
746.265	0.0162594
746.343	0.0160765
746.421	0.0161476
746.499	0.0161810
746.578	0.0162901
746.656	0.0162300
746.734	0.0161428
746.812	0.0162232
746.890	0.0162873
746.968	0.0163716
747.046	0.0162907
747.124	0.0163303
747.203	0.0160746
747.281	0.0162672
747.359	0.0162118
747.437	0.0162632
747.515	0.0161842
747.593	0.0161415
747.671	0.0162552
747.749	0.0162519
747.828	0.0161998
747.906	0.0162534
747.984	0.0162745
748.062	0.0162563
748.140	0.0162669
748.218	0.0162495
748.296	0.0160883
748.374	0.0163498
748.453	0.0164552
748.531	0.0162326
748.609	0.0162507
748.687	0.0162654
748.765	0.0163445
748.843	0.0162886
748.921	0.0163109
748.999	0.0163591
749.078	0.0163516
749.156	0.0162482
749.234	0.0162688
749.312	0.0162805
749.390	0.0162994
749.468	0.0162285
749.546	0.0159930
749.624	0.0162866
749.703	0.0162648
749.781	0.0162838
749.859	0.0163735
749.937	0.0163190
750.015	0.0162925
750.093	0.0162351
750.171	0.0163734
750.249	0.0162767
750.328	0.0163240
750.406	0.0163092
750.484	0.0162937
750.562	0.0164226
750.640	0.0162444
750.718	0.0162354
750.796	0.0162611
750.874	0.0163073
750.953	0.0163112
751.031	0.0162463
751.109	0.0161553
751.187	0.0162515
751.265	0.0163047
751.343	0.0161006
751.421	0.0163612
751.499	0.0162643
751.578	0.0161910
751.656	0.0162108
751.734	0.0163742
751.812	0.0163709
751.890	0.0161963
751.968	0.0161986
752.046	0.0163541
752.124	0.0164426
752.203	0.0163592
752.281	0.0163596
752.359	0.0162691
752.437	0.0162659
752.515	0.0162714
752.593	0.0163210
752.671	0.0162592
752.749	0.0161096
752.828	0.0162726
752.906	0.0162492
752.984	0.0162163
753.062	0.0163174
753.140	0.0162038
753.218	0.0162729
753.296	0.0162450
753.374	0.0163675
753.453	0.0162426
753.531	0.0162624
753.609	0.0162376
753.687	0.0161900
753.765	0.0162483
753.843	0.0162985
753.921	0.0162108
753.999	0.0162362
754.078	0.0162775
754.156	0.0162663
754.234	0.0162425
754.312	0.0164159
754.390	0.0161983
754.468	0.0163405
754.546	0.0162936
754.624	0.0163226
754.703	0.0162444
754.781	0.0163186
754.859	0.0162901
754.937	0.0164299
755.015	0.0162965
755.093	0.0163285
755.171	0.0163126
755.249	0.0163277
755.328	0.0163123
755.406	0.0162936
755.484	0.0163553
755.562	0.0162746
755.640	0.0162109
755.718	0.0163308
755.796	0.0162499
755.874	0.0162833
755.953	0.0162987
756.031	0.0163827
756.109	0.0163081
756.187	0.0161527
756.265	0.0163628
756.343	0.0161951
756.421	0.0163072
756.499	0.0162814
756.578	0.0162578
756.656	0.0161508
756.734	0.0161676
756.812	0.0161609
756.890	0.0160909
756.968	0.0162635
757.046	0.0163725
757.124	0.0162736
757.203	0.0161434
757.281	0.0161780
757.359	0.0162373
757.437	0.0161055
757.515	0.0163541
757.593	0.0162782
757.671	0.0162588
757.749	0.0163637
757.828	0.0162744
757.906	0.0162888
757.984	0.0163736
758.062	0.0163007
758.140	0.0161847
758.218	0.0163519
758.296	0.0163811
758.374	0.0163186
758.453	0.0161390
758.531	0.0164091
758.609	0.0163550
758.687	0.0163209
758.765	0.0162309
758.843	0.0164069
758.921	0.0163203
758.999	0.0162593
759.078	0.0162699
759.156	0.0163086
759.234	0.0162353
759.312	0.0161856
759.390	0.0161798
759.468	0.0162691
759.546	0.0162642
759.624	0.0160783
759.703	0.0161201
759.781	0.0162023
759.859	0.0161279
759.937	0.0160772
760.015	0.0162208
760.093	0.0162826
760.171	0.0162278
760.249	0.0161256
760.328	0.0162553
760.406	0.0162774
760.484	0.0162638
760.562	0.0163053
760.640	0.0163802
760.718	0.0163073
760.796	0.0162499
760.874	0.0161916
760.953	0.0162746
761.031	0.0160957
761.109	0.0163340
761.187	0.0163649
761.265	0.0163152
761.343	0.0163267
761.421	0.0162803
761.499	0.0163651
761.578	0.0164107
761.656	0.0163381
761.734	0.0163219
761.812	0.0162940
761.890	0.0162268
761.968	0.0164686
762.046	0.0163243
762.124	0.0163376
762.203	0.0163649
762.281	0.0161182
762.359	0.0162753
762.437	0.0163847
762.515	0.0163218
762.593	0.0162926
762.671	0.0162598
762.749	0.0163055
762.828	0.0162029
762.906	0.0163451
762.984	0.0163394
763.062	0.0163165
763.140	0.0162510
763.218	0.0161647
763.296	0.0162318
763.374	0.0162717
763.453	0.0162453
763.531	0.0162435
763.609	0.0163895
763.687	0.0164151
763.765	0.0162856
763.843	0.0162592
763.921	0.0163811
763.999	0.0161858
764.078	0.0163303
764.156	0.0164214
764.234	0.0162126
764.312	0.0163282
764.390	0.0162302
764.468	0.0162419
764.546	0.0163276
764.624	0.0162024
764.703	0.0161893
764.781	0.0161837
764.859	0.0161610
764.937	0.0162810
765.015	0.0161114
765.093	0.0160350
765.171	0.0160809
765.249	0.0161657
765.328	0.0163454
765.406	0.0162654
765.484	0.0161596
765.562	0.0162923
765.640	0.0162534
765.718	0.0162681
765.796	0.0161374
765.874	0.0161963
765.953	0.0163126
766.031	0.0162265
766.109	0.0163014
766.187	0.0162176
766.265	0.0162337
766.343	0.0163799
766.421	0.0163907
766.499	0.0164378
766.578	0.0163392
766.656	0.0164309
766.734	0.0165411
766.812	0.0163850
766.890	0.0163396
766.968	0.0164295
767.046	0.0161897
767.124	0.0162984
767.203	0.0163095
767.281	0.0161968
767.359	0.0162829
767.437	0.0164308
767.515	0.0163207
767.593	0.0160400
767.671	0.0161926
767.749	0.0162755
767.828	0.0162933
767.906	0.0162019
767.984	0.0160635
768.062	0.0159999
768.140	0.0161918
768.218	0.0160468
768.296	0.0160091
768.374	0.0160486
768.453	0.0161464
768.531	0.0160087
768.609	0.0157998
768.687	0.0159833
768.765	0.0160410
768.843	0.0158885
768.921	0.0160126
768.999	0.0161154
769.078	0.0161710
769.156	0.0161464
769.234	0.0160864
769.312	0.0161771
769.390	0.0161828
769.468	0.0160970
769.546	0.0162797
769.624	0.0161842
769.703	0.0162286
769.781	0.0161577
769.859	0.0162270
769.937	0.0162656
770.015	0.0161986
770.093	0.0162527
770.171	0.0162843
770.249	0.0163174
770.328	0.0163201
770.406	0.0163367
770.484	0.0162691
770.562	0.0162080
770.640	0.0162035
770.718	0.0160994
770.796	0.0161624
770.874	0.0162283
770.953	0.0161337
771.031	0.0163199
771.109	0.0162724
771.187	0.0162136
771.265	0.0160173
771.343	0.0161468
771.421	0.0161858
771.499	0.0162453
771.578	0.0162740
771.656	0.0161417
771.734	0.0160860
771.812	0.0161934
771.890	0.0161561
771.968	0.0160614
772.046	0.0161259
772.124	0.0161556
772.203	0.0160900
772.281	0.0160446
772.359	0.0161251
772.437	0.0160545
772.515	0.0161324
772.593	0.0161954
772.671	0.0160638
772.749	0.0160393
772.828	0.0162143
772.906	0.0162276
772.984	0.0162135
773.062	0.0161944
773.140	0.0160818
773.218	0.0160655
773.296	0.0161974
773.374	0.0161234
773.453	0.0160483
773.531	0.0161189
773.609	0.0161037
773.687	0.0160876
773.765	0.0159940
773.843	0.0160558
773.921	0.0161618
773.999	0.0160844
774.078	0.0159274
774.156	0.0161253
774.234	0.0161931
774.312	0.0161179
774.390	0.0159929
774.468	0.0161034
774.546	0.0161877
774.624	0.0161996
774.703	0.0162403
774.781	0.0161811
774.859	0.0162179
774.937	0.0163770
775.015	0.0163601
775.093	0.0165629
775.171	0.0164155
775.249	0.0164525
775.328	0.0166135
775.406	0.0166167
775.484	0.0165076
775.562	0.0165450
775.640	0.0163577
775.718	0.0163808
775.796	0.0163993
775.874	0.0163297
775.953	0.0162898
776.031	0.0162322
776.109	0.0160938
776.187	0.0161852
776.265	0.0161542
776.343	0.0160048
776.421	0.0160064
776.499	0.0160120
776.578	0.0159374
776.656	0.0159388
776.734	0.0159934
776.812	0.0160043
776.890	0.0158633
776.968	0.0160917
777.046	0.0160467
777.124	0.0158636
777.203	0.0158843
777.281	0.0159924
777.359	0.0159763
777.437	0.0159494
777.515	0.0160412
777.593	0.0161774
777.671	0.0160137
777.749	0.0161310
777.828	0.0162228
777.906	0.0162482
777.984	0.0163286
778.062	0.0161990
778.140	0.0161668
778.218	0.0163087
778.296	0.0163103
778.374	0.0162317
778.453	0.0164378
778.531	0.0162651
778.609	0.0162444
778.687	0.0162305
778.765	0.0162728
778.843	0.0161926
778.921	0.0162398
778.999	0.0161835
779.078	0.0161901
779.156	0.0163615
779.234	0.0160838
779.312	0.0160477
779.390	0.0161703
779.468	0.0162160
779.546	0.0161287
779.624	0.0160760
779.703	0.0160295
779.781	0.0161564
779.859	0.0161339
779.937	0.0162197
780.015	0.0161865
780.093	0.0163235
780.171	0.0163839
780.249	0.0163295
780.328	0.0164153
780.406	0.0165356
780.484	0.0165450
780.562	0.0163268
780.640	0.0165363
780.718	0.0163580
780.796	0.0163260
780.874	0.0162956
780.953	0.0162681
781.031	0.0162715
781.109	0.0161990
781.187	0.0159615
781.265	0.0160609
781.343	0.0161953
781.421	0.0162322
781.499	0.0160867
781.578	0.0160151
781.656	0.0159618
781.734	0.0160370
781.812	0.0160322
781.890	0.0159774
781.968	0.0160259
782.046	0.0159297
782.124	0.0161250
782.203	0.0161028
782.281	0.0162192
782.359	0.0162574
782.437	0.0162606
782.515	0.0163523
782.593	0.0163842
782.671	0.0165018
782.749	0.0164462
782.828	0.0163680
782.906	0.0164957
782.984	0.0164788
783.062	0.0165656
783.140	0.0165268
783.218	0.0163731
783.296	0.0164059
783.374	0.0164954
783.453	0.0163678
783.531	0.0163823
783.609	0.0163699
783.687	0.0164075
783.765	0.0163267
783.843	0.0162712
783.921	0.0162449
783.999	0.0162955
784.078	0.0162918
784.156	0.0161456
784.234	0.0160768
784.312	0.0160932
784.390	0.0160770
784.468	0.0161424
784.546	0.0159641
784.624	0.0159367
784.703	0.0159954
784.781	0.0159502
784.859	0.0159309
784.937	0.0158976
785.015	0.0160047
785.093	0.0159550
785.171	0.0159649
785.249	0.0160233
785.328	0.0161833
785.406	0.0161445
785.484	0.0161072
785.562	0.0162028
785.640	0.0161826
785.718	0.0162959
785.796	0.0163140
785.874	0.0162893
785.953	0.0164642
786.031	0.0163497
786.109	0.0163646
786.187	0.0164400
786.265	0.0163016
786.343	0.0164597
786.421	0.0165559
786.499	0.0164312
786.578	0.0164795
786.656	0.0164949
786.734	0.0164945
786.812	0.0164677
786.890	0.0164172
786.968	0.0164401
787.046	0.0164268
787.124	0.0162173
787.203	0.0162320
787.281	0.0164006
787.359	0.0162196
787.437	0.0161621
787.515	0.0161274
787.593	0.0160114
787.671	0.0161826
787.749	0.0160065
787.828	0.0160168
787.906	0.0161526
787.984	0.0159997
788.062	0.0159657
788.140	0.0160521
788.218	0.0160857
788.296	0.0161680
788.374	0.0161343
788.453	0.0160038
788.531	0.0160822
788.609	0.0159090
788.687	0.0160322
788.765	0.0160281
788.843	0.0161506
788.921	0.0161222
788.999	0.0160338
789.078	0.0161483
789.156	0.0160325
789.234	0.0159936
789.312	0.0161171
789.390	0.0161494
789.468	0.0161597
789.546	0.0160955
789.624	0.0161111
789.703	0.0160172
789.781	0.0160973
789.859	0.0161342
789.937	0.0161716
790.015	0.0161888
790.093	0.0162379
790.171	0.0160941
790.249	0.0161816
790.328	0.0163775
790.406	0.0162395
790.484	0.0161154
790.562	0.0163800
790.640	0.0162446
790.718	0.0162584
790.796	0.0162229
790.874	0.0162899
790.953	0.0163406
791.031	0.0162893
791.109	0.0165262
791.187	0.0165240
791.265	0.0166093
791.343	0.0164054
791.421	0.0164735
791.499	0.0166248
791.578	0.0165156
791.656	0.0163110
791.734	0.0164927
791.812	0.0164223
791.890	0.0164386
791.968	0.0165124
792.046	0.0163372
792.124	0.0164543
792.203	0.0162688
792.281	0.0162199
792.359	0.0161455
792.437	0.0162637
792.515	0.0163284
792.593	0.0163120
792.671	0.0162196
792.749	0.0161529
792.828	0.0161069
792.906	0.0160197
792.984	0.0160554
793.062	0.0158389
793.140	0.0159250
793.218	0.0160194
793.296	0.0158698
793.374	0.0159242
793.453	0.0157899
793.531	0.0158757
793.609	0.0157332
793.687	0.0157525
793.765	0.0157041
793.843	0.0158489
793.921	0.0160320
793.999	0.0159515
794.078	0.0161203
794.156	0.0160901
794.234	0.0161404
794.312	0.0161777
794.390	0.0162675
794.468	0.0162397
794.546	0.0162955
794.624	0.0163736
794.703	0.0163869
794.781	0.0163826
794.859	0.0164034
794.937	0.0164409
795.015	0.0164763
795.093	0.0165120
795.171	0.0165639
795.249	0.0164477
795.328	0.0165340
795.406	0.0164630
795.484	0.0163436
795.562	0.0163491
795.640	0.0163207
795.718	0.0163551
795.796	0.0161987
795.874	0.0163464
795.953	0.0162941
796.031	0.0162127
796.109	0.0160568
796.187	0.0161154
796.265	0.0160471
796.343	0.0160204
796.421	0.0160516
796.499	0.0159129
796.578	0.0159185
796.656	0.0159134
796.734	0.0159448
796.812	0.0159970
796.890	0.0160144
796.968	0.0160386
797.046	0.0159515
797.124	0.0159699
797.203	0.0160683
797.281	0.0159045
797.359	0.0159570
797.437	0.0160443
797.515	0.0161849
797.593	0.0161724
797.671	0.0161116
797.749	0.0160890
797.828	0.0160685
797.906	0.0162540
797.984	0.0163580
798.062	0.0162356
798.140	0.0163035
798.218	0.0163717
798.296	0.0161702
798.374	0.0162333
798.453	0.0161995
798.531	0.0163229
798.609	0.0162903
798.687	0.0163107
798.765	0.0163168
798.843	0.0161047
798.921	0.0162994
798.999	0.0162901
799.078	0.0162286
799.156	0.0163098
799.234	0.0162067
799.312	0.0161603
799.390	0.0161597
799.468	0.0161095
799.546	0.0161771
799.624	0.0160154
799.703	0.0159819
799.781	0.0158419
799.859	0.0160702
799.937	0.0160188
800.015	0.0158981
800.093	0.0157991
800.171	0.0157632
800.249	0.0157889
800.328	0.0159117
800.406	0.0157951
800.484	0.0159023
800.562	0.0157708
800.640	0.0158026
800.718	0.0158376
800.796	0.0159072
800.874	0.0159243
800.953	0.0159346
801.031	0.0160069
801.109	0.0160222
801.187	0.0161589
801.265	0.0161179
801.343	0.0161404
801.421	0.0161182
801.499	0.0161497
801.578	0.0162079
801.656	0.0164126
801.734	0.0164334
801.812	0.0161941
801.890	0.0163239
801.968	0.0164756
802.046	0.0165540
802.124	0.0164735
802.203	0.0165029
802.281	0.0164551
802.359	0.0165237
802.437	0.0165839
802.515	0.0165799
802.593	0.0164864
802.671	0.0164835
802.749	0.0164391
802.828	0.0164322
802.906	0.0164418
802.984	0.0162776
803.062	0.0163226
803.140	0.0161839
803.218	0.0162067
803.296	0.0162157
803.374	0.0161906
803.453	0.0160927
803.531	0.0160168
803.609	0.0160892
803.687	0.0160978
803.765	0.0160001
803.843	0.0159858
803.921	0.0159925
803.999	0.0161103
804.078	0.0161184
804.156	0.0160973
804.234	0.0160654
804.312	0.0161276
804.390	0.0162251
804.468	0.0161034
804.546	0.0160895
804.624	0.0161290
804.703	0.0160700
804.781	0.0160846
804.859	0.0160998
804.937	0.0159769
805.015	0.0160332
805.093	0.0161015
805.171	0.0159663
805.249	0.0160004
805.328	0.0159060
805.406	0.0159775
805.484	0.0160567
805.562	0.0160619
805.640	0.0159654
805.718	0.0160915
805.796	0.0161787
805.874	0.0161330
805.953	0.0161856
806.031	0.0162343
806.109	0.0161324
806.187	0.0162727
806.265	0.0161726
806.343	0.0162553
806.421	0.0163704
806.499	0.0163219
806.578	0.0162271
806.656	0.0163416
806.734	0.0163773
806.812	0.0164941
806.890	0.0164750
806.968	0.0163734
807.046	0.0163824
807.124	0.0165942
807.203	0.0165237
807.281	0.0165249
807.359	0.0165477
807.437	0.0166123
807.515	0.0165620
807.593	0.0164742
807.671	0.0164893
807.749	0.0165040
807.828	0.0163609
807.906	0.0165229
807.984	0.0162981
808.062	0.0162640
808.140	0.0163996
808.218	0.0162473
808.296	0.0163960
808.374	0.0163472
808.453	0.0162824
808.531	0.0161314
808.609	0.0162242
808.687	0.0163132
808.765	0.0161401
808.843	0.0162843
808.921	0.0161286
808.999	0.0161101
809.078	0.0160970
809.156	0.0162269
809.234	0.0161652
809.312	0.0161761
809.390	0.0162457
809.468	0.0161742
809.546	0.0162381
809.624	0.0163348
809.703	0.0163099
809.781	0.0164114
809.859	0.0164609
809.937	0.0163894
810.015	0.0165397
810.093	0.0164748
810.171	0.0164210
810.249	0.0163522
810.328	0.0165324
810.406	0.0163722
810.484	0.0164916
810.562	0.0163404
810.640	0.0163733
810.718	0.0162252
810.796	0.0161823
810.874	0.0161821
810.953	0.0160791
811.031	0.0160741
811.109	0.0160342
811.187	0.0161033
811.265	0.0160870
811.343	0.0160396
811.421	0.0161251
811.499	0.0160120
811.578	0.0161805
811.656	0.0162131
811.734	0.0162077
811.812	0.0164149
811.890	0.0162386
811.968	0.0162557
812.046	0.0164062
812.124	0.0163133
812.203	0.0163387
812.281	0.0165938
812.359	0.0164583
812.437	0.0163487
812.515	0.0163435
812.593	0.0165384
812.671	0.0165466
812.749	0.0164159
812.828	0.0163667
812.906	0.0162553
812.984	0.0163033
813.062	0.0164257
813.140	0.0163854
813.218	0.0163849
813.296	0.0163682
813.374	0.0164435
813.453	0.0164549
813.531	0.0164101
813.609	0.0163667
813.687	0.0164407
813.765	0.0164967
813.843	0.0164870
813.921	0.0163400
813.999	0.0164568
814.078	0.0164417
814.156	0.0164858
814.234	0.0163901
814.312	0.0164165
814.390	0.0164866
814.468	0.0164843
814.546	0.0165083
814.624	0.0163985
814.703	0.0163272
814.781	0.0163910
814.859	0.0163074
814.937	0.0163300
815.015	0.0162710
815.093	0.0163264
815.171	0.0162218
815.249	0.0162372
815.328	0.0163239
815.406	0.0162004
815.484	0.0161140
815.562	0.0162557
815.640	0.0164032
815.718	0.0162170
815.796	0.0162346
815.874	0.0162717
815.953	0.0163139
816.031	0.0161208
816.109	0.0161460
816.187	0.0163640
816.265	0.0162077
816.343	0.0161524
816.421	0.0161819
816.499	0.0159830
816.578	0.0161823
816.656	0.0161120
816.734	0.0160741
816.812	0.0161016
816.890	0.0161170
816.968	0.0161610
817.046	0.0159604
817.124	0.0160812
817.203	0.0159631
817.281	0.0160635
817.359	0.0162246
817.437	0.0161494
817.515	0.0160835
817.593	0.0162589
817.671	0.0163654
817.749	0.0163937
817.828	0.0163175
817.906	0.0163261
817.984	0.0164188
818.062	0.0165805
818.140	0.0165479
818.218	0.0165875
818.296	0.0164748
818.374	0.0164927
818.453	0.0166273
818.531	0.0165721
818.609	0.0165927
818.687	0.0167044
818.765	0.0165639
818.843	0.0165229
818.921	0.0167291
818.999	0.0166007
819.078	0.0166910
819.156	0.0165544
819.234	0.0165491
819.312	0.0166288
819.390	0.0164661
819.468	0.0164013
819.546	0.0165465
819.624	0.0165360
819.703	0.0164143
819.781	0.0164868
819.859	0.0164085
819.937	0.0162981
820.015	0.0162064
820.093	0.0161915
820.171	0.0161967
820.249	0.0162898
820.328	0.0161965
820.406	0.0161143
820.484	0.0160297
820.562	0.0160012
820.640	0.0160341
820.718	0.0160876
820.796	0.0159320
820.874	0.0159556
820.953	0.0160448
821.031	0.0160519
821.109	0.0160498
821.187	0.0163033
821.265	0.0162688
821.343	0.0161266
821.421	0.0161760
821.499	0.0162820
821.578	0.0162491
821.656	0.0163801
821.734	0.0164005
821.812	0.0162424
821.890	0.0165567
821.968	0.0163781
822.046	0.0163289
822.124	0.0164242
822.203	0.0163474
822.281	0.0162142
822.359	0.0161402
822.437	0.0161639
822.515	0.0164974
822.593	0.0161285
822.671	0.0160871
822.749	0.0161470
822.828	0.0161573
822.906	0.0161078
822.984	0.0161720
823.062	0.0160448
823.140	0.0160423
823.218	0.0161042
823.296	0.0161407
823.374	0.0160321
823.453	0.0162792
823.531	0.0160524
823.609	0.0162125
823.687	0.0160755
823.765	0.0160686
823.843	0.0161239
823.921	0.0162167
823.999	0.0162550
824.078	0.0163430
824.156	0.0163020
824.234	0.0164973
824.312	0.0162911
824.390	0.0161665
824.468	0.0163742
824.546	0.0163980
824.624	0.0164411
824.703	0.0164908
824.781	0.0164509
824.859	0.0165340
824.937	0.0164816
825.015	0.0165417
825.093	0.0165971
825.171	0.0165392
825.249	0.0166988
825.328	0.0167433
825.406	0.0167862
825.484	0.0166615
825.562	0.0165115
825.640	0.0166155
825.718	0.0166142
825.796	0.0166465
825.874	0.0163808
825.953	0.0164594
826.031	0.0164612
826.109	0.0163930
826.187	0.0161925
826.265	0.0161857
826.343	0.0160715
826.421	0.0160821
826.499	0.0159603
826.578	0.0157614
826.656	0.0158867
826.734	0.0156835
826.812	0.0156620
826.890	0.0156355
826.968	0.0157271
827.046	0.0156371
827.124	0.0157185
827.203	0.0157534
827.281	0.0156570
827.359	0.0158257
827.437	0.0159133
827.515	0.0159302
827.593	0.0159474
827.671	0.0162157
827.749	0.0160477
827.828	0.0162021
827.906	0.0164069
827.984	0.0164001
828.062	0.0164565
828.140	0.0165283
828.218	0.0167181
828.296	0.0167188
828.374	0.0167316
828.453	0.0168029
828.531	0.0167646
828.609	0.0166765
828.687	0.0166736
828.765	0.0167869
828.843	0.0166233
828.921	0.0166500
828.999	0.0165379
829.078	0.0164745
829.156	0.0164612
829.234	0.0165472
829.312	0.0162653
829.390	0.0162666
829.468	0.0162662
829.546	0.0161492
829.624	0.0160808
829.703	0.0161196
829.781	0.0160698
829.859	0.0160004
829.937	0.0158487
830.015	0.0158665
830.093	0.0157767
830.171	0.0158064
830.249	0.0159093
830.328	0.0158819
830.406	0.0156587
830.484	0.0157378
830.562	0.0158237
830.640	0.0160056
830.718	0.0159070
830.796	0.0159422
830.874	0.0162564
830.953	0.0161446
831.031	0.0163392
831.109	0.0164236
831.187	0.0163617
831.265	0.0163877
831.343	0.0166638
831.421	0.0169093
831.499	0.0166725
831.578	0.0167017
831.656	0.0167604
831.734	0.0168901
831.812	0.0169138
831.890	0.0168059
831.968	0.0168866
832.046	0.0167269
832.124	0.0167225
832.203	0.0169028
832.281	0.0168609
832.359	0.0167596
832.437	0.0167239
832.515	0.0166962
832.593	0.0167429
832.671	0.0165478
832.749	0.0164914
832.828	0.0164616
832.906	0.0164798
832.984	0.0165007
833.062	0.0162872
833.140	0.0161176
833.218	0.0161530
833.296	0.0161510
833.374	0.0160464
833.453	0.0160104
833.531	0.0160852
833.609	0.0157513
833.687	0.0158677
833.765	0.0159432
833.843	0.0159582
833.921	0.0158548
833.999	0.0158611
834.078	0.0160286
834.156	0.0160462
834.234	0.0160327
834.312	0.0159030
834.390	0.0161104
834.468	0.0162125
834.546	0.0160913
834.624	0.0160990
834.703	0.0160182
834.781	0.0161497
834.859	0.0160786
834.937	0.0161713
835.015	0.0160510
835.093	0.0162985
835.171	0.0161561
835.249	0.0161572
835.328	0.0163398
835.406	0.0161401
835.484	0.0162721
835.562	0.0162830
835.640	0.0162654
835.718	0.0163980
835.796	0.0164075
835.874	0.0163776
835.953	0.0164671
836.031	0.0164840
836.109	0.0165178
836.187	0.0165885
836.265	0.0165780
836.343	0.0165963
836.421	0.0166752
836.499	0.0167166
836.578	0.0166612
836.656	0.0168620
836.734	0.0167381
836.812	0.0166673
836.890	0.0166270
836.968	0.0166210
837.046	0.0166919
837.124	0.0166888
837.203	0.0166290
837.281	0.0166849
837.359	0.0165958
837.437	0.0166431
837.515	0.0167489
837.593	0.0166676
837.671	0.0164822
837.749	0.0164703
837.828	0.0165243
837.906	0.0164333
837.984	0.0164169
838.062	0.0162203
838.140	0.0161925
838.218	0.0160589
838.296	0.0160912
838.374	0.0160547
838.453	0.0159069
838.531	0.0158087
838.609	0.0156100
838.687	0.0158969
838.765	0.0157510
838.843	0.0155938
838.921	0.0155073
838.999	0.0155123
839.078	0.0155711
839.156	0.0155243
839.234	0.0156466
839.312	0.0157066
839.390	0.0157076
839.468	0.0157832
839.546	0.0159122
839.624	0.0159966
839.703	0.0161326
839.781	0.0160916
839.859	0.0161906
839.937	0.0162498
840.015	0.0163719
840.093	0.0164544
840.171	0.0165666
840.249	0.0165923
840.328	0.0165586
840.406	0.0166411
840.484	0.0168378
840.562	0.0166520
840.640	0.0166476
840.718	0.0167929
840.796	0.0167097
840.874	0.0168774
840.953	0.0168632
841.031	0.0167287
841.109	0.0167441
841.187	0.0166108
841.265	0.0168241
841.343	0.0167464
841.421	0.0167315
841.499	0.0165799
841.578	0.0165823
841.656	0.0165336
841.734	0.0165199
841.812	0.0166145
841.890	0.0163831
841.968	0.0163808
842.046	0.0163522
842.124	0.0161427
842.203	0.0162009
842.281	0.0162197
842.359	0.0160851
842.437	0.0160757
842.515	0.0159183
842.593	0.0160314
842.671	0.0157720
842.749	0.0158498
842.828	0.0157717
842.906	0.0157668
842.984	0.0158320
843.062	0.0157719
843.140	0.0157738
843.218	0.0157352
843.296	0.0156978
843.374	0.0157727
843.453	0.0159805
843.531	0.0161051
843.609	0.0161159
843.687	0.0160616
843.765	0.0161451
843.843	0.0162682
843.921	0.0162382
843.999	0.0162725
844.078	0.0164664
844.156	0.0164172
844.234	0.0164043
844.312	0.0163937
844.390	0.0165124
844.468	0.0167490
844.546	0.0166775
844.624	0.0165080
844.703	0.0165960
844.781	0.0167018
844.859	0.0166403
844.937	0.0165382
845.015	0.0166209
845.093	0.0166259
845.171	0.0166174
845.249	0.0167059
845.328	0.0165321
845.406	0.0163332
845.484	0.0164323
845.562	0.0162876
845.640	0.0162834
845.718	0.0163415
845.796	0.0161890
845.874	0.0162762
845.953	0.0162012
846.031	0.0160819
846.109	0.0161889
846.187	0.0160751
846.265	0.0160406
846.343	0.0160475
846.421	0.0158742
846.499	0.0160212
846.578	0.0160606
846.656	0.0160233
846.734	0.0160679
846.812	0.0161507
846.890	0.0159258
846.968	0.0159370
847.046	0.0160517
847.124	0.0159850
847.203	0.0160890
847.281	0.0162161
847.359	0.0160728
847.437	0.0163400
847.515	0.0163132
847.593	0.0162006
847.671	0.0164611
847.749	0.0165515
847.828	0.0164085
847.906	0.0163312
847.984	0.0163487
848.062	0.0165678
848.140	0.0163696
848.218	0.0164599
848.296	0.0165040
848.374	0.0163770
848.453	0.0163744
848.531	0.0162727
848.609	0.0163986
848.687	0.0162991
848.765	0.0162339
848.843	0.0162058
848.921	0.0161724
848.999	0.0161797
849.078	0.0160597
849.156	0.0160365
849.234	0.0161592
849.312	0.0161716
849.390	0.0161389
849.468	0.0161900
849.546	0.0161663
849.624	0.0160760
849.703	0.0161954
849.781	0.0162144
849.859	0.0161789
849.937	0.0161503
850.015	0.0162746
850.093	0.0162581
850.171	0.0162251
850.249	0.0162156
850.328	0.0162487
850.406	0.0163818
850.484	0.0163296
850.562	0.0162199
850.640	0.0160270
850.718	0.0162593
850.796	0.0162832
850.874	0.0161501
850.953	0.0160762
851.031	0.0161372
851.109	0.0159264
851.187	0.0159660
851.265	0.0160719
851.343	0.0161407
851.421	0.0160168
851.499	0.0159904
851.578	0.0159923
851.656	0.0160697
851.734	0.0161237
851.812	0.0160505
851.890	0.0160794
851.968	0.0160084
852.046	0.0163011
852.124	0.0163207
852.203	0.0161942
852.281	0.0162025
852.359	0.0162599
852.437	0.0164053
852.515	0.0163432
852.593	0.0163212
852.671	0.0163095
852.749	0.0163514
852.828	0.0165449
852.906	0.0165273
852.984	0.0164609
853.062	0.0163178
853.140	0.0164101
853.218	0.0163705
853.296	0.0163748
853.374	0.0162402
853.453	0.0162840
853.531	0.0162866
853.609	0.0163712
853.687	0.0160097
853.765	0.0161957
853.843	0.0161794
853.921	0.0160083
853.999	0.0160737
854.078	0.0160323
854.156	0.0160452
854.234	0.0160737
854.312	0.0159856
854.390	0.0160179
854.468	0.0160245
854.546	0.0161330
854.624	0.0160732
854.703	0.0160509
854.781	0.0161125
854.859	0.0160452
854.937	0.0163450
855.015	0.0162347
855.093	0.0161251
855.171	0.0162328
855.249	0.0162055
855.328	0.0162399
855.406	0.0163325
855.484	0.0163322
855.562	0.0162414
855.640	0.0163711
855.718	0.0164414
855.796	0.0163081
855.874	0.0163740
855.953	0.0164663
856.031	0.0164745
856.109	0.0163332
856.187	0.0164351
856.265	0.0164872
856.343	0.0164755
856.421	0.0163004
856.499	0.0165742
856.578	0.0164960
856.656	0.0163765
856.734	0.0163130
856.812	0.0161877
856.890	0.0162761
856.968	0.0161843
857.046	0.0160788
857.124	0.0162965
857.203	0.0160972
857.281	0.0162280
857.359	0.0161208
857.437	0.0161925
857.515	0.0160799
857.593	0.0159843
857.671	0.0160621
857.749	0.0161462
857.828	0.0160951
857.906	0.0160426
857.984	0.0160246
858.062	0.0159766
858.140	0.0161474
858.218	0.0161482
858.296	0.0159915
858.374	0.0160072
858.453	0.0161311
858.531	0.0160706
858.609	0.0161916
858.687	0.0162591
858.765	0.0162640
858.843	0.0163155
858.921	0.0163197
858.999	0.0162705
859.078	0.0163189
859.156	0.0163744
859.234	0.0164066
859.312	0.0164001
859.390	0.0164756
859.468	0.0163599
859.546	0.0162411
859.624	0.0162366
859.703	0.0163265
859.781	0.0162198
859.859	0.0162415
859.937	0.0162292
860.015	0.0161897
860.093	0.0163161
860.171	0.0162647
860.249	0.0161314
860.328	0.0161740
860.406	0.0160110
860.484	0.0161707
860.562	0.0162206
860.640	0.0161614
860.718	0.0161104
860.796	0.0162321
860.874	0.0162737
860.953	0.0161468
861.031	0.0161637
861.109	0.0161572
861.187	0.0162809
861.265	0.0161860
861.343	0.0161873
861.421	0.0162340
861.499	0.0162694
861.578	0.0161205
861.656	0.0160912
861.734	0.0160902
861.812	0.0160843
861.890	0.0162133
861.968	0.0160828
862.046	0.0160674
862.124	0.0160578
862.203	0.0161383
862.281	0.0161388
862.359	0.0161197
862.437	0.0161069
862.515	0.0159521
862.593	0.0161382
862.671	0.0163741
862.749	0.0162373
862.828	0.0162714
862.906	0.0162681
862.984	0.0162997
863.062	0.0163060
863.140	0.0161647
863.218	0.0161700
863.296	0.0162849
863.374	0.0163194
863.453	0.0163104
863.531	0.0162764
863.609	0.0162212
863.687	0.0163393
863.765	0.0163078
863.843	0.0163602
863.921	0.0162957
863.999	0.0163446
864.078	0.0162468
864.156	0.0163794
864.234	0.0163754
864.312	0.0163486
864.390	0.0163897
864.468	0.0164342
864.546	0.0163494
864.624	0.0162887
864.703	0.0162940
864.781	0.0163440
864.859	0.0161932
864.937	0.0161584
865.015	0.0162450
865.093	0.0162516
865.171	0.0161929
865.249	0.0162647
865.328	0.0161141
865.406	0.0161681
865.484	0.0161690
865.562	0.0161524
865.640	0.0161823
865.718	0.0160906
865.796	0.0160468
865.874	0.0160584
865.953	0.0161569
866.031	0.0160950
866.109	0.0161057
866.187	0.0161415
866.265	0.0161441
866.343	0.0160734
866.421	0.0161845
866.499	0.0162016
866.578	0.0162051
866.656	0.0163524
866.734	0.0162644
866.812	0.0164140
866.890	0.0164240
866.968	0.0162866
867.046	0.0162987
867.124	0.0162968
867.203	0.0163572
867.281	0.0162807
867.359	0.0162950
867.437	0.0163832
867.515	0.0162721
867.593	0.0162972
867.671	0.0162781
867.749	0.0162979
867.828	0.0161957
867.906	0.0160848
867.984	0.0161295
868.062	0.0161745
868.140	0.0161070
868.218	0.0160671
868.296	0.0160881
868.374	0.0160219
868.453	0.0161309
868.531	0.0161426
868.609	0.0160224
868.687	0.0161085
868.765	0.0161630
868.843	0.0160871
868.921	0.0160809
868.999	0.0162285
869.078	0.0162458
869.156	0.0161069
869.234	0.0160984
869.312	0.0161736
869.390	0.0161317
869.468	0.0161732
869.546	0.0159959
869.624	0.0162383
869.703	0.0162211
869.781	0.0162249
869.859	0.0160295
869.937	0.0161456
870.015	0.0162772
870.093	0.0162636
870.171	0.0160438
870.249	0.0161745
870.328	0.0162841
870.406	0.0161764
870.484	0.0161791
870.562	0.0161111
870.640	0.0161660
870.718	0.0161855
870.796	0.0162426
870.874	0.0161597
870.953	0.0161839
871.031	0.0161150
871.109	0.0160583
871.187	0.0161823
871.265	0.0162506
871.343	0.0162773
871.421	0.0163663
871.499	0.0162549
871.578	0.0162435
871.656	0.0163717
871.734	0.0163471
871.812	0.0163142
871.890	0.0163708
871.968	0.0163708
872.046	0.0162799
872.124	0.0162318
872.203	0.0163567
872.281	0.0162524
872.359	0.0162798
872.437	0.0163435
872.515	0.0162569
872.593	0.0163900
872.671	0.0163483
872.749	0.0162830
872.828	0.0162645
872.906	0.0162429
872.984	0.0161867
873.062	0.0162679
873.140	0.0163146
873.218	0.0163040
873.296	0.0161797
873.374	0.0161606
873.453	0.0160703
873.531	0.0161675
873.609	0.0161800
873.687	0.0160304
873.765	0.0159873
873.843	0.0162264
873.921	0.0160641
873.999	0.0160452
874.078	0.0159842
874.156	0.0161391
874.234	0.0161366
874.312	0.0162295
874.390	0.0159702
874.468	0.0160042
874.546	0.0160600
874.624	0.0161961
874.703	0.0161500
874.781	0.0163240
874.859	0.0163455
874.937	0.0162813
875.015	0.0163649
875.093	0.0163178
875.171	0.0163346
875.249	0.0164819
875.328	0.0165058
875.406	0.0163406
875.484	0.0162896
875.562	0.0163271
875.640	0.0163600
875.718	0.0164389
875.796	0.0162111
875.874	0.0162753
875.953	0.0162589
876.031	0.0163184
876.109	0.0163216
876.187	0.0161991
876.265	0.0162737
876.343	0.0162082
876.421	0.0162908
876.499	0.0162157
876.578	0.0161608
876.656	0.0161636
876.734	0.0161321
876.812	0.0160630
876.890	0.0161565
876.968	0.0161492
877.046	0.0162286
877.124	0.0161401
877.203	0.0161729
877.281	0.0162422
877.359	0.0162180
877.437	0.0162856
877.515	0.0161693
877.593	0.0161731
877.671	0.0162226
877.749	0.0161789
877.828	0.0163027
877.906	0.0162955
877.984	0.0162700
878.062	0.0162449
878.140	0.0163998
878.218	0.0163185
878.296	0.0163076
878.374	0.0162760
878.453	0.0164407
878.531	0.0162476
878.609	0.0162828
878.687	0.0162735
878.765	0.0162931
878.843	0.0163683
878.921	0.0162802
878.999	0.0162630
879.078	0.0162534
879.156	0.0162465
879.234	0.0162975
879.312	0.0163026
879.390	0.0163799
879.468	0.0160613
879.546	0.0163670
879.624	0.0163607
879.703	0.0163352
879.781	0.0163441
879.859	0.0163110
879.937	0.0164561
880.015	0.0163876
880.093	0.0165750
880.171	0.0164662
880.249	0.0163478
880.328	0.0162723
880.406	0.0163433
880.484	0.0163581
880.562	0.0163673
880.640	0.0163108
880.718	0.0164240
880.796	0.0163774
880.874	0.0163171
880.953	0.0161839
881.031	0.0161907
881.109	0.0162947
881.187	0.0162679
881.265	0.0159698
881.343	0.0161727
881.421	0.0161375
881.499	0.0160322
881.578	0.0161968
881.656	0.0162836
881.734	0.0162514
881.812	0.0161717
881.890	0.0162630
881.968	0.0163915
882.046	0.0162830
882.124	0.0162213
882.203	0.0163036
882.281	0.0163478
882.359	0.0163509
882.437	0.0162692
882.515	0.0163208
882.593	0.0164236
882.671	0.0164521
882.749	0.0163425
882.828	0.0165192
882.906	0.0164450
882.984	0.0162234
883.062	0.0164597
883.140	0.0163924
883.218	0.0163768
883.296	0.0163174
883.374	0.0163474
883.453	0.0162820
883.531	0.0162535
883.609	0.0162632
883.687	0.0162674
883.765	0.0163648
883.843	0.0163004
883.921	0.0162157
883.999	0.0161209
884.078	0.0160931
884.156	0.0162669
884.234	0.0162114
884.312	0.0163099
884.390	0.0163013
884.468	0.0162183
884.546	0.0163230
884.624	0.0162984
884.703	0.0161761
884.781	0.0162715
884.859	0.0161636
884.937	0.0162465
885.015	0.0162824
885.093	0.0163746
885.171	0.0163507
885.249	0.0162378
885.328	0.0162504
885.406	0.0162434
885.484	0.0163248
885.562	0.0162064
885.640	0.0162141
885.718	0.0162172
885.796	0.0163215
885.874	0.0163187
885.953	0.0162363
886.031	0.0163647
886.109	0.0163674
886.187	0.0163669
886.265	0.0164837
886.343	0.0163480
886.421	0.0161839
886.499	0.0164704
886.578	0.0163073
886.656	0.0162879
886.734	0.0163732
886.812	0.0162835
886.890	0.0162046
886.968	0.0163931
887.046	0.0162506
887.124	0.0162985
887.203	0.0162929
887.281	0.0162861
887.359	0.0163679
887.437	0.0163578
887.515	0.0163218
887.593	0.0163491
887.671	0.0163296
887.749	0.0163327
887.828	0.0162273
887.906	0.0163124
887.984	0.0162816
888.062	0.0161964
888.140	0.0161793
888.218	0.0162789
888.296	0.0163685
888.374	0.0161388
888.453	0.0159857
888.531	0.0160554
888.609	0.0160009
888.687	0.0159959
888.765	0.0160699
888.843	0.0160441
888.921	0.0160503
888.999	0.0160946
889.078	0.0161181
889.156	0.0161063
889.234	0.0158591
889.312	0.0160793
889.390	0.0159881
889.468	0.0161052
889.546	0.0161465
889.624	0.0161404
889.703	0.0160975
889.781	0.0161032
889.859	0.0161752
889.937	0.0161388
890.015	0.0162713
890.093	0.0161916
890.171	0.0161148
890.249	0.0164024
890.328	0.0163044
890.406	0.0162984
890.484	0.0163364
890.562	0.0164397
890.640	0.0162451
890.718	0.0162300
890.796	0.0162299
890.874	0.0164658
890.953	0.0163636
891.031	0.0162794
891.109	0.0162664
891.187	0.0162645
891.265	0.0162998
891.343	0.0163239
891.421	0.0162762
891.499	0.0161987
891.578	0.0162386
891.656	0.0162939
891.734	0.0162678
891.812	0.0162473
891.890	0.0162401
891.968	0.0162256
892.046	0.0162265
892.124	0.0162351
892.203	0.0161737
892.281	0.0162957
892.359	0.0162406
892.437	0.0162650
892.515	0.0160490
892.593	0.0162146
892.671	0.0162791
892.749	0.0162411
892.828	0.0162933
892.906	0.0161931
892.984	0.0162548
893.062	0.0161781
893.140	0.0161303
893.218	0.0162266
893.296	0.0162553
893.374	0.0162130
893.453	0.0162029
893.531	0.0162242
893.609	0.0161597
893.687	0.0161782
893.765	0.0161229
893.843	0.0161618
893.921	0.0162981
893.999	0.0162403
894.078	0.0160328
894.156	0.0160827
894.234	0.0163425
894.312	0.0161395
894.390	0.0159741
894.468	0.0161197
894.546	0.0161988
894.624	0.0161052
894.703	0.0161389
894.781	0.0161384
894.859	0.0161871
894.937	0.0162662
895.015	0.0161661
895.093	0.0161517
895.171	0.0163406
895.249	0.0162332
895.328	0.0161959
895.406	0.0161452
895.484	0.0163643
895.562	0.0162537
895.640	0.0164291
895.718	0.0163269
895.796	0.0163470
895.874	0.0163515
895.953	0.0163402
896.031	0.0164841
896.109	0.0164481
896.187	0.0162646
896.265	0.0164423
896.343	0.0163609
896.421	0.0165260
896.499	0.0162790
896.578	0.0163860
896.656	0.0163631
896.734	0.0161739
896.812	0.0164170
896.890	0.0163615
896.968	0.0163161
897.046	0.0162744
897.124	0.0161176
897.203	0.0163384
897.281	0.0163271
897.359	0.0164277
897.437	0.0162206
897.515	0.0163583
897.593	0.0163601
897.671	0.0163096
897.749	0.0163702
897.828	0.0163395
897.906	0.0162796
897.984	0.0162886
898.062	0.0163446
898.140	0.0163013
898.218	0.0162366
898.296	0.0163429
898.374	0.0163588
898.453	0.0163766
898.531	0.0162040
898.609	0.0164725
898.687	0.0163733
898.765	0.0164481
898.843	0.0164956
898.921	0.0165063
898.999	0.0164663
899.078	0.0163773
899.156	0.0164587
899.234	0.0162815
899.312	0.0163020
899.390	0.0163186
899.468	0.0163988
899.546	0.0163295
899.624	0.0161782
899.703	0.0161626
899.781	0.0161611
899.859	0.0162263
899.937	0.0161828
900.015	0.0159992
900.093	0.0159845
900.171	0.0158900
900.249	0.0160432
900.328	0.0159591
900.406	0.0159374
900.484	0.0159913
900.562	0.0159480
900.640	0.0159379
900.718	0.0159225
900.796	0.0160598
900.874	0.0160244
900.953	0.0159690
901.031	0.0160130
901.109	0.0161155
901.187	0.0161720
901.265	0.0162677
901.343	0.0162621
901.421	0.0161568
901.499	0.0163806
901.578	0.0162318
901.656	0.0163608
901.734	0.0164128
901.812	0.0163735
901.890	0.0166359
901.968	0.0165294
902.046	0.0163862
902.124	0.0163985
902.203	0.0163459
902.281	0.0165159
902.359	0.0165721
902.437	0.0165759
902.515	0.0165220
902.593	0.0163480
902.671	0.0163114
902.749	0.0163959
902.828	0.0164998
902.906	0.0163591
902.984	0.0163528
903.062	0.0164323
903.140	0.0164610
903.218	0.0163754
903.296	0.0164800
903.374	0.0165405
903.453	0.0164411
903.531	0.0162230
903.609	0.0163383
903.687	0.0164067
903.765	0.0163284
903.843	0.0163844
903.921	0.0163985
903.999	0.0163435
904.078	0.0164289
904.156	0.0163523
904.234	0.0163413
904.312	0.0163418
904.390	0.0165208
904.468	0.0162020
904.546	0.0163351
904.624	0.0162402
904.703	0.0163981
904.781	0.0161834
904.859	0.0163271
904.937	0.0164554
905.015	0.0164044
905.093	0.0162802
905.171	0.0163287
905.249	0.0162533
905.328	0.0162560
905.406	0.0162251
905.484	0.0163271
905.562	0.0162822
905.640	0.0163347
905.718	0.0162943
905.796	0.0163161
905.874	0.0163812
905.953	0.0163374
906.031	0.0162028
906.109	0.0163701
906.187	0.0161417
906.265	0.0161308
906.343	0.0162222
906.421	0.0162041
906.499	0.0162488
906.578	0.0163653
906.656	0.0163169
906.734	0.0163963
906.812	0.0163349
906.890	0.0162689
906.968	0.0164793
907.046	0.0165656
907.124	0.0164433
907.203	0.0163810
907.281	0.0165066
907.359	0.0164575
907.437	0.0164966
907.515	0.0164860
907.593	0.0163953
907.671	0.0165242
907.749	0.0165562
907.828	0.0164439
907.906	0.0163981
907.984	0.0163358
908.062	0.0163318
908.140	0.0164618
908.218	0.0164510
908.296	0.0164043
908.374	0.0163115
908.453	0.0163753
908.531	0.0163495
908.609	0.0163850
908.687	0.0164032
908.765	0.0164008
908.843	0.0163857
908.921	0.0161922
908.999	0.0162138
909.078	0.0164170
909.156	0.0162897
909.234	0.0163756
909.312	0.0163025
909.390	0.0163151
909.468	0.0162803
909.546	0.0163638
909.624	0.0163587
909.703	0.0163008
909.781	0.0164399
909.859	0.0164687
909.937	0.0163789
910.015	0.0162844
910.093	0.0164808
910.171	0.0162906
910.249	0.0162113
910.328	0.0163824
910.406	0.0163829
910.484	0.0163494
910.562	0.0164319
910.640	0.0162836
910.718	0.0162007
910.796	0.0162770
910.874	0.0163159
910.953	0.0162890
911.031	0.0162514
911.109	0.0163120
911.187	0.0164056
911.265	0.0162646
911.343	0.0163051
911.421	0.0162846
911.499	0.0163029
911.578	0.0162939
911.656	0.0161665
911.734	0.0161346
911.812	0.0162596
911.890	0.0162589
911.968	0.0162844
912.046	0.0162706
912.124	0.0163408
912.203	0.0161875
912.281	0.0161176
912.359	0.0162041
912.437	0.0162193
912.515	0.0163240
912.593	0.0161397
912.671	0.0162177
912.749	0.0162992
912.828	0.0161920
912.906	0.0161212
912.984	0.0162074
913.062	0.0163590
913.140	0.0162460
913.218	0.0163475
913.296	0.0162304
913.374	0.0164152
913.453	0.0164091
913.531	0.0164262
913.609	0.0163273
913.687	0.0163610
913.765	0.0163425
913.843	0.0164765
913.921	0.0163641
913.999	0.0164785
914.078	0.0163882
914.156	0.0163060
914.234	0.0162281
914.312	0.0163309
914.390	0.0163396
914.468	0.0163712
914.546	0.0162585
914.624	0.0162068
914.703	0.0162094
914.781	0.0162082
914.859	0.0161417
914.937	0.0161895
915.015	0.0161714
915.093	0.0160999
915.171	0.0161974
915.249	0.0162503
915.328	0.0161897
915.406	0.0161398
915.484	0.0161176
915.562	0.0161638
915.640	0.0161098
915.718	0.0161431
915.796	0.0162266
915.874	0.0161121
915.953	0.0162948
916.031	0.0161023
916.109	0.0161868
916.187	0.0160666
916.265	0.0161359
916.343	0.0162950
916.421	0.0161279
916.499	0.0161849
916.578	0.0162569
916.656	0.0161508
916.734	0.0161901
916.812	0.0162605
916.890	0.0162241
916.968	0.0161875
917.046	0.0162675
917.124	0.0163615
917.203	0.0163491
917.281	0.0162809
917.359	0.0162670
917.437	0.0163340
917.515	0.0163026
917.593	0.0162115
917.671	0.0162780
917.749	0.0162876
917.828	0.0163130
917.906	0.0162193
917.984	0.0162439
918.062	0.0163077
918.140	0.0163475
918.218	0.0163020
918.296	0.0164029
918.374	0.0163069
918.453	0.0162031
918.531	0.0164051
918.609	0.0164062
918.687	0.0163376
918.765	0.0163505
918.843	0.0161899
918.921	0.0162688
918.999	0.0165237
919.078	0.0162669
919.156	0.0162661
919.234	0.0164133
919.312	0.0163284
919.390	0.0162931
919.468	0.0163426
919.546	0.0163512
919.624	0.0162869
919.703	0.0163500
919.781	0.0163316
919.859	0.0163184
919.937	0.0164352
