06/10/2022	16:43:08	Ver.	4.1	UNKNOWN
Optical Delay	600.015094	Delta X		0.078125	Sweeps	1	Scan Rate	0/0
Coordinates	Axis 1	NaN	Axis 2	NaN	Axis 3	NaN	Axis 4	NaN	Axis 5	NaN	Axis 6	0.000000
TX Power	0.000000	RX Power	0.000000

600.015	0.0159330
600.093	0.0158919
600.171	0.0158752
600.249	0.0159181
600.328	0.0159912
600.406	0.0158907
600.484	0.0158243
600.562	0.0159760
600.640	0.0159298
600.718	0.0159476
600.796	0.0158559
600.874	0.0159063
600.953	0.0159933
601.031	0.0158615
601.109	0.0158171
601.187	0.0158423
601.265	0.0158797
601.343	0.0159396
601.421	0.0159506
601.499	0.0158073
601.578	0.0158480
601.656	0.0159176
601.734	0.0158676
601.812	0.0159362
601.890	0.0158218
601.968	0.0158009
602.046	0.0159779
602.124	0.0158828
602.203	0.0159093
602.281	0.0159518
602.359	0.0158620
602.437	0.0158504
602.515	0.0159956
602.593	0.0158413
602.671	0.0157929
602.749	0.0159145
602.828	0.0159545
602.906	0.0159568
602.984	0.0158619
603.062	0.0160407
603.140	0.0158456
603.218	0.0159586
603.296	0.0159106
603.374	0.0158935
603.453	0.0158925
603.531	0.0159222
603.609	0.0159344
603.687	0.0159254
603.765	0.0158250
603.843	0.0159249
603.921	0.0158424
603.999	0.0159197
604.078	0.0158852
604.156	0.0159588
604.234	0.0158411
604.312	0.0160222
604.390	0.0160732
604.468	0.0160082
604.546	0.0158697
604.624	0.0159519
604.703	0.0160992
604.781	0.0161936
604.859	0.0159303
604.937	0.0160011
605.015	0.0160619
605.093	0.0158916
605.171	0.0158794
605.249	0.0160756
605.328	0.0160020
605.406	0.0159179
605.484	0.0158331
605.562	0.0160328
605.640	0.0160929
605.718	0.0160402
605.796	0.0160333
605.874	0.0160438
605.953	0.0160822
606.031	0.0159930
606.109	0.0160399
606.187	0.0160725
606.265	0.0160915
606.343	0.0160857
606.421	0.0159586
606.499	0.0160314
606.578	0.0160032
606.656	0.0159499
606.734	0.0161213
606.812	0.0160706
606.890	0.0160875
606.968	0.0159978
607.046	0.0161327
607.124	0.0159497
607.203	0.0160101
607.281	0.0160523
607.359	0.0160540
607.437	0.0158851
607.515	0.0159913
607.593	0.0159555
607.671	0.0159096
607.749	0.0158871
607.828	0.0159698
607.906	0.0160448
607.984	0.0158807
608.062	0.0159245
608.140	0.0158565
608.218	0.0158722
608.296	0.0158720
608.374	0.0158434
608.453	0.0158536
608.531	0.0159412
608.609	0.0161623
608.687	0.0157965
608.765	0.0160533
608.843	0.0158383
608.921	0.0157337
608.999	0.0159131
609.078	0.0159547
609.156	0.0158734
609.234	0.0159779
609.312	0.0159257
609.390	0.0158633
609.468	0.0159003
609.546	0.0158608
609.624	0.0159242
609.703	0.0158656
609.781	0.0158539
609.859	0.0159144
609.937	0.0157821
610.015	0.0157607
610.093	0.0157832
610.171	0.0157972
610.249	0.0158810
610.328	0.0158717
610.406	0.0158423
610.484	0.0158463
610.562	0.0160040
610.640	0.0158492
610.718	0.0157742
610.796	0.0158807
610.874	0.0158708
610.953	0.0158376
611.031	0.0158756
611.109	0.0157469
611.187	0.0157729
611.265	0.0157635
611.343	0.0158562
611.421	0.0158104
611.499	0.0158353
611.578	0.0157259
611.656	0.0159034
611.734	0.0158015
611.812	0.0158958
611.890	0.0157633
611.968	0.0159153
612.046	0.0158160
612.124	0.0158149
612.203	0.0157773
612.281	0.0158831
612.359	0.0156908
612.437	0.0158324
612.515	0.0156950
612.593	0.0157885
612.671	0.0158475
612.749	0.0158343
612.828	0.0158353
612.906	0.0158557
612.984	0.0158530
613.062	0.0157897
613.140	0.0157806
613.218	0.0158474
613.296	0.0158485
613.374	0.0157874
613.453	0.0157519
613.531	0.0159513
613.609	0.0156883
613.687	0.0158409
613.765	0.0159186
613.843	0.0158891
613.921	0.0158675
613.999	0.0159244
614.078	0.0159268
614.156	0.0157629
614.234	0.0157622
614.312	0.0159047
614.390	0.0158211
614.468	0.0158303
614.546	0.0157913
614.624	0.0157037
614.703	0.0158253
614.781	0.0158820
614.859	0.0159991
614.937	0.0158634
615.015	0.0157977
615.093	0.0158508
615.171	0.0159351
615.249	0.0157692
615.328	0.0157665
615.406	0.0159251
615.484	0.0158155
615.562	0.0159692
615.640	0.0159264
615.718	0.0159020
615.796	0.0158620
615.874	0.0158724
615.953	0.0158620
616.031	0.0159297
616.109	0.0159132
616.187	0.0158614
616.265	0.0157581
616.343	0.0158461
616.421	0.0159058
616.499	0.0158646
616.578	0.0159200
616.656	0.0157724
616.734	0.0158952
616.812	0.0159180
616.890	0.0159550
616.968	0.0159468
617.046	0.0158707
617.124	0.0157760
617.203	0.0158801
617.281	0.0159717
617.359	0.0159184
617.437	0.0157449
617.515	0.0158846
617.593	0.0157788
617.671	0.0158200
617.749	0.0158798
617.828	0.0158048
617.906	0.0159962
617.984	0.0158591
618.062	0.0157742
618.140	0.0158841
618.218	0.0158102
618.296	0.0159156
618.374	0.0159018
618.453	0.0158365
618.531	0.0158064
618.609	0.0158474
618.687	0.0159197
618.765	0.0158083
618.843	0.0158981
618.921	0.0158739
618.999	0.0158585
619.078	0.0159617
619.156	0.0158255
619.234	0.0158565
619.312	0.0159261
619.390	0.0160002
619.468	0.0158337
619.546	0.0159158
619.624	0.0159993
619.703	0.0158266
619.781	0.0159123
619.859	0.0159480
619.937	0.0158921
620.015	0.0159952
620.093	0.0159827
620.171	0.0160300
620.249	0.0158112
620.328	0.0158398
620.406	0.0159289
620.484	0.0160053
620.562	0.0158186
620.640	0.0159902
620.718	0.0159286
620.796	0.0159433
620.874	0.0159512
620.953	0.0160043
621.031	0.0160461
621.109	0.0160056
621.187	0.0158297
621.265	0.0157811
621.343	0.0159522
621.421	0.0159126
621.499	0.0158657
621.578	0.0159616
621.656	0.0159848
621.734	0.0158656
621.812	0.0157944
621.890	0.0160171
621.968	0.0159667
622.046	0.0159293
622.124	0.0159378
622.203	0.0159229
622.281	0.0158018
622.359	0.0158910
622.437	0.0159486
622.515	0.0158862
622.593	0.0159772
622.671	0.0160357
622.749	0.0159276
622.828	0.0159301
622.906	0.0159899
622.984	0.0158531
623.062	0.0159572
623.140	0.0160439
623.218	0.0160801
623.296	0.0161257
623.374	0.0160183
623.453	0.0158405
623.531	0.0158288
623.609	0.0159547
623.687	0.0158840
623.765	0.0159563
623.843	0.0159409
623.921	0.0160372
623.999	0.0159674
624.078	0.0159763
624.156	0.0160482
624.234	0.0160184
624.312	0.0159971
624.390	0.0158251
624.468	0.0159976
624.546	0.0160121
624.624	0.0157852
624.703	0.0158820
624.781	0.0158821
624.859	0.0159820
624.937	0.0159130
625.015	0.0159921
625.093	0.0158907
625.171	0.0159345
625.249	0.0159340
625.328	0.0160121
625.406	0.0158855
625.484	0.0158402
625.562	0.0159084
625.640	0.0159753
625.718	0.0159538
625.796	0.0159888
625.874	0.0159345
625.953	0.0159694
626.031	0.0159456
626.109	0.0158228
626.187	0.0159231
626.265	0.0159835
626.343	0.0158489
626.421	0.0159482
626.499	0.0159991
626.578	0.0157989
626.656	0.0160212
626.734	0.0160381
626.812	0.0159750
626.890	0.0158887
626.968	0.0157980
627.046	0.0159464
627.124	0.0159217
627.203	0.0159194
627.281	0.0159016
627.359	0.0159734
627.437	0.0159189
627.515	0.0158476
627.593	0.0159650
627.671	0.0159590
627.749	0.0159068
627.828	0.0160137
627.906	0.0160065
627.984	0.0159644
628.062	0.0160185
628.140	0.0158144
628.218	0.0159103
628.296	0.0159885
628.374	0.0159106
628.453	0.0158466
628.531	0.0159763
628.609	0.0159209
628.687	0.0159210
628.765	0.0160857
628.843	0.0160591
628.921	0.0158327
628.999	0.0160411
629.078	0.0158263
629.156	0.0160302
629.234	0.0160419
629.312	0.0160241
629.390	0.0160447
629.468	0.0160420
629.546	0.0159882
629.624	0.0158815
629.703	0.0160532
629.781	0.0158498
629.859	0.0159047
629.937	0.0158918
630.015	0.0158923
630.093	0.0160023
630.171	0.0159905
630.249	0.0159375
630.328	0.0158829
630.406	0.0160229
630.484	0.0159682
630.562	0.0159688
630.640	0.0158165
630.718	0.0158080
630.796	0.0159012
630.874	0.0159876
630.953	0.0158814
631.031	0.0159795
631.109	0.0160155
631.187	0.0158041
631.265	0.0158545
631.343	0.0161028
631.421	0.0158085
631.499	0.0158858
631.578	0.0160010
631.656	0.0157543
631.734	0.0159032
631.812	0.0159035
631.890	0.0159866
631.968	0.0159917
632.046	0.0160114
632.124	0.0159290
632.203	0.0159289
632.281	0.0159578
632.359	0.0159673
632.437	0.0157944
632.515	0.0159769
632.593	0.0158176
632.671	0.0159230
632.749	0.0159299
632.828	0.0159160
632.906	0.0158920
632.984	0.0158727
633.062	0.0159972
633.140	0.0159142
633.218	0.0158109
633.296	0.0157545
633.374	0.0159087
633.453	0.0159509
633.531	0.0158659
633.609	0.0158826
633.687	0.0159265
633.765	0.0159189
633.843	0.0159661
633.921	0.0158999
633.999	0.0158546
634.078	0.0158562
634.156	0.0157687
634.234	0.0158681
634.312	0.0159131
634.390	0.0158406
634.468	0.0159165
634.546	0.0158807
634.624	0.0159122
634.703	0.0158538
634.781	0.0159361
634.859	0.0158936
634.937	0.0157936
635.015	0.0158083
635.093	0.0156843
635.171	0.0158147
635.249	0.0158174
635.328	0.0159147
635.406	0.0158906
635.484	0.0158559
635.562	0.0158413
635.640	0.0159459
635.718	0.0158937
635.796	0.0157825
635.874	0.0158343
635.953	0.0159538
636.031	0.0159754
636.109	0.0159363
636.187	0.0158983
636.265	0.0160219
636.343	0.0158321
636.421	0.0157822
636.499	0.0158456
636.578	0.0158659
636.656	0.0158512
636.734	0.0159180
636.812	0.0158987
636.890	0.0157943
636.968	0.0158125
637.046	0.0158463
637.124	0.0159511
637.203	0.0158315
637.281	0.0159457
637.359	0.0159274
637.437	0.0159623
637.515	0.0159406
637.593	0.0158413
637.671	0.0158027
637.749	0.0157954
637.828	0.0157724
637.906	0.0158795
637.984	0.0158980
638.062	0.0157881
638.140	0.0158187
638.218	0.0157614
638.296	0.0158736
638.374	0.0158999
638.453	0.0159004
638.531	0.0159595
638.609	0.0158327
638.687	0.0158321
638.765	0.0157806
638.843	0.0158602
638.921	0.0158438
638.999	0.0158243
639.078	0.0158262
639.156	0.0157295
639.234	0.0159344
639.312	0.0158539
639.390	0.0160423
639.468	0.0158888
639.546	0.0157741
639.624	0.0158094
639.703	0.0158103
639.781	0.0158293
639.859	0.0158505
639.937	0.0158747
640.015	0.0159565
640.093	0.0157697
640.171	0.0159335
640.249	0.0159232
640.328	0.0158268
640.406	0.0158028
640.484	0.0160103
640.562	0.0158795
640.640	0.0157983
640.718	0.0157713
640.796	0.0158667
640.874	0.0158434
640.953	0.0159131
641.031	0.0159470
641.109	0.0159236
641.187	0.0159276
641.265	0.0157629
641.343	0.0157411
641.421	0.0159903
641.499	0.0158363
641.578	0.0157783
641.656	0.0159642
641.734	0.0157658
641.812	0.0157370
641.890	0.0158453
641.968	0.0159233
642.046	0.0158630
642.124	0.0158395
642.203	0.0158110
642.281	0.0158627
642.359	0.0158645
642.437	0.0157308
642.515	0.0157835
642.593	0.0157699
642.671	0.0160465
642.749	0.0159299
642.828	0.0157413
642.906	0.0160164
642.984	0.0158215
643.062	0.0157576
643.140	0.0159527
643.218	0.0160083
643.296	0.0159031
643.374	0.0159254
643.453	0.0158361
643.531	0.0159738
643.609	0.0159721
643.687	0.0158858
643.765	0.0158002
643.843	0.0158574
643.921	0.0158537
643.999	0.0158253
644.078	0.0158591
644.156	0.0157758
644.234	0.0158385
644.312	0.0158819
644.390	0.0158326
644.468	0.0158763
644.546	0.0159641
644.624	0.0159126
644.703	0.0158943
644.781	0.0158381
644.859	0.0158534
644.937	0.0159665
645.015	0.0157650
645.093	0.0158483
645.171	0.0159541
645.249	0.0158417
645.328	0.0159322
645.406	0.0159793
645.484	0.0158632
645.562	0.0158721
645.640	0.0158882
645.718	0.0159512
645.796	0.0158753
645.874	0.0159798
645.953	0.0158806
646.031	0.0158735
646.109	0.0159018
646.187	0.0160033
646.265	0.0159599
646.343	0.0159587
646.421	0.0159985
646.499	0.0161486
646.578	0.0159650
646.656	0.0159752
646.734	0.0159263
646.812	0.0160371
646.890	0.0159017
646.968	0.0160182
647.046	0.0159669
647.124	0.0160111
647.203	0.0159806
647.281	0.0159595
647.359	0.0159727
647.437	0.0159432
647.515	0.0159402
647.593	0.0160861
647.671	0.0159879
647.749	0.0159645
647.828	0.0160446
647.906	0.0159412
647.984	0.0160276
648.062	0.0159354
648.140	0.0158775
648.218	0.0161044
648.296	0.0159631
648.374	0.0160333
648.453	0.0159179
648.531	0.0159663
648.609	0.0159422
648.687	0.0158083
648.765	0.0160750
648.843	0.0161064
648.921	0.0159978
648.999	0.0158380
649.078	0.0159228
649.156	0.0159451
649.234	0.0159971
649.312	0.0158929
649.390	0.0160137
649.468	0.0160775
649.546	0.0158831
649.624	0.0159123
649.703	0.0159612
649.781	0.0160014
649.859	0.0159680
649.937	0.0159244
650.015	0.0159756
650.093	0.0159256
650.171	0.0160006
650.249	0.0158912
650.328	0.0159130
650.406	0.0159234
650.484	0.0159573
650.562	0.0159081
650.640	0.0159452
650.718	0.0157845
650.796	0.0159316
650.874	0.0159447
650.953	0.0159641
651.031	0.0159930
651.109	0.0160025
651.187	0.0159768
651.265	0.0159148
651.343	0.0160167
651.421	0.0160056
651.499	0.0161173
651.578	0.0158919
651.656	0.0160715
651.734	0.0159827
651.812	0.0158979
651.890	0.0158852
651.968	0.0159822
652.046	0.0159486
652.124	0.0157126
652.203	0.0159334
652.281	0.0159084
652.359	0.0159202
652.437	0.0159542
652.515	0.0158892
652.593	0.0159026
652.671	0.0159586
652.749	0.0159343
652.828	0.0160000
652.906	0.0158957
652.984	0.0160392
653.062	0.0159749
653.140	0.0160119
653.218	0.0159863
653.296	0.0159420
653.374	0.0160277
653.453	0.0160905
653.531	0.0158446
653.609	0.0159040
653.687	0.0158803
653.765	0.0158965
653.843	0.0159934
653.921	0.0160056
653.999	0.0159788
654.078	0.0159217
654.156	0.0158881
654.234	0.0159411
654.312	0.0159339
654.390	0.0159103
654.468	0.0160443
654.546	0.0159309
654.624	0.0158513
654.703	0.0159457
654.781	0.0158860
654.859	0.0160251
654.937	0.0159078
655.015	0.0159178
655.093	0.0158944
655.171	0.0159400
655.249	0.0159554
655.328	0.0159465
655.406	0.0158662
655.484	0.0159405
655.562	0.0158546
655.640	0.0158887
655.718	0.0160152
655.796	0.0160272
655.874	0.0158741
655.953	0.0160043
656.031	0.0159182
656.109	0.0159027
656.187	0.0159072
656.265	0.0158475
656.343	0.0159103
656.421	0.0159605
656.499	0.0158515
656.578	0.0159940
656.656	0.0158160
656.734	0.0159068
656.812	0.0158803
656.890	0.0159363
656.968	0.0159576
657.046	0.0158334
657.124	0.0159362
657.203	0.0158743
657.281	0.0158980
657.359	0.0160435
657.437	0.0159023
657.515	0.0159171
657.593	0.0158974
657.671	0.0159145
657.749	0.0160444
657.828	0.0159750
657.906	0.0159480
657.984	0.0158821
658.062	0.0159405
658.140	0.0159768
658.218	0.0160517
658.296	0.0159869
658.374	0.0158597
658.453	0.0159170
658.531	0.0159470
658.609	0.0158601
658.687	0.0160618
658.765	0.0158358
658.843	0.0158724
658.921	0.0158836
658.999	0.0157540
659.078	0.0158109
659.156	0.0159106
659.234	0.0160139
659.312	0.0159373
659.390	0.0158731
659.468	0.0159132
659.546	0.0157631
659.624	0.0159076
659.703	0.0158433
659.781	0.0158687
659.859	0.0158589
659.937	0.0159343
660.015	0.0159319
660.093	0.0159127
660.171	0.0159187
660.249	0.0160558
660.328	0.0159760
660.406	0.0157838
660.484	0.0158734
660.562	0.0158857
660.640	0.0158594
660.718	0.0160620
660.796	0.0158704
660.874	0.0159499
660.953	0.0158898
661.031	0.0157802
661.109	0.0159025
661.187	0.0158562
661.265	0.0158188
661.343	0.0158362
661.421	0.0158337
661.499	0.0159766
661.578	0.0159566
661.656	0.0157676
661.734	0.0158988
661.812	0.0159558
661.890	0.0159266
661.968	0.0158067
662.046	0.0159650
662.124	0.0158836
662.203	0.0159315
662.281	0.0158303
662.359	0.0158913
662.437	0.0158770
662.515	0.0158389
662.593	0.0158734
662.671	0.0159025
662.749	0.0158389
662.828	0.0159822
662.906	0.0158934
662.984	0.0158786
663.062	0.0159261
663.140	0.0159626
663.218	0.0157993
663.296	0.0157145
663.374	0.0158465
663.453	0.0157887
663.531	0.0157798
663.609	0.0157877
663.687	0.0156644
663.765	0.0158307
663.843	0.0159701
663.921	0.0158932
663.999	0.0158271
664.078	0.0159057
664.156	0.0156197
664.234	0.0157884
664.312	0.0158982
664.390	0.0158631
664.468	0.0157489
664.546	0.0158784
664.624	0.0159538
664.703	0.0158558
664.781	0.0157756
664.859	0.0159119
664.937	0.0158760
665.015	0.0158167
665.093	0.0159106
665.171	0.0157320
665.249	0.0157624
665.328	0.0157516
665.406	0.0159052
665.484	0.0157368
665.562	0.0158191
665.640	0.0157187
665.718	0.0158885
665.796	0.0157518
665.874	0.0158362
665.953	0.0158289
666.031	0.0158250
666.109	0.0158064
666.187	0.0157446
666.265	0.0158624
666.343	0.0158390
666.421	0.0157360
666.499	0.0157484
666.578	0.0158379
666.656	0.0158965
666.734	0.0157583
666.812	0.0157642
666.890	0.0158398
666.968	0.0159327
667.046	0.0158152
667.124	0.0157789
667.203	0.0159521
667.281	0.0157566
667.359	0.0158574
667.437	0.0159555
667.515	0.0159090
667.593	0.0158995
667.671	0.0157800
667.749	0.0158606
667.828	0.0158245
667.906	0.0158810
667.984	0.0158471
668.062	0.0158109
668.140	0.0159577
668.218	0.0157968
668.296	0.0159036
668.374	0.0159565
668.453	0.0157488
668.531	0.0158508
668.609	0.0158482
668.687	0.0157861
668.765	0.0158062
668.843	0.0158460
668.921	0.0159001
668.999	0.0158973
669.078	0.0159538
669.156	0.0158469
669.234	0.0159565
669.312	0.0160657
669.390	0.0159391
669.468	0.0158681
669.546	0.0157505
669.624	0.0159711
669.703	0.0158730
669.781	0.0159024
669.859	0.0159450
669.937	0.0159010
670.015	0.0159837
670.093	0.0158791
670.171	0.0159663
670.249	0.0160169
670.328	0.0159276
670.406	0.0160555
670.484	0.0160509
670.562	0.0158009
670.640	0.0159097
670.718	0.0158488
670.796	0.0160400
670.874	0.0160061
670.953	0.0161259
671.031	0.0161172
671.109	0.0159999
671.187	0.0159827
671.265	0.0159560
671.343	0.0159844
671.421	0.0160110
671.499	0.0159551
671.578	0.0159759
671.656	0.0159628
671.734	0.0159439
671.812	0.0159908
671.890	0.0158880
671.968	0.0159718
672.046	0.0160804
672.124	0.0159234
672.203	0.0159206
672.281	0.0159657
672.359	0.0159651
672.437	0.0159921
672.515	0.0159832
672.593	0.0159055
672.671	0.0159863
672.749	0.0160691
672.828	0.0161520
672.906	0.0161932
672.984	0.0160564
673.062	0.0159883
673.140	0.0159381
673.218	0.0160599
673.296	0.0160662
673.374	0.0159949
673.453	0.0159795
673.531	0.0159890
673.609	0.0161520
673.687	0.0158573
673.765	0.0161024
673.843	0.0160970
673.921	0.0158993
673.999	0.0158424
674.078	0.0159472
674.156	0.0158965
674.234	0.0160075
674.312	0.0158835
674.390	0.0159021
674.468	0.0159945
674.546	0.0159748
674.624	0.0159824
674.703	0.0159010
674.781	0.0159545
674.859	0.0158945
674.937	0.0159972
675.015	0.0160129
675.093	0.0159635
675.171	0.0159335
675.249	0.0159647
675.328	0.0160625
675.406	0.0160451
675.484	0.0159575
675.562	0.0158871
675.640	0.0159512
675.718	0.0159933
675.796	0.0160523
675.874	0.0159983
675.953	0.0160075
676.031	0.0158448
676.109	0.0161383
676.187	0.0161049
676.265	0.0159905
676.343	0.0160458
676.421	0.0159130
676.499	0.0160524
676.578	0.0159824
676.656	0.0159940
676.734	0.0160389
676.812	0.0160397
676.890	0.0159474
676.968	0.0161102
677.046	0.0159992
677.124	0.0159995
677.203	0.0160727
677.281	0.0160581
677.359	0.0160395
677.437	0.0159532
677.515	0.0158076
677.593	0.0160735
677.671	0.0160713
677.749	0.0159754
677.828	0.0160857
677.906	0.0158604
677.984	0.0158990
678.062	0.0160069
678.140	0.0159112
678.218	0.0159032
678.296	0.0159326
678.374	0.0159782
678.453	0.0158166
678.531	0.0159074
678.609	0.0159460
678.687	0.0158598
678.765	0.0159981
678.843	0.0158553
678.921	0.0159498
678.999	0.0160135
679.078	0.0159944
679.156	0.0159471
679.234	0.0159181
679.312	0.0158156
679.390	0.0158482
679.468	0.0159645
679.546	0.0158348
679.624	0.0158753
679.703	0.0158763
679.781	0.0158718
679.859	0.0159572
679.937	0.0159419
680.015	0.0159117
680.093	0.0158914
680.171	0.0158889
680.249	0.0159419
680.328	0.0159856
680.406	0.0159210
680.484	0.0159435
680.562	0.0159185
680.640	0.0159261
680.718	0.0159174
680.796	0.0158245
680.874	0.0159566
680.953	0.0159709
681.031	0.0160030
681.109	0.0159785
681.187	0.0158717
681.265	0.0158600
681.343	0.0158808
681.421	0.0159396
681.499	0.0159064
681.578	0.0160095
681.656	0.0160487
681.734	0.0158279
681.812	0.0158585
681.890	0.0160072
681.968	0.0159755
682.046	0.0158665
682.124	0.0158755
682.203	0.0159702
682.281	0.0158855
682.359	0.0158467
682.437	0.0158274
682.515	0.0159406
682.593	0.0160593
682.671	0.0159707
682.749	0.0158452
682.828	0.0159199
682.906	0.0158910
682.984	0.0158208
683.062	0.0159184
683.140	0.0157922
683.218	0.0159710
683.296	0.0159353
683.374	0.0158007
683.453	0.0157479
683.531	0.0158262
683.609	0.0158820
683.687	0.0160502
683.765	0.0158706
683.843	0.0158530
683.921	0.0160255
683.999	0.0159347
684.078	0.0159031
684.156	0.0158873
684.234	0.0158735
684.312	0.0158318
684.390	0.0159021
684.468	0.0161418
684.546	0.0160367
684.624	0.0156980
684.703	0.0158505
684.781	0.0158429
684.859	0.0159125
684.937	0.0159074
685.015	0.0159568
685.093	0.0157669
685.171	0.0157612
685.249	0.0158317
685.328	0.0158276
685.406	0.0159233
685.484	0.0157697
685.562	0.0158415
685.640	0.0159492
685.718	0.0159547
685.796	0.0158591
685.874	0.0157608
685.953	0.0157515
686.031	0.0158505
686.109	0.0160171
686.187	0.0158687
686.265	0.0157290
686.343	0.0157542
686.421	0.0158432
686.499	0.0158812
686.578	0.0158282
686.656	0.0157558
686.734	0.0158550
686.812	0.0159139
686.890	0.0158389
686.968	0.0157099
687.046	0.0158132
687.124	0.0158192
687.203	0.0157580
687.281	0.0157385
687.359	0.0158582
687.437	0.0157353
687.515	0.0158168
687.593	0.0158082
687.671	0.0159614
687.749	0.0158315
687.828	0.0158652
687.906	0.0157948
687.984	0.0159018
688.062	0.0158107
688.140	0.0158195
688.218	0.0158207
688.296	0.0158556
688.374	0.0157394
688.453	0.0157584
688.531	0.0157818
688.609	0.0157316
688.687	0.0155934
688.765	0.0157883
688.843	0.0158938
688.921	0.0158485
688.999	0.0156852
689.078	0.0157094
689.156	0.0157676
689.234	0.0156145
689.312	0.0157054
689.390	0.0156853
689.468	0.0158769
689.546	0.0158170
689.624	0.0157209
689.703	0.0158077
689.781	0.0156503
689.859	0.0156958
689.937	0.0159384
690.015	0.0157069
690.093	0.0157751
690.171	0.0158659
690.249	0.0157368
690.328	0.0158191
690.406	0.0158448
690.484	0.0157883
690.562	0.0157364
690.640	0.0157194
690.718	0.0157473
690.796	0.0159250
690.874	0.0157664
690.953	0.0159184
691.031	0.0158913
691.109	0.0159437
691.187	0.0157803
691.265	0.0157458
691.343	0.0156646
691.421	0.0158154
691.499	0.0158221
691.578	0.0158896
691.656	0.0158337
691.734	0.0158360
691.812	0.0157359
691.890	0.0158402
691.968	0.0157407
692.046	0.0157808
692.124	0.0158907
692.203	0.0158237
692.281	0.0157247
692.359	0.0156905
692.437	0.0158204
692.515	0.0158621
692.593	0.0157570
692.671	0.0157955
692.749	0.0159226
692.828	0.0157467
692.906	0.0158030
692.984	0.0158522
693.062	0.0158488
693.140	0.0157976
693.218	0.0157980
693.296	0.0157458
693.374	0.0158902
693.453	0.0158836
693.531	0.0158643
693.609	0.0158997
693.687	0.0159274
693.765	0.0158052
693.843	0.0158477
693.921	0.0156484
693.999	0.0158154
694.078	0.0158075
694.156	0.0157470
694.234	0.0157164
694.312	0.0158376
694.390	0.0157629
694.468	0.0158653
694.546	0.0157804
694.624	0.0157890
694.703	0.0158658
694.781	0.0157445
694.859	0.0158903
694.937	0.0157078
695.015	0.0157307
695.093	0.0158753
695.171	0.0159118
695.249	0.0160521
695.328	0.0157687
695.406	0.0158819
695.484	0.0159567
695.562	0.0158886
695.640	0.0158387
695.718	0.0157832
695.796	0.0159439
695.874	0.0158378
695.953	0.0158157
696.031	0.0160237
696.109	0.0158432
696.187	0.0158643
696.265	0.0158193
696.343	0.0158913
696.421	0.0159080
696.499	0.0160348
696.578	0.0160054
696.656	0.0159125
696.734	0.0158478
696.812	0.0158986
696.890	0.0159540
696.968	0.0159865
697.046	0.0158987
697.124	0.0159064
697.203	0.0159338
697.281	0.0159168
697.359	0.0158751
697.437	0.0158379
697.515	0.0160352
697.593	0.0159476
697.671	0.0159232
697.749	0.0160184
697.828	0.0159381
697.906	0.0158205
697.984	0.0159430
698.062	0.0160549
698.140	0.0158260
698.218	0.0157991
698.296	0.0160905
698.374	0.0158968
698.453	0.0158080
698.531	0.0159618
698.609	0.0160162
698.687	0.0158453
698.765	0.0157899
698.843	0.0160735
698.921	0.0158347
698.999	0.0158859
699.078	0.0159566
699.156	0.0159380
699.234	0.0158312
699.312	0.0159894
699.390	0.0159782
699.468	0.0159439
699.546	0.0158833
699.624	0.0159026
699.703	0.0157437
699.781	0.0158553
699.859	0.0158500
699.937	0.0158133
700.015	0.0159864
700.093	0.0159155
700.171	0.0159234
700.249	0.0159380
700.328	0.0158092
700.406	0.0158380
700.484	0.0159607
700.562	0.0160651
700.640	0.0159142
700.718	0.0159624
700.796	0.0158347
700.874	0.0159050
700.953	0.0160429
701.031	0.0158958
701.109	0.0158323
701.187	0.0158286
701.265	0.0158717
701.343	0.0159628
701.421	0.0158218
701.499	0.0159893
701.578	0.0159688
701.656	0.0157925
701.734	0.0160172
701.812	0.0159145
701.890	0.0159608
701.968	0.0160173
702.046	0.0159681
702.124	0.0159213
702.203	0.0159920
702.281	0.0159682
702.359	0.0160616
702.437	0.0158907
702.515	0.0159387
702.593	0.0162131
702.671	0.0159251
702.749	0.0159295
702.828	0.0159785
702.906	0.0159327
702.984	0.0158163
703.062	0.0159386
703.140	0.0160027
703.218	0.0159776
703.296	0.0158982
703.374	0.0159244
703.453	0.0159343
703.531	0.0159438
703.609	0.0158448
703.687	0.0159328
703.765	0.0159235
703.843	0.0158489
703.921	0.0158894
703.999	0.0159510
704.078	0.0159335
704.156	0.0159388
704.234	0.0159257
704.312	0.0161300
704.390	0.0159320
704.468	0.0159044
704.546	0.0158630
704.624	0.0159250
704.703	0.0158981
704.781	0.0159521
704.859	0.0159339
704.937	0.0160593
705.015	0.0162161
705.093	0.0160154
705.171	0.0159989
705.249	0.0159229
705.328	0.0160587
705.406	0.0160335
705.484	0.0159415
705.562	0.0160543
705.640	0.0159940
705.718	0.0159760
705.796	0.0160027
705.874	0.0158510
705.953	0.0158374
706.031	0.0156915
706.109	0.0158891
706.187	0.0160498
706.265	0.0160530
706.343	0.0158158
706.421	0.0158868
706.499	0.0159303
706.578	0.0158274
706.656	0.0159341
706.734	0.0158974
706.812	0.0158325
706.890	0.0159580
706.968	0.0159817
707.046	0.0159818
707.124	0.0158527
707.203	0.0159516
707.281	0.0160077
707.359	0.0159564
707.437	0.0160004
707.515	0.0159799
707.593	0.0159237
707.671	0.0158681
707.749	0.0158543
707.828	0.0159747
707.906	0.0158430
707.984	0.0160662
708.062	0.0158615
708.140	0.0157565
708.218	0.0159179
708.296	0.0158323
708.374	0.0158693
708.453	0.0158069
708.531	0.0159016
708.609	0.0158852
708.687	0.0157728
708.765	0.0157986
708.843	0.0157403
708.921	0.0158759
708.999	0.0158463
709.078	0.0157455
709.156	0.0157719
709.234	0.0158706
709.312	0.0159511
709.390	0.0159834
709.468	0.0157574
709.546	0.0157390
709.624	0.0158343
709.703	0.0158781
709.781	0.0159330
709.859	0.0159335
709.937	0.0158609
710.015	0.0158695
710.093	0.0158018
710.171	0.0158089
710.249	0.0159098
710.328	0.0158268
710.406	0.0158389
710.484	0.0157077
710.562	0.0158332
710.640	0.0159406
710.718	0.0158284
710.796	0.0157737
710.874	0.0158616
710.953	0.0156528
711.031	0.0158035
711.109	0.0158588
711.187	0.0158344
711.265	0.0158730
711.343	0.0158557
711.421	0.0158158
711.499	0.0156333
711.578	0.0157648
711.656	0.0157958
711.734	0.0158164
711.812	0.0158825
711.890	0.0158260
711.968	0.0158361
712.046	0.0158376
712.124	0.0157523
712.203	0.0157691
712.281	0.0156731
712.359	0.0158355
712.437	0.0157199
712.515	0.0158337
712.593	0.0158460
712.671	0.0156821
712.749	0.0158511
712.828	0.0156857
712.906	0.0157359
712.984	0.0158635
713.062	0.0157737
713.140	0.0157771
713.218	0.0158141
713.296	0.0157514
713.374	0.0156750
713.453	0.0157593
713.531	0.0157516
713.609	0.0157147
713.687	0.0156755
713.765	0.0157562
713.843	0.0156802
713.921	0.0157139
713.999	0.0157391
714.078	0.0157438
714.156	0.0157603
714.234	0.0156695
714.312	0.0158227
714.390	0.0156581
714.468	0.0156530
714.546	0.0157670
714.624	0.0157972
714.703	0.0158694
714.781	0.0157497
714.859	0.0156808
714.937	0.0157849
715.015	0.0157074
715.093	0.0157602
715.171	0.0157138
715.249	0.0158353
715.328	0.0157523
715.406	0.0156834
715.484	0.0157341
715.562	0.0157466
715.640	0.0157934
715.718	0.0157420
715.796	0.0156991
715.874	0.0158225
715.953	0.0157685
716.031	0.0157893
716.109	0.0156984
716.187	0.0157004
716.265	0.0158604
716.343	0.0156085
716.421	0.0158221
716.499	0.0157409
716.578	0.0157970
716.656	0.0158675
716.734	0.0158751
716.812	0.0158739
716.890	0.0158352
716.968	0.0158227
717.046	0.0158383
717.124	0.0158700
717.203	0.0158162
717.281	0.0157131
717.359	0.0158470
717.437	0.0159041
717.515	0.0158213
717.593	0.0158158
717.671	0.0158948
717.749	0.0158775
717.828	0.0158118
717.906	0.0157917
717.984	0.0158593
718.062	0.0158657
718.140	0.0157302
718.218	0.0157468
718.296	0.0157281
718.374	0.0158614
718.453	0.0160931
718.531	0.0158970
718.609	0.0158035
718.687	0.0157673
718.765	0.0159476
718.843	0.0158566
718.921	0.0157858
718.999	0.0159318
719.078	0.0158718
719.156	0.0158693
719.234	0.0159222
719.312	0.0158277
719.390	0.0158964
719.468	0.0158282
719.546	0.0158243
719.624	0.0159138
719.703	0.0159132
719.781	0.0159138
719.859	0.0159270
719.937	0.0158887
720.015	0.0157570
720.093	0.0158791
720.171	0.0158284
720.249	0.0159042
720.328	0.0160375
720.406	0.0160744
720.484	0.0158804
720.562	0.0159641
720.640	0.0158596
720.718	0.0158540
720.796	0.0157669
720.874	0.0158961
720.953	0.0159272
721.031	0.0160471
721.109	0.0159571
721.187	0.0157330
721.265	0.0159573
721.343	0.0157531
721.421	0.0157681
721.499	0.0158267
721.578	0.0159647
721.656	0.0158173
721.734	0.0158019
721.812	0.0158463
721.890	0.0159500
721.968	0.0159774
722.046	0.0158703
722.124	0.0159171
722.203	0.0159902
722.281	0.0159529
722.359	0.0158515
722.437	0.0157364
722.515	0.0159515
722.593	0.0160178
722.671	0.0158338
722.749	0.0157635
722.828	0.0158846
722.906	0.0161034
722.984	0.0159579
723.062	0.0157394
723.140	0.0158839
723.218	0.0159977
723.296	0.0158787
723.374	0.0158990
723.453	0.0160497
723.531	0.0158427
723.609	0.0159131
723.687	0.0160081
723.765	0.0160281
723.843	0.0157642
723.921	0.0159537
723.999	0.0158003
724.078	0.0158558
724.156	0.0159539
724.234	0.0158331
724.312	0.0159640
724.390	0.0159658
724.468	0.0159112
724.546	0.0158479
724.624	0.0157623
724.703	0.0159999
724.781	0.0159702
724.859	0.0158485
724.937	0.0159269
725.015	0.0159380
725.093	0.0160328
725.171	0.0159807
725.249	0.0158974
725.328	0.0157848
725.406	0.0160052
725.484	0.0159753
725.562	0.0158532
725.640	0.0158446
725.718	0.0159430
725.796	0.0159245
725.874	0.0159744
725.953	0.0158490
726.031	0.0157938
726.109	0.0160368
726.187	0.0159676
726.265	0.0158132
726.343	0.0159476
726.421	0.0159782
726.499	0.0159948
726.578	0.0159786
726.656	0.0158961
726.734	0.0159229
726.812	0.0159219
726.890	0.0158347
726.968	0.0159991
727.046	0.0160692
727.124	0.0160274
727.203	0.0157921
727.281	0.0159511
727.359	0.0159703
727.437	0.0160349
727.515	0.0161217
727.593	0.0159702
727.671	0.0159259
727.749	0.0160055
727.828	0.0159930
727.906	0.0160494
727.984	0.0159902
728.062	0.0159521
728.140	0.0161839
728.218	0.0159387
728.296	0.0159565
728.374	0.0159446
728.453	0.0158355
728.531	0.0159361
728.609	0.0159726
728.687	0.0159559
728.765	0.0159367
728.843	0.0159328
728.921	0.0160268
728.999	0.0160757
729.078	0.0159597
729.156	0.0160374
729.234	0.0158630
729.312	0.0159200
729.390	0.0160590
729.468	0.0158101
729.546	0.0159499
729.624	0.0159066
729.703	0.0158710
729.781	0.0159924
729.859	0.0160590
729.937	0.0159081
730.015	0.0159039
730.093	0.0159129
730.171	0.0158666
730.249	0.0158849
730.328	0.0159721
730.406	0.0158598
730.484	0.0158500
730.562	0.0159784
730.640	0.0159908
730.718	0.0159631
730.796	0.0160651
730.874	0.0159508
730.953	0.0159058
731.031	0.0160964
731.109	0.0159635
731.187	0.0159252
731.265	0.0159015
731.343	0.0157813
731.421	0.0159518
731.499	0.0159679
731.578	0.0160587
731.656	0.0159103
731.734	0.0159342
731.812	0.0159639
731.890	0.0159453
731.968	0.0160432
732.046	0.0160260
732.124	0.0160510
732.203	0.0159180
732.281	0.0159034
732.359	0.0159386
732.437	0.0158073
732.515	0.0158150
732.593	0.0158067
732.671	0.0160226
732.749	0.0159049
732.828	0.0159003
732.906	0.0157631
732.984	0.0158490
733.062	0.0160355
733.140	0.0158388
733.218	0.0160495
733.296	0.0159390
733.374	0.0159488
733.453	0.0160180
733.531	0.0159678
733.609	0.0159630
733.687	0.0158976
733.765	0.0159433
733.843	0.0158738
733.921	0.0159162
733.999	0.0159707
734.078	0.0159558
734.156	0.0160126
734.234	0.0159220
734.312	0.0158987
734.390	0.0159961
734.468	0.0159455
734.546	0.0158970
734.624	0.0158664
734.703	0.0159220
734.781	0.0159860
734.859	0.0159952
734.937	0.0158306
735.015	0.0159313
735.093	0.0160017
735.171	0.0158668
735.249	0.0158029
735.328	0.0157920
735.406	0.0158608
735.484	0.0158764
735.562	0.0158943
735.640	0.0158453
735.718	0.0159663
735.796	0.0158154
735.874	0.0158805
735.953	0.0159113
736.031	0.0158689
736.109	0.0158595
736.187	0.0158434
736.265	0.0158192
736.343	0.0157170
736.421	0.0159898
736.499	0.0159396
736.578	0.0158941
736.656	0.0158877
736.734	0.0158409
736.812	0.0158585
736.890	0.0158269
736.968	0.0159785
737.046	0.0159078
737.124	0.0158458
737.203	0.0157822
737.281	0.0157806
737.359	0.0158227
737.437	0.0159018
737.515	0.0159130
737.593	0.0159523
737.671	0.0159572
737.749	0.0158646
737.828	0.0158012
737.906	0.0159817
737.984	0.0158781
738.062	0.0159081
738.140	0.0156888
738.218	0.0159034
738.296	0.0159449
738.374	0.0158690
738.453	0.0160078
738.531	0.0158930
738.609	0.0159173
738.687	0.0158952
738.765	0.0156618
738.843	0.0159645
738.921	0.0160149
738.999	0.0159846
739.078	0.0159010
739.156	0.0158836
739.234	0.0157269
739.312	0.0158396
739.390	0.0159361
739.468	0.0157684
739.546	0.0158778
739.624	0.0159793
739.703	0.0158036
739.781	0.0159141
739.859	0.0157762
739.937	0.0158796
740.015	0.0159203
740.093	0.0158160
740.171	0.0158566
740.249	0.0158210
740.328	0.0159833
740.406	0.0158315
740.484	0.0158779
740.562	0.0159822
740.640	0.0159965
740.718	0.0158243
740.796	0.0159013
740.874	0.0159619
740.953	0.0158690
741.031	0.0158192
741.109	0.0158784
741.187	0.0158058
741.265	0.0158801
741.343	0.0159521
741.421	0.0159203
741.499	0.0159415
741.578	0.0158428
741.656	0.0159219
741.734	0.0156877
741.812	0.0158649
741.890	0.0159534
741.968	0.0158392
742.046	0.0158797
742.124	0.0159389
742.203	0.0157587
742.281	0.0159011
742.359	0.0158485
742.437	0.0159832
742.515	0.0158329
742.593	0.0159367
742.671	0.0160158
742.749	0.0158250
742.828	0.0158676
742.906	0.0159024
742.984	0.0158781
743.062	0.0159411
743.140	0.0159139
743.218	0.0158089
743.296	0.0159984
743.374	0.0158791
743.453	0.0158395
743.531	0.0158572
743.609	0.0159962
743.687	0.0157587
743.765	0.0159673
743.843	0.0158597
743.921	0.0158943
743.999	0.0159832
744.078	0.0160639
744.156	0.0158582
744.234	0.0158253
744.312	0.0158000
744.390	0.0158389
744.468	0.0159298
744.546	0.0157924
744.624	0.0158765
744.703	0.0158380
744.781	0.0159121
744.859	0.0159529
744.937	0.0160155
745.015	0.0158608
745.093	0.0156807
745.171	0.0158601
745.249	0.0159023
745.328	0.0157764
745.406	0.0159549
745.484	0.0158510
745.562	0.0159451
745.640	0.0159385
745.718	0.0157786
745.796	0.0158383
745.874	0.0158632
745.953	0.0158615
746.031	0.0157701
746.109	0.0158567
746.187	0.0160194
746.265	0.0158290
746.343	0.0158393
746.421	0.0159170
746.499	0.0159441
746.578	0.0159132
746.656	0.0158073
746.734	0.0159600
746.812	0.0158694
746.890	0.0158696
746.968	0.0158271
747.046	0.0158900
747.124	0.0158865
747.203	0.0159821
747.281	0.0157894
747.359	0.0158526
747.437	0.0159411
747.515	0.0159826
747.593	0.0159480
747.671	0.0158929
747.749	0.0159739
747.828	0.0160497
747.906	0.0158498
747.984	0.0158367
748.062	0.0158304
748.140	0.0159242
748.218	0.0158279
748.296	0.0159574
748.374	0.0159554
748.453	0.0159108
748.531	0.0160434
748.609	0.0159753
748.687	0.0159828
748.765	0.0158808
748.843	0.0158273
748.921	0.0158409
748.999	0.0159379
749.078	0.0159953
749.156	0.0159654
749.234	0.0159533
749.312	0.0158899
749.390	0.0159188
749.468	0.0159487
749.546	0.0158974
749.624	0.0158368
749.703	0.0159204
749.781	0.0160649
749.859	0.0160614
749.937	0.0159876
750.015	0.0159708
750.093	0.0158282
750.171	0.0159185
750.249	0.0159238
750.328	0.0160178
750.406	0.0159923
750.484	0.0158678
750.562	0.0160931
750.640	0.0160488
750.718	0.0159384
750.796	0.0160080
750.874	0.0160719
750.953	0.0160040
751.031	0.0160190
751.109	0.0160220
751.187	0.0159750
751.265	0.0159533
751.343	0.0159870
751.421	0.0160770
751.499	0.0161258
751.578	0.0159425
751.656	0.0159498
751.734	0.0160223
751.812	0.0160686
751.890	0.0160597
751.968	0.0159782
752.046	0.0160321
752.124	0.0159303
752.203	0.0160212
752.281	0.0159218
752.359	0.0159155
752.437	0.0160337
752.515	0.0160076
752.593	0.0159182
752.671	0.0161113
752.749	0.0159180
752.828	0.0159142
752.906	0.0159752
752.984	0.0159107
753.062	0.0160126
753.140	0.0160420
753.218	0.0159308
753.296	0.0159090
753.374	0.0159414
753.453	0.0159647
753.531	0.0160414
753.609	0.0159126
753.687	0.0159151
753.765	0.0158375
753.843	0.0160740
753.921	0.0160426
753.999	0.0160564
754.078	0.0160340
754.156	0.0160345
754.234	0.0158692
754.312	0.0158368
754.390	0.0160304
754.468	0.0159201
754.546	0.0159657
754.624	0.0158315
754.703	0.0158110
754.781	0.0160291
754.859	0.0159222
754.937	0.0159957
755.015	0.0159196
755.093	0.0159292
755.171	0.0158443
755.249	0.0159255
755.328	0.0157748
755.406	0.0157548
755.484	0.0158257
755.562	0.0160054
755.640	0.0158301
755.718	0.0158829
755.796	0.0157626
755.874	0.0157690
755.953	0.0159451
756.031	0.0158281
756.109	0.0159409
756.187	0.0158591
756.265	0.0159001
756.343	0.0158578
756.421	0.0159645
756.499	0.0159600
756.578	0.0160065
756.656	0.0158943
756.734	0.0159538
756.812	0.0159096
756.890	0.0159454
756.968	0.0159426
757.046	0.0159241
757.124	0.0159853
757.203	0.0160751
757.281	0.0159391
757.359	0.0159294
757.437	0.0160117
757.515	0.0158671
757.593	0.0159313
757.671	0.0159814
757.749	0.0159760
757.828	0.0159265
757.906	0.0158662
757.984	0.0159167
758.062	0.0158296
758.140	0.0159081
758.218	0.0158356
758.296	0.0158530
758.374	0.0158437
758.453	0.0157408
758.531	0.0157999
758.609	0.0157352
758.687	0.0157019
758.765	0.0158157
758.843	0.0158303
758.921	0.0158217
758.999	0.0157997
759.078	0.0156654
759.156	0.0157059
759.234	0.0158816
759.312	0.0157688
759.390	0.0156586
759.468	0.0158194
759.546	0.0158474
759.624	0.0157575
759.703	0.0159116
759.781	0.0159289
759.859	0.0159604
759.937	0.0159724
760.015	0.0159326
760.093	0.0159902
760.171	0.0159309
760.249	0.0157806
760.328	0.0157997
760.406	0.0158014
760.484	0.0158258
760.562	0.0158256
760.640	0.0157813
760.718	0.0157657
760.796	0.0159579
760.874	0.0158083
760.953	0.0157997
761.031	0.0159953
761.109	0.0158656
761.187	0.0157503
761.265	0.0157949
761.343	0.0157233
761.421	0.0157024
761.499	0.0158253
761.578	0.0157633
761.656	0.0156177
761.734	0.0156905
761.812	0.0157782
761.890	0.0157714
761.968	0.0157548
762.046	0.0157419
762.124	0.0156245
762.203	0.0158095
762.281	0.0157929
762.359	0.0157710
762.437	0.0157233
762.515	0.0158448
762.593	0.0158248
762.671	0.0159850
762.749	0.0159324
762.828	0.0159029
762.906	0.0159553
762.984	0.0159453
763.062	0.0157822
763.140	0.0158719
763.218	0.0158711
763.296	0.0159361
763.374	0.0158119
763.453	0.0158476
763.531	0.0159222
763.609	0.0158438
763.687	0.0157948
763.765	0.0158132
763.843	0.0158133
763.921	0.0157789
763.999	0.0157380
764.078	0.0157809
764.156	0.0157759
764.234	0.0158075
764.312	0.0157433
764.390	0.0157670
764.468	0.0158797
764.546	0.0159140
764.624	0.0157624
764.703	0.0157608
764.781	0.0158134
764.859	0.0160562
764.937	0.0158012
765.015	0.0157619
765.093	0.0158286
765.171	0.0159692
765.249	0.0158108
765.328	0.0159065
765.406	0.0159737
765.484	0.0158964
765.562	0.0158141
765.640	0.0159406
765.718	0.0159155
765.796	0.0159291
765.874	0.0158877
765.953	0.0159229
766.031	0.0159036
766.109	0.0159130
766.187	0.0159113
766.265	0.0159340
766.343	0.0157647
766.421	0.0158144
766.499	0.0158817
766.578	0.0159482
766.656	0.0157506
766.734	0.0157990
766.812	0.0158054
766.890	0.0156600
766.968	0.0156791
767.046	0.0157254
767.124	0.0157442
767.203	0.0158232
767.281	0.0156535
767.359	0.0157818
767.437	0.0156951
767.515	0.0157619
767.593	0.0156979
767.671	0.0156362
767.749	0.0156535
767.828	0.0157903
767.906	0.0157147
767.984	0.0156430
768.062	0.0157804
768.140	0.0157809
768.218	0.0156569
768.296	0.0157494
768.374	0.0156871
768.453	0.0157462
768.531	0.0158390
768.609	0.0160100
768.687	0.0159159
768.765	0.0159971
768.843	0.0159433
768.921	0.0160329
768.999	0.0159241
769.078	0.0159138
769.156	0.0160418
769.234	0.0160548
769.312	0.0159483
769.390	0.0160424
769.468	0.0160857
769.546	0.0159350
769.624	0.0158462
769.703	0.0160213
769.781	0.0158156
769.859	0.0158768
769.937	0.0158385
770.015	0.0158467
770.093	0.0157851
770.171	0.0158591
770.249	0.0160184
770.328	0.0158881
770.406	0.0158353
770.484	0.0157693
770.562	0.0157874
770.640	0.0158025
770.718	0.0159573
770.796	0.0158323
770.874	0.0156517
770.953	0.0157872
771.031	0.0157764
771.109	0.0157490
771.187	0.0157236
771.265	0.0158248
771.343	0.0155806
771.421	0.0157107
771.499	0.0156579
771.578	0.0158410
771.656	0.0157217
771.734	0.0158464
771.812	0.0158707
771.890	0.0158599
771.968	0.0159208
772.046	0.0158693
772.124	0.0158403
772.203	0.0158946
772.281	0.0158586
772.359	0.0157905
772.437	0.0156890
772.515	0.0158061
772.593	0.0156566
772.671	0.0158391
772.749	0.0158121
772.828	0.0159316
772.906	0.0157203
772.984	0.0156192
773.062	0.0157578
773.140	0.0158140
773.218	0.0158974
773.296	0.0158518
773.374	0.0157929
773.453	0.0159564
773.531	0.0159285
773.609	0.0159458
773.687	0.0160130
773.765	0.0159702
773.843	0.0160950
773.921	0.0161098
773.999	0.0159908
774.078	0.0160577
774.156	0.0161516
774.234	0.0162769
774.312	0.0161983
774.390	0.0161810
774.468	0.0163293
774.546	0.0161292
774.624	0.0161787
774.703	0.0162814
774.781	0.0160572
774.859	0.0161222
774.937	0.0161427
775.015	0.0159543
775.093	0.0160060
775.171	0.0159884
775.249	0.0158550
775.328	0.0158791
775.406	0.0157893
775.484	0.0158707
775.562	0.0158095
775.640	0.0157093
775.718	0.0159245
775.796	0.0158083
775.874	0.0156777
775.953	0.0157925
776.031	0.0157085
776.109	0.0157373
776.187	0.0157681
776.265	0.0157333
776.343	0.0157679
776.421	0.0157019
776.499	0.0157089
776.578	0.0158183
776.656	0.0156416
776.734	0.0157798
776.812	0.0158039
776.890	0.0157813
776.968	0.0159498
777.046	0.0158862
777.124	0.0159628
777.203	0.0160651
777.281	0.0161280
777.359	0.0160002
777.437	0.0159325
777.515	0.0160107
777.593	0.0161129
777.671	0.0160258
777.749	0.0160532
777.828	0.0160873
777.906	0.0160075
777.984	0.0160574
778.062	0.0160921
778.140	0.0161051
778.218	0.0160313
778.296	0.0159219
778.374	0.0160172
778.453	0.0158131
778.531	0.0159152
778.609	0.0160706
778.687	0.0158354
778.765	0.0159137
778.843	0.0158530
778.921	0.0159074
778.999	0.0158391
779.078	0.0159262
779.156	0.0159711
779.234	0.0158079
779.312	0.0158063
779.390	0.0158784
779.468	0.0158009
779.546	0.0159359
779.624	0.0157565
779.703	0.0158318
779.781	0.0157867
779.859	0.0158826
779.937	0.0159705
780.015	0.0159182
780.093	0.0159074
780.171	0.0157690
780.249	0.0158608
780.328	0.0157417
780.406	0.0158477
780.484	0.0157929
780.562	0.0156308
780.640	0.0156197
780.718	0.0155635
780.796	0.0156329
780.874	0.0156543
780.953	0.0155624
781.031	0.0154377
781.109	0.0154221
781.187	0.0155140
781.265	0.0156010
781.343	0.0156198
781.421	0.0155384
781.499	0.0156084
781.578	0.0155789
781.656	0.0156567
781.734	0.0157520
781.812	0.0156909
781.890	0.0158668
781.968	0.0157445
782.046	0.0157439
782.124	0.0159210
782.203	0.0159359
782.281	0.0159357
782.359	0.0159848
782.437	0.0158934
782.515	0.0160751
782.593	0.0161189
782.671	0.0160193
782.749	0.0159776
782.828	0.0160784
782.906	0.0160640
782.984	0.0159521
783.062	0.0159497
783.140	0.0159725
783.218	0.0158972
783.296	0.0160611
783.374	0.0158488
783.453	0.0158556
783.531	0.0157896
783.609	0.0157596
783.687	0.0158084
783.765	0.0158319
783.843	0.0158689
783.921	0.0156870
783.999	0.0156299
784.078	0.0156024
784.156	0.0156232
784.234	0.0157970
784.312	0.0157629
784.390	0.0158124
784.468	0.0156754
784.546	0.0157528
784.624	0.0158352
784.703	0.0158689
784.781	0.0157552
784.859	0.0157362
784.937	0.0157887
785.015	0.0156693
785.093	0.0156831
785.171	0.0158212
785.249	0.0156621
785.328	0.0156807
785.406	0.0156958
785.484	0.0157142
785.562	0.0157497
785.640	0.0158489
785.718	0.0156918
785.796	0.0158751
785.874	0.0157863
785.953	0.0158842
786.031	0.0159348
786.109	0.0160290
786.187	0.0161115
786.265	0.0161115
786.343	0.0160494
786.421	0.0159690
786.499	0.0161398
786.578	0.0161178
786.656	0.0159055
786.734	0.0160316
786.812	0.0161498
786.890	0.0160361
786.968	0.0160313
787.046	0.0158825
787.124	0.0158968
787.203	0.0159548
787.281	0.0157359
787.359	0.0158351
787.437	0.0158005
787.515	0.0157038
787.593	0.0157203
787.671	0.0156613
787.749	0.0158009
787.828	0.0157227
787.906	0.0156327
787.984	0.0156812
788.062	0.0156156
788.140	0.0158290
788.218	0.0157858
788.296	0.0157101
788.374	0.0155830
788.453	0.0155611
788.531	0.0156711
788.609	0.0156488
788.687	0.0158761
788.765	0.0156294
788.843	0.0156812
788.921	0.0156805
788.999	0.0157027
789.078	0.0157713
789.156	0.0157382
789.234	0.0156715
789.312	0.0156434
789.390	0.0158205
789.468	0.0158173
789.546	0.0158841
789.624	0.0157336
789.703	0.0157881
789.781	0.0159587
789.859	0.0158887
789.937	0.0157780
790.015	0.0157940
790.093	0.0157423
790.171	0.0160017
790.249	0.0159012
790.328	0.0158254
790.406	0.0158611
790.484	0.0158347
790.562	0.0159785
790.640	0.0159857
790.718	0.0159398
790.796	0.0160108
790.874	0.0161212
790.953	0.0158950
791.031	0.0159353
791.109	0.0160487
791.187	0.0159218
791.265	0.0159747
791.343	0.0159647
791.421	0.0159555
791.499	0.0159754
791.578	0.0160504
791.656	0.0158804
791.734	0.0159550
791.812	0.0159002
791.890	0.0159496
791.968	0.0159514
792.046	0.0158277
792.124	0.0158494
792.203	0.0159173
792.281	0.0159335
792.359	0.0158086
792.437	0.0157314
792.515	0.0158714
792.593	0.0159034
792.671	0.0156307
792.749	0.0156049
792.828	0.0157645
792.906	0.0155198
792.984	0.0155080
793.062	0.0156291
793.140	0.0155391
793.218	0.0154488
793.296	0.0155720
793.374	0.0156326
793.453	0.0155020
793.531	0.0156953
793.609	0.0157426
793.687	0.0156493
793.765	0.0157288
793.843	0.0157356
793.921	0.0157527
793.999	0.0158800
794.078	0.0158095
794.156	0.0160589
794.234	0.0160475
794.312	0.0160813
794.390	0.0161616
794.468	0.0159827
794.546	0.0161904
794.624	0.0161362
794.703	0.0160618
794.781	0.0161071
794.859	0.0162005
794.937	0.0163187
795.015	0.0162344
795.093	0.0162134
795.171	0.0163785
795.249	0.0162056
795.328	0.0162210
795.406	0.0161868
795.484	0.0161909
795.562	0.0161594
795.640	0.0163073
795.718	0.0161516
795.796	0.0161019
795.874	0.0161028
795.953	0.0160512
796.031	0.0160001
796.109	0.0160216
796.187	0.0160128
796.265	0.0160087
796.343	0.0158826
796.421	0.0158819
796.499	0.0157984
796.578	0.0156617
796.656	0.0157696
796.734	0.0156314
796.812	0.0157568
796.890	0.0156635
796.968	0.0154684
797.046	0.0156860
797.124	0.0156024
797.203	0.0156602
797.281	0.0154514
797.359	0.0154662
797.437	0.0154593
797.515	0.0153771
797.593	0.0154266
797.671	0.0156882
797.749	0.0156785
797.828	0.0154867
797.906	0.0155676
797.984	0.0156918
798.062	0.0158132
798.140	0.0159270
798.218	0.0159245
798.296	0.0160663
798.374	0.0160716
798.453	0.0160892
798.531	0.0161628
798.609	0.0163284
798.687	0.0161919
798.765	0.0161080
798.843	0.0162757
798.921	0.0161318
798.999	0.0162034
799.078	0.0162778
799.156	0.0161828
799.234	0.0161607
799.312	0.0160343
799.390	0.0160881
799.468	0.0161327
799.546	0.0159996
799.624	0.0159490
799.703	0.0159600
799.781	0.0158569
799.859	0.0158569
799.937	0.0157240
800.015	0.0156888
800.093	0.0157844
800.171	0.0157478
800.249	0.0157612
800.328	0.0155041
800.406	0.0155600
800.484	0.0155962
800.562	0.0156419
800.640	0.0156405
800.718	0.0156570
800.796	0.0156480
800.874	0.0156998
800.953	0.0155826
801.031	0.0157158
801.109	0.0157823
801.187	0.0156022
801.265	0.0159170
801.343	0.0160056
801.421	0.0160501
801.499	0.0161270
801.578	0.0161951
801.656	0.0160444
801.734	0.0161068
801.812	0.0162215
801.890	0.0161942
801.968	0.0161285
802.046	0.0161916
802.124	0.0161739
802.203	0.0161443
802.281	0.0161769
802.359	0.0163287
802.437	0.0163557
802.515	0.0160393
802.593	0.0161351
802.671	0.0162492
802.749	0.0161041
802.828	0.0159470
802.906	0.0158948
802.984	0.0159288
803.062	0.0159918
803.140	0.0158853
803.218	0.0158730
803.296	0.0158801
803.374	0.0158607
803.453	0.0158398
803.531	0.0156203
803.609	0.0159095
803.687	0.0159207
803.765	0.0157964
803.843	0.0158365
803.921	0.0159258
803.999	0.0157948
804.078	0.0157616
804.156	0.0159370
804.234	0.0158118
804.312	0.0158002
804.390	0.0158739
804.468	0.0157942
804.546	0.0157755
804.624	0.0159318
804.703	0.0157927
804.781	0.0157188
804.859	0.0158150
804.937	0.0157773
805.015	0.0158044
805.093	0.0158201
805.171	0.0157333
805.249	0.0157684
805.328	0.0156712
805.406	0.0156273
805.484	0.0156854
805.562	0.0156590
805.640	0.0156870
805.718	0.0157427
805.796	0.0158716
805.874	0.0158096
805.953	0.0157796
806.031	0.0158354
806.109	0.0158561
806.187	0.0159984
806.265	0.0161607
806.343	0.0161338
806.421	0.0160313
806.499	0.0160411
806.578	0.0162193
806.656	0.0161296
806.734	0.0161918
806.812	0.0160496
806.890	0.0162161
806.968	0.0162617
807.046	0.0162600
807.124	0.0161830
807.203	0.0161692
807.281	0.0162132
807.359	0.0161295
807.437	0.0162898
807.515	0.0161319
807.593	0.0162461
807.671	0.0160246
807.749	0.0158961
807.828	0.0160633
807.906	0.0160527
807.984	0.0158344
808.062	0.0160020
808.140	0.0159384
808.218	0.0158564
808.296	0.0158418
808.374	0.0158254
808.453	0.0158102
808.531	0.0157342
808.609	0.0158378
808.687	0.0157451
808.765	0.0157420
808.843	0.0156766
808.921	0.0157596
808.999	0.0157782
809.078	0.0157836
809.156	0.0156859
809.234	0.0156386
809.312	0.0157272
809.390	0.0156866
809.468	0.0157983
809.546	0.0157875
809.624	0.0157182
809.703	0.0155698
809.781	0.0156428
809.859	0.0159093
809.937	0.0157320
810.015	0.0158067
810.093	0.0157976
810.171	0.0158244
810.249	0.0158401
810.328	0.0159049
810.406	0.0159760
810.484	0.0158749
810.562	0.0160903
810.640	0.0161235
810.718	0.0160974
810.796	0.0160600
810.874	0.0162189
810.953	0.0161787
811.031	0.0161944
811.109	0.0162073
811.187	0.0163034
811.265	0.0162193
811.343	0.0160960
811.421	0.0161589
811.499	0.0163248
811.578	0.0162740
811.656	0.0160690
811.734	0.0160138
811.812	0.0160549
811.890	0.0160726
811.968	0.0158777
812.046	0.0158170
812.124	0.0159349
812.203	0.0159731
812.281	0.0159089
812.359	0.0157871
812.437	0.0157496
812.515	0.0156245
812.593	0.0157432
812.671	0.0159271
812.749	0.0157690
812.828	0.0159297
812.906	0.0157320
812.984	0.0157252
813.062	0.0159662
813.140	0.0159216
813.218	0.0159209
813.296	0.0159292
813.374	0.0160394
813.453	0.0160075
813.531	0.0159508
813.609	0.0161816
813.687	0.0162381
813.765	0.0160766
813.843	0.0161551
813.921	0.0161919
813.999	0.0160688
814.078	0.0161665
814.156	0.0162330
814.234	0.0161549
814.312	0.0161662
814.390	0.0162276
814.468	0.0161501
814.546	0.0160923
814.624	0.0161085
814.703	0.0160797
814.781	0.0160039
814.859	0.0160191
814.937	0.0159785
815.015	0.0157560
815.093	0.0157558
815.171	0.0157557
815.249	0.0158014
815.328	0.0157460
815.406	0.0156266
815.484	0.0155835
815.562	0.0155051
815.640	0.0155244
815.718	0.0155447
815.796	0.0156087
815.874	0.0154405
815.953	0.0156242
816.031	0.0154768
816.109	0.0155083
816.187	0.0154726
816.265	0.0156636
816.343	0.0157572
816.421	0.0156558
816.499	0.0157833
816.578	0.0157494
816.656	0.0158325
816.734	0.0157931
816.812	0.0157716
816.890	0.0159689
816.968	0.0160279
817.046	0.0160432
817.124	0.0162154
817.203	0.0161536
817.281	0.0161003
817.359	0.0162677
817.437	0.0161682
817.515	0.0161082
817.593	0.0160075
817.671	0.0160794
817.749	0.0159963
817.828	0.0159810
817.906	0.0159848
817.984	0.0158145
818.062	0.0158982
818.140	0.0159396
818.218	0.0158115
818.296	0.0157758
818.374	0.0157719
818.453	0.0159566
818.531	0.0158355
818.609	0.0158540
818.687	0.0158756
818.765	0.0158192
818.843	0.0158519
818.921	0.0158652
818.999	0.0157973
819.078	0.0159001
819.156	0.0158641
819.234	0.0159563
819.312	0.0160782
819.390	0.0159733
819.468	0.0159974
819.546	0.0160571
819.624	0.0159294
819.703	0.0159494
819.781	0.0159846
819.859	0.0160051
819.937	0.0160204
820.015	0.0160209
820.093	0.0158634
820.171	0.0159013
820.249	0.0159628
820.328	0.0158104
820.406	0.0157031
820.484	0.0157187
820.562	0.0157604
820.640	0.0157134
820.718	0.0156841
820.796	0.0157725
820.874	0.0156150
820.953	0.0156501
821.031	0.0156149
821.109	0.0157362
821.187	0.0155283
821.265	0.0155910
821.343	0.0157410
821.421	0.0156998
821.499	0.0157333
821.578	0.0157438
821.656	0.0157360
821.734	0.0158607
821.812	0.0157112
821.890	0.0158289
821.968	0.0158611
822.046	0.0156339
822.124	0.0156944
822.203	0.0158846
822.281	0.0159193
822.359	0.0158378
822.437	0.0159796
822.515	0.0158630
822.593	0.0159707
822.671	0.0159821
822.749	0.0160522
822.828	0.0160846
822.906	0.0161096
822.984	0.0160070
823.062	0.0161314
823.140	0.0160831
823.218	0.0161548
823.296	0.0161019
823.374	0.0161264
823.453	0.0160365
823.531	0.0160381
823.609	0.0159528
823.687	0.0158666
823.765	0.0160306
823.843	0.0159232
823.921	0.0159710
823.999	0.0159001
824.078	0.0158771
824.156	0.0159764
824.234	0.0158649
824.312	0.0158993
824.390	0.0158401
824.468	0.0157330
824.546	0.0157246
824.624	0.0157370
824.703	0.0157710
824.781	0.0157381
824.859	0.0157892
824.937	0.0157999
825.015	0.0158275
825.093	0.0159063
825.171	0.0161046
825.249	0.0160934
825.328	0.0160409
825.406	0.0161970
825.484	0.0162172
825.562	0.0160364
825.640	0.0161460
825.718	0.0161900
825.796	0.0161301
825.874	0.0160437
825.953	0.0162527
826.031	0.0161196
826.109	0.0159930
826.187	0.0159904
826.265	0.0160493
826.343	0.0159790
826.421	0.0160426
826.499	0.0160082
826.578	0.0160043
826.656	0.0158665
826.734	0.0158155
826.812	0.0158326
826.890	0.0158894
826.968	0.0158224
827.046	0.0158180
827.124	0.0157598
827.203	0.0157265
827.281	0.0156335
827.359	0.0156115
827.437	0.0154711
827.515	0.0155144
827.593	0.0156832
827.671	0.0155395
827.749	0.0155343
827.828	0.0155189
827.906	0.0155363
827.984	0.0154547
828.062	0.0155812
828.140	0.0156593
828.218	0.0156770
828.296	0.0157633
828.374	0.0157965
828.453	0.0157499
828.531	0.0158645
828.609	0.0159721
828.687	0.0159372
828.765	0.0160219
828.843	0.0161720
828.921	0.0161135
828.999	0.0161468
829.078	0.0162006
829.156	0.0162174
829.234	0.0161401
829.312	0.0162278
829.390	0.0161644
829.468	0.0162595
829.546	0.0161623
829.624	0.0162102
829.703	0.0162500
829.781	0.0162251
829.859	0.0162019
829.937	0.0162155
830.015	0.0161481
830.093	0.0161172
830.171	0.0160683
830.249	0.0161461
830.328	0.0159599
830.406	0.0160564
830.484	0.0160351
830.562	0.0158175
830.640	0.0159442
830.718	0.0158803
830.796	0.0158122
830.874	0.0157829
830.953	0.0156918
831.031	0.0154991
831.109	0.0155690
831.187	0.0155081
831.265	0.0154752
831.343	0.0155933
831.421	0.0155025
831.499	0.0153550
831.578	0.0153979
831.656	0.0154063
831.734	0.0154904
831.812	0.0156560
831.890	0.0154528
831.968	0.0155662
832.046	0.0157220
832.124	0.0156776
832.203	0.0157613
832.281	0.0159218
832.359	0.0158495
832.437	0.0158706
832.515	0.0160893
832.593	0.0161526
832.671	0.0160898
832.749	0.0160555
832.828	0.0163502
832.906	0.0165171
832.984	0.0163807
833.062	0.0163235
833.140	0.0165076
833.218	0.0165402
833.296	0.0164205
833.374	0.0163441
833.453	0.0163187
833.531	0.0163587
833.609	0.0163087
833.687	0.0162305
833.765	0.0162448
833.843	0.0161485
833.921	0.0160144
833.999	0.0159609
834.078	0.0158949
834.156	0.0157533
834.234	0.0157640
834.312	0.0157298
834.390	0.0155888
834.468	0.0153635
834.546	0.0154286
834.624	0.0154978
834.703	0.0154243
834.781	0.0152241
834.859	0.0153053
834.937	0.0152769
835.015	0.0154353
835.093	0.0152855
835.171	0.0153709
835.249	0.0154678
835.328	0.0155212
835.406	0.0155923
835.484	0.0156484
835.562	0.0156956
835.640	0.0156884
835.718	0.0158447
835.796	0.0159453
835.874	0.0160378
835.953	0.0161047
836.031	0.0161866
836.109	0.0162767
836.187	0.0163728
836.265	0.0161070
836.343	0.0161636
836.421	0.0163077
836.499	0.0162396
836.578	0.0161580
836.656	0.0162344
836.734	0.0161301
836.812	0.0161462
836.890	0.0162138
836.968	0.0161688
837.046	0.0160165
837.124	0.0160908
837.203	0.0158998
837.281	0.0160193
837.359	0.0160384
837.437	0.0159412
837.515	0.0159549
837.593	0.0158855
837.671	0.0160342
837.749	0.0159431
837.828	0.0159986
837.906	0.0159243
837.984	0.0160976
838.062	0.0161697
838.140	0.0160319
838.218	0.0161037
838.296	0.0160845
838.374	0.0159917
838.453	0.0159174
838.531	0.0158958
838.609	0.0160004
838.687	0.0159528
838.765	0.0159504
838.843	0.0158377
838.921	0.0158536
838.999	0.0157761
839.078	0.0155814
839.156	0.0156904
839.234	0.0156405
839.312	0.0155848
839.390	0.0155547
839.468	0.0155151
839.546	0.0154414
839.624	0.0154298
839.703	0.0153442
839.781	0.0152809
839.859	0.0153299
839.937	0.0154037
840.015	0.0154422
840.093	0.0155177
840.171	0.0153105
840.249	0.0155204
840.328	0.0154419
840.406	0.0155858
840.484	0.0154442
840.562	0.0155504
840.640	0.0156355
840.718	0.0156158
840.796	0.0158611
840.874	0.0158644
840.953	0.0157038
841.031	0.0158440
841.109	0.0159840
841.187	0.0160280
841.265	0.0161808
841.343	0.0160375
841.421	0.0162595
841.499	0.0162590
841.578	0.0162423
841.656	0.0162962
841.734	0.0163435
841.812	0.0164396
841.890	0.0164909
841.968	0.0165092
842.046	0.0164973
842.124	0.0164533
842.203	0.0163277
842.281	0.0163998
842.359	0.0164657
842.437	0.0162885
842.515	0.0161782
842.593	0.0160678
842.671	0.0158806
842.749	0.0160116
842.828	0.0159392
842.906	0.0158803
842.984	0.0157784
843.062	0.0157425
843.140	0.0156702
843.218	0.0155154
843.296	0.0154083
843.374	0.0154028
843.453	0.0154701
843.531	0.0155721
843.609	0.0153899
843.687	0.0154778
843.765	0.0154076
843.843	0.0153126
843.921	0.0153265
843.999	0.0154224
844.078	0.0154159
844.156	0.0155547
844.234	0.0154863
844.312	0.0154065
844.390	0.0155071
844.468	0.0154652
844.546	0.0155237
844.624	0.0154940
844.703	0.0156033
844.781	0.0155785
844.859	0.0156254
844.937	0.0155658
845.015	0.0155593
845.093	0.0158491
845.171	0.0158088
845.249	0.0159609
845.328	0.0159032
845.406	0.0160900
845.484	0.0159398
845.562	0.0161285
845.640	0.0160880
845.718	0.0161441
845.796	0.0160515
845.874	0.0161412
845.953	0.0162663
846.031	0.0161415
846.109	0.0160078
846.187	0.0160613
846.265	0.0161693
846.343	0.0160922
846.421	0.0161026
846.499	0.0160682
846.578	0.0160241
846.656	0.0159836
846.734	0.0159667
846.812	0.0159591
846.890	0.0158395
846.968	0.0157581
847.046	0.0158092
847.124	0.0158584
847.203	0.0158545
847.281	0.0158216
847.359	0.0158600
847.437	0.0159329
847.515	0.0160001
847.593	0.0156365
847.671	0.0157388
847.749	0.0158826
847.828	0.0157414
847.906	0.0157690
847.984	0.0157791
848.062	0.0157830
848.140	0.0157722
848.218	0.0157198
848.296	0.0158678
848.374	0.0158009
848.453	0.0159216
848.531	0.0157661
848.609	0.0156498
848.687	0.0158118
848.765	0.0158808
848.843	0.0158544
848.921	0.0157764
848.999	0.0158213
849.078	0.0158398
849.156	0.0159283
849.234	0.0159298
849.312	0.0158079
849.390	0.0157197
849.468	0.0159587
849.546	0.0159969
849.624	0.0158772
849.703	0.0158325
849.781	0.0159344
849.859	0.0160801
849.937	0.0158497
850.015	0.0158971
850.093	0.0160248
850.171	0.0159386
850.249	0.0159994
850.328	0.0158884
850.406	0.0158202
850.484	0.0159436
850.562	0.0160096
850.640	0.0160110
850.718	0.0159114
850.796	0.0159185
850.874	0.0160117
850.953	0.0159706
851.031	0.0158051
851.109	0.0160195
851.187	0.0159344
851.265	0.0159034
851.343	0.0160009
851.421	0.0159320
851.499	0.0159053
851.578	0.0159354
851.656	0.0158717
851.734	0.0158858
851.812	0.0158363
851.890	0.0158147
851.968	0.0158318
852.046	0.0157646
852.124	0.0157208
852.203	0.0156199
852.281	0.0157441
852.359	0.0157469
852.437	0.0157809
852.515	0.0156766
852.593	0.0155746
852.671	0.0155463
852.749	0.0157748
852.828	0.0156925
852.906	0.0157452
852.984	0.0157133
853.062	0.0157220
853.140	0.0158390
853.218	0.0157948
853.296	0.0158154
853.374	0.0159010
853.453	0.0158392
853.531	0.0159692
853.609	0.0161746
853.687	0.0159203
853.765	0.0161182
853.843	0.0160664
853.921	0.0159633
853.999	0.0160594
854.078	0.0159585
854.156	0.0160417
854.234	0.0159685
854.312	0.0157020
854.390	0.0159946
854.468	0.0158731
854.546	0.0158220
854.624	0.0157228
854.703	0.0156710
854.781	0.0159064
854.859	0.0158135
854.937	0.0157638
855.015	0.0158743
855.093	0.0157308
855.171	0.0157598
855.249	0.0158234
855.328	0.0156819
855.406	0.0156728
855.484	0.0158445
855.562	0.0157951
855.640	0.0157729
855.718	0.0159348
855.796	0.0159555
855.874	0.0159699
855.953	0.0158582
856.031	0.0159840
856.109	0.0161473
856.187	0.0160841
856.265	0.0160021
856.343	0.0160362
856.421	0.0160383
856.499	0.0159235
856.578	0.0161442
856.656	0.0161311
856.734	0.0161317
856.812	0.0159968
856.890	0.0159335
856.968	0.0159866
857.046	0.0161259
857.124	0.0159801
857.203	0.0158834
857.281	0.0160357
857.359	0.0158548
857.437	0.0160014
857.515	0.0158134
857.593	0.0157762
857.671	0.0158322
857.749	0.0157603
857.828	0.0158369
857.906	0.0157939
857.984	0.0158275
858.062	0.0156305
858.140	0.0157945
858.218	0.0158386
858.296	0.0158777
858.374	0.0158105
858.453	0.0156768
858.531	0.0157499
858.609	0.0158579
858.687	0.0158788
858.765	0.0157947
858.843	0.0157065
858.921	0.0159185
858.999	0.0158753
859.078	0.0158129
859.156	0.0158075
859.234	0.0158698
859.312	0.0159482
859.390	0.0159361
859.468	0.0159435
859.546	0.0159106
859.624	0.0158798
859.703	0.0159059
859.781	0.0159933
859.859	0.0161191
859.937	0.0159128
860.015	0.0160181
860.093	0.0159798
860.171	0.0160759
860.249	0.0160516
860.328	0.0160601
860.406	0.0159786
860.484	0.0158839
860.562	0.0158494
860.640	0.0158288
860.718	0.0159180
860.796	0.0159657
860.874	0.0158936
860.953	0.0158208
861.031	0.0158761
861.109	0.0158289
861.187	0.0158841
861.265	0.0158129
861.343	0.0159315
861.421	0.0156394
861.499	0.0156268
861.578	0.0156166
861.656	0.0156975
861.734	0.0157925
861.812	0.0158518
861.890	0.0157690
861.968	0.0157475
862.046	0.0157905
862.124	0.0158239
862.203	0.0157332
862.281	0.0158818
862.359	0.0157446
862.437	0.0157941
862.515	0.0157102
862.593	0.0158723
862.671	0.0157574
862.749	0.0158178
862.828	0.0158350
862.906	0.0157685
862.984	0.0158018
863.062	0.0157655
863.140	0.0158882
863.218	0.0157867
863.296	0.0158599
863.374	0.0157796
863.453	0.0157753
863.531	0.0156914
863.609	0.0157896
863.687	0.0158462
863.765	0.0157526
863.843	0.0158149
863.921	0.0157935
863.999	0.0156413
864.078	0.0158900
864.156	0.0157150
864.234	0.0156477
864.312	0.0157651
864.390	0.0158477
864.468	0.0157626
864.546	0.0158810
864.624	0.0158680
864.703	0.0157647
864.781	0.0158297
864.859	0.0158890
864.937	0.0159116
865.015	0.0158286
865.093	0.0159140
865.171	0.0159902
865.249	0.0158939
865.328	0.0159734
865.406	0.0160656
865.484	0.0160067
865.562	0.0161398
865.640	0.0160265
865.718	0.0159451
865.796	0.0160954
865.874	0.0161256
865.953	0.0160139
866.031	0.0160094
866.109	0.0159225
866.187	0.0158643
866.265	0.0158531
866.343	0.0160159
866.421	0.0158529
866.499	0.0159440
866.578	0.0158884
866.656	0.0158059
866.734	0.0159500
866.812	0.0158067
866.890	0.0157788
866.968	0.0159181
867.046	0.0159235
867.124	0.0158631
867.203	0.0158030
867.281	0.0157829
867.359	0.0158542
867.437	0.0158680
867.515	0.0158830
867.593	0.0156886
867.671	0.0159021
867.749	0.0158298
867.828	0.0158613
867.906	0.0158214
867.984	0.0157997
868.062	0.0158928
868.140	0.0159131
868.218	0.0159108
868.296	0.0159899
868.374	0.0158970
868.453	0.0158930
868.531	0.0159895
868.609	0.0160302
868.687	0.0160383
868.765	0.0159357
868.843	0.0160161
868.921	0.0158820
868.999	0.0159378
869.078	0.0160735
869.156	0.0159803
869.234	0.0160102
869.312	0.0160239
869.390	0.0160833
869.468	0.0160195
869.546	0.0157662
869.624	0.0159203
869.703	0.0158577
869.781	0.0157561
869.859	0.0157516
869.937	0.0158829
870.015	0.0157724
870.093	0.0157898
870.171	0.0157426
870.249	0.0158128
870.328	0.0158151
870.406	0.0157618
870.484	0.0157981
870.562	0.0158565
870.640	0.0159156
870.718	0.0158129
870.796	0.0158628
870.874	0.0159798
870.953	0.0158024
871.031	0.0160596
871.109	0.0159278
871.187	0.0158982
871.265	0.0160065
871.343	0.0159279
871.421	0.0160338
871.499	0.0160542
871.578	0.0159865
871.656	0.0158971
871.734	0.0159542
871.812	0.0159782
871.890	0.0159715
871.968	0.0159893
872.046	0.0158840
872.124	0.0159525
872.203	0.0159875
872.281	0.0160075
872.359	0.0158826
872.437	0.0159091
872.515	0.0159257
872.593	0.0159364
872.671	0.0159946
872.749	0.0158602
872.828	0.0158904
872.906	0.0158670
872.984	0.0159085
873.062	0.0160417
873.140	0.0160168
873.218	0.0159236
873.296	0.0159483
873.374	0.0159167
873.453	0.0159539
873.531	0.0158778
873.609	0.0159036
873.687	0.0159846
873.765	0.0160050
873.843	0.0159045
873.921	0.0159730
873.999	0.0159120
874.078	0.0158324
874.156	0.0158987
874.234	0.0158500
874.312	0.0158762
874.390	0.0158817
874.468	0.0159457
874.546	0.0158143
874.624	0.0158056
874.703	0.0158950
874.781	0.0158031
874.859	0.0158446
874.937	0.0158629
875.015	0.0158264
875.093	0.0157207
875.171	0.0157341
875.249	0.0158149
875.328	0.0158976
875.406	0.0158449
875.484	0.0158579
875.562	0.0159576
875.640	0.0158610
875.718	0.0158503
875.796	0.0159241
875.874	0.0158929
875.953	0.0158796
876.031	0.0159645
876.109	0.0160031
876.187	0.0158696
876.265	0.0159973
876.343	0.0160384
876.421	0.0160496
876.499	0.0161419
876.578	0.0160699
876.656	0.0161581
876.734	0.0160811
876.812	0.0160740
876.890	0.0162172
876.968	0.0160020
877.046	0.0160138
877.124	0.0160610
877.203	0.0159766
877.281	0.0160386
877.359	0.0160309
877.437	0.0159153
877.515	0.0160936
877.593	0.0159386
877.671	0.0159102
877.749	0.0159568
877.828	0.0158954
877.906	0.0158384
877.984	0.0159264
878.062	0.0159477
878.140	0.0159183
878.218	0.0157629
878.296	0.0157684
878.374	0.0157906
878.453	0.0158292
878.531	0.0158215
878.609	0.0157841
878.687	0.0159543
878.765	0.0159240
878.843	0.0159972
878.921	0.0158717
878.999	0.0159505
879.078	0.0159721
879.156	0.0160394
879.234	0.0160248
879.312	0.0160787
879.390	0.0159340
879.468	0.0159750
879.546	0.0160017
879.624	0.0160663
879.703	0.0159309
879.781	0.0160171
879.859	0.0159698
879.937	0.0159204
880.015	0.0159586
880.093	0.0158585
880.171	0.0159208
880.249	0.0158373
880.328	0.0158143
880.406	0.0157603
880.484	0.0159119
880.562	0.0157858
880.640	0.0158658
880.718	0.0158450
880.796	0.0158617
880.874	0.0157813
880.953	0.0157613
881.031	0.0158566
881.109	0.0157394
881.187	0.0156257
881.265	0.0158558
881.343	0.0157626
881.421	0.0157301
881.499	0.0157679
881.578	0.0158809
881.656	0.0157977
881.734	0.0159395
881.812	0.0158374
881.890	0.0158419
881.968	0.0159225
882.046	0.0158821
882.124	0.0159245
882.203	0.0158798
882.281	0.0157182
882.359	0.0159199
882.437	0.0159803
882.515	0.0161478
882.593	0.0162590
882.671	0.0159792
882.749	0.0160002
882.828	0.0159914
882.906	0.0158611
882.984	0.0160310
883.062	0.0160110
883.140	0.0158782
883.218	0.0159932
883.296	0.0160170
883.374	0.0158900
883.453	0.0157973
883.531	0.0160012
883.609	0.0157849
883.687	0.0159104
883.765	0.0158647
883.843	0.0157136
883.921	0.0158189
883.999	0.0158459
884.078	0.0159192
884.156	0.0159227
884.234	0.0157516
884.312	0.0158780
884.390	0.0159554
884.468	0.0159831
884.546	0.0159492
884.624	0.0158231
884.703	0.0159267
884.781	0.0158377
884.859	0.0159664
884.937	0.0159637
885.015	0.0158206
885.093	0.0159425
885.171	0.0158064
885.249	0.0158486
885.328	0.0158240
885.406	0.0157594
885.484	0.0158398
885.562	0.0157915
885.640	0.0158692
885.718	0.0157317
885.796	0.0158297
885.874	0.0158553
885.953	0.0159032
886.031	0.0157217
886.109	0.0157026
886.187	0.0158838
886.265	0.0158173
886.343	0.0159138
886.421	0.0158381
886.499	0.0158009
886.578	0.0158976
886.656	0.0157999
886.734	0.0158736
886.812	0.0158138
886.890	0.0160309
886.968	0.0159719
887.046	0.0160134
887.124	0.0159547
887.203	0.0158522
887.281	0.0160472
887.359	0.0159428
887.437	0.0158294
887.515	0.0160603
887.593	0.0161147
887.671	0.0161922
887.749	0.0162066
887.828	0.0161900
887.906	0.0163115
887.984	0.0162095
888.062	0.0162262
888.140	0.0162000
888.218	0.0162576
888.296	0.0161010
888.374	0.0160745
888.453	0.0159641
888.531	0.0161401
888.609	0.0160370
888.687	0.0160506
888.765	0.0159904
888.843	0.0159154
888.921	0.0159017
888.999	0.0158315
889.078	0.0159229
889.156	0.0159533
889.234	0.0158898
889.312	0.0158448
889.390	0.0158929
889.468	0.0159094
889.546	0.0159985
889.624	0.0158795
889.703	0.0157623
889.781	0.0158012
889.859	0.0158232
889.937	0.0158696
890.015	0.0158357
890.093	0.0158538
890.171	0.0158715
890.249	0.0158874
890.328	0.0158248
890.406	0.0157780
890.484	0.0159077
890.562	0.0159229
890.640	0.0159193
890.718	0.0159089
890.796	0.0159806
890.874	0.0158337
890.953	0.0159503
891.031	0.0159177
891.109	0.0158895
891.187	0.0160239
891.265	0.0160391
891.343	0.0160373
891.421	0.0161154
891.499	0.0161015
891.578	0.0160424
891.656	0.0159833
891.734	0.0161382
891.812	0.0160272
891.890	0.0159862
891.968	0.0160204
892.046	0.0159573
892.124	0.0159457
892.203	0.0160850
892.281	0.0159398
892.359	0.0160730
892.437	0.0160117
892.515	0.0159715
892.593	0.0160105
892.671	0.0160030
892.749	0.0159582
892.828	0.0159591
892.906	0.0160823
892.984	0.0160734
893.062	0.0158789
893.140	0.0158806
893.218	0.0160185
893.296	0.0160020
893.374	0.0159715
893.453	0.0159375
893.531	0.0157346
893.609	0.0159943
893.687	0.0159727
893.765	0.0158897
893.843	0.0160085
893.921	0.0159977
893.999	0.0160621
894.078	0.0160004
894.156	0.0158448
894.234	0.0159175
894.312	0.0158643
894.390	0.0158704
894.468	0.0157800
894.546	0.0158650
894.624	0.0158685
894.703	0.0159123
894.781	0.0159993
894.859	0.0159050
894.937	0.0159112
895.015	0.0158524
895.093	0.0159800
895.171	0.0159054
895.249	0.0156284
895.328	0.0159506
895.406	0.0158571
895.484	0.0159311
895.562	0.0159315
895.640	0.0159474
895.718	0.0160148
895.796	0.0160155
895.874	0.0160137
895.953	0.0159580
896.031	0.0159430
896.109	0.0158659
896.187	0.0159753
896.265	0.0160106
896.343	0.0158562
896.421	0.0159377
896.499	0.0158369
896.578	0.0159534
896.656	0.0159185
896.734	0.0158968
896.812	0.0159114
896.890	0.0160220
896.968	0.0158342
897.046	0.0159380
897.124	0.0160062
897.203	0.0158760
897.281	0.0158411
897.359	0.0159353
897.437	0.0158784
897.515	0.0158523
897.593	0.0158968
897.671	0.0159087
897.749	0.0158118
897.828	0.0158758
897.906	0.0158727
897.984	0.0159055
898.062	0.0160062
898.140	0.0159283
898.218	0.0159674
898.296	0.0159377
898.374	0.0159465
898.453	0.0159295
898.531	0.0159381
898.609	0.0161034
898.687	0.0160359
898.765	0.0160699
898.843	0.0159687
898.921	0.0159551
898.999	0.0159741
899.078	0.0158302
899.156	0.0158977
899.234	0.0160235
899.312	0.0160172
899.390	0.0158987
899.468	0.0158496
899.546	0.0158791
899.624	0.0159258
899.703	0.0158794
899.781	0.0160244
899.859	0.0158950
899.937	0.0158545
900.015	0.0159644
900.093	0.0157937
900.171	0.0157764
900.249	0.0159249
900.328	0.0158913
900.406	0.0157310
900.484	0.0157870
900.562	0.0157621
900.640	0.0158624
900.718	0.0159424
900.796	0.0158498
900.874	0.0157764
900.953	0.0157561
901.031	0.0157587
901.109	0.0157098
901.187	0.0158197
901.265	0.0158545
901.343	0.0156737
901.421	0.0157201
901.499	0.0157071
901.578	0.0158263
901.656	0.0158383
901.734	0.0157077
901.812	0.0155952
901.890	0.0156844
901.968	0.0157552
902.046	0.0158754
902.124	0.0157660
902.203	0.0157172
902.281	0.0158746
902.359	0.0158202
902.437	0.0158771
902.515	0.0158310
902.593	0.0159714
902.671	0.0160118
902.749	0.0159373
902.828	0.0160259
902.906	0.0159193
902.984	0.0159606
903.062	0.0161280
903.140	0.0160159
903.218	0.0160725
903.296	0.0161397
903.374	0.0162322
903.453	0.0160307
903.531	0.0160596
903.609	0.0159737
903.687	0.0160712
903.765	0.0159743
903.843	0.0160860
903.921	0.0159081
903.999	0.0160870
904.078	0.0157968
904.156	0.0159348
904.234	0.0159312
904.312	0.0159775
904.390	0.0158250
904.468	0.0158916
904.546	0.0158337
904.624	0.0159632
904.703	0.0158887
904.781	0.0158764
904.859	0.0158198
904.937	0.0158416
905.015	0.0159088
905.093	0.0159680
905.171	0.0158418
905.249	0.0157726
905.328	0.0157631
905.406	0.0157167
905.484	0.0158611
905.562	0.0158910
905.640	0.0158412
905.718	0.0158829
905.796	0.0157579
905.874	0.0157768
905.953	0.0157714
906.031	0.0157733
906.109	0.0158626
906.187	0.0158488
906.265	0.0159373
906.343	0.0158207
906.421	0.0156236
906.499	0.0158392
906.578	0.0158322
906.656	0.0157829
906.734	0.0157236
906.812	0.0158073
906.890	0.0157155
906.968	0.0159075
907.046	0.0157561
907.124	0.0157265
907.203	0.0157758
907.281	0.0157452
907.359	0.0159451
907.437	0.0158031
907.515	0.0157834
907.593	0.0156677
907.671	0.0157964
907.749	0.0158762
907.828	0.0158332
907.906	0.0158604
907.984	0.0158909
908.062	0.0158531
908.140	0.0159013
908.218	0.0160481
908.296	0.0158517
908.374	0.0159692
908.453	0.0160461
908.531	0.0160925
908.609	0.0159225
908.687	0.0159450
908.765	0.0158875
908.843	0.0159731
908.921	0.0159412
908.999	0.0160278
909.078	0.0160368
909.156	0.0159802
909.234	0.0159564
909.312	0.0159877
909.390	0.0160513
909.468	0.0159293
909.546	0.0160110
909.624	0.0158786
909.703	0.0160384
909.781	0.0160610
909.859	0.0158713
909.937	0.0160683
910.015	0.0159970
910.093	0.0159554
910.171	0.0161382
910.249	0.0160175
910.328	0.0160026
910.406	0.0160303
910.484	0.0160740
910.562	0.0159087
910.640	0.0159620
910.718	0.0162122
910.796	0.0158103
910.874	0.0159513
910.953	0.0161897
911.031	0.0160096
911.109	0.0159904
911.187	0.0159384
911.265	0.0160297
911.343	0.0160238
911.421	0.0159507
911.499	0.0158883
911.578	0.0159284
911.656	0.0159849
911.734	0.0158817
911.812	0.0158282
911.890	0.0158324
911.968	0.0159506
912.046	0.0158831
912.124	0.0158881
912.203	0.0158805
912.281	0.0158858
912.359	0.0158311
912.437	0.0159279
912.515	0.0158357
912.593	0.0159270
912.671	0.0159519
912.749	0.0158148
912.828	0.0156831
912.906	0.0158969
912.984	0.0159800
913.062	0.0160024
913.140	0.0159099
913.218	0.0159447
913.296	0.0159949
913.374	0.0161458
913.453	0.0160021
913.531	0.0159692
913.609	0.0159572
913.687	0.0159513
913.765	0.0159245
913.843	0.0158958
913.921	0.0159312
913.999	0.0160618
914.078	0.0159960
914.156	0.0160828
914.234	0.0160165
914.312	0.0160428
914.390	0.0159969
914.468	0.0159173
914.546	0.0157993
914.624	0.0160358
914.703	0.0159083
914.781	0.0160214
914.859	0.0160445
914.937	0.0160226
915.015	0.0160207
915.093	0.0159755
915.171	0.0160320
915.249	0.0159706
915.328	0.0161081
915.406	0.0162524
915.484	0.0160082
915.562	0.0159838
915.640	0.0160223
915.718	0.0159212
915.796	0.0160704
915.874	0.0159868
915.953	0.0158493
916.031	0.0160591
916.109	0.0159414
916.187	0.0159151
916.265	0.0158788
916.343	0.0159378
916.421	0.0158872
916.499	0.0157397
916.578	0.0159883
916.656	0.0157328
916.734	0.0158379
916.812	0.0158823
916.890	0.0157331
916.968	0.0157850
917.046	0.0158208
917.124	0.0158118
917.203	0.0158606
917.281	0.0156638
917.359	0.0157617
917.437	0.0157944
917.515	0.0157857
917.593	0.0157598
917.671	0.0157948
917.749	0.0158150
917.828	0.0158048
917.906	0.0158673
917.984	0.0158169
918.062	0.0157311
918.140	0.0159753
918.218	0.0157802
918.296	0.0159312
918.374	0.0158109
918.453	0.0159331
918.531	0.0159906
918.609	0.0158022
918.687	0.0159386
918.765	0.0160250
918.843	0.0159548
918.921	0.0160955
918.999	0.0158469
919.078	0.0159980
919.156	0.0160970
919.234	0.0159227
919.312	0.0160822
919.390	0.0160755
919.468	0.0160166
919.546	0.0160160
919.624	0.0160976
919.703	0.0159382
919.781	0.0159813
919.859	0.0160366
919.937	0.0159540
