06/10/2022	16:43:28	Ver.	4.1	UNKNOWN
Optical Delay	600.015094	Delta X		0.078125	Sweeps	1	Scan Rate	0/0
Coordinates	Axis 1	NaN	Axis 2	NaN	Axis 3	NaN	Axis 4	NaN	Axis 5	NaN	Axis 6	0.000000
TX Power	0.000000	RX Power	0.000000

600.015	0.0163107
600.093	0.0163303
600.171	0.0163914
600.249	0.0162727
600.328	0.0160603
600.406	0.0163103
600.484	0.0163564
600.562	0.0162997
600.640	0.0163036
600.718	0.0162671
600.796	0.0164677
600.874	0.0164004
600.953	0.0162388
601.031	0.0162957
601.109	0.0163481
601.187	0.0163063
601.265	0.0163531
601.343	0.0162012
601.421	0.0163503
601.499	0.0163887
601.578	0.0162070
601.656	0.0163522
601.734	0.0162574
601.812	0.0163206
601.890	0.0162985
601.968	0.0162943
602.046	0.0162570
602.124	0.0163940
602.203	0.0164057
602.281	0.0163483
602.359	0.0162531
602.437	0.0164126
602.515	0.0162645
602.593	0.0164984
602.671	0.0162890
602.749	0.0164124
602.828	0.0163038
602.906	0.0164310
602.984	0.0163666
603.062	0.0163989
603.140	0.0163290
603.218	0.0164817
603.296	0.0163702
603.374	0.0164133
603.453	0.0163184
603.531	0.0164162
603.609	0.0164085
603.687	0.0163627
603.765	0.0162565
603.843	0.0162590
603.921	0.0163093
603.999	0.0163305
604.078	0.0163000
604.156	0.0162753
604.234	0.0163316
604.312	0.0164300
604.390	0.0162511
604.468	0.0163880
604.546	0.0163056
604.624	0.0163811
604.703	0.0162459
604.781	0.0163899
604.859	0.0162852
604.937	0.0162193
605.015	0.0162799
605.093	0.0163203
605.171	0.0162759
605.249	0.0162798
605.328	0.0163446
605.406	0.0162992
605.484	0.0162431
605.562	0.0163180
605.640	0.0163539
605.718	0.0162151
605.796	0.0163052
605.874	0.0162855
605.953	0.0163406
606.031	0.0163087
606.109	0.0162163
606.187	0.0162257
606.265	0.0162851
606.343	0.0162350
606.421	0.0163383
606.499	0.0161764
606.578	0.0162241
606.656	0.0162988
606.734	0.0162415
606.812	0.0160780
606.890	0.0163533
606.968	0.0162336
607.046	0.0162070
607.124	0.0162298
607.203	0.0161079
607.281	0.0161992
607.359	0.0162452
607.437	0.0162187
607.515	0.0161907
607.593	0.0163754
607.671	0.0162389
607.749	0.0161813
607.828	0.0160786
607.906	0.0160866
607.984	0.0164081
608.062	0.0161942
608.140	0.0162266
608.218	0.0162462
608.296	0.0161520
608.374	0.0163099
608.453	0.0162719
608.531	0.0160677
608.609	0.0162025
608.687	0.0160496
608.765	0.0161960
608.843	0.0161632
608.921	0.0161078
608.999	0.0162260
609.078	0.0162640
609.156	0.0161822
609.234	0.0159350
609.312	0.0162242
609.390	0.0163396
609.468	0.0162207
609.546	0.0161558
609.624	0.0160978
609.703	0.0161742
609.781	0.0161001
609.859	0.0161420
609.937	0.0161562
610.015	0.0161634
610.093	0.0162121
610.171	0.0161510
610.249	0.0161838
610.328	0.0161893
610.406	0.0161665
610.484	0.0163133
610.562	0.0162079
610.640	0.0160419
610.718	0.0161455
610.796	0.0162608
610.874	0.0162433
610.953	0.0160909
611.031	0.0161100
611.109	0.0161819
611.187	0.0161640
611.265	0.0161431
611.343	0.0161636
611.421	0.0162507
611.499	0.0161352
611.578	0.0161618
611.656	0.0161824
611.734	0.0162690
611.812	0.0162184
611.890	0.0160620
611.968	0.0162373
612.046	0.0163765
612.124	0.0162109
612.203	0.0162628
612.281	0.0162054
612.359	0.0162742
612.437	0.0162733
612.515	0.0162581
612.593	0.0161811
612.671	0.0162039
612.749	0.0161470
612.828	0.0162300
612.906	0.0162489
612.984	0.0161462
613.062	0.0162610
613.140	0.0162964
613.218	0.0161067
613.296	0.0162569
613.374	0.0161604
613.453	0.0161240
613.531	0.0161636
613.609	0.0159798
613.687	0.0161823
613.765	0.0162086
613.843	0.0161407
613.921	0.0162007
613.999	0.0161858
614.078	0.0160919
614.156	0.0162875
614.234	0.0162885
614.312	0.0162017
614.390	0.0162099
614.468	0.0161264
614.546	0.0161617
614.624	0.0162569
614.703	0.0162300
614.781	0.0162499
614.859	0.0162374
614.937	0.0162262
615.015	0.0162492
615.093	0.0161491
615.171	0.0161395
615.249	0.0161160
615.328	0.0161769
615.406	0.0162452
615.484	0.0162498
615.562	0.0162395
615.640	0.0161613
615.718	0.0161478
615.796	0.0163322
615.874	0.0163158
615.953	0.0161686
616.031	0.0162812
616.109	0.0162892
616.187	0.0161490
616.265	0.0162981
616.343	0.0163802
616.421	0.0162576
616.499	0.0161760
616.578	0.0161298
616.656	0.0161681
616.734	0.0162086
616.812	0.0162531
616.890	0.0162460
616.968	0.0162870
617.046	0.0163721
617.124	0.0161883
617.203	0.0162655
617.281	0.0161851
617.359	0.0162820
617.437	0.0161523
617.515	0.0162857
617.593	0.0162192
617.671	0.0162540
617.749	0.0160945
617.828	0.0162605
617.906	0.0163182
617.984	0.0161600
618.062	0.0162629
618.140	0.0161464
618.218	0.0161962
618.296	0.0162612
618.374	0.0162612
618.453	0.0162716
618.531	0.0163100
618.609	0.0162151
618.687	0.0162762
618.765	0.0162589
618.843	0.0162547
618.921	0.0162351
618.999	0.0163178
619.078	0.0162240
619.156	0.0162070
619.234	0.0162846
619.312	0.0163200
619.390	0.0162373
619.468	0.0163630
619.546	0.0163228
619.624	0.0161425
619.703	0.0162909
619.781	0.0162350
619.859	0.0162241
619.937	0.0163073
620.015	0.0163534
620.093	0.0162096
620.171	0.0163115
620.249	0.0163296
620.328	0.0162629
620.406	0.0162180
620.484	0.0162089
620.562	0.0163649
620.640	0.0162196
620.718	0.0162296
620.796	0.0163526
620.874	0.0162471
620.953	0.0162894
621.031	0.0162501
621.109	0.0162852
621.187	0.0164807
621.265	0.0160895
621.343	0.0162469
621.421	0.0164017
621.499	0.0163544
621.578	0.0162665
621.656	0.0162673
621.734	0.0163397
621.812	0.0161688
621.890	0.0163369
621.968	0.0162070
622.046	0.0163060
622.124	0.0163306
622.203	0.0161649
622.281	0.0162642
622.359	0.0163299
622.437	0.0163147
622.515	0.0162303
622.593	0.0163828
622.671	0.0162693
622.749	0.0163965
622.828	0.0163056
622.906	0.0162953
622.984	0.0162661
623.062	0.0164706
623.140	0.0162235
623.218	0.0162083
623.296	0.0162637
623.374	0.0162580
623.453	0.0162575
623.531	0.0164106
623.609	0.0163474
623.687	0.0162597
623.765	0.0164513
623.843	0.0162307
623.921	0.0163447
623.999	0.0163970
624.078	0.0162769
624.156	0.0162576
624.234	0.0162701
624.312	0.0163776
624.390	0.0162998
624.468	0.0162924
624.546	0.0164842
624.624	0.0163058
624.703	0.0162183
624.781	0.0161995
624.859	0.0163247
624.937	0.0162717
625.015	0.0162354
625.093	0.0164091
625.171	0.0162214
625.249	0.0162802
625.328	0.0164700
625.406	0.0163477
625.484	0.0163236
625.562	0.0164005
625.640	0.0164285
625.718	0.0162994
625.796	0.0164046
625.874	0.0162516
625.953	0.0162764
626.031	0.0162946
626.109	0.0163261
626.187	0.0161874
626.265	0.0162244
626.343	0.0162915
626.421	0.0161978
626.499	0.0163663
626.578	0.0163831
626.656	0.0162708
626.734	0.0162307
626.812	0.0162418
626.890	0.0162547
626.968	0.0162563
627.046	0.0161798
627.124	0.0163161
627.203	0.0162920
627.281	0.0162714
627.359	0.0162820
627.437	0.0163242
627.515	0.0163583
627.593	0.0164363
627.671	0.0163095
627.749	0.0161494
627.828	0.0163210
627.906	0.0163964
627.984	0.0162302
628.062	0.0163455
628.140	0.0163669
628.218	0.0163658
628.296	0.0161761
628.374	0.0163819
628.453	0.0162719
628.531	0.0162955
628.609	0.0162634
628.687	0.0163496
628.765	0.0163516
628.843	0.0162549
628.921	0.0162189
628.999	0.0162344
629.078	0.0162765
629.156	0.0164103
629.234	0.0162625
629.312	0.0163541
629.390	0.0162634
629.468	0.0162886
629.546	0.0161938
629.624	0.0161797
629.703	0.0162392
629.781	0.0162314
629.859	0.0162149
629.937	0.0161326
630.015	0.0162275
630.093	0.0162762
630.171	0.0163187
630.249	0.0163251
630.328	0.0163232
630.406	0.0163717
630.484	0.0162051
630.562	0.0162360
630.640	0.0161828
630.718	0.0161870
630.796	0.0162242
630.874	0.0162399
630.953	0.0163985
631.031	0.0162807
631.109	0.0162712
631.187	0.0162353
631.265	0.0161412
631.343	0.0162720
631.421	0.0161693
631.499	0.0162070
631.578	0.0162259
631.656	0.0161970
631.734	0.0162111
631.812	0.0163225
631.890	0.0162450
631.968	0.0161279
632.046	0.0161150
632.124	0.0162611
632.203	0.0162788
632.281	0.0161847
632.359	0.0161541
632.437	0.0162614
632.515	0.0163504
632.593	0.0162311
632.671	0.0162592
632.749	0.0162500
632.828	0.0161367
632.906	0.0161933
632.984	0.0160911
633.062	0.0161844
633.140	0.0160880
633.218	0.0161709
633.296	0.0162929
633.374	0.0162634
633.453	0.0161313
633.531	0.0161904
633.609	0.0163303
633.687	0.0162260
633.765	0.0160139
633.843	0.0161852
633.921	0.0161502
633.999	0.0161623
634.078	0.0163103
634.156	0.0161977
634.234	0.0161020
634.312	0.0161411
634.390	0.0162054
634.468	0.0161023
634.546	0.0161950
634.624	0.0163908
634.703	0.0161752
634.781	0.0162260
634.859	0.0161441
634.937	0.0162685
635.015	0.0161224
635.093	0.0161678
635.171	0.0161832
635.249	0.0161772
635.328	0.0161349
635.406	0.0163249
635.484	0.0163794
635.562	0.0162163
635.640	0.0161504
635.718	0.0161228
635.796	0.0162050
635.874	0.0162495
635.953	0.0162260
636.031	0.0162151
636.109	0.0162373
636.187	0.0162639
636.265	0.0163119
636.343	0.0161182
636.421	0.0161884
636.499	0.0163474
636.578	0.0162142
636.656	0.0161771
636.734	0.0161903
636.812	0.0162198
636.890	0.0162776
636.968	0.0162600
637.046	0.0162642
637.124	0.0160648
637.203	0.0161333
637.281	0.0161320
637.359	0.0161289
637.437	0.0162149
637.515	0.0161456
637.593	0.0161420
637.671	0.0161880
637.749	0.0162357
637.828	0.0162613
637.906	0.0163260
637.984	0.0161359
638.062	0.0161111
638.140	0.0162338
638.218	0.0161619
638.296	0.0161564
638.374	0.0162671
638.453	0.0161133
638.531	0.0162821
638.609	0.0162008
638.687	0.0161019
638.765	0.0162573
638.843	0.0162267
638.921	0.0161871
638.999	0.0162808
639.078	0.0161799
639.156	0.0161811
639.234	0.0160781
639.312	0.0160485
639.390	0.0161809
639.468	0.0162554
639.546	0.0161458
639.624	0.0161844
639.703	0.0161422
639.781	0.0162448
639.859	0.0160339
639.937	0.0161140
640.015	0.0162626
640.093	0.0159618
640.171	0.0160053
640.249	0.0162630
640.328	0.0163116
640.406	0.0161349
640.484	0.0161385
640.562	0.0161073
640.640	0.0162325
640.718	0.0162455
640.796	0.0162365
640.874	0.0161855
640.953	0.0160639
641.031	0.0161687
641.109	0.0161581
641.187	0.0162592
641.265	0.0160545
641.343	0.0160200
641.421	0.0162727
641.499	0.0162219
641.578	0.0162083
641.656	0.0162444
641.734	0.0160828
641.812	0.0161507
641.890	0.0161816
641.968	0.0161288
642.046	0.0162713
642.124	0.0161525
642.203	0.0161234
642.281	0.0163509
642.359	0.0163014
642.437	0.0162148
642.515	0.0164324
642.593	0.0162169
642.671	0.0162963
642.749	0.0163747
642.828	0.0163196
642.906	0.0161997
642.984	0.0163216
643.062	0.0162890
643.140	0.0162676
643.218	0.0161623
643.296	0.0162101
643.374	0.0162792
643.453	0.0162006
643.531	0.0162445
643.609	0.0162762
643.687	0.0162612
643.765	0.0163079
643.843	0.0162825
643.921	0.0162468
643.999	0.0163140
644.078	0.0163528
644.156	0.0163484
644.234	0.0163330
644.312	0.0163308
644.390	0.0162506
644.468	0.0163416
644.546	0.0163836
644.624	0.0162482
644.703	0.0163333
644.781	0.0163960
644.859	0.0163125
644.937	0.0162516
645.015	0.0163097
645.093	0.0163245
645.171	0.0162301
645.249	0.0162614
645.328	0.0163647
645.406	0.0162357
645.484	0.0163297
645.562	0.0163306
645.640	0.0163344
645.718	0.0163140
645.796	0.0162896
645.874	0.0163325
645.953	0.0163931
646.031	0.0163693
646.109	0.0163472
646.187	0.0163960
646.265	0.0163569
646.343	0.0163190
646.421	0.0163473
646.499	0.0163702
646.578	0.0162001
646.656	0.0162458
646.734	0.0165401
646.812	0.0163084
646.890	0.0163225
646.968	0.0163819
647.046	0.0163916
647.124	0.0162202
647.203	0.0162330
647.281	0.0162041
647.359	0.0163895
647.437	0.0164217
647.515	0.0163264
647.593	0.0163722
647.671	0.0164013
647.749	0.0162625
647.828	0.0162088
647.906	0.0162928
647.984	0.0162495
648.062	0.0162968
648.140	0.0162756
648.218	0.0162788
648.296	0.0162737
648.374	0.0163880
648.453	0.0160814
648.531	0.0163187
648.609	0.0162743
648.687	0.0162078
648.765	0.0162787
648.843	0.0162602
648.921	0.0162972
648.999	0.0161479
649.078	0.0162160
649.156	0.0163612
649.234	0.0163497
649.312	0.0162449
649.390	0.0162498
649.468	0.0161803
649.546	0.0162101
649.624	0.0161908
649.703	0.0162946
649.781	0.0163051
649.859	0.0162525
649.937	0.0163097
650.015	0.0161874
650.093	0.0162448
650.171	0.0164208
650.249	0.0163251
650.328	0.0163984
650.406	0.0163348
650.484	0.0162050
650.562	0.0161583
650.640	0.0163363
650.718	0.0161704
650.796	0.0161893
650.874	0.0163556
650.953	0.0162838
651.031	0.0162600
651.109	0.0163251
651.187	0.0164120
651.265	0.0163600
651.343	0.0162753
651.421	0.0162244
651.499	0.0164920
651.578	0.0162373
651.656	0.0161797
651.734	0.0162963
651.812	0.0163557
651.890	0.0162437
651.968	0.0162167
652.046	0.0161646
652.124	0.0162638
652.203	0.0163457
652.281	0.0162131
652.359	0.0162413
652.437	0.0162656
652.515	0.0163195
652.593	0.0162938
652.671	0.0162811
652.749	0.0162443
652.828	0.0162832
652.906	0.0162265
652.984	0.0161714
653.062	0.0162672
653.140	0.0163041
653.218	0.0163090
653.296	0.0163589
653.374	0.0162814
653.453	0.0161562
653.531	0.0163326
653.609	0.0162947
653.687	0.0161884
653.765	0.0161943
653.843	0.0162857
653.921	0.0162740
653.999	0.0161769
654.078	0.0163524
654.156	0.0162543
654.234	0.0162879
654.312	0.0164100
654.390	0.0162173
654.468	0.0161390
654.546	0.0163243
654.624	0.0161703
654.703	0.0162071
654.781	0.0162487
654.859	0.0162065
654.937	0.0162047
655.015	0.0161687
655.093	0.0162863
655.171	0.0162525
655.249	0.0162479
655.328	0.0163000
655.406	0.0162183
655.484	0.0162765
655.562	0.0162759
655.640	0.0163800
655.718	0.0163470
655.796	0.0163474
655.874	0.0162830
655.953	0.0162205
656.031	0.0161520
656.109	0.0161751
656.187	0.0162812
656.265	0.0161546
656.343	0.0163013
656.421	0.0163169
656.499	0.0162798
656.578	0.0162282
656.656	0.0162556
656.734	0.0163126
656.812	0.0161337
656.890	0.0162988
656.968	0.0163265
657.046	0.0162177
657.124	0.0162380
657.203	0.0162492
657.281	0.0162791
657.359	0.0162970
657.437	0.0163421
657.515	0.0161728
657.593	0.0163341
657.671	0.0163927
657.749	0.0161408
657.828	0.0161722
657.906	0.0162116
657.984	0.0162260
658.062	0.0162837
658.140	0.0162496
658.218	0.0162504
658.296	0.0162157
658.374	0.0162484
658.453	0.0162143
658.531	0.0161813
658.609	0.0161881
658.687	0.0161764
658.765	0.0161448
658.843	0.0161698
658.921	0.0162373
658.999	0.0162164
659.078	0.0162441
659.156	0.0162478
659.234	0.0162949
659.312	0.0162665
659.390	0.0162915
659.468	0.0162675
659.546	0.0160979
659.624	0.0161655
659.703	0.0161693
659.781	0.0163059
659.859	0.0162827
659.937	0.0161160
660.015	0.0162236
660.093	0.0162561
660.171	0.0161910
660.249	0.0162198
660.328	0.0162185
660.406	0.0162703
660.484	0.0162637
660.562	0.0162968
660.640	0.0161414
660.718	0.0161444
660.796	0.0162469
660.874	0.0162663
660.953	0.0161705
661.031	0.0161897
661.109	0.0160168
661.187	0.0161886
661.265	0.0160614
661.343	0.0162012
661.421	0.0161991
661.499	0.0160140
661.578	0.0161440
661.656	0.0160527
661.734	0.0159977
661.812	0.0161318
661.890	0.0160536
661.968	0.0160828
662.046	0.0161719
662.124	0.0161395
662.203	0.0161189
662.281	0.0162123
662.359	0.0162125
662.437	0.0161281
662.515	0.0162907
662.593	0.0162156
662.671	0.0160461
662.749	0.0160641
662.828	0.0162066
662.906	0.0163235
662.984	0.0161329
663.062	0.0162451
663.140	0.0162959
663.218	0.0163031
663.296	0.0160495
663.374	0.0160702
663.453	0.0162475
663.531	0.0162236
663.609	0.0161566
663.687	0.0160912
663.765	0.0161072
663.843	0.0160726
663.921	0.0160325
663.999	0.0161112
664.078	0.0161665
664.156	0.0161379
664.234	0.0162042
664.312	0.0161172
664.390	0.0159612
664.468	0.0160568
664.546	0.0162035
664.624	0.0160172
664.703	0.0159877
664.781	0.0162663
664.859	0.0161941
664.937	0.0161754
665.015	0.0161881
665.093	0.0161800
665.171	0.0162698
665.249	0.0162109
665.328	0.0161269
665.406	0.0160863
665.484	0.0162312
665.562	0.0162853
665.640	0.0160492
665.718	0.0161615
665.796	0.0162431
665.874	0.0162260
665.953	0.0162778
666.031	0.0162038
666.109	0.0160606
666.187	0.0161324
666.265	0.0160136
666.343	0.0161113
666.421	0.0161594
666.499	0.0161988
666.578	0.0161280
666.656	0.0161625
666.734	0.0161318
666.812	0.0163025
666.890	0.0162553
666.968	0.0161909
667.046	0.0161847
667.124	0.0162185
667.203	0.0161584
667.281	0.0162570
667.359	0.0162696
667.437	0.0164176
667.515	0.0162319
667.593	0.0163304
667.671	0.0162475
667.749	0.0162211
667.828	0.0161909
667.906	0.0162663
667.984	0.0163987
668.062	0.0162843
668.140	0.0164133
668.218	0.0164120
668.296	0.0163871
668.374	0.0161726
668.453	0.0162347
668.531	0.0163146
668.609	0.0164201
668.687	0.0162452
668.765	0.0162534
668.843	0.0162405
668.921	0.0163350
668.999	0.0162687
669.078	0.0163825
669.156	0.0163478
669.234	0.0163981
669.312	0.0164204
669.390	0.0163797
669.468	0.0162405
669.546	0.0163096
669.624	0.0163933
669.703	0.0164365
669.781	0.0164439
669.859	0.0164048
669.937	0.0163687
670.015	0.0163902
670.093	0.0163306
670.171	0.0161552
670.249	0.0164088
670.328	0.0163910
670.406	0.0163764
670.484	0.0163672
670.562	0.0164044
670.640	0.0163447
670.718	0.0164006
670.796	0.0163966
670.874	0.0162245
670.953	0.0163936
671.031	0.0164733
671.109	0.0162233
671.187	0.0162723
671.265	0.0164068
671.343	0.0162383
671.421	0.0162537
671.499	0.0164386
671.578	0.0162638
671.656	0.0163432
671.734	0.0163502
671.812	0.0163849
671.890	0.0161763
671.968	0.0163415
672.046	0.0164629
672.124	0.0161620
672.203	0.0163563
672.281	0.0163634
672.359	0.0163040
672.437	0.0162798
672.515	0.0163358
672.593	0.0162591
672.671	0.0163805
672.749	0.0163560
672.828	0.0162740
672.906	0.0163165
672.984	0.0161887
673.062	0.0163976
673.140	0.0163289
673.218	0.0162079
673.296	0.0162693
673.374	0.0162553
673.453	0.0162336
673.531	0.0161967
673.609	0.0163246
673.687	0.0164080
673.765	0.0162401
673.843	0.0163525
673.921	0.0162669
673.999	0.0163535
674.078	0.0162087
674.156	0.0161935
674.234	0.0163444
674.312	0.0163341
674.390	0.0163460
674.468	0.0162569
674.546	0.0162298
674.624	0.0162650
674.703	0.0163781
674.781	0.0163543
674.859	0.0163732
674.937	0.0162851
675.015	0.0164294
675.093	0.0164188
675.171	0.0163462
675.249	0.0162656
675.328	0.0162903
675.406	0.0163131
675.484	0.0163092
675.562	0.0163532
675.640	0.0163134
675.718	0.0163117
675.796	0.0162675
675.874	0.0162781
675.953	0.0162832
676.031	0.0162440
676.109	0.0161934
676.187	0.0162664
676.265	0.0163723
676.343	0.0162355
676.421	0.0162523
676.499	0.0161961
676.578	0.0163485
676.656	0.0162938
676.734	0.0163459
676.812	0.0163590
676.890	0.0162748
676.968	0.0161395
677.046	0.0161740
677.124	0.0162558
677.203	0.0162434
677.281	0.0163457
677.359	0.0163900
677.437	0.0162335
677.515	0.0161317
677.593	0.0163560
677.671	0.0163356
677.749	0.0162351
677.828	0.0163795
677.906	0.0163635
677.984	0.0163332
678.062	0.0162180
678.140	0.0161745
678.218	0.0162035
678.296	0.0162695
678.374	0.0162114
678.453	0.0163110
678.531	0.0163735
678.609	0.0162026
678.687	0.0162592
678.765	0.0162442
678.843	0.0162592
678.921	0.0162537
678.999	0.0162661
679.078	0.0163071
679.156	0.0162375
679.234	0.0161068
679.312	0.0162321
679.390	0.0162281
679.468	0.0162675
679.546	0.0163640
679.624	0.0162008
679.703	0.0160734
679.781	0.0162756
679.859	0.0162088
679.937	0.0162665
680.015	0.0163213
680.093	0.0161937
680.171	0.0162232
680.249	0.0164150
680.328	0.0163044
680.406	0.0161819
680.484	0.0162219
680.562	0.0162377
680.640	0.0163044
680.718	0.0163573
680.796	0.0162794
680.874	0.0164676
680.953	0.0162000
681.031	0.0163013
681.109	0.0162478
681.187	0.0162374
681.265	0.0163570
681.343	0.0161696
681.421	0.0162089
681.499	0.0163514
681.578	0.0162640
681.656	0.0161933
681.734	0.0161482
681.812	0.0162973
681.890	0.0161786
681.968	0.0162511
682.046	0.0162547
682.124	0.0162067
682.203	0.0163132
682.281	0.0164223
682.359	0.0162673
682.437	0.0161880
682.515	0.0160911
682.593	0.0163218
682.671	0.0163531
682.749	0.0162572
682.828	0.0162237
682.906	0.0162598
682.984	0.0161195
683.062	0.0162257
683.140	0.0161826
683.218	0.0161595
683.296	0.0162254
683.374	0.0162070
683.453	0.0162920
683.531	0.0163065
683.609	0.0163046
683.687	0.0161732
683.765	0.0161217
683.843	0.0162128
683.921	0.0161395
683.999	0.0162702
684.078	0.0162087
684.156	0.0163828
684.234	0.0162120
684.312	0.0162209
684.390	0.0161796
684.468	0.0162135
684.546	0.0162048
684.624	0.0160558
684.703	0.0161246
684.781	0.0162076
684.859	0.0161421
684.937	0.0160793
685.015	0.0161378
685.093	0.0162798
685.171	0.0161779
685.249	0.0161771
685.328	0.0160648
685.406	0.0161435
685.484	0.0161478
685.562	0.0160483
685.640	0.0162337
685.718	0.0161613
685.796	0.0161349
685.874	0.0162440
685.953	0.0161951
686.031	0.0162804
686.109	0.0161173
686.187	0.0160684
686.265	0.0160927
686.343	0.0161485
686.421	0.0159359
686.499	0.0160325
686.578	0.0161201
686.656	0.0160863
686.734	0.0160656
686.812	0.0160590
686.890	0.0161193
686.968	0.0160865
687.046	0.0161317
687.124	0.0162251
687.203	0.0162137
687.281	0.0160455
687.359	0.0162281
687.437	0.0162189
687.515	0.0161961
687.593	0.0161008
687.671	0.0161161
687.749	0.0162635
687.828	0.0162894
687.906	0.0163074
687.984	0.0162289
688.062	0.0162488
688.140	0.0162831
688.218	0.0161715
688.296	0.0160863
688.374	0.0162300
688.453	0.0162682
688.531	0.0163176
688.609	0.0161908
688.687	0.0162988
688.765	0.0163486
688.843	0.0162535
688.921	0.0161428
688.999	0.0161008
689.078	0.0162789
689.156	0.0161502
689.234	0.0161052
689.312	0.0162367
689.390	0.0162446
689.468	0.0163116
689.546	0.0160162
689.624	0.0161012
689.703	0.0161914
689.781	0.0161336
689.859	0.0161419
689.937	0.0160322
690.015	0.0160102
690.093	0.0161411
690.171	0.0161765
690.249	0.0162289
690.328	0.0160223
690.406	0.0161497
690.484	0.0161450
690.562	0.0161770
690.640	0.0161118
690.718	0.0161486
690.796	0.0161001
690.874	0.0160943
690.953	0.0160419
691.031	0.0161266
691.109	0.0162496
691.187	0.0162666
691.265	0.0162824
691.343	0.0161482
691.421	0.0160838
691.499	0.0162665
691.578	0.0161273
691.656	0.0161150
691.734	0.0162746
691.812	0.0162569
691.890	0.0161338
691.968	0.0161389
692.046	0.0160944
692.124	0.0163255
692.203	0.0161588
692.281	0.0163495
692.359	0.0163153
692.437	0.0161755
692.515	0.0161868
692.593	0.0160923
692.671	0.0161369
692.749	0.0162513
692.828	0.0161935
692.906	0.0162389
692.984	0.0162843
693.062	0.0162729
693.140	0.0162144
693.218	0.0161443
693.296	0.0160755
693.374	0.0162986
693.453	0.0163180
693.531	0.0162219
693.609	0.0161100
693.687	0.0162378
693.765	0.0163040
693.843	0.0162704
693.921	0.0162164
693.999	0.0161620
694.078	0.0161948
694.156	0.0162183
694.234	0.0162103
694.312	0.0162000
694.390	0.0163293
694.468	0.0161164
694.546	0.0161893
694.624	0.0163067
694.703	0.0161895
694.781	0.0162813
694.859	0.0162505
694.937	0.0163209
695.015	0.0162759
695.093	0.0163684
695.171	0.0163353
695.249	0.0162843
695.328	0.0162875
695.406	0.0163365
695.484	0.0163098
695.562	0.0163001
695.640	0.0163104
695.718	0.0163225
695.796	0.0163945
695.874	0.0163652
695.953	0.0162449
696.031	0.0162196
696.109	0.0162234
696.187	0.0163340
696.265	0.0163365
696.343	0.0162927
696.421	0.0163595
696.499	0.0163760
696.578	0.0162251
696.656	0.0162753
696.734	0.0162746
696.812	0.0164056
696.890	0.0162937
696.968	0.0164022
697.046	0.0164574
697.124	0.0163512
697.203	0.0164082
697.281	0.0163485
697.359	0.0163110
697.437	0.0163010
697.515	0.0163814
697.593	0.0164167
697.671	0.0162292
697.749	0.0162040
697.828	0.0162714
697.906	0.0163740
697.984	0.0162107
698.062	0.0163223
698.140	0.0162714
698.218	0.0163005
698.296	0.0162152
698.374	0.0162264
698.453	0.0163818
698.531	0.0163070
698.609	0.0164286
698.687	0.0163657
698.765	0.0162990
698.843	0.0162250
698.921	0.0164075
698.999	0.0161954
699.078	0.0162916
699.156	0.0161743
699.234	0.0163673
699.312	0.0163979
699.390	0.0162083
699.468	0.0162360
699.546	0.0163501
699.624	0.0163830
699.703	0.0164204
699.781	0.0163049
699.859	0.0161823
699.937	0.0162726
700.015	0.0163155
700.093	0.0162471
700.171	0.0165445
700.249	0.0163987
700.328	0.0163778
700.406	0.0162645
700.484	0.0162933
700.562	0.0162385
700.640	0.0163985
700.718	0.0163040
700.796	0.0163602
700.874	0.0163476
700.953	0.0160791
701.031	0.0163101
701.109	0.0163689
701.187	0.0163146
701.265	0.0163472
701.343	0.0162411
701.421	0.0162498
701.499	0.0163141
701.578	0.0163270
701.656	0.0162946
701.734	0.0161436
701.812	0.0162083
701.890	0.0164220
701.968	0.0163214
702.046	0.0163828
702.124	0.0162743
702.203	0.0162914
702.281	0.0161506
702.359	0.0162631
702.437	0.0163015
702.515	0.0163189
702.593	0.0162444
702.671	0.0161549
702.749	0.0161950
702.828	0.0160547
702.906	0.0162976
702.984	0.0163668
703.062	0.0162167
703.140	0.0162138
703.218	0.0162036
703.296	0.0163295
703.374	0.0162722
703.453	0.0162378
703.531	0.0163773
703.609	0.0162056
703.687	0.0163904
703.765	0.0162587
703.843	0.0163304
703.921	0.0163943
703.999	0.0163473
704.078	0.0163590
704.156	0.0163290
704.234	0.0162508
704.312	0.0163079
704.390	0.0162714
704.468	0.0163490
704.546	0.0163142
704.624	0.0161729
704.703	0.0163313
704.781	0.0162176
704.859	0.0162619
704.937	0.0161655
705.015	0.0161898
705.093	0.0162405
705.171	0.0162363
705.249	0.0162137
705.328	0.0162647
705.406	0.0163995
705.484	0.0162234
705.562	0.0162320
705.640	0.0162193
705.718	0.0162279
705.796	0.0161466
705.874	0.0162311
705.953	0.0162453
706.031	0.0162107
706.109	0.0162360
706.187	0.0163435
706.265	0.0163570
706.343	0.0162886
706.421	0.0161803
706.499	0.0161752
706.578	0.0163585
706.656	0.0162076
706.734	0.0161208
706.812	0.0162474
706.890	0.0162180
706.968	0.0161430
707.046	0.0161858
707.124	0.0162376
707.203	0.0161722
707.281	0.0162396
707.359	0.0161332
707.437	0.0160155
707.515	0.0161095
707.593	0.0161772
707.671	0.0161323
707.749	0.0162615
707.828	0.0161758
707.906	0.0161604
707.984	0.0162611
708.062	0.0160976
708.140	0.0162408
708.218	0.0161603
708.296	0.0163270
708.374	0.0162135
708.453	0.0162177
708.531	0.0162954
708.609	0.0162686
708.687	0.0162386
708.765	0.0162715
708.843	0.0162594
708.921	0.0163277
708.999	0.0162122
709.078	0.0162680
709.156	0.0162731
709.234	0.0161078
709.312	0.0162360
709.390	0.0162910
709.468	0.0162135
709.546	0.0163041
709.624	0.0161593
709.703	0.0160777
709.781	0.0161216
709.859	0.0161217
709.937	0.0161742
710.015	0.0162991
710.093	0.0161744
710.171	0.0162671
710.249	0.0162569
710.328	0.0162015
710.406	0.0162163
710.484	0.0160991
710.562	0.0162299
710.640	0.0161925
710.718	0.0162405
710.796	0.0162932
710.874	0.0162272
710.953	0.0161543
711.031	0.0161228
711.109	0.0162292
711.187	0.0161353
711.265	0.0161247
711.343	0.0162239
711.421	0.0161229
711.499	0.0161144
711.578	0.0161785
711.656	0.0162116
711.734	0.0161542
711.812	0.0159588
711.890	0.0160439
711.968	0.0160130
712.046	0.0161906
712.124	0.0161172
712.203	0.0162347
712.281	0.0161051
712.359	0.0160786
712.437	0.0160474
712.515	0.0159766
712.593	0.0160698
712.671	0.0160030
712.749	0.0161114
712.828	0.0160931
712.906	0.0161694
712.984	0.0162332
713.062	0.0159505
713.140	0.0161622
713.218	0.0162223
713.296	0.0161847
713.374	0.0162081
713.453	0.0160358
713.531	0.0158868
713.609	0.0160657
713.687	0.0162120
713.765	0.0163029
713.843	0.0161783
713.921	0.0161655
713.999	0.0160033
714.078	0.0162598
714.156	0.0162407
714.234	0.0161070
714.312	0.0162057
714.390	0.0162212
714.468	0.0160697
714.546	0.0161449
714.624	0.0163081
714.703	0.0162453
714.781	0.0162538
714.859	0.0162781
714.937	0.0161507
715.015	0.0161008
715.093	0.0162153
715.171	0.0161784
715.249	0.0162337
715.328	0.0161430
715.406	0.0161036
715.484	0.0160793
715.562	0.0161228
715.640	0.0161707
715.718	0.0164291
715.796	0.0162107
715.874	0.0161435
715.953	0.0161386
716.031	0.0162113
716.109	0.0162895
716.187	0.0161152
716.265	0.0162659
716.343	0.0162078
716.421	0.0163568
716.499	0.0163647
716.578	0.0161983
716.656	0.0161645
716.734	0.0162794
716.812	0.0162756
716.890	0.0162363
716.968	0.0162447
717.046	0.0161880
717.124	0.0160814
717.203	0.0162624
717.281	0.0163031
717.359	0.0162858
717.437	0.0162402
717.515	0.0163079
717.593	0.0162730
717.671	0.0163259
717.749	0.0161850
717.828	0.0162698
717.906	0.0161872
717.984	0.0162270
718.062	0.0161695
718.140	0.0162858
718.218	0.0161935
718.296	0.0162955
718.374	0.0164426
718.453	0.0163748
718.531	0.0164026
718.609	0.0162842
718.687	0.0162764
718.765	0.0162239
718.843	0.0162644
718.921	0.0162263
718.999	0.0163836
719.078	0.0164105
719.156	0.0162606
719.234	0.0163892
719.312	0.0164087
719.390	0.0161900
719.468	0.0163945
719.546	0.0161918
719.624	0.0161263
719.703	0.0162603
719.781	0.0162143
719.859	0.0161327
719.937	0.0162563
720.015	0.0162363
720.093	0.0161957
720.171	0.0161531
720.249	0.0161339
720.328	0.0161512
720.406	0.0162692
720.484	0.0162872
720.562	0.0161214
720.640	0.0162096
720.718	0.0162408
720.796	0.0161558
720.874	0.0161456
720.953	0.0161270
721.031	0.0163075
721.109	0.0163737
721.187	0.0162939
721.265	0.0162695
721.343	0.0162769
721.421	0.0162273
721.499	0.0162343
721.578	0.0163811
721.656	0.0163181
721.734	0.0161099
721.812	0.0162880
721.890	0.0162771
721.968	0.0163879
722.046	0.0163191
722.124	0.0163239
722.203	0.0162588
722.281	0.0162520
722.359	0.0162721
722.437	0.0161682
722.515	0.0162366
722.593	0.0162791
722.671	0.0162141
722.749	0.0162135
722.828	0.0162601
722.906	0.0162702
722.984	0.0164104
723.062	0.0164340
723.140	0.0163275
723.218	0.0162637
723.296	0.0162861
723.374	0.0162658
723.453	0.0163783
723.531	0.0163779
723.609	0.0163396
723.687	0.0163094
723.765	0.0162947
723.843	0.0162770
723.921	0.0162736
723.999	0.0163407
724.078	0.0163702
724.156	0.0163290
724.234	0.0163061
724.312	0.0162230
724.390	0.0164059
724.468	0.0161897
724.546	0.0163536
724.624	0.0161754
724.703	0.0162818
724.781	0.0163729
724.859	0.0163250
724.937	0.0163090
725.015	0.0162302
725.093	0.0162881
725.171	0.0164272
725.249	0.0163446
725.328	0.0162543
725.406	0.0163412
725.484	0.0163422
725.562	0.0163354
725.640	0.0162708
725.718	0.0164143
725.796	0.0164296
725.874	0.0164500
725.953	0.0163693
726.031	0.0163626
726.109	0.0163884
726.187	0.0163675
726.265	0.0163140
726.343	0.0163428
726.421	0.0163131
726.499	0.0162445
726.578	0.0163843
726.656	0.0164082
726.734	0.0162537
726.812	0.0163821
726.890	0.0164493
726.968	0.0162263
727.046	0.0165205
727.124	0.0164593
727.203	0.0164965
727.281	0.0163344
727.359	0.0162380
727.437	0.0163416
727.515	0.0163072
727.593	0.0164774
727.671	0.0164005
727.749	0.0162630
727.828	0.0163585
727.906	0.0162936
727.984	0.0164079
728.062	0.0162088
728.140	0.0162193
728.218	0.0163235
728.296	0.0163809
728.374	0.0163496
728.453	0.0162920
728.531	0.0163483
728.609	0.0163344
728.687	0.0163698
728.765	0.0163950
728.843	0.0163318
728.921	0.0163713
728.999	0.0161588
729.078	0.0162618
729.156	0.0163858
729.234	0.0162989
729.312	0.0164029
729.390	0.0162767
729.468	0.0162315
729.546	0.0163831
729.624	0.0163477
729.703	0.0163419
729.781	0.0162994
729.859	0.0162659
729.937	0.0162903
730.015	0.0163092
730.093	0.0163992
730.171	0.0162931
730.249	0.0162310
730.328	0.0162870
730.406	0.0164055
730.484	0.0162715
730.562	0.0162987
730.640	0.0162832
730.718	0.0162318
730.796	0.0163005
730.874	0.0163432
730.953	0.0162328
731.031	0.0163443
731.109	0.0164835
731.187	0.0162222
731.265	0.0162835
731.343	0.0162775
731.421	0.0163022
731.499	0.0162926
731.578	0.0163179
731.656	0.0163185
731.734	0.0163152
731.812	0.0163820
731.890	0.0163165
731.968	0.0161327
732.046	0.0162656
732.124	0.0163039
732.203	0.0163878
732.281	0.0162887
732.359	0.0161593
732.437	0.0161583
732.515	0.0162628
732.593	0.0162613
732.671	0.0161803
732.749	0.0162120
732.828	0.0162698
732.906	0.0161760
732.984	0.0161507
733.062	0.0163051
733.140	0.0162808
733.218	0.0162112
733.296	0.0162164
733.374	0.0161699
733.453	0.0161819
733.531	0.0161082
733.609	0.0161813
733.687	0.0161864
733.765	0.0161112
733.843	0.0162050
733.921	0.0163519
733.999	0.0161803
734.078	0.0161780
734.156	0.0161480
734.234	0.0161444
734.312	0.0162917
734.390	0.0162157
734.468	0.0162823
734.546	0.0161190
734.624	0.0161297
734.703	0.0161727
734.781	0.0162097
734.859	0.0161211
734.937	0.0160899
735.015	0.0162101
735.093	0.0162759
735.171	0.0161719
735.249	0.0161828
735.328	0.0160775
735.406	0.0162214
735.484	0.0162016
735.562	0.0162579
735.640	0.0162021
735.718	0.0161994
735.796	0.0161449
735.874	0.0162189
735.953	0.0160954
736.031	0.0161332
736.109	0.0162061
736.187	0.0161530
736.265	0.0160307
736.343	0.0160098
736.421	0.0162505
736.499	0.0162158
736.578	0.0162152
736.656	0.0162421
736.734	0.0162241
736.812	0.0162173
736.890	0.0162943
736.968	0.0162401
737.046	0.0162582
737.124	0.0162703
737.203	0.0160328
737.281	0.0162187
737.359	0.0162382
737.437	0.0161595
737.515	0.0160873
737.593	0.0162201
737.671	0.0161719
737.749	0.0162589
737.828	0.0161865
737.906	0.0161827
737.984	0.0162742
738.062	0.0162000
738.140	0.0161491
738.218	0.0163303
738.296	0.0160705
738.374	0.0163539
738.453	0.0163284
738.531	0.0162765
738.609	0.0162457
738.687	0.0161139
738.765	0.0162315
738.843	0.0163174
738.921	0.0162591
738.999	0.0162428
739.078	0.0162589
739.156	0.0162823
739.234	0.0162868
739.312	0.0161438
739.390	0.0160360
739.468	0.0161564
739.546	0.0164208
739.624	0.0162674
739.703	0.0161888
739.781	0.0162636
739.859	0.0162550
739.937	0.0162307
740.015	0.0162605
740.093	0.0161977
740.171	0.0163064
740.249	0.0161750
740.328	0.0160992
740.406	0.0161810
740.484	0.0161431
740.562	0.0162344
740.640	0.0163005
740.718	0.0162319
740.796	0.0161732
740.874	0.0163064
740.953	0.0160998
741.031	0.0162597
741.109	0.0162103
741.187	0.0162376
741.265	0.0163116
741.343	0.0162012
741.421	0.0161974
741.499	0.0161550
741.578	0.0161642
741.656	0.0162582
741.734	0.0162080
741.812	0.0161859
741.890	0.0162804
741.968	0.0162543
742.046	0.0162632
742.124	0.0162699
742.203	0.0163474
742.281	0.0161989
742.359	0.0162160
742.437	0.0161605
742.515	0.0162906
742.593	0.0163129
742.671	0.0161440
742.749	0.0162564
742.828	0.0162396
742.906	0.0161662
742.984	0.0163445
743.062	0.0160925
743.140	0.0162882
743.218	0.0162201
743.296	0.0163131
743.374	0.0163084
743.453	0.0162478
743.531	0.0162568
743.609	0.0160673
743.687	0.0163073
743.765	0.0164058
743.843	0.0163834
743.921	0.0163741
743.999	0.0163858
744.078	0.0164264
744.156	0.0163889
744.234	0.0162267
744.312	0.0163403
744.390	0.0161994
744.468	0.0163643
744.546	0.0163303
744.624	0.0162600
744.703	0.0162267
744.781	0.0163386
744.859	0.0163004
744.937	0.0162838
745.015	0.0161864
745.093	0.0163483
745.171	0.0163277
745.249	0.0163960
745.328	0.0161871
745.406	0.0162625
745.484	0.0163419
745.562	0.0164082
745.640	0.0161293
745.718	0.0163900
745.796	0.0162640
745.874	0.0162401
745.953	0.0163695
746.031	0.0163329
746.109	0.0163500
746.187	0.0164499
746.265	0.0164902
746.343	0.0163768
746.421	0.0162515
746.499	0.0162468
746.578	0.0162793
746.656	0.0163223
746.734	0.0163875
746.812	0.0163204
746.890	0.0163052
746.968	0.0163298
747.046	0.0164189
747.124	0.0162408
747.203	0.0162295
747.281	0.0163798
747.359	0.0162778
747.437	0.0162959
747.515	0.0164095
747.593	0.0162835
747.671	0.0163362
747.749	0.0162398
747.828	0.0163579
747.906	0.0164100
747.984	0.0162699
748.062	0.0162656
748.140	0.0163163
748.218	0.0161430
748.296	0.0162784
748.374	0.0163673
748.453	0.0164183
748.531	0.0163822
748.609	0.0163116
748.687	0.0162000
748.765	0.0163509
748.843	0.0163822
748.921	0.0162792
748.999	0.0162801
749.078	0.0161591
749.156	0.0162765
749.234	0.0161945
749.312	0.0164243
749.390	0.0163376
749.468	0.0162844
749.546	0.0162849
749.624	0.0163833
749.703	0.0163573
749.781	0.0161293
749.859	0.0163635
749.937	0.0163555
750.015	0.0161090
750.093	0.0164333
750.171	0.0163658
750.249	0.0162160
750.328	0.0163670
750.406	0.0161776
750.484	0.0163779
750.562	0.0163560
750.640	0.0162136
750.718	0.0162560
750.796	0.0161673
750.874	0.0163512
750.953	0.0163537
751.031	0.0163618
751.109	0.0164064
751.187	0.0163286
751.265	0.0163422
751.343	0.0162717
751.421	0.0162590
751.499	0.0163760
751.578	0.0163514
751.656	0.0162801
751.734	0.0162141
751.812	0.0163384
751.890	0.0163292
751.968	0.0161943
752.046	0.0162973
752.124	0.0163425
752.203	0.0164244
752.281	0.0162810
752.359	0.0162413
752.437	0.0163315
752.515	0.0162489
752.593	0.0162869
752.671	0.0160732
752.749	0.0162599
752.828	0.0162418
752.906	0.0163041
752.984	0.0162365
753.062	0.0161922
753.140	0.0161314
753.218	0.0162199
753.296	0.0161850
753.374	0.0162560
753.453	0.0163271
753.531	0.0162109
753.609	0.0162067
753.687	0.0161600
753.765	0.0164018
753.843	0.0162273
753.921	0.0162720
753.999	0.0162622
754.078	0.0161400
754.156	0.0162545
754.234	0.0163835
754.312	0.0160687
754.390	0.0162323
754.468	0.0161784
754.546	0.0161587
754.624	0.0163135
754.703	0.0162592
754.781	0.0162018
754.859	0.0162367
754.937	0.0162675
755.015	0.0161673
755.093	0.0162150
755.171	0.0162640
755.249	0.0162370
755.328	0.0162642
755.406	0.0161835
755.484	0.0160913
755.562	0.0159691
755.640	0.0162790
755.718	0.0161623
755.796	0.0162817
755.874	0.0163318
755.953	0.0160605
756.031	0.0161488
756.109	0.0162415
756.187	0.0161169
756.265	0.0161465
756.343	0.0162524
756.421	0.0162456
756.499	0.0163253
756.578	0.0162282
756.656	0.0161767
756.734	0.0161224
756.812	0.0162638
756.890	0.0162665
756.968	0.0162017
757.046	0.0161332
757.124	0.0162885
757.203	0.0162988
757.281	0.0162792
757.359	0.0163972
757.437	0.0163426
757.515	0.0162982
757.593	0.0163220
757.671	0.0163042
757.749	0.0162440
757.828	0.0161681
757.906	0.0162601
757.984	0.0161879
758.062	0.0161304
758.140	0.0163229
758.218	0.0162384
758.296	0.0160922
758.374	0.0160326
758.453	0.0160976
758.531	0.0161511
758.609	0.0161509
758.687	0.0162014
758.765	0.0161715
758.843	0.0162119
758.921	0.0162873
758.999	0.0160408
759.078	0.0162358
759.156	0.0162137
759.234	0.0162142
759.312	0.0162435
759.390	0.0162013
759.468	0.0162534
759.546	0.0161124
759.624	0.0162447
759.703	0.0162870
759.781	0.0160578
759.859	0.0163454
759.937	0.0161620
760.015	0.0161983
760.093	0.0162254
760.171	0.0162322
760.249	0.0161678
760.328	0.0161964
760.406	0.0161423
760.484	0.0161028
760.562	0.0160987
760.640	0.0161966
760.718	0.0161532
760.796	0.0161405
760.874	0.0161143
760.953	0.0161677
761.031	0.0161234
761.109	0.0161939
761.187	0.0161189
761.265	0.0161108
761.343	0.0161459
761.421	0.0160629
761.499	0.0162539
761.578	0.0161958
761.656	0.0162529
761.734	0.0161588
761.812	0.0160919
761.890	0.0161765
761.968	0.0161700
762.046	0.0160555
762.124	0.0162259
762.203	0.0162243
762.281	0.0162492
762.359	0.0162324
762.437	0.0162025
762.515	0.0161306
762.593	0.0162155
762.671	0.0162897
762.749	0.0162402
762.828	0.0163348
762.906	0.0163992
762.984	0.0162447
763.062	0.0162102
763.140	0.0162628
763.218	0.0161320
763.296	0.0162276
763.374	0.0163240
763.453	0.0161282
763.531	0.0161418
763.609	0.0161332
763.687	0.0162521
763.765	0.0160475
763.843	0.0159194
763.921	0.0162453
763.999	0.0160221
764.078	0.0159922
764.156	0.0161063
764.234	0.0160159
764.312	0.0161569
764.390	0.0161717
764.468	0.0162321
764.546	0.0161343
764.624	0.0159610
764.703	0.0161980
764.781	0.0161881
764.859	0.0161067
764.937	0.0161328
765.015	0.0162524
765.093	0.0161920
765.171	0.0162327
765.249	0.0162554
765.328	0.0162760
765.406	0.0162066
765.484	0.0163171
765.562	0.0162758
765.640	0.0162090
765.718	0.0164563
765.796	0.0163609
765.874	0.0162340
765.953	0.0162443
766.031	0.0162365
766.109	0.0163235
766.187	0.0161879
766.265	0.0162610
766.343	0.0161382
766.421	0.0161103
766.499	0.0161589
766.578	0.0161331
766.656	0.0160878
766.734	0.0161219
766.812	0.0160857
766.890	0.0162418
766.968	0.0161369
767.046	0.0161437
767.124	0.0160983
767.203	0.0160406
767.281	0.0160912
767.359	0.0161882
767.437	0.0160867
767.515	0.0160499
767.593	0.0160636
767.671	0.0160526
767.749	0.0160172
767.828	0.0161880
767.906	0.0160386
767.984	0.0160034
768.062	0.0160340
768.140	0.0162057
768.218	0.0161436
768.296	0.0162189
768.374	0.0161712
768.453	0.0162263
768.531	0.0163805
768.609	0.0163734
768.687	0.0164211
768.765	0.0162440
768.843	0.0163998
768.921	0.0163258
768.999	0.0163893
769.078	0.0164198
769.156	0.0163300
769.234	0.0164734
769.312	0.0164859
769.390	0.0163222
769.468	0.0162648
769.546	0.0162862
769.624	0.0162884
769.703	0.0163134
769.781	0.0162955
769.859	0.0163552
769.937	0.0161588
770.015	0.0162208
770.093	0.0164027
770.171	0.0162803
770.249	0.0161710
770.328	0.0162743
770.406	0.0162381
770.484	0.0163260
770.562	0.0162876
770.640	0.0162646
770.718	0.0163123
770.796	0.0163844
770.874	0.0163091
770.953	0.0161892
771.031	0.0162431
771.109	0.0162395
771.187	0.0162307
771.265	0.0162006
771.343	0.0161711
771.421	0.0163361
771.499	0.0163150
771.578	0.0163496
771.656	0.0164951
771.734	0.0163671
771.812	0.0162566
771.890	0.0163865
771.968	0.0164339
772.046	0.0163732
772.124	0.0163176
772.203	0.0163439
772.281	0.0163027
772.359	0.0163265
772.437	0.0163132
772.515	0.0163033
772.593	0.0162199
772.671	0.0162238
772.749	0.0162318
772.828	0.0162315
772.906	0.0161351
772.984	0.0161130
773.062	0.0160491
773.140	0.0161693
773.218	0.0162553
773.296	0.0162713
773.374	0.0162540
773.453	0.0162386
773.531	0.0162065
773.609	0.0163831
773.687	0.0163656
773.765	0.0164368
773.843	0.0164906
773.921	0.0164580
773.999	0.0164631
774.078	0.0166006
774.156	0.0166034
774.234	0.0166429
774.312	0.0163700
774.390	0.0166015
774.468	0.0164807
774.546	0.0165171
774.624	0.0166264
774.703	0.0164411
774.781	0.0162745
774.859	0.0163096
774.937	0.0162750
775.015	0.0162822
775.093	0.0161969
775.171	0.0161795
775.249	0.0160616
775.328	0.0161319
775.406	0.0160461
775.484	0.0160301
775.562	0.0160255
775.640	0.0160641
775.718	0.0161010
775.796	0.0160175
775.874	0.0159814
775.953	0.0159932
776.031	0.0159187
776.109	0.0161831
776.187	0.0160121
776.265	0.0159792
776.343	0.0161416
776.421	0.0160645
776.499	0.0161799
776.578	0.0160424
776.656	0.0160908
776.734	0.0160266
776.812	0.0161700
776.890	0.0162334
776.968	0.0162586
777.046	0.0161472
777.124	0.0162178
777.203	0.0161978
777.281	0.0163032
777.359	0.0162566
777.437	0.0163328
777.515	0.0162753
777.593	0.0163174
777.671	0.0163046
777.749	0.0162285
777.828	0.0161742
777.906	0.0161945
777.984	0.0163001
778.062	0.0163000
778.140	0.0161288
778.218	0.0160829
778.296	0.0161515
778.374	0.0163876
778.453	0.0162221
778.531	0.0162875
778.609	0.0163390
778.687	0.0162242
778.765	0.0162019
778.843	0.0162547
778.921	0.0161265
778.999	0.0162141
779.078	0.0163801
779.156	0.0163398
779.234	0.0162826
779.312	0.0161534
779.390	0.0162418
779.468	0.0163137
779.546	0.0161841
779.624	0.0162138
779.703	0.0161755
779.781	0.0162395
779.859	0.0162311
779.937	0.0161726
780.015	0.0161442
780.093	0.0161669
780.171	0.0163367
780.249	0.0161697
780.328	0.0160402
780.406	0.0160055
780.484	0.0160502
780.562	0.0161308
780.640	0.0160075
780.718	0.0160500
780.796	0.0159257
780.874	0.0159566
780.953	0.0161063
781.031	0.0159836
781.109	0.0160038
781.187	0.0159580
781.265	0.0160078
781.343	0.0160715
781.421	0.0162079
781.499	0.0160453
781.578	0.0159897
781.656	0.0163012
781.734	0.0161882
781.812	0.0163165
781.890	0.0163406
781.968	0.0162482
782.046	0.0161360
782.124	0.0164868
782.203	0.0163165
782.281	0.0164037
782.359	0.0163972
782.437	0.0165254
782.515	0.0163246
782.593	0.0164391
782.671	0.0164352
782.749	0.0163385
782.828	0.0164240
782.906	0.0164391
782.984	0.0164881
783.062	0.0163854
783.140	0.0162896
783.218	0.0163544
783.296	0.0162668
783.374	0.0163290
783.453	0.0163120
783.531	0.0162064
783.609	0.0162601
783.687	0.0162081
783.765	0.0160373
783.843	0.0161555
783.921	0.0161797
783.999	0.0160421
784.078	0.0162241
784.156	0.0160832
784.234	0.0161474
784.312	0.0159944
784.390	0.0160842
784.468	0.0160834
784.546	0.0158894
784.624	0.0159469
784.703	0.0159710
784.781	0.0160271
784.859	0.0160470
784.937	0.0159572
785.015	0.0160325
785.093	0.0158875
785.171	0.0158395
785.249	0.0160059
785.328	0.0158692
785.406	0.0160075
785.484	0.0160976
785.562	0.0159669
785.640	0.0162185
785.718	0.0162694
785.796	0.0162144
785.874	0.0161294
785.953	0.0162873
786.031	0.0163068
786.109	0.0163863
786.187	0.0164861
786.265	0.0164498
786.343	0.0163997
786.421	0.0163767
786.499	0.0165694
786.578	0.0164693
786.656	0.0165294
786.734	0.0164950
786.812	0.0164287
786.890	0.0163042
786.968	0.0164466
787.046	0.0164098
787.124	0.0162181
787.203	0.0162508
787.281	0.0161832
787.359	0.0162926
787.437	0.0161700
787.515	0.0161969
787.593	0.0160527
787.671	0.0160509
787.749	0.0160860
787.828	0.0160574
787.906	0.0159609
787.984	0.0159766
788.062	0.0160033
788.140	0.0160240
788.218	0.0161404
788.296	0.0159760
788.374	0.0161386
788.453	0.0161813
788.531	0.0160541
788.609	0.0161827
788.687	0.0161702
788.765	0.0162202
788.843	0.0160767
788.921	0.0160661
788.999	0.0162136
789.078	0.0162397
789.156	0.0161934
789.234	0.0160565
789.312	0.0162392
789.390	0.0161794
789.468	0.0162975
789.546	0.0162830
789.624	0.0163216
789.703	0.0163800
789.781	0.0162601
789.859	0.0161252
789.937	0.0162573
790.015	0.0163212
790.093	0.0161074
790.171	0.0162226
790.249	0.0161700
790.328	0.0162404
790.406	0.0163044
790.484	0.0164548
790.562	0.0163953
790.640	0.0163787
790.718	0.0163423
790.796	0.0162671
790.874	0.0163268
790.953	0.0163896
791.031	0.0165872
791.109	0.0164407
791.187	0.0162829
791.265	0.0161812
791.343	0.0163238
791.421	0.0163178
791.499	0.0162691
791.578	0.0162663
791.656	0.0163198
791.734	0.0161982
791.812	0.0162249
791.890	0.0161709
791.968	0.0163084
792.046	0.0163574
792.124	0.0161804
792.203	0.0162270
792.281	0.0160741
792.359	0.0161374
792.437	0.0162345
792.515	0.0161173
792.593	0.0160918
792.671	0.0159568
792.749	0.0160232
792.828	0.0159392
792.906	0.0160275
792.984	0.0159446
793.062	0.0158888
793.140	0.0159679
793.218	0.0158381
793.296	0.0158695
793.374	0.0159629
793.453	0.0158414
793.531	0.0159809
793.609	0.0160349
793.687	0.0159521
793.765	0.0160546
793.843	0.0159809
793.921	0.0159811
793.999	0.0161587
794.078	0.0162186
794.156	0.0160857
794.234	0.0162186
794.312	0.0161242
794.390	0.0162567
794.468	0.0162459
794.546	0.0164178
794.624	0.0164080
794.703	0.0164664
794.781	0.0163884
794.859	0.0164760
794.937	0.0164162
795.015	0.0164068
795.093	0.0163088
795.171	0.0164988
795.249	0.0165694
795.328	0.0165027
795.406	0.0163354
795.484	0.0164843
795.562	0.0165036
795.640	0.0164253
795.718	0.0164912
795.796	0.0165501
795.874	0.0163461
795.953	0.0165024
796.031	0.0164039
796.109	0.0163164
796.187	0.0163264
796.265	0.0162156
796.343	0.0163300
796.421	0.0159990
796.499	0.0161610
796.578	0.0160886
796.656	0.0159641
796.734	0.0159457
796.812	0.0159490
796.890	0.0160167
796.968	0.0159678
797.046	0.0158831
797.124	0.0157729
797.203	0.0157636
797.281	0.0159344
797.359	0.0158254
797.437	0.0156802
797.515	0.0158022
797.593	0.0158878
797.671	0.0157412
797.749	0.0158810
797.828	0.0158904
797.906	0.0160752
797.984	0.0159655
798.062	0.0161152
798.140	0.0161213
798.218	0.0162974
798.296	0.0164638
798.374	0.0165012
798.453	0.0164207
798.531	0.0164483
798.609	0.0167448
798.687	0.0166786
798.765	0.0165802
798.843	0.0167007
798.921	0.0167155
798.999	0.0167551
799.078	0.0165252
799.156	0.0165622
799.234	0.0167134
799.312	0.0166890
799.390	0.0165895
799.468	0.0164732
799.546	0.0164648
799.624	0.0163879
799.703	0.0164236
799.781	0.0162998
799.859	0.0163814
799.937	0.0163376
800.015	0.0161143
800.093	0.0161887
800.171	0.0160479
800.249	0.0160287
800.328	0.0159985
800.406	0.0158249
800.484	0.0159070
800.562	0.0158103
800.640	0.0159059
800.718	0.0159013
800.796	0.0160032
800.874	0.0158925
800.953	0.0159306
801.031	0.0160148
801.109	0.0160087
801.187	0.0160498
801.265	0.0161382
801.343	0.0162498
801.421	0.0160094
801.499	0.0162979
801.578	0.0164106
801.656	0.0162779
801.734	0.0164342
801.812	0.0165173
801.890	0.0164478
801.968	0.0165869
802.046	0.0165517
802.124	0.0165077
802.203	0.0165932
802.281	0.0165231
802.359	0.0165499
802.437	0.0164398
802.515	0.0163827
802.593	0.0163793
802.671	0.0162960
802.749	0.0163947
802.828	0.0162358
802.906	0.0162386
802.984	0.0161594
803.062	0.0161160
803.140	0.0161967
803.218	0.0162546
803.296	0.0163042
803.374	0.0161892
803.453	0.0162688
803.531	0.0161734
803.609	0.0161446
803.687	0.0162908
803.765	0.0162471
803.843	0.0160801
803.921	0.0160707
803.999	0.0161748
804.078	0.0161761
804.156	0.0160925
804.234	0.0162400
804.312	0.0161209
804.390	0.0160336
804.468	0.0161015
804.546	0.0160648
804.624	0.0162241
804.703	0.0160316
804.781	0.0160620
804.859	0.0160233
804.937	0.0160543
805.015	0.0159557
805.093	0.0160284
805.171	0.0160818
805.249	0.0159843
805.328	0.0159673
805.406	0.0158576
805.484	0.0159996
805.562	0.0160133
805.640	0.0159439
805.718	0.0160540
805.796	0.0161438
805.874	0.0160621
805.953	0.0163146
806.031	0.0162685
806.109	0.0162462
806.187	0.0161927
806.265	0.0163794
806.343	0.0164735
806.421	0.0164029
806.499	0.0164066
806.578	0.0164899
806.656	0.0165264
806.734	0.0165102
806.812	0.0166338
806.890	0.0166161
806.968	0.0164940
807.046	0.0165856
807.124	0.0166608
807.203	0.0165562
807.281	0.0166753
807.359	0.0166079
807.437	0.0165141
807.515	0.0165315
807.593	0.0163625
807.671	0.0164494
807.749	0.0163163
807.828	0.0163396
807.906	0.0161968
807.984	0.0163182
808.062	0.0162428
808.140	0.0162229
808.218	0.0162374
808.296	0.0162800
808.374	0.0162529
808.453	0.0161678
808.531	0.0162458
808.609	0.0161235
808.687	0.0160769
808.765	0.0161755
808.843	0.0160110
808.921	0.0162009
808.999	0.0161688
809.078	0.0161137
809.156	0.0161148
809.234	0.0160647
809.312	0.0160532
809.390	0.0159657
809.468	0.0160252
809.546	0.0161136
809.624	0.0161208
809.703	0.0159386
809.781	0.0160227
809.859	0.0160379
809.937	0.0160583
810.015	0.0159553
810.093	0.0161897
810.171	0.0162827
810.249	0.0161712
810.328	0.0162389
810.406	0.0161802
810.484	0.0162450
810.562	0.0163217
810.640	0.0163774
810.718	0.0164262
810.796	0.0164768
810.874	0.0166204
810.953	0.0164756
811.031	0.0164459
811.109	0.0165745
811.187	0.0164946
811.265	0.0165935
811.343	0.0166244
811.421	0.0166246
811.499	0.0165365
811.578	0.0164862
811.656	0.0165124
811.734	0.0163978
811.812	0.0163132
811.890	0.0163268
811.968	0.0163948
812.046	0.0163965
812.124	0.0161923
812.203	0.0161263
812.281	0.0162708
812.359	0.0162941
812.437	0.0160239
812.515	0.0160098
812.593	0.0161086
812.671	0.0160754
812.749	0.0161201
812.828	0.0160242
812.906	0.0159712
812.984	0.0159159
813.062	0.0159678
813.140	0.0159154
813.218	0.0160913
813.296	0.0161753
813.374	0.0161374
813.453	0.0162151
813.531	0.0161558
813.609	0.0161835
813.687	0.0162222
813.765	0.0162440
813.843	0.0164331
813.921	0.0162924
813.999	0.0163332
814.078	0.0164072
814.156	0.0165868
814.234	0.0166650
814.312	0.0165292
814.390	0.0165482
814.468	0.0165570
814.546	0.0164495
814.624	0.0166140
814.703	0.0165536
814.781	0.0165282
814.859	0.0163658
814.937	0.0163327
815.015	0.0161770
815.093	0.0161556
815.171	0.0162558
815.249	0.0160423
815.328	0.0159288
815.406	0.0159400
815.484	0.0158791
815.562	0.0158826
815.640	0.0157482
815.718	0.0158928
815.796	0.0158566
815.874	0.0158971
815.953	0.0158225
816.031	0.0158778
816.109	0.0159722
816.187	0.0158963
816.265	0.0158354
816.343	0.0158055
816.421	0.0159566
816.499	0.0159898
816.578	0.0160197
816.656	0.0161280
816.734	0.0162729
816.812	0.0162084
816.890	0.0164417
816.968	0.0163604
817.046	0.0164285
817.124	0.0165045
817.203	0.0165176
817.281	0.0163748
817.359	0.0165626
817.437	0.0165510
817.515	0.0164905
817.593	0.0166087
817.671	0.0166218
817.749	0.0165077
817.828	0.0166049
817.906	0.0166671
817.984	0.0165401
818.062	0.0164964
818.140	0.0164385
818.218	0.0164418
818.296	0.0163670
818.374	0.0163879
818.453	0.0163531
818.531	0.0163956
818.609	0.0162830
818.687	0.0160336
818.765	0.0161646
818.843	0.0162838
818.921	0.0162188
818.999	0.0161186
819.078	0.0160782
819.156	0.0161466
819.234	0.0162088
819.312	0.0161913
819.390	0.0163145
819.468	0.0162621
819.546	0.0162939
819.624	0.0164028
819.703	0.0164350
819.781	0.0163599
819.859	0.0163721
819.937	0.0164433
820.015	0.0163007
820.093	0.0162266
820.171	0.0163071
820.249	0.0164036
820.328	0.0161769
820.406	0.0163355
820.484	0.0162873
820.562	0.0162484
820.640	0.0161742
820.718	0.0161935
820.796	0.0163821
820.874	0.0162093
820.953	0.0160495
821.031	0.0161999
821.109	0.0161119
821.187	0.0160162
821.265	0.0161282
821.343	0.0161471
821.421	0.0159818
821.499	0.0160605
821.578	0.0160893
821.656	0.0162273
821.734	0.0162553
821.812	0.0162067
821.890	0.0161659
821.968	0.0161993
822.046	0.0161605
822.124	0.0163302
822.203	0.0161890
822.281	0.0162117
822.359	0.0162914
822.437	0.0161898
822.515	0.0162951
822.593	0.0163783
822.671	0.0163876
822.749	0.0164698
822.828	0.0163391
822.906	0.0162224
822.984	0.0163720
823.062	0.0164350
823.140	0.0164678
823.218	0.0162962
823.296	0.0164605
823.374	0.0164306
823.453	0.0163535
823.531	0.0164606
823.609	0.0165157
823.687	0.0164492
823.765	0.0165981
823.843	0.0163492
823.921	0.0163509
823.999	0.0162881
824.078	0.0163197
824.156	0.0162674
824.234	0.0160973
824.312	0.0161400
824.390	0.0160970
824.468	0.0162416
824.546	0.0161829
824.624	0.0161140
824.703	0.0160920
824.781	0.0161472
824.859	0.0161170
824.937	0.0160287
825.015	0.0162427
825.093	0.0161394
825.171	0.0161549
825.249	0.0162677
825.328	0.0163189
825.406	0.0163677
825.484	0.0162833
825.562	0.0161719
825.640	0.0164545
825.718	0.0163103
825.796	0.0164381
825.874	0.0164071
825.953	0.0163380
826.031	0.0164589
826.109	0.0165754
826.187	0.0163319
826.265	0.0164969
826.343	0.0162199
826.421	0.0162436
826.499	0.0163523
826.578	0.0162459
826.656	0.0162397
826.734	0.0162616
826.812	0.0162233
826.890	0.0162895
826.968	0.0161069
827.046	0.0160963
827.124	0.0162304
827.203	0.0160679
827.281	0.0161445
827.359	0.0161252
827.437	0.0160495
827.515	0.0160680
827.593	0.0161523
827.671	0.0160101
827.749	0.0159511
827.828	0.0159806
827.906	0.0159465
827.984	0.0159704
828.062	0.0158959
828.140	0.0158272
828.218	0.0159256
828.296	0.0159351
828.374	0.0160130
828.453	0.0159888
828.531	0.0159887
828.609	0.0160153
828.687	0.0161678
828.765	0.0163129
828.843	0.0162144
828.921	0.0162954
828.999	0.0162708
829.078	0.0163902
829.156	0.0164113
829.234	0.0165556
829.312	0.0164864
829.390	0.0164920
829.468	0.0164974
829.546	0.0164172
829.624	0.0164793
829.703	0.0165899
829.781	0.0166429
829.859	0.0164180
829.937	0.0166697
830.015	0.0166131
830.093	0.0164855
830.171	0.0166399
830.249	0.0166678
830.328	0.0165119
830.406	0.0164437
830.484	0.0165253
830.562	0.0165192
830.640	0.0166154
830.718	0.0164842
830.796	0.0161950
830.874	0.0161870
830.953	0.0160561
831.031	0.0162222
831.109	0.0162057
831.187	0.0161465
831.265	0.0160936
831.343	0.0160712
831.421	0.0160236
831.499	0.0159564
831.578	0.0158518
831.656	0.0159370
831.734	0.0160085
831.812	0.0158811
831.890	0.0158970
831.968	0.0159032
832.046	0.0157899
832.124	0.0159607
832.203	0.0159446
832.281	0.0158254
832.359	0.0160115
832.437	0.0160813
832.515	0.0160257
832.593	0.0162039
832.671	0.0162402
832.749	0.0162037
832.828	0.0163671
832.906	0.0163905
832.984	0.0165960
833.062	0.0166261
833.140	0.0165280
833.218	0.0167309
833.296	0.0169363
833.374	0.0167963
833.453	0.0168180
833.531	0.0168201
833.609	0.0167787
833.687	0.0168449
833.765	0.0168051
833.843	0.0168565
833.921	0.0168098
833.999	0.0165707
834.078	0.0165305
834.156	0.0164912
834.234	0.0164529
834.312	0.0163596
834.390	0.0161937
834.468	0.0162547
834.546	0.0161110
834.624	0.0160678
834.703	0.0159954
834.781	0.0159459
834.859	0.0159090
834.937	0.0158287
835.015	0.0157659
835.093	0.0156575
835.171	0.0157641
835.249	0.0158406
835.328	0.0155932
835.406	0.0157221
835.484	0.0157159
835.562	0.0158365
835.640	0.0158453
835.718	0.0158478
835.796	0.0158844
835.874	0.0160065
835.953	0.0160495
836.031	0.0161227
836.109	0.0162142
836.187	0.0162335
836.265	0.0163234
836.343	0.0164356
836.421	0.0166336
836.499	0.0163663
836.578	0.0166065
836.656	0.0165723
836.734	0.0166058
836.812	0.0166825
836.890	0.0165481
836.968	0.0164173
837.046	0.0165998
837.124	0.0165031
837.203	0.0162882
837.281	0.0164011
837.359	0.0164004
837.437	0.0164150
837.515	0.0164114
837.593	0.0161791
837.671	0.0163906
837.749	0.0161279
837.828	0.0163609
837.906	0.0162244
837.984	0.0163761
838.062	0.0163084
838.140	0.0162682
838.218	0.0162671
838.296	0.0161050
838.374	0.0162093
838.453	0.0162110
838.531	0.0162029
838.609	0.0162172
838.687	0.0161402
838.765	0.0161137
838.843	0.0160853
838.921	0.0160715
838.999	0.0161162
839.078	0.0160262
839.156	0.0160520
839.234	0.0160009
839.312	0.0161457
839.390	0.0161020
839.468	0.0161031
839.546	0.0159687
839.624	0.0160689
839.703	0.0159949
839.781	0.0159289
839.859	0.0160401
839.937	0.0159289
840.015	0.0158583
840.093	0.0158202
840.171	0.0158302
840.249	0.0160145
840.328	0.0157892
840.406	0.0157840
840.484	0.0158702
840.562	0.0159914
840.640	0.0159005
840.718	0.0158605
840.796	0.0160184
840.874	0.0159675
840.953	0.0160725
841.031	0.0159478
841.109	0.0159489
841.187	0.0160484
841.265	0.0161830
841.343	0.0160822
841.421	0.0162136
841.499	0.0162749
841.578	0.0163625
841.656	0.0163061
841.734	0.0163970
841.812	0.0166486
841.890	0.0165144
841.968	0.0165868
842.046	0.0166405
842.124	0.0166957
842.203	0.0166630
842.281	0.0167871
842.359	0.0166048
842.437	0.0166073
842.515	0.0167315
842.593	0.0164577
842.671	0.0166474
842.749	0.0166084
842.828	0.0166016
842.906	0.0164207
842.984	0.0163332
843.062	0.0163644
843.140	0.0163950
843.218	0.0163408
843.296	0.0161777
843.374	0.0162357
843.453	0.0161141
843.531	0.0160120
843.609	0.0159628
843.687	0.0160706
843.765	0.0159345
843.843	0.0157604
843.921	0.0158775
843.999	0.0157835
844.078	0.0157835
844.156	0.0159151
844.234	0.0157124
844.312	0.0157187
844.390	0.0158652
844.468	0.0158230
844.546	0.0158417
844.624	0.0159276
844.703	0.0158338
844.781	0.0158482
844.859	0.0157372
844.937	0.0158779
845.015	0.0159322
845.093	0.0157955
845.171	0.0159006
845.249	0.0159777
845.328	0.0160210
845.406	0.0161347
845.484	0.0162314
845.562	0.0162099
845.640	0.0162452
845.718	0.0162347
845.796	0.0162130
845.874	0.0163036
845.953	0.0166561
846.031	0.0164886
846.109	0.0163783
846.187	0.0165456
846.265	0.0166142
846.343	0.0166104
846.421	0.0165486
846.499	0.0165935
846.578	0.0166864
846.656	0.0165663
846.734	0.0165752
846.812	0.0165106
846.890	0.0162829
846.968	0.0165685
847.046	0.0164486
847.124	0.0162888
847.203	0.0165253
847.281	0.0162251
847.359	0.0162405
847.437	0.0162920
847.515	0.0163165
847.593	0.0163498
847.671	0.0163265
847.749	0.0162466
847.828	0.0162903
847.906	0.0161437
847.984	0.0162585
848.062	0.0162364
848.140	0.0161777
848.218	0.0161938
848.296	0.0161417
848.374	0.0161078
848.453	0.0161050
848.531	0.0161485
848.609	0.0160534
848.687	0.0159811
848.765	0.0159184
848.843	0.0159505
848.921	0.0160384
848.999	0.0160625
849.078	0.0160026
849.156	0.0160197
849.234	0.0160967
849.312	0.0161205
849.390	0.0160452
849.468	0.0161091
849.546	0.0161378
849.624	0.0162513
849.703	0.0162762
849.781	0.0163170
849.859	0.0163131
849.937	0.0162631
850.015	0.0161408
850.093	0.0161755
850.171	0.0162903
850.249	0.0163168
850.328	0.0162284
850.406	0.0163126
850.484	0.0162667
850.562	0.0162697
850.640	0.0163472
850.718	0.0163651
850.796	0.0163860
850.874	0.0163097
850.953	0.0161375
851.031	0.0163335
851.109	0.0164449
851.187	0.0164005
851.265	0.0162003
851.343	0.0163348
851.421	0.0162901
851.499	0.0163046
851.578	0.0162659
851.656	0.0162194
851.734	0.0161943
851.812	0.0161926
851.890	0.0163283
851.968	0.0161891
852.046	0.0161847
852.124	0.0160950
852.203	0.0160762
852.281	0.0160932
852.359	0.0160474
852.437	0.0159650
852.515	0.0161264
852.593	0.0160859
852.671	0.0160970
852.749	0.0161668
852.828	0.0161376
852.906	0.0161172
852.984	0.0160209
853.062	0.0162096
853.140	0.0161656
853.218	0.0163026
853.296	0.0160272
853.374	0.0161420
853.453	0.0163625
853.531	0.0162361
853.609	0.0162554
853.687	0.0162654
853.765	0.0161534
853.843	0.0163920
853.921	0.0163103
853.999	0.0163638
854.078	0.0163741
854.156	0.0163265
854.234	0.0163741
854.312	0.0162843
854.390	0.0163062
854.468	0.0162930
854.546	0.0164108
854.624	0.0163352
854.703	0.0163513
854.781	0.0162384
854.859	0.0161967
854.937	0.0161533
855.015	0.0162913
855.093	0.0162897
855.171	0.0162436
855.249	0.0161446
855.328	0.0160843
855.406	0.0162410
855.484	0.0161834
855.562	0.0161101
855.640	0.0161296
855.718	0.0161671
855.796	0.0162435
855.874	0.0163182
855.953	0.0161885
856.031	0.0162450
856.109	0.0163302
856.187	0.0162798
856.265	0.0163543
856.343	0.0164249
856.421	0.0163204
856.499	0.0164026
856.578	0.0165265
856.656	0.0162886
856.734	0.0163390
856.812	0.0164178
856.890	0.0163139
856.968	0.0163749
857.046	0.0163491
857.124	0.0162985
857.203	0.0162724
857.281	0.0162157
857.359	0.0161957
857.437	0.0162054
857.515	0.0161581
857.593	0.0160493
857.671	0.0161254
857.749	0.0160080
857.828	0.0160236
857.906	0.0161095
857.984	0.0160245
858.062	0.0160980
858.140	0.0161013
858.218	0.0160061
858.296	0.0159385
858.374	0.0160829
858.453	0.0162086
858.531	0.0158912
858.609	0.0160105
858.687	0.0162422
858.765	0.0160571
858.843	0.0161326
858.921	0.0161288
858.999	0.0159811
859.078	0.0161288
859.156	0.0161313
859.234	0.0161179
859.312	0.0161118
859.390	0.0160634
859.468	0.0162729
859.546	0.0162330
859.624	0.0162113
859.703	0.0162881
859.781	0.0161341
859.859	0.0162733
859.937	0.0162440
860.015	0.0162297
860.093	0.0161472
860.171	0.0162963
860.249	0.0163380
860.328	0.0162324
860.406	0.0162670
860.484	0.0162628
860.562	0.0161213
860.640	0.0161952
860.718	0.0161810
860.796	0.0162082
860.874	0.0163132
860.953	0.0161972
861.031	0.0162171
861.109	0.0161457
861.187	0.0160519
861.265	0.0161572
861.343	0.0161600
861.421	0.0162273
861.499	0.0162183
861.578	0.0160380
861.656	0.0161520
861.734	0.0161339
861.812	0.0160970
861.890	0.0161531
861.968	0.0161762
862.046	0.0161662
862.124	0.0162009
862.203	0.0162624
862.281	0.0162758
862.359	0.0162794
862.437	0.0162706
862.515	0.0161697
862.593	0.0161497
862.671	0.0162534
862.749	0.0162495
862.828	0.0161584
862.906	0.0161976
862.984	0.0161028
863.062	0.0161802
863.140	0.0161851
863.218	0.0161850
863.296	0.0160361
863.374	0.0160774
863.453	0.0161745
863.531	0.0162595
863.609	0.0163697
863.687	0.0160829
863.765	0.0161901
863.843	0.0162091
863.921	0.0162087
863.999	0.0162794
864.078	0.0163016
864.156	0.0161976
864.234	0.0161890
864.312	0.0162865
864.390	0.0162436
864.468	0.0163554
864.546	0.0162098
864.624	0.0161454
864.703	0.0162093
864.781	0.0162103
864.859	0.0162741
864.937	0.0161737
865.015	0.0160188
865.093	0.0162522
865.171	0.0162157
865.249	0.0161404
865.328	0.0162126
865.406	0.0162516
865.484	0.0163956
865.562	0.0162106
865.640	0.0161465
865.718	0.0163229
865.796	0.0163509
865.874	0.0163005
865.953	0.0162505
866.031	0.0162849
866.109	0.0163438
866.187	0.0162892
866.265	0.0163451
866.343	0.0163623
866.421	0.0163095
866.499	0.0163720
866.578	0.0162051
866.656	0.0161955
866.734	0.0163446
866.812	0.0162982
866.890	0.0162434
866.968	0.0162630
867.046	0.0163670
867.124	0.0163476
867.203	0.0162300
867.281	0.0161958
867.359	0.0163283
867.437	0.0161998
867.515	0.0161782
867.593	0.0161344
867.671	0.0162270
867.749	0.0161723
867.828	0.0160029
867.906	0.0161884
867.984	0.0161286
868.062	0.0161622
868.140	0.0162373
868.218	0.0161230
868.296	0.0162818
868.374	0.0161485
868.453	0.0161574
868.531	0.0161962
868.609	0.0162175
868.687	0.0162857
868.765	0.0161535
868.843	0.0162347
868.921	0.0163746
868.999	0.0163186
869.078	0.0162335
869.156	0.0162683
869.234	0.0162074
869.312	0.0164404
869.390	0.0163175
869.468	0.0163666
869.546	0.0165016
869.624	0.0163613
869.703	0.0163618
869.781	0.0163239
869.859	0.0163483
869.937	0.0162759
870.015	0.0162103
870.093	0.0161843
870.171	0.0162791
870.249	0.0163889
870.328	0.0162909
870.406	0.0163134
870.484	0.0163560
870.562	0.0162487
870.640	0.0162135
870.718	0.0162276
870.796	0.0164038
870.874	0.0162154
870.953	0.0162918
871.031	0.0162350
871.109	0.0161916
871.187	0.0162765
871.265	0.0163059
871.343	0.0163651
871.421	0.0162290
871.499	0.0163913
871.578	0.0163875
871.656	0.0164607
871.734	0.0164453
871.812	0.0163310
871.890	0.0164066
871.968	0.0163258
872.046	0.0163718
872.124	0.0162895
872.203	0.0162699
872.281	0.0162719
872.359	0.0160883
872.437	0.0162291
872.515	0.0163030
872.593	0.0161631
872.671	0.0163897
872.749	0.0163033
872.828	0.0163184
872.906	0.0162212
872.984	0.0162366
873.062	0.0162035
873.140	0.0162279
873.218	0.0162036
873.296	0.0164086
873.374	0.0161377
873.453	0.0163302
873.531	0.0164139
873.609	0.0163005
873.687	0.0162147
873.765	0.0160236
873.843	0.0162351
873.921	0.0163726
873.999	0.0163680
874.078	0.0163359
874.156	0.0163493
874.234	0.0164501
874.312	0.0162612
874.390	0.0162804
874.468	0.0162257
874.546	0.0162809
874.624	0.0163875
874.703	0.0162576
874.781	0.0161341
874.859	0.0161375
874.937	0.0161674
875.015	0.0162736
875.093	0.0162756
875.171	0.0161057
875.249	0.0161815
875.328	0.0162280
875.406	0.0161915
875.484	0.0163071
875.562	0.0163631
875.640	0.0163313
875.718	0.0162445
875.796	0.0163613
875.874	0.0162078
875.953	0.0162244
876.031	0.0163342
876.109	0.0163466
876.187	0.0161866
876.265	0.0162656
876.343	0.0162512
876.421	0.0162482
876.499	0.0164680
876.578	0.0163554
876.656	0.0162312
876.734	0.0164989
876.812	0.0164456
876.890	0.0163342
876.968	0.0163464
877.046	0.0164526
877.124	0.0164088
877.203	0.0164125
877.281	0.0165083
877.359	0.0164809
877.437	0.0164829
877.515	0.0165012
877.593	0.0165511
877.671	0.0164864
877.749	0.0163536
877.828	0.0163832
877.906	0.0162736
877.984	0.0163801
878.062	0.0162064
878.140	0.0161601
878.218	0.0161890
878.296	0.0161276
878.374	0.0162743
878.453	0.0161678
878.531	0.0161983
878.609	0.0162466
878.687	0.0160848
878.765	0.0162917
878.843	0.0163613
878.921	0.0161497
878.999	0.0160598
879.078	0.0162990
879.156	0.0162910
879.234	0.0162467
879.312	0.0163272
879.390	0.0164292
879.468	0.0162823
879.546	0.0163491
879.624	0.0162882
879.703	0.0162345
879.781	0.0163515
879.859	0.0162766
879.937	0.0164343
880.015	0.0163508
880.093	0.0162413
880.171	0.0163378
880.249	0.0163214
880.328	0.0162244
880.406	0.0161842
880.484	0.0161765
880.562	0.0163221
880.640	0.0161608
880.718	0.0162312
880.796	0.0162089
880.874	0.0161318
880.953	0.0161171
881.031	0.0161403
881.109	0.0161476
881.187	0.0162106
881.265	0.0161809
881.343	0.0160268
881.421	0.0160147
881.499	0.0161047
881.578	0.0161172
881.656	0.0161153
881.734	0.0161669
881.812	0.0161210
881.890	0.0161435
881.968	0.0161436
882.046	0.0161472
882.124	0.0162595
882.203	0.0162560
882.281	0.0161813
882.359	0.0164104
882.437	0.0163188
882.515	0.0163327
882.593	0.0162720
882.671	0.0163885
882.749	0.0164283
882.828	0.0163774
882.906	0.0162980
882.984	0.0164626
883.062	0.0164885
883.140	0.0164721
883.218	0.0164513
883.296	0.0164164
883.374	0.0162949
883.453	0.0163956
883.531	0.0164115
883.609	0.0164413
883.687	0.0164333
883.765	0.0164103
883.843	0.0163231
883.921	0.0163609
883.999	0.0163996
884.078	0.0162543
884.156	0.0161774
884.234	0.0162811
884.312	0.0162345
884.390	0.0163695
884.468	0.0162676
884.546	0.0161605
884.624	0.0161214
884.703	0.0162981
884.781	0.0161736
884.859	0.0161856
884.937	0.0161773
885.015	0.0160757
885.093	0.0161987
885.171	0.0162638
885.249	0.0162800
885.328	0.0163140
885.406	0.0161272
885.484	0.0162459
885.562	0.0163160
885.640	0.0162365
885.718	0.0162061
885.796	0.0163366
885.874	0.0164185
885.953	0.0162894
886.031	0.0163362
886.109	0.0162310
886.187	0.0162851
886.265	0.0162243
886.343	0.0162471
886.421	0.0162896
886.499	0.0163532
886.578	0.0162386
886.656	0.0163280
886.734	0.0162092
886.812	0.0162363
886.890	0.0163035
886.968	0.0163125
887.046	0.0162726
887.124	0.0162170
887.203	0.0163161
887.281	0.0161417
887.359	0.0162892
887.437	0.0162766
887.515	0.0163810
887.593	0.0164162
887.671	0.0163657
887.749	0.0162826
887.828	0.0165365
887.906	0.0164290
887.984	0.0164385
888.062	0.0164772
888.140	0.0165656
888.218	0.0165381
888.296	0.0165013
888.374	0.0165020
888.453	0.0165765
888.531	0.0165941
888.609	0.0166255
888.687	0.0165271
888.765	0.0165477
888.843	0.0166032
888.921	0.0165117
888.999	0.0162671
889.078	0.0163605
889.156	0.0164631
889.234	0.0162022
889.312	0.0161087
889.390	0.0162793
889.468	0.0162061
889.546	0.0162677
889.624	0.0160983
889.703	0.0161108
889.781	0.0162603
889.859	0.0161562
889.937	0.0161645
890.015	0.0161491
890.093	0.0162823
890.171	0.0160682
890.249	0.0161225
890.328	0.0162270
890.406	0.0162103
890.484	0.0162267
890.562	0.0161292
890.640	0.0161945
890.718	0.0162498
890.796	0.0162176
890.874	0.0162423
890.953	0.0162175
891.031	0.0162432
891.109	0.0162965
891.187	0.0162039
891.265	0.0163283
891.343	0.0162820
891.421	0.0162737
891.499	0.0164187
891.578	0.0164046
891.656	0.0163165
891.734	0.0163761
891.812	0.0163963
891.890	0.0164098
891.968	0.0163634
892.046	0.0163866
892.124	0.0160347
892.203	0.0163192
892.281	0.0162155
892.359	0.0163235
892.437	0.0163524
892.515	0.0163090
892.593	0.0164175
892.671	0.0163062
892.749	0.0162672
892.828	0.0163046
892.906	0.0161971
892.984	0.0162868
893.062	0.0163078
893.140	0.0163818
893.218	0.0162519
893.296	0.0162112
893.374	0.0162474
893.453	0.0163243
893.531	0.0162928
893.609	0.0163081
893.687	0.0162994
893.765	0.0162372
893.843	0.0162289
893.921	0.0162112
893.999	0.0163428
894.078	0.0162929
894.156	0.0162390
894.234	0.0162565
894.312	0.0162150
894.390	0.0162123
894.468	0.0163002
894.546	0.0162778
894.624	0.0162115
894.703	0.0162852
894.781	0.0163107
894.859	0.0162040
894.937	0.0161962
895.015	0.0162199
895.093	0.0162443
895.171	0.0163451
895.249	0.0161842
895.328	0.0162334
895.406	0.0162525
895.484	0.0161908
895.562	0.0162640
895.640	0.0162283
895.718	0.0162002
895.796	0.0161936
895.874	0.0161288
895.953	0.0161998
896.031	0.0162718
896.109	0.0163717
896.187	0.0161713
896.265	0.0161934
896.343	0.0162106
896.421	0.0163407
896.499	0.0162302
896.578	0.0163289
896.656	0.0162263
896.734	0.0162264
896.812	0.0162267
896.890	0.0164118
896.968	0.0161441
897.046	0.0162212
897.124	0.0163107
897.203	0.0162705
897.281	0.0161727
897.359	0.0162563
897.437	0.0162692
897.515	0.0161444
897.593	0.0162426
897.671	0.0163441
897.749	0.0162679
897.828	0.0161645
897.906	0.0163004
897.984	0.0162588
898.062	0.0162688
898.140	0.0162808
898.218	0.0163256
898.296	0.0163817
898.374	0.0163236
898.453	0.0162382
898.531	0.0163136
898.609	0.0162930
898.687	0.0162974
898.765	0.0162012
898.843	0.0163512
898.921	0.0163077
898.999	0.0163096
899.078	0.0164108
899.156	0.0162595
899.234	0.0162779
899.312	0.0162524
899.390	0.0162883
899.468	0.0164288
899.546	0.0163938
899.624	0.0163288
899.703	0.0162247
899.781	0.0161267
899.859	0.0163809
899.937	0.0163490
900.015	0.0162102
900.093	0.0162019
900.171	0.0162130
900.249	0.0162201
900.328	0.0161811
900.406	0.0161262
900.484	0.0161883
900.562	0.0161511
900.640	0.0161441
900.718	0.0160725
900.796	0.0161710
900.874	0.0161737
900.953	0.0161762
901.031	0.0162450
901.109	0.0161649
901.187	0.0161844
901.265	0.0162685
901.343	0.0161285
901.421	0.0161964
901.499	0.0162096
901.578	0.0162072
901.656	0.0161788
901.734	0.0161615
901.812	0.0159832
901.890	0.0159294
901.968	0.0163358
902.046	0.0162395
902.124	0.0161520
902.203	0.0161608
902.281	0.0162003
902.359	0.0161843
902.437	0.0162455
902.515	0.0162068
902.593	0.0161667
902.671	0.0162289
902.749	0.0163082
902.828	0.0163084
902.906	0.0161954
902.984	0.0162727
903.062	0.0162891
903.140	0.0162300
903.218	0.0162015
903.296	0.0162749
903.374	0.0163961
903.453	0.0164630
903.531	0.0164102
903.609	0.0165025
903.687	0.0163378
903.765	0.0164459
903.843	0.0165390
903.921	0.0164869
903.999	0.0163061
904.078	0.0163651
904.156	0.0164998
904.234	0.0165716
904.312	0.0163335
904.390	0.0163274
904.468	0.0163340
904.546	0.0162892
904.624	0.0162279
904.703	0.0161604
904.781	0.0161748
904.859	0.0162907
904.937	0.0161429
905.015	0.0163435
905.093	0.0162714
905.171	0.0161263
905.249	0.0161305
905.328	0.0161810
905.406	0.0162330
905.484	0.0160043
905.562	0.0161146
905.640	0.0161552
905.718	0.0162948
905.796	0.0162103
905.874	0.0160891
905.953	0.0162794
906.031	0.0162764
906.109	0.0161211
906.187	0.0160834
906.265	0.0161533
906.343	0.0162290
906.421	0.0161742
906.499	0.0162636
906.578	0.0162551
906.656	0.0161786
906.734	0.0162172
906.812	0.0162129
906.890	0.0162746
906.968	0.0162470
907.046	0.0161433
907.124	0.0162821
907.203	0.0162186
907.281	0.0162640
907.359	0.0162813
907.437	0.0161666
907.515	0.0161948
907.593	0.0163239
907.671	0.0162234
907.749	0.0164021
907.828	0.0163436
907.906	0.0163489
907.984	0.0163387
908.062	0.0162597
908.140	0.0162853
908.218	0.0163300
908.296	0.0163505
908.374	0.0164027
908.453	0.0163879
908.531	0.0165070
908.609	0.0164377
908.687	0.0163664
908.765	0.0162938
908.843	0.0163000
908.921	0.0164243
908.999	0.0164163
909.078	0.0165474
909.156	0.0164365
909.234	0.0164178
909.312	0.0164784
909.390	0.0165084
909.468	0.0164581
909.546	0.0165836
909.624	0.0164115
909.703	0.0164615
909.781	0.0163773
909.859	0.0163518
909.937	0.0163713
910.015	0.0163407
910.093	0.0163214
910.171	0.0163487
910.249	0.0164553
910.328	0.0164207
910.406	0.0162650
910.484	0.0161753
910.562	0.0163348
910.640	0.0163267
910.718	0.0163144
910.796	0.0163160
910.874	0.0163197
910.953	0.0161981
911.031	0.0163906
911.109	0.0163410
911.187	0.0163120
911.265	0.0163261
911.343	0.0163413
911.421	0.0161666
911.499	0.0162812
911.578	0.0163583
911.656	0.0162956
911.734	0.0162695
911.812	0.0163529
911.890	0.0161616
911.968	0.0163435
912.046	0.0161781
912.124	0.0161284
912.203	0.0162922
912.281	0.0163005
912.359	0.0162268
912.437	0.0161495
912.515	0.0161492
912.593	0.0161600
912.671	0.0160765
912.749	0.0160605
912.828	0.0160851
912.906	0.0162178
912.984	0.0161626
913.062	0.0160896
913.140	0.0161072
913.218	0.0163085
913.296	0.0162595
913.374	0.0162794
913.453	0.0162181
913.531	0.0162850
913.609	0.0162284
913.687	0.0163617
913.765	0.0163196
913.843	0.0162376
913.921	0.0161737
913.999	0.0162611
914.078	0.0163370
914.156	0.0162723
914.234	0.0162685
914.312	0.0163554
914.390	0.0162148
914.468	0.0163235
914.546	0.0162888
914.624	0.0163169
914.703	0.0163207
914.781	0.0162946
914.859	0.0163140
914.937	0.0162325
915.015	0.0163165
915.093	0.0162833
915.171	0.0162437
915.249	0.0163103
915.328	0.0163760
915.406	0.0163309
915.484	0.0163543
915.562	0.0163179
915.640	0.0163456
915.718	0.0163858
915.796	0.0164417
915.874	0.0162209
915.953	0.0163074
916.031	0.0162197
916.109	0.0163320
916.187	0.0162172
916.265	0.0162003
916.343	0.0163007
916.421	0.0162421
916.499	0.0161272
916.578	0.0160757
916.656	0.0163119
916.734	0.0161960
916.812	0.0160822
916.890	0.0162926
916.968	0.0162261
917.046	0.0162381
917.124	0.0161571
917.203	0.0161214
917.281	0.0162472
917.359	0.0163214
917.437	0.0160992
917.515	0.0163562
917.593	0.0163362
917.671	0.0161683
917.749	0.0163683
917.828	0.0162297
917.906	0.0163140
917.984	0.0163866
918.062	0.0162875
918.140	0.0161927
918.218	0.0163000
918.296	0.0161646
918.374	0.0162685
918.453	0.0163958
918.531	0.0162897
918.609	0.0162669
918.687	0.0161306
918.765	0.0162264
918.843	0.0162283
918.921	0.0161551
918.999	0.0163614
919.078	0.0162442
919.156	0.0163884
919.234	0.0162972
919.312	0.0162064
919.390	0.0164212
919.468	0.0163642
919.546	0.0162296
919.624	0.0163406
919.703	0.0163633
919.781	0.0162554
919.859	0.0162759
919.937	0.0164228
