06/10/2022	16:44:28	Ver.	4.1	UNKNOWN
Optical Delay	600.015094	Delta X		0.078125	Sweeps	1	Scan Rate	0/0
Coordinates	Axis 1	NaN	Axis 2	NaN	Axis 3	NaN	Axis 4	NaN	Axis 5	NaN	Axis 6	0.000000
TX Power	0.000000	RX Power	0.000000

600.015	0.0165682
600.093	0.0164738
600.171	0.0165882
600.249	0.0164680
600.328	0.0165288
600.406	0.0166591
600.484	0.0165405
600.562	0.0166414
600.640	0.0164642
600.718	0.0165662
600.796	0.0164948
600.874	0.0165469
600.953	0.0164249
601.031	0.0165533
601.109	0.0165639
601.187	0.0165062
601.265	0.0165764
601.343	0.0164926
601.421	0.0164691
601.499	0.0165571
601.578	0.0165031
601.656	0.0165744
601.734	0.0166588
601.812	0.0166199
601.890	0.0164902
601.968	0.0165591
602.046	0.0166255
602.124	0.0167831
602.203	0.0165954
602.281	0.0164211
602.359	0.0165678
602.437	0.0165907
602.515	0.0165569
602.593	0.0166327
602.671	0.0165325
602.749	0.0164516
602.828	0.0164352
602.906	0.0165532
602.984	0.0165374
603.062	0.0166033
603.140	0.0165995
603.218	0.0166035
603.296	0.0166536
603.374	0.0165816
603.453	0.0164677
603.531	0.0165739
603.609	0.0165169
603.687	0.0165155
603.765	0.0165504
603.843	0.0165267
603.921	0.0164699
603.999	0.0166679
604.078	0.0166302
604.156	0.0164620
604.234	0.0165287
604.312	0.0166872
604.390	0.0164723
604.468	0.0166164
604.546	0.0165315
604.624	0.0165911
604.703	0.0164861
604.781	0.0165698
604.859	0.0165540
604.937	0.0166685
605.015	0.0166375
605.093	0.0165260
605.171	0.0165896
605.249	0.0166218
605.328	0.0166305
605.406	0.0165791
605.484	0.0165426
605.562	0.0165382
605.640	0.0165450
605.718	0.0164433
605.796	0.0166130
605.874	0.0166207
605.953	0.0165824
606.031	0.0164734
606.109	0.0165197
606.187	0.0164597
606.265	0.0164781
606.343	0.0165122
606.421	0.0166695
606.499	0.0165157
606.578	0.0164218
606.656	0.0165816
606.734	0.0166103
606.812	0.0165353
606.890	0.0165701
606.968	0.0164623
607.046	0.0165565
607.124	0.0165807
607.203	0.0164995
607.281	0.0165821
607.359	0.0165416
607.437	0.0163750
607.515	0.0164874
607.593	0.0165314
607.671	0.0165445
607.749	0.0165405
607.828	0.0165077
607.906	0.0166794
607.984	0.0165925
608.062	0.0164592
608.140	0.0164741
608.218	0.0165006
608.296	0.0165731
608.374	0.0167072
608.453	0.0165538
608.531	0.0165017
608.609	0.0164873
608.687	0.0166053
608.765	0.0167099
608.843	0.0164760
608.921	0.0164462
608.999	0.0165977
609.078	0.0165936
609.156	0.0166062
609.234	0.0166016
609.312	0.0166712
609.390	0.0165792
609.468	0.0165719
609.546	0.0166019
609.624	0.0166098
609.703	0.0166816
609.781	0.0166255
609.859	0.0165649
609.937	0.0165786
610.015	0.0164645
610.093	0.0165814
610.171	0.0166408
610.249	0.0165582
610.328	0.0165953
610.406	0.0167056
610.484	0.0165617
610.562	0.0166752
610.640	0.0167088
610.718	0.0166233
610.796	0.0166877
610.874	0.0166457
610.953	0.0166754
611.031	0.0166368
611.109	0.0165847
611.187	0.0167815
611.265	0.0166290
611.343	0.0166389
611.421	0.0166171
611.499	0.0166448
611.578	0.0165728
611.656	0.0167323
611.734	0.0166001
611.812	0.0166676
611.890	0.0166155
611.968	0.0167480
612.046	0.0166569
612.124	0.0166888
612.203	0.0165604
612.281	0.0166097
612.359	0.0165302
612.437	0.0167844
612.515	0.0166867
612.593	0.0166660
612.671	0.0166864
612.749	0.0165306
612.828	0.0167056
612.906	0.0167200
612.984	0.0166802
613.062	0.0165963
613.140	0.0164522
613.218	0.0166452
613.296	0.0165784
613.374	0.0166714
613.453	0.0166843
613.531	0.0166849
613.609	0.0165898
613.687	0.0166778
613.765	0.0166562
613.843	0.0167382
613.921	0.0166908
613.999	0.0165998
614.078	0.0167920
614.156	0.0166116
614.234	0.0167272
614.312	0.0166808
614.390	0.0166749
614.468	0.0167673
614.546	0.0167824
614.624	0.0165765
614.703	0.0166183
614.781	0.0165893
614.859	0.0166341
614.937	0.0167378
615.015	0.0165874
615.093	0.0165041
615.171	0.0165919
615.249	0.0166331
615.328	0.0167462
615.406	0.0166341
615.484	0.0165764
615.562	0.0166123
615.640	0.0167635
615.718	0.0166935
615.796	0.0166982
615.874	0.0167154
615.953	0.0167196
616.031	0.0166349
616.109	0.0168342
616.187	0.0168609
616.265	0.0167038
616.343	0.0165805
616.421	0.0167523
616.499	0.0166216
616.578	0.0166920
616.656	0.0166730
616.734	0.0167355
616.812	0.0166781
616.890	0.0166207
616.968	0.0166220
617.046	0.0168586
617.124	0.0168578
617.203	0.0167216
617.281	0.0167619
617.359	0.0167070
617.437	0.0167516
617.515	0.0166644
617.593	0.0166749
617.671	0.0167074
617.749	0.0166743
617.828	0.0167463
617.906	0.0167530
617.984	0.0166376
618.062	0.0166587
618.140	0.0167114
618.218	0.0165565
618.296	0.0166557
618.374	0.0167654
618.453	0.0167106
618.531	0.0167355
618.609	0.0166372
618.687	0.0167163
618.765	0.0168013
618.843	0.0166844
618.921	0.0167096
618.999	0.0166774
619.078	0.0165800
619.156	0.0167194
619.234	0.0167297
619.312	0.0167689
619.390	0.0166721
619.468	0.0166670
619.546	0.0166738
619.624	0.0167679
619.703	0.0168204
619.781	0.0167620
619.859	0.0166477
619.937	0.0167718
620.015	0.0166532
620.093	0.0167877
620.171	0.0166949
620.249	0.0166647
620.328	0.0165263
620.406	0.0167287
620.484	0.0165527
620.562	0.0166476
620.640	0.0167410
620.718	0.0165597
620.796	0.0166484
620.874	0.0166465
620.953	0.0166711
621.031	0.0166568
621.109	0.0165510
621.187	0.0167606
621.265	0.0166215
621.343	0.0166605
621.421	0.0165916
621.499	0.0165745
621.578	0.0165501
621.656	0.0166016
621.734	0.0165822
621.812	0.0166389
621.890	0.0164903
621.968	0.0166949
622.046	0.0167139
622.124	0.0165694
622.203	0.0164895
622.281	0.0166872
622.359	0.0167001
622.437	0.0166522
622.515	0.0166425
622.593	0.0165400
622.671	0.0166535
622.749	0.0166721
622.828	0.0166721
622.906	0.0165438
622.984	0.0165588
623.062	0.0165579
623.140	0.0166660
623.218	0.0164566
623.296	0.0165726
623.374	0.0166559
623.453	0.0166508
623.531	0.0166535
623.609	0.0165443
623.687	0.0164917
623.765	0.0164633
623.843	0.0166017
623.921	0.0165300
623.999	0.0166669
624.078	0.0164994
624.156	0.0164759
624.234	0.0165635
624.312	0.0165267
624.390	0.0165330
624.468	0.0166519
624.546	0.0164973
624.624	0.0166081
624.703	0.0164595
624.781	0.0165121
624.859	0.0165060
624.937	0.0165844
625.015	0.0165770
625.093	0.0166202
625.171	0.0165825
625.249	0.0165713
625.328	0.0165630
625.406	0.0164877
625.484	0.0166536
625.562	0.0166096
625.640	0.0165680
625.718	0.0165388
625.796	0.0166149
625.874	0.0166944
625.953	0.0166249
626.031	0.0166316
626.109	0.0165500
626.187	0.0165355
626.265	0.0165029
626.343	0.0165497
626.421	0.0165774
626.499	0.0165594
626.578	0.0165108
626.656	0.0164256
626.734	0.0165473
626.812	0.0165483
626.890	0.0166003
626.968	0.0164983
627.046	0.0164339
627.124	0.0165431
627.203	0.0165707
627.281	0.0165647
627.359	0.0165206
627.437	0.0165151
627.515	0.0164769
627.593	0.0165000
627.671	0.0165065
627.749	0.0165905
627.828	0.0165417
627.906	0.0164563
627.984	0.0165885
628.062	0.0166364
628.140	0.0166411
628.218	0.0166599
628.296	0.0167160
628.374	0.0165218
628.453	0.0165751
628.531	0.0164249
628.609	0.0164493
628.687	0.0164839
628.765	0.0164851
628.843	0.0166710
628.921	0.0166707
628.999	0.0165291
629.078	0.0165758
629.156	0.0166251
629.234	0.0164275
629.312	0.0167296
629.390	0.0166290
629.468	0.0165658
629.546	0.0165804
629.624	0.0165557
629.703	0.0165116
629.781	0.0165864
629.859	0.0166523
629.937	0.0164696
630.015	0.0165245
630.093	0.0164956
630.171	0.0164990
630.249	0.0167239
630.328	0.0164919
630.406	0.0164732
630.484	0.0164768
630.562	0.0166127
630.640	0.0165530
630.718	0.0166804
630.796	0.0166325
630.874	0.0164244
630.953	0.0165128
631.031	0.0164820
631.109	0.0166444
631.187	0.0166045
631.265	0.0163982
631.343	0.0165356
631.421	0.0166819
631.499	0.0165181
631.578	0.0165002
631.656	0.0165851
631.734	0.0164872
631.812	0.0165774
631.890	0.0165378
631.968	0.0164206
632.046	0.0164804
632.124	0.0164812
632.203	0.0165997
632.281	0.0163881
632.359	0.0164428
632.437	0.0166711
632.515	0.0165586
632.593	0.0164940
632.671	0.0164231
632.749	0.0165322
632.828	0.0164741
632.906	0.0165621
632.984	0.0165121
633.062	0.0165331
633.140	0.0163935
633.218	0.0165820
633.296	0.0165900
633.374	0.0164851
633.453	0.0164512
633.531	0.0164618
633.609	0.0165540
633.687	0.0166196
633.765	0.0166271
633.843	0.0165862
633.921	0.0167551
633.999	0.0164948
634.078	0.0165443
634.156	0.0166859
634.234	0.0166365
634.312	0.0165655
634.390	0.0165331
634.468	0.0165197
634.546	0.0166902
634.624	0.0166150
634.703	0.0167326
634.781	0.0165136
634.859	0.0165931
634.937	0.0165396
635.015	0.0166754
635.093	0.0166172
635.171	0.0166931
635.249	0.0166328
635.328	0.0167202
635.406	0.0166352
635.484	0.0166445
635.562	0.0166250
635.640	0.0165697
635.718	0.0165685
635.796	0.0165200
635.874	0.0166687
635.953	0.0165842
636.031	0.0166250
636.109	0.0166292
636.187	0.0166254
636.265	0.0166253
636.343	0.0167274
636.421	0.0166260
636.499	0.0167347
636.578	0.0167207
636.656	0.0166284
636.734	0.0165718
636.812	0.0167597
636.890	0.0167974
636.968	0.0166737
637.046	0.0166183
637.124	0.0166348
637.203	0.0166998
637.281	0.0167255
637.359	0.0167173
637.437	0.0166484
637.515	0.0166452
637.593	0.0167420
637.671	0.0166884
637.749	0.0165858
637.828	0.0167503
637.906	0.0165906
637.984	0.0167329
638.062	0.0166173
638.140	0.0165703
638.218	0.0165466
638.296	0.0166756
638.374	0.0167075
638.453	0.0166681
638.531	0.0166663
638.609	0.0165005
638.687	0.0166227
638.765	0.0166113
638.843	0.0166697
638.921	0.0167216
638.999	0.0166586
639.078	0.0166936
639.156	0.0165789
639.234	0.0166270
639.312	0.0166109
639.390	0.0167048
639.468	0.0166802
639.546	0.0166492
639.624	0.0167325
639.703	0.0167382
639.781	0.0165734
639.859	0.0165700
639.937	0.0167271
640.015	0.0168040
640.093	0.0165603
640.171	0.0165279
640.249	0.0167159
640.328	0.0166973
640.406	0.0166764
640.484	0.0165677
640.562	0.0167149
640.640	0.0166846
640.718	0.0166144
640.796	0.0166865
640.874	0.0167118
640.953	0.0166794
641.031	0.0166971
641.109	0.0166458
641.187	0.0166692
641.265	0.0165703
641.343	0.0165658
641.421	0.0166515
641.499	0.0164908
641.578	0.0165836
641.656	0.0167310
641.734	0.0168150
641.812	0.0167750
641.890	0.0166650
641.968	0.0166494
642.046	0.0166687
642.124	0.0167831
642.203	0.0167595
642.281	0.0166135
642.359	0.0165994
642.437	0.0167059
642.515	0.0167107
642.593	0.0166277
642.671	0.0165891
642.749	0.0166638
642.828	0.0166953
642.906	0.0165083
642.984	0.0165650
643.062	0.0166358
643.140	0.0166214
643.218	0.0166986
643.296	0.0165665
643.374	0.0166611
643.453	0.0166058
643.531	0.0166176
643.609	0.0166669
643.687	0.0166743
643.765	0.0165576
643.843	0.0166881
643.921	0.0167126
643.999	0.0165251
644.078	0.0166325
644.156	0.0166233
644.234	0.0166975
644.312	0.0166557
644.390	0.0167485
644.468	0.0166592
644.546	0.0167078
644.624	0.0166746
644.703	0.0167301
644.781	0.0166827
644.859	0.0167348
644.937	0.0166433
645.015	0.0166443
645.093	0.0167612
645.171	0.0165372
645.249	0.0166415
645.328	0.0167358
645.406	0.0166144
645.484	0.0165650
645.562	0.0166971
645.640	0.0166668
645.718	0.0166495
645.796	0.0165397
645.874	0.0167309
645.953	0.0166567
646.031	0.0165413
646.109	0.0166078
646.187	0.0166721
646.265	0.0166644
646.343	0.0167191
646.421	0.0165830
646.499	0.0165627
646.578	0.0167088
646.656	0.0166454
646.734	0.0167126
646.812	0.0165276
646.890	0.0165496
646.968	0.0166933
647.046	0.0165665
647.124	0.0166585
647.203	0.0165973
647.281	0.0165356
647.359	0.0167060
647.437	0.0166614
647.515	0.0166827
647.593	0.0167022
647.671	0.0166284
647.749	0.0166759
647.828	0.0165945
647.906	0.0165794
647.984	0.0167588
648.062	0.0167207
648.140	0.0166170
648.218	0.0165422
648.296	0.0165644
648.374	0.0166717
648.453	0.0166865
648.531	0.0165776
648.609	0.0166125
648.687	0.0166414
648.765	0.0168027
648.843	0.0165092
648.921	0.0166817
648.999	0.0166715
649.078	0.0165086
649.156	0.0164936
649.234	0.0166999
649.312	0.0167336
649.390	0.0167226
649.468	0.0164897
649.546	0.0165449
649.624	0.0165954
649.703	0.0165573
649.781	0.0167069
649.859	0.0165447
649.937	0.0167035
650.015	0.0164970
650.093	0.0165264
650.171	0.0166322
650.249	0.0165955
650.328	0.0166273
650.406	0.0166458
650.484	0.0165508
650.562	0.0165232
650.640	0.0166740
650.718	0.0166663
650.796	0.0167433
650.874	0.0166383
650.953	0.0166793
651.031	0.0165653
651.109	0.0166384
651.187	0.0165379
651.265	0.0164867
651.343	0.0167126
651.421	0.0165990
651.499	0.0165261
651.578	0.0166203
651.656	0.0164933
651.734	0.0166807
651.812	0.0165500
651.890	0.0165606
651.968	0.0166953
652.046	0.0166623
652.124	0.0165797
652.203	0.0164955
652.281	0.0166415
652.359	0.0164601
652.437	0.0163623
652.515	0.0165373
652.593	0.0165804
652.671	0.0165298
652.749	0.0164789
652.828	0.0163578
652.906	0.0164128
652.984	0.0164803
653.062	0.0163599
653.140	0.0164146
653.218	0.0164345
653.296	0.0162752
653.374	0.0165868
653.453	0.0164900
653.531	0.0163953
653.609	0.0164299
653.687	0.0165577
653.765	0.0165331
653.843	0.0164503
653.921	0.0165714
653.999	0.0166000
654.078	0.0164559
654.156	0.0164529
654.234	0.0166283
654.312	0.0164931
654.390	0.0164709
654.468	0.0166473
654.546	0.0165641
654.624	0.0165255
654.703	0.0166300
654.781	0.0166463
654.859	0.0164588
654.937	0.0165541
655.015	0.0165910
655.093	0.0165936
655.171	0.0164497
655.249	0.0164264
655.328	0.0165428
655.406	0.0165575
655.484	0.0164589
655.562	0.0164578
655.640	0.0165162
655.718	0.0165614
655.796	0.0165533
655.874	0.0164652
655.953	0.0164978
656.031	0.0165297
656.109	0.0164766
656.187	0.0165834
656.265	0.0165549
656.343	0.0166669
656.421	0.0164874
656.499	0.0164555
656.578	0.0166302
656.656	0.0165710
656.734	0.0165974
656.812	0.0165175
656.890	0.0165173
656.968	0.0165279
657.046	0.0166327
657.124	0.0166120
657.203	0.0166722
657.281	0.0165803
657.359	0.0165496
657.437	0.0164929
657.515	0.0165891
657.593	0.0164970
657.671	0.0165697
657.749	0.0165992
657.828	0.0165865
657.906	0.0166151
657.984	0.0165614
658.062	0.0167818
658.140	0.0165735
658.218	0.0165557
658.296	0.0165904
658.374	0.0165559
658.453	0.0165913
658.531	0.0165384
658.609	0.0166832
658.687	0.0165565
658.765	0.0167036
658.843	0.0166019
658.921	0.0166711
658.999	0.0166821
659.078	0.0167510
659.156	0.0167129
659.234	0.0166495
659.312	0.0165874
659.390	0.0166822
659.468	0.0167641
659.546	0.0167132
659.624	0.0167037
659.703	0.0167889
659.781	0.0166104
659.859	0.0164722
659.937	0.0166385
660.015	0.0167627
660.093	0.0166543
660.171	0.0166306
660.249	0.0166100
660.328	0.0167414
660.406	0.0166399
660.484	0.0166662
660.562	0.0168111
660.640	0.0166545
660.718	0.0166695
660.796	0.0166888
660.874	0.0167039
660.953	0.0167448
661.031	0.0168268
661.109	0.0166936
661.187	0.0166483
661.265	0.0166005
661.343	0.0166769
661.421	0.0167933
661.499	0.0167770
661.578	0.0167338
661.656	0.0166469
661.734	0.0166963
661.812	0.0167314
661.890	0.0166139
661.968	0.0166525
662.046	0.0167363
662.124	0.0166976
662.203	0.0168178
662.281	0.0167278
662.359	0.0165874
662.437	0.0167376
662.515	0.0167853
662.593	0.0168270
662.671	0.0167300
662.749	0.0167648
662.828	0.0166015
662.906	0.0167011
662.984	0.0167645
663.062	0.0166719
663.140	0.0166760
663.218	0.0167152
663.296	0.0166434
663.374	0.0166640
663.453	0.0165679
663.531	0.0165411
663.609	0.0167159
663.687	0.0167876
663.765	0.0165990
663.843	0.0167707
663.921	0.0167620
663.999	0.0165623
664.078	0.0167319
664.156	0.0166457
664.234	0.0167281
664.312	0.0166625
664.390	0.0166437
664.468	0.0165669
664.546	0.0166073
664.624	0.0166258
664.703	0.0168038
664.781	0.0166634
664.859	0.0167984
664.937	0.0166940
665.015	0.0166383
665.093	0.0166900
665.171	0.0167721
665.249	0.0167503
665.328	0.0167339
665.406	0.0166910
665.484	0.0166582
665.562	0.0167896
665.640	0.0167474
665.718	0.0166426
665.796	0.0167770
665.874	0.0167420
665.953	0.0165312
666.031	0.0167136
666.109	0.0167400
666.187	0.0166893
666.265	0.0166476
666.343	0.0166956
666.421	0.0167676
666.499	0.0168443
666.578	0.0168271
666.656	0.0166248
666.734	0.0167534
666.812	0.0168700
666.890	0.0167359
666.968	0.0166832
667.046	0.0166773
667.124	0.0166551
667.203	0.0167524
667.281	0.0167122
667.359	0.0165981
667.437	0.0166541
667.515	0.0167838
667.593	0.0166446
667.671	0.0166013
667.749	0.0165606
667.828	0.0167194
667.906	0.0166730
667.984	0.0167000
668.062	0.0167229
668.140	0.0166969
668.218	0.0166856
668.296	0.0164095
668.374	0.0165766
668.453	0.0167371
668.531	0.0166666
668.609	0.0166798
668.687	0.0165878
668.765	0.0164909
668.843	0.0165704
668.921	0.0166362
668.999	0.0165559
669.078	0.0166087
669.156	0.0165959
669.234	0.0166549
669.312	0.0166183
669.390	0.0166048
669.468	0.0167554
669.546	0.0166165
669.624	0.0166785
669.703	0.0166196
669.781	0.0166400
669.859	0.0166043
669.937	0.0166235
670.015	0.0165826
670.093	0.0166192
670.171	0.0167889
670.249	0.0167061
670.328	0.0165737
670.406	0.0167274
670.484	0.0167181
670.562	0.0165694
670.640	0.0167623
670.718	0.0167678
670.796	0.0166214
670.874	0.0166441
670.953	0.0165643
671.031	0.0167055
671.109	0.0166480
671.187	0.0167229
671.265	0.0168696
671.343	0.0166798
671.421	0.0167804
671.499	0.0168693
671.578	0.0165392
671.656	0.0166553
671.734	0.0167289
671.812	0.0167835
671.890	0.0167500
671.968	0.0167525
672.046	0.0168723
672.124	0.0167638
672.203	0.0167294
672.281	0.0167409
672.359	0.0165569
672.437	0.0166497
672.515	0.0167329
672.593	0.0166851
672.671	0.0167148
672.749	0.0167316
672.828	0.0168087
672.906	0.0166345
672.984	0.0167859
673.062	0.0167240
673.140	0.0166006
673.218	0.0166643
673.296	0.0166747
673.374	0.0166976
673.453	0.0167485
673.531	0.0167314
673.609	0.0165945
673.687	0.0166965
673.765	0.0164993
673.843	0.0165916
673.921	0.0167651
673.999	0.0165487
674.078	0.0166431
674.156	0.0167148
674.234	0.0164894
674.312	0.0165247
674.390	0.0166261
674.468	0.0166638
674.546	0.0166764
674.624	0.0165789
674.703	0.0167339
674.781	0.0165468
674.859	0.0166982
674.937	0.0166038
675.015	0.0166660
675.093	0.0166553
675.171	0.0166956
675.249	0.0165189
675.328	0.0165965
675.406	0.0166730
675.484	0.0167132
675.562	0.0167532
675.640	0.0166554
675.718	0.0166006
675.796	0.0166872
675.874	0.0166077
675.953	0.0165408
676.031	0.0166220
676.109	0.0166437
676.187	0.0167280
676.265	0.0165656
676.343	0.0165643
676.421	0.0165022
676.499	0.0166030
676.578	0.0166021
676.656	0.0165440
676.734	0.0164415
676.812	0.0166808
676.890	0.0165099
676.968	0.0165315
677.046	0.0166698
677.124	0.0166830
677.203	0.0165783
677.281	0.0163077
677.359	0.0166122
677.437	0.0164942
677.515	0.0165736
677.593	0.0164121
677.671	0.0163530
677.749	0.0164992
677.828	0.0165035
677.906	0.0164404
677.984	0.0164642
678.062	0.0166207
678.140	0.0165988
678.218	0.0163474
678.296	0.0163217
678.374	0.0166528
678.453	0.0165755
678.531	0.0164561
678.609	0.0165575
678.687	0.0163992
678.765	0.0163907
678.843	0.0164930
678.921	0.0165536
678.999	0.0164584
679.078	0.0164360
679.156	0.0164859
679.234	0.0165843
679.312	0.0166225
679.390	0.0164823
679.468	0.0165097
679.546	0.0165888
679.624	0.0164972
679.703	0.0166360
679.781	0.0164674
679.859	0.0164024
679.937	0.0165622
680.015	0.0165646
680.093	0.0166074
680.171	0.0166011
680.249	0.0166225
680.328	0.0165852
680.406	0.0165691
680.484	0.0165156
680.562	0.0165059
680.640	0.0165370
680.718	0.0164297
680.796	0.0165337
680.874	0.0166415
680.953	0.0164555
681.031	0.0164252
681.109	0.0165213
681.187	0.0165192
681.265	0.0164650
681.343	0.0164049
681.421	0.0164712
681.499	0.0163503
681.578	0.0163802
681.656	0.0165109
681.734	0.0165446
681.812	0.0164694
681.890	0.0164487
681.968	0.0163903
682.046	0.0164515
682.124	0.0163026
682.203	0.0164931
682.281	0.0165829
682.359	0.0164622
682.437	0.0164902
682.515	0.0166683
682.593	0.0164881
682.671	0.0164087
682.749	0.0165508
682.828	0.0166340
682.906	0.0164270
682.984	0.0165143
683.062	0.0164529
683.140	0.0164028
683.218	0.0165842
683.296	0.0165453
683.374	0.0165042
683.453	0.0165564
683.531	0.0165219
683.609	0.0165281
683.687	0.0165417
683.765	0.0164741
683.843	0.0165640
683.921	0.0165514
683.999	0.0165859
684.078	0.0164908
684.156	0.0165565
684.234	0.0165092
684.312	0.0166032
684.390	0.0166700
684.468	0.0164674
684.546	0.0165050
684.624	0.0166303
684.703	0.0167629
684.781	0.0164809
684.859	0.0165971
684.937	0.0165303
685.015	0.0166338
685.093	0.0166573
685.171	0.0165747
685.249	0.0165520
685.328	0.0165935
685.406	0.0167457
685.484	0.0166591
685.562	0.0165119
685.640	0.0166479
685.718	0.0165376
685.796	0.0165260
685.874	0.0165464
685.953	0.0165914
686.031	0.0165879
686.109	0.0167056
686.187	0.0166156
686.265	0.0166141
686.343	0.0166338
686.421	0.0166862
686.499	0.0165643
686.578	0.0166076
686.656	0.0166753
686.734	0.0165230
686.812	0.0167477
686.890	0.0166892
686.968	0.0165395
687.046	0.0166514
687.124	0.0168223
687.203	0.0166868
687.281	0.0165362
687.359	0.0167435
687.437	0.0167322
687.515	0.0165337
687.593	0.0166246
687.671	0.0167594
687.749	0.0167126
687.828	0.0167305
687.906	0.0166849
687.984	0.0166378
688.062	0.0166453
688.140	0.0168098
688.218	0.0167482
688.296	0.0166537
688.374	0.0166817
688.453	0.0166885
688.531	0.0166465
688.609	0.0167432
688.687	0.0166966
688.765	0.0167048
688.843	0.0165005
688.921	0.0166769
688.999	0.0167092
689.078	0.0166109
689.156	0.0166946
689.234	0.0166379
689.312	0.0166036
689.390	0.0166048
689.468	0.0166512
689.546	0.0165683
689.624	0.0165623
689.703	0.0166618
689.781	0.0166975
689.859	0.0167088
689.937	0.0166178
690.015	0.0167032
690.093	0.0166926
690.171	0.0165414
690.249	0.0166319
690.328	0.0166730
690.406	0.0167493
690.484	0.0167135
690.562	0.0166699
690.640	0.0165313
690.718	0.0167397
690.796	0.0164921
690.874	0.0166452
690.953	0.0167108
691.031	0.0166149
691.109	0.0167670
691.187	0.0166079
691.265	0.0167335
691.343	0.0167770
691.421	0.0166521
691.499	0.0166492
691.578	0.0166889
691.656	0.0166492
691.734	0.0166563
691.812	0.0166542
691.890	0.0166688
691.968	0.0167073
692.046	0.0165157
692.124	0.0166910
692.203	0.0167328
692.281	0.0166658
692.359	0.0165854
692.437	0.0166246
692.515	0.0167393
692.593	0.0167595
692.671	0.0165626
692.749	0.0166322
692.828	0.0167657
692.906	0.0166492
692.984	0.0166936
693.062	0.0165750
693.140	0.0166907
693.218	0.0164513
693.296	0.0166529
693.374	0.0166155
693.453	0.0165597
693.531	0.0166759
693.609	0.0166927
693.687	0.0166406
693.765	0.0166290
693.843	0.0167162
693.921	0.0167804
693.999	0.0166360
694.078	0.0165775
694.156	0.0165181
694.234	0.0165731
694.312	0.0167258
694.390	0.0165840
694.468	0.0165757
694.546	0.0165974
694.624	0.0166553
694.703	0.0167754
694.781	0.0167214
694.859	0.0165884
694.937	0.0165891
695.015	0.0164603
695.093	0.0166658
695.171	0.0165784
695.249	0.0166541
695.328	0.0167166
695.406	0.0167015
695.484	0.0165215
695.562	0.0166033
695.640	0.0168121
695.718	0.0166168
695.796	0.0166972
695.874	0.0166686
695.953	0.0165356
696.031	0.0166702
696.109	0.0166044
696.187	0.0166345
696.265	0.0166340
696.343	0.0167160
696.421	0.0165689
696.499	0.0165675
696.578	0.0166375
696.656	0.0167467
696.734	0.0167068
696.812	0.0165541
696.890	0.0167435
696.968	0.0166813
697.046	0.0166129
697.124	0.0166943
697.203	0.0165852
697.281	0.0165460
697.359	0.0165154
697.437	0.0165974
697.515	0.0167218
697.593	0.0165580
697.671	0.0166034
697.749	0.0164953
697.828	0.0165443
697.906	0.0165970
697.984	0.0167135
698.062	0.0166795
698.140	0.0166453
698.218	0.0166608
698.296	0.0165836
698.374	0.0165446
698.453	0.0166926
698.531	0.0166006
698.609	0.0166808
698.687	0.0165165
698.765	0.0165129
698.843	0.0165142
698.921	0.0165291
698.999	0.0166994
699.078	0.0165362
699.156	0.0164262
699.234	0.0165744
699.312	0.0165559
699.390	0.0164579
699.468	0.0165813
699.546	0.0165226
699.624	0.0165881
699.703	0.0165883
699.781	0.0165070
699.859	0.0165668
699.937	0.0165841
700.015	0.0165903
700.093	0.0166788
700.171	0.0165624
700.249	0.0165742
700.328	0.0166378
700.406	0.0166570
700.484	0.0166074
700.562	0.0166039
700.640	0.0165451
700.718	0.0164052
700.796	0.0165347
700.874	0.0166766
700.953	0.0165423
701.031	0.0166215
701.109	0.0165075
701.187	0.0164614
701.265	0.0164845
701.343	0.0164417
701.421	0.0164542
701.499	0.0166798
701.578	0.0164713
701.656	0.0164162
701.734	0.0164764
701.812	0.0165567
701.890	0.0165449
701.968	0.0164084
702.046	0.0165291
702.124	0.0166071
702.203	0.0164891
702.281	0.0164597
702.359	0.0165219
702.437	0.0164099
702.515	0.0164764
702.593	0.0164379
702.671	0.0163479
702.749	0.0164079
702.828	0.0164458
702.906	0.0164920
702.984	0.0165120
703.062	0.0165459
703.140	0.0164883
703.218	0.0164716
703.296	0.0165224
703.374	0.0164757
703.453	0.0164151
703.531	0.0165445
703.609	0.0165149
703.687	0.0163995
703.765	0.0165039
703.843	0.0164142
703.921	0.0163920
703.999	0.0164568
704.078	0.0164275
704.156	0.0164980
704.234	0.0164953
704.312	0.0164164
704.390	0.0164252
704.468	0.0164973
704.546	0.0165391
704.624	0.0164486
704.703	0.0163955
704.781	0.0165327
704.859	0.0164870
704.937	0.0165079
705.015	0.0165385
705.093	0.0164769
705.171	0.0165894
705.249	0.0165619
705.328	0.0164796
705.406	0.0164471
705.484	0.0165339
705.562	0.0165796
705.640	0.0165080
705.718	0.0164742
705.796	0.0164517
705.874	0.0164268
705.953	0.0164485
706.031	0.0164465
706.109	0.0163578
706.187	0.0164604
706.265	0.0164635
706.343	0.0164870
706.421	0.0165128
706.499	0.0164942
706.578	0.0165784
706.656	0.0166248
706.734	0.0164765
706.812	0.0164625
706.890	0.0165410
706.968	0.0166150
707.046	0.0167315
707.124	0.0165700
707.203	0.0166615
707.281	0.0166651
707.359	0.0167174
707.437	0.0165274
707.515	0.0165446
707.593	0.0166452
707.671	0.0166542
707.749	0.0164488
707.828	0.0165553
707.906	0.0166640
707.984	0.0166241
708.062	0.0166137
708.140	0.0165118
708.218	0.0165884
708.296	0.0167220
708.374	0.0165268
708.453	0.0166455
708.531	0.0166274
708.609	0.0165352
708.687	0.0164728
708.765	0.0166530
708.843	0.0166167
708.921	0.0165780
708.999	0.0166492
709.078	0.0166015
709.156	0.0166115
709.234	0.0165413
709.312	0.0165869
709.390	0.0164867
709.468	0.0165352
709.546	0.0166254
709.624	0.0166724
709.703	0.0166313
709.781	0.0165150
709.859	0.0165968
709.937	0.0167325
710.015	0.0165099
710.093	0.0165628
710.171	0.0167550
710.249	0.0165579
710.328	0.0166299
710.406	0.0166963
710.484	0.0165460
710.562	0.0163994
710.640	0.0166559
710.718	0.0166892
710.796	0.0165665
710.874	0.0166029
710.953	0.0166884
711.031	0.0166075
711.109	0.0167165
711.187	0.0167238
711.265	0.0166158
711.343	0.0165300
711.421	0.0164203
711.499	0.0167159
711.578	0.0166530
711.656	0.0167175
711.734	0.0166961
711.812	0.0166383
711.890	0.0165358
711.968	0.0166045
712.046	0.0166196
712.124	0.0167620
712.203	0.0165900
712.281	0.0167219
712.359	0.0165471
712.437	0.0166374
712.515	0.0166376
712.593	0.0165771
712.671	0.0166933
712.749	0.0167098
712.828	0.0165934
712.906	0.0166010
712.984	0.0164860
713.062	0.0166418
713.140	0.0166749
713.218	0.0166627
713.296	0.0164649
713.374	0.0165680
713.453	0.0166654
713.531	0.0165576
713.609	0.0166108
713.687	0.0165733
713.765	0.0165131
713.843	0.0167423
713.921	0.0167383
713.999	0.0166360
714.078	0.0165767
714.156	0.0165926
714.234	0.0166529
714.312	0.0166706
714.390	0.0166925
714.468	0.0167530
714.546	0.0167387
714.624	0.0166707
714.703	0.0167442
714.781	0.0166206
714.859	0.0165965
714.937	0.0166708
715.015	0.0166944
715.093	0.0166405
715.171	0.0165734
715.249	0.0166160
715.328	0.0166106
715.406	0.0165391
715.484	0.0165462
715.562	0.0166541
715.640	0.0166948
715.718	0.0167679
715.796	0.0166328
715.874	0.0166236
715.953	0.0167758
716.031	0.0167722
716.109	0.0167415
716.187	0.0166421
716.265	0.0166673
716.343	0.0165485
716.421	0.0166914
716.499	0.0166618
716.578	0.0165649
716.656	0.0166052
716.734	0.0167367
716.812	0.0167232
716.890	0.0166050
716.968	0.0167133
717.046	0.0166603
717.124	0.0166380
717.203	0.0167789
717.281	0.0166663
717.359	0.0167364
717.437	0.0166974
717.515	0.0164799
717.593	0.0167159
717.671	0.0166644
717.749	0.0166763
717.828	0.0167893
717.906	0.0165993
717.984	0.0166812
718.062	0.0166879
718.140	0.0167238
718.218	0.0166210
718.296	0.0165748
718.374	0.0166175
718.453	0.0165865
718.531	0.0167995
718.609	0.0166677
718.687	0.0166942
718.765	0.0165247
718.843	0.0165695
718.921	0.0168335
718.999	0.0167231
719.078	0.0166081
719.156	0.0166496
719.234	0.0166943
719.312	0.0165797
719.390	0.0166433
719.468	0.0166048
719.546	0.0166314
719.624	0.0165907
719.703	0.0166692
719.781	0.0166254
719.859	0.0166469
719.937	0.0166705
720.015	0.0167908
720.093	0.0167671
720.171	0.0166378
720.249	0.0165849
720.328	0.0166417
720.406	0.0166596
720.484	0.0165311
720.562	0.0167293
720.640	0.0165947
720.718	0.0166996
720.796	0.0166376
720.874	0.0167844
720.953	0.0165909
721.031	0.0167319
721.109	0.0166060
721.187	0.0166484
721.265	0.0165891
721.343	0.0166837
721.421	0.0165869
721.499	0.0166688
721.578	0.0167365
721.656	0.0166600
721.734	0.0166880
721.812	0.0166113
721.890	0.0166427
721.968	0.0166714
722.046	0.0167722
722.124	0.0167122
722.203	0.0166628
722.281	0.0166524
722.359	0.0168128
722.437	0.0167143
722.515	0.0165629
722.593	0.0166711
722.671	0.0166669
722.749	0.0165752
722.828	0.0165342
722.906	0.0165582
722.984	0.0167344
723.062	0.0167059
723.140	0.0166092
723.218	0.0167153
723.296	0.0166525
723.374	0.0166292
723.453	0.0165289
723.531	0.0166604
723.609	0.0166932
723.687	0.0166209
723.765	0.0165735
723.843	0.0165472
723.921	0.0166261
723.999	0.0166977
724.078	0.0165887
724.156	0.0165355
724.234	0.0165315
724.312	0.0165420
724.390	0.0166936
724.468	0.0166782
724.546	0.0165366
724.624	0.0164333
724.703	0.0166587
724.781	0.0166389
724.859	0.0164648
724.937	0.0165630
725.015	0.0164491
725.093	0.0165569
725.171	0.0164946
725.249	0.0165408
725.328	0.0165012
725.406	0.0164085
725.484	0.0165936
725.562	0.0164048
725.640	0.0163853
725.718	0.0164104
725.796	0.0165731
725.874	0.0165609
725.953	0.0165590
726.031	0.0165559
726.109	0.0165750
726.187	0.0165012
726.265	0.0165060
726.343	0.0164659
726.421	0.0166511
726.499	0.0165051
726.578	0.0165654
726.656	0.0165663
726.734	0.0166621
726.812	0.0165588
726.890	0.0165287
726.968	0.0164471
727.046	0.0164888
727.124	0.0164617
727.203	0.0165881
727.281	0.0166029
727.359	0.0165564
727.437	0.0165038
727.515	0.0164663
727.593	0.0164649
727.671	0.0166056
727.749	0.0163824
727.828	0.0164729
727.906	0.0166196
727.984	0.0164212
728.062	0.0165427
728.140	0.0164737
728.218	0.0164930
728.296	0.0165067
728.374	0.0163977
728.453	0.0166028
728.531	0.0165678
728.609	0.0165506
728.687	0.0164290
728.765	0.0166608
728.843	0.0166739
728.921	0.0166726
728.999	0.0165439
729.078	0.0166703
729.156	0.0165101
729.234	0.0165566
729.312	0.0166225
729.390	0.0166847
729.468	0.0165873
729.546	0.0167056
729.624	0.0165783
729.703	0.0165875
729.781	0.0165401
729.859	0.0166591
729.937	0.0166577
730.015	0.0165672
730.093	0.0167010
730.171	0.0167195
730.249	0.0165698
730.328	0.0166576
730.406	0.0166384
730.484	0.0166851
730.562	0.0164821
730.640	0.0165715
730.718	0.0166748
730.796	0.0166508
730.874	0.0166210
730.953	0.0166032
731.031	0.0166346
731.109	0.0166222
731.187	0.0167809
731.265	0.0165930
731.343	0.0166528
731.421	0.0165641
731.499	0.0165288
731.578	0.0166287
731.656	0.0166231
731.734	0.0165736
731.812	0.0166566
731.890	0.0165914
731.968	0.0164003
732.046	0.0165992
732.124	0.0165845
732.203	0.0167223
732.281	0.0166041
732.359	0.0165337
732.437	0.0165078
732.515	0.0166243
732.593	0.0166682
732.671	0.0165959
732.749	0.0168085
732.828	0.0168409
732.906	0.0166946
732.984	0.0167159
733.062	0.0166694
733.140	0.0165253
733.218	0.0166553
733.296	0.0167252
733.374	0.0166795
733.453	0.0166795
733.531	0.0166129
733.609	0.0166650
733.687	0.0165923
733.765	0.0166106
733.843	0.0166422
733.921	0.0167040
733.999	0.0166988
734.078	0.0165873
734.156	0.0165923
734.234	0.0166761
734.312	0.0166504
734.390	0.0166792
734.468	0.0165570
734.546	0.0166690
734.624	0.0166518
734.703	0.0165059
734.781	0.0165572
734.859	0.0166592
734.937	0.0167254
735.015	0.0165413
735.093	0.0166591
735.171	0.0166639
735.249	0.0167617
735.328	0.0167219
735.406	0.0166881
735.484	0.0165833
735.562	0.0165443
735.640	0.0167200
735.718	0.0166993
735.796	0.0167416
735.874	0.0165940
735.953	0.0166930
736.031	0.0167053
736.109	0.0165478
736.187	0.0167652
736.265	0.0166902
736.343	0.0167180
736.421	0.0166058
736.499	0.0165571
736.578	0.0165490
736.656	0.0167389
736.734	0.0167894
736.812	0.0166211
736.890	0.0166468
736.968	0.0166024
737.046	0.0166154
737.124	0.0167905
737.203	0.0167396
737.281	0.0167014
737.359	0.0164797
737.437	0.0166854
737.515	0.0166019
737.593	0.0167490
737.671	0.0167384
737.749	0.0166199
737.828	0.0166916
737.906	0.0164037
737.984	0.0166499
738.062	0.0166663
738.140	0.0167557
738.218	0.0165872
738.296	0.0165027
738.374	0.0167696
738.453	0.0166337
738.531	0.0166577
738.609	0.0167401
738.687	0.0167831
738.765	0.0167236
738.843	0.0166399
738.921	0.0166756
738.999	0.0166808
739.078	0.0165885
739.156	0.0167081
739.234	0.0167411
739.312	0.0165909
739.390	0.0167254
739.468	0.0167417
739.546	0.0166825
739.624	0.0167737
739.703	0.0167471
739.781	0.0166056
739.859	0.0166381
739.937	0.0167635
740.015	0.0168233
740.093	0.0166476
740.171	0.0166351
740.249	0.0166095
740.328	0.0166418
740.406	0.0166441
740.484	0.0167371
740.562	0.0166079
740.640	0.0166116
740.718	0.0166060
740.796	0.0167473
740.874	0.0168076
740.953	0.0166601
741.031	0.0166352
741.109	0.0167724
741.187	0.0166924
741.265	0.0166969
741.343	0.0165903
741.421	0.0166416
741.499	0.0167155
741.578	0.0166618
741.656	0.0166340
741.734	0.0166707
741.812	0.0165628
741.890	0.0166851
741.968	0.0167249
742.046	0.0166436
742.124	0.0167157
742.203	0.0167638
742.281	0.0166450
742.359	0.0166718
742.437	0.0167444
742.515	0.0166970
742.593	0.0166959
742.671	0.0168070
742.749	0.0166235
742.828	0.0167388
742.906	0.0167342
742.984	0.0166029
743.062	0.0165939
743.140	0.0166676
743.218	0.0166235
743.296	0.0166474
743.374	0.0165736
743.453	0.0166282
743.531	0.0165974
743.609	0.0166691
743.687	0.0166594
743.765	0.0165594
743.843	0.0165634
743.921	0.0165536
743.999	0.0165719
744.078	0.0166082
744.156	0.0165717
744.234	0.0164772
744.312	0.0167589
744.390	0.0166198
744.468	0.0166787
744.546	0.0167572
744.624	0.0165703
744.703	0.0165728
744.781	0.0165918
744.859	0.0165383
744.937	0.0165701
745.015	0.0166986
745.093	0.0167574
745.171	0.0166983
745.249	0.0164713
745.328	0.0166183
745.406	0.0166702
745.484	0.0165684
745.562	0.0167422
745.640	0.0167181
745.718	0.0165456
745.796	0.0166987
745.874	0.0166478
745.953	0.0164915
746.031	0.0165984
746.109	0.0166573
746.187	0.0167137
746.265	0.0165775
746.343	0.0165899
746.421	0.0165279
746.499	0.0166102
746.578	0.0165244
746.656	0.0166472
746.734	0.0166058
746.812	0.0166250
746.890	0.0165886
746.968	0.0166208
747.046	0.0165495
747.124	0.0166556
747.203	0.0166956
747.281	0.0167465
747.359	0.0166523
747.437	0.0165961
747.515	0.0165490
747.593	0.0165730
747.671	0.0166621
747.749	0.0167099
747.828	0.0165813
747.906	0.0166247
747.984	0.0165688
748.062	0.0165905
748.140	0.0166525
748.218	0.0165799
748.296	0.0165281
748.374	0.0165329
748.453	0.0168318
748.531	0.0166873
748.609	0.0166193
748.687	0.0166054
748.765	0.0165340
748.843	0.0165559
748.921	0.0165611
748.999	0.0166143
749.078	0.0166042
749.156	0.0166563
749.234	0.0165889
749.312	0.0166073
749.390	0.0166375
749.468	0.0166271
749.546	0.0165893
749.624	0.0165339
749.703	0.0166343
749.781	0.0165408
749.859	0.0166046
749.937	0.0165397
750.015	0.0164935
750.093	0.0164348
750.171	0.0165115
750.249	0.0166045
750.328	0.0164668
750.406	0.0165945
750.484	0.0166532
750.562	0.0164956
750.640	0.0165946
750.718	0.0166296
750.796	0.0166368
750.874	0.0165213
750.953	0.0163769
751.031	0.0165984
751.109	0.0165384
751.187	0.0164889
751.265	0.0164984
751.343	0.0165837
751.421	0.0165405
751.499	0.0166048
751.578	0.0166376
751.656	0.0164500
751.734	0.0165358
751.812	0.0165465
751.890	0.0166032
751.968	0.0166769
752.046	0.0163895
752.124	0.0165632
752.203	0.0167494
752.281	0.0165195
752.359	0.0164584
752.437	0.0164843
752.515	0.0166061
752.593	0.0166737
752.671	0.0165417
752.749	0.0166306
752.828	0.0166235
752.906	0.0166066
752.984	0.0165424
753.062	0.0166042
753.140	0.0166006
753.218	0.0166440
753.296	0.0164952
753.374	0.0165697
753.453	0.0165903
753.531	0.0166807
753.609	0.0165952
753.687	0.0165234
753.765	0.0166346
753.843	0.0165385
753.921	0.0165544
753.999	0.0165982
754.078	0.0165113
754.156	0.0166307
754.234	0.0163847
754.312	0.0164848
754.390	0.0165584
754.468	0.0165507
754.546	0.0164343
754.624	0.0164262
754.703	0.0165192
754.781	0.0165498
754.859	0.0165862
754.937	0.0165920
755.015	0.0166089
755.093	0.0165661
755.171	0.0165219
755.249	0.0166747
755.328	0.0165224
755.406	0.0166221
755.484	0.0165951
755.562	0.0165833
755.640	0.0166376
755.718	0.0165951
755.796	0.0166286
755.874	0.0165443
755.953	0.0166354
756.031	0.0165852
756.109	0.0166753
756.187	0.0165849
756.265	0.0166422
756.343	0.0166206
756.421	0.0165263
756.499	0.0164783
756.578	0.0166106
756.656	0.0166605
756.734	0.0165237
756.812	0.0164041
756.890	0.0166161
756.968	0.0165340
757.046	0.0165198
757.124	0.0166669
757.203	0.0165250
757.281	0.0165298
757.359	0.0165207
757.437	0.0165182
757.515	0.0165491
757.593	0.0165752
757.671	0.0165757
757.749	0.0164123
757.828	0.0164252
757.906	0.0165059
757.984	0.0165488
758.062	0.0165734
758.140	0.0164265
758.218	0.0166132
758.296	0.0166305
758.374	0.0164511
758.453	0.0165794
758.531	0.0165458
758.609	0.0165944
758.687	0.0165920
758.765	0.0165429
758.843	0.0166865
758.921	0.0166003
758.999	0.0166488
759.078	0.0165238
759.156	0.0165782
759.234	0.0164880
759.312	0.0164456
759.390	0.0164440
759.468	0.0165621
759.546	0.0165936
759.624	0.0166559
759.703	0.0165361
759.781	0.0164758
759.859	0.0165153
759.937	0.0163662
760.015	0.0165295
760.093	0.0164893
760.171	0.0166541
760.249	0.0165079
760.328	0.0165398
760.406	0.0163471
760.484	0.0164712
760.562	0.0164725
760.640	0.0165006
760.718	0.0164800
760.796	0.0165942
760.874	0.0165722
760.953	0.0165892
761.031	0.0164315
761.109	0.0165715
761.187	0.0165579
761.265	0.0165927
761.343	0.0166444
761.421	0.0166274
761.499	0.0166428
761.578	0.0165778
761.656	0.0166222
761.734	0.0165971
761.812	0.0166402
761.890	0.0165511
761.968	0.0166309
762.046	0.0167094
762.124	0.0165533
762.203	0.0167210
762.281	0.0166705
762.359	0.0166640
762.437	0.0165061
762.515	0.0166579
762.593	0.0167334
762.671	0.0166204
762.749	0.0164932
762.828	0.0166553
762.906	0.0165463
762.984	0.0165910
763.062	0.0166311
763.140	0.0165720
763.218	0.0164354
763.296	0.0165836
763.374	0.0166063
763.453	0.0166547
763.531	0.0166576
763.609	0.0166199
763.687	0.0166917
763.765	0.0166225
763.843	0.0166616
763.921	0.0166794
763.999	0.0166371
764.078	0.0168229
764.156	0.0166276
764.234	0.0166469
764.312	0.0167136
764.390	0.0166905
764.468	0.0167384
764.546	0.0166917
764.624	0.0166424
764.703	0.0167778
764.781	0.0166209
764.859	0.0168068
764.937	0.0166814
765.015	0.0167187
765.093	0.0167900
765.171	0.0166789
765.249	0.0167400
765.328	0.0166711
765.406	0.0166341
765.484	0.0167030
765.562	0.0167306
765.640	0.0166105
765.718	0.0165146
765.796	0.0165742
765.874	0.0165882
765.953	0.0165878
766.031	0.0164159
766.109	0.0165102
766.187	0.0164308
766.265	0.0165799
766.343	0.0164782
766.421	0.0166029
766.499	0.0166190
766.578	0.0165470
766.656	0.0165121
766.734	0.0164417
766.812	0.0165764
766.890	0.0164697
766.968	0.0165278
767.046	0.0166139
767.124	0.0166113
767.203	0.0165599
767.281	0.0167500
767.359	0.0165546
767.437	0.0165845
767.515	0.0166273
767.593	0.0166573
767.671	0.0166857
767.749	0.0167654
767.828	0.0166653
767.906	0.0167474
767.984	0.0169301
768.062	0.0167884
768.140	0.0167419
768.218	0.0167965
768.296	0.0166636
768.374	0.0168063
768.453	0.0168987
768.531	0.0167458
768.609	0.0165998
768.687	0.0165483
768.765	0.0166736
768.843	0.0166918
768.921	0.0166405
768.999	0.0166843
769.078	0.0165241
769.156	0.0165619
769.234	0.0165139
769.312	0.0165185
769.390	0.0164365
769.468	0.0165070
769.546	0.0165081
769.624	0.0167073
769.703	0.0165384
769.781	0.0164569
769.859	0.0166029
769.937	0.0164716
770.015	0.0165074
770.093	0.0165243
770.171	0.0165372
770.249	0.0164556
770.328	0.0164407
770.406	0.0164957
770.484	0.0165536
770.562	0.0164717
770.640	0.0165373
770.718	0.0164963
770.796	0.0165209
770.874	0.0166089
770.953	0.0164328
771.031	0.0166367
771.109	0.0166030
771.187	0.0165934
771.265	0.0165772
771.343	0.0164945
771.421	0.0164422
771.499	0.0165719
771.578	0.0164137
771.656	0.0164399
771.734	0.0165660
771.812	0.0165038
771.890	0.0164985
771.968	0.0164727
772.046	0.0164333
772.124	0.0165455
772.203	0.0166347
772.281	0.0166949
772.359	0.0166456
772.437	0.0165665
772.515	0.0167078
772.593	0.0166794
772.671	0.0167615
772.749	0.0167715
772.828	0.0168784
772.906	0.0167577
772.984	0.0168364
773.062	0.0168108
773.140	0.0168808
773.218	0.0168585
773.296	0.0166725
773.374	0.0169083
773.453	0.0168167
773.531	0.0168674
773.609	0.0168862
773.687	0.0169732
773.765	0.0168034
773.843	0.0167145
773.921	0.0166514
773.999	0.0166040
774.078	0.0165179
774.156	0.0166197
774.234	0.0165838
774.312	0.0165539
774.390	0.0163581
774.468	0.0164452
774.546	0.0163515
774.624	0.0163940
774.703	0.0164593
774.781	0.0165206
774.859	0.0163679
774.937	0.0164587
775.015	0.0163013
775.093	0.0163174
775.171	0.0164466
775.249	0.0163854
775.328	0.0165769
775.406	0.0164716
775.484	0.0163884
775.562	0.0164308
775.640	0.0164056
775.718	0.0165032
775.796	0.0165527
775.874	0.0164378
775.953	0.0164941
776.031	0.0163931
776.109	0.0165356
776.187	0.0166277
776.265	0.0164381
776.343	0.0164793
776.421	0.0165144
776.499	0.0166488
776.578	0.0165908
776.656	0.0165247
776.734	0.0165073
776.812	0.0166351
776.890	0.0167043
776.968	0.0165777
777.046	0.0166091
777.124	0.0166360
777.203	0.0166122
777.281	0.0166380
777.359	0.0166742
777.437	0.0165717
777.515	0.0166471
777.593	0.0167639
777.671	0.0166639
777.749	0.0165493
777.828	0.0167876
777.906	0.0167338
777.984	0.0166545
778.062	0.0166856
778.140	0.0166640
778.218	0.0165138
778.296	0.0165804
778.374	0.0165347
778.453	0.0166085
778.531	0.0165839
778.609	0.0164448
778.687	0.0165730
778.765	0.0165149
778.843	0.0164235
778.921	0.0164400
778.999	0.0164763
779.078	0.0163802
779.156	0.0163324
779.234	0.0163757
779.312	0.0164230
779.390	0.0163461
779.468	0.0162749
779.546	0.0162662
779.624	0.0163886
779.703	0.0162992
779.781	0.0163203
779.859	0.0164819
779.937	0.0163698
780.015	0.0164722
780.093	0.0163098
780.171	0.0165082
780.249	0.0164110
780.328	0.0166223
780.406	0.0166365
780.484	0.0165298
780.562	0.0165915
780.640	0.0165303
780.718	0.0164646
780.796	0.0164564
780.874	0.0165365
780.953	0.0165154
781.031	0.0165782
781.109	0.0165126
781.187	0.0165451
781.265	0.0165090
781.343	0.0165435
781.421	0.0165479
781.499	0.0166260
781.578	0.0164651
781.656	0.0164640
781.734	0.0166714
781.812	0.0166187
781.890	0.0167242
781.968	0.0166587
782.046	0.0166642
782.124	0.0167960
782.203	0.0166643
782.281	0.0166434
782.359	0.0167133
782.437	0.0167370
782.515	0.0167789
782.593	0.0166730
782.671	0.0166548
782.749	0.0167840
782.828	0.0168120
782.906	0.0167216
782.984	0.0167439
783.062	0.0166499
783.140	0.0165681
783.218	0.0166631
783.296	0.0167094
783.374	0.0166319
783.453	0.0166238
783.531	0.0165999
783.609	0.0165989
783.687	0.0164751
783.765	0.0165069
783.843	0.0164171
783.921	0.0163925
783.999	0.0163419
784.078	0.0163708
784.156	0.0161967
784.234	0.0164077
784.312	0.0163464
784.390	0.0163546
784.468	0.0162193
784.546	0.0163030
784.624	0.0163487
784.703	0.0162439
784.781	0.0162832
784.859	0.0163812
784.937	0.0165618
785.015	0.0165524
785.093	0.0166487
785.171	0.0166079
785.249	0.0166878
785.328	0.0166319
785.406	0.0167404
785.484	0.0166865
785.562	0.0167976
785.640	0.0167708
785.718	0.0166950
785.796	0.0168021
785.874	0.0168477
785.953	0.0168295
786.031	0.0169593
786.109	0.0168057
786.187	0.0167703
786.265	0.0167776
786.343	0.0166577
786.421	0.0166927
786.499	0.0166753
786.578	0.0167489
786.656	0.0167591
786.734	0.0167182
786.812	0.0166289
786.890	0.0164679
786.968	0.0164215
787.046	0.0163613
787.124	0.0165395
787.203	0.0166437
787.281	0.0163965
787.359	0.0165440
787.437	0.0166048
787.515	0.0165513
787.593	0.0166202
787.671	0.0164609
787.749	0.0166238
787.828	0.0166035
787.906	0.0165675
787.984	0.0165900
788.062	0.0165710
788.140	0.0165000
788.218	0.0165175
788.296	0.0164844
788.374	0.0165585
788.453	0.0166700
788.531	0.0166815
788.609	0.0166622
788.687	0.0166203
788.765	0.0165588
788.843	0.0166380
788.921	0.0166738
788.999	0.0164445
789.078	0.0165199
789.156	0.0165411
789.234	0.0165881
789.312	0.0165089
789.390	0.0165308
789.468	0.0165791
789.546	0.0167105
789.624	0.0165490
789.703	0.0167409
789.781	0.0167081
789.859	0.0166945
789.937	0.0166563
790.015	0.0166477
790.093	0.0167116
790.171	0.0167608
790.249	0.0168168
790.328	0.0167556
790.406	0.0167780
790.484	0.0168285
790.562	0.0168163
790.640	0.0167365
790.718	0.0169546
790.796	0.0168806
790.874	0.0169167
790.953	0.0168037
791.031	0.0167789
791.109	0.0167468
791.187	0.0167500
791.265	0.0166705
791.343	0.0167616
791.421	0.0167241
791.499	0.0167403
791.578	0.0166494
791.656	0.0165458
791.734	0.0168349
791.812	0.0166376
791.890	0.0166484
791.968	0.0166007
792.046	0.0166467
792.124	0.0165472
792.203	0.0165195
792.281	0.0164307
792.359	0.0166121
792.437	0.0165574
792.515	0.0164130
792.593	0.0165516
792.671	0.0164941
792.749	0.0164436
792.828	0.0164207
792.906	0.0165305
792.984	0.0165717
793.062	0.0166137
793.140	0.0165894
793.218	0.0165822
793.296	0.0165648
793.374	0.0165665
793.453	0.0166518
793.531	0.0168406
793.609	0.0166869
793.687	0.0166043
793.765	0.0167049
793.843	0.0167057
793.921	0.0167638
793.999	0.0167700
794.078	0.0167513
794.156	0.0168643
794.234	0.0167802
794.312	0.0169010
794.390	0.0167848
794.468	0.0169554
794.546	0.0169711
794.624	0.0170203
794.703	0.0170164
794.781	0.0169296
794.859	0.0168364
794.937	0.0168979
795.015	0.0168568
795.093	0.0168666
795.171	0.0168159
795.249	0.0169704
795.328	0.0170301
795.406	0.0168539
795.484	0.0167942
795.562	0.0168439
795.640	0.0170643
795.718	0.0168952
795.796	0.0168410
795.874	0.0168475
795.953	0.0167398
796.031	0.0167606
796.109	0.0166840
796.187	0.0164822
796.265	0.0163893
796.343	0.0164462
796.421	0.0164401
796.499	0.0163468
796.578	0.0162975
796.656	0.0162665
796.734	0.0162834
796.812	0.0160889
796.890	0.0161481
796.968	0.0162903
797.046	0.0162553
797.124	0.0161344
797.203	0.0161359
797.281	0.0162189
797.359	0.0163349
797.437	0.0164655
797.515	0.0163433
797.593	0.0164280
797.671	0.0164129
797.749	0.0165771
797.828	0.0167537
797.906	0.0166285
797.984	0.0166260
798.062	0.0167354
798.140	0.0169813
798.218	0.0169799
798.296	0.0170679
798.374	0.0170215
798.453	0.0170225
798.531	0.0169567
798.609	0.0170065
798.687	0.0170945
798.765	0.0171107
798.843	0.0171597
798.921	0.0170255
798.999	0.0170597
799.078	0.0169514
799.156	0.0170230
799.234	0.0169654
799.312	0.0169379
799.390	0.0167955
799.468	0.0167183
799.546	0.0166964
799.624	0.0167973
799.703	0.0167139
799.781	0.0166682
799.859	0.0166180
799.937	0.0164562
800.015	0.0165569
800.093	0.0165065
800.171	0.0163769
800.249	0.0163457
800.328	0.0164598
800.406	0.0164722
800.484	0.0163884
800.562	0.0164682
800.640	0.0164223
800.718	0.0163742
800.796	0.0164724
800.874	0.0162506
800.953	0.0164015
801.031	0.0163629
801.109	0.0163274
801.187	0.0163776
801.265	0.0164256
801.343	0.0163706
801.421	0.0164658
801.499	0.0165055
801.578	0.0164310
801.656	0.0165382
801.734	0.0166154
801.812	0.0166042
801.890	0.0166369
801.968	0.0166250
802.046	0.0167764
802.124	0.0167584
802.203	0.0167294
802.281	0.0166949
802.359	0.0168608
802.437	0.0168766
802.515	0.0168230
802.593	0.0167876
802.671	0.0166857
802.749	0.0167930
802.828	0.0169125
802.906	0.0167554
802.984	0.0168495
803.062	0.0167989
803.140	0.0168469
803.218	0.0168157
803.296	0.0167822
803.374	0.0167868
803.453	0.0169193
803.531	0.0168727
803.609	0.0168257
803.687	0.0168300
803.765	0.0168628
803.843	0.0166882
803.921	0.0166969
803.999	0.0167307
804.078	0.0165415
804.156	0.0166513
804.234	0.0166151
804.312	0.0164094
804.390	0.0165057
804.468	0.0165804
804.546	0.0164371
804.624	0.0162563
804.703	0.0163961
804.781	0.0163463
804.859	0.0161737
804.937	0.0162031
805.015	0.0163586
805.093	0.0162353
805.171	0.0163429
805.249	0.0163250
805.328	0.0162393
805.406	0.0163349
805.484	0.0165121
805.562	0.0163783
805.640	0.0164198
805.718	0.0165015
805.796	0.0164082
805.874	0.0165145
805.953	0.0165118
806.031	0.0166252
806.109	0.0166595
806.187	0.0167565
806.265	0.0167867
806.343	0.0167833
806.421	0.0167668
806.499	0.0168996
806.578	0.0169166
806.656	0.0168354
806.734	0.0168752
806.812	0.0168525
806.890	0.0169447
806.968	0.0168957
807.046	0.0168925
807.124	0.0168414
807.203	0.0167078
807.281	0.0167471
807.359	0.0166587
807.437	0.0166596
807.515	0.0165446
807.593	0.0167706
807.671	0.0167899
807.749	0.0166412
807.828	0.0165265
807.906	0.0164781
807.984	0.0164803
808.062	0.0164717
808.140	0.0164427
808.218	0.0164622
808.296	0.0164516
808.374	0.0163141
808.453	0.0163224
808.531	0.0163543
808.609	0.0163097
808.687	0.0163144
808.765	0.0164835
808.843	0.0164198
808.921	0.0164185
808.999	0.0164446
809.078	0.0164175
809.156	0.0165295
809.234	0.0164718
809.312	0.0166316
809.390	0.0164600
809.468	0.0163467
809.546	0.0164703
809.624	0.0165855
809.703	0.0166048
809.781	0.0163963
809.859	0.0165139
809.937	0.0165228
810.015	0.0164495
810.093	0.0164792
810.171	0.0164414
810.249	0.0165892
810.328	0.0164890
810.406	0.0165200
810.484	0.0165997
810.562	0.0167504
810.640	0.0166668
810.718	0.0166467
810.796	0.0167195
810.874	0.0167386
810.953	0.0168526
811.031	0.0168527
811.109	0.0169056
811.187	0.0167460
811.265	0.0168553
811.343	0.0168934
811.421	0.0168789
811.499	0.0167482
811.578	0.0168003
811.656	0.0168584
811.734	0.0169352
811.812	0.0169501
811.890	0.0167576
811.968	0.0167863
812.046	0.0167080
812.124	0.0167162
812.203	0.0165971
812.281	0.0166769
812.359	0.0166295
812.437	0.0164674
812.515	0.0165436
812.593	0.0164397
812.671	0.0163744
812.749	0.0164615
812.828	0.0164348
812.906	0.0163556
812.984	0.0164035
813.062	0.0163914
813.140	0.0163356
813.218	0.0162808
813.296	0.0163084
813.374	0.0163086
813.453	0.0162757
813.531	0.0164207
813.609	0.0164603
813.687	0.0164758
813.765	0.0165205
813.843	0.0166099
813.921	0.0166361
813.999	0.0165285
814.078	0.0166176
814.156	0.0167786
814.234	0.0169073
814.312	0.0168771
814.390	0.0169055
814.468	0.0169547
814.546	0.0169505
814.624	0.0168443
814.703	0.0170039
814.781	0.0169740
814.859	0.0170683
814.937	0.0169075
815.015	0.0169354
815.093	0.0171124
815.171	0.0168197
815.249	0.0168983
815.328	0.0169918
815.406	0.0169308
815.484	0.0169090
815.562	0.0167128
815.640	0.0166879
815.718	0.0167130
815.796	0.0165180
815.874	0.0164883
815.953	0.0166301
816.031	0.0165331
816.109	0.0163186
816.187	0.0163255
816.265	0.0163561
816.343	0.0163360
816.421	0.0162409
816.499	0.0162661
816.578	0.0162617
816.656	0.0162711
816.734	0.0163510
816.812	0.0165014
816.890	0.0163964
816.968	0.0164559
817.046	0.0165004
817.124	0.0165533
817.203	0.0165707
817.281	0.0167838
817.359	0.0168458
817.437	0.0168563
817.515	0.0169185
817.593	0.0168704
817.671	0.0169176
817.749	0.0169321
817.828	0.0170246
817.906	0.0170263
817.984	0.0169632
818.062	0.0171620
818.140	0.0169524
818.218	0.0170893
818.296	0.0169332
818.374	0.0170016
818.453	0.0169900
818.531	0.0169686
818.609	0.0168786
818.687	0.0168565
818.765	0.0166730
818.843	0.0168458
818.921	0.0168958
818.999	0.0167266
819.078	0.0167278
819.156	0.0166062
819.234	0.0165276
819.312	0.0164899
819.390	0.0164598
819.468	0.0163503
819.546	0.0163622
819.624	0.0164428
819.703	0.0162219
819.781	0.0162836
819.859	0.0163061
819.937	0.0162737
820.015	0.0163665
820.093	0.0163890
820.171	0.0164234
820.249	0.0163538
820.328	0.0163403
820.406	0.0166101
820.484	0.0165755
820.562	0.0165522
820.640	0.0166313
820.718	0.0165070
820.796	0.0166572
820.874	0.0165538
820.953	0.0165744
821.031	0.0166905
821.109	0.0165926
821.187	0.0165283
821.265	0.0167252
821.343	0.0167272
821.421	0.0166666
821.499	0.0166868
821.578	0.0167240
821.656	0.0167075
821.734	0.0166380
821.812	0.0165914
821.890	0.0168219
821.968	0.0167388
822.046	0.0167519
822.124	0.0167597
822.203	0.0167167
822.281	0.0167663
822.359	0.0167402
822.437	0.0167226
822.515	0.0167174
822.593	0.0167335
822.671	0.0166953
822.749	0.0167435
822.828	0.0167245
822.906	0.0166869
822.984	0.0165302
823.062	0.0166210
823.140	0.0166797
823.218	0.0166182
823.296	0.0165070
823.374	0.0163841
823.453	0.0165374
823.531	0.0164475
823.609	0.0163956
823.687	0.0165471
823.765	0.0164772
823.843	0.0164676
823.921	0.0164862
823.999	0.0165524
824.078	0.0164207
824.156	0.0165040
824.234	0.0167380
824.312	0.0164951
824.390	0.0167139
824.468	0.0166934
824.546	0.0166269
824.624	0.0167815
824.703	0.0168252
824.781	0.0167847
824.859	0.0167051
824.937	0.0168839
825.015	0.0166979
825.093	0.0168861
825.171	0.0167590
825.249	0.0167722
825.328	0.0167968
825.406	0.0169502
825.484	0.0168913
825.562	0.0168568
825.640	0.0168298
825.718	0.0166248
825.796	0.0166473
825.874	0.0166286
825.953	0.0166689
826.031	0.0165048
826.109	0.0165359
826.187	0.0165876
826.265	0.0166027
826.343	0.0165871
826.421	0.0164651
826.499	0.0165347
826.578	0.0165450
826.656	0.0165601
826.734	0.0165430
826.812	0.0166582
826.890	0.0164893
826.968	0.0166915
827.046	0.0166705
827.124	0.0165910
827.203	0.0165514
827.281	0.0166721
827.359	0.0165578
827.437	0.0166707
827.515	0.0166261
827.593	0.0165687
827.671	0.0165405
827.749	0.0167007
827.828	0.0166434
827.906	0.0165354
827.984	0.0166188
828.062	0.0165464
828.140	0.0166134
828.218	0.0166082
828.296	0.0166344
828.374	0.0167748
828.453	0.0165600
828.531	0.0166668
828.609	0.0165771
828.687	0.0165407
828.765	0.0165691
828.843	0.0165630
828.921	0.0164230
828.999	0.0166462
829.078	0.0166046
829.156	0.0165965
829.234	0.0165869
829.312	0.0165263
829.390	0.0167043
829.468	0.0166914
829.546	0.0167264
829.624	0.0166233
829.703	0.0167193
829.781	0.0168475
829.859	0.0167944
829.937	0.0168380
830.015	0.0166859
830.093	0.0167191
830.171	0.0168362
830.249	0.0169639
830.328	0.0170188
830.406	0.0169396
830.484	0.0168230
830.562	0.0167845
830.640	0.0168420
830.718	0.0166913
830.796	0.0168156
830.874	0.0166064
830.953	0.0167549
831.031	0.0164725
831.109	0.0166099
831.187	0.0166708
831.265	0.0166270
831.343	0.0166206
831.421	0.0164883
831.499	0.0165022
831.578	0.0165885
831.656	0.0165337
831.734	0.0164125
831.812	0.0164866
831.890	0.0164547
831.968	0.0163780
832.046	0.0163782
832.124	0.0164565
832.203	0.0163316
832.281	0.0164660
832.359	0.0163164
832.437	0.0163808
832.515	0.0163871
832.593	0.0164734
832.671	0.0165440
832.749	0.0164762
832.828	0.0164062
832.906	0.0163142
832.984	0.0164933
833.062	0.0164658
833.140	0.0165536
833.218	0.0165602
833.296	0.0165359
833.374	0.0164979
833.453	0.0166128
833.531	0.0166421
833.609	0.0166427
833.687	0.0167097
833.765	0.0166707
833.843	0.0168659
833.921	0.0167712
833.999	0.0169099
834.078	0.0168351
834.156	0.0168559
834.234	0.0169144
834.312	0.0169324
834.390	0.0168442
834.468	0.0169502
834.546	0.0167931
834.624	0.0169643
834.703	0.0169245
834.781	0.0168548
834.859	0.0168978
834.937	0.0167952
835.015	0.0167783
835.093	0.0166888
835.171	0.0166144
835.249	0.0166068
835.328	0.0167566
835.406	0.0166083
835.484	0.0165099
835.562	0.0165112
835.640	0.0165791
835.718	0.0164278
835.796	0.0165173
835.874	0.0164765
835.953	0.0165496
836.031	0.0165522
836.109	0.0164011
836.187	0.0164594
836.265	0.0164737
836.343	0.0163103
836.421	0.0164370
836.499	0.0162572
836.578	0.0162305
836.656	0.0166045
836.734	0.0164632
836.812	0.0164915
836.890	0.0165655
836.968	0.0165883
837.046	0.0167052
837.124	0.0166893
837.203	0.0166699
837.281	0.0166893
837.359	0.0169636
837.437	0.0169722
837.515	0.0168192
837.593	0.0167818
837.671	0.0167110
837.749	0.0167426
837.828	0.0167947
837.906	0.0168591
837.984	0.0166084
838.062	0.0167869
838.140	0.0168113
838.218	0.0167718
838.296	0.0168040
838.374	0.0166123
838.453	0.0167394
838.531	0.0167844
838.609	0.0167279
838.687	0.0167980
838.765	0.0166538
838.843	0.0167857
838.921	0.0167676
838.999	0.0166866
839.078	0.0166295
839.156	0.0166720
839.234	0.0165369
839.312	0.0166937
839.390	0.0165961
839.468	0.0166460
839.546	0.0166292
839.624	0.0164387
839.703	0.0165894
839.781	0.0165814
839.859	0.0165424
839.937	0.0165081
840.015	0.0165315
840.093	0.0164845
840.171	0.0165074
840.249	0.0165502
840.328	0.0165058
840.406	0.0166949
840.484	0.0164603
840.562	0.0166273
840.640	0.0165517
840.718	0.0165856
840.796	0.0166096
840.874	0.0165965
840.953	0.0164793
841.031	0.0166045
841.109	0.0164600
841.187	0.0165593
841.265	0.0166373
841.343	0.0165039
841.421	0.0165494
841.499	0.0166571
841.578	0.0166848
841.656	0.0166257
841.734	0.0165949
841.812	0.0165609
841.890	0.0166372
841.968	0.0165022
842.046	0.0164110
842.124	0.0165616
842.203	0.0164848
842.281	0.0165642
842.359	0.0163776
842.437	0.0164375
842.515	0.0164524
842.593	0.0162894
842.671	0.0163419
842.749	0.0164065
842.828	0.0164501
842.906	0.0163152
842.984	0.0164788
843.062	0.0163826
843.140	0.0164838
843.218	0.0166874
843.296	0.0165662
843.374	0.0166113
843.453	0.0165617
843.531	0.0166287
843.609	0.0166153
843.687	0.0165375
843.765	0.0167130
843.843	0.0168018
843.921	0.0167944
843.999	0.0168614
844.078	0.0168324
844.156	0.0169093
844.234	0.0169078
844.312	0.0170737
844.390	0.0168839
844.468	0.0169548
844.546	0.0168301
844.624	0.0167568
844.703	0.0167043
844.781	0.0165810
844.859	0.0166047
844.937	0.0166349
845.015	0.0164659
845.093	0.0162645
845.171	0.0164810
845.249	0.0164268
845.328	0.0161333
845.406	0.0161382
845.484	0.0160427
845.562	0.0160794
845.640	0.0161857
845.718	0.0159151
845.796	0.0160549
845.874	0.0160574
845.953	0.0161183
846.031	0.0161998
846.109	0.0160716
846.187	0.0161459
846.265	0.0162973
846.343	0.0163420
846.421	0.0162680
846.499	0.0163970
846.578	0.0165032
846.656	0.0165295
846.734	0.0164542
846.812	0.0166862
846.890	0.0167432
846.968	0.0167932
847.046	0.0169081
847.124	0.0168402
847.203	0.0170211
847.281	0.0169315
847.359	0.0170724
847.437	0.0169885
847.515	0.0169776
847.593	0.0171353
847.671	0.0171281
847.749	0.0170776
847.828	0.0170541
847.906	0.0169329
847.984	0.0171004
848.062	0.0172634
848.140	0.0169807
848.218	0.0169618
848.296	0.0168845
848.374	0.0168839
848.453	0.0168260
848.531	0.0167662
848.609	0.0167185
848.687	0.0165667
848.765	0.0164751
848.843	0.0166432
848.921	0.0167895
848.999	0.0164221
849.078	0.0164507
849.156	0.0165762
849.234	0.0164426
849.312	0.0164705
849.390	0.0164722
849.468	0.0164361
849.546	0.0163773
849.624	0.0163430
849.703	0.0162040
849.781	0.0164606
849.859	0.0164468
849.937	0.0163908
850.015	0.0163009
850.093	0.0164496
850.171	0.0163725
850.249	0.0163161
850.328	0.0164453
850.406	0.0164983
850.484	0.0164658
850.562	0.0164429
850.640	0.0164379
850.718	0.0163795
850.796	0.0164525
850.874	0.0164647
850.953	0.0164447
851.031	0.0164022
851.109	0.0165430
851.187	0.0164403
851.265	0.0165237
851.343	0.0165059
851.421	0.0166206
851.499	0.0165396
851.578	0.0166236
851.656	0.0165994
851.734	0.0166566
851.812	0.0168232
851.890	0.0167267
851.968	0.0167140
852.046	0.0167321
852.124	0.0167637
852.203	0.0168160
852.281	0.0166970
852.359	0.0167220
852.437	0.0168282
852.515	0.0166957
852.593	0.0166336
852.671	0.0165704
852.749	0.0167683
852.828	0.0167528
852.906	0.0167406
852.984	0.0166040
853.062	0.0166707
853.140	0.0167099
853.218	0.0166497
853.296	0.0166270
853.374	0.0165868
853.453	0.0165204
853.531	0.0166244
853.609	0.0166676
853.687	0.0167249
853.765	0.0164324
853.843	0.0165110
853.921	0.0165356
853.999	0.0164495
854.078	0.0164152
854.156	0.0164994
854.234	0.0165274
854.312	0.0164113
854.390	0.0165514
854.468	0.0164861
854.546	0.0163370
854.624	0.0164730
854.703	0.0163843
854.781	0.0164957
854.859	0.0165697
854.937	0.0164639
855.015	0.0164735
855.093	0.0162983
855.171	0.0166682
855.249	0.0165884
855.328	0.0165327
855.406	0.0165705
855.484	0.0166570
855.562	0.0168275
855.640	0.0166198
855.718	0.0167272
855.796	0.0168021
855.874	0.0168234
855.953	0.0167644
856.031	0.0166650
856.109	0.0167933
856.187	0.0169527
856.265	0.0167722
856.343	0.0169427
856.421	0.0169935
856.499	0.0169220
856.578	0.0168906
856.656	0.0167377
856.734	0.0167316
856.812	0.0167014
856.890	0.0167799
856.968	0.0168045
857.046	0.0167596
857.124	0.0168144
857.203	0.0167652
857.281	0.0168620
857.359	0.0166355
857.437	0.0167223
857.515	0.0166512
857.593	0.0167493
857.671	0.0166885
857.749	0.0166325
857.828	0.0166434
857.906	0.0166393
857.984	0.0165242
858.062	0.0164824
858.140	0.0166711
858.218	0.0166134
858.296	0.0164973
858.374	0.0165689
858.453	0.0165393
858.531	0.0164933
858.609	0.0164085
858.687	0.0164443
858.765	0.0165226
858.843	0.0165210
858.921	0.0164231
858.999	0.0164249
859.078	0.0165853
859.156	0.0165421
859.234	0.0166059
859.312	0.0164120
859.390	0.0164774
859.468	0.0165666
859.546	0.0165399
859.624	0.0166204
859.703	0.0166319
859.781	0.0166840
859.859	0.0167468
859.937	0.0167962
860.015	0.0166873
860.093	0.0168285
860.171	0.0166488
860.249	0.0167404
860.328	0.0168762
860.406	0.0168220
860.484	0.0168963
860.562	0.0168562
860.640	0.0169836
860.718	0.0169791
860.796	0.0168985
860.874	0.0168794
860.953	0.0168982
861.031	0.0167882
861.109	0.0167934
861.187	0.0167824
861.265	0.0167255
861.343	0.0166319
861.421	0.0166148
861.499	0.0166173
861.578	0.0165753
861.656	0.0165791
861.734	0.0166768
861.812	0.0167329
861.890	0.0165205
861.968	0.0167284
862.046	0.0166425
862.124	0.0166548
862.203	0.0166703
862.281	0.0167263
862.359	0.0167050
862.437	0.0166194
862.515	0.0165171
862.593	0.0166603
862.671	0.0166953
862.749	0.0166451
862.828	0.0167300
862.906	0.0167202
862.984	0.0167911
863.062	0.0166549
863.140	0.0166106
863.218	0.0167556
863.296	0.0167307
863.374	0.0165702
863.453	0.0167925
863.531	0.0166824
863.609	0.0165230
863.687	0.0167149
863.765	0.0167317
863.843	0.0166415
863.921	0.0166299
863.999	0.0164906
864.078	0.0164284
864.156	0.0165936
864.234	0.0165211
864.312	0.0164606
864.390	0.0165798
864.468	0.0166344
864.546	0.0165075
864.624	0.0165643
864.703	0.0166394
864.781	0.0166486
864.859	0.0164763
864.937	0.0164353
865.015	0.0165724
865.093	0.0166064
865.171	0.0167211
865.249	0.0166013
865.328	0.0166534
865.406	0.0167944
865.484	0.0167171
865.562	0.0166114
865.640	0.0166897
865.718	0.0167440
865.796	0.0167378
865.874	0.0167864
865.953	0.0167812
866.031	0.0166685
866.109	0.0167863
866.187	0.0166702
866.265	0.0166936
866.343	0.0166180
866.421	0.0168810
866.499	0.0166218
866.578	0.0166431
866.656	0.0166389
866.734	0.0165044
866.812	0.0166292
866.890	0.0166602
866.968	0.0164836
867.046	0.0166349
867.124	0.0165739
867.203	0.0165806
867.281	0.0165815
867.359	0.0166911
867.437	0.0166261
867.515	0.0166496
867.593	0.0165916
867.671	0.0166465
867.749	0.0165668
867.828	0.0166923
867.906	0.0166821
867.984	0.0166993
868.062	0.0167078
868.140	0.0166245
868.218	0.0166495
868.296	0.0165205
868.374	0.0166236
868.453	0.0167451
868.531	0.0166705
868.609	0.0167716
868.687	0.0164887
868.765	0.0166665
868.843	0.0166386
868.921	0.0165388
868.999	0.0166901
869.078	0.0165839
869.156	0.0165093
869.234	0.0165351
869.312	0.0163496
869.390	0.0163778
869.468	0.0165331
869.546	0.0163375
869.624	0.0164075
869.703	0.0164215
869.781	0.0165109
869.859	0.0163793
869.937	0.0163924
870.015	0.0165117
870.093	0.0166352
870.171	0.0165691
870.249	0.0165865
870.328	0.0165478
870.406	0.0166676
870.484	0.0167297
870.562	0.0165670
870.640	0.0166766
870.718	0.0166627
870.796	0.0167976
870.874	0.0164571
870.953	0.0165042
871.031	0.0165948
871.109	0.0166696
871.187	0.0166010
871.265	0.0165199
871.343	0.0165779
871.421	0.0164346
871.499	0.0165965
871.578	0.0163600
871.656	0.0164486
871.734	0.0164452
871.812	0.0164804
871.890	0.0165482
871.968	0.0166312
872.046	0.0165332
872.124	0.0165880
872.203	0.0165689
872.281	0.0165024
872.359	0.0167313
872.437	0.0166479
872.515	0.0166415
872.593	0.0166248
872.671	0.0166925
872.749	0.0168388
872.828	0.0165427
872.906	0.0167265
872.984	0.0166039
873.062	0.0168586
873.140	0.0167214
873.218	0.0166477
873.296	0.0166146
873.374	0.0164571
873.453	0.0165495
873.531	0.0165913
873.609	0.0165139
873.687	0.0164175
873.765	0.0164828
873.843	0.0165614
873.921	0.0164052
873.999	0.0164220
874.078	0.0163692
874.156	0.0164543
874.234	0.0163768
874.312	0.0164909
874.390	0.0164998
874.468	0.0162794
874.546	0.0164410
874.624	0.0165416
874.703	0.0165174
874.781	0.0164497
874.859	0.0164766
874.937	0.0164911
875.015	0.0167059
875.093	0.0166076
875.171	0.0167307
875.249	0.0167040
875.328	0.0167905
875.406	0.0169128
875.484	0.0167136
875.562	0.0167250
875.640	0.0167767
875.718	0.0168739
875.796	0.0167803
875.874	0.0166998
875.953	0.0168674
876.031	0.0167116
876.109	0.0168376
876.187	0.0166754
876.265	0.0167624
876.343	0.0167687
876.421	0.0166242
876.499	0.0166824
876.578	0.0166627
876.656	0.0166659
876.734	0.0165662
876.812	0.0165178
876.890	0.0166226
876.968	0.0165434
877.046	0.0165127
877.124	0.0165308
877.203	0.0164577
877.281	0.0165578
877.359	0.0167366
877.437	0.0165654
877.515	0.0165525
877.593	0.0165099
877.671	0.0166989
877.749	0.0166572
877.828	0.0166681
877.906	0.0167431
877.984	0.0168001
878.062	0.0166712
878.140	0.0168532
878.218	0.0168828
878.296	0.0167247
878.374	0.0168227
878.453	0.0168168
878.531	0.0168735
878.609	0.0169852
878.687	0.0169726
878.765	0.0167646
878.843	0.0167921
878.921	0.0166202
878.999	0.0165820
879.078	0.0167740
879.156	0.0167496
879.234	0.0166251
879.312	0.0165372
879.390	0.0166209
879.468	0.0164513
879.546	0.0164600
879.624	0.0163896
879.703	0.0164606
879.781	0.0165074
879.859	0.0164863
879.937	0.0165321
880.015	0.0165218
880.093	0.0165510
880.171	0.0165932
880.249	0.0165429
880.328	0.0166639
880.406	0.0165991
880.484	0.0165453
880.562	0.0166591
880.640	0.0166427
880.718	0.0166830
880.796	0.0167966
880.874	0.0168189
880.953	0.0165965
881.031	0.0167440
881.109	0.0167586
881.187	0.0166656
881.265	0.0165841
881.343	0.0166100
881.421	0.0166256
881.499	0.0166383
881.578	0.0165748
881.656	0.0165732
881.734	0.0166324
881.812	0.0164664
881.890	0.0164774
881.968	0.0165968
882.046	0.0165194
882.124	0.0164370
882.203	0.0164351
882.281	0.0164241
882.359	0.0164107
882.437	0.0164829
882.515	0.0164098
882.593	0.0165115
882.671	0.0165879
882.749	0.0165421
882.828	0.0162809
882.906	0.0165617
882.984	0.0165857
883.062	0.0165432
883.140	0.0166068
883.218	0.0166346
883.296	0.0167574
883.374	0.0165706
883.453	0.0167637
883.531	0.0167134
883.609	0.0168468
883.687	0.0167783
883.765	0.0167689
883.843	0.0167864
883.921	0.0168059
883.999	0.0169037
884.078	0.0168787
884.156	0.0169825
884.234	0.0168055
884.312	0.0168319
884.390	0.0168722
884.468	0.0168378
884.546	0.0167034
884.624	0.0168341
884.703	0.0168645
884.781	0.0165801
884.859	0.0166711
884.937	0.0167236
885.015	0.0165771
885.093	0.0166930
885.171	0.0166072
885.249	0.0165688
885.328	0.0165894
885.406	0.0166861
885.484	0.0166235
885.562	0.0164383
885.640	0.0164585
885.718	0.0165591
885.796	0.0166883
885.874	0.0165079
885.953	0.0165326
886.031	0.0165170
886.109	0.0166721
886.187	0.0166177
886.265	0.0166116
886.343	0.0166106
886.421	0.0166250
886.499	0.0166070
886.578	0.0165511
886.656	0.0167474
886.734	0.0166865
886.812	0.0164880
886.890	0.0166001
886.968	0.0166474
887.046	0.0167316
887.124	0.0165617
887.203	0.0165824
887.281	0.0167152
887.359	0.0166361
887.437	0.0167363
887.515	0.0167008
887.593	0.0167209
887.671	0.0166134
887.749	0.0166285
887.828	0.0166294
887.906	0.0165370
887.984	0.0165131
888.062	0.0163990
888.140	0.0165977
888.218	0.0167108
888.296	0.0164857
888.374	0.0165943
888.453	0.0164388
888.531	0.0165536
888.609	0.0164075
888.687	0.0166466
888.765	0.0166187
888.843	0.0165878
888.921	0.0166453
888.999	0.0166320
889.078	0.0166272
889.156	0.0166608
889.234	0.0167673
889.312	0.0166341
889.390	0.0167822
889.468	0.0168804
889.546	0.0166788
889.624	0.0166631
889.703	0.0168385
889.781	0.0167032
889.859	0.0168053
889.937	0.0166862
890.015	0.0167734
890.093	0.0168273
890.171	0.0166441
890.249	0.0166486
890.328	0.0165075
890.406	0.0165730
890.484	0.0166010
890.562	0.0166311
890.640	0.0166212
890.718	0.0166648
890.796	0.0165219
890.874	0.0164571
890.953	0.0164873
891.031	0.0165821
891.109	0.0166372
891.187	0.0166234
891.265	0.0165116
891.343	0.0164661
891.421	0.0164920
891.499	0.0163843
891.578	0.0165141
891.656	0.0166219
891.734	0.0165748
891.812	0.0165974
891.890	0.0165852
891.968	0.0166243
892.046	0.0166271
892.124	0.0166061
892.203	0.0166625
892.281	0.0165153
892.359	0.0164464
892.437	0.0165550
892.515	0.0166054
892.593	0.0165598
892.671	0.0165116
892.749	0.0165383
892.828	0.0164368
892.906	0.0165115
892.984	0.0166029
893.062	0.0165555
893.140	0.0165273
893.218	0.0164997
893.296	0.0165161
893.374	0.0164526
893.453	0.0165267
893.531	0.0163460
893.609	0.0164312
893.687	0.0165720
893.765	0.0164180
893.843	0.0165204
893.921	0.0164893
893.999	0.0163990
894.078	0.0165033
894.156	0.0165150
894.234	0.0164865
894.312	0.0164904
894.390	0.0165096
894.468	0.0166124
894.546	0.0165749
894.624	0.0166515
894.703	0.0165923
894.781	0.0169099
894.859	0.0167674
894.937	0.0167955
895.015	0.0167874
895.093	0.0168135
895.171	0.0168372
895.249	0.0168187
895.328	0.0167927
895.406	0.0168891
895.484	0.0169297
895.562	0.0169213
895.640	0.0167171
895.718	0.0167817
895.796	0.0170502
895.874	0.0168317
895.953	0.0165806
896.031	0.0168373
896.109	0.0167490
896.187	0.0166862
896.265	0.0164319
896.343	0.0166161
896.421	0.0165726
896.499	0.0164575
896.578	0.0164177
896.656	0.0165553
896.734	0.0165579
896.812	0.0164111
896.890	0.0165229
896.968	0.0164900
897.046	0.0165356
897.124	0.0164956
897.203	0.0165012
897.281	0.0163997
897.359	0.0164003
897.437	0.0165794
897.515	0.0164188
897.593	0.0164988
897.671	0.0165972
897.749	0.0165942
897.828	0.0165766
897.906	0.0164188
897.984	0.0165647
898.062	0.0165794
898.140	0.0166386
898.218	0.0164656
898.296	0.0165687
898.374	0.0165044
898.453	0.0165453
898.531	0.0166598
898.609	0.0166811
898.687	0.0166736
898.765	0.0166474
898.843	0.0165999
898.921	0.0166084
898.999	0.0166200
899.078	0.0166953
899.156	0.0166085
899.234	0.0166607
899.312	0.0166250
899.390	0.0167460
899.468	0.0167844
899.546	0.0168993
899.624	0.0166965
899.703	0.0165434
899.781	0.0166360
899.859	0.0166598
899.937	0.0167355
900.015	0.0167276
900.093	0.0166549
900.171	0.0167123
900.249	0.0167025
900.328	0.0166838
900.406	0.0168022
900.484	0.0167412
900.562	0.0168033
900.640	0.0165137
900.718	0.0167548
900.796	0.0166993
900.874	0.0166441
900.953	0.0168217
901.031	0.0167412
901.109	0.0167846
901.187	0.0168000
901.265	0.0167348
901.343	0.0166030
901.421	0.0167175
901.499	0.0166706
901.578	0.0166801
901.656	0.0166664
901.734	0.0165313
901.812	0.0165881
901.890	0.0166348
901.968	0.0166336
902.046	0.0166783
902.124	0.0165775
902.203	0.0165529
902.281	0.0165929
902.359	0.0166051
902.437	0.0166699
902.515	0.0166300
902.593	0.0166106
902.671	0.0166051
902.749	0.0166063
902.828	0.0166605
902.906	0.0166637
902.984	0.0166645
903.062	0.0166923
903.140	0.0166648
903.218	0.0166659
903.296	0.0166340
903.374	0.0165512
903.453	0.0165173
903.531	0.0165818
903.609	0.0166203
903.687	0.0165023
903.765	0.0164991
903.843	0.0165379
903.921	0.0165733
903.999	0.0165049
904.078	0.0166456
904.156	0.0164679
904.234	0.0165198
904.312	0.0165791
904.390	0.0164566
904.468	0.0166679
904.546	0.0167393
904.624	0.0166377
904.703	0.0166693
904.781	0.0167026
904.859	0.0166998
904.937	0.0166560
905.015	0.0166528
905.093	0.0166457
905.171	0.0167491
905.249	0.0167878
905.328	0.0166671
905.406	0.0167101
905.484	0.0167247
905.562	0.0165234
905.640	0.0165955
905.718	0.0167175
905.796	0.0166293
905.874	0.0166113
905.953	0.0166720
906.031	0.0165186
906.109	0.0163854
906.187	0.0166328
906.265	0.0165822
906.343	0.0165207
906.421	0.0165697
906.499	0.0166049
906.578	0.0164160
906.656	0.0165246
906.734	0.0164909
906.812	0.0164234
906.890	0.0163840
906.968	0.0164566
907.046	0.0163821
907.124	0.0165026
907.203	0.0165586
907.281	0.0164310
907.359	0.0165357
907.437	0.0164774
907.515	0.0165710
907.593	0.0165425
907.671	0.0164411
907.749	0.0166937
907.828	0.0166670
907.906	0.0164514
907.984	0.0164787
908.062	0.0165253
908.140	0.0166395
908.218	0.0165852
908.296	0.0165359
908.374	0.0165552
908.453	0.0164603
908.531	0.0166129
908.609	0.0165569
908.687	0.0164661
908.765	0.0165689
908.843	0.0166263
908.921	0.0165665
908.999	0.0165204
909.078	0.0165191
909.156	0.0165416
909.234	0.0165820
909.312	0.0166830
909.390	0.0166361
909.468	0.0167905
909.546	0.0166868
909.624	0.0166109
909.703	0.0166959
909.781	0.0167663
909.859	0.0165591
909.937	0.0165916
910.015	0.0166247
910.093	0.0166816
910.171	0.0166511
910.249	0.0167088
910.328	0.0165465
910.406	0.0165611
910.484	0.0167747
910.562	0.0167184
910.640	0.0166013
910.718	0.0166791
910.796	0.0167677
910.874	0.0167444
910.953	0.0166824
911.031	0.0166769
911.109	0.0167558
911.187	0.0167282
911.265	0.0165945
911.343	0.0165881
911.421	0.0166806
911.499	0.0166690
911.578	0.0166676
911.656	0.0165559
911.734	0.0165470
911.812	0.0164879
911.890	0.0167061
911.968	0.0166280
912.046	0.0165450
912.124	0.0165015
912.203	0.0165975
912.281	0.0164525
912.359	0.0166802
912.437	0.0165321
912.515	0.0165780
912.593	0.0166272
912.671	0.0166468
912.749	0.0165283
912.828	0.0165572
912.906	0.0166951
912.984	0.0165394
913.062	0.0165961
913.140	0.0164838
913.218	0.0164836
913.296	0.0166901
913.374	0.0165948
913.453	0.0166133
913.531	0.0162983
913.609	0.0166219
913.687	0.0166328
913.765	0.0166835
913.843	0.0165345
913.921	0.0165284
913.999	0.0165269
914.078	0.0165878
914.156	0.0166086
914.234	0.0165974
914.312	0.0166471
914.390	0.0166198
914.468	0.0166291
914.546	0.0165565
914.624	0.0166128
914.703	0.0166866
914.781	0.0165804
914.859	0.0165720
914.937	0.0165018
915.015	0.0166207
915.093	0.0165305
915.171	0.0165857
915.249	0.0165701
915.328	0.0166734
915.406	0.0166386
915.484	0.0166122
915.562	0.0165896
915.640	0.0165821
915.718	0.0166969
915.796	0.0166158
915.874	0.0166225
915.953	0.0165593
916.031	0.0165318
916.109	0.0166387
916.187	0.0166762
916.265	0.0166125
916.343	0.0165932
916.421	0.0166445
916.499	0.0165518
916.578	0.0165247
916.656	0.0166364
916.734	0.0166122
916.812	0.0165228
916.890	0.0165952
916.968	0.0164342
917.046	0.0164693
917.124	0.0166802
917.203	0.0166167
917.281	0.0165186
917.359	0.0165599
917.437	0.0165800
917.515	0.0165964
917.593	0.0166293
917.671	0.0165990
917.749	0.0165864
917.828	0.0165710
917.906	0.0165548
917.984	0.0166805
918.062	0.0166312
918.140	0.0166468
918.218	0.0164666
918.296	0.0165952
918.374	0.0165621
918.453	0.0165220
918.531	0.0166274
918.609	0.0166715
918.687	0.0167126
918.765	0.0165819
918.843	0.0164983
918.921	0.0165139
918.999	0.0165805
919.078	0.0165504
919.156	0.0166128
919.234	0.0166868
919.312	0.0165781
919.390	0.0165757
919.468	0.0164335
919.546	0.0165887
919.624	0.0165589
919.703	0.0165558
919.781	0.0165589
919.859	0.0166491
919.937	0.0165911
