06/10/2022	16:48:54	Ver.	4.1	UNKNOWN
Optical Delay	600.015094	Delta X		0.078125	Sweeps	1	Scan Rate	0/0
Coordinates	Axis 1	NaN	Axis 2	NaN	Axis 3	NaN	Axis 4	NaN	Axis 5	NaN	Axis 6	0.000000
TX Power	0.000000	RX Power	0.000000

600.015	0.0163351
600.093	0.0164624
600.171	0.0165331
600.249	0.0163438
600.328	0.0163901
600.406	0.0165386
600.484	0.0165058
600.562	0.0165492
600.640	0.0163712
600.718	0.0163020
600.796	0.0162652
600.874	0.0163931
600.953	0.0163625
601.031	0.0164127
601.109	0.0164721
601.187	0.0164810
601.265	0.0164541
601.343	0.0164005
601.421	0.0164603
601.499	0.0164498
601.578	0.0163345
601.656	0.0164260
601.734	0.0163236
601.812	0.0163976
601.890	0.0164867
601.968	0.0163251
602.046	0.0164848
602.124	0.0164642
602.203	0.0164831
602.281	0.0163595
602.359	0.0163535
602.437	0.0163067
602.515	0.0163354
602.593	0.0163779
602.671	0.0164256
602.749	0.0163116
602.828	0.0164936
602.906	0.0164551
602.984	0.0162561
603.062	0.0164055
603.140	0.0164749
603.218	0.0163848
603.296	0.0164241
603.374	0.0164163
603.453	0.0162424
603.531	0.0161675
603.609	0.0164320
603.687	0.0163864
603.765	0.0163232
603.843	0.0163573
603.921	0.0162621
603.999	0.0162980
604.078	0.0163945
604.156	0.0163268
604.234	0.0163530
604.312	0.0162907
604.390	0.0162923
604.468	0.0164195
604.546	0.0164822
604.624	0.0162738
604.703	0.0163465
604.781	0.0162206
604.859	0.0163013
604.937	0.0163944
605.015	0.0161798
605.093	0.0162823
605.171	0.0163710
605.249	0.0164184
605.328	0.0163245
605.406	0.0163448
605.484	0.0164841
605.562	0.0163728
605.640	0.0163569
605.718	0.0163194
605.796	0.0163266
605.874	0.0163060
605.953	0.0163237
606.031	0.0163858
606.109	0.0164646
606.187	0.0164013
606.265	0.0164080
606.343	0.0164496
606.421	0.0162922
606.499	0.0163121
606.578	0.0163717
606.656	0.0163519
606.734	0.0163831
606.812	0.0163914
606.890	0.0163670
606.968	0.0163715
607.046	0.0163589
607.124	0.0166020
607.203	0.0164862
607.281	0.0163642
607.359	0.0162531
607.437	0.0163336
607.515	0.0164046
607.593	0.0162469
607.671	0.0162370
607.749	0.0164248
607.828	0.0164904
607.906	0.0164016
607.984	0.0164751
608.062	0.0162842
608.140	0.0164260
608.218	0.0164101
608.296	0.0164392
608.374	0.0162789
608.453	0.0164826
608.531	0.0165381
608.609	0.0163924
608.687	0.0163493
608.765	0.0165168
608.843	0.0164432
608.921	0.0164988
608.999	0.0164101
609.078	0.0164593
609.156	0.0165031
609.234	0.0163702
609.312	0.0164711
609.390	0.0164438
609.468	0.0163900
609.546	0.0164088
609.624	0.0165871
609.703	0.0164090
609.781	0.0163561
609.859	0.0164079
609.937	0.0164507
610.015	0.0164438
610.093	0.0164756
610.171	0.0164313
610.249	0.0166006
610.328	0.0165236
610.406	0.0164785
610.484	0.0165198
610.562	0.0164822
610.640	0.0164989
610.718	0.0164382
610.796	0.0164871
610.874	0.0165003
610.953	0.0165713
611.031	0.0165688
611.109	0.0164796
611.187	0.0164577
611.265	0.0164317
611.343	0.0164246
611.421	0.0164772
611.499	0.0163991
611.578	0.0165227
611.656	0.0164683
611.734	0.0164302
611.812	0.0164386
611.890	0.0164013
611.968	0.0164871
612.046	0.0163932
612.124	0.0165067
612.203	0.0165807
612.281	0.0163850
612.359	0.0163543
612.437	0.0164867
612.515	0.0163979
612.593	0.0164516
612.671	0.0165215
612.749	0.0163377
612.828	0.0163689
612.906	0.0163764
612.984	0.0164532
613.062	0.0164194
613.140	0.0162253
613.218	0.0164057
613.296	0.0164449
613.374	0.0164366
613.453	0.0163982
613.531	0.0163862
613.609	0.0162693
613.687	0.0163090
613.765	0.0165074
613.843	0.0163934
613.921	0.0164890
613.999	0.0165131
614.078	0.0164781
614.156	0.0163807
614.234	0.0165562
614.312	0.0164224
614.390	0.0163495
614.468	0.0164468
614.546	0.0163982
614.624	0.0163029
614.703	0.0164480
614.781	0.0164790
614.859	0.0163580
614.937	0.0164439
615.015	0.0162741
615.093	0.0164556
615.171	0.0163380
615.249	0.0164040
615.328	0.0164378
615.406	0.0163855
615.484	0.0163486
615.562	0.0164241
615.640	0.0163770
615.718	0.0164048
615.796	0.0164272
615.874	0.0164660
615.953	0.0163400
616.031	0.0163795
616.109	0.0163653
616.187	0.0164616
616.265	0.0162915
616.343	0.0162994
616.421	0.0163805
616.499	0.0165694
616.578	0.0163585
616.656	0.0162682
616.734	0.0163203
616.812	0.0162644
616.890	0.0160563
616.968	0.0162704
617.046	0.0163156
617.124	0.0163618
617.203	0.0161955
617.281	0.0160558
617.359	0.0162370
617.437	0.0162482
617.515	0.0160394
617.593	0.0159601
617.671	0.0162035
617.749	0.0161207
617.828	0.0160556
617.906	0.0160799
617.984	0.0161762
618.062	0.0161140
618.140	0.0161924
618.218	0.0162823
618.296	0.0161858
618.374	0.0161988
618.453	0.0163075
618.531	0.0163645
618.609	0.0163084
618.687	0.0163433
618.765	0.0162846
618.843	0.0163187
618.921	0.0162093
618.999	0.0162965
619.078	0.0162011
619.156	0.0163451
619.234	0.0163545
619.312	0.0162394
619.390	0.0163515
619.468	0.0161497
619.546	0.0161404
619.624	0.0161288
619.703	0.0160831
619.781	0.0160332
619.859	0.0161656
619.937	0.0161790
620.015	0.0162054
620.093	0.0162418
620.171	0.0161173
620.249	0.0161980
620.328	0.0161587
620.406	0.0160432
620.484	0.0162521
620.562	0.0162029
620.640	0.0162134
620.718	0.0162466
620.796	0.0161533
620.874	0.0162527
620.953	0.0164011
621.031	0.0162370
621.109	0.0161636
621.187	0.0162276
621.265	0.0163106
621.343	0.0162756
621.421	0.0162365
621.499	0.0163031
621.578	0.0163100
621.656	0.0161911
621.734	0.0162438
621.812	0.0162189
621.890	0.0162281
621.968	0.0162907
622.046	0.0162530
622.124	0.0161753
622.203	0.0162128
622.281	0.0163214
622.359	0.0163401
622.437	0.0161307
622.515	0.0163179
622.593	0.0163697
622.671	0.0162531
622.749	0.0163389
622.828	0.0162672
622.906	0.0163570
622.984	0.0163882
623.062	0.0164205
623.140	0.0164366
623.218	0.0162565
623.296	0.0164373
623.374	0.0163692
623.453	0.0162778
623.531	0.0163604
623.609	0.0163618
623.687	0.0164108
623.765	0.0164949
623.843	0.0163573
623.921	0.0164327
623.999	0.0163310
624.078	0.0165418
624.156	0.0164658
624.234	0.0164510
624.312	0.0164441
624.390	0.0164095
624.468	0.0163248
624.546	0.0165549
624.624	0.0165194
624.703	0.0165433
624.781	0.0163891
624.859	0.0163788
624.937	0.0164438
625.015	0.0165765
625.093	0.0165506
625.171	0.0164664
625.249	0.0164342
625.328	0.0163763
625.406	0.0164429
625.484	0.0164977
625.562	0.0163646
625.640	0.0164117
625.718	0.0163914
625.796	0.0163947
625.874	0.0164535
625.953	0.0164735
626.031	0.0164221
626.109	0.0164378
626.187	0.0164253
626.265	0.0165176
626.343	0.0165625
626.421	0.0165926
626.499	0.0165115
626.578	0.0165388
626.656	0.0165131
626.734	0.0164298
626.812	0.0166362
626.890	0.0166656
626.968	0.0164917
627.046	0.0164629
627.124	0.0165075
627.203	0.0166405
627.281	0.0164909
627.359	0.0165192
627.437	0.0164548
627.515	0.0165059
627.593	0.0164447
627.671	0.0164130
627.749	0.0164529
627.828	0.0164922
627.906	0.0164324
627.984	0.0162711
628.062	0.0162926
628.140	0.0164276
628.218	0.0163779
628.296	0.0164951
628.374	0.0163702
628.453	0.0162579
628.531	0.0164252
628.609	0.0162768
628.687	0.0163512
628.765	0.0163044
628.843	0.0163468
628.921	0.0163044
628.999	0.0163035
629.078	0.0162103
629.156	0.0165305
629.234	0.0163918
629.312	0.0163287
629.390	0.0162414
629.468	0.0163533
629.546	0.0164100
629.624	0.0163302
629.703	0.0162943
629.781	0.0164507
629.859	0.0164354
629.937	0.0162968
630.015	0.0163598
630.093	0.0163262
630.171	0.0162929
630.249	0.0163969
630.328	0.0163982
630.406	0.0163053
630.484	0.0163186
630.562	0.0163966
630.640	0.0164630
630.718	0.0164825
630.796	0.0164550
630.874	0.0163631
630.953	0.0162334
631.031	0.0163595
631.109	0.0164162
631.187	0.0163588
631.265	0.0164525
631.343	0.0165349
631.421	0.0164323
631.499	0.0165127
631.578	0.0164100
631.656	0.0163343
631.734	0.0164320
631.812	0.0165396
631.890	0.0165630
631.968	0.0165484
632.046	0.0163604
632.124	0.0164416
632.203	0.0164226
632.281	0.0164891
632.359	0.0164996
632.437	0.0164336
632.515	0.0164892
632.593	0.0165871
632.671	0.0165298
632.749	0.0166721
632.828	0.0165405
632.906	0.0165386
632.984	0.0164662
633.062	0.0163786
633.140	0.0165335
633.218	0.0165730
633.296	0.0165369
633.374	0.0165391
633.453	0.0163943
633.531	0.0163586
633.609	0.0164173
633.687	0.0165614
633.765	0.0164653
633.843	0.0165089
633.921	0.0165885
633.999	0.0165039
634.078	0.0164917
634.156	0.0165284
634.234	0.0164892
634.312	0.0164671
634.390	0.0165633
634.468	0.0165319
634.546	0.0164275
634.624	0.0164593
634.703	0.0166465
634.781	0.0164008
634.859	0.0164982
634.937	0.0165336
635.015	0.0164671
635.093	0.0166082
635.171	0.0164776
635.249	0.0165325
635.328	0.0165810
635.406	0.0165003
635.484	0.0165294
635.562	0.0165151
635.640	0.0165249
635.718	0.0164021
635.796	0.0165161
635.874	0.0164212
635.953	0.0163622
636.031	0.0163589
636.109	0.0164764
636.187	0.0165094
636.265	0.0165589
636.343	0.0167148
636.421	0.0164449
636.499	0.0162741
636.578	0.0165462
636.656	0.0165103
636.734	0.0164617
636.812	0.0164736
636.890	0.0165598
636.968	0.0164805
637.046	0.0164167
637.124	0.0163625
637.203	0.0165244
637.281	0.0164000
637.359	0.0163535
637.437	0.0163261
637.515	0.0164951
637.593	0.0165165
637.671	0.0164497
637.749	0.0163924
637.828	0.0164708
637.906	0.0163734
637.984	0.0163791
638.062	0.0164386
638.140	0.0164574
638.218	0.0163465
638.296	0.0163657
638.374	0.0164036
638.453	0.0164336
638.531	0.0164122
638.609	0.0164269
638.687	0.0162280
638.765	0.0163964
638.843	0.0164680
638.921	0.0163122
638.999	0.0163105
639.078	0.0164274
639.156	0.0163241
639.234	0.0163519
639.312	0.0164542
639.390	0.0165403
639.468	0.0164532
639.546	0.0165337
639.624	0.0164113
639.703	0.0162974
639.781	0.0164063
639.859	0.0164129
639.937	0.0163869
640.015	0.0163203
640.093	0.0163457
640.171	0.0162586
640.249	0.0162154
640.328	0.0162885
640.406	0.0163406
640.484	0.0162770
640.562	0.0162909
640.640	0.0161983
640.718	0.0162899
640.796	0.0163326
640.874	0.0162309
640.953	0.0162392
641.031	0.0162292
641.109	0.0163021
641.187	0.0162389
641.265	0.0162679
641.343	0.0163098
641.421	0.0161887
641.499	0.0161236
641.578	0.0162625
641.656	0.0163309
641.734	0.0161427
641.812	0.0162689
641.890	0.0161913
641.968	0.0161697
642.046	0.0162722
642.124	0.0161701
642.203	0.0161493
642.281	0.0160367
642.359	0.0162370
642.437	0.0161850
642.515	0.0161581
642.593	0.0159418
642.671	0.0160617
642.749	0.0162015
642.828	0.0158842
642.906	0.0161401
642.984	0.0160251
643.062	0.0160541
643.140	0.0161021
643.218	0.0159029
643.296	0.0161182
643.374	0.0160909
643.453	0.0160888
643.531	0.0159669
643.609	0.0159840
643.687	0.0160475
643.765	0.0161042
643.843	0.0159630
643.921	0.0159965
643.999	0.0160348
644.078	0.0160466
644.156	0.0161039
644.234	0.0159905
644.312	0.0159715
644.390	0.0160020
644.468	0.0159808
644.546	0.0160115
644.624	0.0160664
644.703	0.0160699
644.781	0.0160913
644.859	0.0159247
644.937	0.0161538
645.015	0.0160744
645.093	0.0161407
645.171	0.0160752
645.249	0.0161987
645.328	0.0162915
645.406	0.0162020
645.484	0.0161824
645.562	0.0162706
645.640	0.0162099
645.718	0.0162606
645.796	0.0162536
645.874	0.0162679
645.953	0.0162651
646.031	0.0163488
646.109	0.0162621
646.187	0.0162205
646.265	0.0162288
646.343	0.0163012
646.421	0.0161929
646.499	0.0163512
646.578	0.0163428
646.656	0.0163631
646.734	0.0162061
646.812	0.0163412
646.890	0.0162739
646.968	0.0163313
647.046	0.0163414
647.124	0.0163976
647.203	0.0164056
647.281	0.0164353
647.359	0.0165219
647.437	0.0163915
647.515	0.0163232
647.593	0.0162500
647.671	0.0163931
647.749	0.0163438
647.828	0.0163641
647.906	0.0163326
647.984	0.0164159
648.062	0.0162150
648.140	0.0162005
648.218	0.0163136
648.296	0.0163623
648.374	0.0164393
648.453	0.0163148
648.531	0.0161160
648.609	0.0162839
648.687	0.0162880
648.765	0.0162627
648.843	0.0163755
648.921	0.0162444
648.999	0.0163058
649.078	0.0162525
649.156	0.0163511
649.234	0.0162383
649.312	0.0163336
649.390	0.0162823
649.468	0.0162786
649.546	0.0161880
649.624	0.0162534
649.703	0.0164450
649.781	0.0163493
649.859	0.0162781
649.937	0.0164059
650.015	0.0163704
650.093	0.0163009
650.171	0.0164592
650.249	0.0164056
650.328	0.0164829
650.406	0.0164803
650.484	0.0163048
650.562	0.0164108
650.640	0.0163394
650.718	0.0164799
650.796	0.0163732
650.874	0.0165446
650.953	0.0164107
651.031	0.0164439
651.109	0.0163033
651.187	0.0163573
651.265	0.0162803
651.343	0.0163829
651.421	0.0164938
651.499	0.0163175
651.578	0.0164251
651.656	0.0165112
651.734	0.0162676
651.812	0.0163441
651.890	0.0163994
651.968	0.0162730
652.046	0.0163889
652.124	0.0164458
652.203	0.0164967
652.281	0.0164325
652.359	0.0164774
652.437	0.0164790
652.515	0.0163947
652.593	0.0163888
652.671	0.0165524
652.749	0.0164165
652.828	0.0163773
652.906	0.0164658
652.984	0.0165540
653.062	0.0165309
653.140	0.0163121
653.218	0.0165273
653.296	0.0164120
653.374	0.0164036
653.453	0.0165623
653.531	0.0163410
653.609	0.0163755
653.687	0.0164637
653.765	0.0164745
653.843	0.0164565
653.921	0.0164401
653.999	0.0163915
654.078	0.0165015
654.156	0.0164658
654.234	0.0165697
654.312	0.0164016
654.390	0.0163779
654.468	0.0164722
654.546	0.0165966
654.624	0.0163213
654.703	0.0163445
654.781	0.0163734
654.859	0.0165283
654.937	0.0162995
655.015	0.0163908
655.093	0.0164945
655.171	0.0164133
655.249	0.0164108
655.328	0.0164488
655.406	0.0164556
655.484	0.0164295
655.562	0.0164616
655.640	0.0164460
655.718	0.0163181
655.796	0.0164883
655.874	0.0163817
655.953	0.0164752
656.031	0.0163579
656.109	0.0164552
656.187	0.0163757
656.265	0.0163874
656.343	0.0164024
656.421	0.0165353
656.499	0.0164218
656.578	0.0164238
656.656	0.0164401
656.734	0.0164470
656.812	0.0164704
656.890	0.0163123
656.968	0.0164388
657.046	0.0163512
657.124	0.0163072
657.203	0.0165680
657.281	0.0164423
657.359	0.0164040
657.437	0.0165436
657.515	0.0165613
657.593	0.0165910
657.671	0.0164509
657.749	0.0163831
657.828	0.0164209
657.906	0.0164151
657.984	0.0163511
658.062	0.0164597
658.140	0.0164715
658.218	0.0164356
658.296	0.0165118
658.374	0.0164305
658.453	0.0164963
658.531	0.0163501
658.609	0.0163090
658.687	0.0164046
658.765	0.0164242
658.843	0.0164883
658.921	0.0164001
658.999	0.0163889
659.078	0.0164639
659.156	0.0163257
659.234	0.0164870
659.312	0.0164450
659.390	0.0164028
659.468	0.0163621
659.546	0.0163857
659.624	0.0163782
659.703	0.0163017
659.781	0.0165428
659.859	0.0165080
659.937	0.0164280
660.015	0.0162777
660.093	0.0163871
660.171	0.0163817
660.249	0.0165140
660.328	0.0166012
660.406	0.0163747
660.484	0.0164498
660.562	0.0163451
660.640	0.0163106
660.718	0.0163055
660.796	0.0163028
660.874	0.0164413
660.953	0.0164060
661.031	0.0164370
661.109	0.0165305
661.187	0.0163966
661.265	0.0162432
661.343	0.0162930
661.421	0.0162923
661.499	0.0163010
661.578	0.0163791
661.656	0.0163436
661.734	0.0163873
661.812	0.0162948
661.890	0.0163438
661.968	0.0163023
662.046	0.0163378
662.124	0.0161657
662.203	0.0161696
662.281	0.0163746
662.359	0.0163981
662.437	0.0163346
662.515	0.0163589
662.593	0.0164050
662.671	0.0163321
662.749	0.0161813
662.828	0.0164306
662.906	0.0164700
662.984	0.0163402
663.062	0.0163303
663.140	0.0162120
663.218	0.0162956
663.296	0.0163737
663.374	0.0163170
663.453	0.0162453
663.531	0.0162452
663.609	0.0164921
663.687	0.0164502
663.765	0.0162157
663.843	0.0163702
663.921	0.0163179
663.999	0.0163661
664.078	0.0162692
664.156	0.0163603
664.234	0.0163385
664.312	0.0163367
664.390	0.0162953
664.468	0.0163616
664.546	0.0162288
664.624	0.0163797
664.703	0.0164328
664.781	0.0163130
664.859	0.0161391
664.937	0.0163123
665.015	0.0163515
665.093	0.0163123
665.171	0.0163435
665.249	0.0162601
665.328	0.0162418
665.406	0.0163739
665.484	0.0163242
665.562	0.0163112
665.640	0.0162854
665.718	0.0162000
665.796	0.0162480
665.874	0.0162349
665.953	0.0163617
666.031	0.0162628
666.109	0.0164561
666.187	0.0162595
666.265	0.0163007
666.343	0.0163161
666.421	0.0162957
666.499	0.0163162
666.578	0.0162212
666.656	0.0162561
666.734	0.0163313
666.812	0.0163339
666.890	0.0163191
666.968	0.0162856
667.046	0.0162331
667.124	0.0161396
667.203	0.0162725
667.281	0.0163826
667.359	0.0162661
667.437	0.0163229
667.515	0.0163809
667.593	0.0162481
667.671	0.0162534
667.749	0.0162324
667.828	0.0161620
667.906	0.0163156
667.984	0.0162727
668.062	0.0162578
668.140	0.0161710
668.218	0.0162974
668.296	0.0162630
668.374	0.0163983
668.453	0.0161736
668.531	0.0163120
668.609	0.0162390
668.687	0.0162847
668.765	0.0162350
668.843	0.0162214
668.921	0.0161825
668.999	0.0161060
669.078	0.0161444
669.156	0.0161864
669.234	0.0160352
669.312	0.0161998
669.390	0.0161806
669.468	0.0162542
669.546	0.0162746
669.624	0.0161940
669.703	0.0163431
669.781	0.0163393
669.859	0.0162923
669.937	0.0162373
670.015	0.0161302
670.093	0.0161589
670.171	0.0163301
670.249	0.0163763
670.328	0.0163087
670.406	0.0164027
670.484	0.0162905
670.562	0.0163850
670.640	0.0161829
670.718	0.0163314
670.796	0.0163773
670.874	0.0162466
670.953	0.0162215
671.031	0.0164252
671.109	0.0163039
671.187	0.0163207
671.265	0.0162114
671.343	0.0163434
671.421	0.0163524
671.499	0.0163626
671.578	0.0163612
671.656	0.0162671
671.734	0.0162450
671.812	0.0164310
671.890	0.0163005
671.968	0.0162894
672.046	0.0164681
672.124	0.0163075
672.203	0.0163669
672.281	0.0163559
672.359	0.0161836
672.437	0.0164209
672.515	0.0163499
672.593	0.0163385
672.671	0.0163597
672.749	0.0163614
672.828	0.0162556
672.906	0.0164400
672.984	0.0163828
673.062	0.0162356
673.140	0.0163412
673.218	0.0162501
673.296	0.0163626
673.374	0.0163320
673.453	0.0163021
673.531	0.0164139
673.609	0.0164184
673.687	0.0163961
673.765	0.0163051
673.843	0.0162334
673.921	0.0163832
673.999	0.0163270
674.078	0.0162936
674.156	0.0162637
674.234	0.0163240
674.312	0.0164087
674.390	0.0164934
674.468	0.0162860
674.546	0.0163046
674.624	0.0163887
674.703	0.0165649
674.781	0.0164030
674.859	0.0161969
674.937	0.0163074
675.015	0.0164675
675.093	0.0163936
675.171	0.0162958
675.249	0.0164087
675.328	0.0162773
675.406	0.0162897
675.484	0.0164262
675.562	0.0162694
675.640	0.0163175
675.718	0.0164208
675.796	0.0162629
675.874	0.0162614
675.953	0.0162728
676.031	0.0163271
676.109	0.0162618
676.187	0.0162392
676.265	0.0162469
676.343	0.0162480
676.421	0.0162872
676.499	0.0162782
676.578	0.0163309
676.656	0.0163832
676.734	0.0164216
676.812	0.0164303
676.890	0.0164960
676.968	0.0163116
677.046	0.0164294
677.124	0.0164608
677.203	0.0162290
677.281	0.0163330
677.359	0.0164479
677.437	0.0163718
677.515	0.0163729
677.593	0.0164005
677.671	0.0164143
677.749	0.0164455
677.828	0.0163528
677.906	0.0164715
677.984	0.0162662
678.062	0.0163276
678.140	0.0163931
678.218	0.0164594
678.296	0.0164137
678.374	0.0164362
678.453	0.0163161
678.531	0.0163689
678.609	0.0164075
678.687	0.0163184
678.765	0.0163438
678.843	0.0164311
678.921	0.0164368
678.999	0.0164571
679.078	0.0164642
679.156	0.0163383
679.234	0.0164151
679.312	0.0164241
679.390	0.0164551
679.468	0.0163978
679.546	0.0164639
679.624	0.0164163
679.703	0.0164381
679.781	0.0165507
679.859	0.0165887
679.937	0.0164049
680.015	0.0164098
680.093	0.0164214
680.171	0.0164948
680.249	0.0164983
680.328	0.0163181
680.406	0.0164275
680.484	0.0165241
680.562	0.0164925
680.640	0.0164346
680.718	0.0164735
680.796	0.0165054
680.874	0.0165253
680.953	0.0164480
681.031	0.0163283
681.109	0.0164478
681.187	0.0165115
681.265	0.0163017
681.343	0.0163718
681.421	0.0164416
681.499	0.0166524
681.578	0.0163467
681.656	0.0165106
681.734	0.0165035
681.812	0.0164003
681.890	0.0165002
681.968	0.0164537
682.046	0.0164817
682.124	0.0165137
682.203	0.0163851
682.281	0.0163715
682.359	0.0164323
682.437	0.0164964
682.515	0.0165022
682.593	0.0164182
682.671	0.0165427
682.749	0.0166346
682.828	0.0163491
682.906	0.0162568
682.984	0.0164456
683.062	0.0164602
683.140	0.0164797
683.218	0.0164898
683.296	0.0164587
683.374	0.0164622
683.453	0.0164862
683.531	0.0164552
683.609	0.0164750
683.687	0.0163837
683.765	0.0164362
683.843	0.0165487
683.921	0.0164397
683.999	0.0163448
684.078	0.0164300
684.156	0.0164838
684.234	0.0164803
684.312	0.0165059
684.390	0.0164327
684.468	0.0163991
684.546	0.0164161
684.624	0.0164114
684.703	0.0164955
684.781	0.0163536
684.859	0.0165406
684.937	0.0164245
685.015	0.0164093
685.093	0.0164883
685.171	0.0163200
685.249	0.0164013
685.328	0.0164199
685.406	0.0165414
685.484	0.0164541
685.562	0.0162993
685.640	0.0164439
685.718	0.0165253
685.796	0.0163551
685.874	0.0163541
685.953	0.0163749
686.031	0.0164938
686.109	0.0165215
686.187	0.0163951
686.265	0.0164198
686.343	0.0165900
686.421	0.0164377
686.499	0.0164774
686.578	0.0167123
686.656	0.0165604
686.734	0.0164048
686.812	0.0164339
686.890	0.0164462
686.968	0.0164411
687.046	0.0164189
687.124	0.0164777
687.203	0.0164961
687.281	0.0163925
687.359	0.0164536
687.437	0.0164565
687.515	0.0164814
687.593	0.0163960
687.671	0.0165475
687.749	0.0163027
687.828	0.0164207
687.906	0.0165353
687.984	0.0164890
688.062	0.0164228
688.140	0.0164260
688.218	0.0164935
688.296	0.0165217
688.374	0.0165283
688.453	0.0164896
688.531	0.0164416
688.609	0.0163889
688.687	0.0163889
688.765	0.0163763
688.843	0.0164767
688.921	0.0163774
688.999	0.0163806
689.078	0.0165080
689.156	0.0164705
689.234	0.0163786
689.312	0.0163734
689.390	0.0163934
689.468	0.0164539
689.546	0.0163515
689.624	0.0163341
689.703	0.0163654
689.781	0.0163113
689.859	0.0163618
689.937	0.0162299
690.015	0.0163741
690.093	0.0164395
690.171	0.0163697
690.249	0.0164228
690.328	0.0163789
690.406	0.0163795
690.484	0.0163560
690.562	0.0162838
690.640	0.0163156
690.718	0.0161205
690.796	0.0162661
690.874	0.0163080
690.953	0.0162774
691.031	0.0163155
691.109	0.0162774
691.187	0.0162935
691.265	0.0164091
691.343	0.0161837
691.421	0.0163200
691.499	0.0162410
691.578	0.0162173
691.656	0.0162985
691.734	0.0164353
691.812	0.0163096
691.890	0.0162645
691.968	0.0162749
692.046	0.0164252
692.124	0.0162978
692.203	0.0162076
692.281	0.0162099
692.359	0.0163347
692.437	0.0161548
692.515	0.0164297
692.593	0.0163020
692.671	0.0162820
692.749	0.0162669
692.828	0.0162593
692.906	0.0161727
692.984	0.0162380
693.062	0.0161845
693.140	0.0162605
693.218	0.0162672
693.296	0.0162598
693.374	0.0163149
693.453	0.0162148
693.531	0.0160607
693.609	0.0163242
693.687	0.0161861
693.765	0.0162467
693.843	0.0162135
693.921	0.0161359
693.999	0.0163049
694.078	0.0162729
694.156	0.0164077
694.234	0.0162454
694.312	0.0162440
694.390	0.0161070
694.468	0.0162720
694.546	0.0163085
694.624	0.0162807
694.703	0.0161692
694.781	0.0163409
694.859	0.0162764
694.937	0.0163283
695.015	0.0163596
695.093	0.0162224
695.171	0.0162588
695.249	0.0162714
695.328	0.0163325
695.406	0.0164941
695.484	0.0163522
695.562	0.0162604
695.640	0.0162799
695.718	0.0162994
695.796	0.0162125
695.874	0.0165329
695.953	0.0162941
696.031	0.0162248
696.109	0.0163791
696.187	0.0163152
696.265	0.0163692
696.343	0.0164423
696.421	0.0164082
696.499	0.0163824
696.578	0.0164023
696.656	0.0164800
696.734	0.0162585
696.812	0.0163442
696.890	0.0164195
696.968	0.0165086
697.046	0.0163069
697.124	0.0163378
697.203	0.0164645
697.281	0.0163950
697.359	0.0163579
697.437	0.0163831
697.515	0.0163451
697.593	0.0163592
697.671	0.0164333
697.749	0.0163815
697.828	0.0164938
697.906	0.0164200
697.984	0.0163390
698.062	0.0163661
698.140	0.0164775
698.218	0.0165380
698.296	0.0163719
698.374	0.0163741
698.453	0.0164379
698.531	0.0164043
698.609	0.0163617
698.687	0.0164285
698.765	0.0163659
698.843	0.0164011
698.921	0.0163570
698.999	0.0163521
699.078	0.0164056
699.156	0.0164097
699.234	0.0164153
699.312	0.0163826
699.390	0.0164214
699.468	0.0163111
699.546	0.0163753
699.624	0.0163416
699.703	0.0165216
699.781	0.0163814
699.859	0.0164096
699.937	0.0163595
700.015	0.0164041
700.093	0.0163474
700.171	0.0162707
700.249	0.0163853
700.328	0.0163820
700.406	0.0165231
700.484	0.0164212
700.562	0.0164722
700.640	0.0164263
700.718	0.0164397
700.796	0.0165191
700.874	0.0165988
700.953	0.0163907
701.031	0.0164890
701.109	0.0164433
701.187	0.0164004
701.265	0.0164818
701.343	0.0164450
701.421	0.0165065
701.499	0.0164449
701.578	0.0163670
701.656	0.0164078
701.734	0.0164687
701.812	0.0165666
701.890	0.0164194
701.968	0.0164681
702.046	0.0164573
702.124	0.0165231
702.203	0.0165044
702.281	0.0165133
702.359	0.0164751
702.437	0.0164791
702.515	0.0165557
702.593	0.0165504
702.671	0.0165329
702.749	0.0164804
702.828	0.0163138
702.906	0.0163396
702.984	0.0164741
703.062	0.0163546
703.140	0.0163186
703.218	0.0164065
703.296	0.0164108
703.374	0.0164521
703.453	0.0164525
703.531	0.0165659
703.609	0.0165027
703.687	0.0164891
703.765	0.0165100
703.843	0.0165701
703.921	0.0164045
703.999	0.0164898
704.078	0.0164536
704.156	0.0163771
704.234	0.0164120
704.312	0.0165390
704.390	0.0163950
704.468	0.0163873
704.546	0.0164735
704.624	0.0165198
704.703	0.0163439
704.781	0.0164857
704.859	0.0165363
704.937	0.0164582
705.015	0.0164212
705.093	0.0164493
705.171	0.0165137
705.249	0.0164859
705.328	0.0164936
705.406	0.0164436
705.484	0.0163866
705.562	0.0165294
705.640	0.0163289
705.718	0.0165868
705.796	0.0164746
705.874	0.0164523
705.953	0.0165297
706.031	0.0165343
706.109	0.0164388
706.187	0.0165339
706.265	0.0166108
706.343	0.0166079
706.421	0.0165364
706.499	0.0165190
706.578	0.0164169
706.656	0.0165018
706.734	0.0165179
706.812	0.0165184
706.890	0.0164915
706.968	0.0165646
707.046	0.0166796
707.124	0.0164146
707.203	0.0164646
707.281	0.0166400
707.359	0.0163432
707.437	0.0165686
707.515	0.0166555
707.593	0.0164153
707.671	0.0164991
707.749	0.0165591
707.828	0.0166680
707.906	0.0165095
707.984	0.0165741
708.062	0.0164173
708.140	0.0165022
708.218	0.0164945
708.296	0.0163802
708.374	0.0164841
708.453	0.0164558
708.531	0.0165000
708.609	0.0165660
708.687	0.0165820
708.765	0.0164074
708.843	0.0164733
708.921	0.0164833
708.999	0.0166061
709.078	0.0164799
709.156	0.0164123
709.234	0.0164444
709.312	0.0165931
709.390	0.0165006
709.468	0.0164776
709.546	0.0163953
709.624	0.0165281
709.703	0.0164793
709.781	0.0163876
709.859	0.0164042
709.937	0.0163806
710.015	0.0165082
710.093	0.0164497
710.171	0.0164147
710.249	0.0163946
710.328	0.0165581
710.406	0.0163786
710.484	0.0166087
710.562	0.0164426
710.640	0.0164559
710.718	0.0163960
710.796	0.0163668
710.874	0.0163446
710.953	0.0164260
711.031	0.0163821
711.109	0.0164709
711.187	0.0164771
711.265	0.0164229
711.343	0.0164291
711.421	0.0164725
711.499	0.0163657
711.578	0.0163103
711.656	0.0162344
711.734	0.0163942
711.812	0.0163255
711.890	0.0162174
711.968	0.0163823
712.046	0.0162777
712.124	0.0163116
712.203	0.0164529
712.281	0.0162731
712.359	0.0163084
712.437	0.0164757
712.515	0.0161979
712.593	0.0163850
712.671	0.0162823
712.749	0.0162903
712.828	0.0161834
712.906	0.0162989
712.984	0.0163523
713.062	0.0163490
713.140	0.0163423
713.218	0.0162920
713.296	0.0161961
713.374	0.0164440
713.453	0.0163943
713.531	0.0162469
713.609	0.0162714
713.687	0.0163078
713.765	0.0161842
713.843	0.0163358
713.921	0.0163770
713.999	0.0162507
714.078	0.0162783
714.156	0.0163075
714.234	0.0161929
714.312	0.0163071
714.390	0.0162402
714.468	0.0161900
714.546	0.0162354
714.624	0.0162066
714.703	0.0161934
714.781	0.0161176
714.859	0.0162204
714.937	0.0161892
715.015	0.0161591
715.093	0.0161050
715.171	0.0161391
715.249	0.0161565
715.328	0.0160775
715.406	0.0162535
715.484	0.0162903
715.562	0.0162425
715.640	0.0161630
715.718	0.0162472
715.796	0.0162598
715.874	0.0163103
715.953	0.0161862
716.031	0.0161115
716.109	0.0162343
716.187	0.0163335
716.265	0.0162894
716.343	0.0163439
716.421	0.0162649
716.499	0.0161929
716.578	0.0162390
716.656	0.0161822
716.734	0.0163668
716.812	0.0163361
716.890	0.0162547
716.968	0.0163026
717.046	0.0162389
717.124	0.0163361
717.203	0.0162366
717.281	0.0162743
717.359	0.0162204
717.437	0.0163121
717.515	0.0164288
717.593	0.0163303
717.671	0.0162611
717.749	0.0163196
717.828	0.0162258
717.906	0.0161750
717.984	0.0162315
718.062	0.0162224
718.140	0.0162624
718.218	0.0162849
718.296	0.0162355
718.374	0.0161906
718.453	0.0160478
718.531	0.0162350
718.609	0.0162399
718.687	0.0161042
718.765	0.0161566
718.843	0.0162614
718.921	0.0161487
718.999	0.0162644
719.078	0.0162424
719.156	0.0161715
719.234	0.0160993
719.312	0.0162686
719.390	0.0162074
719.468	0.0162032
719.546	0.0162019
719.624	0.0159969
719.703	0.0161892
719.781	0.0160693
719.859	0.0162593
719.937	0.0162788
720.015	0.0162969
720.093	0.0162525
720.171	0.0161022
720.249	0.0163251
720.328	0.0162103
720.406	0.0162838
720.484	0.0162868
720.562	0.0162357
720.640	0.0161831
720.718	0.0163354
720.796	0.0162924
720.874	0.0161848
720.953	0.0162568
721.031	0.0161366
721.109	0.0161915
721.187	0.0163136
721.265	0.0162540
721.343	0.0162090
721.421	0.0162100
721.499	0.0161602
721.578	0.0161644
721.656	0.0161868
721.734	0.0162407
721.812	0.0161307
721.890	0.0162623
721.968	0.0162824
722.046	0.0162028
722.124	0.0162595
722.203	0.0161096
722.281	0.0160945
722.359	0.0162664
722.437	0.0163628
722.515	0.0162621
722.593	0.0162660
722.671	0.0161391
722.749	0.0161597
722.828	0.0161877
722.906	0.0163100
722.984	0.0162672
723.062	0.0162332
723.140	0.0161374
723.218	0.0162984
723.296	0.0163575
723.374	0.0162727
723.453	0.0162697
723.531	0.0164240
723.609	0.0162334
723.687	0.0163171
723.765	0.0163334
723.843	0.0161951
723.921	0.0163824
723.999	0.0162868
724.078	0.0161895
724.156	0.0163169
724.234	0.0164587
724.312	0.0162292
724.390	0.0163166
724.468	0.0162870
724.546	0.0162579
724.624	0.0162407
724.703	0.0164062
724.781	0.0164017
724.859	0.0161942
724.937	0.0161885
725.015	0.0165324
725.093	0.0163936
725.171	0.0164003
725.249	0.0163636
725.328	0.0162546
725.406	0.0164276
725.484	0.0164123
725.562	0.0163267
725.640	0.0162684
725.718	0.0163578
725.796	0.0162978
725.874	0.0162625
725.953	0.0163290
726.031	0.0163167
726.109	0.0163940
726.187	0.0162624
726.265	0.0164711
726.343	0.0164188
726.421	0.0161917
726.499	0.0165126
726.578	0.0164651
726.656	0.0163462
726.734	0.0163357
726.812	0.0164503
726.890	0.0163244
726.968	0.0163751
727.046	0.0163684
727.124	0.0162748
727.203	0.0162925
727.281	0.0165407
727.359	0.0165585
727.437	0.0163800
727.515	0.0163602
727.593	0.0165741
727.671	0.0164751
727.749	0.0163485
727.828	0.0163285
727.906	0.0164379
727.984	0.0164203
728.062	0.0164317
728.140	0.0164088
728.218	0.0164117
728.296	0.0163638
728.374	0.0164237
728.453	0.0164262
728.531	0.0164657
728.609	0.0164497
728.687	0.0164644
728.765	0.0165541
728.843	0.0164228
728.921	0.0164126
728.999	0.0164461
729.078	0.0165453
729.156	0.0164556
729.234	0.0165090
729.312	0.0166348
729.390	0.0164432
729.468	0.0165825
729.546	0.0165167
729.624	0.0164552
729.703	0.0164113
729.781	0.0166000
729.859	0.0165108
729.937	0.0164248
730.015	0.0165659
730.093	0.0164005
730.171	0.0164732
730.249	0.0166025
730.328	0.0165943
730.406	0.0164992
730.484	0.0164968
730.562	0.0163701
730.640	0.0166332
730.718	0.0165063
730.796	0.0164773
730.874	0.0165385
730.953	0.0164102
731.031	0.0165277
731.109	0.0165531
731.187	0.0163604
731.265	0.0164528
731.343	0.0164178
731.421	0.0164810
731.499	0.0163290
731.578	0.0163760
731.656	0.0163871
731.734	0.0163607
731.812	0.0166648
731.890	0.0163126
731.968	0.0164707
732.046	0.0164922
732.124	0.0164743
732.203	0.0164284
732.281	0.0163718
732.359	0.0164301
732.437	0.0164406
732.515	0.0165612
732.593	0.0163890
732.671	0.0164259
732.749	0.0164803
732.828	0.0164001
732.906	0.0164608
732.984	0.0164558
733.062	0.0165155
733.140	0.0165283
733.218	0.0163950
733.296	0.0164108
733.374	0.0164426
733.453	0.0165580
733.531	0.0163313
733.609	0.0163988
733.687	0.0164722
733.765	0.0163863
733.843	0.0164458
733.921	0.0164374
733.999	0.0163398
734.078	0.0165100
734.156	0.0164982
734.234	0.0163689
734.312	0.0163282
734.390	0.0164230
734.468	0.0163411
734.546	0.0164394
734.624	0.0164078
734.703	0.0163231
734.781	0.0163021
734.859	0.0163313
734.937	0.0164464
735.015	0.0163618
735.093	0.0161239
735.171	0.0162260
735.249	0.0163290
735.328	0.0162447
735.406	0.0163256
735.484	0.0162127
735.562	0.0161903
735.640	0.0162241
735.718	0.0162327
735.796	0.0163779
735.874	0.0162213
735.953	0.0162840
736.031	0.0162474
736.109	0.0162229
736.187	0.0162608
736.265	0.0162725
736.343	0.0162964
736.421	0.0163078
736.499	0.0163596
736.578	0.0161324
736.656	0.0162580
736.734	0.0162186
736.812	0.0163634
736.890	0.0163013
736.968	0.0161256
737.046	0.0162888
737.124	0.0162331
737.203	0.0163105
737.281	0.0162078
737.359	0.0163683
737.437	0.0162769
737.515	0.0162888
737.593	0.0163104
737.671	0.0162510
737.749	0.0164006
737.828	0.0163940
737.906	0.0161520
737.984	0.0163394
738.062	0.0162203
738.140	0.0162346
738.218	0.0163061
738.296	0.0161768
738.374	0.0163131
738.453	0.0162360
738.531	0.0162019
738.609	0.0162518
738.687	0.0161772
738.765	0.0162920
738.843	0.0161527
738.921	0.0160555
738.999	0.0160529
739.078	0.0163715
739.156	0.0162034
739.234	0.0160911
739.312	0.0162465
739.390	0.0161675
739.468	0.0161118
739.546	0.0160735
739.624	0.0162064
739.703	0.0161969
739.781	0.0162112
739.859	0.0164142
739.937	0.0161398
740.015	0.0161053
740.093	0.0161947
740.171	0.0159736
740.249	0.0161050
740.328	0.0162326
740.406	0.0163159
740.484	0.0162826
740.562	0.0163088
740.640	0.0161926
740.718	0.0161985
740.796	0.0162453
740.874	0.0162589
740.953	0.0160971
741.031	0.0162341
741.109	0.0162325
741.187	0.0161276
741.265	0.0161972
741.343	0.0162448
741.421	0.0161314
741.499	0.0161932
741.578	0.0162214
741.656	0.0162299
741.734	0.0162627
741.812	0.0161832
741.890	0.0162419
741.968	0.0161847
742.046	0.0161932
742.124	0.0162191
742.203	0.0161504
742.281	0.0162460
742.359	0.0162810
742.437	0.0161755
742.515	0.0161473
742.593	0.0162027
742.671	0.0162353
742.749	0.0160806
742.828	0.0162461
742.906	0.0162455
742.984	0.0162527
743.062	0.0161904
743.140	0.0162032
743.218	0.0162350
743.296	0.0162708
743.374	0.0160937
743.453	0.0162077
743.531	0.0161639
743.609	0.0160871
743.687	0.0161677
743.765	0.0161169
743.843	0.0162933
743.921	0.0162907
743.999	0.0162724
744.078	0.0161880
744.156	0.0162465
744.234	0.0163964
744.312	0.0162070
744.390	0.0162234
744.468	0.0161878
744.546	0.0161086
744.624	0.0161546
744.703	0.0164119
744.781	0.0163525
744.859	0.0162678
744.937	0.0161510
745.015	0.0160633
745.093	0.0162827
745.171	0.0162266
745.249	0.0162392
745.328	0.0161564
745.406	0.0159793
745.484	0.0161971
745.562	0.0161909
745.640	0.0160922
745.718	0.0162566
745.796	0.0162073
745.874	0.0161855
745.953	0.0163480
746.031	0.0163906
746.109	0.0161249
746.187	0.0162296
746.265	0.0162466
746.343	0.0161919
746.421	0.0163689
746.499	0.0162825
746.578	0.0162460
746.656	0.0162835
746.734	0.0162945
746.812	0.0162597
746.890	0.0163392
746.968	0.0163536
747.046	0.0163768
747.124	0.0164407
747.203	0.0163999
747.281	0.0162837
747.359	0.0163385
747.437	0.0165706
747.515	0.0163823
747.593	0.0162695
747.671	0.0163232
747.749	0.0163338
747.828	0.0163564
747.906	0.0163655
747.984	0.0163585
748.062	0.0164223
748.140	0.0164648
748.218	0.0163255
748.296	0.0163898
748.374	0.0165105
748.453	0.0164717
748.531	0.0164579
748.609	0.0164360
748.687	0.0164043
748.765	0.0164046
748.843	0.0163850
748.921	0.0163826
748.999	0.0164170
749.078	0.0163946
749.156	0.0163588
749.234	0.0163451
749.312	0.0161820
749.390	0.0164009
749.468	0.0163700
749.546	0.0163956
749.624	0.0164162
749.703	0.0164072
749.781	0.0163622
749.859	0.0164333
749.937	0.0164905
750.015	0.0165436
750.093	0.0165976
750.171	0.0164901
750.249	0.0163988
750.328	0.0165339
750.406	0.0165056
750.484	0.0165241
750.562	0.0164476
750.640	0.0164369
750.718	0.0163493
750.796	0.0164564
750.874	0.0164761
750.953	0.0163809
751.031	0.0164724
751.109	0.0162704
751.187	0.0163808
751.265	0.0163360
751.343	0.0165314
751.421	0.0164234
751.499	0.0163613
751.578	0.0164830
751.656	0.0163982
751.734	0.0163508
751.812	0.0164124
751.890	0.0164072
751.968	0.0164513
752.046	0.0163490
752.124	0.0162936
752.203	0.0164378
752.281	0.0164674
752.359	0.0163207
752.437	0.0164348
752.515	0.0164924
752.593	0.0164397
752.671	0.0164668
752.749	0.0164951
752.828	0.0165603
752.906	0.0164407
752.984	0.0165070
753.062	0.0165077
753.140	0.0164617
753.218	0.0165042
753.296	0.0163880
753.374	0.0164616
753.453	0.0164728
753.531	0.0164211
753.609	0.0164449
753.687	0.0164680
753.765	0.0163797
753.843	0.0163966
753.921	0.0165251
753.999	0.0162967
754.078	0.0163608
754.156	0.0164795
754.234	0.0163783
754.312	0.0163684
754.390	0.0164288
754.468	0.0164428
754.546	0.0163129
754.624	0.0165430
754.703	0.0166219
754.781	0.0163605
754.859	0.0165643
754.937	0.0164348
755.015	0.0163702
755.093	0.0164219
755.171	0.0163678
755.249	0.0165791
755.328	0.0165416
755.406	0.0166509
755.484	0.0165356
755.562	0.0163836
755.640	0.0164973
755.718	0.0165448
755.796	0.0165518
755.874	0.0165810
755.953	0.0164681
756.031	0.0166248
756.109	0.0164338
756.187	0.0164658
756.265	0.0166032
756.343	0.0165202
756.421	0.0164742
756.499	0.0164732
756.578	0.0165090
756.656	0.0165680
756.734	0.0164509
756.812	0.0163707
756.890	0.0164282
756.968	0.0164821
757.046	0.0163499
757.124	0.0165546
757.203	0.0165163
757.281	0.0163978
757.359	0.0163321
757.437	0.0165073
757.515	0.0163334
757.593	0.0165056
757.671	0.0165660
757.749	0.0165053
757.828	0.0163795
757.906	0.0163997
757.984	0.0164802
758.062	0.0165000
758.140	0.0166022
758.218	0.0164906
758.296	0.0164954
758.374	0.0165392
758.453	0.0165833
758.531	0.0165184
758.609	0.0164915
758.687	0.0163996
758.765	0.0164658
758.843	0.0166112
758.921	0.0165620
758.999	0.0164777
759.078	0.0165334
759.156	0.0165080
759.234	0.0163859
759.312	0.0164594
759.390	0.0164538
759.468	0.0164315
759.546	0.0165559
759.624	0.0164219
759.703	0.0164310
759.781	0.0165091
759.859	0.0163810
759.937	0.0164076
760.015	0.0165144
760.093	0.0163874
760.171	0.0165166
760.249	0.0164046
760.328	0.0163215
760.406	0.0164639
760.484	0.0163342
760.562	0.0164196
760.640	0.0164866
760.718	0.0164467
760.796	0.0162966
760.874	0.0162983
760.953	0.0162486
761.031	0.0162727
761.109	0.0163722
761.187	0.0163868
761.265	0.0162403
761.343	0.0163886
761.421	0.0163162
761.499	0.0163116
761.578	0.0164227
761.656	0.0162444
761.734	0.0163025
761.812	0.0164842
761.890	0.0163346
761.968	0.0162988
762.046	0.0162475
762.124	0.0163835
762.203	0.0163756
762.281	0.0162339
762.359	0.0162895
762.437	0.0163018
762.515	0.0163924
762.593	0.0162270
762.671	0.0163893
762.749	0.0165370
762.828	0.0164117
762.906	0.0165331
762.984	0.0164453
763.062	0.0164175
763.140	0.0162559
763.218	0.0164810
763.296	0.0164796
763.374	0.0165071
763.453	0.0165484
763.531	0.0164484
763.609	0.0164536
763.687	0.0164375
763.765	0.0164241
763.843	0.0165251
763.921	0.0164571
763.999	0.0163585
764.078	0.0163457
764.156	0.0163656
764.234	0.0163691
764.312	0.0164943
764.390	0.0163771
764.468	0.0163250
764.546	0.0163929
764.624	0.0162215
764.703	0.0163605
764.781	0.0164425
764.859	0.0162150
764.937	0.0163597
765.015	0.0163249
765.093	0.0163855
765.171	0.0163676
765.249	0.0163066
765.328	0.0163245
765.406	0.0163609
765.484	0.0164706
765.562	0.0163251
765.640	0.0165143
765.718	0.0163728
765.796	0.0162308
765.874	0.0163329
765.953	0.0164931
766.031	0.0162448
766.109	0.0162867
766.187	0.0163809
766.265	0.0162413
766.343	0.0162727
766.421	0.0164850
766.499	0.0163805
766.578	0.0164069
766.656	0.0162222
766.734	0.0161927
766.812	0.0164812
766.890	0.0163953
766.968	0.0163254
767.046	0.0164622
767.124	0.0165105
767.203	0.0164828
767.281	0.0164186
767.359	0.0164099
767.437	0.0164751
767.515	0.0165816
767.593	0.0165606
767.671	0.0165351
767.749	0.0166740
767.828	0.0165638
767.906	0.0165695
767.984	0.0164594
768.062	0.0164759
768.140	0.0163559
768.218	0.0165141
768.296	0.0164250
768.374	0.0163302
768.453	0.0164559
768.531	0.0163565
768.609	0.0163791
768.687	0.0165347
768.765	0.0162959
768.843	0.0162691
768.921	0.0163644
768.999	0.0163147
769.078	0.0163395
769.156	0.0163209
769.234	0.0163428
769.312	0.0163136
769.390	0.0162560
769.468	0.0161900
769.546	0.0164357
769.624	0.0163650
769.703	0.0162914
769.781	0.0162474
769.859	0.0164714
769.937	0.0165064
770.015	0.0163499
770.093	0.0164820
770.171	0.0163609
770.249	0.0163414
770.328	0.0163817
770.406	0.0162846
770.484	0.0162654
770.562	0.0163265
770.640	0.0162766
770.718	0.0164140
770.796	0.0164538
770.874	0.0163766
770.953	0.0163235
771.031	0.0163620
771.109	0.0163529
771.187	0.0163208
771.265	0.0162715
771.343	0.0163561
771.421	0.0163742
771.499	0.0163627
771.578	0.0163483
771.656	0.0164690
771.734	0.0165423
771.812	0.0164228
771.890	0.0164050
771.968	0.0164428
772.046	0.0165231
772.124	0.0165065
772.203	0.0165168
772.281	0.0163232
772.359	0.0164961
772.437	0.0165287
772.515	0.0166102
772.593	0.0166718
772.671	0.0164279
772.749	0.0166060
772.828	0.0165338
772.906	0.0165667
772.984	0.0165249
773.062	0.0165942
773.140	0.0165810
773.218	0.0165159
773.296	0.0165310
773.374	0.0163560
773.453	0.0164014
773.531	0.0163081
773.609	0.0163570
773.687	0.0163651
773.765	0.0164424
773.843	0.0163135
773.921	0.0163605
773.999	0.0163462
774.078	0.0163217
774.156	0.0162545
774.234	0.0161710
774.312	0.0161271
774.390	0.0160686
774.468	0.0162449
774.546	0.0162750
774.624	0.0161905
774.703	0.0161652
774.781	0.0163052
774.859	0.0161643
774.937	0.0161927
775.015	0.0162827
775.093	0.0162825
775.171	0.0162770
775.249	0.0160748
775.328	0.0162074
775.406	0.0163051
775.484	0.0163968
775.562	0.0163588
775.640	0.0163074
775.718	0.0164141
775.796	0.0164870
775.874	0.0163373
775.953	0.0161388
776.031	0.0162614
776.109	0.0164059
776.187	0.0163190
776.265	0.0162685
776.343	0.0163337
776.421	0.0163779
776.499	0.0163417
776.578	0.0163935
776.656	0.0163549
776.734	0.0164133
776.812	0.0164418
776.890	0.0163899
776.968	0.0165236
777.046	0.0164616
777.124	0.0164806
777.203	0.0165250
777.281	0.0165565
777.359	0.0165025
777.437	0.0165239
777.515	0.0164643
777.593	0.0165216
777.671	0.0165635
777.749	0.0165157
777.828	0.0166302
777.906	0.0164120
777.984	0.0164099
778.062	0.0165240
778.140	0.0165530
778.218	0.0165083
778.296	0.0163699
778.374	0.0163261
778.453	0.0164365
778.531	0.0164281
778.609	0.0162846
778.687	0.0162753
778.765	0.0162633
778.843	0.0162843
778.921	0.0164087
778.999	0.0164262
779.078	0.0162441
779.156	0.0162543
779.234	0.0162367
779.312	0.0163697
779.390	0.0162713
779.468	0.0162149
779.546	0.0163536
779.624	0.0163656
779.703	0.0163416
779.781	0.0163567
779.859	0.0163420
779.937	0.0163493
780.015	0.0163760
780.093	0.0163058
780.171	0.0165850
780.249	0.0164814
780.328	0.0162894
780.406	0.0164595
780.484	0.0166142
780.562	0.0164051
780.640	0.0164711
780.718	0.0165605
780.796	0.0164778
780.874	0.0163743
780.953	0.0165208
781.031	0.0164035
781.109	0.0165302
781.187	0.0164939
781.265	0.0163725
781.343	0.0164203
781.421	0.0163185
781.499	0.0164867
781.578	0.0165082
781.656	0.0162569
781.734	0.0163478
781.812	0.0165041
781.890	0.0164111
781.968	0.0164148
782.046	0.0163641
782.124	0.0163790
782.203	0.0164466
782.281	0.0164905
782.359	0.0164640
782.437	0.0166058
782.515	0.0165958
782.593	0.0166224
782.671	0.0164944
782.749	0.0164725
782.828	0.0165634
782.906	0.0165775
782.984	0.0165189
783.062	0.0165455
783.140	0.0165093
783.218	0.0164940
783.296	0.0164073
783.374	0.0164560
783.453	0.0163750
783.531	0.0163190
783.609	0.0162307
783.687	0.0162980
783.765	0.0162925
783.843	0.0162009
783.921	0.0162101
783.999	0.0164028
784.078	0.0162639
784.156	0.0163360
784.234	0.0161666
784.312	0.0160587
784.390	0.0163356
784.468	0.0162338
784.546	0.0161288
784.624	0.0161696
784.703	0.0161741
784.781	0.0161726
784.859	0.0161486
784.937	0.0163276
785.015	0.0163340
785.093	0.0162238
785.171	0.0162278
785.249	0.0163836
785.328	0.0163712
785.406	0.0162991
785.484	0.0163256
785.562	0.0162605
785.640	0.0162798
785.718	0.0162757
785.796	0.0164273
785.874	0.0165118
785.953	0.0163805
786.031	0.0164444
786.109	0.0164214
786.187	0.0165360
786.265	0.0164270
786.343	0.0165324
786.421	0.0164620
786.499	0.0165831
786.578	0.0166033
786.656	0.0164998
786.734	0.0165009
786.812	0.0165467
786.890	0.0165556
786.968	0.0165286
787.046	0.0166186
787.124	0.0166815
787.203	0.0165376
787.281	0.0165176
787.359	0.0165079
787.437	0.0166105
787.515	0.0165894
787.593	0.0165974
787.671	0.0166180
787.749	0.0165183
787.828	0.0166255
787.906	0.0167458
787.984	0.0166207
788.062	0.0166469
788.140	0.0166116
788.218	0.0164861
788.296	0.0164609
788.374	0.0163884
788.453	0.0165254
788.531	0.0163367
788.609	0.0163775
788.687	0.0163660
788.765	0.0163726
788.843	0.0163870
788.921	0.0162948
788.999	0.0163534
789.078	0.0163629
789.156	0.0163555
789.234	0.0162843
789.312	0.0162330
789.390	0.0162487
789.468	0.0162997
789.546	0.0163346
789.624	0.0161785
789.703	0.0163173
789.781	0.0163346
789.859	0.0162066
789.937	0.0164915
790.015	0.0162521
790.093	0.0163461
790.171	0.0164919
790.249	0.0163740
790.328	0.0164847
790.406	0.0164064
790.484	0.0163514
790.562	0.0163100
790.640	0.0165147
790.718	0.0163801
790.796	0.0163260
790.874	0.0164403
790.953	0.0164993
791.031	0.0165076
791.109	0.0164885
791.187	0.0165354
791.265	0.0165575
791.343	0.0164548
791.421	0.0163592
791.499	0.0164330
791.578	0.0163660
791.656	0.0163632
791.734	0.0164297
791.812	0.0164870
791.890	0.0164906
791.968	0.0165605
792.046	0.0165172
792.124	0.0164169
792.203	0.0164745
792.281	0.0166454
792.359	0.0165601
792.437	0.0163979
792.515	0.0164097
792.593	0.0164800
792.671	0.0165047
792.749	0.0164591
792.828	0.0164202
792.906	0.0164967
792.984	0.0165948
793.062	0.0164834
793.140	0.0163635
793.218	0.0162817
793.296	0.0164043
793.374	0.0164875
793.453	0.0164402
793.531	0.0163058
793.609	0.0162753
793.687	0.0163547
793.765	0.0164534
793.843	0.0162391
793.921	0.0163441
793.999	0.0162579
794.078	0.0161972
794.156	0.0161204
794.234	0.0162408
794.312	0.0160913
794.390	0.0161446
794.468	0.0161478
794.546	0.0162414
794.624	0.0161921
794.703	0.0161387
794.781	0.0162809
794.859	0.0162465
794.937	0.0162085
795.015	0.0162323
795.093	0.0162834
795.171	0.0161906
795.249	0.0161526
795.328	0.0162133
795.406	0.0162685
795.484	0.0162405
795.562	0.0162891
795.640	0.0163947
795.718	0.0164498
795.796	0.0163966
795.874	0.0163683
795.953	0.0162537
796.031	0.0163414
796.109	0.0164214
796.187	0.0164592
796.265	0.0163903
796.343	0.0164357
796.421	0.0163204
796.499	0.0164401
796.578	0.0163800
796.656	0.0165589
796.734	0.0164169
796.812	0.0162618
796.890	0.0162694
796.968	0.0164442
797.046	0.0165057
797.124	0.0164247
797.203	0.0163804
797.281	0.0165258
797.359	0.0163271
797.437	0.0163231
797.515	0.0163639
797.593	0.0163925
797.671	0.0163469
797.749	0.0162328
797.828	0.0163223
797.906	0.0161775
797.984	0.0163828
798.062	0.0164082
798.140	0.0162527
798.218	0.0162292
798.296	0.0161742
798.374	0.0161189
798.453	0.0164178
798.531	0.0163099
798.609	0.0162405
798.687	0.0162428
798.765	0.0162696
798.843	0.0160712
798.921	0.0162025
798.999	0.0161674
799.078	0.0161713
799.156	0.0162002
799.234	0.0162158
799.312	0.0162534
799.390	0.0162900
799.468	0.0162141
799.546	0.0161649
799.624	0.0162700
799.703	0.0163674
799.781	0.0162499
799.859	0.0162373
799.937	0.0163226
800.015	0.0162540
800.093	0.0162756
800.171	0.0163702
800.249	0.0162847
800.328	0.0164006
800.406	0.0163564
800.484	0.0163306
800.562	0.0163391
800.640	0.0163371
800.718	0.0164417
800.796	0.0163102
800.874	0.0163261
800.953	0.0164688
801.031	0.0164149
801.109	0.0164320
801.187	0.0165051
801.265	0.0165445
801.343	0.0164503
801.421	0.0166151
801.499	0.0165565
801.578	0.0164683
801.656	0.0166599
801.734	0.0164688
801.812	0.0165543
801.890	0.0165551
801.968	0.0164059
802.046	0.0165406
802.124	0.0164873
802.203	0.0164570
802.281	0.0162836
802.359	0.0164034
802.437	0.0164330
802.515	0.0163129
802.593	0.0163879
802.671	0.0160523
802.749	0.0161684
802.828	0.0162915
802.906	0.0161731
802.984	0.0162685
803.062	0.0162905
803.140	0.0162984
803.218	0.0162110
803.296	0.0162865
803.374	0.0162286
803.453	0.0162477
803.531	0.0161865
803.609	0.0162203
803.687	0.0161674
803.765	0.0162472
803.843	0.0162469
803.921	0.0161873
803.999	0.0163144
804.078	0.0162229
804.156	0.0163448
804.234	0.0162802
804.312	0.0163848
804.390	0.0161774
804.468	0.0161552
804.546	0.0163993
804.624	0.0163564
804.703	0.0161443
804.781	0.0162270
804.859	0.0164528
804.937	0.0164280
805.015	0.0162672
805.093	0.0163617
805.171	0.0164137
805.249	0.0163914
805.328	0.0163936
805.406	0.0164214
805.484	0.0166197
805.562	0.0165368
805.640	0.0165444
805.718	0.0165578
805.796	0.0165549
805.874	0.0164876
805.953	0.0166455
806.031	0.0166291
806.109	0.0166027
806.187	0.0165185
806.265	0.0165981
806.343	0.0165883
806.421	0.0165015
806.499	0.0164503
806.578	0.0165440
806.656	0.0164686
806.734	0.0164228
806.812	0.0164766
806.890	0.0163837
806.968	0.0163931
807.046	0.0162818
807.124	0.0164199
807.203	0.0163042
807.281	0.0161951
807.359	0.0162283
807.437	0.0160921
807.515	0.0161522
807.593	0.0160370
807.671	0.0160168
807.749	0.0160399
807.828	0.0160486
807.906	0.0160632
807.984	0.0160511
808.062	0.0160651
808.140	0.0161964
808.218	0.0161147
808.296	0.0159699
808.374	0.0161926
808.453	0.0160201
808.531	0.0161580
808.609	0.0162183
808.687	0.0161964
808.765	0.0162621
808.843	0.0164501
808.921	0.0162694
808.999	0.0162955
809.078	0.0165014
809.156	0.0164643
809.234	0.0163584
809.312	0.0165809
809.390	0.0164619
809.468	0.0164245
809.546	0.0165345
809.624	0.0163247
809.703	0.0164967
809.781	0.0163686
809.859	0.0163946
809.937	0.0162623
810.015	0.0163937
810.093	0.0164829
810.171	0.0163570
810.249	0.0164278
810.328	0.0164447
810.406	0.0163889
810.484	0.0164974
810.562	0.0165462
810.640	0.0165195
810.718	0.0164606
810.796	0.0165523
810.874	0.0165438
810.953	0.0164165
811.031	0.0166864
811.109	0.0165693
811.187	0.0165077
811.265	0.0164739
811.343	0.0166151
811.421	0.0165069
811.499	0.0164039
811.578	0.0163856
811.656	0.0165945
811.734	0.0163811
811.812	0.0164516
811.890	0.0162672
811.968	0.0163431
812.046	0.0163312
812.124	0.0162332
812.203	0.0161315
812.281	0.0162341
812.359	0.0161636
812.437	0.0161494
812.515	0.0162190
812.593	0.0161582
812.671	0.0160846
812.749	0.0161565
812.828	0.0160918
812.906	0.0162418
812.984	0.0160831
813.062	0.0161197
813.140	0.0161427
813.218	0.0161962
813.296	0.0161226
813.374	0.0162039
813.453	0.0161979
813.531	0.0163506
813.609	0.0162915
813.687	0.0163625
813.765	0.0163564
813.843	0.0164538
813.921	0.0164310
813.999	0.0164331
814.078	0.0163918
814.156	0.0165587
814.234	0.0165006
814.312	0.0164620
814.390	0.0163976
814.468	0.0164980
814.546	0.0164796
814.624	0.0164673
814.703	0.0165526
814.781	0.0164767
814.859	0.0164413
814.937	0.0165306
815.015	0.0165572
815.093	0.0165032
815.171	0.0164281
815.249	0.0164014
815.328	0.0163120
815.406	0.0162656
815.484	0.0163633
815.562	0.0162614
815.640	0.0163315
815.718	0.0163724
815.796	0.0163481
815.874	0.0163926
815.953	0.0163055
816.031	0.0163731
816.109	0.0163841
816.187	0.0161806
816.265	0.0163131
816.343	0.0164161
816.421	0.0163778
816.499	0.0163782
816.578	0.0163770
816.656	0.0162907
816.734	0.0163713
816.812	0.0162208
816.890	0.0162144
816.968	0.0163691
817.046	0.0163252
817.124	0.0163902
817.203	0.0163656
817.281	0.0162646
817.359	0.0163683
817.437	0.0163129
817.515	0.0161537
817.593	0.0162765
817.671	0.0162100
817.749	0.0162150
817.828	0.0163733
817.906	0.0162009
817.984	0.0163609
818.062	0.0163389
818.140	0.0163085
818.218	0.0162000
818.296	0.0163918
818.374	0.0162938
818.453	0.0161837
818.531	0.0162283
818.609	0.0164848
818.687	0.0162948
818.765	0.0162869
818.843	0.0163858
818.921	0.0163868
818.999	0.0163866
819.078	0.0163934
819.156	0.0164775
819.234	0.0165118
819.312	0.0165020
819.390	0.0165724
819.468	0.0165380
819.546	0.0164130
819.624	0.0165041
819.703	0.0166101
819.781	0.0165785
819.859	0.0164854
819.937	0.0166091
820.015	0.0164460
820.093	0.0164406
820.171	0.0164311
820.249	0.0165079
820.328	0.0163918
820.406	0.0163875
820.484	0.0164493
820.562	0.0163148
820.640	0.0163741
820.718	0.0162899
820.796	0.0163604
820.874	0.0164110
820.953	0.0163882
821.031	0.0163394
821.109	0.0162376
821.187	0.0161974
821.265	0.0162734
821.343	0.0161169
821.421	0.0163161
821.499	0.0162611
821.578	0.0161987
821.656	0.0160922
821.734	0.0161678
821.812	0.0162122
821.890	0.0162600
821.968	0.0161641
822.046	0.0162672
822.124	0.0163630
822.203	0.0163303
822.281	0.0164742
822.359	0.0162928
822.437	0.0163821
822.515	0.0163774
822.593	0.0164541
822.671	0.0166215
822.749	0.0165027
822.828	0.0164574
822.906	0.0165726
822.984	0.0165977
823.062	0.0165784
823.140	0.0163831
823.218	0.0165644
823.296	0.0164640
823.374	0.0165766
823.453	0.0165180
823.531	0.0164877
823.609	0.0164001
823.687	0.0163906
823.765	0.0164200
823.843	0.0164396
823.921	0.0165054
823.999	0.0163221
824.078	0.0163598
824.156	0.0164086
824.234	0.0163194
824.312	0.0162856
824.390	0.0163909
824.468	0.0162496
824.546	0.0162444
824.624	0.0162402
824.703	0.0162311
824.781	0.0162051
824.859	0.0162522
824.937	0.0162304
825.015	0.0160824
825.093	0.0161009
825.171	0.0162103
825.249	0.0162766
825.328	0.0162842
825.406	0.0163589
825.484	0.0163245
825.562	0.0162844
825.640	0.0162321
825.718	0.0164080
825.796	0.0163752
825.874	0.0163686
825.953	0.0164058
826.031	0.0164676
826.109	0.0165501
826.187	0.0165456
826.265	0.0163999
826.343	0.0163541
826.421	0.0164736
826.499	0.0164860
826.578	0.0166085
826.656	0.0163974
826.734	0.0165477
826.812	0.0164032
826.890	0.0166074
826.968	0.0164703
827.046	0.0164815
827.124	0.0165173
827.203	0.0165385
827.281	0.0164222
827.359	0.0164429
827.437	0.0166436
827.515	0.0163802
827.593	0.0165089
827.671	0.0164189
827.749	0.0163736
827.828	0.0163882
827.906	0.0164727
827.984	0.0164234
828.062	0.0165179
828.140	0.0164314
828.218	0.0165155
828.296	0.0164698
828.374	0.0164597
828.453	0.0165510
828.531	0.0165651
828.609	0.0165784
828.687	0.0164845
828.765	0.0164128
828.843	0.0164754
828.921	0.0165167
828.999	0.0165369
829.078	0.0164808
829.156	0.0164235
829.234	0.0164695
829.312	0.0164130
829.390	0.0162774
829.468	0.0163992
829.546	0.0163210
829.624	0.0163375
829.703	0.0165086
829.781	0.0163961
829.859	0.0165263
829.937	0.0164928
830.015	0.0163581
830.093	0.0164048
830.171	0.0163194
830.249	0.0164815
830.328	0.0164362
830.406	0.0164725
830.484	0.0164355
830.562	0.0164415
830.640	0.0164151
830.718	0.0164384
830.796	0.0164893
830.874	0.0165066
830.953	0.0165140
831.031	0.0163772
831.109	0.0164641
831.187	0.0164152
831.265	0.0164510
831.343	0.0164101
831.421	0.0163722
831.499	0.0163399
831.578	0.0163283
831.656	0.0163641
831.734	0.0162445
831.812	0.0162247
831.890	0.0162713
831.968	0.0161927
832.046	0.0161582
832.124	0.0162063
832.203	0.0162038
832.281	0.0160988
832.359	0.0161122
832.437	0.0160816
832.515	0.0161094
832.593	0.0160133
832.671	0.0161559
832.749	0.0161172
832.828	0.0163747
832.906	0.0161019
832.984	0.0162616
833.062	0.0163403
833.140	0.0163473
833.218	0.0163132
833.296	0.0163864
833.374	0.0165339
833.453	0.0165605
833.531	0.0165736
833.609	0.0165609
833.687	0.0165627
833.765	0.0166187
833.843	0.0164959
833.921	0.0165726
833.999	0.0165626
834.078	0.0164896
834.156	0.0164362
834.234	0.0163316
834.312	0.0164146
834.390	0.0163307
834.468	0.0163921
834.546	0.0162585
834.624	0.0163206
834.703	0.0162904
834.781	0.0163931
834.859	0.0161833
834.937	0.0162855
835.015	0.0163252
835.093	0.0163943
835.171	0.0164389
835.249	0.0164503
835.328	0.0163923
835.406	0.0163421
835.484	0.0164824
835.562	0.0165173
835.640	0.0164774
835.718	0.0162418
835.796	0.0164330
835.874	0.0166312
835.953	0.0165997
836.031	0.0164540
836.109	0.0166879
836.187	0.0165585
836.265	0.0165460
836.343	0.0168511
836.421	0.0166848
836.499	0.0165438
836.578	0.0165240
836.656	0.0165044
836.734	0.0164380
836.812	0.0163603
836.890	0.0164022
836.968	0.0163824
837.046	0.0163694
837.124	0.0162848
837.203	0.0161491
837.281	0.0162006
837.359	0.0161438
837.437	0.0161996
837.515	0.0161924
837.593	0.0160979
837.671	0.0161707
837.749	0.0161070
837.828	0.0160964
837.906	0.0162626
837.984	0.0161883
838.062	0.0160818
838.140	0.0162135
838.218	0.0162094
838.296	0.0162735
838.374	0.0161006
838.453	0.0163120
838.531	0.0162479
838.609	0.0162609
838.687	0.0164120
838.765	0.0163900
838.843	0.0166207
838.921	0.0165560
838.999	0.0165235
839.078	0.0166399
839.156	0.0165988
839.234	0.0164877
839.312	0.0166422
839.390	0.0167090
839.468	0.0165918
839.546	0.0165723
839.624	0.0164578
839.703	0.0163706
839.781	0.0165693
839.859	0.0164258
839.937	0.0163277
840.015	0.0162006
840.093	0.0163573
840.171	0.0162567
840.249	0.0162638
840.328	0.0162408
840.406	0.0161136
840.484	0.0160303
840.562	0.0162044
840.640	0.0163923
840.718	0.0162729
840.796	0.0161860
840.874	0.0162038
840.953	0.0162585
841.031	0.0162672
841.109	0.0163966
841.187	0.0163103
841.265	0.0163101
841.343	0.0162550
841.421	0.0163755
841.499	0.0164909
841.578	0.0164256
841.656	0.0164765
841.734	0.0164027
841.812	0.0164259
841.890	0.0164199
841.968	0.0163724
842.046	0.0163841
842.124	0.0163705
842.203	0.0163338
842.281	0.0164548
842.359	0.0165688
842.437	0.0163380
842.515	0.0162865
842.593	0.0163443
842.671	0.0162964
842.749	0.0164068
842.828	0.0163854
842.906	0.0164574
842.984	0.0162759
843.062	0.0164353
843.140	0.0164713
843.218	0.0163885
843.296	0.0164510
843.374	0.0164070
843.453	0.0164545
843.531	0.0164294
843.609	0.0163870
843.687	0.0164950
843.765	0.0164931
843.843	0.0163586
843.921	0.0163225
843.999	0.0163268
844.078	0.0163645
844.156	0.0163877
844.234	0.0163518
844.312	0.0161900
844.390	0.0161495
844.468	0.0163111
844.546	0.0162501
844.624	0.0161653
844.703	0.0160870
844.781	0.0160488
844.859	0.0162515
844.937	0.0162016
845.015	0.0161753
845.093	0.0161879
845.171	0.0163466
845.249	0.0161829
845.328	0.0161223
845.406	0.0162505
845.484	0.0164816
845.562	0.0163010
845.640	0.0164626
845.718	0.0162957
845.796	0.0164177
845.874	0.0163980
845.953	0.0166428
846.031	0.0164420
846.109	0.0165805
846.187	0.0166949
846.265	0.0167508
846.343	0.0166563
846.421	0.0166900
846.499	0.0167010
846.578	0.0167368
846.656	0.0166938
846.734	0.0166125
846.812	0.0168606
846.890	0.0167854
846.968	0.0166241
847.046	0.0167159
847.124	0.0166131
847.203	0.0165910
847.281	0.0164961
847.359	0.0166087
847.437	0.0164362
847.515	0.0164597
847.593	0.0164001
847.671	0.0162931
847.749	0.0161204
847.828	0.0163517
847.906	0.0161874
847.984	0.0160682
848.062	0.0161738
848.140	0.0161737
848.218	0.0161362
848.296	0.0159972
848.374	0.0159752
848.453	0.0160971
848.531	0.0160625
848.609	0.0162190
848.687	0.0160768
848.765	0.0162370
848.843	0.0161362
848.921	0.0161613
848.999	0.0162289
849.078	0.0162539
849.156	0.0163545
849.234	0.0164091
849.312	0.0162659
849.390	0.0164214
849.468	0.0164869
849.546	0.0164030
849.624	0.0164915
849.703	0.0165397
849.781	0.0165507
849.859	0.0164359
849.937	0.0165611
850.015	0.0166062
850.093	0.0168230
850.171	0.0165087
850.249	0.0165721
850.328	0.0166390
850.406	0.0165955
850.484	0.0165351
850.562	0.0165595
850.640	0.0165144
850.718	0.0165653
850.796	0.0164326
850.874	0.0165400
850.953	0.0165393
851.031	0.0164326
851.109	0.0164342
851.187	0.0164404
851.265	0.0163687
851.343	0.0164182
851.421	0.0163573
851.499	0.0164516
851.578	0.0165715
851.656	0.0164906
851.734	0.0164761
851.812	0.0163710
851.890	0.0163853
851.968	0.0163960
852.046	0.0165701
852.124	0.0164776
852.203	0.0164507
852.281	0.0164938
852.359	0.0164434
852.437	0.0163298
852.515	0.0165232
852.593	0.0165589
852.671	0.0165186
852.749	0.0166029
852.828	0.0165041
852.906	0.0164349
852.984	0.0164089
853.062	0.0164206
853.140	0.0164558
853.218	0.0164174
853.296	0.0164039
853.374	0.0163950
853.453	0.0164076
853.531	0.0163331
853.609	0.0162854
853.687	0.0162231
853.765	0.0163374
853.843	0.0162788
853.921	0.0163723
853.999	0.0163403
854.078	0.0162758
854.156	0.0162144
854.234	0.0162064
854.312	0.0163024
854.390	0.0162705
854.468	0.0162540
854.546	0.0164169
854.624	0.0163035
854.703	0.0164194
854.781	0.0165347
854.859	0.0164520
854.937	0.0163094
855.015	0.0162019
855.093	0.0163682
855.171	0.0165021
855.249	0.0163123
855.328	0.0163767
855.406	0.0163628
855.484	0.0164268
855.562	0.0162972
855.640	0.0164334
855.718	0.0163726
855.796	0.0163293
855.874	0.0163570
855.953	0.0162688
856.031	0.0163416
856.109	0.0164163
856.187	0.0164280
856.265	0.0164895
856.343	0.0164366
856.421	0.0162659
856.499	0.0163557
856.578	0.0163986
856.656	0.0162900
856.734	0.0163884
856.812	0.0163216
856.890	0.0162780
856.968	0.0162743
857.046	0.0162470
857.124	0.0162908
857.203	0.0163657
857.281	0.0163414
857.359	0.0163038
857.437	0.0162965
857.515	0.0162473
857.593	0.0162949
857.671	0.0163689
857.749	0.0162349
857.828	0.0162276
857.906	0.0162651
857.984	0.0162663
858.062	0.0164568
858.140	0.0162850
858.218	0.0162052
858.296	0.0161754
858.374	0.0161797
858.453	0.0162114
858.531	0.0161879
858.609	0.0162317
858.687	0.0160878
858.765	0.0160720
858.843	0.0162567
858.921	0.0161356
858.999	0.0162139
859.078	0.0162137
859.156	0.0162434
859.234	0.0162714
859.312	0.0162608
859.390	0.0161900
859.468	0.0162588
859.546	0.0163294
859.624	0.0162347
859.703	0.0162785
859.781	0.0164612
859.859	0.0162096
859.937	0.0162977
860.015	0.0165845
860.093	0.0163683
860.171	0.0164038
860.249	0.0164508
860.328	0.0162789
860.406	0.0163537
860.484	0.0164706
860.562	0.0165108
860.640	0.0164566
860.718	0.0163457
860.796	0.0165875
860.874	0.0163567
860.953	0.0165803
861.031	0.0165968
861.109	0.0164983
861.187	0.0164594
861.265	0.0165791
861.343	0.0165095
861.421	0.0165207
861.499	0.0166519
861.578	0.0166587
861.656	0.0167159
861.734	0.0164668
861.812	0.0165744
861.890	0.0166881
861.968	0.0166292
862.046	0.0167710
862.124	0.0166961
862.203	0.0167060
862.281	0.0166713
862.359	0.0166999
862.437	0.0167246
862.515	0.0166383
862.593	0.0164346
862.671	0.0164228
862.749	0.0164899
862.828	0.0165778
862.906	0.0164087
862.984	0.0163220
863.062	0.0163725
863.140	0.0163352
863.218	0.0162387
863.296	0.0163222
863.374	0.0163145
863.453	0.0162365
863.531	0.0162285
863.609	0.0161338
863.687	0.0161757
863.765	0.0160577
863.843	0.0161609
863.921	0.0163389
863.999	0.0161940
864.078	0.0161430
864.156	0.0162744
864.234	0.0161892
864.312	0.0162160
864.390	0.0163334
864.468	0.0161934
864.546	0.0161724
864.624	0.0162826
864.703	0.0164326
864.781	0.0163304
864.859	0.0163447
864.937	0.0163004
865.015	0.0165981
865.093	0.0165210
865.171	0.0165372
865.249	0.0165403
865.328	0.0164071
865.406	0.0166785
865.484	0.0167132
865.562	0.0166527
865.640	0.0167184
865.718	0.0166078
865.796	0.0166634
865.874	0.0166163
865.953	0.0166826
866.031	0.0164127
866.109	0.0166792
866.187	0.0165803
866.265	0.0164966
866.343	0.0166308
866.421	0.0165922
866.499	0.0165273
866.578	0.0164259
866.656	0.0165339
866.734	0.0165495
866.812	0.0165344
866.890	0.0164662
866.968	0.0162464
867.046	0.0164616
867.124	0.0162724
867.203	0.0163822
867.281	0.0162150
867.359	0.0162138
867.437	0.0162969
867.515	0.0161088
867.593	0.0161752
867.671	0.0162549
867.749	0.0162746
867.828	0.0163658
867.906	0.0162323
867.984	0.0161083
868.062	0.0162546
868.140	0.0160619
868.218	0.0161434
868.296	0.0161079
868.374	0.0162246
868.453	0.0161946
868.531	0.0160361
868.609	0.0162733
868.687	0.0161137
868.765	0.0162621
868.843	0.0162716
868.921	0.0162107
868.999	0.0163166
869.078	0.0163326
869.156	0.0163482
869.234	0.0162762
869.312	0.0162859
869.390	0.0164717
869.468	0.0164662
869.546	0.0164831
869.624	0.0164255
869.703	0.0164341
869.781	0.0163670
869.859	0.0164057
869.937	0.0163481
870.015	0.0165324
870.093	0.0165039
870.171	0.0164493
870.249	0.0164841
870.328	0.0164844
870.406	0.0164122
870.484	0.0164156
870.562	0.0162698
870.640	0.0163193
870.718	0.0164688
870.796	0.0162962
870.874	0.0163798
870.953	0.0163454
871.031	0.0163511
871.109	0.0162427
871.187	0.0164063
871.265	0.0163465
871.343	0.0162911
871.421	0.0162727
871.499	0.0161961
871.578	0.0163338
871.656	0.0161664
871.734	0.0163815
871.812	0.0163615
871.890	0.0161890
871.968	0.0162850
872.046	0.0163273
872.124	0.0162182
872.203	0.0162772
872.281	0.0163982
872.359	0.0163084
872.437	0.0163576
872.515	0.0163983
872.593	0.0162850
872.671	0.0163428
872.749	0.0163863
872.828	0.0162794
872.906	0.0165434
872.984	0.0163213
873.062	0.0163844
873.140	0.0163431
873.218	0.0163792
873.296	0.0163344
873.374	0.0163795
873.453	0.0163888
873.531	0.0163809
873.609	0.0163905
873.687	0.0164031
873.765	0.0163084
873.843	0.0163628
873.921	0.0164224
873.999	0.0164399
874.078	0.0163748
874.156	0.0163818
874.234	0.0164171
874.312	0.0163423
874.390	0.0163766
874.468	0.0164172
874.546	0.0163058
874.624	0.0164344
874.703	0.0162615
874.781	0.0162458
874.859	0.0163227
874.937	0.0163124
875.015	0.0163828
875.093	0.0163510
875.171	0.0163184
875.249	0.0163663
875.328	0.0165178
875.406	0.0163351
875.484	0.0162950
875.562	0.0163239
875.640	0.0163489
875.718	0.0163840
875.796	0.0164261
875.874	0.0162955
875.953	0.0163178
876.031	0.0164342
876.109	0.0162016
876.187	0.0163004
876.265	0.0163390
876.343	0.0161183
876.421	0.0163999
876.499	0.0163548
876.578	0.0162504
876.656	0.0163605
876.734	0.0163431
876.812	0.0163657
876.890	0.0162935
876.968	0.0164146
877.046	0.0164619
877.124	0.0164272
877.203	0.0163908
877.281	0.0163831
877.359	0.0164149
877.437	0.0163922
877.515	0.0164937
877.593	0.0162662
877.671	0.0164709
877.749	0.0162366
877.828	0.0164671
877.906	0.0163548
877.984	0.0163671
878.062	0.0162642
878.140	0.0163413
878.218	0.0164244
878.296	0.0161992
878.374	0.0162403
878.453	0.0163341
878.531	0.0163176
878.609	0.0162744
878.687	0.0162541
878.765	0.0163696
878.843	0.0162147
878.921	0.0162649
878.999	0.0163515
879.078	0.0161201
879.156	0.0162383
879.234	0.0163352
879.312	0.0162434
879.390	0.0162556
879.468	0.0162595
879.546	0.0162438
879.624	0.0163654
879.703	0.0162782
879.781	0.0163629
879.859	0.0162895
879.937	0.0163514
880.015	0.0164106
880.093	0.0163718
880.171	0.0165369
880.249	0.0164067
880.328	0.0164359
880.406	0.0164710
880.484	0.0164367
880.562	0.0164467
880.640	0.0164149
880.718	0.0163894
880.796	0.0163409
880.874	0.0162616
880.953	0.0164030
881.031	0.0163734
881.109	0.0163130
881.187	0.0162011
881.265	0.0161753
881.343	0.0161616
881.421	0.0163473
881.499	0.0161774
881.578	0.0160621
881.656	0.0161857
881.734	0.0162379
881.812	0.0161213
881.890	0.0162645
881.968	0.0162904
882.046	0.0163196
882.124	0.0161709
882.203	0.0162774
882.281	0.0163233
882.359	0.0162598
882.437	0.0163676
882.515	0.0164700
882.593	0.0163808
882.671	0.0163890
882.749	0.0162595
882.828	0.0164101
882.906	0.0165049
882.984	0.0164181
883.062	0.0163865
883.140	0.0163643
883.218	0.0163605
883.296	0.0163769
883.374	0.0165020
883.453	0.0163325
883.531	0.0162380
883.609	0.0162708
883.687	0.0163258
883.765	0.0162694
883.843	0.0163554
883.921	0.0163133
883.999	0.0163266
884.078	0.0162721
884.156	0.0164430
884.234	0.0162749
884.312	0.0163476
884.390	0.0162923
884.468	0.0164242
884.546	0.0164049
884.624	0.0163558
884.703	0.0162885
884.781	0.0165536
884.859	0.0164161
884.937	0.0163719
885.015	0.0164342
885.093	0.0164796
885.171	0.0164903
885.249	0.0164666
885.328	0.0164214
885.406	0.0164483
885.484	0.0163781
885.562	0.0165579
885.640	0.0166006
885.718	0.0164626
885.796	0.0165630
885.874	0.0164757
885.953	0.0165120
886.031	0.0165404
886.109	0.0164758
886.187	0.0165854
886.265	0.0163721
886.343	0.0165625
886.421	0.0164334
886.499	0.0161891
886.578	0.0164088
886.656	0.0162991
886.734	0.0163642
886.812	0.0163410
886.890	0.0163693
886.968	0.0163013
887.046	0.0163217
887.124	0.0163493
887.203	0.0165228
887.281	0.0163969
887.359	0.0163422
887.437	0.0163934
887.515	0.0163541
887.593	0.0163116
887.671	0.0164021
887.749	0.0164132
887.828	0.0165330
887.906	0.0164027
887.984	0.0165857
888.062	0.0164919
888.140	0.0164363
888.218	0.0164494
888.296	0.0164603
888.374	0.0164122
888.453	0.0164694
888.531	0.0165572
888.609	0.0166451
888.687	0.0164432
888.765	0.0164655
888.843	0.0164717
888.921	0.0164069
888.999	0.0164527
889.078	0.0165644
889.156	0.0165813
889.234	0.0164824
889.312	0.0164760
889.390	0.0164849
889.468	0.0162942
889.546	0.0165661
889.624	0.0164749
889.703	0.0164559
889.781	0.0163347
889.859	0.0163091
889.937	0.0163074
890.015	0.0163353
890.093	0.0164135
890.171	0.0164066
890.249	0.0163279
890.328	0.0164665
890.406	0.0163984
890.484	0.0162801
890.562	0.0163351
890.640	0.0164634
890.718	0.0164429
890.796	0.0162772
890.874	0.0163517
890.953	0.0162883
891.031	0.0163647
891.109	0.0164888
891.187	0.0164856
891.265	0.0164146
891.343	0.0163543
891.421	0.0164326
891.499	0.0165189
891.578	0.0165216
891.656	0.0165047
891.734	0.0164581
891.812	0.0165222
891.890	0.0166014
891.968	0.0164371
892.046	0.0165466
892.124	0.0165622
892.203	0.0164745
892.281	0.0165272
892.359	0.0165007
892.437	0.0165338
892.515	0.0165403
892.593	0.0164861
892.671	0.0165501
892.749	0.0165759
892.828	0.0165280
892.906	0.0164464
892.984	0.0164854
893.062	0.0165064
893.140	0.0164762
893.218	0.0166108
893.296	0.0163978
893.374	0.0163889
893.453	0.0164294
893.531	0.0164285
893.609	0.0165169
893.687	0.0165079
893.765	0.0162713
893.843	0.0162496
893.921	0.0163634
893.999	0.0162650
894.078	0.0163317
894.156	0.0163374
894.234	0.0163508
894.312	0.0163647
894.390	0.0163692
894.468	0.0162447
894.546	0.0163886
894.624	0.0164177
894.703	0.0163808
894.781	0.0163266
894.859	0.0163245
894.937	0.0164099
895.015	0.0163156
895.093	0.0163181
895.171	0.0164268
895.249	0.0163165
895.328	0.0163013
895.406	0.0162588
895.484	0.0163783
895.562	0.0162640
895.640	0.0162505
895.718	0.0163736
895.796	0.0165250
895.874	0.0162368
895.953	0.0162489
896.031	0.0162356
896.109	0.0163558
896.187	0.0162747
896.265	0.0163414
896.343	0.0164336
896.421	0.0162614
896.499	0.0161982
896.578	0.0164136
896.656	0.0164047
896.734	0.0164393
896.812	0.0164608
896.890	0.0162962
896.968	0.0163551
897.046	0.0163470
897.124	0.0163516
897.203	0.0164861
897.281	0.0164443
897.359	0.0163478
897.437	0.0163508
897.515	0.0163635
897.593	0.0162007
897.671	0.0162028
897.749	0.0165222
897.828	0.0163046
897.906	0.0161826
897.984	0.0163258
898.062	0.0161443
898.140	0.0161639
898.218	0.0162821
898.296	0.0161828
898.374	0.0162727
898.453	0.0160147
898.531	0.0162325
898.609	0.0162149
898.687	0.0162187
898.765	0.0164422
898.843	0.0162980
898.921	0.0163597
898.999	0.0163449
899.078	0.0162153
899.156	0.0163011
899.234	0.0162923
899.312	0.0163571
899.390	0.0163222
899.468	0.0162826
899.546	0.0162022
899.624	0.0164399
899.703	0.0162848
899.781	0.0162403
899.859	0.0162550
899.937	0.0163160
900.015	0.0162179
900.093	0.0161197
900.171	0.0162828
900.249	0.0164175
900.328	0.0162795
900.406	0.0162395
900.484	0.0162594
900.562	0.0162916
900.640	0.0162895
900.718	0.0163010
900.796	0.0162060
900.874	0.0162702
900.953	0.0161874
901.031	0.0162339
901.109	0.0162735
901.187	0.0162973
901.265	0.0162616
901.343	0.0162460
901.421	0.0163226
901.499	0.0163038
901.578	0.0164018
901.656	0.0163576
901.734	0.0163158
901.812	0.0163187
901.890	0.0164009
901.968	0.0165658
902.046	0.0165007
902.124	0.0163925
902.203	0.0165606
902.281	0.0163997
902.359	0.0164668
902.437	0.0163639
902.515	0.0163563
902.593	0.0165260
902.671	0.0163514
902.749	0.0165437
902.828	0.0164259
902.906	0.0164886
902.984	0.0165074
903.062	0.0165853
903.140	0.0164980
903.218	0.0165068
903.296	0.0164935
903.374	0.0164610
903.453	0.0164449
903.531	0.0164896
903.609	0.0164613
903.687	0.0164662
903.765	0.0163767
903.843	0.0163424
903.921	0.0163617
903.999	0.0164087
904.078	0.0165439
904.156	0.0163550
904.234	0.0163394
904.312	0.0165714
904.390	0.0163636
904.468	0.0164111
904.546	0.0163786
904.624	0.0164429
904.703	0.0165364
904.781	0.0165938
904.859	0.0164984
904.937	0.0163936
905.015	0.0164012
905.093	0.0164960
905.171	0.0164572
905.249	0.0164510
905.328	0.0163603
905.406	0.0163434
905.484	0.0163512
905.562	0.0162834
905.640	0.0161914
905.718	0.0162762
905.796	0.0163074
905.874	0.0162463
905.953	0.0164536
906.031	0.0163100
906.109	0.0162135
906.187	0.0163468
906.265	0.0162957
906.343	0.0163288
906.421	0.0163715
906.499	0.0162531
906.578	0.0162217
906.656	0.0164596
906.734	0.0164112
906.812	0.0163530
906.890	0.0165200
906.968	0.0164346
907.046	0.0166164
907.124	0.0164824
907.203	0.0163779
907.281	0.0164788
907.359	0.0165984
907.437	0.0164837
907.515	0.0164922
907.593	0.0164611
907.671	0.0164011
907.749	0.0164300
907.828	0.0164191
907.906	0.0163831
907.984	0.0164583
908.062	0.0163544
908.140	0.0163469
908.218	0.0163127
908.296	0.0163650
908.374	0.0162988
908.453	0.0162289
908.531	0.0163168
908.609	0.0163658
908.687	0.0163719
908.765	0.0163081
908.843	0.0163223
908.921	0.0164193
908.999	0.0163322
909.078	0.0164171
909.156	0.0165302
909.234	0.0163381
909.312	0.0164443
909.390	0.0164565
909.468	0.0163789
909.546	0.0164201
909.624	0.0163621
909.703	0.0164319
909.781	0.0162607
909.859	0.0161819
909.937	0.0163543
910.015	0.0164290
910.093	0.0163855
910.171	0.0163288
910.249	0.0163820
910.328	0.0163255
910.406	0.0163041
910.484	0.0163259
910.562	0.0163380
910.640	0.0163892
910.718	0.0163509
910.796	0.0163237
910.874	0.0162673
910.953	0.0164262
911.031	0.0164933
911.109	0.0162863
911.187	0.0162777
911.265	0.0163935
911.343	0.0163293
911.421	0.0164188
911.499	0.0164235
911.578	0.0162695
911.656	0.0163551
911.734	0.0164166
911.812	0.0163673
911.890	0.0164507
911.968	0.0164446
912.046	0.0162882
912.124	0.0164052
912.203	0.0162690
912.281	0.0162589
912.359	0.0164362
912.437	0.0163762
912.515	0.0163606
912.593	0.0164223
912.671	0.0163181
912.749	0.0163219
912.828	0.0164998
912.906	0.0162759
912.984	0.0161992
913.062	0.0162090
913.140	0.0163866
913.218	0.0162315
913.296	0.0162257
913.374	0.0162844
913.453	0.0164484
913.531	0.0163243
913.609	0.0161458
913.687	0.0162678
913.765	0.0163191
913.843	0.0162548
913.921	0.0162858
913.999	0.0163540
914.078	0.0162316
914.156	0.0163142
914.234	0.0163126
914.312	0.0162898
914.390	0.0163030
914.468	0.0163386
914.546	0.0162991
914.624	0.0162960
914.703	0.0162267
914.781	0.0162798
914.859	0.0163060
914.937	0.0164928
915.015	0.0163517
915.093	0.0162974
915.171	0.0164293
915.249	0.0164593
915.328	0.0164398
915.406	0.0165341
915.484	0.0164140
915.562	0.0163057
915.640	0.0165331
915.718	0.0164952
915.796	0.0164442
915.874	0.0163816
915.953	0.0162840
916.031	0.0162949
916.109	0.0162714
916.187	0.0165489
916.265	0.0163725
916.343	0.0163451
916.421	0.0164203
916.499	0.0164061
916.578	0.0162965
916.656	0.0163271
916.734	0.0164020
916.812	0.0164227
916.890	0.0165675
916.968	0.0164671
917.046	0.0163842
917.124	0.0163721
917.203	0.0164752
917.281	0.0164661
917.359	0.0165115
917.437	0.0166302
917.515	0.0163853
917.593	0.0163689
917.671	0.0164866
917.749	0.0165302
917.828	0.0164266
917.906	0.0164096
917.984	0.0163281
918.062	0.0163710
918.140	0.0163889
918.218	0.0164610
918.296	0.0162856
918.374	0.0162531
918.453	0.0164898
918.531	0.0163615
918.609	0.0163794
918.687	0.0164847
918.765	0.0164982
918.843	0.0163711
918.921	0.0165154
918.999	0.0164125
919.078	0.0164441
919.156	0.0163270
919.234	0.0163248
919.312	0.0163052
919.390	0.0163937
919.468	0.0164526
919.546	0.0163658
919.624	0.0164896
919.703	0.0163774
919.781	0.0162663
919.859	0.0164581
919.937	0.0163604
