06/10/2022	16:49:24	Ver.	4.1	UNKNOWN
Optical Delay	600.015094	Delta X		0.078125	Sweeps	1	Scan Rate	0/0
Coordinates	Axis 1	NaN	Axis 2	NaN	Axis 3	NaN	Axis 4	NaN	Axis 5	NaN	Axis 6	0.000000
TX Power	0.000000	RX Power	0.000000

600.015	0.0164352
600.093	0.0163895
600.171	0.0164854
600.249	0.0163173
600.328	0.0164452
600.406	0.0165366
600.484	0.0164307
600.562	0.0163417
600.640	0.0164559
600.718	0.0165150
600.796	0.0164467
600.874	0.0166310
600.953	0.0163075
601.031	0.0163510
601.109	0.0164071
601.187	0.0164603
601.265	0.0165359
601.343	0.0162571
601.421	0.0163164
601.499	0.0164652
601.578	0.0164413
601.656	0.0164833
601.734	0.0164090
601.812	0.0164517
601.890	0.0164751
601.968	0.0163539
602.046	0.0164165
602.124	0.0163669
602.203	0.0163837
602.281	0.0166234
602.359	0.0163224
602.437	0.0164307
602.515	0.0166623
602.593	0.0167001
602.671	0.0164436
602.749	0.0164295
602.828	0.0164502
602.906	0.0164676
602.984	0.0165160
603.062	0.0164658
603.140	0.0165806
603.218	0.0164922
603.296	0.0163821
603.374	0.0165411
603.453	0.0164491
603.531	0.0164806
603.609	0.0163868
603.687	0.0166088
603.765	0.0166458
603.843	0.0163411
603.921	0.0164639
603.999	0.0166068
604.078	0.0165010
604.156	0.0165277
604.234	0.0166360
604.312	0.0166853
604.390	0.0166013
604.468	0.0165505
604.546	0.0166054
604.624	0.0167137
604.703	0.0166441
604.781	0.0166114
604.859	0.0165489
604.937	0.0165903
605.015	0.0165943
605.093	0.0164526
605.171	0.0166055
605.249	0.0166907
605.328	0.0164811
605.406	0.0165401
605.484	0.0164676
605.562	0.0164949
605.640	0.0164378
605.718	0.0165415
605.796	0.0164619
605.874	0.0166507
605.953	0.0165668
606.031	0.0165446
606.109	0.0165123
606.187	0.0166488
606.265	0.0164873
606.343	0.0164509
606.421	0.0164719
606.499	0.0164874
606.578	0.0166048
606.656	0.0165736
606.734	0.0164247
606.812	0.0164467
606.890	0.0163738
606.968	0.0164430
607.046	0.0165659
607.124	0.0164410
607.203	0.0163508
607.281	0.0164603
607.359	0.0163926
607.437	0.0164082
607.515	0.0163954
607.593	0.0164188
607.671	0.0164998
607.749	0.0162972
607.828	0.0164616
607.906	0.0165187
607.984	0.0165393
608.062	0.0163724
608.140	0.0164308
608.218	0.0164464
608.296	0.0166039
608.374	0.0164271
608.453	0.0163399
608.531	0.0164906
608.609	0.0165614
608.687	0.0165873
608.765	0.0166450
608.843	0.0164728
608.921	0.0164668
608.999	0.0166426
609.078	0.0165508
609.156	0.0165211
609.234	0.0164254
609.312	0.0165902
609.390	0.0164954
609.468	0.0166435
609.546	0.0165275
609.624	0.0165433
609.703	0.0164762
609.781	0.0164984
609.859	0.0164111
609.937	0.0165296
610.015	0.0165009
610.093	0.0164842
610.171	0.0164828
610.249	0.0163477
610.328	0.0164532
610.406	0.0164548
610.484	0.0166078
610.562	0.0166073
610.640	0.0163824
610.718	0.0162524
610.796	0.0165344
610.874	0.0164058
610.953	0.0164491
611.031	0.0164577
611.109	0.0165089
611.187	0.0164130
611.265	0.0163820
611.343	0.0163660
611.421	0.0164614
611.499	0.0162777
611.578	0.0163593
611.656	0.0162591
611.734	0.0161607
611.812	0.0161688
611.890	0.0162358
611.968	0.0163021
612.046	0.0161443
612.124	0.0160959
612.203	0.0163171
612.281	0.0161952
612.359	0.0161681
612.437	0.0163509
612.515	0.0162130
612.593	0.0161797
612.671	0.0161505
612.749	0.0163470
612.828	0.0163419
612.906	0.0163929
612.984	0.0162985
613.062	0.0162962
613.140	0.0163403
613.218	0.0163545
613.296	0.0164034
613.374	0.0163412
613.453	0.0163728
613.531	0.0161540
613.609	0.0161444
613.687	0.0162115
613.765	0.0161816
613.843	0.0162645
613.921	0.0160718
613.999	0.0161707
614.078	0.0161430
614.156	0.0161180
614.234	0.0160979
614.312	0.0162171
614.390	0.0161368
614.468	0.0162231
614.546	0.0160898
614.624	0.0161929
614.703	0.0161469
614.781	0.0161868
614.859	0.0162155
614.937	0.0162302
615.015	0.0161772
615.093	0.0161256
615.171	0.0163302
615.249	0.0161115
615.328	0.0161942
615.406	0.0162186
615.484	0.0163300
615.562	0.0161755
615.640	0.0162237
615.718	0.0162675
615.796	0.0161913
615.874	0.0162868
615.953	0.0162747
616.031	0.0160838
616.109	0.0162874
616.187	0.0161336
616.265	0.0162207
616.343	0.0162507
616.421	0.0163554
616.499	0.0163488
616.578	0.0163901
616.656	0.0162316
616.734	0.0163335
616.812	0.0164066
616.890	0.0163755
616.968	0.0162940
617.046	0.0162790
617.124	0.0162207
617.203	0.0163833
617.281	0.0165369
617.359	0.0164576
617.437	0.0163885
617.515	0.0163551
617.593	0.0164820
617.671	0.0164224
617.749	0.0163706
617.828	0.0164207
617.906	0.0165438
617.984	0.0163956
618.062	0.0164670
618.140	0.0163415
618.218	0.0164639
618.296	0.0163947
618.374	0.0166284
618.453	0.0165624
618.531	0.0164698
618.609	0.0165167
618.687	0.0165253
618.765	0.0163767
618.843	0.0166676
618.921	0.0166589
618.999	0.0165310
619.078	0.0167657
619.156	0.0164671
619.234	0.0165825
619.312	0.0165542
619.390	0.0165978
619.468	0.0165393
619.546	0.0165885
619.624	0.0166600
619.703	0.0165352
619.781	0.0165836
619.859	0.0165604
619.937	0.0166207
620.015	0.0165451
620.093	0.0165276
620.171	0.0165891
620.249	0.0165131
620.328	0.0165674
620.406	0.0165154
620.484	0.0165363
620.562	0.0166313
620.640	0.0165694
620.718	0.0164288
620.796	0.0165334
620.874	0.0166013
620.953	0.0164760
621.031	0.0165734
621.109	0.0164576
621.187	0.0165334
621.265	0.0165799
621.343	0.0166411
621.421	0.0164730
621.499	0.0165891
621.578	0.0165178
621.656	0.0165488
621.734	0.0164668
621.812	0.0165835
621.890	0.0164393
621.968	0.0164613
622.046	0.0165672
622.124	0.0164721
622.203	0.0166520
622.281	0.0163707
622.359	0.0163437
622.437	0.0163893
622.515	0.0163552
622.593	0.0164454
622.671	0.0164336
622.749	0.0165099
622.828	0.0165063
622.906	0.0163409
622.984	0.0163483
623.062	0.0163556
623.140	0.0164101
623.218	0.0163832
623.296	0.0165284
623.374	0.0165255
623.453	0.0164771
623.531	0.0163927
623.609	0.0163636
623.687	0.0163699
623.765	0.0162999
623.843	0.0165283
623.921	0.0164429
623.999	0.0163226
624.078	0.0163662
624.156	0.0164469
624.234	0.0165731
624.312	0.0164586
624.390	0.0165215
624.468	0.0164491
624.546	0.0163522
624.624	0.0164960
624.703	0.0164459
624.781	0.0164190
624.859	0.0165295
624.937	0.0164054
625.015	0.0165047
625.093	0.0164044
625.171	0.0165315
625.249	0.0164334
625.328	0.0163631
625.406	0.0165067
625.484	0.0164716
625.562	0.0163935
625.640	0.0164325
625.718	0.0165163
625.796	0.0163641
625.874	0.0164503
625.953	0.0164883
626.031	0.0164426
626.109	0.0164521
626.187	0.0163655
626.265	0.0164403
626.343	0.0165622
626.421	0.0163910
626.499	0.0164304
626.578	0.0165175
626.656	0.0164949
626.734	0.0165096
626.812	0.0166660
626.890	0.0164375
626.968	0.0163767
627.046	0.0164879
627.124	0.0165219
627.203	0.0165438
627.281	0.0166248
627.359	0.0165462
627.437	0.0165957
627.515	0.0165910
627.593	0.0166380
627.671	0.0166038
627.749	0.0166588
627.828	0.0164732
627.906	0.0166050
627.984	0.0165834
628.062	0.0165614
628.140	0.0165934
628.218	0.0165582
628.296	0.0165876
628.374	0.0166483
628.453	0.0165642
628.531	0.0167384
628.609	0.0165292
628.687	0.0164950
628.765	0.0165637
628.843	0.0165665
628.921	0.0165421
628.999	0.0167097
629.078	0.0163786
629.156	0.0164115
629.234	0.0165536
629.312	0.0164772
629.390	0.0165554
629.468	0.0164928
629.546	0.0166503
629.624	0.0166230
629.703	0.0166269
629.781	0.0165320
629.859	0.0166374
629.937	0.0166894
630.015	0.0165791
630.093	0.0165845
630.171	0.0166480
630.249	0.0165416
630.328	0.0165432
630.406	0.0166742
630.484	0.0166049
630.562	0.0165091
630.640	0.0165775
630.718	0.0165480
630.796	0.0165914
630.874	0.0166185
630.953	0.0166158
631.031	0.0164783
631.109	0.0165698
631.187	0.0165968
631.265	0.0166414
631.343	0.0166946
631.421	0.0166528
631.499	0.0165543
631.578	0.0164218
631.656	0.0164481
631.734	0.0166838
631.812	0.0167658
631.890	0.0165110
631.968	0.0166209
632.046	0.0166259
632.124	0.0164332
632.203	0.0166765
632.281	0.0164998
632.359	0.0164939
632.437	0.0163991
632.515	0.0165228
632.593	0.0164642
632.671	0.0163882
632.749	0.0164838
632.828	0.0164871
632.906	0.0164261
632.984	0.0164447
633.062	0.0165591
633.140	0.0165865
633.218	0.0164574
633.296	0.0166544
633.374	0.0165781
633.453	0.0166075
633.531	0.0165039
633.609	0.0165055
633.687	0.0165722
633.765	0.0162787
633.843	0.0164459
633.921	0.0165157
633.999	0.0164090
634.078	0.0163837
634.156	0.0165218
634.234	0.0164481
634.312	0.0164108
634.390	0.0163966
634.468	0.0164896
634.546	0.0163928
634.624	0.0163962
634.703	0.0163630
634.781	0.0163708
634.859	0.0163925
634.937	0.0165227
635.015	0.0163492
635.093	0.0163396
635.171	0.0163670
635.249	0.0162878
635.328	0.0163283
635.406	0.0163460
635.484	0.0163891
635.562	0.0162870
635.640	0.0164122
635.718	0.0163908
635.796	0.0163457
635.874	0.0162360
635.953	0.0163406
636.031	0.0163119
636.109	0.0162582
636.187	0.0163409
636.265	0.0162711
636.343	0.0162752
636.421	0.0161051
636.499	0.0161797
636.578	0.0162199
636.656	0.0162930
636.734	0.0161629
636.812	0.0163288
636.890	0.0162693
636.968	0.0162302
637.046	0.0163962
637.124	0.0162350
637.203	0.0161444
637.281	0.0162263
637.359	0.0162033
637.437	0.0162735
637.515	0.0160712
637.593	0.0162595
637.671	0.0161424
637.749	0.0161107
637.828	0.0162352
637.906	0.0161414
637.984	0.0160403
638.062	0.0162029
638.140	0.0162620
638.218	0.0162135
638.296	0.0161346
638.374	0.0160948
638.453	0.0161249
638.531	0.0160767
638.609	0.0161069
638.687	0.0160319
638.765	0.0161146
638.843	0.0159829
638.921	0.0160117
638.999	0.0161875
639.078	0.0161796
639.156	0.0160441
639.234	0.0160745
639.312	0.0158936
639.390	0.0160055
639.468	0.0161617
639.546	0.0161392
639.624	0.0160268
639.703	0.0160349
639.781	0.0163708
639.859	0.0161456
639.937	0.0160079
640.015	0.0161730
640.093	0.0161349
640.171	0.0163695
640.249	0.0161772
640.328	0.0163391
640.406	0.0162302
640.484	0.0163548
640.562	0.0162681
640.640	0.0162457
640.718	0.0163375
640.796	0.0162350
640.874	0.0162243
640.953	0.0164139
641.031	0.0164230
641.109	0.0162181
641.187	0.0165894
641.265	0.0162917
641.343	0.0163457
641.421	0.0164453
641.499	0.0163924
641.578	0.0164418
641.656	0.0162943
641.734	0.0164700
641.812	0.0164681
641.890	0.0163106
641.968	0.0162853
642.046	0.0163869
642.124	0.0164849
642.203	0.0162489
642.281	0.0162402
642.359	0.0162861
642.437	0.0163023
642.515	0.0163155
642.593	0.0162960
642.671	0.0163546
642.749	0.0163983
642.828	0.0163333
642.906	0.0163757
642.984	0.0164636
643.062	0.0164087
643.140	0.0163326
643.218	0.0164756
643.296	0.0164284
643.374	0.0162715
643.453	0.0163960
643.531	0.0162789
643.609	0.0163763
643.687	0.0163501
643.765	0.0164323
643.843	0.0164118
643.921	0.0164851
643.999	0.0164564
644.078	0.0161961
644.156	0.0163480
644.234	0.0164655
644.312	0.0162338
644.390	0.0162996
644.468	0.0165625
644.546	0.0163376
644.624	0.0165350
644.703	0.0164793
644.781	0.0165620
644.859	0.0163264
644.937	0.0164340
645.015	0.0164088
645.093	0.0165130
645.171	0.0165951
645.249	0.0164478
645.328	0.0165042
645.406	0.0164922
645.484	0.0165259
645.562	0.0163810
645.640	0.0165388
645.718	0.0166641
645.796	0.0164792
645.874	0.0164284
645.953	0.0163519
646.031	0.0164184
646.109	0.0164079
646.187	0.0164352
646.265	0.0164407
646.343	0.0165131
646.421	0.0164497
646.499	0.0165065
646.578	0.0164491
646.656	0.0163508
646.734	0.0164716
646.812	0.0164543
646.890	0.0166242
646.968	0.0164131
647.046	0.0164332
647.124	0.0165414
647.203	0.0165387
647.281	0.0165702
647.359	0.0164198
647.437	0.0165698
647.515	0.0165090
647.593	0.0165016
647.671	0.0166260
647.749	0.0165031
647.828	0.0166417
647.906	0.0164707
647.984	0.0165099
648.062	0.0165485
648.140	0.0163947
648.218	0.0164281
648.296	0.0164707
648.374	0.0165346
648.453	0.0164463
648.531	0.0164611
648.609	0.0165065
648.687	0.0164471
648.765	0.0165565
648.843	0.0165387
648.921	0.0164838
648.999	0.0164390
649.078	0.0163406
649.156	0.0164674
649.234	0.0165128
649.312	0.0163642
649.390	0.0164514
649.468	0.0166900
649.546	0.0165593
649.624	0.0164144
649.703	0.0166242
649.781	0.0167557
649.859	0.0164468
649.937	0.0165337
650.015	0.0165868
650.093	0.0165729
650.171	0.0165697
650.249	0.0166438
650.328	0.0165762
650.406	0.0165709
650.484	0.0165594
650.562	0.0165816
650.640	0.0166057
650.718	0.0165949
650.796	0.0164940
650.874	0.0165181
650.953	0.0165394
651.031	0.0166520
651.109	0.0164595
651.187	0.0165623
651.265	0.0164965
651.343	0.0163908
651.421	0.0165967
651.499	0.0165738
651.578	0.0164195
651.656	0.0165065
651.734	0.0164124
651.812	0.0165696
651.890	0.0166233
651.968	0.0166267
652.046	0.0165131
652.124	0.0165130
652.203	0.0164900
652.281	0.0163883
652.359	0.0164478
652.437	0.0165285
652.515	0.0166051
652.593	0.0164964
652.671	0.0165474
652.749	0.0164890
652.828	0.0166321
652.906	0.0166177
652.984	0.0164779
653.062	0.0166166
653.140	0.0164857
653.218	0.0165144
653.296	0.0165112
653.374	0.0165691
653.453	0.0164410
653.531	0.0164250
653.609	0.0165548
653.687	0.0165193
653.765	0.0164398
653.843	0.0166471
653.921	0.0166589
653.999	0.0164816
654.078	0.0164143
654.156	0.0163783
654.234	0.0164728
654.312	0.0166952
654.390	0.0165712
654.468	0.0166240
654.546	0.0165102
654.624	0.0164024
654.703	0.0165638
654.781	0.0164327
654.859	0.0164314
654.937	0.0164834
655.015	0.0165500
655.093	0.0165326
655.171	0.0163603
655.249	0.0163831
655.328	0.0165977
655.406	0.0164973
655.484	0.0164281
655.562	0.0164318
655.640	0.0164983
655.718	0.0164330
655.796	0.0164647
655.874	0.0164874
655.953	0.0165667
656.031	0.0163982
656.109	0.0164043
656.187	0.0164384
656.265	0.0163400
656.343	0.0164118
656.421	0.0163991
656.499	0.0163321
656.578	0.0164207
656.656	0.0164160
656.734	0.0163591
656.812	0.0163483
656.890	0.0163847
656.968	0.0164486
657.046	0.0164644
657.124	0.0162682
657.203	0.0164497
657.281	0.0163986
657.359	0.0163554
657.437	0.0163116
657.515	0.0163113
657.593	0.0163017
657.671	0.0163712
657.749	0.0164460
657.828	0.0164668
657.906	0.0163972
657.984	0.0163419
658.062	0.0163661
658.140	0.0164307
658.218	0.0163584
658.296	0.0164147
658.374	0.0162744
658.453	0.0163483
658.531	0.0163235
658.609	0.0164256
658.687	0.0163792
658.765	0.0161864
658.843	0.0163444
658.921	0.0164483
658.999	0.0163345
659.078	0.0164333
659.156	0.0163422
659.234	0.0163156
659.312	0.0164243
659.390	0.0163776
659.468	0.0163470
659.546	0.0163674
659.624	0.0162231
659.703	0.0163551
659.781	0.0163923
659.859	0.0165211
659.937	0.0165428
660.015	0.0162832
660.093	0.0164535
660.171	0.0164276
660.249	0.0163870
660.328	0.0163789
660.406	0.0164417
660.484	0.0163857
660.562	0.0163510
660.640	0.0164422
660.718	0.0163941
660.796	0.0165069
660.874	0.0164120
660.953	0.0163834
661.031	0.0163815
661.109	0.0163380
661.187	0.0163718
661.265	0.0164310
661.343	0.0163300
661.421	0.0162972
661.499	0.0162893
661.578	0.0164191
661.656	0.0164229
661.734	0.0164155
661.812	0.0162161
661.890	0.0164275
661.968	0.0162702
662.046	0.0165076
662.124	0.0164121
662.203	0.0162286
662.281	0.0162656
662.359	0.0162554
662.437	0.0162064
662.515	0.0162231
662.593	0.0162682
662.671	0.0164133
662.749	0.0162298
662.828	0.0162666
662.906	0.0162479
662.984	0.0161917
663.062	0.0162121
663.140	0.0162395
663.218	0.0162537
663.296	0.0163020
663.374	0.0162572
663.453	0.0162101
663.531	0.0161926
663.609	0.0163027
663.687	0.0162123
663.765	0.0161996
663.843	0.0162405
663.921	0.0162095
663.999	0.0162495
664.078	0.0162817
664.156	0.0162039
664.234	0.0163261
664.312	0.0162959
664.390	0.0161665
664.468	0.0162653
664.546	0.0163077
664.624	0.0162323
664.703	0.0162130
664.781	0.0162328
664.859	0.0161840
664.937	0.0162750
665.015	0.0161715
665.093	0.0162965
665.171	0.0161945
665.249	0.0162511
665.328	0.0162955
665.406	0.0162957
665.484	0.0163924
665.562	0.0161475
665.640	0.0161596
665.718	0.0163832
665.796	0.0163499
665.874	0.0162591
665.953	0.0163432
666.031	0.0163151
666.109	0.0161954
666.187	0.0163635
666.265	0.0163113
666.343	0.0162406
666.421	0.0163013
666.499	0.0163267
666.578	0.0162411
666.656	0.0161485
666.734	0.0162896
666.812	0.0163398
666.890	0.0163502
666.968	0.0163541
667.046	0.0163308
667.124	0.0162974
667.203	0.0162225
667.281	0.0161805
667.359	0.0162742
667.437	0.0163249
667.515	0.0162609
667.593	0.0163505
667.671	0.0163925
667.749	0.0163743
667.828	0.0162233
667.906	0.0163041
667.984	0.0163145
668.062	0.0164269
668.140	0.0163865
668.218	0.0164606
668.296	0.0162894
668.374	0.0163480
668.453	0.0163911
668.531	0.0164261
668.609	0.0163428
668.687	0.0163142
668.765	0.0165514
668.843	0.0165147
668.921	0.0163622
668.999	0.0162488
669.078	0.0163922
669.156	0.0163934
669.234	0.0163770
669.312	0.0165094
669.390	0.0164946
669.468	0.0164390
669.546	0.0163931
669.624	0.0163815
669.703	0.0164605
669.781	0.0164512
669.859	0.0163218
669.937	0.0163702
670.015	0.0164499
670.093	0.0162076
670.171	0.0163679
670.249	0.0163532
670.328	0.0163562
670.406	0.0163930
670.484	0.0163284
670.562	0.0163645
670.640	0.0163763
670.718	0.0163051
670.796	0.0164988
670.874	0.0164480
670.953	0.0163485
671.031	0.0164231
671.109	0.0163319
671.187	0.0165078
671.265	0.0164840
671.343	0.0164532
671.421	0.0164615
671.499	0.0163900
671.578	0.0165339
671.656	0.0164792
671.734	0.0164510
671.812	0.0165258
671.890	0.0164362
671.968	0.0165222
672.046	0.0163452
672.124	0.0164259
672.203	0.0164800
672.281	0.0165730
672.359	0.0165407
672.437	0.0165070
672.515	0.0165396
672.593	0.0165402
672.671	0.0164409
672.749	0.0164767
672.828	0.0164204
672.906	0.0164471
672.984	0.0165762
673.062	0.0166986
673.140	0.0165903
673.218	0.0164253
673.296	0.0164919
673.374	0.0165417
673.453	0.0164938
673.531	0.0165324
673.609	0.0165611
673.687	0.0164913
673.765	0.0163886
673.843	0.0164977
673.921	0.0165879
673.999	0.0165148
674.078	0.0164490
674.156	0.0165736
674.234	0.0165757
674.312	0.0163938
674.390	0.0165292
674.468	0.0164661
674.546	0.0165983
674.624	0.0164835
674.703	0.0166241
674.781	0.0164883
674.859	0.0166897
674.937	0.0165723
675.015	0.0166324
675.093	0.0165221
675.171	0.0164912
675.249	0.0166140
675.328	0.0166318
675.406	0.0166194
675.484	0.0166037
675.562	0.0165750
675.640	0.0166301
675.718	0.0167452
675.796	0.0166100
675.874	0.0165084
675.953	0.0166840
676.031	0.0164868
676.109	0.0165317
676.187	0.0165379
676.265	0.0165863
676.343	0.0164403
676.421	0.0165446
676.499	0.0166146
676.578	0.0165419
676.656	0.0166394
676.734	0.0165424
676.812	0.0164764
676.890	0.0165578
676.968	0.0167110
677.046	0.0165031
677.124	0.0163737
677.203	0.0165357
677.281	0.0164613
677.359	0.0166380
677.437	0.0165462
677.515	0.0166013
677.593	0.0166417
677.671	0.0165052
677.749	0.0164943
677.828	0.0164681
677.906	0.0165318
677.984	0.0165308
678.062	0.0165332
678.140	0.0165174
678.218	0.0164136
678.296	0.0166443
678.374	0.0166151
678.453	0.0166415
678.531	0.0164143
678.609	0.0165022
678.687	0.0165333
678.765	0.0165535
678.843	0.0165828
678.921	0.0165768
678.999	0.0165367
679.078	0.0165632
679.156	0.0165057
679.234	0.0165021
679.312	0.0165449
679.390	0.0165817
679.468	0.0165503
679.546	0.0165374
679.624	0.0164727
679.703	0.0166354
679.781	0.0165742
679.859	0.0166992
679.937	0.0166145
680.015	0.0164326
680.093	0.0165430
680.171	0.0165576
680.249	0.0163913
680.328	0.0164780
680.406	0.0165897
680.484	0.0165556
680.562	0.0165257
680.640	0.0164677
680.718	0.0165543
680.796	0.0165738
680.874	0.0165530
680.953	0.0167714
681.031	0.0165572
681.109	0.0165417
681.187	0.0165826
681.265	0.0167267
681.343	0.0165749
681.421	0.0165283
681.499	0.0165360
681.578	0.0165715
681.656	0.0164648
681.734	0.0164951
681.812	0.0165591
681.890	0.0164516
681.968	0.0164904
682.046	0.0165289
682.124	0.0165294
682.203	0.0166122
682.281	0.0165356
682.359	0.0165275
682.437	0.0164270
682.515	0.0164554
682.593	0.0163201
682.671	0.0164458
682.749	0.0165865
682.828	0.0165971
682.906	0.0164300
682.984	0.0164315
683.062	0.0165173
683.140	0.0164953
683.218	0.0164349
683.296	0.0163329
683.374	0.0162305
683.453	0.0163543
683.531	0.0164572
683.609	0.0163264
683.687	0.0162875
683.765	0.0164934
683.843	0.0163740
683.921	0.0163892
683.999	0.0164738
684.078	0.0164486
684.156	0.0164008
684.234	0.0164339
684.312	0.0162248
684.390	0.0163504
684.468	0.0164357
684.546	0.0162744
684.624	0.0162278
684.703	0.0163088
684.781	0.0162206
684.859	0.0162167
684.937	0.0163042
685.015	0.0163097
685.093	0.0161789
685.171	0.0162321
685.249	0.0162150
685.328	0.0162286
685.406	0.0160709
685.484	0.0161134
685.562	0.0161951
685.640	0.0163196
685.718	0.0160638
685.796	0.0162502
685.874	0.0162885
685.953	0.0163489
686.031	0.0162722
686.109	0.0162127
686.187	0.0161321
686.265	0.0160978
686.343	0.0162779
686.421	0.0162637
686.499	0.0161531
686.578	0.0160809
686.656	0.0161800
686.734	0.0161539
686.812	0.0162270
686.890	0.0162380
686.968	0.0162071
687.046	0.0161707
687.124	0.0161267
687.203	0.0162850
687.281	0.0163067
687.359	0.0162578
687.437	0.0161839
687.515	0.0162077
687.593	0.0163127
687.671	0.0162545
687.749	0.0162880
687.828	0.0162676
687.906	0.0162461
687.984	0.0162772
688.062	0.0162836
688.140	0.0163736
688.218	0.0162978
688.296	0.0162405
688.374	0.0162850
688.453	0.0163241
688.531	0.0163853
688.609	0.0163872
688.687	0.0164808
688.765	0.0163200
688.843	0.0161968
688.921	0.0162283
688.999	0.0164728
689.078	0.0163544
689.156	0.0161359
689.234	0.0164054
689.312	0.0163221
689.390	0.0163068
689.468	0.0162196
689.546	0.0164427
689.624	0.0163158
689.703	0.0162749
689.781	0.0163543
689.859	0.0163665
689.937	0.0163491
690.015	0.0164178
690.093	0.0163683
690.171	0.0164051
690.249	0.0163678
690.328	0.0163154
690.406	0.0164120
690.484	0.0163256
690.562	0.0163725
690.640	0.0164529
690.718	0.0164314
690.796	0.0164162
690.874	0.0163506
690.953	0.0164165
691.031	0.0164877
691.109	0.0164648
691.187	0.0165952
691.265	0.0165485
691.343	0.0163931
691.421	0.0165482
691.499	0.0164922
691.578	0.0164501
691.656	0.0162894
691.734	0.0163376
691.812	0.0164793
691.890	0.0166107
691.968	0.0166662
692.046	0.0164520
692.124	0.0164795
692.203	0.0164277
692.281	0.0164742
692.359	0.0165482
692.437	0.0166022
692.515	0.0164544
692.593	0.0164762
692.671	0.0166080
692.749	0.0164513
692.828	0.0164911
692.906	0.0165691
692.984	0.0164005
693.062	0.0163746
693.140	0.0165156
693.218	0.0165504
693.296	0.0165828
693.374	0.0165720
693.453	0.0165504
693.531	0.0166313
693.609	0.0163480
693.687	0.0165611
693.765	0.0167329
693.843	0.0166276
693.921	0.0164516
693.999	0.0164124
694.078	0.0164087
694.156	0.0166014
694.234	0.0164929
694.312	0.0165205
694.390	0.0164774
694.468	0.0165514
694.546	0.0166472
694.624	0.0164714
694.703	0.0165078
694.781	0.0165471
694.859	0.0165595
694.937	0.0165290
695.015	0.0164704
695.093	0.0166511
695.171	0.0165352
695.249	0.0164071
695.328	0.0165748
695.406	0.0165427
695.484	0.0166663
695.562	0.0165529
695.640	0.0164336
695.718	0.0165258
695.796	0.0164894
695.874	0.0165661
695.953	0.0164821
696.031	0.0164896
696.109	0.0164206
696.187	0.0165956
696.265	0.0165871
696.343	0.0166003
696.421	0.0164929
696.499	0.0165564
696.578	0.0166444
696.656	0.0165707
696.734	0.0165224
696.812	0.0165623
696.890	0.0165749
696.968	0.0165573
697.046	0.0164547
697.124	0.0164651
697.203	0.0166621
697.281	0.0166083
697.359	0.0165871
697.437	0.0165071
697.515	0.0165327
697.593	0.0165445
697.671	0.0166362
697.749	0.0164777
697.828	0.0164780
697.906	0.0164877
697.984	0.0165273
698.062	0.0165759
698.140	0.0164561
698.218	0.0164416
698.296	0.0166290
698.374	0.0164667
698.453	0.0165361
698.531	0.0164970
698.609	0.0166428
698.687	0.0165089
698.765	0.0165221
698.843	0.0165395
698.921	0.0165440
698.999	0.0165513
699.078	0.0165315
699.156	0.0164141
699.234	0.0164702
699.312	0.0164168
699.390	0.0165218
699.468	0.0165398
699.546	0.0165687
699.624	0.0165942
699.703	0.0164536
699.781	0.0166611
699.859	0.0165858
699.937	0.0166225
700.015	0.0164558
700.093	0.0166129
700.171	0.0165269
700.249	0.0165354
700.328	0.0164320
700.406	0.0164779
700.484	0.0164262
700.562	0.0165652
700.640	0.0165823
700.718	0.0164749
700.796	0.0165530
700.874	0.0165791
700.953	0.0165530
701.031	0.0165055
701.109	0.0164808
701.187	0.0166614
701.265	0.0166222
701.343	0.0166302
701.421	0.0164567
701.499	0.0166243
701.578	0.0165005
701.656	0.0165134
701.734	0.0165235
701.812	0.0165957
701.890	0.0166261
701.968	0.0166365
702.046	0.0165444
702.124	0.0165043
702.203	0.0166066
702.281	0.0165166
702.359	0.0165873
702.437	0.0166402
702.515	0.0164701
702.593	0.0165527
702.671	0.0166460
702.749	0.0167090
702.828	0.0165630
702.906	0.0165316
702.984	0.0165348
703.062	0.0165971
703.140	0.0165295
703.218	0.0165163
703.296	0.0165232
703.374	0.0165107
703.453	0.0165639
703.531	0.0164819
703.609	0.0166428
703.687	0.0165095
703.765	0.0165127
703.843	0.0165205
703.921	0.0163700
703.999	0.0165938
704.078	0.0164999
704.156	0.0165965
704.234	0.0165473
704.312	0.0164494
704.390	0.0166008
704.468	0.0165961
704.546	0.0164482
704.624	0.0164744
704.703	0.0165546
704.781	0.0164371
704.859	0.0164539
704.937	0.0163868
705.015	0.0164171
705.093	0.0163622
705.171	0.0163725
705.249	0.0164253
705.328	0.0164224
705.406	0.0163789
705.484	0.0164778
705.562	0.0163328
705.640	0.0163677
705.718	0.0165255
705.796	0.0164001
705.874	0.0163132
705.953	0.0163989
706.031	0.0165067
706.109	0.0164391
706.187	0.0164439
706.265	0.0163927
706.343	0.0164890
706.421	0.0164767
706.499	0.0163924
706.578	0.0164117
706.656	0.0163027
706.734	0.0163791
706.812	0.0162984
706.890	0.0163945
706.968	0.0164595
707.046	0.0164513
707.124	0.0164558
707.203	0.0163976
707.281	0.0162012
707.359	0.0163245
707.437	0.0163031
707.515	0.0164150
707.593	0.0163732
707.671	0.0163991
707.749	0.0162923
707.828	0.0165205
707.906	0.0163213
707.984	0.0163103
708.062	0.0163368
708.140	0.0164439
708.218	0.0164385
708.296	0.0163155
708.374	0.0164168
708.453	0.0163853
708.531	0.0162845
708.609	0.0163657
708.687	0.0164197
708.765	0.0163706
708.843	0.0163280
708.921	0.0163505
708.999	0.0162157
709.078	0.0162045
709.156	0.0163342
709.234	0.0162177
709.312	0.0162355
709.390	0.0162462
709.468	0.0161044
709.546	0.0162728
709.624	0.0162707
709.703	0.0162512
709.781	0.0163058
709.859	0.0163107
709.937	0.0162106
710.015	0.0161592
710.093	0.0161800
710.171	0.0161640
710.249	0.0162683
710.328	0.0162818
710.406	0.0162141
710.484	0.0161678
710.562	0.0162794
710.640	0.0164099
710.718	0.0162186
710.796	0.0162170
710.874	0.0163211
710.953	0.0160992
711.031	0.0162631
711.109	0.0163668
711.187	0.0163003
711.265	0.0163465
711.343	0.0163149
711.421	0.0162756
711.499	0.0162639
711.578	0.0163757
711.656	0.0162064
711.734	0.0161664
711.812	0.0163047
711.890	0.0164495
711.968	0.0162872
712.046	0.0163712
712.124	0.0164021
712.203	0.0162412
712.281	0.0162594
712.359	0.0163574
712.437	0.0163593
712.515	0.0162154
712.593	0.0161351
712.671	0.0162679
712.749	0.0161260
712.828	0.0162518
712.906	0.0164224
712.984	0.0164478
713.062	0.0162665
713.140	0.0163032
713.218	0.0162016
713.296	0.0162123
713.374	0.0163661
713.453	0.0161441
713.531	0.0162251
713.609	0.0163262
713.687	0.0163206
713.765	0.0164087
713.843	0.0162904
713.921	0.0161655
713.999	0.0162690
714.078	0.0162615
714.156	0.0163717
714.234	0.0162608
714.312	0.0162960
714.390	0.0163483
714.468	0.0163555
714.546	0.0161160
714.624	0.0163916
714.703	0.0163301
714.781	0.0163512
714.859	0.0163179
714.937	0.0162602
715.015	0.0164101
715.093	0.0164198
715.171	0.0162154
715.249	0.0163740
715.328	0.0163503
715.406	0.0164130
715.484	0.0163136
715.562	0.0163265
715.640	0.0164127
715.718	0.0162928
715.796	0.0162959
715.874	0.0163174
715.953	0.0163015
716.031	0.0161916
716.109	0.0161679
716.187	0.0163180
716.265	0.0163018
716.343	0.0162543
716.421	0.0162859
716.499	0.0162660
716.578	0.0162396
716.656	0.0163369
716.734	0.0163435
716.812	0.0163203
716.890	0.0163853
716.968	0.0162941
717.046	0.0162893
717.124	0.0163038
717.203	0.0163494
717.281	0.0163123
717.359	0.0161852
717.437	0.0162426
717.515	0.0165427
717.593	0.0165088
717.671	0.0164070
717.749	0.0162254
717.828	0.0163960
717.906	0.0163913
717.984	0.0163921
718.062	0.0164536
718.140	0.0164366
718.218	0.0163883
718.296	0.0163630
718.374	0.0163586
718.453	0.0163334
718.531	0.0163612
718.609	0.0164854
718.687	0.0164675
718.765	0.0164577
718.843	0.0165524
718.921	0.0164675
718.999	0.0164040
719.078	0.0164307
719.156	0.0163913
719.234	0.0166154
719.312	0.0163660
719.390	0.0163609
719.468	0.0164597
719.546	0.0164259
719.624	0.0165369
719.703	0.0165738
719.781	0.0165382
719.859	0.0165277
719.937	0.0165451
720.015	0.0165491
720.093	0.0164249
720.171	0.0163534
720.249	0.0165387
720.328	0.0165427
720.406	0.0164085
720.484	0.0165345
720.562	0.0163411
720.640	0.0164889
720.718	0.0164101
720.796	0.0165680
720.874	0.0165697
720.953	0.0163924
721.031	0.0164469
721.109	0.0164704
721.187	0.0165691
721.265	0.0165665
721.343	0.0165540
721.421	0.0164957
721.499	0.0166006
721.578	0.0165355
721.656	0.0165936
721.734	0.0165742
721.812	0.0164778
721.890	0.0164610
721.968	0.0165458
722.046	0.0165182
722.124	0.0163102
722.203	0.0166022
722.281	0.0164766
722.359	0.0164969
722.437	0.0165876
722.515	0.0164991
722.593	0.0165190
722.671	0.0165441
722.749	0.0164865
722.828	0.0165260
722.906	0.0164883
722.984	0.0164623
723.062	0.0166354
723.140	0.0165472
723.218	0.0164159
723.296	0.0165479
723.374	0.0165163
723.453	0.0165356
723.531	0.0165606
723.609	0.0166254
723.687	0.0165327
723.765	0.0165425
723.843	0.0164615
723.921	0.0166338
723.999	0.0165551
724.078	0.0164814
724.156	0.0164352
724.234	0.0165969
724.312	0.0165456
724.390	0.0165752
724.468	0.0167098
724.546	0.0166267
724.624	0.0165764
724.703	0.0166156
724.781	0.0165771
724.859	0.0165712
724.937	0.0165353
725.015	0.0165021
725.093	0.0165226
725.171	0.0165500
725.249	0.0166423
725.328	0.0165734
725.406	0.0163944
725.484	0.0165298
725.562	0.0166763
725.640	0.0164973
725.718	0.0164519
725.796	0.0164340
725.874	0.0164508
725.953	0.0165105
726.031	0.0164314
726.109	0.0164658
726.187	0.0164890
726.265	0.0165900
726.343	0.0164941
726.421	0.0164143
726.499	0.0165280
726.578	0.0164359
726.656	0.0163914
726.734	0.0164167
726.812	0.0164246
726.890	0.0163488
726.968	0.0164257
727.046	0.0164118
727.124	0.0165412
727.203	0.0164993
727.281	0.0163964
727.359	0.0164474
727.437	0.0164230
727.515	0.0163371
727.593	0.0164073
727.671	0.0163360
727.749	0.0162890
727.828	0.0164553
727.906	0.0164468
727.984	0.0163651
728.062	0.0165174
728.140	0.0163378
728.218	0.0164381
728.296	0.0164778
728.374	0.0163972
728.453	0.0163746
728.531	0.0163853
728.609	0.0163726
728.687	0.0164500
728.765	0.0165368
728.843	0.0164413
728.921	0.0163975
728.999	0.0163637
729.078	0.0163860
729.156	0.0165234
729.234	0.0165363
729.312	0.0162961
729.390	0.0162599
729.468	0.0164807
729.546	0.0164225
729.624	0.0163613
729.703	0.0163511
729.781	0.0162762
729.859	0.0163031
729.937	0.0163323
730.015	0.0162687
730.093	0.0163833
730.171	0.0163776
730.249	0.0163381
730.328	0.0163364
730.406	0.0163277
730.484	0.0162595
730.562	0.0163183
730.640	0.0162000
730.718	0.0164263
730.796	0.0162914
730.874	0.0162193
730.953	0.0162621
731.031	0.0162854
731.109	0.0163087
731.187	0.0163534
731.265	0.0164236
731.343	0.0163168
731.421	0.0164389
731.499	0.0162881
731.578	0.0162786
731.656	0.0162272
731.734	0.0162560
731.812	0.0163902
731.890	0.0162910
731.968	0.0163558
732.046	0.0163628
732.124	0.0164445
732.203	0.0163797
732.281	0.0163658
732.359	0.0162827
732.437	0.0164558
732.515	0.0163457
732.593	0.0163775
732.671	0.0164424
732.749	0.0162241
732.828	0.0163875
732.906	0.0163931
732.984	0.0165228
733.062	0.0164622
733.140	0.0163120
733.218	0.0163449
733.296	0.0161526
733.374	0.0163255
733.453	0.0162608
733.531	0.0161988
733.609	0.0163558
733.687	0.0163950
733.765	0.0163579
733.843	0.0163038
733.921	0.0162136
733.999	0.0164259
734.078	0.0163871
734.156	0.0162531
734.234	0.0163016
734.312	0.0164477
734.390	0.0163232
734.468	0.0163165
734.546	0.0163974
734.624	0.0163526
734.703	0.0162573
734.781	0.0164270
734.859	0.0163197
734.937	0.0161761
735.015	0.0163444
735.093	0.0164310
735.171	0.0163152
735.249	0.0162449
735.328	0.0162442
735.406	0.0162928
735.484	0.0163474
735.562	0.0164069
735.640	0.0161838
735.718	0.0162038
735.796	0.0163232
735.874	0.0163311
735.953	0.0162681
736.031	0.0163358
736.109	0.0163689
736.187	0.0162800
736.265	0.0162734
736.343	0.0163639
736.421	0.0162397
736.499	0.0162819
736.578	0.0163090
736.656	0.0163074
736.734	0.0163499
736.812	0.0162559
736.890	0.0163406
736.968	0.0163501
737.046	0.0162595
737.124	0.0163454
737.203	0.0162361
737.281	0.0162437
737.359	0.0163192
737.437	0.0163002
737.515	0.0161980
737.593	0.0163105
737.671	0.0162112
737.749	0.0162554
737.828	0.0163280
737.906	0.0163014
737.984	0.0163173
738.062	0.0163690
738.140	0.0163699
738.218	0.0162828
738.296	0.0161796
738.374	0.0163065
738.453	0.0162749
738.531	0.0163466
738.609	0.0164378
738.687	0.0164408
738.765	0.0162973
738.843	0.0162889
738.921	0.0162178
738.999	0.0161664
739.078	0.0162434
739.156	0.0163886
739.234	0.0163573
739.312	0.0162422
739.390	0.0162108
739.468	0.0163108
739.546	0.0163248
739.624	0.0162725
739.703	0.0163020
739.781	0.0164031
739.859	0.0163880
739.937	0.0163654
740.015	0.0163496
740.093	0.0163586
740.171	0.0164812
740.249	0.0163721
740.328	0.0163551
740.406	0.0164335
740.484	0.0165316
740.562	0.0163696
740.640	0.0164061
740.718	0.0164790
740.796	0.0162994
740.874	0.0164033
740.953	0.0163699
741.031	0.0163773
741.109	0.0164656
741.187	0.0163306
741.265	0.0163519
741.343	0.0163470
741.421	0.0163213
741.499	0.0162739
741.578	0.0164472
741.656	0.0164302
741.734	0.0165504
741.812	0.0163924
741.890	0.0162315
741.968	0.0164949
742.046	0.0163950
742.124	0.0164316
742.203	0.0164223
742.281	0.0163689
742.359	0.0164435
742.437	0.0165440
742.515	0.0164588
742.593	0.0165144
742.671	0.0166009
742.749	0.0165621
742.828	0.0165183
742.906	0.0163504
742.984	0.0165022
743.062	0.0165154
743.140	0.0163734
743.218	0.0164738
743.296	0.0163469
743.374	0.0165166
743.453	0.0166051
743.531	0.0163165
743.609	0.0163201
743.687	0.0164715
743.765	0.0164916
743.843	0.0164079
743.921	0.0164063
743.999	0.0163998
744.078	0.0164464
744.156	0.0164521
744.234	0.0165890
744.312	0.0164654
744.390	0.0163544
744.468	0.0165093
744.546	0.0165270
744.624	0.0165225
744.703	0.0164866
744.781	0.0163900
744.859	0.0165123
744.937	0.0165498
745.015	0.0164513
745.093	0.0166019
745.171	0.0166705
745.249	0.0165224
745.328	0.0165902
745.406	0.0166516
745.484	0.0164888
745.562	0.0164346
745.640	0.0164668
745.718	0.0166272
745.796	0.0164898
745.874	0.0165375
745.953	0.0164265
746.031	0.0164426
746.109	0.0165320
746.187	0.0166238
746.265	0.0166742
746.343	0.0165173
746.421	0.0163764
746.499	0.0165694
746.578	0.0164800
746.656	0.0165159
746.734	0.0164452
746.812	0.0165313
746.890	0.0164447
746.968	0.0164609
747.046	0.0165528
747.124	0.0165165
747.203	0.0164440
747.281	0.0164009
747.359	0.0164302
747.437	0.0163677
747.515	0.0164520
747.593	0.0165311
747.671	0.0164644
747.749	0.0164853
747.828	0.0163840
747.906	0.0164693
747.984	0.0165044
748.062	0.0164518
748.140	0.0164115
748.218	0.0164799
748.296	0.0164809
748.374	0.0164837
748.453	0.0165087
748.531	0.0165797
748.609	0.0163278
748.687	0.0163675
748.765	0.0164722
748.843	0.0165364
748.921	0.0165742
748.999	0.0164364
749.078	0.0163995
749.156	0.0164716
749.234	0.0164610
749.312	0.0165643
749.390	0.0163857
749.468	0.0164529
749.546	0.0165201
749.624	0.0164745
749.703	0.0163754
749.781	0.0163663
749.859	0.0165337
749.937	0.0163754
750.015	0.0165687
750.093	0.0164436
750.171	0.0164281
750.249	0.0165456
750.328	0.0165573
750.406	0.0164535
750.484	0.0164185
750.562	0.0164166
750.640	0.0164989
750.718	0.0165801
750.796	0.0165713
750.874	0.0166923
750.953	0.0163904
751.031	0.0164975
751.109	0.0165370
751.187	0.0166016
751.265	0.0165771
751.343	0.0166231
751.421	0.0166039
751.499	0.0166909
751.578	0.0166187
751.656	0.0165382
751.734	0.0166247
751.812	0.0165888
751.890	0.0166278
751.968	0.0166725
752.046	0.0166164
752.124	0.0165108
752.203	0.0165301
752.281	0.0165302
752.359	0.0164232
752.437	0.0165891
752.515	0.0165660
752.593	0.0164378
752.671	0.0165011
752.749	0.0166796
752.828	0.0164579
752.906	0.0165253
752.984	0.0165237
753.062	0.0166502
753.140	0.0165752
753.218	0.0164828
753.296	0.0164871
753.374	0.0164452
753.453	0.0166048
753.531	0.0166109
753.609	0.0164703
753.687	0.0164909
753.765	0.0166490
753.843	0.0165989
753.921	0.0165484
753.999	0.0165800
754.078	0.0165800
754.156	0.0164836
754.234	0.0164507
754.312	0.0165595
754.390	0.0165054
754.468	0.0165131
754.546	0.0165876
754.624	0.0165285
754.703	0.0165590
754.781	0.0166074
754.859	0.0166420
754.937	0.0165525
755.015	0.0163688
755.093	0.0163964
755.171	0.0165697
755.249	0.0165659
755.328	0.0162193
755.406	0.0164519
755.484	0.0165394
755.562	0.0164622
755.640	0.0163736
755.718	0.0162762
755.796	0.0163622
755.874	0.0163657
755.953	0.0162195
756.031	0.0163108
756.109	0.0164012
756.187	0.0163509
756.265	0.0163748
756.343	0.0162634
756.421	0.0164535
756.499	0.0163433
756.578	0.0162757
756.656	0.0163141
756.734	0.0163543
756.812	0.0164883
756.890	0.0163976
756.968	0.0164524
757.046	0.0163674
757.124	0.0163204
757.203	0.0163986
757.281	0.0164281
757.359	0.0164207
757.437	0.0163299
757.515	0.0164256
757.593	0.0165059
757.671	0.0163816
757.749	0.0163501
757.828	0.0163586
757.906	0.0164648
757.984	0.0164677
758.062	0.0165295
758.140	0.0163571
758.218	0.0163851
758.296	0.0164037
758.374	0.0164893
758.453	0.0165365
758.531	0.0164034
758.609	0.0164393
758.687	0.0164750
758.765	0.0164819
758.843	0.0165261
758.921	0.0165082
758.999	0.0165392
759.078	0.0165309
759.156	0.0165055
759.234	0.0166109
759.312	0.0164055
759.390	0.0164285
759.468	0.0164918
759.546	0.0164999
759.624	0.0163852
759.703	0.0165709
759.781	0.0164661
759.859	0.0164355
759.937	0.0163872
760.015	0.0163244
760.093	0.0163743
760.171	0.0164206
760.249	0.0164642
760.328	0.0164458
760.406	0.0163952
760.484	0.0164140
760.562	0.0165188
760.640	0.0165211
760.718	0.0165395
760.796	0.0164590
760.874	0.0163984
760.953	0.0164390
761.031	0.0163663
761.109	0.0163792
761.187	0.0163805
761.265	0.0163863
761.343	0.0164309
761.421	0.0165137
761.499	0.0165422
761.578	0.0165115
761.656	0.0165532
761.734	0.0163657
761.812	0.0163868
761.890	0.0165022
761.968	0.0164197
762.046	0.0163788
762.124	0.0163969
762.203	0.0163971
762.281	0.0164312
762.359	0.0163954
762.437	0.0163732
762.515	0.0164214
762.593	0.0164584
762.671	0.0165382
762.749	0.0164024
762.828	0.0164154
762.906	0.0165553
762.984	0.0164581
763.062	0.0165636
763.140	0.0164656
763.218	0.0163530
763.296	0.0163847
763.374	0.0163604
763.453	0.0163521
763.531	0.0162852
763.609	0.0164055
763.687	0.0163319
763.765	0.0165149
763.843	0.0164923
763.921	0.0163854
763.999	0.0164187
764.078	0.0163081
764.156	0.0164120
764.234	0.0164769
764.312	0.0165433
764.390	0.0164101
764.468	0.0164541
764.546	0.0164076
764.624	0.0164179
764.703	0.0163110
764.781	0.0164265
764.859	0.0165013
764.937	0.0165157
765.015	0.0164647
765.093	0.0163864
765.171	0.0164238
765.249	0.0165793
765.328	0.0164721
765.406	0.0165343
765.484	0.0164603
765.562	0.0164320
765.640	0.0165195
765.718	0.0166232
765.796	0.0165582
765.874	0.0164812
765.953	0.0164591
766.031	0.0164890
766.109	0.0164373
766.187	0.0164994
766.265	0.0165172
766.343	0.0165643
766.421	0.0165250
766.499	0.0166174
766.578	0.0164938
766.656	0.0165475
766.734	0.0165095
766.812	0.0166892
766.890	0.0167396
766.968	0.0166034
767.046	0.0165597
767.124	0.0164277
767.203	0.0165382
767.281	0.0165261
767.359	0.0165024
767.437	0.0164670
767.515	0.0165267
767.593	0.0165596
767.671	0.0164923
767.749	0.0164423
767.828	0.0163407
767.906	0.0163889
767.984	0.0162581
768.062	0.0165292
768.140	0.0165113
768.218	0.0163476
768.296	0.0164201
768.374	0.0163494
768.453	0.0165729
768.531	0.0165319
768.609	0.0163562
768.687	0.0164126
768.765	0.0163609
768.843	0.0163705
768.921	0.0164360
768.999	0.0163937
769.078	0.0163018
769.156	0.0162730
769.234	0.0164545
769.312	0.0163793
769.390	0.0163093
769.468	0.0163840
769.546	0.0164436
769.624	0.0164037
769.703	0.0165073
769.781	0.0163336
769.859	0.0165118
769.937	0.0165648
770.015	0.0164744
770.093	0.0164215
770.171	0.0164045
770.249	0.0165398
770.328	0.0163042
770.406	0.0164642
770.484	0.0164140
770.562	0.0164646
770.640	0.0164300
770.718	0.0165822
770.796	0.0164394
770.874	0.0163729
770.953	0.0164848
771.031	0.0165124
771.109	0.0165250
771.187	0.0164710
771.265	0.0164723
771.343	0.0164285
771.421	0.0165414
771.499	0.0165137
771.578	0.0165259
771.656	0.0166699
771.734	0.0166212
771.812	0.0163967
771.890	0.0165069
771.968	0.0165430
772.046	0.0164560
772.124	0.0164507
772.203	0.0164805
772.281	0.0165103
772.359	0.0162315
772.437	0.0164103
772.515	0.0164580
772.593	0.0165191
772.671	0.0162891
772.749	0.0163401
772.828	0.0162747
772.906	0.0163973
772.984	0.0163247
773.062	0.0162511
773.140	0.0162907
773.218	0.0163248
773.296	0.0163303
773.374	0.0163021
773.453	0.0162793
773.531	0.0163199
773.609	0.0164139
773.687	0.0164159
773.765	0.0163016
773.843	0.0164162
773.921	0.0165839
773.999	0.0164118
774.078	0.0163580
774.156	0.0165121
774.234	0.0164782
774.312	0.0163711
774.390	0.0165158
774.468	0.0163920
774.546	0.0164134
774.624	0.0164713
774.703	0.0164802
774.781	0.0164407
774.859	0.0164588
774.937	0.0164371
775.015	0.0165623
775.093	0.0164703
775.171	0.0165254
775.249	0.0164799
775.328	0.0165480
775.406	0.0164738
775.484	0.0165811
775.562	0.0165607
775.640	0.0165762
775.718	0.0165277
775.796	0.0166505
775.874	0.0167617
775.953	0.0166677
776.031	0.0167172
776.109	0.0166749
776.187	0.0165960
776.265	0.0167455
776.343	0.0164880
776.421	0.0165607
776.499	0.0166355
776.578	0.0167551
776.656	0.0166488
776.734	0.0166502
776.812	0.0166914
776.890	0.0165076
776.968	0.0165790
777.046	0.0165240
777.124	0.0164835
777.203	0.0164346
777.281	0.0164024
777.359	0.0163663
777.437	0.0165851
777.515	0.0164790
777.593	0.0163509
777.671	0.0163049
777.749	0.0162950
777.828	0.0163026
777.906	0.0162864
777.984	0.0162405
778.062	0.0163673
778.140	0.0162075
778.218	0.0162650
778.296	0.0162925
778.374	0.0162820
778.453	0.0163013
778.531	0.0163155
778.609	0.0162990
778.687	0.0163699
778.765	0.0163318
778.843	0.0164255
778.921	0.0164190
778.999	0.0163610
779.078	0.0164137
779.156	0.0164617
779.234	0.0164715
779.312	0.0165115
779.390	0.0164410
779.468	0.0164511
779.546	0.0165073
779.624	0.0164909
779.703	0.0163381
779.781	0.0163573
779.859	0.0165056
779.937	0.0163959
780.015	0.0163702
780.093	0.0164000
780.171	0.0164628
780.249	0.0163797
780.328	0.0164574
780.406	0.0163988
780.484	0.0162875
780.562	0.0164151
780.640	0.0163712
780.718	0.0163764
780.796	0.0163292
780.874	0.0163080
780.953	0.0165297
781.031	0.0163195
781.109	0.0163530
781.187	0.0165373
781.265	0.0166129
781.343	0.0163829
781.421	0.0164848
781.499	0.0165364
781.578	0.0165945
781.656	0.0165412
781.734	0.0166072
781.812	0.0165633
781.890	0.0167436
781.968	0.0166299
782.046	0.0165260
782.124	0.0165991
782.203	0.0165477
782.281	0.0163654
782.359	0.0164193
782.437	0.0164426
782.515	0.0164420
782.593	0.0165491
782.671	0.0164301
782.749	0.0163306
782.828	0.0164310
782.906	0.0163180
782.984	0.0163537
783.062	0.0163222
783.140	0.0163447
783.218	0.0162726
783.296	0.0165134
783.374	0.0162134
783.453	0.0162968
783.531	0.0162865
783.609	0.0163084
783.687	0.0163176
783.765	0.0162530
783.843	0.0164126
783.921	0.0163076
783.999	0.0161725
784.078	0.0163971
784.156	0.0162381
784.234	0.0164085
784.312	0.0163756
784.390	0.0164271
784.468	0.0162771
784.546	0.0163169
784.624	0.0165587
784.703	0.0165084
784.781	0.0164021
784.859	0.0164384
784.937	0.0164000
785.015	0.0164292
785.093	0.0164236
785.171	0.0164037
785.249	0.0164433
785.328	0.0165492
785.406	0.0165313
785.484	0.0164851
785.562	0.0164631
785.640	0.0164474
785.718	0.0164439
785.796	0.0164543
785.874	0.0164610
785.953	0.0165085
786.031	0.0164632
786.109	0.0164578
786.187	0.0164362
786.265	0.0164754
786.343	0.0164958
786.421	0.0164986
786.499	0.0164891
786.578	0.0164072
786.656	0.0165916
786.734	0.0163107
786.812	0.0165867
786.890	0.0165678
786.968	0.0163250
787.046	0.0164326
787.124	0.0165340
787.203	0.0166096
787.281	0.0163965
787.359	0.0164706
787.437	0.0164744
787.515	0.0163290
787.593	0.0165221
787.671	0.0162760
787.749	0.0163503
787.828	0.0161849
787.906	0.0161320
787.984	0.0162492
788.062	0.0162519
788.140	0.0161971
788.218	0.0161732
788.296	0.0161796
788.374	0.0162447
788.453	0.0162888
788.531	0.0162769
788.609	0.0163610
788.687	0.0163132
788.765	0.0161622
788.843	0.0162212
788.921	0.0164355
788.999	0.0163205
789.078	0.0163782
789.156	0.0163171
789.234	0.0164287
789.312	0.0163045
789.390	0.0163958
789.468	0.0164635
789.546	0.0163674
789.624	0.0163032
789.703	0.0164240
789.781	0.0163285
789.859	0.0164375
789.937	0.0163754
790.015	0.0164411
790.093	0.0165569
790.171	0.0165278
790.249	0.0165960
790.328	0.0165231
790.406	0.0164118
790.484	0.0166019
790.562	0.0165694
790.640	0.0166200
790.718	0.0165459
790.796	0.0164786
790.874	0.0165041
790.953	0.0165385
791.031	0.0165990
791.109	0.0164739
791.187	0.0165691
791.265	0.0165156
791.343	0.0166306
791.421	0.0165799
791.499	0.0165199
791.578	0.0164588
791.656	0.0165362
791.734	0.0165443
791.812	0.0165479
791.890	0.0163879
791.968	0.0164925
792.046	0.0164486
792.124	0.0164473
792.203	0.0164510
792.281	0.0164575
792.359	0.0164328
792.437	0.0165354
792.515	0.0164633
792.593	0.0164391
792.671	0.0163213
792.749	0.0163872
792.828	0.0162971
792.906	0.0163809
792.984	0.0163669
793.062	0.0163885
793.140	0.0161987
793.218	0.0162148
793.296	0.0163626
793.374	0.0163400
793.453	0.0162975
793.531	0.0161901
793.609	0.0162949
793.687	0.0163162
793.765	0.0163579
793.843	0.0162872
793.921	0.0163203
793.999	0.0162792
794.078	0.0162745
794.156	0.0163834
794.234	0.0163936
794.312	0.0164842
794.390	0.0164680
794.468	0.0164243
794.546	0.0165364
794.624	0.0163832
794.703	0.0162051
794.781	0.0164403
794.859	0.0165750
794.937	0.0163137
795.015	0.0165875
795.093	0.0164881
795.171	0.0164423
795.249	0.0164496
795.328	0.0165441
795.406	0.0166160
795.484	0.0166541
795.562	0.0164634
795.640	0.0164339
795.718	0.0165948
795.796	0.0166691
795.874	0.0164662
795.953	0.0164031
796.031	0.0165395
796.109	0.0165794
796.187	0.0165314
796.265	0.0165543
796.343	0.0164472
796.421	0.0166815
796.499	0.0163573
796.578	0.0162653
796.656	0.0163725
796.734	0.0163316
796.812	0.0164088
796.890	0.0164716
796.968	0.0164215
797.046	0.0165024
797.124	0.0163229
797.203	0.0163866
797.281	0.0163676
797.359	0.0163177
797.437	0.0162724
797.515	0.0161747
797.593	0.0164350
797.671	0.0163618
797.749	0.0162952
797.828	0.0163818
797.906	0.0163001
797.984	0.0163886
798.062	0.0162931
798.140	0.0163231
798.218	0.0161829
798.296	0.0161987
798.374	0.0164130
798.453	0.0163796
798.531	0.0162529
798.609	0.0164197
798.687	0.0163000
798.765	0.0162954
798.843	0.0163541
798.921	0.0163535
798.999	0.0163573
799.078	0.0163121
799.156	0.0163934
799.234	0.0163415
799.312	0.0162996
799.390	0.0163355
799.468	0.0164866
799.546	0.0164614
799.624	0.0163751
799.703	0.0164146
799.781	0.0162807
799.859	0.0164347
799.937	0.0165163
800.015	0.0165469
800.093	0.0165037
800.171	0.0164388
800.249	0.0164273
800.328	0.0166166
800.406	0.0165207
800.484	0.0164265
800.562	0.0164705
800.640	0.0166196
800.718	0.0165034
800.796	0.0165832
800.874	0.0165099
800.953	0.0166183
801.031	0.0165517
801.109	0.0164359
801.187	0.0163558
801.265	0.0164053
801.343	0.0163663
801.421	0.0164153
801.499	0.0162402
801.578	0.0163016
801.656	0.0162390
801.734	0.0161067
801.812	0.0161021
801.890	0.0161530
801.968	0.0161382
802.046	0.0161647
802.124	0.0162489
802.203	0.0161877
802.281	0.0163294
802.359	0.0162025
802.437	0.0161467
802.515	0.0161900
802.593	0.0162971
802.671	0.0163151
802.749	0.0163020
802.828	0.0163545
802.906	0.0163504
802.984	0.0162536
803.062	0.0163800
803.140	0.0163367
803.218	0.0162782
803.296	0.0162735
803.374	0.0163734
803.453	0.0162965
803.531	0.0163436
803.609	0.0163072
803.687	0.0162411
803.765	0.0164359
803.843	0.0163873
803.921	0.0161954
803.999	0.0163435
804.078	0.0162996
804.156	0.0163657
804.234	0.0162421
804.312	0.0163979
804.390	0.0163338
804.468	0.0162167
804.546	0.0163325
804.624	0.0164107
804.703	0.0163728
804.781	0.0162880
804.859	0.0163013
804.937	0.0164135
805.015	0.0163822
805.093	0.0163691
805.171	0.0162262
805.249	0.0163941
805.328	0.0165004
805.406	0.0165968
805.484	0.0165099
805.562	0.0166511
805.640	0.0164487
805.718	0.0167764
805.796	0.0166960
805.874	0.0165802
805.953	0.0165813
806.031	0.0166335
806.109	0.0164520
806.187	0.0164820
806.265	0.0164957
806.343	0.0164954
806.421	0.0164743
806.499	0.0164878
806.578	0.0164594
806.656	0.0165167
806.734	0.0162551
806.812	0.0161892
806.890	0.0162297
806.968	0.0164105
807.046	0.0163643
807.124	0.0161778
807.203	0.0162959
807.281	0.0163570
807.359	0.0161637
807.437	0.0161929
807.515	0.0162664
807.593	0.0162822
807.671	0.0162144
807.749	0.0162432
807.828	0.0162178
807.906	0.0161974
807.984	0.0162341
808.062	0.0164029
808.140	0.0162570
808.218	0.0163232
808.296	0.0164070
808.374	0.0163773
808.453	0.0164532
808.531	0.0164848
808.609	0.0163081
808.687	0.0164783
808.765	0.0165224
808.843	0.0163712
808.921	0.0163759
808.999	0.0164742
809.078	0.0165106
809.156	0.0165664
809.234	0.0164683
809.312	0.0164096
809.390	0.0166059
809.468	0.0164809
809.546	0.0164482
809.624	0.0166287
809.703	0.0166417
809.781	0.0166167
809.859	0.0165928
809.937	0.0166171
810.015	0.0165051
810.093	0.0166376
810.171	0.0165438
810.249	0.0165608
810.328	0.0166120
810.406	0.0165681
810.484	0.0165418
810.562	0.0165265
810.640	0.0165256
810.718	0.0164732
810.796	0.0165652
810.874	0.0164464
810.953	0.0164071
811.031	0.0165173
811.109	0.0164157
811.187	0.0162837
811.265	0.0162386
811.343	0.0161969
811.421	0.0163429
811.499	0.0163035
811.578	0.0162067
811.656	0.0161588
811.734	0.0161363
811.812	0.0161973
811.890	0.0162029
811.968	0.0162338
812.046	0.0163046
812.124	0.0162568
812.203	0.0160719
812.281	0.0161655
812.359	0.0161460
812.437	0.0162057
812.515	0.0162832
812.593	0.0162883
812.671	0.0163072
812.749	0.0163436
812.828	0.0162758
812.906	0.0162875
812.984	0.0163795
813.062	0.0164235
813.140	0.0163695
813.218	0.0163786
813.296	0.0164188
813.374	0.0164817
813.453	0.0164687
813.531	0.0167523
813.609	0.0165875
813.687	0.0165932
813.765	0.0165888
813.843	0.0165457
813.921	0.0166328
813.999	0.0165211
814.078	0.0166037
814.156	0.0165886
814.234	0.0165611
814.312	0.0166035
814.390	0.0165077
814.468	0.0165351
814.546	0.0164227
814.624	0.0165004
814.703	0.0165549
814.781	0.0163655
814.859	0.0164443
814.937	0.0164726
815.015	0.0164369
815.093	0.0164469
815.171	0.0163710
815.249	0.0164708
815.328	0.0164039
815.406	0.0162646
815.484	0.0164571
815.562	0.0165389
815.640	0.0164299
815.718	0.0164149
815.796	0.0164123
815.874	0.0164953
815.953	0.0164469
816.031	0.0164328
816.109	0.0162744
816.187	0.0165240
816.265	0.0164091
816.343	0.0163713
816.421	0.0163586
816.499	0.0164421
816.578	0.0162584
816.656	0.0162140
816.734	0.0163383
816.812	0.0163644
816.890	0.0163576
816.968	0.0164075
817.046	0.0163541
817.124	0.0164171
817.203	0.0164589
817.281	0.0164872
817.359	0.0163634
817.437	0.0164640
817.515	0.0164612
817.593	0.0162685
817.671	0.0165061
817.749	0.0164028
817.828	0.0164154
817.906	0.0164004
817.984	0.0164065
818.062	0.0165556
818.140	0.0165420
818.218	0.0165742
818.296	0.0164816
818.374	0.0165057
818.453	0.0165029
818.531	0.0164185
818.609	0.0163524
818.687	0.0166706
818.765	0.0165147
818.843	0.0164362
818.921	0.0166538
818.999	0.0166395
819.078	0.0164703
819.156	0.0166724
819.234	0.0164928
819.312	0.0164833
819.390	0.0165134
819.468	0.0165225
819.546	0.0164580
819.624	0.0164655
819.703	0.0163822
819.781	0.0163901
819.859	0.0164094
819.937	0.0164366
820.015	0.0164343
820.093	0.0163876
820.171	0.0163454
820.249	0.0164320
820.328	0.0162685
820.406	0.0163136
820.484	0.0164436
820.562	0.0164296
820.640	0.0163836
820.718	0.0166008
820.796	0.0163363
820.874	0.0164899
820.953	0.0165076
821.031	0.0164388
821.109	0.0163197
821.187	0.0164080
821.265	0.0163012
821.343	0.0163558
821.421	0.0165002
821.499	0.0163376
821.578	0.0162981
821.656	0.0164745
821.734	0.0164207
821.812	0.0164536
821.890	0.0164059
821.968	0.0164688
822.046	0.0164970
822.124	0.0164070
822.203	0.0163401
822.281	0.0166467
822.359	0.0166320
822.437	0.0165273
822.515	0.0165485
822.593	0.0166830
822.671	0.0165182
822.749	0.0166766
822.828	0.0167100
822.906	0.0167664
822.984	0.0165997
823.062	0.0165984
823.140	0.0166310
823.218	0.0165989
823.296	0.0166195
823.374	0.0167281
823.453	0.0166119
823.531	0.0166138
823.609	0.0166920
823.687	0.0166882
823.765	0.0165846
823.843	0.0164998
823.921	0.0166655
823.999	0.0164616
824.078	0.0165078
824.156	0.0164404
824.234	0.0164828
824.312	0.0163874
824.390	0.0163857
824.468	0.0163944
824.546	0.0165107
824.624	0.0164239
824.703	0.0163738
824.781	0.0164091
824.859	0.0163976
824.937	0.0163952
825.015	0.0163773
825.093	0.0164154
825.171	0.0164443
825.249	0.0162937
825.328	0.0164359
825.406	0.0163937
825.484	0.0163862
825.562	0.0164453
825.640	0.0164933
825.718	0.0164711
825.796	0.0163144
825.874	0.0163929
825.953	0.0162658
826.031	0.0163396
826.109	0.0163042
826.187	0.0164553
826.265	0.0164098
826.343	0.0164001
826.421	0.0162724
826.499	0.0163170
826.578	0.0163091
826.656	0.0162946
826.734	0.0164017
826.812	0.0163896
826.890	0.0163584
826.968	0.0165236
827.046	0.0162997
827.124	0.0164660
827.203	0.0163055
827.281	0.0164297
827.359	0.0164323
827.437	0.0164426
827.515	0.0164220
827.593	0.0165148
827.671	0.0164563
827.749	0.0163779
827.828	0.0164828
827.906	0.0163649
827.984	0.0164911
828.062	0.0165713
828.140	0.0166619
828.218	0.0164542
828.296	0.0165752
828.374	0.0165034
828.453	0.0165601
828.531	0.0165984
828.609	0.0163493
828.687	0.0163595
828.765	0.0164132
828.843	0.0162915
828.921	0.0163319
828.999	0.0163499
829.078	0.0164134
829.156	0.0163142
829.234	0.0162446
829.312	0.0162701
829.390	0.0163429
829.468	0.0163087
829.546	0.0162904
829.624	0.0163270
829.703	0.0162534
829.781	0.0161958
829.859	0.0163541
829.937	0.0162582
830.015	0.0163727
830.093	0.0163998
830.171	0.0164899
830.249	0.0164597
830.328	0.0164941
830.406	0.0165729
830.484	0.0165588
830.562	0.0165815
830.640	0.0167114
830.718	0.0166224
830.796	0.0166509
830.874	0.0165820
830.953	0.0165968
831.031	0.0165616
831.109	0.0165077
831.187	0.0166015
831.265	0.0164207
831.343	0.0165609
831.421	0.0166309
831.499	0.0164742
831.578	0.0163447
831.656	0.0164471
831.734	0.0163567
831.812	0.0163381
831.890	0.0163604
831.968	0.0163719
832.046	0.0163128
832.124	0.0162486
832.203	0.0163307
832.281	0.0162126
832.359	0.0163539
832.437	0.0163406
832.515	0.0162360
832.593	0.0163943
832.671	0.0162489
832.749	0.0164091
832.828	0.0164346
832.906	0.0165594
832.984	0.0165194
833.062	0.0163367
833.140	0.0164145
833.218	0.0165775
833.296	0.0165495
833.374	0.0166123
833.453	0.0165495
833.531	0.0165770
833.609	0.0165942
833.687	0.0165578
833.765	0.0164794
833.843	0.0165341
833.921	0.0163830
833.999	0.0165200
834.078	0.0166238
834.156	0.0165340
834.234	0.0163709
834.312	0.0164087
834.390	0.0164724
834.468	0.0164906
834.546	0.0163685
834.624	0.0163126
834.703	0.0164065
834.781	0.0164194
834.859	0.0164710
834.937	0.0163846
835.015	0.0162899
835.093	0.0164567
835.171	0.0164184
835.249	0.0162529
835.328	0.0162730
835.406	0.0165253
835.484	0.0165394
835.562	0.0163239
835.640	0.0164834
835.718	0.0163799
835.796	0.0165967
835.874	0.0165542
835.953	0.0165360
836.031	0.0165800
836.109	0.0165794
836.187	0.0164954
836.265	0.0166166
836.343	0.0165446
836.421	0.0166212
836.499	0.0164464
836.578	0.0164352
836.656	0.0164293
836.734	0.0164008
836.812	0.0163892
836.890	0.0164227
836.968	0.0164011
837.046	0.0163783
837.124	0.0163156
837.203	0.0162281
837.281	0.0162315
837.359	0.0162064
837.437	0.0162971
837.515	0.0162762
837.593	0.0161427
837.671	0.0162330
837.749	0.0162539
837.828	0.0161353
837.906	0.0162525
837.984	0.0162493
838.062	0.0162522
838.140	0.0162280
838.218	0.0163864
838.296	0.0163509
838.374	0.0163373
838.453	0.0164170
838.531	0.0163571
838.609	0.0164169
838.687	0.0165096
838.765	0.0165453
838.843	0.0166374
838.921	0.0165810
838.999	0.0166398
839.078	0.0166563
839.156	0.0165428
839.234	0.0164865
839.312	0.0166537
839.390	0.0166822
839.468	0.0166134
839.546	0.0165313
839.624	0.0165500
839.703	0.0164468
839.781	0.0164899
839.859	0.0164298
839.937	0.0163697
840.015	0.0164351
840.093	0.0163577
840.171	0.0162755
840.249	0.0163442
840.328	0.0162260
840.406	0.0162308
840.484	0.0162735
840.562	0.0162809
840.640	0.0161739
840.718	0.0162743
840.796	0.0162904
840.874	0.0163708
840.953	0.0164893
841.031	0.0163816
841.109	0.0163587
841.187	0.0164363
841.265	0.0162751
841.343	0.0164771
841.421	0.0164794
841.499	0.0165531
841.578	0.0166216
841.656	0.0164503
841.734	0.0165566
841.812	0.0163560
841.890	0.0164466
841.968	0.0165467
842.046	0.0164268
842.124	0.0166375
842.203	0.0165925
842.281	0.0165181
842.359	0.0165233
842.437	0.0165160
842.515	0.0166660
842.593	0.0164433
842.671	0.0164725
842.749	0.0164960
842.828	0.0165403
842.906	0.0165983
842.984	0.0165675
843.062	0.0164689
843.140	0.0165321
843.218	0.0165215
843.296	0.0164159
843.374	0.0164313
843.453	0.0165303
843.531	0.0165044
843.609	0.0165887
843.687	0.0165240
843.765	0.0164809
843.843	0.0165102
843.921	0.0165717
843.999	0.0165488
844.078	0.0163800
844.156	0.0164053
844.234	0.0165036
844.312	0.0163686
844.390	0.0163229
844.468	0.0165882
844.546	0.0164973
844.624	0.0163127
844.703	0.0162540
844.781	0.0163749
844.859	0.0163643
844.937	0.0163163
845.015	0.0163010
845.093	0.0164354
845.171	0.0163939
845.249	0.0163379
845.328	0.0164349
845.406	0.0163655
845.484	0.0164668
845.562	0.0165303
845.640	0.0164422
845.718	0.0164355
845.796	0.0164292
845.874	0.0164581
845.953	0.0165889
846.031	0.0164943
846.109	0.0165182
846.187	0.0164744
846.265	0.0165623
846.343	0.0166193
846.421	0.0164964
846.499	0.0165429
846.578	0.0166691
846.656	0.0164419
846.734	0.0166119
846.812	0.0166429
846.890	0.0165571
846.968	0.0167027
847.046	0.0165125
847.124	0.0166021
847.203	0.0165665
847.281	0.0166171
847.359	0.0165487
847.437	0.0163623
847.515	0.0166369
847.593	0.0164716
847.671	0.0164032
847.749	0.0164294
847.828	0.0164011
847.906	0.0163377
847.984	0.0162052
848.062	0.0161932
848.140	0.0162225
848.218	0.0161400
848.296	0.0161827
848.374	0.0162653
848.453	0.0160648
848.531	0.0162310
848.609	0.0162342
848.687	0.0163737
848.765	0.0162597
848.843	0.0162550
848.921	0.0161951
848.999	0.0163065
849.078	0.0163350
849.156	0.0163110
849.234	0.0164152
849.312	0.0163784
849.390	0.0164856
849.468	0.0165086
849.546	0.0164648
849.624	0.0164345
849.703	0.0164060
849.781	0.0164719
849.859	0.0166570
849.937	0.0166029
850.015	0.0165836
850.093	0.0164389
850.171	0.0165625
850.249	0.0165530
850.328	0.0165632
850.406	0.0166437
850.484	0.0164677
850.562	0.0164534
850.640	0.0164815
850.718	0.0165205
850.796	0.0164227
850.874	0.0164054
850.953	0.0164555
851.031	0.0164684
851.109	0.0163593
851.187	0.0163129
851.265	0.0163592
851.343	0.0163947
851.421	0.0163965
851.499	0.0163673
851.578	0.0164270
851.656	0.0162624
851.734	0.0163014
851.812	0.0163760
851.890	0.0163932
851.968	0.0162765
852.046	0.0163483
852.124	0.0162412
852.203	0.0162740
852.281	0.0163650
852.359	0.0163395
852.437	0.0163683
852.515	0.0164835
852.593	0.0164893
852.671	0.0164816
852.749	0.0165139
852.828	0.0164797
852.906	0.0165262
852.984	0.0163593
853.062	0.0162621
853.140	0.0163953
853.218	0.0163294
853.296	0.0162893
853.374	0.0162605
853.453	0.0164586
853.531	0.0162140
853.609	0.0162041
853.687	0.0162175
853.765	0.0163815
853.843	0.0162684
853.921	0.0161948
853.999	0.0163156
854.078	0.0163194
854.156	0.0162639
854.234	0.0163787
854.312	0.0163696
854.390	0.0164050
854.468	0.0165167
854.546	0.0162737
854.624	0.0165300
854.703	0.0165424
854.781	0.0163878
854.859	0.0164393
854.937	0.0165165
855.015	0.0164846
855.093	0.0164388
855.171	0.0166167
855.249	0.0166617
855.328	0.0167413
855.406	0.0166378
855.484	0.0166836
855.562	0.0166975
855.640	0.0166964
855.718	0.0165991
855.796	0.0166296
855.874	0.0167764
855.953	0.0165228
856.031	0.0165675
856.109	0.0164083
856.187	0.0165389
856.265	0.0164539
856.343	0.0165746
856.421	0.0164532
856.499	0.0164709
856.578	0.0165278
856.656	0.0164690
856.734	0.0165041
856.812	0.0165560
856.890	0.0165251
856.968	0.0165503
857.046	0.0166237
857.124	0.0164912
857.203	0.0164854
857.281	0.0165702
857.359	0.0165556
857.437	0.0166659
857.515	0.0165005
857.593	0.0165417
857.671	0.0165080
857.749	0.0165295
857.828	0.0164561
857.906	0.0165534
857.984	0.0164541
858.062	0.0165070
858.140	0.0164808
858.218	0.0164309
858.296	0.0163400
858.374	0.0163596
858.453	0.0164514
858.531	0.0165121
858.609	0.0163075
858.687	0.0163937
858.765	0.0162968
858.843	0.0163833
858.921	0.0164743
858.999	0.0163514
859.078	0.0164142
859.156	0.0164948
859.234	0.0164010
859.312	0.0163580
859.390	0.0164723
859.468	0.0164172
859.546	0.0163813
859.624	0.0164758
859.703	0.0163285
859.781	0.0164539
859.859	0.0164550
859.937	0.0162979
860.015	0.0163016
860.093	0.0163116
860.171	0.0163923
860.249	0.0163905
860.328	0.0163695
860.406	0.0163918
860.484	0.0164410
860.562	0.0164619
860.640	0.0164381
860.718	0.0164368
860.796	0.0165246
860.874	0.0163929
860.953	0.0164809
861.031	0.0165511
861.109	0.0164788
861.187	0.0167364
861.265	0.0167673
861.343	0.0166267
861.421	0.0165193
861.499	0.0166575
861.578	0.0166664
861.656	0.0167298
861.734	0.0166322
861.812	0.0167147
861.890	0.0167743
861.968	0.0165990
862.046	0.0167736
862.124	0.0166757
862.203	0.0166601
862.281	0.0166021
862.359	0.0166351
862.437	0.0166953
862.515	0.0165556
862.593	0.0166257
862.671	0.0166237
862.749	0.0164252
862.828	0.0164985
862.906	0.0164629
862.984	0.0163763
863.062	0.0163171
863.140	0.0164818
863.218	0.0163722
863.296	0.0162578
863.374	0.0161567
863.453	0.0161210
863.531	0.0162304
863.609	0.0161456
863.687	0.0161213
863.765	0.0160122
863.843	0.0161212
863.921	0.0162344
863.999	0.0162735
864.078	0.0161458
864.156	0.0162129
864.234	0.0161604
864.312	0.0163490
864.390	0.0161965
864.468	0.0162556
864.546	0.0164680
864.624	0.0163200
864.703	0.0163262
864.781	0.0163497
864.859	0.0165591
864.937	0.0165427
865.015	0.0164188
865.093	0.0164126
865.171	0.0165202
865.249	0.0165918
865.328	0.0164611
865.406	0.0164922
865.484	0.0164925
865.562	0.0164664
865.640	0.0164082
865.718	0.0166324
865.796	0.0165150
865.874	0.0164389
865.953	0.0166026
866.031	0.0165755
866.109	0.0164999
866.187	0.0165108
866.265	0.0165602
866.343	0.0165306
866.421	0.0165020
866.499	0.0164940
866.578	0.0166366
866.656	0.0166000
866.734	0.0164069
866.812	0.0165212
866.890	0.0165873
866.968	0.0163853
867.046	0.0162823
867.124	0.0162965
867.203	0.0163946
867.281	0.0162215
867.359	0.0164483
867.437	0.0164114
867.515	0.0163462
867.593	0.0163284
867.671	0.0163752
867.749	0.0161858
867.828	0.0163633
867.906	0.0163477
867.984	0.0163230
868.062	0.0162034
868.140	0.0162492
868.218	0.0162905
868.296	0.0162867
868.374	0.0163690
868.453	0.0162145
868.531	0.0163211
868.609	0.0162687
868.687	0.0164857
868.765	0.0162800
868.843	0.0163613
868.921	0.0163931
868.999	0.0163199
869.078	0.0163518
869.156	0.0164961
869.234	0.0163099
869.312	0.0164999
869.390	0.0164645
869.468	0.0166481
869.546	0.0165149
869.624	0.0164758
869.703	0.0165006
869.781	0.0165701
869.859	0.0164893
869.937	0.0165800
870.015	0.0165636
870.093	0.0166218
870.171	0.0165691
870.249	0.0164586
870.328	0.0164539
870.406	0.0164268
870.484	0.0166579
870.562	0.0165505
870.640	0.0162529
870.718	0.0163550
870.796	0.0163481
870.874	0.0162723
870.953	0.0164988
871.031	0.0163392
871.109	0.0164765
871.187	0.0163722
871.265	0.0161715
871.343	0.0162972
871.421	0.0162477
871.499	0.0162112
871.578	0.0164155
871.656	0.0163512
871.734	0.0162285
871.812	0.0161243
871.890	0.0163828
871.968	0.0163067
872.046	0.0162749
872.124	0.0162611
872.203	0.0162324
872.281	0.0163654
872.359	0.0162653
872.437	0.0162759
872.515	0.0163349
872.593	0.0164519
872.671	0.0163650
872.749	0.0163091
872.828	0.0162643
872.906	0.0163333
872.984	0.0164509
873.062	0.0162344
873.140	0.0162816
873.218	0.0163823
873.296	0.0163085
873.374	0.0163651
873.453	0.0164405
873.531	0.0164400
873.609	0.0163843
873.687	0.0163605
873.765	0.0163139
873.843	0.0164722
873.921	0.0164085
873.999	0.0163846
874.078	0.0164176
874.156	0.0164538
874.234	0.0163625
874.312	0.0163712
874.390	0.0163235
874.468	0.0163666
874.546	0.0163068
874.624	0.0163535
874.703	0.0163076
874.781	0.0163876
874.859	0.0164030
874.937	0.0163508
875.015	0.0162792
875.093	0.0163200
875.171	0.0163377
875.249	0.0163377
875.328	0.0164106
875.406	0.0163721
875.484	0.0162800
875.562	0.0163394
875.640	0.0164080
875.718	0.0164563
875.796	0.0164457
875.874	0.0163641
875.953	0.0164278
876.031	0.0164008
876.109	0.0163345
876.187	0.0163396
876.265	0.0163039
876.343	0.0164395
876.421	0.0164172
876.499	0.0161647
876.578	0.0162011
876.656	0.0164421
876.734	0.0163087
876.812	0.0162734
876.890	0.0163464
876.968	0.0161716
877.046	0.0163163
877.124	0.0164799
877.203	0.0164019
877.281	0.0162019
877.359	0.0163676
877.437	0.0164255
877.515	0.0165330
877.593	0.0164580
877.671	0.0164495
877.749	0.0164082
877.828	0.0163286
877.906	0.0164135
877.984	0.0164730
878.062	0.0165762
878.140	0.0165099
878.218	0.0163595
878.296	0.0162813
878.374	0.0163119
878.453	0.0163924
878.531	0.0163839
878.609	0.0163990
878.687	0.0164507
878.765	0.0163885
878.843	0.0163094
878.921	0.0162804
878.999	0.0164157
879.078	0.0163185
879.156	0.0163371
879.234	0.0163559
879.312	0.0164980
879.390	0.0165107
879.468	0.0164719
879.546	0.0164187
879.624	0.0164260
879.703	0.0164854
879.781	0.0164405
879.859	0.0164925
879.937	0.0165385
880.015	0.0164594
880.093	0.0164641
880.171	0.0164833
880.249	0.0165619
880.328	0.0165523
880.406	0.0165997
880.484	0.0165566
880.562	0.0166853
880.640	0.0166365
880.718	0.0165749
880.796	0.0166929
880.874	0.0166077
880.953	0.0167149
881.031	0.0166721
881.109	0.0164942
881.187	0.0166518
881.265	0.0166373
881.343	0.0166376
881.421	0.0165324
881.499	0.0163198
881.578	0.0164063
881.656	0.0165076
881.734	0.0164300
881.812	0.0165547
881.890	0.0165019
881.968	0.0164611
882.046	0.0163161
882.124	0.0164036
882.203	0.0164485
882.281	0.0163345
882.359	0.0163793
882.437	0.0162785
882.515	0.0163640
882.593	0.0163687
882.671	0.0164251
882.749	0.0164750
882.828	0.0164759
882.906	0.0165365
882.984	0.0164814
883.062	0.0164419
883.140	0.0166940
883.218	0.0166145
883.296	0.0164899
883.374	0.0164394
883.453	0.0165665
883.531	0.0164961
883.609	0.0165734
883.687	0.0165704
883.765	0.0164749
883.843	0.0165737
883.921	0.0165416
883.999	0.0164970
884.078	0.0165986
884.156	0.0165097
884.234	0.0164343
884.312	0.0163873
884.390	0.0164475
884.468	0.0165005
884.546	0.0165356
884.624	0.0164170
884.703	0.0163685
884.781	0.0164008
884.859	0.0164399
884.937	0.0164008
885.015	0.0164281
885.093	0.0164606
885.171	0.0164690
885.249	0.0164515
885.328	0.0165089
885.406	0.0165127
885.484	0.0165074
885.562	0.0165845
885.640	0.0165638
885.718	0.0165656
885.796	0.0165041
885.874	0.0166184
885.953	0.0165229
886.031	0.0163916
886.109	0.0164060
886.187	0.0164267
886.265	0.0165440
886.343	0.0164677
886.421	0.0164396
886.499	0.0165526
886.578	0.0164002
886.656	0.0163939
886.734	0.0164490
886.812	0.0164288
886.890	0.0162719
886.968	0.0162770
887.046	0.0162635
887.124	0.0165041
887.203	0.0164009
887.281	0.0163367
887.359	0.0162848
887.437	0.0163658
887.515	0.0164084
887.593	0.0164113
887.671	0.0163815
887.749	0.0164044
887.828	0.0165774
887.906	0.0164436
887.984	0.0165194
888.062	0.0165020
888.140	0.0165543
888.218	0.0165173
888.296	0.0165411
888.374	0.0164665
888.453	0.0165184
888.531	0.0165452
888.609	0.0166299
888.687	0.0165316
888.765	0.0164396
888.843	0.0165028
888.921	0.0162930
888.999	0.0164778
889.078	0.0165091
889.156	0.0165021
889.234	0.0164473
889.312	0.0164569
889.390	0.0164981
889.468	0.0164468
889.546	0.0163473
889.624	0.0162876
889.703	0.0162701
889.781	0.0163843
889.859	0.0163958
889.937	0.0163943
890.015	0.0163564
890.093	0.0163673
890.171	0.0162959
890.249	0.0164609
890.328	0.0162785
890.406	0.0162365
890.484	0.0163956
890.562	0.0163686
890.640	0.0163326
890.718	0.0163424
890.796	0.0163977
890.874	0.0162257
890.953	0.0163260
891.031	0.0164732
891.109	0.0162873
891.187	0.0164599
891.265	0.0164166
891.343	0.0163901
891.421	0.0163903
891.499	0.0164122
891.578	0.0164286
891.656	0.0163757
891.734	0.0163842
891.812	0.0164728
891.890	0.0164603
891.968	0.0164017
892.046	0.0163308
892.124	0.0164179
892.203	0.0165326
892.281	0.0164205
892.359	0.0163924
892.437	0.0163266
892.515	0.0163597
892.593	0.0163562
892.671	0.0163781
892.749	0.0163400
892.828	0.0164259
892.906	0.0163548
892.984	0.0163208
893.062	0.0162743
893.140	0.0163916
893.218	0.0163553
893.296	0.0164898
893.374	0.0164320
893.453	0.0163567
893.531	0.0164400
893.609	0.0163226
893.687	0.0163187
893.765	0.0164153
893.843	0.0164788
893.921	0.0162955
893.999	0.0162307
894.078	0.0164071
894.156	0.0164591
894.234	0.0163227
894.312	0.0161403
894.390	0.0162661
894.468	0.0161869
894.546	0.0163474
894.624	0.0162416
894.703	0.0162748
894.781	0.0162236
894.859	0.0161651
894.937	0.0163304
895.015	0.0163693
895.093	0.0162245
895.171	0.0162591
895.249	0.0162059
895.328	0.0162209
895.406	0.0162057
895.484	0.0162723
895.562	0.0162456
895.640	0.0162981
895.718	0.0162066
895.796	0.0162663
895.874	0.0162353
895.953	0.0162906
896.031	0.0163284
896.109	0.0162078
896.187	0.0163194
896.265	0.0163696
896.343	0.0163450
896.421	0.0163554
896.499	0.0163607
896.578	0.0162929
896.656	0.0163728
896.734	0.0164455
896.812	0.0165345
896.890	0.0164040
896.968	0.0163279
897.046	0.0167207
897.124	0.0165916
897.203	0.0165508
897.281	0.0164729
897.359	0.0166094
897.437	0.0166054
897.515	0.0163656
897.593	0.0164736
897.671	0.0165172
897.749	0.0165097
897.828	0.0165195
897.906	0.0165471
897.984	0.0163511
898.062	0.0164790
898.140	0.0165275
898.218	0.0165134
898.296	0.0163825
898.374	0.0164001
898.453	0.0163900
898.531	0.0164465
898.609	0.0164249
898.687	0.0164057
898.765	0.0165003
898.843	0.0164936
898.921	0.0163430
898.999	0.0165883
899.078	0.0164603
899.156	0.0164524
899.234	0.0165836
899.312	0.0164820
899.390	0.0165337
899.468	0.0164350
899.546	0.0164433
899.624	0.0164632
899.703	0.0164021
899.781	0.0162894
899.859	0.0163049
899.937	0.0164931
900.015	0.0164612
900.093	0.0162860
900.171	0.0163370
900.249	0.0164221
900.328	0.0164076
900.406	0.0163989
900.484	0.0164195
900.562	0.0163835
900.640	0.0165632
900.718	0.0164446
900.796	0.0163020
900.874	0.0164350
900.953	0.0163886
901.031	0.0164048
901.109	0.0164258
901.187	0.0163354
901.265	0.0165048
901.343	0.0165518
901.421	0.0164959
901.499	0.0164858
901.578	0.0163985
901.656	0.0162361
901.734	0.0164637
901.812	0.0165466
901.890	0.0165083
901.968	0.0165073
902.046	0.0164806
902.124	0.0165261
902.203	0.0165525
902.281	0.0166110
902.359	0.0165331
902.437	0.0165368
902.515	0.0164494
902.593	0.0164327
902.671	0.0164870
902.749	0.0164141
902.828	0.0164870
902.906	0.0164700
902.984	0.0164388
903.062	0.0165549
903.140	0.0163859
903.218	0.0163349
903.296	0.0164050
903.374	0.0163466
903.453	0.0163284
903.531	0.0163398
903.609	0.0163168
903.687	0.0161337
903.765	0.0162762
903.843	0.0162469
903.921	0.0162653
903.999	0.0162024
904.078	0.0165163
904.156	0.0162774
904.234	0.0163808
904.312	0.0163335
904.390	0.0163169
904.468	0.0163783
904.546	0.0164722
904.624	0.0164668
904.703	0.0163871
904.781	0.0164550
904.859	0.0164165
904.937	0.0163973
905.015	0.0165114
905.093	0.0163335
905.171	0.0163793
905.249	0.0165878
905.328	0.0164697
905.406	0.0163267
905.484	0.0165091
905.562	0.0163506
905.640	0.0164113
905.718	0.0164063
905.796	0.0162928
905.874	0.0162981
905.953	0.0163013
906.031	0.0162303
906.109	0.0162794
906.187	0.0163737
906.265	0.0162186
906.343	0.0162923
906.421	0.0163244
906.499	0.0164302
906.578	0.0162571
906.656	0.0163979
906.734	0.0164709
906.812	0.0164790
906.890	0.0163409
906.968	0.0163368
907.046	0.0164137
907.124	0.0164266
907.203	0.0163578
907.281	0.0163000
907.359	0.0164675
907.437	0.0164622
907.515	0.0164291
907.593	0.0165668
907.671	0.0164930
907.749	0.0163851
907.828	0.0163644
907.906	0.0164938
907.984	0.0163741
908.062	0.0164571
908.140	0.0164043
908.218	0.0163493
908.296	0.0162630
908.374	0.0162946
908.453	0.0162932
908.531	0.0162718
908.609	0.0163205
908.687	0.0163697
908.765	0.0162492
908.843	0.0162607
908.921	0.0163256
908.999	0.0162647
909.078	0.0163889
909.156	0.0163395
909.234	0.0162468
909.312	0.0163638
909.390	0.0164391
909.468	0.0164783
909.546	0.0165177
909.624	0.0164425
909.703	0.0164971
909.781	0.0165781
909.859	0.0165308
909.937	0.0165003
910.015	0.0166180
910.093	0.0164530
910.171	0.0166162
910.249	0.0165169
910.328	0.0166088
910.406	0.0165747
910.484	0.0165530
910.562	0.0165099
910.640	0.0165032
910.718	0.0165800
910.796	0.0165200
910.874	0.0164188
910.953	0.0165567
911.031	0.0165197
911.109	0.0164617
911.187	0.0165308
911.265	0.0163567
911.343	0.0164820
911.421	0.0164012
911.499	0.0165125
911.578	0.0164572
911.656	0.0164712
911.734	0.0164584
911.812	0.0164536
911.890	0.0164477
911.968	0.0165106
912.046	0.0164697
912.124	0.0164801
912.203	0.0165694
912.281	0.0164888
912.359	0.0166669
912.437	0.0166195
912.515	0.0165830
912.593	0.0165774
912.671	0.0165509
912.749	0.0164246
912.828	0.0164753
912.906	0.0164735
912.984	0.0165332
913.062	0.0164844
913.140	0.0164338
913.218	0.0163501
913.296	0.0163844
913.374	0.0164520
913.453	0.0164012
913.531	0.0164185
913.609	0.0162157
913.687	0.0161333
913.765	0.0163496
913.843	0.0163707
913.921	0.0161977
913.999	0.0162868
914.078	0.0162338
914.156	0.0163465
914.234	0.0162423
914.312	0.0163586
914.390	0.0162985
914.468	0.0161510
914.546	0.0162992
914.624	0.0163765
914.703	0.0162995
914.781	0.0163402
914.859	0.0164301
914.937	0.0163789
915.015	0.0164941
915.093	0.0164123
915.171	0.0164012
915.249	0.0164162
915.328	0.0166179
915.406	0.0165409
915.484	0.0163991
915.562	0.0165215
915.640	0.0164009
915.718	0.0164054
915.796	0.0163961
915.874	0.0163136
915.953	0.0162773
916.031	0.0162494
916.109	0.0162627
916.187	0.0163227
916.265	0.0163329
916.343	0.0163396
916.421	0.0162428
916.499	0.0162126
916.578	0.0162725
916.656	0.0162651
916.734	0.0162913
916.812	0.0162960
916.890	0.0162349
916.968	0.0163399
917.046	0.0162830
917.124	0.0162305
917.203	0.0164353
917.281	0.0161600
917.359	0.0163420
917.437	0.0162582
917.515	0.0162010
917.593	0.0163499
917.671	0.0163645
917.749	0.0163086
917.828	0.0163676
917.906	0.0162458
917.984	0.0163062
918.062	0.0162192
918.140	0.0163861
918.218	0.0163853
918.296	0.0162485
918.374	0.0161950
918.453	0.0165461
918.531	0.0162025
918.609	0.0162775
918.687	0.0163268
918.765	0.0164332
918.843	0.0163696
918.921	0.0163746
918.999	0.0162696
919.078	0.0163678
919.156	0.0165565
919.234	0.0165363
919.312	0.0165411
919.390	0.0164909
919.468	0.0164914
919.546	0.0165794
919.624	0.0166005
919.703	0.0164498
919.781	0.0163695
919.859	0.0165247
919.937	0.0165781
