06/10/2022	16:53:09	Ver.	4.1	UNKNOWN
Optical Delay	600.015094	Delta X		0.078125	Sweeps	1	Scan Rate	0/0
Coordinates	Axis 1	NaN	Axis 2	NaN	Axis 3	NaN	Axis 4	NaN	Axis 5	NaN	Axis 6	0.000000
TX Power	0.000000	RX Power	0.000000

600.015	0.0180882
600.093	0.0184004
600.171	0.0183280
600.249	0.0183409
600.328	0.0184469
600.406	0.0183988
600.484	0.0183796
600.562	0.0184114
600.640	0.0183443
600.718	0.0185309
600.796	0.0185393
600.874	0.0184931
600.953	0.0185930
601.031	0.0185645
601.109	0.0185258
601.187	0.0185930
601.265	0.0185332
601.343	0.0184146
601.421	0.0184132
601.499	0.0185904
601.578	0.0184522
601.656	0.0183700
601.734	0.0184334
601.812	0.0184093
601.890	0.0183658
601.968	0.0183567
602.046	0.0182413
602.124	0.0182716
602.203	0.0182906
602.281	0.0182970
602.359	0.0183788
602.437	0.0183263
602.515	0.0181641
602.593	0.0181740
602.671	0.0180404
602.749	0.0181092
602.828	0.0181112
602.906	0.0180202
602.984	0.0180325
603.062	0.0181979
603.140	0.0181025
603.218	0.0181264
603.296	0.0180071
603.374	0.0180180
603.453	0.0180769
603.531	0.0180079
603.609	0.0181722
603.687	0.0179765
603.765	0.0179336
603.843	0.0180012
603.921	0.0180604
603.999	0.0181300
604.078	0.0180611
604.156	0.0179332
604.234	0.0179544
604.312	0.0179362
604.390	0.0179660
604.468	0.0180823
604.546	0.0181500
604.624	0.0179951
604.703	0.0180284
604.781	0.0181638
604.859	0.0179409
604.937	0.0181418
605.015	0.0180612
605.093	0.0181481
605.171	0.0180300
605.249	0.0180803
605.328	0.0181344
605.406	0.0181879
605.484	0.0182046
605.562	0.0181866
605.640	0.0182498
605.718	0.0183605
605.796	0.0181091
605.874	0.0182517
605.953	0.0181778
606.031	0.0180615
606.109	0.0180325
606.187	0.0179618
606.265	0.0180812
606.343	0.0182209
606.421	0.0181290
606.499	0.0180921
606.578	0.0179956
606.656	0.0180068
606.734	0.0180285
606.812	0.0179189
606.890	0.0180751
606.968	0.0180140
607.046	0.0179598
607.124	0.0179417
607.203	0.0180906
607.281	0.0179885
607.359	0.0179169
607.437	0.0178941
607.515	0.0177994
607.593	0.0179482
607.671	0.0179508
607.749	0.0179160
607.828	0.0179482
607.906	0.0180431
607.984	0.0180325
608.062	0.0178709
608.140	0.0179012
608.218	0.0180873
608.296	0.0181373
608.374	0.0178980
608.453	0.0180572
608.531	0.0180713
608.609	0.0178522
608.687	0.0180820
608.765	0.0178833
608.843	0.0177834
608.921	0.0178107
608.999	0.0179294
609.078	0.0178907
609.156	0.0177895
609.234	0.0177155
609.312	0.0177527
609.390	0.0177654
609.468	0.0177461
609.546	0.0175921
609.624	0.0176492
609.703	0.0175258
609.781	0.0175732
609.859	0.0175558
609.937	0.0174545
610.015	0.0173550
610.093	0.0175123
610.171	0.0173678
610.249	0.0173280
610.328	0.0172133
610.406	0.0174181
610.484	0.0173310
610.562	0.0172314
610.640	0.0172186
610.718	0.0172723
610.796	0.0173827
610.874	0.0173769
610.953	0.0175179
611.031	0.0175880
611.109	0.0176079
611.187	0.0176247
611.265	0.0177293
611.343	0.0176746
611.421	0.0177774
611.499	0.0177402
611.578	0.0178088
611.656	0.0179509
611.734	0.0178447
611.812	0.0180161
611.890	0.0180975
611.968	0.0181394
612.046	0.0181393
612.124	0.0180804
612.203	0.0180849
612.281	0.0182066
612.359	0.0182378
612.437	0.0183568
612.515	0.0183405
612.593	0.0183626
612.671	0.0184106
612.749	0.0183354
612.828	0.0183451
612.906	0.0182035
612.984	0.0182690
613.062	0.0182292
613.140	0.0181409
613.218	0.0181452
613.296	0.0181042
613.374	0.0181055
613.453	0.0179403
613.531	0.0181131
613.609	0.0180627
613.687	0.0179294
613.765	0.0178628
613.843	0.0178503
613.921	0.0179330
613.999	0.0178759
614.078	0.0179897
614.156	0.0180930
614.234	0.0180147
614.312	0.0179690
614.390	0.0179189
614.468	0.0180717
614.546	0.0181823
614.624	0.0182529
614.703	0.0181354
614.781	0.0181687
614.859	0.0183113
614.937	0.0182882
615.015	0.0182867
615.093	0.0182122
615.171	0.0182457
615.249	0.0183418
615.328	0.0182796
615.406	0.0184122
615.484	0.0183093
615.562	0.0184530
615.640	0.0183472
615.718	0.0182770
615.796	0.0183260
615.874	0.0183791
615.953	0.0184915
616.031	0.0184903
616.109	0.0185030
616.187	0.0184677
616.265	0.0184373
616.343	0.0184961
616.421	0.0183652
616.499	0.0183945
616.578	0.0185764
616.656	0.0185656
616.734	0.0184112
616.812	0.0184046
616.890	0.0185265
616.968	0.0184933
617.046	0.0184800
617.124	0.0185173
617.203	0.0184072
617.281	0.0182610
617.359	0.0183638
617.437	0.0185129
617.515	0.0183545
617.593	0.0182172
617.671	0.0182254
617.749	0.0182242
617.828	0.0181595
617.906	0.0181421
617.984	0.0182726
618.062	0.0180939
618.140	0.0181258
618.218	0.0180949
618.296	0.0182539
618.374	0.0181388
618.453	0.0180852
618.531	0.0180409
618.609	0.0180663
618.687	0.0180278
618.765	0.0180533
618.843	0.0181245
618.921	0.0181036
618.999	0.0180624
619.078	0.0180028
619.156	0.0181867
619.234	0.0180132
619.312	0.0181290
619.390	0.0180200
619.468	0.0181377
619.546	0.0182063
619.624	0.0181755
619.703	0.0180816
619.781	0.0180856
619.859	0.0180965
619.937	0.0182008
620.015	0.0181168
620.093	0.0181128
620.171	0.0181211
620.249	0.0180971
620.328	0.0181255
620.406	0.0180882
620.484	0.0179571
620.562	0.0180489
620.640	0.0181793
620.718	0.0181092
620.796	0.0182851
620.874	0.0182008
620.953	0.0181796
621.031	0.0182108
621.109	0.0181434
621.187	0.0179833
621.265	0.0181728
621.343	0.0181229
621.421	0.0180814
621.499	0.0181948
621.578	0.0181447
621.656	0.0180363
621.734	0.0179747
621.812	0.0180602
621.890	0.0180923
621.968	0.0179568
622.046	0.0180264
622.124	0.0179779
622.203	0.0180295
622.281	0.0179482
622.359	0.0180426
622.437	0.0180181
622.515	0.0180348
622.593	0.0181626
622.671	0.0180475
622.749	0.0180265
622.828	0.0181915
622.906	0.0181734
622.984	0.0181287
623.062	0.0180849
623.140	0.0181198
623.218	0.0181576
623.296	0.0181079
623.374	0.0180477
623.453	0.0183304
623.531	0.0182634
623.609	0.0181636
623.687	0.0180893
623.765	0.0182734
623.843	0.0182760
623.921	0.0181010
623.999	0.0183253
624.078	0.0181673
624.156	0.0183407
624.234	0.0182432
624.312	0.0181776
624.390	0.0182521
624.468	0.0183501
624.546	0.0181992
624.624	0.0182756
624.703	0.0182465
624.781	0.0182980
624.859	0.0181232
624.937	0.0181015
625.015	0.0183930
625.093	0.0181836
625.171	0.0180790
625.249	0.0182297
625.328	0.0181577
625.406	0.0181285
625.484	0.0181335
625.562	0.0181783
625.640	0.0181401
625.718	0.0181127
625.796	0.0181483
625.874	0.0180836
625.953	0.0181315
626.031	0.0180843
626.109	0.0180923
626.187	0.0181598
626.265	0.0179835
626.343	0.0180569
626.421	0.0181172
626.499	0.0180234
626.578	0.0179958
626.656	0.0180354
626.734	0.0181266
626.812	0.0181744
626.890	0.0180454
626.968	0.0181445
627.046	0.0181313
627.124	0.0180991
627.203	0.0179906
627.281	0.0181085
627.359	0.0181004
627.437	0.0180942
627.515	0.0181430
627.593	0.0181051
627.671	0.0179572
627.749	0.0179011
627.828	0.0179752
627.906	0.0180246
627.984	0.0179801
628.062	0.0180426
628.140	0.0179156
628.218	0.0179589
628.296	0.0179033
628.374	0.0180468
628.453	0.0179310
628.531	0.0180239
628.609	0.0179931
628.687	0.0179928
628.765	0.0179775
628.843	0.0178600
628.921	0.0180699
628.999	0.0179404
629.078	0.0179485
629.156	0.0180070
629.234	0.0180120
629.312	0.0180419
629.390	0.0179121
629.468	0.0179428
629.546	0.0180245
629.624	0.0180906
629.703	0.0180717
629.781	0.0179441
629.859	0.0177979
629.937	0.0180513
630.015	0.0180327
630.093	0.0180164
630.171	0.0179201
630.249	0.0178979
630.328	0.0179743
630.406	0.0179459
630.484	0.0177485
630.562	0.0179205
630.640	0.0177829
630.718	0.0178302
630.796	0.0178531
630.874	0.0178909
630.953	0.0178442
631.031	0.0179370
631.109	0.0179379
631.187	0.0178317
631.265	0.0178885
631.343	0.0178397
631.421	0.0180001
631.499	0.0179425
631.578	0.0178647
631.656	0.0179527
631.734	0.0180547
631.812	0.0178104
631.890	0.0177554
631.968	0.0178261
632.046	0.0179135
632.124	0.0179378
632.203	0.0179796
632.281	0.0179769
632.359	0.0179635
632.437	0.0179340
632.515	0.0178694
632.593	0.0178612
632.671	0.0179523
632.749	0.0179154
632.828	0.0179164
632.906	0.0179624
632.984	0.0178620
633.062	0.0178094
633.140	0.0177728
633.218	0.0178629
633.296	0.0179140
633.374	0.0179569
633.453	0.0178662
633.531	0.0178458
633.609	0.0179256
633.687	0.0179247
633.765	0.0178956
633.843	0.0177953
633.921	0.0177769
633.999	0.0178574
634.078	0.0177557
634.156	0.0177402
634.234	0.0178146
634.312	0.0180040
634.390	0.0179713
634.468	0.0180476
634.546	0.0179125
634.624	0.0179433
634.703	0.0178786
634.781	0.0180080
634.859	0.0180320
634.937	0.0179945
635.015	0.0179829
635.093	0.0180135
635.171	0.0180674
635.249	0.0182204
635.328	0.0179917
635.406	0.0179979
635.484	0.0178619
635.562	0.0181130
635.640	0.0180241
635.718	0.0178870
635.796	0.0179087
635.874	0.0181249
635.953	0.0180130
636.031	0.0180729
636.109	0.0180733
636.187	0.0180250
636.265	0.0181837
636.343	0.0180621
636.421	0.0179621
636.499	0.0180181
636.578	0.0180891
636.656	0.0180700
636.734	0.0180619
636.812	0.0181705
636.890	0.0181540
636.968	0.0181456
637.046	0.0182236
637.124	0.0181026
637.203	0.0181953
637.281	0.0181630
637.359	0.0181635
637.437	0.0182900
637.515	0.0183082
637.593	0.0181143
637.671	0.0183080
637.749	0.0182863
637.828	0.0181426
637.906	0.0181236
637.984	0.0181367
638.062	0.0180952
638.140	0.0182595
638.218	0.0181454
638.296	0.0181763
638.374	0.0180847
638.453	0.0179689
638.531	0.0182060
638.609	0.0180087
638.687	0.0180487
638.765	0.0181090
638.843	0.0180975
638.921	0.0179912
638.999	0.0180106
639.078	0.0181017
639.156	0.0180505
639.234	0.0180916
639.312	0.0180242
639.390	0.0180262
639.468	0.0180536
639.546	0.0181007
639.624	0.0181275
639.703	0.0180493
639.781	0.0180982
639.859	0.0181147
639.937	0.0181592
640.015	0.0180707
640.093	0.0180257
640.171	0.0179950
640.249	0.0181046
640.328	0.0180872
640.406	0.0180493
640.484	0.0181364
640.562	0.0179793
640.640	0.0180899
640.718	0.0180390
640.796	0.0180746
640.874	0.0179721
640.953	0.0180427
641.031	0.0181263
641.109	0.0180916
641.187	0.0180058
641.265	0.0179990
641.343	0.0180329
641.421	0.0181091
641.499	0.0180556
641.578	0.0179463
641.656	0.0180441
641.734	0.0178763
641.812	0.0179764
641.890	0.0179615
641.968	0.0180696
642.046	0.0179703
642.124	0.0180499
642.203	0.0179594
642.281	0.0179169
642.359	0.0180775
642.437	0.0180576
642.515	0.0179826
642.593	0.0180567
642.671	0.0180211
642.749	0.0178365
642.828	0.0177863
642.906	0.0178989
642.984	0.0180295
643.062	0.0180713
643.140	0.0181235
643.218	0.0179317
643.296	0.0180107
643.374	0.0181428
643.453	0.0181376
643.531	0.0180888
643.609	0.0181125
643.687	0.0180473
643.765	0.0181587
643.843	0.0181319
643.921	0.0182214
643.999	0.0182411
644.078	0.0181591
644.156	0.0183129
644.234	0.0182887
644.312	0.0181853
644.390	0.0182355
644.468	0.0182852
644.546	0.0184478
644.624	0.0184489
644.703	0.0184149
644.781	0.0182811
644.859	0.0184209
644.937	0.0184602
645.015	0.0183813
645.093	0.0184693
645.171	0.0183871
645.249	0.0184979
645.328	0.0184739
645.406	0.0184793
645.484	0.0184872
645.562	0.0182668
645.640	0.0183221
645.718	0.0182746
645.796	0.0182925
645.874	0.0183351
645.953	0.0184107
646.031	0.0184158
646.109	0.0183777
646.187	0.0184483
646.265	0.0182930
646.343	0.0183226
646.421	0.0183366
646.499	0.0182147
646.578	0.0184344
646.656	0.0184225
646.734	0.0183527
646.812	0.0182421
646.890	0.0183490
646.968	0.0183908
647.046	0.0183022
647.124	0.0182372
647.203	0.0183649
647.281	0.0183501
647.359	0.0183084
647.437	0.0182429
647.515	0.0182738
647.593	0.0182567
647.671	0.0182390
647.749	0.0182488
647.828	0.0183047
647.906	0.0183307
647.984	0.0182758
648.062	0.0182972
648.140	0.0182874
648.218	0.0184222
648.296	0.0183473
648.374	0.0183282
648.453	0.0183191
648.531	0.0182504
648.609	0.0183044
648.687	0.0182001
648.765	0.0182703
648.843	0.0182620
648.921	0.0181985
648.999	0.0183503
649.078	0.0180783
649.156	0.0181451
649.234	0.0181760
649.312	0.0181903
649.390	0.0181713
649.468	0.0181588
649.546	0.0181663
649.624	0.0180228
649.703	0.0180383
649.781	0.0181022
649.859	0.0181255
649.937	0.0181106
650.015	0.0180147
650.093	0.0180286
650.171	0.0180267
650.249	0.0180435
650.328	0.0180914
650.406	0.0180630
650.484	0.0181586
650.562	0.0180448
650.640	0.0182502
650.718	0.0180992
650.796	0.0181058
650.874	0.0180486
650.953	0.0180370
651.031	0.0180618
651.109	0.0181773
651.187	0.0180188
651.265	0.0180250
651.343	0.0181658
651.421	0.0181547
651.499	0.0180230
651.578	0.0180492
651.656	0.0182230
651.734	0.0180963
651.812	0.0180251
651.890	0.0182104
651.968	0.0181635
652.046	0.0180484
652.124	0.0180125
652.203	0.0181168
652.281	0.0180280
652.359	0.0179963
652.437	0.0180534
652.515	0.0180728
652.593	0.0180068
652.671	0.0179863
652.749	0.0179733
652.828	0.0179253
652.906	0.0180009
652.984	0.0181447
653.062	0.0181299
653.140	0.0179848
653.218	0.0179769
653.296	0.0179751
653.374	0.0181015
653.453	0.0182094
653.531	0.0181258
653.609	0.0179198
653.687	0.0180555
653.765	0.0180756
653.843	0.0179007
653.921	0.0178976
653.999	0.0180248
654.078	0.0178935
654.156	0.0180280
654.234	0.0181310
654.312	0.0179082
654.390	0.0179387
654.468	0.0179982
654.546	0.0180613
654.624	0.0179125
654.703	0.0179385
654.781	0.0180363
654.859	0.0180456
654.937	0.0179693
655.015	0.0181724
655.093	0.0179482
655.171	0.0179472
655.249	0.0181747
655.328	0.0181347
655.406	0.0180380
655.484	0.0179887
655.562	0.0180253
655.640	0.0179375
655.718	0.0179948
655.796	0.0181474
655.874	0.0180642
655.953	0.0181629
656.031	0.0181306
656.109	0.0180704
656.187	0.0179808
656.265	0.0181429
656.343	0.0179580
656.421	0.0180956
656.499	0.0180881
656.578	0.0180463
656.656	0.0181246
656.734	0.0180700
656.812	0.0180431
656.890	0.0180233
656.968	0.0180940
657.046	0.0180260
657.124	0.0180341
657.203	0.0179229
657.281	0.0178677
657.359	0.0179075
657.437	0.0181261
657.515	0.0179824
657.593	0.0179250
657.671	0.0179207
657.749	0.0179009
657.828	0.0179973
657.906	0.0180366
657.984	0.0179828
658.062	0.0179293
658.140	0.0178884
658.218	0.0179249
658.296	0.0181068
658.374	0.0179449
658.453	0.0179837
658.531	0.0179304
658.609	0.0179221
658.687	0.0179018
658.765	0.0177728
658.843	0.0179436
658.921	0.0179102
658.999	0.0179741
659.078	0.0180495
659.156	0.0179864
659.234	0.0180214
659.312	0.0181841
659.390	0.0180265
659.468	0.0180225
659.546	0.0180615
659.624	0.0180642
659.703	0.0181389
659.781	0.0180504
659.859	0.0180557
659.937	0.0179638
660.015	0.0179961
660.093	0.0182312
660.171	0.0182236
660.249	0.0181017
660.328	0.0181828
660.406	0.0181736
660.484	0.0180874
660.562	0.0181311
660.640	0.0181174
660.718	0.0181257
660.796	0.0182283
660.874	0.0181625
660.953	0.0181487
661.031	0.0181114
661.109	0.0182499
661.187	0.0181841
661.265	0.0181336
661.343	0.0180836
661.421	0.0182563
661.499	0.0181226
661.578	0.0181909
661.656	0.0180999
661.734	0.0182079
661.812	0.0182433
661.890	0.0181828
661.968	0.0182057
662.046	0.0183032
662.124	0.0181892
662.203	0.0180941
662.281	0.0183466
662.359	0.0182399
662.437	0.0181602
662.515	0.0182400
662.593	0.0182809
662.671	0.0183113
662.749	0.0182930
662.828	0.0182545
662.906	0.0182676
662.984	0.0182044
663.062	0.0182468
663.140	0.0181707
663.218	0.0182749
663.296	0.0182650
663.374	0.0183853
663.453	0.0183434
663.531	0.0183160
663.609	0.0182298
663.687	0.0182837
663.765	0.0181930
663.843	0.0182364
663.921	0.0182819
663.999	0.0181397
664.078	0.0181704
664.156	0.0182903
664.234	0.0184069
664.312	0.0182752
664.390	0.0182169
664.468	0.0183838
664.546	0.0184031
664.624	0.0181730
664.703	0.0182775
664.781	0.0183503
664.859	0.0181441
664.937	0.0183590
665.015	0.0182347
665.093	0.0181818
665.171	0.0181384
665.249	0.0182027
665.328	0.0182572
665.406	0.0182681
665.484	0.0182272
665.562	0.0182523
665.640	0.0181735
665.718	0.0182454
665.796	0.0183721
665.874	0.0182000
665.953	0.0181330
666.031	0.0182354
666.109	0.0183671
666.187	0.0183675
666.265	0.0181517
666.343	0.0182156
666.421	0.0181951
666.499	0.0180959
666.578	0.0182500
666.656	0.0182050
666.734	0.0182148
666.812	0.0183134
666.890	0.0182666
666.968	0.0180743
667.046	0.0182368
667.124	0.0181677
667.203	0.0181427
667.281	0.0181945
667.359	0.0181397
667.437	0.0181033
667.515	0.0183134
667.593	0.0181198
667.671	0.0183309
667.749	0.0182462
667.828	0.0182399
667.906	0.0180801
667.984	0.0181464
668.062	0.0183047
668.140	0.0182583
668.218	0.0182929
668.296	0.0182650
668.374	0.0182755
668.453	0.0182174
668.531	0.0181870
668.609	0.0182803
668.687	0.0182068
668.765	0.0181343
668.843	0.0182628
668.921	0.0181692
668.999	0.0180746
669.078	0.0181956
669.156	0.0181742
669.234	0.0181899
669.312	0.0181808
669.390	0.0181869
669.468	0.0181441
669.546	0.0182141
669.624	0.0181516
669.703	0.0182517
669.781	0.0182372
669.859	0.0182674
669.937	0.0182911
670.015	0.0182111
670.093	0.0181297
670.171	0.0182842
670.249	0.0182509
670.328	0.0181844
670.406	0.0182246
670.484	0.0182887
670.562	0.0183443
670.640	0.0182848
670.718	0.0181394
670.796	0.0181659
670.874	0.0182589
670.953	0.0182115
671.031	0.0181042
671.109	0.0182607
671.187	0.0181168
671.265	0.0181373
671.343	0.0181794
671.421	0.0181113
671.499	0.0182077
671.578	0.0180827
671.656	0.0181551
671.734	0.0182398
671.812	0.0180846
671.890	0.0182254
671.968	0.0181774
672.046	0.0181814
672.124	0.0181642
672.203	0.0179720
672.281	0.0180987
672.359	0.0181378
672.437	0.0182560
672.515	0.0182394
672.593	0.0181773
672.671	0.0181062
672.749	0.0181438
672.828	0.0181626
672.906	0.0179740
672.984	0.0181822
673.062	0.0182377
673.140	0.0181886
673.218	0.0181432
673.296	0.0181432
673.374	0.0181961
673.453	0.0182011
673.531	0.0183083
673.609	0.0181586
673.687	0.0181319
673.765	0.0181823
673.843	0.0183437
673.921	0.0181712
673.999	0.0181745
674.078	0.0182806
674.156	0.0182246
674.234	0.0181870
674.312	0.0181980
674.390	0.0181033
674.468	0.0182510
674.546	0.0180044
674.624	0.0182076
674.703	0.0181074
674.781	0.0181672
674.859	0.0182491
674.937	0.0181390
675.015	0.0180383
675.093	0.0182619
675.171	0.0182444
675.249	0.0182156
675.328	0.0182214
675.406	0.0182127
675.484	0.0182672
675.562	0.0181777
675.640	0.0181300
675.718	0.0180605
675.796	0.0181914
675.874	0.0181268
675.953	0.0181806
676.031	0.0181022
676.109	0.0181709
676.187	0.0181547
676.265	0.0180353
676.343	0.0181086
676.421	0.0180867
676.499	0.0180556
676.578	0.0180302
676.656	0.0180244
676.734	0.0180196
676.812	0.0181905
676.890	0.0180730
676.968	0.0181120
677.046	0.0181730
677.124	0.0180807
677.203	0.0182299
677.281	0.0180511
677.359	0.0180826
677.437	0.0180971
677.515	0.0180770
677.593	0.0181132
677.671	0.0181978
677.749	0.0180649
677.828	0.0179720
677.906	0.0181331
677.984	0.0180737
678.062	0.0179987
678.140	0.0179552
678.218	0.0181200
678.296	0.0181315
678.374	0.0180958
678.453	0.0179855
678.531	0.0178943
678.609	0.0179780
678.687	0.0180065
678.765	0.0179008
678.843	0.0179898
678.921	0.0179731
678.999	0.0178497
679.078	0.0178864
679.156	0.0179586
679.234	0.0179237
679.312	0.0180097
679.390	0.0178745
679.468	0.0179178
679.546	0.0180045
679.624	0.0179362
679.703	0.0179205
679.781	0.0178535
679.859	0.0179464
679.937	0.0180912
680.015	0.0180138
680.093	0.0180457
680.171	0.0178936
680.249	0.0179569
680.328	0.0179247
680.406	0.0180573
680.484	0.0179724
680.562	0.0179261
680.640	0.0179098
680.718	0.0179967
680.796	0.0179440
680.874	0.0179897
680.953	0.0180686
681.031	0.0179928
681.109	0.0180852
681.187	0.0179850
681.265	0.0181090
681.343	0.0180418
681.421	0.0179730
681.499	0.0179818
681.578	0.0178886
681.656	0.0179470
681.734	0.0180153
681.812	0.0178812
681.890	0.0180138
681.968	0.0179307
682.046	0.0181020
682.124	0.0179248
682.203	0.0179076
682.281	0.0180086
682.359	0.0179289
682.437	0.0179918
682.515	0.0179659
682.593	0.0179500
682.671	0.0180203
682.749	0.0178436
682.828	0.0180345
682.906	0.0179272
682.984	0.0180462
683.062	0.0178224
683.140	0.0180054
683.218	0.0179598
683.296	0.0179301
683.374	0.0179813
683.453	0.0178952
683.531	0.0179773
683.609	0.0178770
683.687	0.0180598
683.765	0.0179459
683.843	0.0179556
683.921	0.0178443
683.999	0.0179897
684.078	0.0180172
684.156	0.0180069
684.234	0.0178885
684.312	0.0178111
684.390	0.0180046
684.468	0.0180743
684.546	0.0179724
684.624	0.0180006
684.703	0.0179576
684.781	0.0178705
684.859	0.0178812
684.937	0.0180335
685.015	0.0180000
685.093	0.0180259
685.171	0.0179708
685.249	0.0180601
685.328	0.0180347
685.406	0.0180863
685.484	0.0180630
685.562	0.0179372
685.640	0.0180321
685.718	0.0180675
685.796	0.0179661
685.874	0.0180361
685.953	0.0180947
686.031	0.0181422
686.109	0.0182215
686.187	0.0181625
686.265	0.0180977
686.343	0.0180909
686.421	0.0180574
686.499	0.0181484
686.578	0.0180636
686.656	0.0180208
686.734	0.0181509
686.812	0.0181583
686.890	0.0180216
686.968	0.0181635
687.046	0.0181616
687.124	0.0181557
687.203	0.0181662
687.281	0.0181931
687.359	0.0182059
687.437	0.0181509
687.515	0.0180431
687.593	0.0181877
687.671	0.0181836
687.749	0.0181637
687.828	0.0182104
687.906	0.0182668
687.984	0.0181132
688.062	0.0182552
688.140	0.0180785
688.218	0.0181168
688.296	0.0180820
688.374	0.0182639
688.453	0.0180251
688.531	0.0181969
688.609	0.0181866
688.687	0.0182213
688.765	0.0182587
688.843	0.0182493
688.921	0.0183446
688.999	0.0182623
689.078	0.0182998
689.156	0.0182150
689.234	0.0182017
689.312	0.0182352
689.390	0.0182588
689.468	0.0181607
689.546	0.0182289
689.624	0.0182318
689.703	0.0181708
689.781	0.0182581
689.859	0.0182095
689.937	0.0182629
690.015	0.0182821
690.093	0.0183324
690.171	0.0182944
690.249	0.0183648
690.328	0.0180645
690.406	0.0181255
690.484	0.0183253
690.562	0.0183749
690.640	0.0182838
690.718	0.0182553
690.796	0.0183540
690.874	0.0184099
690.953	0.0182899
691.031	0.0182720
691.109	0.0182191
691.187	0.0183057
691.265	0.0181892
691.343	0.0183651
691.421	0.0182842
691.499	0.0181588
691.578	0.0182738
691.656	0.0184078
691.734	0.0183624
691.812	0.0183465
691.890	0.0183235
691.968	0.0182697
692.046	0.0182236
692.124	0.0183675
692.203	0.0182715
692.281	0.0183422
692.359	0.0181992
692.437	0.0182515
692.515	0.0182682
692.593	0.0181968
692.671	0.0183562
692.749	0.0183511
692.828	0.0181523
692.906	0.0182506
692.984	0.0182267
693.062	0.0182598
693.140	0.0182844
693.218	0.0182170
693.296	0.0181512
693.374	0.0182882
693.453	0.0181902
693.531	0.0181717
693.609	0.0182138
693.687	0.0181071
693.765	0.0183324
693.843	0.0182101
693.921	0.0181446
693.999	0.0182834
694.078	0.0180946
694.156	0.0181611
694.234	0.0181834
694.312	0.0183398
694.390	0.0183461
694.468	0.0182674
694.546	0.0182304
694.624	0.0181226
694.703	0.0182400
694.781	0.0183556
694.859	0.0182143
694.937	0.0183796
695.015	0.0181589
695.093	0.0182624
695.171	0.0182967
695.249	0.0182515
695.328	0.0183484
695.406	0.0182806
695.484	0.0183625
695.562	0.0184745
695.640	0.0183880
695.718	0.0183345
695.796	0.0182713
695.874	0.0181826
695.953	0.0182592
696.031	0.0182955
696.109	0.0181790
696.187	0.0182156
696.265	0.0182252
696.343	0.0182928
696.421	0.0181784
696.499	0.0181164
696.578	0.0182027
696.656	0.0181192
696.734	0.0181382
696.812	0.0181349
696.890	0.0180276
696.968	0.0182671
697.046	0.0181773
697.124	0.0179046
697.203	0.0181332
697.281	0.0180733
697.359	0.0182307
697.437	0.0183474
697.515	0.0183082
697.593	0.0182014
697.671	0.0182619
697.749	0.0183006
697.828	0.0180861
697.906	0.0182487
697.984	0.0183807
698.062	0.0182023
698.140	0.0182305
698.218	0.0181512
698.296	0.0182989
698.374	0.0182526
698.453	0.0181351
698.531	0.0182094
698.609	0.0182259
698.687	0.0182456
698.765	0.0182668
698.843	0.0183760
698.921	0.0183274
698.999	0.0181667
699.078	0.0182715
699.156	0.0182160
699.234	0.0181789
699.312	0.0182155
699.390	0.0182671
699.468	0.0182572
699.546	0.0181961
699.624	0.0181136
699.703	0.0181127
699.781	0.0181884
699.859	0.0181820
699.937	0.0180497
700.015	0.0180512
700.093	0.0181004
700.171	0.0180207
700.249	0.0180291
700.328	0.0179901
700.406	0.0180066
700.484	0.0180192
700.562	0.0181518
700.640	0.0180960
700.718	0.0180607
700.796	0.0181377
700.874	0.0181042
700.953	0.0181046
701.031	0.0180391
701.109	0.0181536
701.187	0.0181839
701.265	0.0179614
701.343	0.0180727
701.421	0.0180000
701.499	0.0179943
701.578	0.0180260
701.656	0.0180341
701.734	0.0180196
701.812	0.0179629
701.890	0.0180002
701.968	0.0179390
702.046	0.0179616
702.124	0.0180413
702.203	0.0179309
702.281	0.0178259
702.359	0.0180606
702.437	0.0181486
702.515	0.0179502
702.593	0.0179572
702.671	0.0179524
702.749	0.0179549
702.828	0.0181303
702.906	0.0180313
702.984	0.0179285
703.062	0.0180356
703.140	0.0180062
703.218	0.0179021
703.296	0.0180505
703.374	0.0179343
703.453	0.0180556
703.531	0.0180305
703.609	0.0179171
703.687	0.0178039
703.765	0.0179056
703.843	0.0179582
703.921	0.0179478
703.999	0.0179987
704.078	0.0178623
704.156	0.0179307
704.234	0.0179311
704.312	0.0178578
704.390	0.0177783
704.468	0.0178564
704.546	0.0178362
704.624	0.0178394
704.703	0.0175732
704.781	0.0177722
704.859	0.0178156
704.937	0.0179669
705.015	0.0179153
705.093	0.0177843
705.171	0.0179356
705.249	0.0179485
705.328	0.0178243
705.406	0.0178274
705.484	0.0178170
705.562	0.0178051
705.640	0.0179473
705.718	0.0178551
705.796	0.0178426
705.874	0.0179034
705.953	0.0179133
706.031	0.0178185
706.109	0.0179508
706.187	0.0179021
706.265	0.0179089
706.343	0.0179287
706.421	0.0180338
706.499	0.0180284
706.578	0.0179774
706.656	0.0179565
706.734	0.0180020
706.812	0.0180894
706.890	0.0179241
706.968	0.0180341
707.046	0.0180414
707.124	0.0181269
707.203	0.0179077
707.281	0.0180425
707.359	0.0180757
707.437	0.0180267
707.515	0.0180111
707.593	0.0181432
707.671	0.0180202
707.749	0.0180209
707.828	0.0180696
707.906	0.0180376
707.984	0.0179402
708.062	0.0180295
708.140	0.0179626
708.218	0.0181480
708.296	0.0179878
708.374	0.0180699
708.453	0.0180389
708.531	0.0181143
708.609	0.0180479
708.687	0.0180376
708.765	0.0180689
708.843	0.0181332
708.921	0.0180153
708.999	0.0181081
709.078	0.0180831
709.156	0.0179923
709.234	0.0180444
709.312	0.0181229
709.390	0.0180795
709.468	0.0179565
709.546	0.0180326
709.624	0.0181058
709.703	0.0181001
709.781	0.0181172
709.859	0.0180204
709.937	0.0179758
710.015	0.0181456
710.093	0.0180669
710.171	0.0179494
710.249	0.0181537
710.328	0.0181821
710.406	0.0180556
710.484	0.0179449
710.562	0.0179556
710.640	0.0178863
710.718	0.0181132
710.796	0.0180222
710.874	0.0180264
710.953	0.0179333
711.031	0.0180651
711.109	0.0180053
711.187	0.0179993
711.265	0.0181084
711.343	0.0179068
711.421	0.0181040
711.499	0.0180923
711.578	0.0180614
711.656	0.0181136
711.734	0.0180225
711.812	0.0180781
711.890	0.0180973
711.968	0.0180869
712.046	0.0181528
712.124	0.0181496
712.203	0.0179884
712.281	0.0180997
712.359	0.0179834
712.437	0.0180199
712.515	0.0180999
712.593	0.0181167
712.671	0.0180695
712.749	0.0180988
712.828	0.0180769
712.906	0.0180521
712.984	0.0180153
713.062	0.0180786
713.140	0.0182214
713.218	0.0182165
713.296	0.0182522
713.374	0.0181963
713.453	0.0181942
713.531	0.0183131
713.609	0.0181016
713.687	0.0182619
713.765	0.0182104
713.843	0.0181728
713.921	0.0182974
713.999	0.0182981
714.078	0.0183450
714.156	0.0184315
714.234	0.0182995
714.312	0.0182924
714.390	0.0182698
714.468	0.0182591
714.546	0.0183113
714.624	0.0182898
714.703	0.0183120
714.781	0.0182635
714.859	0.0183048
714.937	0.0181414
715.015	0.0182692
715.093	0.0182189
715.171	0.0182581
715.249	0.0182809
715.328	0.0182733
715.406	0.0183118
715.484	0.0182799
715.562	0.0182399
715.640	0.0182545
715.718	0.0182507
715.796	0.0185092
715.874	0.0184032
715.953	0.0183510
716.031	0.0183645
716.109	0.0183382
716.187	0.0184106
716.265	0.0184473
716.343	0.0183709
716.421	0.0183342
716.499	0.0184348
716.578	0.0183975
716.656	0.0184401
716.734	0.0185015
716.812	0.0183509
716.890	0.0185358
716.968	0.0183302
717.046	0.0183286
717.124	0.0184055
717.203	0.0183215
717.281	0.0183740
717.359	0.0185132
717.437	0.0184210
717.515	0.0182559
717.593	0.0182053
717.671	0.0183946
717.749	0.0184076
717.828	0.0184527
717.906	0.0182984
717.984	0.0183589
718.062	0.0183696
718.140	0.0182821
718.218	0.0182452
718.296	0.0182511
718.374	0.0182984
718.453	0.0182441
718.531	0.0183382
718.609	0.0182843
718.687	0.0183147
718.765	0.0183719
718.843	0.0183485
718.921	0.0182956
718.999	0.0182900
719.078	0.0182430
719.156	0.0183708
719.234	0.0182952
719.312	0.0180978
719.390	0.0182209
719.468	0.0182837
719.546	0.0182969
719.624	0.0183107
719.703	0.0182580
719.781	0.0181311
719.859	0.0182880
719.937	0.0183839
720.015	0.0181551
720.093	0.0181785
720.171	0.0183016
720.249	0.0183029
720.328	0.0182824
720.406	0.0182502
720.484	0.0182542
720.562	0.0182023
720.640	0.0181824
720.718	0.0182582
720.796	0.0183976
720.874	0.0182305
720.953	0.0183115
721.031	0.0182957
721.109	0.0183110
721.187	0.0183228
721.265	0.0183160
721.343	0.0182761
721.421	0.0181503
721.499	0.0182351
721.578	0.0182803
721.656	0.0180887
721.734	0.0181675
721.812	0.0182472
721.890	0.0183344
721.968	0.0182971
722.046	0.0182381
722.124	0.0182092
722.203	0.0181744
722.281	0.0182380
722.359	0.0181251
722.437	0.0183341
722.515	0.0181786
722.593	0.0181977
722.671	0.0181750
722.749	0.0182449
722.828	0.0182601
722.906	0.0182516
722.984	0.0182095
723.062	0.0181665
723.140	0.0182584
723.218	0.0182470
723.296	0.0182574
723.374	0.0181811
723.453	0.0183125
723.531	0.0184436
723.609	0.0181586
723.687	0.0182397
723.765	0.0182861
723.843	0.0182650
723.921	0.0182569
723.999	0.0184344
724.078	0.0182125
724.156	0.0181556
724.234	0.0182042
724.312	0.0182825
724.390	0.0182948
724.468	0.0181519
724.546	0.0181708
724.624	0.0182170
724.703	0.0181240
724.781	0.0180405
724.859	0.0182408
724.937	0.0183125
725.015	0.0181949
725.093	0.0181699
725.171	0.0180398
725.249	0.0181905
725.328	0.0180714
725.406	0.0180978
725.484	0.0181220
725.562	0.0180552
725.640	0.0180225
725.718	0.0180276
725.796	0.0180731
725.874	0.0180980
725.953	0.0180143
726.031	0.0180586
726.109	0.0180726
726.187	0.0179526
726.265	0.0179518
726.343	0.0179282
726.421	0.0178535
726.499	0.0180733
726.578	0.0179981
726.656	0.0178468
726.734	0.0180795
726.812	0.0179223
726.890	0.0178910
726.968	0.0180463
727.046	0.0180222
727.124	0.0178726
727.203	0.0178857
727.281	0.0178812
727.359	0.0180400
727.437	0.0179295
727.515	0.0179230
727.593	0.0178592
727.671	0.0179319
727.749	0.0178796
727.828	0.0179724
727.906	0.0179161
727.984	0.0178223
728.062	0.0179189
728.140	0.0178954
728.218	0.0178929
728.296	0.0179349
728.374	0.0178979
728.453	0.0178971
728.531	0.0179023
728.609	0.0179651
728.687	0.0178703
728.765	0.0177492
728.843	0.0179189
728.921	0.0178249
728.999	0.0177139
729.078	0.0178754
729.156	0.0176913
729.234	0.0176800
729.312	0.0178477
729.390	0.0178029
729.468	0.0178537
729.546	0.0177022
729.624	0.0177860
729.703	0.0177654
729.781	0.0177441
729.859	0.0176801
729.937	0.0177313
730.015	0.0176755
730.093	0.0176880
730.171	0.0176919
730.249	0.0177634
730.328	0.0177225
730.406	0.0178716
730.484	0.0176311
730.562	0.0177180
730.640	0.0178787
730.718	0.0178513
730.796	0.0177796
730.874	0.0179301
730.953	0.0180386
731.031	0.0180478
731.109	0.0181538
731.187	0.0179375
731.265	0.0181232
731.343	0.0182226
731.421	0.0182710
731.499	0.0181431
731.578	0.0181710
731.656	0.0183248
731.734	0.0183328
731.812	0.0183696
731.890	0.0182523
731.968	0.0182655
732.046	0.0183814
732.124	0.0184464
732.203	0.0182120
732.281	0.0183433
732.359	0.0184253
732.437	0.0182355
732.515	0.0181888
732.593	0.0183414
732.671	0.0183453
732.749	0.0181112
732.828	0.0182207
732.906	0.0181081
732.984	0.0181461
733.062	0.0179987
733.140	0.0182127
733.218	0.0181680
733.296	0.0181274
733.374	0.0180861
733.453	0.0181239
733.531	0.0181110
733.609	0.0180894
733.687	0.0180664
733.765	0.0180635
733.843	0.0179957
733.921	0.0180978
733.999	0.0179984
734.078	0.0179893
734.156	0.0180418
734.234	0.0180183
734.312	0.0181268
734.390	0.0179069
734.468	0.0179697
734.546	0.0181569
734.624	0.0179726
734.703	0.0179832
734.781	0.0179486
734.859	0.0178767
734.937	0.0179482
735.015	0.0179186
735.093	0.0179758
735.171	0.0180482
735.249	0.0179837
735.328	0.0178751
735.406	0.0181033
735.484	0.0180015
735.562	0.0178899
735.640	0.0178939
735.718	0.0180289
735.796	0.0180841
735.874	0.0179801
735.953	0.0180077
736.031	0.0181858
736.109	0.0179825
736.187	0.0180258
736.265	0.0182214
736.343	0.0181165
736.421	0.0179160
736.499	0.0181564
736.578	0.0180580
736.656	0.0180048
736.734	0.0181717
736.812	0.0181573
736.890	0.0180648
736.968	0.0180444
737.046	0.0182148
737.124	0.0180969
737.203	0.0181592
737.281	0.0181215
737.359	0.0181564
737.437	0.0180991
737.515	0.0181364
737.593	0.0182441
737.671	0.0182420
737.749	0.0180960
737.828	0.0181528
737.906	0.0181403
737.984	0.0180997
738.062	0.0181003
738.140	0.0181547
738.218	0.0181914
738.296	0.0181859
738.374	0.0182222
738.453	0.0182428
738.531	0.0182289
738.609	0.0181246
738.687	0.0182368
738.765	0.0183103
738.843	0.0182352
738.921	0.0180950
738.999	0.0182745
739.078	0.0183218
739.156	0.0182850
739.234	0.0182591
739.312	0.0182317
739.390	0.0182422
739.468	0.0183820
739.546	0.0182139
739.624	0.0183078
739.703	0.0181926
739.781	0.0183640
739.859	0.0184010
739.937	0.0183504
740.015	0.0183694
740.093	0.0183343
740.171	0.0181519
740.249	0.0182866
740.328	0.0183759
740.406	0.0182409
740.484	0.0181648
740.562	0.0180923
740.640	0.0181384
740.718	0.0182502
740.796	0.0183008
740.874	0.0181283
740.953	0.0180880
741.031	0.0182947
741.109	0.0180814
741.187	0.0181519
741.265	0.0180238
741.343	0.0180329
741.421	0.0180489
741.499	0.0181846
741.578	0.0181927
741.656	0.0180931
741.734	0.0182024
741.812	0.0182259
741.890	0.0180096
741.968	0.0182224
742.046	0.0181765
742.124	0.0181664
742.203	0.0181519
742.281	0.0181507
742.359	0.0183119
742.437	0.0182222
742.515	0.0181614
742.593	0.0182702
742.671	0.0181814
742.749	0.0182417
742.828	0.0181553
742.906	0.0183150
742.984	0.0181202
743.062	0.0181200
743.140	0.0182286
743.218	0.0182888
743.296	0.0181779
743.374	0.0181705
743.453	0.0181805
743.531	0.0181363
743.609	0.0181152
743.687	0.0180634
743.765	0.0180953
743.843	0.0181348
743.921	0.0180164
743.999	0.0181808
744.078	0.0179832
744.156	0.0179746
744.234	0.0180664
744.312	0.0181085
744.390	0.0181673
744.468	0.0180767
744.546	0.0181049
744.624	0.0179836
744.703	0.0180330
744.781	0.0182861
744.859	0.0181642
744.937	0.0181432
745.015	0.0181699
745.093	0.0181574
745.171	0.0181847
745.249	0.0181554
745.328	0.0181576
745.406	0.0180862
745.484	0.0181019
745.562	0.0179881
745.640	0.0181420
745.718	0.0181133
745.796	0.0179520
745.874	0.0180601
745.953	0.0181345
746.031	0.0181113
746.109	0.0180570
746.187	0.0181238
746.265	0.0180611
746.343	0.0179945
746.421	0.0179539
746.499	0.0180669
746.578	0.0180870
746.656	0.0179731
746.734	0.0181310
746.812	0.0180048
746.890	0.0180607
746.968	0.0180734
747.046	0.0180481
747.124	0.0180153
747.203	0.0180094
747.281	0.0181921
747.359	0.0181019
747.437	0.0181257
747.515	0.0181811
747.593	0.0180666
747.671	0.0180688
747.749	0.0181103
747.828	0.0181942
747.906	0.0180704
747.984	0.0182379
748.062	0.0180608
748.140	0.0180392
748.218	0.0179971
748.296	0.0180983
748.374	0.0181068
748.453	0.0181444
748.531	0.0182026
748.609	0.0180262
748.687	0.0180434
748.765	0.0182478
748.843	0.0180821
748.921	0.0179642
748.999	0.0180742
749.078	0.0180878
749.156	0.0180772
749.234	0.0180479
749.312	0.0179480
749.390	0.0181539
749.468	0.0181884
749.546	0.0181070
749.624	0.0180318
749.703	0.0179562
749.781	0.0180391
749.859	0.0180215
749.937	0.0180724
750.015	0.0179409
750.093	0.0181380
750.171	0.0178712
750.249	0.0179099
750.328	0.0179225
750.406	0.0179495
750.484	0.0179327
750.562	0.0179684
750.640	0.0179460
750.718	0.0178794
750.796	0.0178503
750.874	0.0179710
750.953	0.0180182
751.031	0.0179424
751.109	0.0179691
751.187	0.0180355
751.265	0.0179590
751.343	0.0179605
751.421	0.0179099
751.499	0.0179230
751.578	0.0177901
751.656	0.0178072
751.734	0.0178285
751.812	0.0178306
751.890	0.0178591
751.968	0.0177645
752.046	0.0177616
752.124	0.0177919
752.203	0.0178517
752.281	0.0178602
752.359	0.0178588
752.437	0.0177566
752.515	0.0178780
752.593	0.0178211
752.671	0.0178066
752.749	0.0178011
752.828	0.0179180
752.906	0.0179070
752.984	0.0177836
753.062	0.0178323
753.140	0.0178837
753.218	0.0180353
753.296	0.0180437
753.374	0.0179235
753.453	0.0180817
753.531	0.0179528
753.609	0.0179604
753.687	0.0179518
753.765	0.0180675
753.843	0.0179782
753.921	0.0179824
753.999	0.0179459
754.078	0.0179308
754.156	0.0179774
754.234	0.0180067
754.312	0.0179677
754.390	0.0180928
754.468	0.0180962
754.546	0.0180630
754.624	0.0180157
754.703	0.0179416
754.781	0.0180573
754.859	0.0180594
754.937	0.0179854
755.015	0.0180293
755.093	0.0180195
755.171	0.0180505
755.249	0.0181359
755.328	0.0180022
755.406	0.0180618
755.484	0.0181129
755.562	0.0179895
755.640	0.0180474
755.718	0.0180923
755.796	0.0180641
755.874	0.0181303
755.953	0.0181168
756.031	0.0181390
756.109	0.0179971
756.187	0.0180975
756.265	0.0179906
756.343	0.0181334
756.421	0.0181345
756.499	0.0182548
756.578	0.0180394
756.656	0.0181445
756.734	0.0183498
756.812	0.0182557
756.890	0.0181084
756.968	0.0181010
757.046	0.0181731
757.124	0.0182576
757.203	0.0182153
757.281	0.0182639
757.359	0.0182417
757.437	0.0180453
757.515	0.0181667
757.593	0.0183614
757.671	0.0182178
757.749	0.0180527
757.828	0.0181938
757.906	0.0181883
757.984	0.0182893
758.062	0.0182304
758.140	0.0181502
758.218	0.0180686
758.296	0.0182284
758.374	0.0180804
758.453	0.0181316
758.531	0.0182718
758.609	0.0180163
758.687	0.0181884
758.765	0.0180626
758.843	0.0181627
758.921	0.0181606
758.999	0.0179607
759.078	0.0180542
759.156	0.0182667
759.234	0.0181393
759.312	0.0180001
759.390	0.0180573
759.468	0.0181543
759.546	0.0180653
759.624	0.0178983
759.703	0.0180475
759.781	0.0181929
759.859	0.0182063
759.937	0.0182278
760.015	0.0182626
760.093	0.0181378
760.171	0.0182191
760.249	0.0181567
760.328	0.0181770
760.406	0.0181646
760.484	0.0181096
760.562	0.0182228
760.640	0.0182455
760.718	0.0182971
760.796	0.0182569
760.874	0.0181377
760.953	0.0182131
761.031	0.0181428
761.109	0.0182085
761.187	0.0182143
761.265	0.0182137
761.343	0.0181558
761.421	0.0182291
761.499	0.0181483
761.578	0.0182814
761.656	0.0181374
761.734	0.0182018
761.812	0.0183578
761.890	0.0181988
761.968	0.0181351
762.046	0.0182418
762.124	0.0181357
762.203	0.0182273
762.281	0.0181699
762.359	0.0182590
762.437	0.0182117
762.515	0.0181252
762.593	0.0183217
762.671	0.0182471
762.749	0.0180908
762.828	0.0180636
762.906	0.0181850
762.984	0.0181700
763.062	0.0181348
763.140	0.0180579
763.218	0.0182054
763.296	0.0182082
763.374	0.0179730
763.453	0.0181764
763.531	0.0181690
763.609	0.0181268
763.687	0.0180625
763.765	0.0180492
763.843	0.0180499
763.921	0.0181358
763.999	0.0181739
764.078	0.0182883
764.156	0.0180964
764.234	0.0181584
764.312	0.0182491
764.390	0.0182151
764.468	0.0181439
764.546	0.0181345
764.624	0.0182783
764.703	0.0180654
764.781	0.0181249
764.859	0.0183168
764.937	0.0181300
765.015	0.0181290
765.093	0.0181991
765.171	0.0181348
765.249	0.0180499
765.328	0.0181417
765.406	0.0179443
765.484	0.0180508
765.562	0.0181096
765.640	0.0181846
765.718	0.0180417
765.796	0.0180972
765.874	0.0179589
765.953	0.0179153
766.031	0.0180952
766.109	0.0181183
766.187	0.0179906
766.265	0.0180633
766.343	0.0179132
766.421	0.0179880
766.499	0.0179922
766.578	0.0179685
766.656	0.0179720
766.734	0.0181087
766.812	0.0179625
766.890	0.0179315
766.968	0.0181042
767.046	0.0180196
767.124	0.0179010
767.203	0.0180311
767.281	0.0179684
767.359	0.0179379
767.437	0.0179662
767.515	0.0178525
767.593	0.0180726
767.671	0.0180156
767.749	0.0181398
767.828	0.0180675
767.906	0.0179598
767.984	0.0178526
768.062	0.0180237
768.140	0.0180665
768.218	0.0180833
768.296	0.0179409
768.374	0.0180657
768.453	0.0179951
768.531	0.0180228
768.609	0.0180408
768.687	0.0179811
768.765	0.0179869
768.843	0.0179859
768.921	0.0179743
768.999	0.0180752
769.078	0.0179591
769.156	0.0178927
769.234	0.0180283
769.312	0.0179045
769.390	0.0180207
769.468	0.0179748
769.546	0.0180571
769.624	0.0180036
769.703	0.0179703
769.781	0.0180148
769.859	0.0180627
769.937	0.0179533
770.015	0.0180664
770.093	0.0180505
770.171	0.0179512
770.249	0.0181303
770.328	0.0180489
770.406	0.0179602
770.484	0.0180263
770.562	0.0180554
770.640	0.0179660
770.718	0.0181076
770.796	0.0181872
770.874	0.0181094
770.953	0.0181210
771.031	0.0180127
771.109	0.0180389
771.187	0.0181435
771.265	0.0181039
771.343	0.0179910
771.421	0.0180293
771.499	0.0180284
771.578	0.0181748
771.656	0.0181139
771.734	0.0180923
771.812	0.0180582
771.890	0.0180138
771.968	0.0181303
772.046	0.0180678
772.124	0.0181587
772.203	0.0181512
772.281	0.0180486
772.359	0.0180657
772.437	0.0182301
772.515	0.0180716
772.593	0.0181198
772.671	0.0182289
772.749	0.0180427
772.828	0.0180682
772.906	0.0180823
772.984	0.0182087
773.062	0.0182371
773.140	0.0181385
773.218	0.0180083
773.296	0.0181133
773.374	0.0180545
773.453	0.0180268
773.531	0.0181756
773.609	0.0180605
773.687	0.0181313
773.765	0.0181853
773.843	0.0181030
773.921	0.0181147
773.999	0.0180100
774.078	0.0180988
774.156	0.0181104
774.234	0.0180599
774.312	0.0180457
774.390	0.0181499
774.468	0.0181286
774.546	0.0180122
774.624	0.0183450
774.703	0.0181999
774.781	0.0182511
774.859	0.0181172
774.937	0.0182247
775.015	0.0183101
775.093	0.0182944
775.171	0.0181467
775.249	0.0182023
775.328	0.0181953
775.406	0.0181593
775.484	0.0181615
775.562	0.0181268
775.640	0.0181970
775.718	0.0180361
775.796	0.0182257
775.874	0.0182334
775.953	0.0182602
776.031	0.0180740
776.109	0.0182278
776.187	0.0181298
776.265	0.0182412
776.343	0.0180871
776.421	0.0180621
776.499	0.0180701
776.578	0.0180908
776.656	0.0180918
776.734	0.0179808
776.812	0.0181062
776.890	0.0180535
776.968	0.0180877
777.046	0.0179124
777.124	0.0179289
777.203	0.0181409
777.281	0.0179750
777.359	0.0179817
777.437	0.0181128
777.515	0.0180412
777.593	0.0180112
777.671	0.0180455
777.749	0.0180075
777.828	0.0179720
777.906	0.0181425
777.984	0.0180540
778.062	0.0179610
778.140	0.0181508
778.218	0.0179766
778.296	0.0178873
778.374	0.0180691
778.453	0.0181190
778.531	0.0181125
778.609	0.0181095
778.687	0.0179679
778.765	0.0180785
778.843	0.0181368
778.921	0.0182068
778.999	0.0180482
779.078	0.0180241
779.156	0.0181606
779.234	0.0181816
779.312	0.0180818
779.390	0.0181271
779.468	0.0182175
779.546	0.0182060
779.624	0.0180737
779.703	0.0181326
779.781	0.0181175
779.859	0.0183853
779.937	0.0181435
780.015	0.0180830
780.093	0.0182896
780.171	0.0182211
780.249	0.0181429
780.328	0.0181959
780.406	0.0182328
780.484	0.0182928
780.562	0.0182960
780.640	0.0182880
780.718	0.0182799
780.796	0.0182229
780.874	0.0182587
780.953	0.0182939
781.031	0.0182103
781.109	0.0181438
781.187	0.0183434
781.265	0.0183107
781.343	0.0182693
781.421	0.0182835
781.499	0.0182345
781.578	0.0182273
781.656	0.0183434
781.734	0.0181931
781.812	0.0183092
781.890	0.0183345
781.968	0.0182065
782.046	0.0180991
782.124	0.0180794
782.203	0.0181830
782.281	0.0180418
782.359	0.0180547
782.437	0.0180782
782.515	0.0182145
782.593	0.0180572
782.671	0.0181558
782.749	0.0182523
782.828	0.0180963
782.906	0.0181074
782.984	0.0181135
783.062	0.0182648
783.140	0.0182414
783.218	0.0180785
783.296	0.0179962
783.374	0.0182540
783.453	0.0181102
783.531	0.0181953
783.609	0.0181957
783.687	0.0181116
783.765	0.0180835
783.843	0.0181255
783.921	0.0181935
783.999	0.0182143
784.078	0.0181625
784.156	0.0183404
784.234	0.0181552
784.312	0.0181580
784.390	0.0184071
784.468	0.0180885
784.546	0.0182615
784.624	0.0181796
784.703	0.0181980
784.781	0.0183372
784.859	0.0181409
784.937	0.0181654
785.015	0.0182118
785.093	0.0183178
785.171	0.0181468
785.249	0.0181707
785.328	0.0182430
785.406	0.0183066
785.484	0.0182135
785.562	0.0181587
785.640	0.0181509
785.718	0.0182691
785.796	0.0182715
785.874	0.0182404
785.953	0.0182802
786.031	0.0181467
786.109	0.0181542
786.187	0.0182051
786.265	0.0181561
786.343	0.0182565
786.421	0.0181467
786.499	0.0181506
786.578	0.0183305
786.656	0.0180965
786.734	0.0181940
786.812	0.0183134
786.890	0.0183779
786.968	0.0183421
787.046	0.0182108
787.124	0.0182370
787.203	0.0183180
787.281	0.0182459
787.359	0.0181948
787.437	0.0181535
787.515	0.0182448
787.593	0.0181332
787.671	0.0181589
787.749	0.0181495
787.828	0.0180259
787.906	0.0179584
787.984	0.0179545
788.062	0.0180161
788.140	0.0179488
788.218	0.0180589
788.296	0.0179018
788.374	0.0179055
788.453	0.0178730
788.531	0.0178202
788.609	0.0178378
788.687	0.0178719
788.765	0.0178767
788.843	0.0179077
788.921	0.0180559
788.999	0.0179115
789.078	0.0180657
789.156	0.0180393
789.234	0.0180297
789.312	0.0181265
789.390	0.0181859
789.468	0.0182983
789.546	0.0181654
789.624	0.0181143
789.703	0.0182123
789.781	0.0182014
789.859	0.0182317
789.937	0.0181536
790.015	0.0182267
790.093	0.0182749
790.171	0.0183861
790.249	0.0183084
790.328	0.0181200
790.406	0.0182342
790.484	0.0182371
790.562	0.0181386
790.640	0.0183904
790.718	0.0184165
790.796	0.0181758
790.874	0.0182374
790.953	0.0181859
791.031	0.0183189
791.109	0.0183491
791.187	0.0183432
791.265	0.0182528
791.343	0.0183853
791.421	0.0183180
791.499	0.0181852
791.578	0.0182477
791.656	0.0182766
791.734	0.0182140
791.812	0.0182181
791.890	0.0183025
791.968	0.0184801
792.046	0.0182600
792.124	0.0182369
792.203	0.0183051
792.281	0.0181869
792.359	0.0182733
792.437	0.0180806
792.515	0.0179663
792.593	0.0179338
792.671	0.0179655
792.749	0.0179005
792.828	0.0179773
792.906	0.0177905
792.984	0.0179390
793.062	0.0178945
793.140	0.0178571
793.218	0.0179013
793.296	0.0178388
793.374	0.0178244
793.453	0.0177851
793.531	0.0178240
793.609	0.0179876
793.687	0.0179657
793.765	0.0178667
793.843	0.0179741
793.921	0.0179938
793.999	0.0179865
794.078	0.0179642
794.156	0.0180310
794.234	0.0180927
794.312	0.0181641
794.390	0.0182753
794.468	0.0180901
794.546	0.0181401
794.624	0.0181493
794.703	0.0181125
794.781	0.0182639
794.859	0.0182607
794.937	0.0183459
795.015	0.0182153
795.093	0.0182446
795.171	0.0181991
795.249	0.0181376
795.328	0.0181875
795.406	0.0181789
795.484	0.0181723
795.562	0.0182607
795.640	0.0182140
795.718	0.0181745
795.796	0.0182809
795.874	0.0181037
795.953	0.0181476
796.031	0.0181966
796.109	0.0183387
796.187	0.0181191
796.265	0.0182111
796.343	0.0182135
796.421	0.0181424
796.499	0.0181032
796.578	0.0181624
796.656	0.0182597
796.734	0.0182860
796.812	0.0183069
796.890	0.0183098
796.968	0.0182849
797.046	0.0183336
797.124	0.0183180
797.203	0.0184213
797.281	0.0183271
797.359	0.0183755
797.437	0.0181891
797.515	0.0181184
797.593	0.0180750
797.671	0.0180699
797.749	0.0182999
797.828	0.0181371
797.906	0.0182378
797.984	0.0180847
798.062	0.0180036
798.140	0.0179793
798.218	0.0179483
798.296	0.0181467
798.374	0.0180289
798.453	0.0181442
798.531	0.0179282
798.609	0.0180561
798.687	0.0181089
798.765	0.0181807
798.843	0.0180506
798.921	0.0181517
798.999	0.0182690
799.078	0.0181299
799.156	0.0180913
799.234	0.0180761
799.312	0.0182440
799.390	0.0180907
799.468	0.0181712
799.546	0.0181194
799.624	0.0182442
799.703	0.0181728
799.781	0.0182079
799.859	0.0181214
799.937	0.0181577
800.015	0.0182891
800.093	0.0181207
800.171	0.0182049
800.249	0.0181962
800.328	0.0180358
800.406	0.0181038
800.484	0.0181504
800.562	0.0181654
800.640	0.0180761
800.718	0.0181761
800.796	0.0181582
800.874	0.0180647
800.953	0.0180965
801.031	0.0179588
801.109	0.0179228
801.187	0.0179439
801.265	0.0180555
801.343	0.0180141
801.421	0.0181431
801.499	0.0180833
801.578	0.0181622
801.656	0.0180347
801.734	0.0182720
801.812	0.0183652
801.890	0.0182623
801.968	0.0183636
802.046	0.0181994
802.124	0.0182290
802.203	0.0180877
802.281	0.0183144
802.359	0.0183692
802.437	0.0182721
802.515	0.0181931
802.593	0.0182265
802.671	0.0181321
802.749	0.0182368
802.828	0.0181054
802.906	0.0181226
802.984	0.0183044
803.062	0.0181963
803.140	0.0181164
803.218	0.0182511
803.296	0.0181522
803.374	0.0182252
803.453	0.0182119
803.531	0.0181897
803.609	0.0181887
803.687	0.0181168
803.765	0.0182789
803.843	0.0182864
803.921	0.0181386
803.999	0.0182034
804.078	0.0181279
804.156	0.0182005
804.234	0.0181508
804.312	0.0179324
804.390	0.0181312
804.468	0.0181981
804.546	0.0180631
804.624	0.0180042
804.703	0.0179539
804.781	0.0180424
804.859	0.0180064
804.937	0.0181126
805.015	0.0181016
805.093	0.0182473
805.171	0.0181168
805.249	0.0181031
805.328	0.0181891
805.406	0.0182640
805.484	0.0181631
805.562	0.0182746
805.640	0.0182863
805.718	0.0182789
805.796	0.0182053
805.874	0.0181944
805.953	0.0182372
806.031	0.0181363
806.109	0.0182527
806.187	0.0182735
806.265	0.0182448
806.343	0.0182934
806.421	0.0182092
806.499	0.0184065
806.578	0.0182487
806.656	0.0183495
806.734	0.0183419
806.812	0.0183340
806.890	0.0183807
806.968	0.0184525
807.046	0.0181815
807.124	0.0183486
807.203	0.0184422
807.281	0.0184157
807.359	0.0182990
807.437	0.0184254
807.515	0.0182541
807.593	0.0183504
807.671	0.0182887
807.749	0.0183303
807.828	0.0182635
807.906	0.0182208
807.984	0.0181754
808.062	0.0181967
808.140	0.0182461
808.218	0.0181843
808.296	0.0180474
808.374	0.0182143
808.453	0.0181743
808.531	0.0181422
808.609	0.0181344
808.687	0.0180779
808.765	0.0181421
808.843	0.0182139
808.921	0.0181632
808.999	0.0181078
809.078	0.0180909
809.156	0.0180417
809.234	0.0180631
809.312	0.0181177
809.390	0.0180392
809.468	0.0181122
809.546	0.0180540
809.624	0.0181936
809.703	0.0182695
809.781	0.0182253
809.859	0.0181941
809.937	0.0181867
810.015	0.0180417
810.093	0.0181642
810.171	0.0181332
810.249	0.0179621
810.328	0.0180644
810.406	0.0179362
810.484	0.0180679
810.562	0.0180478
810.640	0.0181404
810.718	0.0181266
810.796	0.0181658
810.874	0.0180414
810.953	0.0180907
811.031	0.0181292
811.109	0.0181559
811.187	0.0180371
811.265	0.0180686
811.343	0.0181152
811.421	0.0181178
811.499	0.0181058
811.578	0.0182022
811.656	0.0182132
811.734	0.0182200
811.812	0.0181313
811.890	0.0182870
811.968	0.0181614
812.046	0.0182186
812.124	0.0181901
812.203	0.0181006
812.281	0.0181133
812.359	0.0180078
812.437	0.0179871
812.515	0.0180287
812.593	0.0181713
812.671	0.0181322
812.749	0.0180434
812.828	0.0180029
812.906	0.0179706
812.984	0.0179977
813.062	0.0178262
813.140	0.0179041
813.218	0.0181071
813.296	0.0178887
813.374	0.0179036
813.453	0.0179076
813.531	0.0178851
813.609	0.0179147
813.687	0.0179031
813.765	0.0181156
813.843	0.0179272
813.921	0.0179990
813.999	0.0179939
814.078	0.0181909
814.156	0.0181209
814.234	0.0180264
814.312	0.0180911
814.390	0.0181941
814.468	0.0182361
814.546	0.0181698
814.624	0.0181876
814.703	0.0183289
814.781	0.0183791
814.859	0.0182150
814.937	0.0183156
815.015	0.0182293
815.093	0.0184180
815.171	0.0182584
815.249	0.0182925
815.328	0.0182265
815.406	0.0183545
815.484	0.0182132
815.562	0.0182018
815.640	0.0182022
815.718	0.0181228
815.796	0.0181401
815.874	0.0181629
815.953	0.0180079
816.031	0.0180528
816.109	0.0180585
816.187	0.0181030
816.265	0.0180043
816.343	0.0179857
816.421	0.0179698
816.499	0.0180618
816.578	0.0179243
816.656	0.0179491
816.734	0.0179936
816.812	0.0179952
816.890	0.0180693
816.968	0.0180409
817.046	0.0179966
817.124	0.0181133
817.203	0.0181263
817.281	0.0179208
817.359	0.0179191
817.437	0.0181759
817.515	0.0180914
817.593	0.0180865
817.671	0.0180960
817.749	0.0179028
817.828	0.0180579
817.906	0.0181245
817.984	0.0181132
818.062	0.0180596
818.140	0.0179792
818.218	0.0180540
818.296	0.0179529
818.374	0.0179547
818.453	0.0180282
818.531	0.0179571
818.609	0.0179845
818.687	0.0180864
818.765	0.0177885
818.843	0.0179774
818.921	0.0179890
818.999	0.0179698
819.078	0.0181173
819.156	0.0179725
819.234	0.0179197
819.312	0.0180058
819.390	0.0181415
819.468	0.0180166
819.546	0.0180926
819.624	0.0180969
819.703	0.0180479
819.781	0.0179230
819.859	0.0179229
819.937	0.0181617
820.015	0.0182490
820.093	0.0182349
820.171	0.0180901
820.249	0.0180264
820.328	0.0181068
820.406	0.0180917
820.484	0.0180973
820.562	0.0180814
820.640	0.0181544
820.718	0.0179690
820.796	0.0181155
820.874	0.0180998
820.953	0.0179665
821.031	0.0180647
821.109	0.0181196
821.187	0.0181022
821.265	0.0180934
821.343	0.0182045
821.421	0.0179317
821.499	0.0180276
821.578	0.0182585
821.656	0.0181866
821.734	0.0181283
821.812	0.0182286
821.890	0.0181699
821.968	0.0181123
822.046	0.0182082
822.124	0.0181898
822.203	0.0181866
822.281	0.0182137
822.359	0.0182090
822.437	0.0183692
822.515	0.0183771
822.593	0.0182603
822.671	0.0183614
822.749	0.0183418
822.828	0.0182407
822.906	0.0181339
822.984	0.0181252
823.062	0.0182394
823.140	0.0182624
823.218	0.0181386
823.296	0.0181174
823.374	0.0182317
823.453	0.0181384
823.531	0.0180916
823.609	0.0181952
823.687	0.0181921
823.765	0.0181684
823.843	0.0179848
823.921	0.0180176
823.999	0.0181860
824.078	0.0180415
824.156	0.0179075
824.234	0.0181229
824.312	0.0180769
824.390	0.0180995
824.468	0.0180506
824.546	0.0179997
824.624	0.0180187
824.703	0.0180071
824.781	0.0181439
824.859	0.0181593
824.937	0.0180468
825.015	0.0180408
825.093	0.0181682
825.171	0.0181431
825.249	0.0181043
825.328	0.0180424
825.406	0.0180762
825.484	0.0182455
825.562	0.0182145
825.640	0.0181801
825.718	0.0183399
825.796	0.0183391
825.874	0.0181768
825.953	0.0183292
826.031	0.0183675
826.109	0.0183359
826.187	0.0183828
826.265	0.0184142
826.343	0.0183619
826.421	0.0183669
826.499	0.0181692
826.578	0.0182862
826.656	0.0182451
826.734	0.0184337
826.812	0.0182178
826.890	0.0181406
826.968	0.0183063
827.046	0.0182922
827.124	0.0182367
827.203	0.0183602
827.281	0.0183138
827.359	0.0182318
827.437	0.0182890
827.515	0.0181939
827.593	0.0181468
827.671	0.0183170
827.749	0.0183218
827.828	0.0183984
827.906	0.0183121
827.984	0.0180808
828.062	0.0182236
828.140	0.0182056
828.218	0.0182820
828.296	0.0181797
828.374	0.0181133
828.453	0.0180477
828.531	0.0181394
828.609	0.0180644
828.687	0.0180834
828.765	0.0181535
828.843	0.0180710
828.921	0.0182153
828.999	0.0181958
829.078	0.0179762
829.156	0.0179977
829.234	0.0181818
829.312	0.0179608
829.390	0.0179867
829.468	0.0179739
829.546	0.0179975
829.624	0.0182323
829.703	0.0181647
829.781	0.0181284
829.859	0.0182069
829.937	0.0182639
830.015	0.0180948
830.093	0.0180405
830.171	0.0181706
830.249	0.0181579
830.328	0.0182351
830.406	0.0182809
830.484	0.0182006
830.562	0.0182307
830.640	0.0182161
830.718	0.0183177
830.796	0.0182542
830.874	0.0182561
830.953	0.0182197
831.031	0.0183616
831.109	0.0182752
831.187	0.0184074
831.265	0.0183604
831.343	0.0181791
831.421	0.0181973
831.499	0.0182603
831.578	0.0180881
831.656	0.0180486
831.734	0.0181282
831.812	0.0181808
831.890	0.0181265
831.968	0.0181618
832.046	0.0181538
832.124	0.0180186
832.203	0.0179751
832.281	0.0179563
832.359	0.0179616
832.437	0.0180136
832.515	0.0180508
832.593	0.0179565
832.671	0.0179729
832.749	0.0179478
832.828	0.0180011
832.906	0.0178889
832.984	0.0179917
833.062	0.0181413
833.140	0.0179460
833.218	0.0180715
833.296	0.0181409
833.374	0.0180508
833.453	0.0182088
833.531	0.0180151
833.609	0.0179596
833.687	0.0181622
833.765	0.0181567
833.843	0.0181306
833.921	0.0180645
833.999	0.0180619
834.078	0.0179196
834.156	0.0180495
834.234	0.0180508
834.312	0.0180143
834.390	0.0179964
834.468	0.0180503
834.546	0.0181422
834.624	0.0179424
834.703	0.0179989
834.781	0.0180560
834.859	0.0179611
834.937	0.0180796
835.015	0.0180846
835.093	0.0180350
835.171	0.0180393
835.249	0.0179375
835.328	0.0179585
835.406	0.0178704
835.484	0.0180964
835.562	0.0180470
835.640	0.0179184
835.718	0.0180622
835.796	0.0179391
835.874	0.0178780
835.953	0.0179711
836.031	0.0178645
836.109	0.0178392
836.187	0.0181298
836.265	0.0179349
836.343	0.0179711
836.421	0.0180318
836.499	0.0178751
836.578	0.0179420
836.656	0.0178944
836.734	0.0179606
836.812	0.0180503
836.890	0.0179200
836.968	0.0177618
837.046	0.0178391
837.124	0.0179453
837.203	0.0178496
837.281	0.0178256
837.359	0.0178351
837.437	0.0178279
837.515	0.0178538
837.593	0.0177569
837.671	0.0178027
837.749	0.0179015
837.828	0.0178403
837.906	0.0177863
837.984	0.0178590
838.062	0.0178353
838.140	0.0177620
838.218	0.0179401
838.296	0.0179623
838.374	0.0179404
838.453	0.0179324
838.531	0.0180556
838.609	0.0180045
838.687	0.0179879
838.765	0.0179177
838.843	0.0180299
838.921	0.0181918
838.999	0.0182736
839.078	0.0182746
839.156	0.0181858
839.234	0.0180605
839.312	0.0181671
839.390	0.0181540
839.468	0.0180505
839.546	0.0181633
839.624	0.0181730
839.703	0.0179880
839.781	0.0179933
839.859	0.0180598
839.937	0.0179734
840.015	0.0179823
840.093	0.0180556
840.171	0.0180601
840.249	0.0180915
840.328	0.0179452
840.406	0.0178948
840.484	0.0180693
840.562	0.0179648
840.640	0.0179308
840.718	0.0178812
840.796	0.0179758
840.874	0.0180734
840.953	0.0179993
841.031	0.0177859
841.109	0.0180859
841.187	0.0179379
841.265	0.0178935
841.343	0.0179860
841.421	0.0180061
841.499	0.0179288
841.578	0.0180405
841.656	0.0179947
841.734	0.0180327
841.812	0.0179776
841.890	0.0181219
841.968	0.0180238
842.046	0.0180970
842.124	0.0180684
842.203	0.0182205
842.281	0.0180676
842.359	0.0180527
842.437	0.0180744
842.515	0.0180213
842.593	0.0179144
842.671	0.0179999
842.749	0.0180251
842.828	0.0181025
842.906	0.0181061
842.984	0.0180882
843.062	0.0179240
843.140	0.0180931
843.218	0.0180145
843.296	0.0180283
843.374	0.0181230
843.453	0.0180606
843.531	0.0180585
843.609	0.0180235
843.687	0.0180651
843.765	0.0179663
843.843	0.0179893
843.921	0.0181772
843.999	0.0180714
844.078	0.0180370
844.156	0.0180397
844.234	0.0180849
844.312	0.0181281
844.390	0.0181367
844.468	0.0181982
844.546	0.0181074
844.624	0.0181457
844.703	0.0181982
844.781	0.0179898
844.859	0.0180886
844.937	0.0181738
845.015	0.0180786
845.093	0.0182327
845.171	0.0181405
845.249	0.0181075
845.328	0.0181990
845.406	0.0182255
845.484	0.0181212
845.562	0.0180727
845.640	0.0181198
845.718	0.0182579
845.796	0.0181063
845.874	0.0181676
845.953	0.0181335
846.031	0.0182157
846.109	0.0181647
846.187	0.0182220
846.265	0.0183521
846.343	0.0181886
846.421	0.0181561
846.499	0.0181740
846.578	0.0182021
846.656	0.0182593
846.734	0.0182134
846.812	0.0182424
846.890	0.0181076
846.968	0.0181942
847.046	0.0181424
847.124	0.0182719
847.203	0.0181408
847.281	0.0181300
847.359	0.0180633
847.437	0.0181078
847.515	0.0182363
847.593	0.0182494
847.671	0.0181744
847.749	0.0181281
847.828	0.0181633
847.906	0.0181155
847.984	0.0181169
848.062	0.0179060
848.140	0.0181059
848.218	0.0179755
848.296	0.0179763
848.374	0.0177812
848.453	0.0179333
848.531	0.0180081
848.609	0.0179523
848.687	0.0179283
848.765	0.0178062
848.843	0.0179200
848.921	0.0180917
848.999	0.0178395
849.078	0.0179288
849.156	0.0179980
849.234	0.0180652
849.312	0.0178746
849.390	0.0178979
849.468	0.0178260
849.546	0.0180170
849.624	0.0180326
849.703	0.0179546
849.781	0.0179501
849.859	0.0180628
849.937	0.0182054
850.015	0.0182114
850.093	0.0181791
850.171	0.0181766
850.249	0.0182075
850.328	0.0183208
850.406	0.0183266
850.484	0.0181846
850.562	0.0182958
850.640	0.0182011
850.718	0.0182608
850.796	0.0181734
850.874	0.0184229
850.953	0.0182864
851.031	0.0182149
851.109	0.0181973
851.187	0.0182958
851.265	0.0183929
851.343	0.0181918
851.421	0.0183628
851.499	0.0183344
851.578	0.0183207
851.656	0.0182642
851.734	0.0183025
851.812	0.0183118
851.890	0.0183268
851.968	0.0182964
852.046	0.0182273
852.124	0.0182684
852.203	0.0183457
852.281	0.0180618
852.359	0.0182507
852.437	0.0181957
852.515	0.0180993
852.593	0.0180490
852.671	0.0181850
852.749	0.0182967
852.828	0.0180595
852.906	0.0181641
852.984	0.0180518
853.062	0.0183274
853.140	0.0182743
853.218	0.0181297
853.296	0.0181573
853.374	0.0181859
853.453	0.0182706
853.531	0.0180892
853.609	0.0181600
853.687	0.0182341
853.765	0.0181492
853.843	0.0182236
853.921	0.0183092
853.999	0.0183364
854.078	0.0182568
854.156	0.0182691
854.234	0.0183085
854.312	0.0183212
854.390	0.0183246
854.468	0.0182150
854.546	0.0183388
854.624	0.0182842
854.703	0.0181726
854.781	0.0182704
854.859	0.0183956
854.937	0.0183105
855.015	0.0182801
855.093	0.0182941
855.171	0.0183260
855.249	0.0183138
855.328	0.0182500
855.406	0.0183244
855.484	0.0182951
855.562	0.0181995
855.640	0.0182693
855.718	0.0183223
855.796	0.0182648
855.874	0.0181645
855.953	0.0182811
856.031	0.0180917
856.109	0.0181008
856.187	0.0181741
856.265	0.0182925
856.343	0.0182193
856.421	0.0180180
856.499	0.0180794
856.578	0.0182164
856.656	0.0182014
856.734	0.0181327
856.812	0.0181186
856.890	0.0180900
856.968	0.0181030
857.046	0.0180806
857.124	0.0181339
857.203	0.0181413
857.281	0.0182296
857.359	0.0181260
857.437	0.0181209
857.515	0.0181927
857.593	0.0182593
857.671	0.0182430
857.749	0.0181659
857.828	0.0180484
857.906	0.0180637
857.984	0.0182246
858.062	0.0180537
858.140	0.0180747
858.218	0.0180968
858.296	0.0180792
858.374	0.0180734
858.453	0.0180363
858.531	0.0181918
858.609	0.0181556
858.687	0.0179652
858.765	0.0179419
858.843	0.0180540
858.921	0.0180643
858.999	0.0179956
859.078	0.0181075
859.156	0.0181741
859.234	0.0179555
859.312	0.0180950
859.390	0.0180482
859.468	0.0180080
859.546	0.0179770
859.624	0.0180467
859.703	0.0182088
859.781	0.0180425
859.859	0.0180918
859.937	0.0182825
860.015	0.0181969
860.093	0.0182530
860.171	0.0181409
860.249	0.0181052
860.328	0.0180446
860.406	0.0181753
860.484	0.0180831
860.562	0.0181812
860.640	0.0181339
860.718	0.0181145
860.796	0.0181963
860.874	0.0181201
860.953	0.0180777
861.031	0.0182143
861.109	0.0180523
861.187	0.0180997
861.265	0.0182568
861.343	0.0182030
861.421	0.0180865
861.499	0.0180588
861.578	0.0181080
861.656	0.0181611
861.734	0.0182463
861.812	0.0181065
861.890	0.0182028
861.968	0.0182169
862.046	0.0180862
862.124	0.0182124
862.203	0.0181702
862.281	0.0182654
862.359	0.0181198
862.437	0.0181530
862.515	0.0181649
862.593	0.0181282
862.671	0.0180559
862.749	0.0181219
862.828	0.0180539
862.906	0.0180000
862.984	0.0181087
863.062	0.0180354
863.140	0.0180537
863.218	0.0181123
863.296	0.0180581
863.374	0.0180965
863.453	0.0180253
863.531	0.0180772
863.609	0.0181098
863.687	0.0181370
863.765	0.0180718
863.843	0.0180999
863.921	0.0179685
863.999	0.0181237
864.078	0.0182462
864.156	0.0180437
864.234	0.0181197
864.312	0.0180687
864.390	0.0180574
864.468	0.0181145
864.546	0.0182575
864.624	0.0181026
864.703	0.0179845
864.781	0.0180496
864.859	0.0181819
864.937	0.0180418
865.015	0.0180500
865.093	0.0180254
865.171	0.0179674
865.249	0.0179853
865.328	0.0179170
865.406	0.0179839
865.484	0.0179391
865.562	0.0178128
865.640	0.0179568
865.718	0.0179246
865.796	0.0178676
865.874	0.0179534
865.953	0.0179387
866.031	0.0179869
866.109	0.0179134
866.187	0.0178988
866.265	0.0179547
866.343	0.0179349
866.421	0.0179819
866.499	0.0179086
866.578	0.0179433
866.656	0.0180125
866.734	0.0178975
866.812	0.0178543
866.890	0.0180662
866.968	0.0181504
867.046	0.0180155
867.124	0.0181187
867.203	0.0180737
867.281	0.0178455
867.359	0.0179306
867.437	0.0180509
867.515	0.0180431
867.593	0.0179535
867.671	0.0179172
867.749	0.0179581
867.828	0.0179581
867.906	0.0179581
867.984	0.0178319
868.062	0.0178568
868.140	0.0179104
868.218	0.0178846
868.296	0.0176698
868.374	0.0178998
868.453	0.0177055
868.531	0.0177622
868.609	0.0178086
868.687	0.0178426
868.765	0.0179098
868.843	0.0178674
868.921	0.0179092
868.999	0.0179682
869.078	0.0178068
869.156	0.0178924
869.234	0.0177367
869.312	0.0177928
869.390	0.0179220
869.468	0.0179804
869.546	0.0178754
869.624	0.0179685
869.703	0.0178939
869.781	0.0180711
869.859	0.0181015
869.937	0.0180685
870.015	0.0179706
870.093	0.0180993
870.171	0.0181501
870.249	0.0180790
870.328	0.0179607
870.406	0.0180804
870.484	0.0180795
870.562	0.0180411
870.640	0.0181178
870.718	0.0182775
870.796	0.0181524
870.874	0.0181375
870.953	0.0181230
871.031	0.0180978
871.109	0.0180627
871.187	0.0181781
871.265	0.0182703
871.343	0.0182282
871.421	0.0181920
871.499	0.0180805
871.578	0.0182332
871.656	0.0181709
871.734	0.0182560
871.812	0.0181488
871.890	0.0181149
871.968	0.0183010
872.046	0.0182500
872.124	0.0182463
872.203	0.0181935
872.281	0.0183617
872.359	0.0181831
872.437	0.0183145
872.515	0.0182350
872.593	0.0183535
872.671	0.0183567
872.749	0.0182653
872.828	0.0181748
872.906	0.0183882
872.984	0.0183461
873.062	0.0183460
873.140	0.0182922
873.218	0.0182532
873.296	0.0183186
873.374	0.0183446
873.453	0.0184343
873.531	0.0183370
873.609	0.0181731
873.687	0.0182398
873.765	0.0183380
873.843	0.0182681
873.921	0.0183496
873.999	0.0182655
874.078	0.0182659
874.156	0.0182536
874.234	0.0182603
874.312	0.0181415
874.390	0.0180792
874.468	0.0180036
874.546	0.0181788
874.624	0.0181591
874.703	0.0181610
874.781	0.0182497
874.859	0.0181254
874.937	0.0180720
875.015	0.0179442
875.093	0.0181004
875.171	0.0181319
875.249	0.0181585
875.328	0.0180738
875.406	0.0179620
875.484	0.0180511
875.562	0.0180344
875.640	0.0179942
875.718	0.0180199
875.796	0.0180267
875.874	0.0181288
875.953	0.0180601
876.031	0.0180109
876.109	0.0180392
876.187	0.0180819
876.265	0.0180814
876.343	0.0180785
876.421	0.0180359
876.499	0.0179180
876.578	0.0181107
876.656	0.0181017
876.734	0.0180641
876.812	0.0179521
876.890	0.0181056
876.968	0.0182021
877.046	0.0181769
877.124	0.0181915
877.203	0.0181798
877.281	0.0181326
877.359	0.0181639
877.437	0.0182156
877.515	0.0182808
877.593	0.0180793
877.671	0.0182734
877.749	0.0181731
877.828	0.0180742
877.906	0.0181510
877.984	0.0182743
878.062	0.0182545
878.140	0.0181109
878.218	0.0181128
878.296	0.0180705
878.374	0.0181683
878.453	0.0181075
878.531	0.0182246
878.609	0.0182367
878.687	0.0182036
878.765	0.0182664
878.843	0.0182485
878.921	0.0181779
878.999	0.0182353
879.078	0.0182333
879.156	0.0180930
879.234	0.0181995
879.312	0.0181277
879.390	0.0182920
879.468	0.0182726
879.546	0.0181464
879.624	0.0183121
879.703	0.0182733
879.781	0.0181247
879.859	0.0181274
879.937	0.0181184
880.015	0.0182011
880.093	0.0181688
880.171	0.0181036
880.249	0.0180945
880.328	0.0182028
880.406	0.0181142
880.484	0.0181802
880.562	0.0182317
880.640	0.0182487
880.718	0.0181482
880.796	0.0181441
880.874	0.0182545
880.953	0.0182007
881.031	0.0182668
881.109	0.0183327
881.187	0.0181400
881.265	0.0181568
881.343	0.0182188
881.421	0.0182262
881.499	0.0183231
881.578	0.0182517
881.656	0.0182726
881.734	0.0182217
881.812	0.0182478
881.890	0.0182358
881.968	0.0182071
882.046	0.0182269
882.124	0.0182587
882.203	0.0182376
882.281	0.0182092
882.359	0.0181185
882.437	0.0180624
882.515	0.0181263
882.593	0.0181822
882.671	0.0181992
882.749	0.0182002
882.828	0.0181139
882.906	0.0180164
882.984	0.0181508
883.062	0.0181235
883.140	0.0179703
883.218	0.0180374
883.296	0.0181591
883.374	0.0181494
883.453	0.0181990
883.531	0.0181207
883.609	0.0179270
883.687	0.0181339
883.765	0.0181702
883.843	0.0181342
883.921	0.0181432
883.999	0.0182291
884.078	0.0181321
884.156	0.0180878
884.234	0.0180992
884.312	0.0182178
884.390	0.0181370
884.468	0.0181969
884.546	0.0182870
884.624	0.0182283
884.703	0.0181782
884.781	0.0182293
884.859	0.0181956
884.937	0.0181731
885.015	0.0182523
885.093	0.0182099
885.171	0.0181150
885.249	0.0181696
885.328	0.0181528
885.406	0.0182202
885.484	0.0181744
885.562	0.0179906
885.640	0.0181293
885.718	0.0180870
885.796	0.0178622
885.874	0.0180710
885.953	0.0180048
886.031	0.0181487
886.109	0.0181128
886.187	0.0179167
886.265	0.0180576
886.343	0.0181393
886.421	0.0180333
886.499	0.0179705
886.578	0.0180312
886.656	0.0179662
886.734	0.0180547
886.812	0.0180553
886.890	0.0181073
886.968	0.0180445
887.046	0.0180590
887.124	0.0181658
887.203	0.0180576
887.281	0.0181325
887.359	0.0180438
887.437	0.0180229
887.515	0.0180283
887.593	0.0180374
887.671	0.0179720
887.749	0.0179733
887.828	0.0180092
887.906	0.0179627
887.984	0.0178495
888.062	0.0179869
888.140	0.0179223
888.218	0.0179673
888.296	0.0180626
888.374	0.0180357
888.453	0.0180199
888.531	0.0180125
888.609	0.0180749
888.687	0.0181516
888.765	0.0181040
888.843	0.0182098
888.921	0.0180850
888.999	0.0180453
889.078	0.0181517
889.156	0.0182400
889.234	0.0181644
889.312	0.0181466
889.390	0.0181361
889.468	0.0182563
889.546	0.0182004
889.624	0.0183207
889.703	0.0181373
889.781	0.0180383
889.859	0.0180104
889.937	0.0182003
890.015	0.0182536
890.093	0.0181119
890.171	0.0180518
890.249	0.0180791
890.328	0.0181066
890.406	0.0181837
890.484	0.0180881
890.562	0.0180102
890.640	0.0180367
890.718	0.0180742
890.796	0.0180302
890.874	0.0179684
890.953	0.0179651
891.031	0.0179704
891.109	0.0179787
891.187	0.0180028
891.265	0.0179209
891.343	0.0180691
891.421	0.0178040
891.499	0.0178295
891.578	0.0178647
891.656	0.0178527
891.734	0.0179915
891.812	0.0180011
891.890	0.0178383
891.968	0.0177969
892.046	0.0178831
892.124	0.0180130
892.203	0.0180262
892.281	0.0179417
892.359	0.0179797
892.437	0.0180624
892.515	0.0178796
892.593	0.0179854
892.671	0.0180851
892.749	0.0181075
892.828	0.0179226
892.906	0.0180217
892.984	0.0180186
893.062	0.0180147
893.140	0.0179739
893.218	0.0181432
893.296	0.0181958
893.374	0.0182393
893.453	0.0180956
893.531	0.0181866
893.609	0.0181029
893.687	0.0182011
893.765	0.0181767
893.843	0.0182164
893.921	0.0180769
893.999	0.0181704
894.078	0.0181099
894.156	0.0181419
894.234	0.0181342
894.312	0.0181479
894.390	0.0181275
894.468	0.0180628
894.546	0.0180598
894.624	0.0182227
894.703	0.0180933
894.781	0.0180753
894.859	0.0180666
894.937	0.0180740
895.015	0.0181087
895.093	0.0179086
895.171	0.0180682
895.249	0.0180452
895.328	0.0180516
895.406	0.0181163
895.484	0.0181695
895.562	0.0180612
895.640	0.0181411
895.718	0.0181435
895.796	0.0182082
895.874	0.0180334
895.953	0.0181155
896.031	0.0181248
896.109	0.0183023
896.187	0.0182507
896.265	0.0183350
896.343	0.0183871
896.421	0.0183421
896.499	0.0183342
896.578	0.0182304
896.656	0.0183781
896.734	0.0182031
896.812	0.0183916
896.890	0.0182041
896.968	0.0184631
897.046	0.0183422
897.124	0.0182588
897.203	0.0182494
897.281	0.0183039
897.359	0.0183097
897.437	0.0183253
897.515	0.0184351
897.593	0.0181777
897.671	0.0182309
897.749	0.0183427
897.828	0.0185379
897.906	0.0183559
897.984	0.0182375
898.062	0.0183031
898.140	0.0183237
898.218	0.0183842
898.296	0.0183629
898.374	0.0182377
898.453	0.0182838
898.531	0.0183859
898.609	0.0183070
898.687	0.0183320
898.765	0.0182773
898.843	0.0182929
898.921	0.0182110
898.999	0.0182803
899.078	0.0181726
899.156	0.0182957
899.234	0.0182988
899.312	0.0181246
899.390	0.0182449
899.468	0.0182111
899.546	0.0181830
899.624	0.0181934
899.703	0.0181563
899.781	0.0180923
899.859	0.0180425
899.937	0.0181453
900.015	0.0181150
900.093	0.0180219
900.171	0.0181042
900.249	0.0181343
900.328	0.0180076
900.406	0.0180840
900.484	0.0179683
900.562	0.0179854
900.640	0.0179752
900.718	0.0179270
900.796	0.0180262
900.874	0.0180771
900.953	0.0180541
901.031	0.0179835
901.109	0.0180356
901.187	0.0180331
901.265	0.0180892
901.343	0.0180983
901.421	0.0181030
901.499	0.0181422
901.578	0.0182130
901.656	0.0181701
901.734	0.0182493
901.812	0.0182974
901.890	0.0181566
901.968	0.0182478
902.046	0.0182263
902.124	0.0181994
902.203	0.0183102
902.281	0.0181606
902.359	0.0182510
902.437	0.0182810
902.515	0.0181312
902.593	0.0181078
902.671	0.0182992
902.749	0.0182274
902.828	0.0181480
902.906	0.0182656
902.984	0.0182875
903.062	0.0182671
903.140	0.0181725
903.218	0.0181956
903.296	0.0181741
903.374	0.0182885
903.453	0.0183146
903.531	0.0182266
903.609	0.0182256
903.687	0.0182186
903.765	0.0183050
903.843	0.0183392
903.921	0.0183745
903.999	0.0182906
904.078	0.0184314
904.156	0.0183501
904.234	0.0183072
904.312	0.0183878
904.390	0.0183317
904.468	0.0182979
904.546	0.0182826
904.624	0.0181989
904.703	0.0182822
904.781	0.0181882
904.859	0.0183094
904.937	0.0182747
905.015	0.0184251
905.093	0.0182788
905.171	0.0183152
905.249	0.0182507
905.328	0.0183231
905.406	0.0182394
905.484	0.0182773
905.562	0.0181936
905.640	0.0183089
905.718	0.0182928
905.796	0.0180814
905.874	0.0182370
905.953	0.0182948
906.031	0.0182344
906.109	0.0183205
906.187	0.0183689
906.265	0.0183183
906.343	0.0184379
906.421	0.0182968
906.499	0.0184502
906.578	0.0182745
906.656	0.0181882
906.734	0.0181707
906.812	0.0182869
906.890	0.0183392
906.968	0.0182321
907.046	0.0182395
907.124	0.0182043
907.203	0.0183029
907.281	0.0182249
907.359	0.0180871
907.437	0.0182100
907.515	0.0181434
907.593	0.0180795
907.671	0.0180672
907.749	0.0179746
907.828	0.0181049
907.906	0.0180733
907.984	0.0180470
908.062	0.0180370
908.140	0.0179665
908.218	0.0178526
908.296	0.0178709
908.374	0.0179704
908.453	0.0179200
908.531	0.0178187
908.609	0.0179192
908.687	0.0180185
908.765	0.0179160
908.843	0.0178921
908.921	0.0179121
908.999	0.0179105
909.078	0.0177593
909.156	0.0178465
909.234	0.0179539
909.312	0.0178950
909.390	0.0179490
909.468	0.0178257
909.546	0.0179228
909.624	0.0181034
909.703	0.0179646
909.781	0.0179256
909.859	0.0180387
909.937	0.0180224
910.015	0.0179414
910.093	0.0179726
910.171	0.0179562
910.249	0.0179836
910.328	0.0181655
910.406	0.0180071
910.484	0.0179796
910.562	0.0180798
910.640	0.0180534
910.718	0.0179562
910.796	0.0180410
910.874	0.0181097
910.953	0.0180740
911.031	0.0180692
911.109	0.0181293
911.187	0.0179688
911.265	0.0180045
911.343	0.0179926
911.421	0.0179546
911.499	0.0179844
911.578	0.0179898
911.656	0.0180389
911.734	0.0182270
911.812	0.0180635
911.890	0.0180051
911.968	0.0180609
912.046	0.0180634
912.124	0.0180463
912.203	0.0181330
912.281	0.0182769
912.359	0.0180984
912.437	0.0181005
912.515	0.0181352
912.593	0.0181357
912.671	0.0181470
912.749	0.0181414
912.828	0.0181354
912.906	0.0182523
912.984	0.0181491
913.062	0.0182652
913.140	0.0181849
913.218	0.0181255
913.296	0.0182651
913.374	0.0181816
913.453	0.0183069
913.531	0.0182840
913.609	0.0182130
913.687	0.0181441
913.765	0.0182133
913.843	0.0182535
913.921	0.0182882
913.999	0.0182446
914.078	0.0182104
914.156	0.0182092
914.234	0.0182333
914.312	0.0183449
914.390	0.0181133
914.468	0.0181224
914.546	0.0180564
914.624	0.0180151
914.703	0.0181577
914.781	0.0181094
914.859	0.0181855
914.937	0.0181940
915.015	0.0180052
915.093	0.0179883
915.171	0.0179622
915.249	0.0179565
915.328	0.0181458
915.406	0.0179733
915.484	0.0179147
915.562	0.0179760
915.640	0.0181121
915.718	0.0179750
915.796	0.0179116
915.874	0.0179713
915.953	0.0179510
916.031	0.0180582
916.109	0.0181718
916.187	0.0179151
916.265	0.0179385
916.343	0.0180288
916.421	0.0181757
916.499	0.0180641
916.578	0.0181069
916.656	0.0181384
916.734	0.0181334
916.812	0.0181001
916.890	0.0181030
916.968	0.0181017
917.046	0.0180835
917.124	0.0181503
917.203	0.0181146
917.281	0.0182408
917.359	0.0180512
917.437	0.0180949
917.515	0.0181442
917.593	0.0181509
917.671	0.0181232
917.749	0.0181625
917.828	0.0180531
917.906	0.0181589
917.984	0.0180788
918.062	0.0180866
918.140	0.0181858
918.218	0.0181469
918.296	0.0181447
918.374	0.0182275
918.453	0.0181464
918.531	0.0181438
918.609	0.0181992
918.687	0.0181522
918.765	0.0181438
918.843	0.0181894
918.921	0.0181229
918.999	0.0183114
919.078	0.0182097
919.156	0.0180617
919.234	0.0181089
919.312	0.0181782
919.390	0.0181767
919.468	0.0181421
919.546	0.0182573
919.624	0.0181083
919.703	0.0181676
919.781	0.0181359
919.859	0.0181072
919.937	0.0182184
