06/10/2022	16:54:14	Ver.	4.1	UNKNOWN
Optical Delay	600.015094	Delta X		0.078125	Sweeps	1	Scan Rate	0/0
Coordinates	Axis 1	NaN	Axis 2	NaN	Axis 3	NaN	Axis 4	NaN	Axis 5	NaN	Axis 6	0.000000
TX Power	0.000000	RX Power	0.000000

600.015	0.0180786
600.093	0.0178679
600.171	0.0178925
600.249	0.0180268
600.328	0.0178966
600.406	0.0178640
600.484	0.0179697
600.562	0.0179093
600.640	0.0177548
600.718	0.0178670
600.796	0.0177744
600.874	0.0176780
600.953	0.0177080
601.031	0.0176955
601.109	0.0175507
601.187	0.0175311
601.265	0.0175037
601.343	0.0176569
601.421	0.0175880
601.499	0.0174218
601.578	0.0174162
601.656	0.0173166
601.734	0.0173700
601.812	0.0172281
601.890	0.0173183
601.968	0.0174601
602.046	0.0174343
602.124	0.0171375
602.203	0.0173020
602.281	0.0171505
602.359	0.0175734
602.437	0.0176082
602.515	0.0176544
602.593	0.0176034
602.671	0.0176577
602.749	0.0179470
602.828	0.0180306
602.906	0.0178609
602.984	0.0181754
603.062	0.0182782
603.140	0.0182008
603.218	0.0181660
603.296	0.0183241
603.374	0.0184438
603.453	0.0182948
603.531	0.0183839
603.609	0.0184969
603.687	0.0184634
603.765	0.0184689
603.843	0.0184447
603.921	0.0185539
603.999	0.0186174
604.078	0.0185074
604.156	0.0184694
604.234	0.0186242
604.312	0.0186054
604.390	0.0186162
604.468	0.0186179
604.546	0.0185046
604.624	0.0183582
604.703	0.0182453
604.781	0.0182587
604.859	0.0180048
604.937	0.0179324
605.015	0.0180449
605.093	0.0179498
605.171	0.0179826
605.249	0.0179660
605.328	0.0179327
605.406	0.0178426
605.484	0.0177823
605.562	0.0178085
605.640	0.0178426
605.718	0.0179419
605.796	0.0180158
605.874	0.0180891
605.953	0.0178652
606.031	0.0180192
606.109	0.0180116
606.187	0.0181992
606.265	0.0180148
606.343	0.0181998
606.421	0.0182690
606.499	0.0183094
606.578	0.0182343
606.656	0.0182716
606.734	0.0182743
606.812	0.0183330
606.890	0.0183178
606.968	0.0183190
607.046	0.0184252
607.124	0.0184530
607.203	0.0183859
607.281	0.0184363
607.359	0.0184876
607.437	0.0184133
607.515	0.0183195
607.593	0.0183500
607.671	0.0182746
607.749	0.0183541
607.828	0.0184077
607.906	0.0184024
607.984	0.0182434
608.062	0.0183738
608.140	0.0184550
608.218	0.0183736
608.296	0.0184079
608.374	0.0186866
608.453	0.0185773
608.531	0.0185342
608.609	0.0186089
608.687	0.0186575
608.765	0.0186092
608.843	0.0185164
608.921	0.0185730
608.999	0.0184102
609.078	0.0185587
609.156	0.0183543
609.234	0.0183974
609.312	0.0183353
609.390	0.0182890
609.468	0.0183290
609.546	0.0183178
609.624	0.0183037
609.703	0.0182446
609.781	0.0182159
609.859	0.0182609
609.937	0.0181467
610.015	0.0182111
610.093	0.0180814
610.171	0.0182349
610.249	0.0181183
610.328	0.0181310
610.406	0.0181622
610.484	0.0181986
610.562	0.0181727
610.640	0.0182609
610.718	0.0183467
610.796	0.0182587
610.874	0.0182986
610.953	0.0183222
611.031	0.0183270
611.109	0.0183222
611.187	0.0183891
611.265	0.0183444
611.343	0.0182898
611.421	0.0184143
611.499	0.0183865
611.578	0.0182734
611.656	0.0183786
611.734	0.0184606
611.812	0.0183022
611.890	0.0183009
611.968	0.0182613
612.046	0.0184158
612.124	0.0182488
612.203	0.0182752
612.281	0.0183549
612.359	0.0183823
612.437	0.0185530
612.515	0.0182469
612.593	0.0182761
612.671	0.0184566
612.749	0.0183459
612.828	0.0182575
612.906	0.0182470
612.984	0.0183363
613.062	0.0184173
613.140	0.0182676
613.218	0.0182652
613.296	0.0181798
613.374	0.0183557
613.453	0.0183427
613.531	0.0183848
613.609	0.0183496
613.687	0.0184288
613.765	0.0183270
613.843	0.0182112
613.921	0.0183233
613.999	0.0183540
614.078	0.0182970
614.156	0.0183248
614.234	0.0183581
614.312	0.0183223
614.390	0.0184697
614.468	0.0184505
614.546	0.0182746
614.624	0.0182659
614.703	0.0184544
614.781	0.0185414
614.859	0.0183386
614.937	0.0183618
615.015	0.0183131
615.093	0.0184077
615.171	0.0182639
615.249	0.0183790
615.328	0.0183651
615.406	0.0183361
615.484	0.0183708
615.562	0.0182215
615.640	0.0181776
615.718	0.0181396
615.796	0.0181808
615.874	0.0181606
615.953	0.0181504
616.031	0.0181239
616.109	0.0180579
616.187	0.0181599
616.265	0.0181865
616.343	0.0181114
616.421	0.0180129
616.499	0.0181147
616.578	0.0182726
616.656	0.0180139
616.734	0.0180972
616.812	0.0181704
616.890	0.0179775
616.968	0.0181409
617.046	0.0180401
617.124	0.0182137
617.203	0.0180867
617.281	0.0180642
617.359	0.0180638
617.437	0.0180606
617.515	0.0181075
617.593	0.0181062
617.671	0.0180515
617.749	0.0181881
617.828	0.0181527
617.906	0.0179858
617.984	0.0180693
618.062	0.0182097
618.140	0.0180795
618.218	0.0180297
618.296	0.0180682
618.374	0.0182122
618.453	0.0182131
618.531	0.0180229
618.609	0.0181866
618.687	0.0180693
618.765	0.0180190
618.843	0.0179522
618.921	0.0179755
618.999	0.0179515
619.078	0.0179391
619.156	0.0179396
619.234	0.0179972
619.312	0.0179856
619.390	0.0179803
619.468	0.0179315
619.546	0.0180123
619.624	0.0179474
619.703	0.0179475
619.781	0.0179897
619.859	0.0179253
619.937	0.0179300
620.015	0.0179244
620.093	0.0179465
620.171	0.0180025
620.249	0.0177550
620.328	0.0178294
620.406	0.0179424
620.484	0.0178668
620.562	0.0176917
620.640	0.0179705
620.718	0.0178016
620.796	0.0178465
620.874	0.0178531
620.953	0.0177024
621.031	0.0177619
621.109	0.0177956
621.187	0.0176879
621.265	0.0177138
621.343	0.0177874
621.421	0.0177972
621.499	0.0178522
621.578	0.0178679
621.656	0.0177769
621.734	0.0177594
621.812	0.0177876
621.890	0.0178896
621.968	0.0178503
622.046	0.0179685
622.124	0.0180108
622.203	0.0177559
622.281	0.0178858
622.359	0.0177218
622.437	0.0179089
622.515	0.0178854
622.593	0.0178931
622.671	0.0178255
622.749	0.0178783
622.828	0.0179522
622.906	0.0178646
622.984	0.0178952
623.062	0.0179509
623.140	0.0180057
623.218	0.0179523
623.296	0.0179988
623.374	0.0179523
623.453	0.0179390
623.531	0.0180635
623.609	0.0180757
623.687	0.0180666
623.765	0.0181451
623.843	0.0180265
623.921	0.0179321
623.999	0.0180122
624.078	0.0180789
624.156	0.0180314
624.234	0.0179472
624.312	0.0179618
624.390	0.0179648
624.468	0.0179543
624.546	0.0179800
624.624	0.0180360
624.703	0.0179113
624.781	0.0180399
624.859	0.0179852
624.937	0.0179408
625.015	0.0179140
625.093	0.0179792
625.171	0.0178805
625.249	0.0180150
625.328	0.0179325
625.406	0.0179705
625.484	0.0179636
625.562	0.0180756
625.640	0.0180959
625.718	0.0180412
625.796	0.0180813
625.874	0.0180084
625.953	0.0182311
626.031	0.0180286
626.109	0.0180173
626.187	0.0181360
626.265	0.0180421
626.343	0.0180730
626.421	0.0181633
626.499	0.0181531
626.578	0.0181941
626.656	0.0181049
626.734	0.0181963
626.812	0.0182649
626.890	0.0182473
626.968	0.0180569
627.046	0.0182813
627.124	0.0183392
627.203	0.0182977
627.281	0.0182687
627.359	0.0184139
627.437	0.0183501
627.515	0.0183545
627.593	0.0183627
627.671	0.0183217
627.749	0.0183000
627.828	0.0183630
627.906	0.0183597
627.984	0.0184396
628.062	0.0184008
628.140	0.0184428
628.218	0.0183727
628.296	0.0183620
628.374	0.0184040
628.453	0.0185503
628.531	0.0185464
628.609	0.0185249
628.687	0.0185004
628.765	0.0186015
628.843	0.0185245
628.921	0.0186208
628.999	0.0185426
629.078	0.0185328
629.156	0.0185571
629.234	0.0184364
629.312	0.0184145
629.390	0.0184292
629.468	0.0184680
629.546	0.0185175
629.624	0.0185705
629.703	0.0185416
629.781	0.0183461
629.859	0.0185064
629.937	0.0184153
630.015	0.0184705
630.093	0.0185094
630.171	0.0184511
630.249	0.0185367
630.328	0.0183620
630.406	0.0184366
630.484	0.0182514
630.562	0.0182591
630.640	0.0185829
630.718	0.0183690
630.796	0.0182798
630.874	0.0182992
630.953	0.0184289
631.031	0.0182154
631.109	0.0183840
631.187	0.0184467
631.265	0.0182851
631.343	0.0183785
631.421	0.0183234
631.499	0.0183689
631.578	0.0181729
631.656	0.0182621
631.734	0.0183150
631.812	0.0182166
631.890	0.0183092
631.968	0.0182058
632.046	0.0182997
632.124	0.0183037
632.203	0.0182871
632.281	0.0181267
632.359	0.0181747
632.437	0.0181013
632.515	0.0181250
632.593	0.0181423
632.671	0.0183630
632.749	0.0180754
632.828	0.0181286
632.906	0.0182129
632.984	0.0182287
633.062	0.0181676
633.140	0.0181413
633.218	0.0181397
633.296	0.0180404
633.374	0.0181958
633.453	0.0181112
633.531	0.0182574
633.609	0.0180677
633.687	0.0181043
633.765	0.0182276
633.843	0.0181504
633.921	0.0181355
633.999	0.0182354
634.078	0.0182587
634.156	0.0182387
634.234	0.0181893
634.312	0.0183231
634.390	0.0182305
634.468	0.0181599
634.546	0.0182796
634.624	0.0183286
634.703	0.0180807
634.781	0.0181469
634.859	0.0182716
634.937	0.0183240
635.015	0.0183685
635.093	0.0182287
635.171	0.0182256
635.249	0.0183131
635.328	0.0183652
635.406	0.0183640
635.484	0.0181303
635.562	0.0183337
635.640	0.0182860
635.718	0.0181811
635.796	0.0183648
635.874	0.0184732
635.953	0.0183723
636.031	0.0183749
636.109	0.0181703
636.187	0.0183934
636.265	0.0184165
636.343	0.0183474
636.421	0.0183814
636.499	0.0184165
636.578	0.0184199
636.656	0.0185981
636.734	0.0183994
636.812	0.0183610
636.890	0.0183429
636.968	0.0184258
637.046	0.0183213
637.124	0.0183284
637.203	0.0183656
637.281	0.0184018
637.359	0.0183243
637.437	0.0183965
637.515	0.0184382
637.593	0.0183142
637.671	0.0183327
637.749	0.0184372
637.828	0.0184084
637.906	0.0183646
637.984	0.0182861
638.062	0.0183379
638.140	0.0183929
638.218	0.0184753
638.296	0.0185147
638.374	0.0183897
638.453	0.0183624
638.531	0.0183598
638.609	0.0185221
638.687	0.0182714
638.765	0.0183664
638.843	0.0184008
638.921	0.0182717
638.999	0.0183110
639.078	0.0183669
639.156	0.0183318
639.234	0.0183290
639.312	0.0182735
639.390	0.0183475
639.468	0.0182925
639.546	0.0181980
639.624	0.0183285
639.703	0.0183225
639.781	0.0182933
639.859	0.0181678
639.937	0.0183103
640.015	0.0182349
640.093	0.0182352
640.171	0.0182058
640.249	0.0181538
640.328	0.0182424
640.406	0.0180952
640.484	0.0181917
640.562	0.0181268
640.640	0.0181243
640.718	0.0181448
640.796	0.0180978
640.874	0.0181516
640.953	0.0178809
641.031	0.0180726
641.109	0.0180927
641.187	0.0179700
641.265	0.0180435
641.343	0.0179420
641.421	0.0179360
641.499	0.0179227
641.578	0.0181791
641.656	0.0179227
641.734	0.0179454
641.812	0.0179987
641.890	0.0179387
641.968	0.0180431
642.046	0.0180000
642.124	0.0178867
642.203	0.0179145
642.281	0.0180810
642.359	0.0180756
642.437	0.0180044
642.515	0.0179784
642.593	0.0179292
642.671	0.0180425
642.749	0.0179851
642.828	0.0181602
642.906	0.0182415
642.984	0.0179878
643.062	0.0181083
643.140	0.0181145
643.218	0.0180576
643.296	0.0180248
643.374	0.0180988
643.453	0.0182157
643.531	0.0181478
643.609	0.0181146
643.687	0.0180711
643.765	0.0182415
643.843	0.0180994
643.921	0.0181570
643.999	0.0181483
644.078	0.0181383
644.156	0.0181786
644.234	0.0182084
644.312	0.0180448
644.390	0.0180000
644.468	0.0182064
644.546	0.0181347
644.624	0.0180427
644.703	0.0180645
644.781	0.0181546
644.859	0.0181292
644.937	0.0181816
645.015	0.0182864
645.093	0.0181213
645.171	0.0182607
645.249	0.0180929
645.328	0.0182777
645.406	0.0181211
645.484	0.0181021
645.562	0.0182056
645.640	0.0181603
645.718	0.0182362
645.796	0.0180898
645.874	0.0181746
645.953	0.0182731
646.031	0.0181662
646.109	0.0181711
646.187	0.0183057
646.265	0.0182862
646.343	0.0182126
646.421	0.0182183
646.499	0.0182594
646.578	0.0181930
646.656	0.0182506
646.734	0.0181188
646.812	0.0182213
646.890	0.0181473
646.968	0.0182972
647.046	0.0182354
647.124	0.0182023
647.203	0.0182631
647.281	0.0182909
647.359	0.0181193
647.437	0.0182570
647.515	0.0182964
647.593	0.0181532
647.671	0.0184427
647.749	0.0185130
647.828	0.0182817
647.906	0.0182280
647.984	0.0183015
648.062	0.0183844
648.140	0.0182654
648.218	0.0183918
648.296	0.0183031
648.374	0.0184136
648.453	0.0182954
648.531	0.0183345
648.609	0.0184165
648.687	0.0183490
648.765	0.0182906
648.843	0.0182930
648.921	0.0183451
648.999	0.0182351
649.078	0.0183128
649.156	0.0183562
649.234	0.0183285
649.312	0.0181511
649.390	0.0181538
649.468	0.0180872
649.546	0.0181511
649.624	0.0181985
649.703	0.0181987
649.781	0.0183224
649.859	0.0183596
649.937	0.0181279
650.015	0.0181321
650.093	0.0182260
650.171	0.0182131
650.249	0.0181928
650.328	0.0182957
650.406	0.0182184
650.484	0.0182078
650.562	0.0180609
650.640	0.0182255
650.718	0.0181055
650.796	0.0181573
650.874	0.0182230
650.953	0.0181544
651.031	0.0181965
651.109	0.0182764
651.187	0.0181861
651.265	0.0180466
651.343	0.0181130
651.421	0.0182125
651.499	0.0181876
651.578	0.0182788
651.656	0.0181660
651.734	0.0182130
651.812	0.0182306
651.890	0.0182821
651.968	0.0182395
652.046	0.0183180
652.124	0.0182746
652.203	0.0183173
652.281	0.0182189
652.359	0.0180785
652.437	0.0184322
652.515	0.0184077
652.593	0.0183429
652.671	0.0183700
652.749	0.0182485
652.828	0.0183971
652.906	0.0183521
652.984	0.0183887
653.062	0.0185596
653.140	0.0184373
653.218	0.0184402
653.296	0.0185094
653.374	0.0184097
653.453	0.0184089
653.531	0.0183796
653.609	0.0185564
653.687	0.0186002
653.765	0.0185168
653.843	0.0184853
653.921	0.0185986
653.999	0.0185573
654.078	0.0186349
654.156	0.0185473
654.234	0.0186528
654.312	0.0186689
654.390	0.0186218
654.468	0.0185980
654.546	0.0185591
654.624	0.0185549
654.703	0.0185606
654.781	0.0183968
654.859	0.0185137
654.937	0.0186214
655.015	0.0186076
655.093	0.0184212
655.171	0.0182361
655.249	0.0184753
655.328	0.0185018
655.406	0.0183851
655.484	0.0184682
655.562	0.0183274
655.640	0.0184552
655.718	0.0184069
655.796	0.0182994
655.874	0.0184618
655.953	0.0182671
656.031	0.0182428
656.109	0.0183837
656.187	0.0183807
656.265	0.0183920
656.343	0.0183574
656.421	0.0182802
656.499	0.0184801
656.578	0.0185207
656.656	0.0184103
656.734	0.0183262
656.812	0.0184600
656.890	0.0183673
656.968	0.0183046
657.046	0.0182951
657.124	0.0184102
657.203	0.0184755
657.281	0.0184519
657.359	0.0183411
657.437	0.0183491
657.515	0.0185424
657.593	0.0184718
657.671	0.0183852
657.749	0.0183405
657.828	0.0183442
657.906	0.0183317
657.984	0.0183067
658.062	0.0183642
658.140	0.0183092
658.218	0.0183242
658.296	0.0183811
658.374	0.0182725
658.453	0.0182062
658.531	0.0182151
658.609	0.0182724
658.687	0.0181802
658.765	0.0184061
658.843	0.0182636
658.921	0.0183083
658.999	0.0183235
659.078	0.0181313
659.156	0.0182429
659.234	0.0181841
659.312	0.0182761
659.390	0.0182671
659.468	0.0182651
659.546	0.0182034
659.624	0.0182392
659.703	0.0182471
659.781	0.0181858
659.859	0.0181459
659.937	0.0182381
660.015	0.0182489
660.093	0.0181267
660.171	0.0181506
660.249	0.0182719
660.328	0.0182362
660.406	0.0181450
660.484	0.0181527
660.562	0.0182010
660.640	0.0181376
660.718	0.0181449
660.796	0.0182839
660.874	0.0182593
660.953	0.0181757
661.031	0.0182919
661.109	0.0181998
661.187	0.0179993
661.265	0.0181970
661.343	0.0180989
661.421	0.0182994
661.499	0.0181380
661.578	0.0181047
661.656	0.0182959
661.734	0.0180946
661.812	0.0181825
661.890	0.0182516
661.968	0.0182708
662.046	0.0180975
662.124	0.0181485
662.203	0.0182067
662.281	0.0183097
662.359	0.0182905
662.437	0.0183262
662.515	0.0181785
662.593	0.0183309
662.671	0.0181279
662.749	0.0181923
662.828	0.0182106
662.906	0.0182419
662.984	0.0180917
663.062	0.0181091
663.140	0.0180121
663.218	0.0181994
663.296	0.0182287
663.374	0.0182456
663.453	0.0181718
663.531	0.0183407
663.609	0.0180162
663.687	0.0180982
663.765	0.0183317
663.843	0.0181088
663.921	0.0180626
663.999	0.0181592
664.078	0.0182431
664.156	0.0180933
664.234	0.0180862
664.312	0.0180523
664.390	0.0181468
664.468	0.0181223
664.546	0.0180791
664.624	0.0181308
664.703	0.0180574
664.781	0.0181599
664.859	0.0180125
664.937	0.0180872
665.015	0.0181084
665.093	0.0181406
665.171	0.0180313
665.249	0.0180823
665.328	0.0180744
665.406	0.0181490
665.484	0.0181739
665.562	0.0180641
665.640	0.0180801
665.718	0.0180863
665.796	0.0181166
665.874	0.0180656
665.953	0.0180308
666.031	0.0182323
666.109	0.0180401
666.187	0.0181382
666.265	0.0181158
666.343	0.0181914
666.421	0.0182297
666.499	0.0181894
666.578	0.0182983
666.656	0.0181673
666.734	0.0182219
666.812	0.0180790
666.890	0.0181853
666.968	0.0181978
667.046	0.0182967
667.124	0.0183150
667.203	0.0182887
667.281	0.0180901
667.359	0.0182383
667.437	0.0182008
667.515	0.0182014
667.593	0.0182698
667.671	0.0182076
667.749	0.0181081
667.828	0.0182113
667.906	0.0182877
667.984	0.0181069
668.062	0.0180952
668.140	0.0182987
668.218	0.0182922
668.296	0.0181689
668.374	0.0181827
668.453	0.0181932
668.531	0.0182488
668.609	0.0182845
668.687	0.0181821
668.765	0.0182423
668.843	0.0183031
668.921	0.0181012
668.999	0.0181944
669.078	0.0181827
669.156	0.0181779
669.234	0.0180798
669.312	0.0181602
669.390	0.0181796
669.468	0.0180753
669.546	0.0181686
669.624	0.0181290
669.703	0.0182725
669.781	0.0181840
669.859	0.0181364
669.937	0.0180567
670.015	0.0181712
670.093	0.0181264
670.171	0.0180463
670.249	0.0180465
670.328	0.0182144
670.406	0.0181573
670.484	0.0181609
670.562	0.0180179
670.640	0.0181071
670.718	0.0181477
670.796	0.0180650
670.874	0.0181328
670.953	0.0181609
671.031	0.0180206
671.109	0.0181940
671.187	0.0180455
671.265	0.0180571
671.343	0.0180358
671.421	0.0179305
671.499	0.0180500
671.578	0.0180083
671.656	0.0180915
671.734	0.0180441
671.812	0.0180533
671.890	0.0180165
671.968	0.0180372
672.046	0.0179749
672.124	0.0180598
672.203	0.0179886
672.281	0.0179078
672.359	0.0180177
672.437	0.0179858
672.515	0.0179184
672.593	0.0180794
672.671	0.0178756
672.749	0.0179805
672.828	0.0180636
672.906	0.0180726
672.984	0.0179777
673.062	0.0180624
673.140	0.0180802
673.218	0.0181464
673.296	0.0180502
673.374	0.0180325
673.453	0.0179696
673.531	0.0181566
673.609	0.0180724
673.687	0.0178381
673.765	0.0181537
673.843	0.0182419
673.921	0.0180865
673.999	0.0181600
674.078	0.0180272
674.156	0.0180111
674.234	0.0181000
674.312	0.0180877
674.390	0.0180340
674.468	0.0182047
674.546	0.0180844
674.624	0.0182261
674.703	0.0181392
674.781	0.0181580
674.859	0.0181954
674.937	0.0181197
675.015	0.0182284
675.093	0.0181709
675.171	0.0181479
675.249	0.0181923
675.328	0.0181185
675.406	0.0181766
675.484	0.0180863
675.562	0.0181837
675.640	0.0182409
675.718	0.0180964
675.796	0.0180923
675.874	0.0181628
675.953	0.0183485
676.031	0.0181358
676.109	0.0181331
676.187	0.0181463
676.265	0.0180530
676.343	0.0182168
676.421	0.0182265
676.499	0.0181545
676.578	0.0181190
676.656	0.0180981
676.734	0.0182842
676.812	0.0182508
676.890	0.0182798
676.968	0.0183364
677.046	0.0181198
677.124	0.0182661
677.203	0.0181739
677.281	0.0180470
677.359	0.0180669
677.437	0.0182189
677.515	0.0182395
677.593	0.0183686
677.671	0.0182085
677.749	0.0181725
677.828	0.0184100
677.906	0.0182568
677.984	0.0182275
678.062	0.0183961
678.140	0.0182810
678.218	0.0182434
678.296	0.0182207
678.374	0.0183158
678.453	0.0182618
678.531	0.0183047
678.609	0.0182934
678.687	0.0183510
678.765	0.0182061
678.843	0.0183174
678.921	0.0183050
678.999	0.0184050
679.078	0.0182409
679.156	0.0182754
679.234	0.0181966
679.312	0.0182545
679.390	0.0183657
679.468	0.0183318
679.546	0.0181979
679.624	0.0182433
679.703	0.0183705
679.781	0.0183904
679.859	0.0183525
679.937	0.0182864
680.015	0.0183270
680.093	0.0182864
680.171	0.0183373
680.249	0.0183789
680.328	0.0183298
680.406	0.0181421
680.484	0.0182265
680.562	0.0182515
680.640	0.0183154
680.718	0.0182866
680.796	0.0183805
680.874	0.0181352
680.953	0.0183163
681.031	0.0184345
681.109	0.0182995
681.187	0.0182021
681.265	0.0182436
681.343	0.0183992
681.421	0.0184293
681.499	0.0182912
681.578	0.0182902
681.656	0.0183469
681.734	0.0184583
681.812	0.0183128
681.890	0.0183090
681.968	0.0183514
682.046	0.0183887
682.124	0.0183265
682.203	0.0183989
682.281	0.0182611
682.359	0.0182722
682.437	0.0183189
682.515	0.0183260
682.593	0.0183331
682.671	0.0183685
682.749	0.0183768
682.828	0.0184875
682.906	0.0182121
682.984	0.0183533
683.062	0.0183680
683.140	0.0182674
683.218	0.0182488
683.296	0.0183662
683.374	0.0182709
683.453	0.0183348
683.531	0.0181876
683.609	0.0181663
683.687	0.0181939
683.765	0.0182920
683.843	0.0182219
683.921	0.0181602
683.999	0.0181828
684.078	0.0181872
684.156	0.0182325
684.234	0.0181904
684.312	0.0181891
684.390	0.0181884
684.468	0.0184224
684.546	0.0181906
684.624	0.0181896
684.703	0.0181449
684.781	0.0181590
684.859	0.0182160
684.937	0.0182007
685.015	0.0181128
685.093	0.0181093
685.171	0.0181081
685.249	0.0182277
685.328	0.0182272
685.406	0.0181107
685.484	0.0181684
685.562	0.0181095
685.640	0.0180746
685.718	0.0181036
685.796	0.0181842
685.874	0.0182550
685.953	0.0181860
686.031	0.0181009
686.109	0.0182037
686.187	0.0183047
686.265	0.0182098
686.343	0.0181170
686.421	0.0181725
686.499	0.0181279
686.578	0.0180837
686.656	0.0182426
686.734	0.0182224
686.812	0.0181410
686.890	0.0181572
686.968	0.0181654
687.046	0.0182491
687.124	0.0182543
687.203	0.0181676
687.281	0.0181636
687.359	0.0182920
687.437	0.0181527
687.515	0.0182489
687.593	0.0182007
687.671	0.0181731
687.749	0.0182787
687.828	0.0181776
687.906	0.0181474
687.984	0.0182539
688.062	0.0182953
688.140	0.0181869
688.218	0.0181357
688.296	0.0182555
688.374	0.0182047
688.453	0.0181603
688.531	0.0184372
688.609	0.0182905
688.687	0.0182566
688.765	0.0182913
688.843	0.0182135
688.921	0.0182780
688.999	0.0183979
689.078	0.0183165
689.156	0.0183097
689.234	0.0181766
689.312	0.0181613
689.390	0.0182647
689.468	0.0181738
689.546	0.0182903
689.624	0.0182490
689.703	0.0182522
689.781	0.0182697
689.859	0.0183040
689.937	0.0181073
690.015	0.0182725
690.093	0.0182202
690.171	0.0182162
690.249	0.0181121
690.328	0.0181075
690.406	0.0183243
690.484	0.0182542
690.562	0.0181779
690.640	0.0181647
690.718	0.0180975
690.796	0.0181785
690.874	0.0181129
690.953	0.0180640
691.031	0.0183498
691.109	0.0181838
691.187	0.0180756
691.265	0.0181451
691.343	0.0180430
691.421	0.0182172
691.499	0.0182015
691.578	0.0180956
691.656	0.0180310
691.734	0.0181585
691.812	0.0182262
691.890	0.0181435
691.968	0.0182217
692.046	0.0182086
692.124	0.0181444
692.203	0.0181728
692.281	0.0182909
692.359	0.0181976
692.437	0.0180672
692.515	0.0182153
692.593	0.0182978
692.671	0.0181790
692.749	0.0182687
692.828	0.0182462
692.906	0.0181398
692.984	0.0181247
693.062	0.0182704
693.140	0.0180718
693.218	0.0180327
693.296	0.0181126
693.374	0.0181097
693.453	0.0181516
693.531	0.0179143
693.609	0.0180431
693.687	0.0179401
693.765	0.0181490
693.843	0.0181039
693.921	0.0179945
693.999	0.0179652
694.078	0.0179521
694.156	0.0180489
694.234	0.0180470
694.312	0.0180116
694.390	0.0180466
694.468	0.0180584
694.546	0.0180417
694.624	0.0180268
694.703	0.0180770
694.781	0.0180336
694.859	0.0179782
694.937	0.0179153
695.015	0.0178665
695.093	0.0179289
695.171	0.0179807
695.249	0.0180651
695.328	0.0181225
695.406	0.0180180
695.484	0.0180811
695.562	0.0181905
695.640	0.0179714
695.718	0.0180262
695.796	0.0181152
695.874	0.0180067
695.953	0.0180558
696.031	0.0181278
696.109	0.0180182
696.187	0.0179734
696.265	0.0181496
696.343	0.0180716
696.421	0.0179401
696.499	0.0181076
696.578	0.0180418
696.656	0.0180266
696.734	0.0179675
696.812	0.0180093
696.890	0.0180347
696.968	0.0180511
697.046	0.0180473
697.124	0.0179427
697.203	0.0179898
697.281	0.0181129
697.359	0.0180368
697.437	0.0179746
697.515	0.0180036
697.593	0.0181097
697.671	0.0180759
697.749	0.0179347
697.828	0.0181190
697.906	0.0180115
697.984	0.0179118
698.062	0.0179995
698.140	0.0178969
698.218	0.0180470
698.296	0.0182155
698.374	0.0181790
698.453	0.0180861
698.531	0.0180839
698.609	0.0179060
698.687	0.0179727
698.765	0.0180044
698.843	0.0180186
698.921	0.0180239
698.999	0.0180693
699.078	0.0180888
699.156	0.0181337
699.234	0.0181763
699.312	0.0181619
699.390	0.0180319
699.468	0.0179851
699.546	0.0180166
699.624	0.0180593
699.703	0.0181884
699.781	0.0181117
699.859	0.0181203
699.937	0.0182052
700.015	0.0180366
700.093	0.0180721
700.171	0.0180836
700.249	0.0179964
700.328	0.0179801
700.406	0.0180633
700.484	0.0181332
700.562	0.0180868
700.640	0.0180760
700.718	0.0181619
700.796	0.0181007
700.874	0.0182050
700.953	0.0182146
701.031	0.0182597
701.109	0.0182582
701.187	0.0181220
701.265	0.0182775
701.343	0.0182571
701.421	0.0183396
701.499	0.0183014
701.578	0.0182535
701.656	0.0180731
701.734	0.0182537
701.812	0.0181228
701.890	0.0181760
701.968	0.0182079
702.046	0.0182730
702.124	0.0182372
702.203	0.0181885
702.281	0.0181833
702.359	0.0180878
702.437	0.0181956
702.515	0.0182375
702.593	0.0181423
702.671	0.0180198
702.749	0.0181572
702.828	0.0178986
702.906	0.0179604
702.984	0.0179887
703.062	0.0179990
703.140	0.0179932
703.218	0.0180248
703.296	0.0180166
703.374	0.0180694
703.453	0.0181601
703.531	0.0181689
703.609	0.0181339
703.687	0.0181314
703.765	0.0181794
703.843	0.0181201
703.921	0.0181251
703.999	0.0181642
704.078	0.0180637
704.156	0.0182572
704.234	0.0181310
704.312	0.0181232
704.390	0.0182851
704.468	0.0181207
704.546	0.0181097
704.624	0.0182222
704.703	0.0182726
704.781	0.0182690
704.859	0.0181481
704.937	0.0182210
705.015	0.0183129
705.093	0.0182761
705.171	0.0183464
705.249	0.0183211
705.328	0.0183036
705.406	0.0182458
705.484	0.0183876
705.562	0.0183543
705.640	0.0183228
705.718	0.0183121
705.796	0.0183243
705.874	0.0183709
705.953	0.0183010
706.031	0.0183547
706.109	0.0184618
706.187	0.0184697
706.265	0.0183936
706.343	0.0184306
706.421	0.0183195
706.499	0.0184126
706.578	0.0183028
706.656	0.0183697
706.734	0.0184113
706.812	0.0184992
706.890	0.0182977
706.968	0.0183733
707.046	0.0185323
707.124	0.0182121
707.203	0.0184631
707.281	0.0185260
707.359	0.0184834
707.437	0.0184452
707.515	0.0183898
707.593	0.0183214
707.671	0.0182158
707.749	0.0184313
707.828	0.0183116
707.906	0.0185513
707.984	0.0184874
708.062	0.0183221
708.140	0.0184244
708.218	0.0183398
708.296	0.0182690
708.374	0.0183759
708.453	0.0182581
708.531	0.0184003
708.609	0.0184306
708.687	0.0184512
708.765	0.0183815
708.843	0.0183736
708.921	0.0184303
708.999	0.0183707
709.078	0.0184308
709.156	0.0183174
709.234	0.0183170
709.312	0.0183358
709.390	0.0184065
709.468	0.0183160
709.546	0.0183564
709.624	0.0184785
709.703	0.0184251
709.781	0.0184564
709.859	0.0182630
709.937	0.0184117
710.015	0.0182812
710.093	0.0184054
710.171	0.0183608
710.249	0.0183790
710.328	0.0183064
710.406	0.0183559
710.484	0.0183923
710.562	0.0183818
710.640	0.0183248
710.718	0.0183076
710.796	0.0184717
710.874	0.0184547
710.953	0.0182625
711.031	0.0182763
711.109	0.0181757
711.187	0.0182119
711.265	0.0183154
711.343	0.0182067
711.421	0.0183605
711.499	0.0183524
711.578	0.0182592
711.656	0.0182226
711.734	0.0181992
711.812	0.0183669
711.890	0.0182148
711.968	0.0182721
712.046	0.0184279
712.124	0.0183673
712.203	0.0183759
712.281	0.0182432
712.359	0.0184386
712.437	0.0183878
712.515	0.0183243
712.593	0.0181985
712.671	0.0182173
712.749	0.0184038
712.828	0.0184495
712.906	0.0183791
712.984	0.0185501
713.062	0.0184798
713.140	0.0183727
713.218	0.0183145
713.296	0.0183649
713.374	0.0184427
713.453	0.0182938
713.531	0.0182760
713.609	0.0184003
713.687	0.0184737
713.765	0.0182585
713.843	0.0183087
713.921	0.0183366
713.999	0.0183769
714.078	0.0182091
714.156	0.0182684
714.234	0.0183910
714.312	0.0183295
714.390	0.0183372
714.468	0.0182512
714.546	0.0181828
714.624	0.0182955
714.703	0.0184051
714.781	0.0184434
714.859	0.0181246
714.937	0.0181815
715.015	0.0181146
715.093	0.0181737
715.171	0.0182809
715.249	0.0181750
715.328	0.0182747
715.406	0.0182600
715.484	0.0180984
715.562	0.0181730
715.640	0.0181746
715.718	0.0181332
715.796	0.0182272
715.874	0.0181940
715.953	0.0181014
716.031	0.0180389
716.109	0.0181169
716.187	0.0180558
716.265	0.0181430
716.343	0.0181493
716.421	0.0181492
716.499	0.0181763
716.578	0.0182159
716.656	0.0181511
716.734	0.0182104
716.812	0.0181436
716.890	0.0182493
716.968	0.0181965
717.046	0.0181970
717.124	0.0181713
717.203	0.0181997
717.281	0.0182718
717.359	0.0180552
717.437	0.0181580
717.515	0.0181505
717.593	0.0181770
717.671	0.0181467
717.749	0.0180514
717.828	0.0181454
717.906	0.0180621
717.984	0.0180688
718.062	0.0179465
718.140	0.0179919
718.218	0.0180930
718.296	0.0178410
718.374	0.0180055
718.453	0.0180251
718.531	0.0182499
718.609	0.0179667
718.687	0.0178271
718.765	0.0180494
718.843	0.0179681
718.921	0.0179553
718.999	0.0179519
719.078	0.0179494
719.156	0.0180181
719.234	0.0179095
719.312	0.0179951
719.390	0.0179101
719.468	0.0179299
719.546	0.0180328
719.624	0.0179996
719.703	0.0179859
719.781	0.0180461
719.859	0.0178760
719.937	0.0179715
720.015	0.0179779
720.093	0.0179022
720.171	0.0180163
720.249	0.0180829
720.328	0.0180463
720.406	0.0178932
720.484	0.0179456
720.562	0.0179341
720.640	0.0179373
720.718	0.0180879
720.796	0.0178749
720.874	0.0179083
720.953	0.0179816
721.031	0.0179169
721.109	0.0180396
721.187	0.0178512
721.265	0.0178011
721.343	0.0178880
721.421	0.0177981
721.499	0.0178926
721.578	0.0178565
721.656	0.0178483
721.734	0.0178092
721.812	0.0178706
721.890	0.0178479
721.968	0.0178040
722.046	0.0178575
722.124	0.0177042
722.203	0.0179190
722.281	0.0180760
722.359	0.0179766
722.437	0.0179800
722.515	0.0180280
722.593	0.0180155
722.671	0.0180438
722.749	0.0180191
722.828	0.0181025
722.906	0.0181026
722.984	0.0182571
723.062	0.0181679
723.140	0.0181588
723.218	0.0180934
723.296	0.0181471
723.374	0.0183228
723.453	0.0182240
723.531	0.0181971
723.609	0.0182932
723.687	0.0181856
723.765	0.0181277
723.843	0.0182884
723.921	0.0182498
723.999	0.0182631
724.078	0.0182758
724.156	0.0182408
724.234	0.0183394
724.312	0.0183254
724.390	0.0183580
724.468	0.0182791
724.546	0.0182856
724.624	0.0182794
724.703	0.0183098
724.781	0.0182801
724.859	0.0183057
724.937	0.0182835
725.015	0.0183465
725.093	0.0181071
725.171	0.0181385
725.249	0.0182558
725.328	0.0181842
725.406	0.0183018
725.484	0.0183138
725.562	0.0181837
725.640	0.0181217
725.718	0.0181799
725.796	0.0182486
725.874	0.0181886
725.953	0.0183025
726.031	0.0182507
726.109	0.0180088
726.187	0.0180673
726.265	0.0182011
726.343	0.0181587
726.421	0.0182258
726.499	0.0181967
726.578	0.0182356
726.656	0.0181432
726.734	0.0179471
726.812	0.0181285
726.890	0.0183041
726.968	0.0180842
727.046	0.0180238
727.124	0.0181380
727.203	0.0180745
727.281	0.0180212
727.359	0.0180087
727.437	0.0180414
727.515	0.0181087
727.593	0.0181841
727.671	0.0181896
727.749	0.0181499
727.828	0.0182428
727.906	0.0181186
727.984	0.0181940
728.062	0.0182398
728.140	0.0182555
728.218	0.0183887
728.296	0.0182512
728.374	0.0183534
728.453	0.0183067
728.531	0.0181641
728.609	0.0183537
728.687	0.0184412
728.765	0.0182654
728.843	0.0183292
728.921	0.0184117
728.999	0.0182268
729.078	0.0183694
729.156	0.0184045
729.234	0.0182610
729.312	0.0182987
729.390	0.0184004
729.468	0.0183006
729.546	0.0183145
729.624	0.0183917
729.703	0.0182961
729.781	0.0182845
729.859	0.0183083
729.937	0.0184072
730.015	0.0182796
730.093	0.0182652
730.171	0.0184102
730.249	0.0183419
730.328	0.0182643
730.406	0.0184532
730.484	0.0183551
730.562	0.0183033
730.640	0.0184656
730.718	0.0183909
730.796	0.0183572
730.874	0.0184087
730.953	0.0183937
731.031	0.0183284
731.109	0.0183537
731.187	0.0184660
731.265	0.0183485
731.343	0.0185114
731.421	0.0183837
731.499	0.0184716
731.578	0.0185287
731.656	0.0184648
731.734	0.0183487
731.812	0.0184005
731.890	0.0185072
731.968	0.0184955
732.046	0.0184237
732.124	0.0184820
732.203	0.0184322
732.281	0.0182650
732.359	0.0183793
732.437	0.0184328
732.515	0.0183485
732.593	0.0183199
732.671	0.0182376
732.749	0.0182329
732.828	0.0182079
732.906	0.0182571
732.984	0.0182178
733.062	0.0182106
733.140	0.0182764
733.218	0.0183256
733.296	0.0181824
733.374	0.0182004
733.453	0.0182755
733.531	0.0182275
733.609	0.0181837
733.687	0.0181657
733.765	0.0181664
733.843	0.0181291
733.921	0.0180431
733.999	0.0182334
734.078	0.0182966
734.156	0.0181820
734.234	0.0181559
734.312	0.0181557
734.390	0.0181510
734.468	0.0181590
734.546	0.0181565
734.624	0.0181393
734.703	0.0180968
734.781	0.0182016
734.859	0.0181660
734.937	0.0180977
735.015	0.0181660
735.093	0.0180788
735.171	0.0180925
735.249	0.0181393
735.328	0.0181612
735.406	0.0181178
735.484	0.0183662
735.562	0.0182456
735.640	0.0182447
735.718	0.0182993
735.796	0.0181662
735.874	0.0182461
735.953	0.0183260
736.031	0.0181588
736.109	0.0181796
736.187	0.0181802
736.265	0.0181608
736.343	0.0182627
736.421	0.0182839
736.499	0.0181776
736.578	0.0181814
736.656	0.0181864
736.734	0.0183092
736.812	0.0181391
736.890	0.0181218
736.968	0.0181249
737.046	0.0181283
737.124	0.0181295
737.203	0.0180397
737.281	0.0181564
737.359	0.0181529
737.437	0.0181519
737.515	0.0181618
737.593	0.0182863
737.671	0.0181866
737.749	0.0180975
737.828	0.0182137
737.906	0.0180978
737.984	0.0180499
738.062	0.0181877
738.140	0.0181079
738.218	0.0179855
738.296	0.0181805
738.374	0.0181839
738.453	0.0180655
738.531	0.0181136
738.609	0.0180985
738.687	0.0179966
738.765	0.0181330
738.843	0.0182252
738.921	0.0181640
738.999	0.0181363
739.078	0.0181409
739.156	0.0183109
739.234	0.0181291
739.312	0.0182534
739.390	0.0183681
739.468	0.0181510
739.546	0.0179998
739.624	0.0181162
739.703	0.0181394
739.781	0.0182034
739.859	0.0180707
739.937	0.0180989
740.015	0.0181891
740.093	0.0182178
740.171	0.0180096
740.249	0.0181850
740.328	0.0180314
740.406	0.0181638
740.484	0.0181155
740.562	0.0181829
740.640	0.0181215
740.718	0.0181110
740.796	0.0181066
740.874	0.0181200
740.953	0.0181933
741.031	0.0180354
741.109	0.0181461
741.187	0.0180428
741.265	0.0180960
741.343	0.0180830
741.421	0.0182056
741.499	0.0182492
741.578	0.0180697
741.656	0.0180353
741.734	0.0179940
741.812	0.0180733
741.890	0.0179905
741.968	0.0179740
742.046	0.0179517
742.124	0.0179723
742.203	0.0178545
742.281	0.0180048
742.359	0.0181311
742.437	0.0181102
742.515	0.0179066
742.593	0.0179517
742.671	0.0178310
742.749	0.0179555
742.828	0.0180805
742.906	0.0179739
742.984	0.0179812
743.062	0.0179604
743.140	0.0179164
743.218	0.0180370
743.296	0.0178298
743.374	0.0179301
743.453	0.0179243
743.531	0.0180153
743.609	0.0178825
743.687	0.0178869
743.765	0.0179534
743.843	0.0179183
743.921	0.0180070
743.999	0.0179777
744.078	0.0176727
744.156	0.0178229
744.234	0.0179224
744.312	0.0178808
744.390	0.0178398
744.468	0.0178687
744.546	0.0178218
744.624	0.0179165
744.703	0.0178835
744.781	0.0179414
744.859	0.0178474
744.937	0.0179015
745.015	0.0179802
745.093	0.0179411
745.171	0.0180376
745.249	0.0180285
745.328	0.0179957
745.406	0.0180578
745.484	0.0179848
745.562	0.0180366
745.640	0.0179718
745.718	0.0180892
745.796	0.0180717
745.874	0.0181238
745.953	0.0180445
746.031	0.0179900
746.109	0.0181532
746.187	0.0180638
746.265	0.0181059
746.343	0.0183416
746.421	0.0183539
746.499	0.0181451
746.578	0.0181145
746.656	0.0181264
746.734	0.0180617
746.812	0.0182492
746.890	0.0183386
746.968	0.0182261
747.046	0.0182067
747.124	0.0183010
747.203	0.0182637
747.281	0.0180997
747.359	0.0181332
747.437	0.0184039
747.515	0.0182425
747.593	0.0182579
747.671	0.0181953
747.749	0.0182290
747.828	0.0181986
747.906	0.0181614
747.984	0.0180704
748.062	0.0181777
748.140	0.0181124
748.218	0.0182388
748.296	0.0181045
748.374	0.0182060
748.453	0.0180350
748.531	0.0181285
748.609	0.0182591
748.687	0.0181622
748.765	0.0182231
748.843	0.0181841
748.921	0.0182322
748.999	0.0182958
749.078	0.0182597
749.156	0.0182693
749.234	0.0183070
749.312	0.0183528
749.390	0.0181581
749.468	0.0181795
749.546	0.0182778
749.624	0.0183466
749.703	0.0183368
749.781	0.0182735
749.859	0.0181096
749.937	0.0182181
750.015	0.0182842
750.093	0.0182701
750.171	0.0182777
750.249	0.0182734
750.328	0.0183648
750.406	0.0182628
750.484	0.0183144
750.562	0.0182584
750.640	0.0183128
750.718	0.0181947
750.796	0.0183612
750.874	0.0183953
750.953	0.0182169
751.031	0.0181926
751.109	0.0182325
751.187	0.0183421
751.265	0.0182554
751.343	0.0182433
751.421	0.0181957
751.499	0.0182306
751.578	0.0181033
751.656	0.0181800
751.734	0.0182357
751.812	0.0182110
751.890	0.0180759
751.968	0.0180811
752.046	0.0182348
752.124	0.0182658
752.203	0.0181763
752.281	0.0181402
752.359	0.0182418
752.437	0.0180482
752.515	0.0181202
752.593	0.0180925
752.671	0.0181715
752.749	0.0182217
752.828	0.0180864
752.906	0.0181644
752.984	0.0182131
753.062	0.0182647
753.140	0.0181387
753.218	0.0182887
753.296	0.0181693
753.374	0.0181789
753.453	0.0182905
753.531	0.0181435
753.609	0.0181483
753.687	0.0182509
753.765	0.0181952
753.843	0.0181245
753.921	0.0181576
753.999	0.0183198
754.078	0.0182422
754.156	0.0183394
754.234	0.0183764
754.312	0.0183649
754.390	0.0182351
754.468	0.0182727
754.546	0.0183660
754.624	0.0182796
754.703	0.0182758
754.781	0.0183826
754.859	0.0181987
754.937	0.0183186
755.015	0.0182562
755.093	0.0182806
755.171	0.0183756
755.249	0.0184684
755.328	0.0184238
755.406	0.0183465
755.484	0.0185152
755.562	0.0182188
755.640	0.0183901
755.718	0.0182534
755.796	0.0182490
755.874	0.0183516
755.953	0.0182572
756.031	0.0182304
756.109	0.0181824
756.187	0.0182686
756.265	0.0182340
756.343	0.0183511
756.421	0.0182341
756.499	0.0182384
756.578	0.0182278
756.656	0.0181418
756.734	0.0181738
756.812	0.0181198
756.890	0.0183205
756.968	0.0181120
757.046	0.0181170
757.124	0.0182528
757.203	0.0182318
757.281	0.0182078
757.359	0.0180936
757.437	0.0182043
757.515	0.0182305
757.593	0.0182185
757.671	0.0182832
757.749	0.0182700
757.828	0.0181600
757.906	0.0183475
757.984	0.0182410
758.062	0.0181235
758.140	0.0182839
758.218	0.0182728
758.296	0.0181741
758.374	0.0182446
758.453	0.0181322
758.531	0.0181771
758.609	0.0181742
758.687	0.0181576
758.765	0.0181557
758.843	0.0181657
758.921	0.0182104
758.999	0.0181461
759.078	0.0181178
759.156	0.0180746
759.234	0.0181179
759.312	0.0180301
759.390	0.0182902
759.468	0.0182397
759.546	0.0180968
759.624	0.0180431
759.703	0.0179792
759.781	0.0181848
759.859	0.0180386
759.937	0.0181225
760.015	0.0179930
760.093	0.0180154
760.171	0.0179147
760.249	0.0179982
760.328	0.0180107
760.406	0.0180363
760.484	0.0179461
760.562	0.0180318
760.640	0.0181012
760.718	0.0179630
760.796	0.0180173
760.874	0.0178756
760.953	0.0180466
761.031	0.0179494
761.109	0.0179104
761.187	0.0179919
761.265	0.0179966
761.343	0.0181087
761.421	0.0180721
761.499	0.0180240
761.578	0.0178670
761.656	0.0181013
761.734	0.0179933
761.812	0.0179219
761.890	0.0180639
761.968	0.0179430
762.046	0.0179801
762.124	0.0180908
762.203	0.0181219
762.281	0.0179582
762.359	0.0179622
762.437	0.0181980
762.515	0.0180614
762.593	0.0179829
762.671	0.0180402
762.749	0.0180467
762.828	0.0179646
762.906	0.0180154
762.984	0.0179983
763.062	0.0180020
763.140	0.0178246
763.218	0.0179752
763.296	0.0180905
763.374	0.0180302
763.453	0.0180290
763.531	0.0181131
763.609	0.0180561
763.687	0.0179063
763.765	0.0181666
763.843	0.0181483
763.921	0.0180511
763.999	0.0179546
764.078	0.0179807
764.156	0.0180283
764.234	0.0181670
764.312	0.0179565
764.390	0.0180582
764.468	0.0181770
764.546	0.0181564
764.624	0.0183109
764.703	0.0181153
764.781	0.0182323
764.859	0.0181937
764.937	0.0182940
765.015	0.0182105
765.093	0.0182391
765.171	0.0181136
765.249	0.0183353
765.328	0.0183022
765.406	0.0182240
765.484	0.0183760
765.562	0.0182613
765.640	0.0184161
765.718	0.0183136
765.796	0.0182403
765.874	0.0182551
765.953	0.0181303
766.031	0.0182679
766.109	0.0182481
766.187	0.0180451
766.265	0.0182100
766.343	0.0181279
766.421	0.0182004
766.499	0.0181406
766.578	0.0181225
766.656	0.0180802
766.734	0.0179642
766.812	0.0181870
766.890	0.0181857
766.968	0.0181104
767.046	0.0180711
767.124	0.0182620
767.203	0.0181967
767.281	0.0182397
767.359	0.0183257
767.437	0.0183722
767.515	0.0183218
767.593	0.0182015
767.671	0.0181927
767.749	0.0183767
767.828	0.0184789
767.906	0.0182738
767.984	0.0182655
768.062	0.0183293
768.140	0.0183433
768.218	0.0182880
768.296	0.0181763
768.374	0.0183819
768.453	0.0183021
768.531	0.0181760
768.609	0.0181537
768.687	0.0182301
768.765	0.0182928
768.843	0.0181252
768.921	0.0181239
768.999	0.0181745
769.078	0.0180640
769.156	0.0182642
769.234	0.0181926
769.312	0.0182696
769.390	0.0182035
769.468	0.0182464
769.546	0.0181488
769.624	0.0180996
769.703	0.0181671
769.781	0.0182191
769.859	0.0182381
769.937	0.0181901
770.015	0.0180530
770.093	0.0181863
770.171	0.0182381
770.249	0.0180538
770.328	0.0181518
770.406	0.0183146
770.484	0.0183014
770.562	0.0181950
770.640	0.0182584
770.718	0.0183067
770.796	0.0183705
770.874	0.0182248
770.953	0.0180994
771.031	0.0181929
771.109	0.0183015
771.187	0.0182946
771.265	0.0182087
771.343	0.0182957
771.421	0.0183195
771.499	0.0181624
771.578	0.0182483
771.656	0.0181519
771.734	0.0181558
771.812	0.0181284
771.890	0.0181087
771.968	0.0183085
772.046	0.0181583
772.124	0.0181823
772.203	0.0184296
772.281	0.0184283
772.359	0.0181544
772.437	0.0181239
772.515	0.0182862
772.593	0.0182859
772.671	0.0181558
772.749	0.0183114
772.828	0.0183722
772.906	0.0182938
772.984	0.0182319
773.062	0.0183363
773.140	0.0181780
773.218	0.0183067
773.296	0.0183681
773.374	0.0182883
773.453	0.0182351
773.531	0.0183221
773.609	0.0182074
773.687	0.0182514
773.765	0.0182255
773.843	0.0182156
773.921	0.0182278
773.999	0.0183176
774.078	0.0180759
774.156	0.0181670
774.234	0.0181992
774.312	0.0181162
774.390	0.0181332
774.468	0.0182368
774.546	0.0183312
774.624	0.0182099
774.703	0.0180544
774.781	0.0181846
774.859	0.0181283
774.937	0.0181372
775.015	0.0181284
775.093	0.0181963
775.171	0.0180326
775.249	0.0182309
775.328	0.0182613
775.406	0.0182901
775.484	0.0182209
775.562	0.0182751
775.640	0.0182111
775.718	0.0182207
775.796	0.0183693
775.874	0.0182658
775.953	0.0183066
776.031	0.0181657
776.109	0.0182922
776.187	0.0182753
776.265	0.0182170
776.343	0.0182471
776.421	0.0184447
776.499	0.0183080
776.578	0.0182809
776.656	0.0184031
776.734	0.0183620
776.812	0.0181697
776.890	0.0181942
776.968	0.0183543
777.046	0.0182262
777.124	0.0182641
777.203	0.0183413
777.281	0.0182841
777.359	0.0182645
777.437	0.0183724
777.515	0.0183109
777.593	0.0184497
777.671	0.0184106
777.749	0.0183926
777.828	0.0183480
777.906	0.0184472
777.984	0.0183694
778.062	0.0184083
778.140	0.0184148
778.218	0.0183847
778.296	0.0184219
778.374	0.0183212
778.453	0.0185044
778.531	0.0183864
778.609	0.0185196
778.687	0.0184695
778.765	0.0184224
778.843	0.0184669
778.921	0.0184079
778.999	0.0184357
779.078	0.0184718
779.156	0.0184234
779.234	0.0186681
779.312	0.0184390
779.390	0.0183141
779.468	0.0184371
779.546	0.0184393
779.624	0.0183491
779.703	0.0184042
779.781	0.0183260
779.859	0.0182644
779.937	0.0183939
780.015	0.0182407
780.093	0.0181880
780.171	0.0182344
780.249	0.0181170
780.328	0.0182930
780.406	0.0181418
780.484	0.0181519
780.562	0.0183439
780.640	0.0183477
780.718	0.0181737
780.796	0.0181123
780.874	0.0182217
780.953	0.0181773
781.031	0.0182567
781.109	0.0182941
781.187	0.0183044
781.265	0.0182503
781.343	0.0183115
781.421	0.0182772
781.499	0.0182653
781.578	0.0182407
781.656	0.0184145
781.734	0.0184017
781.812	0.0183480
781.890	0.0182563
781.968	0.0183049
782.046	0.0183806
782.124	0.0183028
782.203	0.0182848
782.281	0.0181385
782.359	0.0182695
782.437	0.0182817
782.515	0.0182671
782.593	0.0180949
782.671	0.0183154
782.749	0.0183257
782.828	0.0182275
782.906	0.0183201
782.984	0.0181680
783.062	0.0182267
783.140	0.0181675
783.218	0.0182337
783.296	0.0183044
783.374	0.0181500
783.453	0.0181082
783.531	0.0181709
783.609	0.0180955
783.687	0.0182214
783.765	0.0182278
783.843	0.0180397
783.921	0.0181625
783.999	0.0181637
784.078	0.0179494
784.156	0.0179791
784.234	0.0179936
784.312	0.0179453
784.390	0.0179833
784.468	0.0179868
784.546	0.0178680
784.624	0.0179654
784.703	0.0179938
784.781	0.0180115
784.859	0.0181356
784.937	0.0180038
785.015	0.0179316
785.093	0.0179806
785.171	0.0180283
785.249	0.0180700
785.328	0.0179302
785.406	0.0179957
785.484	0.0180008
785.562	0.0180469
785.640	0.0180356
785.718	0.0178721
785.796	0.0180157
785.874	0.0179783
785.953	0.0179656
786.031	0.0179482
786.109	0.0178996
786.187	0.0178783
786.265	0.0180289
786.343	0.0179409
786.421	0.0180615
786.499	0.0180001
786.578	0.0179796
786.656	0.0179465
786.734	0.0178966
786.812	0.0181401
786.890	0.0181149
786.968	0.0182261
787.046	0.0181506
787.124	0.0181631
787.203	0.0180960
787.281	0.0181924
787.359	0.0182981
787.437	0.0181733
787.515	0.0183072
787.593	0.0183116
787.671	0.0184073
787.749	0.0183558
787.828	0.0183503
787.906	0.0183310
787.984	0.0184431
788.062	0.0184389
788.140	0.0183745
788.218	0.0184043
788.296	0.0183756
788.374	0.0183767
788.453	0.0182815
788.531	0.0182880
788.609	0.0183124
788.687	0.0183601
788.765	0.0182952
788.843	0.0184658
788.921	0.0183130
788.999	0.0183035
789.078	0.0183000
789.156	0.0183437
789.234	0.0183548
789.312	0.0183652
789.390	0.0184737
789.468	0.0183064
789.546	0.0184264
789.624	0.0183855
789.703	0.0183432
789.781	0.0183080
789.859	0.0184310
789.937	0.0183747
790.015	0.0184019
790.093	0.0183081
790.171	0.0182841
790.249	0.0184641
790.328	0.0183881
790.406	0.0183998
790.484	0.0183054
790.562	0.0184908
790.640	0.0183473
790.718	0.0182616
790.796	0.0185268
790.874	0.0184875
790.953	0.0182631
791.031	0.0183579
791.109	0.0182191
791.187	0.0183306
791.265	0.0182458
791.343	0.0183350
791.421	0.0183039
791.499	0.0181938
791.578	0.0183424
791.656	0.0182652
791.734	0.0184133
791.812	0.0182081
791.890	0.0182270
791.968	0.0182589
792.046	0.0182364
792.124	0.0182774
792.203	0.0182900
792.281	0.0184091
792.359	0.0183381
792.437	0.0183944
792.515	0.0183286
792.593	0.0183087
792.671	0.0182607
792.749	0.0181771
792.828	0.0183408
792.906	0.0184245
792.984	0.0183968
793.062	0.0182367
793.140	0.0183863
793.218	0.0183134
793.296	0.0181464
793.374	0.0181651
793.453	0.0181579
793.531	0.0183211
793.609	0.0183276
793.687	0.0182028
793.765	0.0181305
793.843	0.0182065
793.921	0.0182912
793.999	0.0182755
794.078	0.0181274
794.156	0.0182072
794.234	0.0183369
794.312	0.0183294
794.390	0.0180573
794.468	0.0183765
794.546	0.0184534
794.624	0.0182341
794.703	0.0181747
794.781	0.0181943
794.859	0.0182425
794.937	0.0181723
795.015	0.0181960
795.093	0.0182522
795.171	0.0181798
795.249	0.0182286
795.328	0.0181791
795.406	0.0182246
795.484	0.0181931
795.562	0.0181573
795.640	0.0182436
795.718	0.0180808
795.796	0.0181618
795.874	0.0180231
795.953	0.0180631
796.031	0.0181633
796.109	0.0180777
796.187	0.0178726
796.265	0.0179428
796.343	0.0180549
796.421	0.0179106
796.499	0.0179432
796.578	0.0180927
796.656	0.0182565
796.734	0.0182228
796.812	0.0181187
796.890	0.0181459
796.968	0.0181905
797.046	0.0183735
797.124	0.0183851
797.203	0.0183862
797.281	0.0182725
797.359	0.0183202
797.437	0.0183491
797.515	0.0183286
797.593	0.0183900
797.671	0.0183810
797.749	0.0182970
797.828	0.0182426
797.906	0.0183730
797.984	0.0183669
798.062	0.0182776
798.140	0.0181715
798.218	0.0182230
798.296	0.0182467
798.374	0.0181173
798.453	0.0181525
798.531	0.0181685
798.609	0.0180517
798.687	0.0182318
798.765	0.0181097
798.843	0.0181351
798.921	0.0183563
798.999	0.0181665
799.078	0.0181690
799.156	0.0182081
799.234	0.0181969
799.312	0.0182764
799.390	0.0183369
799.468	0.0183626
799.546	0.0182825
799.624	0.0184293
799.703	0.0182013
799.781	0.0180822
799.859	0.0183497
799.937	0.0184007
800.015	0.0184116
800.093	0.0183717
800.171	0.0182550
800.249	0.0182108
800.328	0.0181465
800.406	0.0181128
800.484	0.0181021
800.562	0.0182381
800.640	0.0181596
800.718	0.0181067
800.796	0.0182010
800.874	0.0179948
800.953	0.0180425
801.031	0.0180573
801.109	0.0180486
801.187	0.0180897
801.265	0.0181726
801.343	0.0179551
801.421	0.0181178
801.499	0.0182352
801.578	0.0182020
801.656	0.0181582
801.734	0.0181455
801.812	0.0181975
801.890	0.0180701
801.968	0.0180949
802.046	0.0181790
802.124	0.0181304
802.203	0.0181848
802.281	0.0182157
802.359	0.0182453
802.437	0.0181600
802.515	0.0181651
802.593	0.0180927
802.671	0.0181410
802.749	0.0181232
802.828	0.0180025
802.906	0.0180463
802.984	0.0180625
803.062	0.0180878
803.140	0.0181645
803.218	0.0181950
803.296	0.0180328
803.374	0.0181148
803.453	0.0180959
803.531	0.0180727
803.609	0.0180888
803.687	0.0180884
803.765	0.0180043
803.843	0.0181104
803.921	0.0180441
803.999	0.0180729
804.078	0.0180624
804.156	0.0180955
804.234	0.0181441
804.312	0.0181827
804.390	0.0181469
804.468	0.0181708
804.546	0.0182368
804.624	0.0181107
804.703	0.0182578
804.781	0.0183880
804.859	0.0183326
804.937	0.0181613
805.015	0.0181860
805.093	0.0182568
805.171	0.0182039
805.249	0.0181947
805.328	0.0182609
805.406	0.0183431
805.484	0.0181751
805.562	0.0181400
805.640	0.0181660
805.718	0.0182198
805.796	0.0182515
805.874	0.0182229
805.953	0.0180130
806.031	0.0180402
806.109	0.0181491
806.187	0.0181677
806.265	0.0181729
806.343	0.0180620
806.421	0.0180927
806.499	0.0182201
806.578	0.0181317
806.656	0.0179749
806.734	0.0180652
806.812	0.0180432
806.890	0.0179752
806.968	0.0180648
807.046	0.0180765
807.124	0.0179620
807.203	0.0181380
807.281	0.0180424
807.359	0.0181161
807.437	0.0181996
807.515	0.0182063
807.593	0.0181956
807.671	0.0181710
807.749	0.0181825
807.828	0.0180786
807.906	0.0180774
807.984	0.0181509
808.062	0.0180728
808.140	0.0180201
808.218	0.0180054
808.296	0.0179865
808.374	0.0181023
808.453	0.0181641
808.531	0.0179512
808.609	0.0181026
808.687	0.0182306
808.765	0.0181029
808.843	0.0180972
808.921	0.0180712
808.999	0.0180824
809.078	0.0180672
809.156	0.0180020
809.234	0.0183477
809.312	0.0181647
809.390	0.0181460
809.468	0.0181808
809.546	0.0182112
809.624	0.0181828
809.703	0.0182236
809.781	0.0181819
809.859	0.0182867
809.937	0.0180957
810.015	0.0182412
810.093	0.0181892
810.171	0.0180978
810.249	0.0179944
810.328	0.0182175
810.406	0.0181680
810.484	0.0180878
810.562	0.0181021
810.640	0.0182134
810.718	0.0181231
810.796	0.0182215
810.874	0.0181261
810.953	0.0182127
811.031	0.0180730
811.109	0.0181159
811.187	0.0181560
811.265	0.0180869
811.343	0.0181261
811.421	0.0181732
811.499	0.0182435
811.578	0.0181046
811.656	0.0182264
811.734	0.0181954
811.812	0.0181810
811.890	0.0182720
811.968	0.0182003
812.046	0.0181480
812.124	0.0181329
812.203	0.0182134
812.281	0.0182434
812.359	0.0182072
812.437	0.0182328
812.515	0.0181601
812.593	0.0181152
812.671	0.0182782
812.749	0.0182582
812.828	0.0182740
812.906	0.0181865
812.984	0.0182049
813.062	0.0182588
813.140	0.0181884
813.218	0.0184382
813.296	0.0184563
813.374	0.0181895
813.453	0.0184383
813.531	0.0183910
813.609	0.0184983
813.687	0.0182915
813.765	0.0183673
813.843	0.0183409
813.921	0.0183724
813.999	0.0185202
814.078	0.0184515
814.156	0.0184128
814.234	0.0183341
814.312	0.0183749
814.390	0.0184445
814.468	0.0183221
814.546	0.0183368
814.624	0.0183322
814.703	0.0183209
814.781	0.0183625
814.859	0.0183903
814.937	0.0182571
815.015	0.0183500
815.093	0.0183563
815.171	0.0183642
815.249	0.0182481
815.328	0.0182353
815.406	0.0180714
815.484	0.0181538
815.562	0.0182410
815.640	0.0181458
815.718	0.0182802
815.796	0.0181077
815.874	0.0181452
815.953	0.0181212
816.031	0.0181345
816.109	0.0179213
816.187	0.0180615
816.265	0.0183180
816.343	0.0180917
816.421	0.0180172
816.499	0.0181387
816.578	0.0180612
816.656	0.0180978
816.734	0.0181181
816.812	0.0182403
816.890	0.0181186
816.968	0.0182341
817.046	0.0180569
817.124	0.0181444
817.203	0.0181480
817.281	0.0181573
817.359	0.0181286
817.437	0.0182071
817.515	0.0182176
817.593	0.0183440
817.671	0.0180871
817.749	0.0183201
817.828	0.0180664
817.906	0.0182195
817.984	0.0183620
818.062	0.0181185
818.140	0.0180479
818.218	0.0182185
818.296	0.0183622
818.374	0.0181771
818.453	0.0181944
818.531	0.0182938
818.609	0.0181937
818.687	0.0181972
818.765	0.0180424
818.843	0.0181789
818.921	0.0182125
818.999	0.0182093
819.078	0.0181673
819.156	0.0181171
819.234	0.0180802
819.312	0.0180875
819.390	0.0180785
819.468	0.0180694
819.546	0.0180424
819.624	0.0181767
819.703	0.0181023
819.781	0.0179243
819.859	0.0181387
819.937	0.0181430
820.015	0.0181322
820.093	0.0181269
820.171	0.0182655
820.249	0.0183907
820.328	0.0181653
820.406	0.0182649
820.484	0.0181660
820.562	0.0181327
820.640	0.0182595
820.718	0.0183576
820.796	0.0183101
820.874	0.0182996
820.953	0.0182650
821.031	0.0183515
821.109	0.0182896
821.187	0.0182565
821.265	0.0183937
821.343	0.0184055
821.421	0.0181911
821.499	0.0182494
821.578	0.0182325
821.656	0.0182439
821.734	0.0182450
821.812	0.0182239
821.890	0.0181453
821.968	0.0182365
822.046	0.0181095
822.124	0.0183144
822.203	0.0183108
822.281	0.0182382
822.359	0.0181516
822.437	0.0181749
822.515	0.0182552
822.593	0.0182429
822.671	0.0183005
822.749	0.0184531
822.828	0.0182647
822.906	0.0182663
822.984	0.0183084
823.062	0.0182735
823.140	0.0182849
823.218	0.0182664
823.296	0.0182861
823.374	0.0182307
823.453	0.0183441
823.531	0.0182722
823.609	0.0182391
823.687	0.0183405
823.765	0.0182419
823.843	0.0181957
823.921	0.0182842
823.999	0.0183422
824.078	0.0183353
824.156	0.0183030
824.234	0.0183061
824.312	0.0184170
824.390	0.0184418
824.468	0.0183936
824.546	0.0183541
824.624	0.0183071
824.703	0.0183532
824.781	0.0183336
824.859	0.0183633
824.937	0.0182523
825.015	0.0183630
825.093	0.0182787
825.171	0.0182861
825.249	0.0183388
825.328	0.0180933
825.406	0.0181423
825.484	0.0181654
825.562	0.0184225
825.640	0.0181578
825.718	0.0182322
825.796	0.0182941
825.874	0.0182111
825.953	0.0182278
826.031	0.0181210
826.109	0.0181474
826.187	0.0181452
826.265	0.0181767
826.343	0.0181633
826.421	0.0181728
826.499	0.0180794
826.578	0.0180704
826.656	0.0178662
826.734	0.0180539
826.812	0.0180007
826.890	0.0179591
826.968	0.0178834
827.046	0.0180135
827.124	0.0179092
827.203	0.0179187
827.281	0.0179353
827.359	0.0179159
827.437	0.0179357
827.515	0.0179061
827.593	0.0176486
827.671	0.0177903
827.749	0.0177314
827.828	0.0178678
827.906	0.0179176
827.984	0.0178159
828.062	0.0178699
828.140	0.0177670
828.218	0.0177840
828.296	0.0177862
828.374	0.0178567
828.453	0.0179506
828.531	0.0179200
828.609	0.0178483
828.687	0.0179830
828.765	0.0178928
828.843	0.0178116
828.921	0.0179806
828.999	0.0181409
829.078	0.0178767
829.156	0.0180791
829.234	0.0181599
829.312	0.0181797
829.390	0.0180835
829.468	0.0181474
829.546	0.0181614
829.624	0.0181275
829.703	0.0181031
829.781	0.0180702
829.859	0.0181966
829.937	0.0182777
830.015	0.0181363
830.093	0.0181483
830.171	0.0182513
830.249	0.0182221
830.328	0.0182127
830.406	0.0181091
830.484	0.0181699
830.562	0.0181139
830.640	0.0180237
830.718	0.0180669
830.796	0.0179955
830.874	0.0180473
830.953	0.0181236
831.031	0.0182053
831.109	0.0181454
831.187	0.0180945
831.265	0.0180647
831.343	0.0179586
831.421	0.0180289
831.499	0.0179763
831.578	0.0179993
831.656	0.0181040
831.734	0.0179774
831.812	0.0180459
831.890	0.0180680
831.968	0.0180531
832.046	0.0182253
832.124	0.0181062
832.203	0.0182530
832.281	0.0182070
832.359	0.0181641
832.437	0.0181157
832.515	0.0182918
832.593	0.0183368
832.671	0.0182063
832.749	0.0183069
832.828	0.0181481
832.906	0.0182719
832.984	0.0182874
833.062	0.0181674
833.140	0.0183584
833.218	0.0182687
833.296	0.0182681
833.374	0.0181352
833.453	0.0181135
833.531	0.0182574
833.609	0.0183472
833.687	0.0181911
833.765	0.0183321
833.843	0.0183663
833.921	0.0184103
833.999	0.0181760
834.078	0.0181322
834.156	0.0182452
834.234	0.0181907
834.312	0.0181905
834.390	0.0181567
834.468	0.0181954
834.546	0.0180734
834.624	0.0182451
834.703	0.0182838
834.781	0.0181604
834.859	0.0181922
834.937	0.0180624
835.015	0.0181675
835.093	0.0181551
835.171	0.0180222
835.249	0.0180241
835.328	0.0181396
835.406	0.0181625
835.484	0.0180501
835.562	0.0179995
835.640	0.0180724
835.718	0.0179739
835.796	0.0182021
835.874	0.0180202
835.953	0.0180328
836.031	0.0179781
836.109	0.0179881
836.187	0.0180142
836.265	0.0180661
836.343	0.0180499
836.421	0.0180286
836.499	0.0181728
836.578	0.0180487
836.656	0.0180480
836.734	0.0181210
836.812	0.0180397
836.890	0.0179649
836.968	0.0180529
837.046	0.0181545
837.124	0.0181696
837.203	0.0182047
837.281	0.0181035
837.359	0.0180300
837.437	0.0180811
837.515	0.0181066
837.593	0.0181396
837.671	0.0181874
837.749	0.0182999
837.828	0.0181271
837.906	0.0182174
837.984	0.0183088
838.062	0.0182282
838.140	0.0181568
838.218	0.0182677
838.296	0.0181284
838.374	0.0180560
838.453	0.0182280
838.531	0.0181809
838.609	0.0182059
838.687	0.0182351
838.765	0.0181289
838.843	0.0181704
838.921	0.0180136
838.999	0.0180715
839.078	0.0181430
839.156	0.0182364
839.234	0.0181433
839.312	0.0180207
839.390	0.0181509
839.468	0.0181305
839.546	0.0179729
839.624	0.0181188
839.703	0.0181139
839.781	0.0180959
839.859	0.0179674
839.937	0.0181015
840.015	0.0181201
840.093	0.0180004
840.171	0.0180664
840.249	0.0180569
840.328	0.0179846
840.406	0.0180264
840.484	0.0180155
840.562	0.0180300
840.640	0.0181805
840.718	0.0181266
840.796	0.0179697
840.874	0.0181254
840.953	0.0181133
841.031	0.0180817
841.109	0.0181494
841.187	0.0181571
841.265	0.0181087
841.343	0.0180836
841.421	0.0181361
841.499	0.0182647
841.578	0.0182658
841.656	0.0181856
841.734	0.0181463
841.812	0.0183369
841.890	0.0181704
841.968	0.0182786
842.046	0.0183295
842.124	0.0182520
842.203	0.0183752
842.281	0.0183632
842.359	0.0183286
842.437	0.0184068
842.515	0.0183160
842.593	0.0182597
842.671	0.0182450
842.749	0.0183585
842.828	0.0184807
842.906	0.0184249
842.984	0.0184137
843.062	0.0183820
843.140	0.0183684
843.218	0.0183131
843.296	0.0182970
843.374	0.0184085
843.453	0.0184831
843.531	0.0184055
843.609	0.0182565
843.687	0.0182798
843.765	0.0182563
843.843	0.0183297
843.921	0.0183668
843.999	0.0182552
844.078	0.0185038
844.156	0.0184074
844.234	0.0181136
844.312	0.0182292
844.390	0.0183054
844.468	0.0181834
844.546	0.0182469
844.624	0.0182407
844.703	0.0183263
844.781	0.0182768
844.859	0.0183191
844.937	0.0183707
845.015	0.0185052
845.093	0.0184714
845.171	0.0184033
845.249	0.0182037
845.328	0.0183231
845.406	0.0182504
845.484	0.0182941
845.562	0.0181966
845.640	0.0182766
845.718	0.0182521
845.796	0.0180887
845.874	0.0182919
845.953	0.0181732
846.031	0.0182872
846.109	0.0182635
846.187	0.0183559
846.265	0.0181964
846.343	0.0182579
846.421	0.0183451
846.499	0.0181766
846.578	0.0181140
846.656	0.0181914
846.734	0.0182262
846.812	0.0181969
846.890	0.0183353
846.968	0.0183554
847.046	0.0184193
847.124	0.0183356
847.203	0.0183131
847.281	0.0183616
847.359	0.0183893
847.437	0.0183447
847.515	0.0183800
847.593	0.0184180
847.671	0.0183640
847.749	0.0183279
847.828	0.0183864
847.906	0.0183669
847.984	0.0182972
848.062	0.0185057
848.140	0.0183045
848.218	0.0184008
848.296	0.0183502
848.374	0.0183772
848.453	0.0183410
848.531	0.0183887
848.609	0.0183439
848.687	0.0183667
848.765	0.0183132
848.843	0.0183593
848.921	0.0182086
848.999	0.0182970
849.078	0.0181111
849.156	0.0182983
849.234	0.0183019
849.312	0.0182072
849.390	0.0181137
849.468	0.0181182
849.546	0.0181456
849.624	0.0182463
849.703	0.0181939
849.781	0.0180667
849.859	0.0181249
849.937	0.0181433
850.015	0.0180717
850.093	0.0181924
850.171	0.0181883
850.249	0.0181276
850.328	0.0180489
850.406	0.0180531
850.484	0.0181242
850.562	0.0181573
850.640	0.0182789
850.718	0.0183122
850.796	0.0182262
850.874	0.0181519
850.953	0.0182734
851.031	0.0182306
851.109	0.0180973
851.187	0.0181898
851.265	0.0181554
851.343	0.0181602
851.421	0.0182300
851.499	0.0181791
851.578	0.0181031
851.656	0.0180248
851.734	0.0181499
851.812	0.0180354
851.890	0.0179887
851.968	0.0179927
852.046	0.0181409
852.124	0.0180395
852.203	0.0180647
852.281	0.0180979
852.359	0.0180526
852.437	0.0179628
852.515	0.0181013
852.593	0.0181950
852.671	0.0180965
852.749	0.0181284
852.828	0.0180327
852.906	0.0180501
852.984	0.0182081
853.062	0.0180732
853.140	0.0181393
853.218	0.0181653
853.296	0.0180687
853.374	0.0181441
853.453	0.0182172
853.531	0.0180300
853.609	0.0181620
853.687	0.0181971
853.765	0.0182272
853.843	0.0182693
853.921	0.0180592
853.999	0.0181480
854.078	0.0182415
854.156	0.0181236
854.234	0.0179742
854.312	0.0180854
854.390	0.0182014
854.468	0.0182803
854.546	0.0181682
854.624	0.0181775
854.703	0.0182234
854.781	0.0180835
854.859	0.0181277
854.937	0.0181364
855.015	0.0181731
855.093	0.0181312
855.171	0.0181851
855.249	0.0181540
855.328	0.0183859
855.406	0.0181969
855.484	0.0181349
855.562	0.0183245
855.640	0.0182314
855.718	0.0182103
855.796	0.0183006
855.874	0.0182092
855.953	0.0182075
856.031	0.0182181
856.109	0.0182851
856.187	0.0183227
856.265	0.0182524
856.343	0.0182499
856.421	0.0181233
856.499	0.0181343
856.578	0.0182725
856.656	0.0182030
856.734	0.0182820
856.812	0.0182259
856.890	0.0181543
856.968	0.0180933
857.046	0.0181209
857.124	0.0181691
857.203	0.0181676
857.281	0.0181599
857.359	0.0180679
857.437	0.0181365
857.515	0.0181390
857.593	0.0181087
857.671	0.0181249
857.749	0.0180855
857.828	0.0181155
857.906	0.0180893
857.984	0.0180987
858.062	0.0180175
858.140	0.0179095
858.218	0.0180171
858.296	0.0179884
858.374	0.0180051
858.453	0.0180205
858.531	0.0180030
858.609	0.0180502
858.687	0.0179407
858.765	0.0179558
858.843	0.0179643
858.921	0.0180079
858.999	0.0179404
859.078	0.0180186
859.156	0.0177940
859.234	0.0178394
859.312	0.0178893
859.390	0.0180025
859.468	0.0177948
859.546	0.0179067
859.624	0.0178619
859.703	0.0178696
859.781	0.0177316
859.859	0.0178815
859.937	0.0179773
860.015	0.0178809
860.093	0.0178391
860.171	0.0178643
860.249	0.0180614
860.328	0.0178294
860.406	0.0178414
860.484	0.0179402
860.562	0.0178394
860.640	0.0178712
860.718	0.0179047
860.796	0.0180591
860.874	0.0180299
860.953	0.0179972
861.031	0.0181298
861.109	0.0180594
861.187	0.0181118
861.265	0.0181364
861.343	0.0181372
861.421	0.0180132
861.499	0.0181133
861.578	0.0180596
861.656	0.0179306
861.734	0.0180560
861.812	0.0181238
861.890	0.0180276
861.968	0.0179945
862.046	0.0181090
862.124	0.0181038
862.203	0.0181721
862.281	0.0181511
862.359	0.0180337
862.437	0.0182188
862.515	0.0181090
862.593	0.0181876
862.671	0.0181961
862.749	0.0180688
862.828	0.0181142
862.906	0.0182573
862.984	0.0183305
863.062	0.0181915
863.140	0.0181212
863.218	0.0181815
863.296	0.0182362
863.374	0.0180313
863.453	0.0180938
863.531	0.0181564
863.609	0.0183923
863.687	0.0183060
863.765	0.0181866
863.843	0.0182045
863.921	0.0180708
863.999	0.0181573
864.078	0.0182200
864.156	0.0179850
864.234	0.0182430
864.312	0.0182476
864.390	0.0182552
864.468	0.0180922
864.546	0.0181863
864.624	0.0182931
864.703	0.0184363
864.781	0.0182110
864.859	0.0181705
864.937	0.0182416
865.015	0.0183418
865.093	0.0182592
865.171	0.0184723
865.249	0.0183307
865.328	0.0184048
865.406	0.0183126
865.484	0.0182185
865.562	0.0183546
865.640	0.0184113
865.718	0.0184243
865.796	0.0183144
865.874	0.0184840
865.953	0.0185540
866.031	0.0184842
866.109	0.0183855
866.187	0.0184730
866.265	0.0183937
866.343	0.0186219
866.421	0.0184216
866.499	0.0183442
866.578	0.0183945
866.656	0.0183325
866.734	0.0184338
866.812	0.0183921
866.890	0.0184213
866.968	0.0184138
867.046	0.0183689
867.124	0.0182139
867.203	0.0185081
867.281	0.0183961
867.359	0.0182439
867.437	0.0184353
867.515	0.0183512
867.593	0.0182083
867.671	0.0183394
867.749	0.0181622
867.828	0.0181941
867.906	0.0182555
867.984	0.0181641
868.062	0.0181398
868.140	0.0181168
868.218	0.0182256
868.296	0.0181619
868.374	0.0181456
868.453	0.0181137
868.531	0.0180863
868.609	0.0179998
868.687	0.0181983
868.765	0.0182335
868.843	0.0181411
868.921	0.0180376
868.999	0.0180325
869.078	0.0182228
869.156	0.0182484
869.234	0.0181184
869.312	0.0181820
869.390	0.0181646
869.468	0.0181855
869.546	0.0181703
869.624	0.0181870
869.703	0.0182698
869.781	0.0180165
869.859	0.0179859
869.937	0.0180353
870.015	0.0181060
870.093	0.0182596
870.171	0.0181073
870.249	0.0181712
870.328	0.0181535
870.406	0.0181448
870.484	0.0181584
870.562	0.0181397
870.640	0.0181200
870.718	0.0180494
870.796	0.0181478
870.874	0.0183680
870.953	0.0182356
871.031	0.0180925
871.109	0.0182704
871.187	0.0183774
871.265	0.0183077
871.343	0.0182316
871.421	0.0182265
871.499	0.0183153
871.578	0.0183436
871.656	0.0183354
871.734	0.0181528
871.812	0.0182233
871.890	0.0183037
871.968	0.0183922
872.046	0.0181409
872.124	0.0181338
872.203	0.0181481
872.281	0.0183398
872.359	0.0181451
872.437	0.0183055
872.515	0.0182340
872.593	0.0181766
872.671	0.0181607
872.749	0.0180870
872.828	0.0181622
872.906	0.0182320
872.984	0.0181303
873.062	0.0181890
873.140	0.0183089
873.218	0.0182674
873.296	0.0182443
873.374	0.0183889
873.453	0.0182455
873.531	0.0181622
873.609	0.0182224
873.687	0.0181826
873.765	0.0182241
873.843	0.0180956
873.921	0.0180378
873.999	0.0181927
874.078	0.0182590
874.156	0.0181821
874.234	0.0181935
874.312	0.0181010
874.390	0.0182056
874.468	0.0181064
874.546	0.0179451
874.624	0.0181134
874.703	0.0182060
874.781	0.0180530
874.859	0.0181532
874.937	0.0180148
875.015	0.0180863
875.093	0.0181344
875.171	0.0180032
875.249	0.0181899
875.328	0.0180495
875.406	0.0180681
875.484	0.0180255
875.562	0.0179163
875.640	0.0181645
875.718	0.0181262
875.796	0.0180576
875.874	0.0181585
875.953	0.0181130
876.031	0.0181352
876.109	0.0181212
876.187	0.0182396
876.265	0.0181926
876.343	0.0181870
876.421	0.0180666
876.499	0.0181756
876.578	0.0181618
876.656	0.0181839
876.734	0.0181438
876.812	0.0181197
876.890	0.0182446
876.968	0.0181078
877.046	0.0181100
877.124	0.0180255
877.203	0.0180360
877.281	0.0180945
877.359	0.0180478
877.437	0.0179607
877.515	0.0180000
877.593	0.0181867
877.671	0.0181162
877.749	0.0180980
877.828	0.0179387
877.906	0.0179489
877.984	0.0179656
878.062	0.0181673
878.140	0.0179607
878.218	0.0181268
878.296	0.0180803
878.374	0.0178861
878.453	0.0180048
878.531	0.0179619
878.609	0.0180148
878.687	0.0180063
878.765	0.0179698
878.843	0.0180781
878.921	0.0180233
878.999	0.0181334
879.078	0.0179592
879.156	0.0181319
879.234	0.0179899
879.312	0.0179894
879.390	0.0179749
879.468	0.0179797
879.546	0.0180302
879.624	0.0180451
879.703	0.0179355
879.781	0.0180428
879.859	0.0180733
879.937	0.0178671
880.015	0.0180410
880.093	0.0180391
880.171	0.0180772
880.249	0.0178909
880.328	0.0179901
880.406	0.0179436
880.484	0.0180787
880.562	0.0180803
880.640	0.0181071
880.718	0.0178952
880.796	0.0179844
880.874	0.0181164
880.953	0.0180795
881.031	0.0180947
881.109	0.0181360
881.187	0.0180405
881.265	0.0180324
881.343	0.0181459
881.421	0.0182570
881.499	0.0181713
881.578	0.0181258
881.656	0.0181927
881.734	0.0182545
881.812	0.0181564
881.890	0.0181604
881.968	0.0182182
882.046	0.0181450
882.124	0.0183272
882.203	0.0182251
882.281	0.0180843
882.359	0.0182525
882.437	0.0180790
882.515	0.0181290
882.593	0.0182408
882.671	0.0180695
882.749	0.0180789
882.828	0.0181401
882.906	0.0180322
882.984	0.0180834
883.062	0.0180240
883.140	0.0180173
883.218	0.0181104
883.296	0.0181351
883.374	0.0181728
883.453	0.0180914
883.531	0.0180836
883.609	0.0181552
883.687	0.0180990
883.765	0.0181069
883.843	0.0181126
883.921	0.0181526
883.999	0.0180179
884.078	0.0181977
884.156	0.0182125
884.234	0.0180783
884.312	0.0181201
884.390	0.0181494
884.468	0.0181017
884.546	0.0181296
884.624	0.0181250
884.703	0.0182200
884.781	0.0181172
884.859	0.0180693
884.937	0.0182157
885.015	0.0181381
885.093	0.0181579
885.171	0.0181225
885.249	0.0179676
885.328	0.0180450
885.406	0.0180629
885.484	0.0181320
885.562	0.0180638
885.640	0.0182002
885.718	0.0180488
885.796	0.0180749
885.874	0.0181210
885.953	0.0180920
886.031	0.0181901
886.109	0.0182115
886.187	0.0180444
886.265	0.0181241
886.343	0.0181771
886.421	0.0179977
886.499	0.0180549
886.578	0.0182916
886.656	0.0182207
886.734	0.0182044
886.812	0.0182690
886.890	0.0182427
886.968	0.0183347
887.046	0.0183158
887.124	0.0183900
887.203	0.0184383
887.281	0.0182925
887.359	0.0183959
887.437	0.0184732
887.515	0.0183884
887.593	0.0185396
887.671	0.0183972
887.749	0.0184621
887.828	0.0185524
887.906	0.0183574
887.984	0.0182947
888.062	0.0184422
888.140	0.0184440
888.218	0.0186330
888.296	0.0184315
888.374	0.0183596
888.453	0.0183656
888.531	0.0183624
888.609	0.0182711
888.687	0.0182248
888.765	0.0182269
888.843	0.0183847
888.921	0.0184644
888.999	0.0182963
889.078	0.0183129
889.156	0.0181879
889.234	0.0184187
889.312	0.0183329
889.390	0.0182927
889.468	0.0183099
889.546	0.0183225
889.624	0.0182699
889.703	0.0183289
889.781	0.0181707
889.859	0.0183840
889.937	0.0183340
890.015	0.0182999
890.093	0.0183459
890.171	0.0183158
890.249	0.0182486
890.328	0.0182252
890.406	0.0182885
890.484	0.0182071
890.562	0.0181934
890.640	0.0182337
890.718	0.0181807
890.796	0.0182175
890.874	0.0182864
890.953	0.0181663
891.031	0.0181527
891.109	0.0182640
891.187	0.0182594
891.265	0.0179999
891.343	0.0180055
891.421	0.0179359
891.499	0.0180559
891.578	0.0181083
891.656	0.0180200
891.734	0.0180167
891.812	0.0180732
891.890	0.0182060
891.968	0.0180253
892.046	0.0179449
892.124	0.0181095
892.203	0.0182199
892.281	0.0182616
892.359	0.0181020
892.437	0.0181419
892.515	0.0181506
892.593	0.0182026
892.671	0.0180590
892.749	0.0182789
892.828	0.0182375
892.906	0.0182939
892.984	0.0183262
893.062	0.0181873
893.140	0.0183009
893.218	0.0183411
893.296	0.0182655
893.374	0.0182551
893.453	0.0182941
893.531	0.0183492
893.609	0.0182497
893.687	0.0184174
893.765	0.0183032
893.843	0.0184464
893.921	0.0183865
893.999	0.0183108
894.078	0.0182635
894.156	0.0182858
894.234	0.0184332
894.312	0.0183716
894.390	0.0183051
894.468	0.0183372
894.546	0.0184456
894.624	0.0182552
894.703	0.0183685
894.781	0.0184045
894.859	0.0182921
894.937	0.0183186
895.015	0.0183783
895.093	0.0181977
895.171	0.0182737
895.249	0.0183263
895.328	0.0183630
895.406	0.0182981
895.484	0.0181644
895.562	0.0181843
895.640	0.0183225
895.718	0.0183233
895.796	0.0181091
895.874	0.0181712
895.953	0.0182172
896.031	0.0181869
896.109	0.0181676
896.187	0.0182174
896.265	0.0181223
896.343	0.0181537
896.421	0.0181926
896.499	0.0182570
896.578	0.0181680
896.656	0.0181217
896.734	0.0182145
896.812	0.0182761
896.890	0.0181927
896.968	0.0182664
897.046	0.0183289
897.124	0.0183960
897.203	0.0182473
897.281	0.0183324
897.359	0.0182641
897.437	0.0183561
897.515	0.0184961
897.593	0.0184505
897.671	0.0185453
897.749	0.0184668
897.828	0.0184913
897.906	0.0184232
897.984	0.0182222
898.062	0.0183775
898.140	0.0183799
898.218	0.0185331
898.296	0.0182892
898.374	0.0183093
898.453	0.0181960
898.531	0.0182851
898.609	0.0182622
898.687	0.0183580
898.765	0.0182636
898.843	0.0181893
898.921	0.0181599
898.999	0.0182887
899.078	0.0181509
899.156	0.0180363
899.234	0.0181366
899.312	0.0181602
899.390	0.0180981
899.468	0.0180136
899.546	0.0180408
899.624	0.0180356
899.703	0.0180815
899.781	0.0180094
899.859	0.0179672
899.937	0.0178819
900.015	0.0177341
900.093	0.0178133
900.171	0.0178152
900.249	0.0178313
900.328	0.0178084
900.406	0.0178876
900.484	0.0178909
900.562	0.0179306
900.640	0.0179037
900.718	0.0178425
900.796	0.0179302
900.874	0.0179375
900.953	0.0177745
901.031	0.0178039
901.109	0.0180358
901.187	0.0178630
901.265	0.0179110
901.343	0.0179556
901.421	0.0180103
901.499	0.0179385
901.578	0.0179385
901.656	0.0181398
901.734	0.0180279
901.812	0.0180544
901.890	0.0182298
901.968	0.0180853
902.046	0.0180292
902.124	0.0181225
902.203	0.0181126
902.281	0.0182142
902.359	0.0182320
902.437	0.0182175
902.515	0.0180774
902.593	0.0182080
902.671	0.0182582
902.749	0.0182046
902.828	0.0180891
902.906	0.0181989
902.984	0.0182668
903.062	0.0180598
903.140	0.0181624
903.218	0.0180774
903.296	0.0181424
903.374	0.0181550
903.453	0.0181506
903.531	0.0182175
903.609	0.0181182
903.687	0.0182942
903.765	0.0181770
903.843	0.0182510
903.921	0.0181898
903.999	0.0182062
904.078	0.0183456
904.156	0.0182716
904.234	0.0183395
904.312	0.0182755
904.390	0.0181707
904.468	0.0182875
904.546	0.0183051
904.624	0.0182370
904.703	0.0180853
904.781	0.0182566
904.859	0.0183510
904.937	0.0182494
905.015	0.0181522
905.093	0.0182738
905.171	0.0182150
905.249	0.0182504
905.328	0.0181895
905.406	0.0181065
905.484	0.0181116
905.562	0.0182393
905.640	0.0182275
905.718	0.0181763
905.796	0.0182989
905.874	0.0181714
905.953	0.0183901
906.031	0.0181524
906.109	0.0181303
906.187	0.0181689
906.265	0.0181654
906.343	0.0181029
906.421	0.0181495
906.499	0.0181986
906.578	0.0181605
906.656	0.0181417
906.734	0.0181833
906.812	0.0182702
906.890	0.0182131
906.968	0.0182658
907.046	0.0181592
907.124	0.0181770
907.203	0.0182430
907.281	0.0181958
907.359	0.0183239
907.437	0.0181766
907.515	0.0182038
907.593	0.0182687
907.671	0.0182887
907.749	0.0181752
907.828	0.0183029
907.906	0.0183478
907.984	0.0182375
908.062	0.0182626
908.140	0.0182234
908.218	0.0182146
908.296	0.0181154
908.374	0.0182398
908.453	0.0182549
908.531	0.0182394
908.609	0.0181638
908.687	0.0182284
908.765	0.0181152
908.843	0.0181145
908.921	0.0181805
908.999	0.0180347
909.078	0.0181202
909.156	0.0181654
909.234	0.0181472
909.312	0.0180544
909.390	0.0179631
909.468	0.0180379
909.546	0.0180572
909.624	0.0181081
909.703	0.0179681
909.781	0.0180604
909.859	0.0180910
909.937	0.0180908
910.015	0.0179963
910.093	0.0180337
910.171	0.0181535
910.249	0.0179725
910.328	0.0179420
910.406	0.0179327
910.484	0.0181387
910.562	0.0178978
910.640	0.0179274
910.718	0.0179835
910.796	0.0179746
910.874	0.0180523
910.953	0.0181291
911.031	0.0180918
911.109	0.0181493
911.187	0.0182222
911.265	0.0180842
911.343	0.0181403
911.421	0.0181598
911.499	0.0181702
911.578	0.0181969
911.656	0.0182362
911.734	0.0183461
911.812	0.0182652
911.890	0.0181878
911.968	0.0181943
912.046	0.0183179
912.124	0.0182443
912.203	0.0182043
912.281	0.0183313
912.359	0.0183894
912.437	0.0183562
912.515	0.0183289
912.593	0.0182111
912.671	0.0182330
912.749	0.0181274
912.828	0.0181529
912.906	0.0181907
912.984	0.0183259
913.062	0.0182230
913.140	0.0182378
913.218	0.0181354
913.296	0.0181329
913.374	0.0182095
913.453	0.0183126
913.531	0.0182193
913.609	0.0183047
913.687	0.0182533
913.765	0.0183041
913.843	0.0182205
913.921	0.0183203
913.999	0.0182365
914.078	0.0183407
914.156	0.0182634
914.234	0.0183295
914.312	0.0183769
914.390	0.0183430
914.468	0.0183016
914.546	0.0182394
914.624	0.0182037
914.703	0.0183220
914.781	0.0183636
914.859	0.0182777
914.937	0.0184093
915.015	0.0182834
915.093	0.0183492
915.171	0.0184644
915.249	0.0182774
915.328	0.0181947
915.406	0.0184983
915.484	0.0182603
915.562	0.0183836
915.640	0.0183827
915.718	0.0182534
915.796	0.0184008
915.874	0.0182703
915.953	0.0183204
916.031	0.0182407
916.109	0.0182706
916.187	0.0182001
916.265	0.0183224
916.343	0.0182185
916.421	0.0183405
916.499	0.0183418
916.578	0.0182030
916.656	0.0183360
916.734	0.0183633
916.812	0.0184440
916.890	0.0182954
916.968	0.0182654
917.046	0.0182757
917.124	0.0182517
917.203	0.0182153
917.281	0.0182456
917.359	0.0181574
917.437	0.0181634
917.515	0.0181170
917.593	0.0180451
917.671	0.0181696
917.749	0.0179504
917.828	0.0181693
917.906	0.0181714
917.984	0.0182029
918.062	0.0181416
918.140	0.0182463
918.218	0.0180978
918.296	0.0180484
918.374	0.0181699
918.453	0.0181734
918.531	0.0181838
918.609	0.0182611
918.687	0.0182160
918.765	0.0181443
918.843	0.0181605
918.921	0.0182447
918.999	0.0181587
919.078	0.0181556
919.156	0.0182428
919.234	0.0183057
919.312	0.0182255
919.390	0.0183351
919.468	0.0181445
919.546	0.0182040
919.624	0.0181801
919.703	0.0180026
919.781	0.0181968
919.859	0.0183561
919.937	0.0180519
