06/10/2022	16:15:02	Ver.	4.1	UNKNOWN
Optical Delay	550.020508	Delta X		0.078125	Sweeps	1	Scan Rate	0/0
Coordinates	Axis 1	NaN	Axis 2	NaN	Axis 3	NaN	Axis 4	NaN	Axis 5	NaN	Axis 6	0.000000
TX Power	0.000000	RX Power	0.000000

550.021	0.0164287
550.099	0.0164027
550.177	0.0164381
550.255	0.0164220
550.333	0.0163693
550.411	0.0165567
550.489	0.0163965
550.567	0.0164317
550.646	0.0164054
550.724	0.0164655
550.802	0.0164212
550.880	0.0165087
550.958	0.0165135
551.036	0.0164115
551.114	0.0164176
551.192	0.0164117
551.271	0.0164159
551.349	0.0164658
551.427	0.0163527
551.505	0.0163161
551.583	0.0164906
551.661	0.0165750
551.739	0.0165721
551.817	0.0163174
551.896	0.0164069
551.974	0.0163828
552.052	0.0164926
552.130	0.0163684
552.208	0.0164243
552.286	0.0164932
552.364	0.0164828
552.442	0.0165266
552.521	0.0163840
552.599	0.0164792
552.677	0.0165508
552.755	0.0164938
552.833	0.0164886
552.911	0.0163158
552.989	0.0163986
553.067	0.0164649
553.146	0.0163771
553.224	0.0165176
553.302	0.0165565
553.380	0.0164468
553.458	0.0164896
553.536	0.0165521
553.614	0.0163750
553.692	0.0165051
553.771	0.0164680
553.849	0.0164728
553.927	0.0165182
554.005	0.0165916
554.083	0.0164690
554.161	0.0164215
554.239	0.0164763
554.317	0.0163891
554.396	0.0165181
554.474	0.0164582
554.552	0.0164494
554.630	0.0163974
554.708	0.0164714
554.786	0.0164169
554.864	0.0165154
554.942	0.0163595
555.021	0.0164558
555.099	0.0165144
555.177	0.0163577
555.255	0.0165720
555.333	0.0165137
555.411	0.0163549
555.489	0.0164516
555.567	0.0165366
555.646	0.0164498
555.724	0.0165972
555.802	0.0164834
555.880	0.0164999
555.958	0.0165220
556.036	0.0165901
556.114	0.0165086
556.192	0.0164809
556.271	0.0162791
556.349	0.0164440
556.427	0.0164502
556.505	0.0165218
556.583	0.0165199
556.661	0.0164014
556.739	0.0163957
556.817	0.0164993
556.896	0.0165260
556.974	0.0165338
557.052	0.0164649
557.130	0.0164761
557.208	0.0165604
557.286	0.0164637
557.364	0.0164373
557.442	0.0163988
557.521	0.0163976
557.599	0.0164249
557.677	0.0163719
557.755	0.0164562
557.833	0.0165656
557.911	0.0164349
557.989	0.0163647
558.067	0.0163132
558.146	0.0164587
558.224	0.0163264
558.302	0.0164140
558.380	0.0163855
558.458	0.0164473
558.536	0.0164085
558.614	0.0165256
558.692	0.0163844
558.771	0.0163792
558.849	0.0165014
558.927	0.0163529
559.005	0.0164368
559.083	0.0164265
559.161	0.0165068
559.239	0.0163254
559.317	0.0163645
559.396	0.0163522
559.474	0.0163976
559.552	0.0164841
559.630	0.0165531
559.708	0.0164788
559.786	0.0164901
559.864	0.0164828
559.942	0.0163552
560.021	0.0164078
560.099	0.0163605
560.177	0.0163964
560.255	0.0164906
560.333	0.0164388
560.411	0.0163551
560.489	0.0163791
560.567	0.0164047
560.646	0.0164243
560.724	0.0164120
560.802	0.0164277
560.880	0.0164583
560.958	0.0164314
561.036	0.0164648
561.114	0.0164099
561.192	0.0165472
561.271	0.0163412
561.349	0.0164383
561.427	0.0164123
561.505	0.0164759
561.583	0.0163715
561.661	0.0164550
561.739	0.0164455
561.817	0.0163621
561.896	0.0164463
561.974	0.0164262
562.052	0.0164423
562.130	0.0163896
562.208	0.0162942
562.286	0.0164901
562.364	0.0165033
562.442	0.0164359
562.521	0.0164030
562.599	0.0165105
562.677	0.0164216
562.755	0.0164432
562.833	0.0164997
562.911	0.0164702
562.989	0.0164487
563.067	0.0163721
563.146	0.0164816
563.224	0.0165595
563.302	0.0164695
563.380	0.0163950
563.458	0.0165662
563.536	0.0165495
563.614	0.0162856
563.692	0.0164643
563.771	0.0165120
563.849	0.0165479
563.927	0.0163891
564.005	0.0165031
564.083	0.0166340
564.161	0.0164606
564.239	0.0164697
564.317	0.0163979
564.396	0.0163080
564.474	0.0164691
564.552	0.0163589
564.630	0.0164470
564.708	0.0164265
564.786	0.0163946
564.864	0.0164532
564.942	0.0163534
565.021	0.0165141
565.099	0.0163552
565.177	0.0164632
565.255	0.0164417
565.333	0.0163578
565.411	0.0164162
565.489	0.0164376
565.567	0.0165524
565.646	0.0163848
565.724	0.0163203
565.802	0.0164613
565.880	0.0163934
565.958	0.0164913
566.036	0.0163221
566.114	0.0162941
566.192	0.0164738
566.271	0.0164416
566.349	0.0164368
566.427	0.0165261
566.505	0.0164697
566.583	0.0164684
566.661	0.0163454
566.739	0.0164362
566.817	0.0164453
566.896	0.0163860
566.974	0.0164196
567.052	0.0164009
567.130	0.0163068
567.208	0.0165166
567.286	0.0164094
567.364	0.0164460
567.442	0.0165197
567.521	0.0164131
567.599	0.0164957
567.677	0.0164188
567.755	0.0163472
567.833	0.0163290
567.911	0.0165009
567.989	0.0164600
568.067	0.0164352
568.146	0.0164809
568.224	0.0163840
568.302	0.0165379
568.380	0.0164107
568.458	0.0164397
568.536	0.0164581
568.614	0.0166075
568.692	0.0165466
568.771	0.0164523
568.849	0.0163809
568.927	0.0164457
569.005	0.0163960
569.083	0.0166172
569.161	0.0165145
569.239	0.0165150
569.317	0.0163717
569.396	0.0165974
569.474	0.0164662
569.552	0.0164498
569.630	0.0164100
569.708	0.0164167
569.786	0.0164174
569.864	0.0162019
569.942	0.0163620
570.021	0.0164996
570.099	0.0165060
570.177	0.0164981
570.255	0.0164696
570.333	0.0163127
570.411	0.0164246
570.489	0.0165077
570.567	0.0165151
570.646	0.0164531
570.724	0.0164014
570.802	0.0164441
570.880	0.0163280
570.958	0.0164146
571.036	0.0165397
571.114	0.0163739
571.192	0.0164085
571.271	0.0163779
571.349	0.0163522
571.427	0.0164573
571.505	0.0164937
571.583	0.0163810
571.661	0.0164053
571.739	0.0163962
571.817	0.0165192
571.896	0.0164401
571.974	0.0163876
572.052	0.0163110
572.130	0.0164276
572.208	0.0164442
572.286	0.0165513
572.364	0.0164429
572.442	0.0162874
572.521	0.0163031
572.599	0.0165317
572.677	0.0165426
572.755	0.0165108
572.833	0.0164181
572.911	0.0166136
572.989	0.0165131
573.067	0.0164146
573.146	0.0163498
573.224	0.0164666
573.302	0.0164599
573.380	0.0163387
573.458	0.0164352
573.536	0.0164179
573.614	0.0164261
573.692	0.0163741
573.771	0.0165033
573.849	0.0164390
573.927	0.0164915
574.005	0.0163502
574.083	0.0164162
574.161	0.0164389
574.239	0.0163487
574.317	0.0163407
574.396	0.0164314
574.474	0.0163287
574.552	0.0163650
574.630	0.0163505
574.708	0.0164317
574.786	0.0165175
574.864	0.0164104
574.942	0.0164870
575.021	0.0163817
575.099	0.0163979
575.177	0.0165414
575.255	0.0165553
575.333	0.0164562
575.411	0.0165730
575.489	0.0163605
575.567	0.0163036
575.646	0.0164205
575.724	0.0166328
575.802	0.0165414
575.880	0.0165320
575.958	0.0163994
576.036	0.0163911
576.114	0.0165604
576.192	0.0163100
576.271	0.0165977
576.349	0.0164198
576.427	0.0164400
576.505	0.0163802
576.583	0.0163899
576.661	0.0164523
576.739	0.0164648
576.817	0.0165389
576.896	0.0164000
576.974	0.0164803
577.052	0.0164360
577.130	0.0164333
577.208	0.0164681
577.286	0.0163651
577.364	0.0164146
577.442	0.0165570
577.521	0.0164635
577.599	0.0163449
577.677	0.0163649
577.755	0.0165257
577.833	0.0163894
577.911	0.0164780
577.989	0.0165578
578.067	0.0164081
578.146	0.0163096
578.224	0.0164117
578.302	0.0165003
578.380	0.0165314
578.458	0.0165075
578.536	0.0164876
578.614	0.0163567
578.692	0.0164426
578.771	0.0164346
578.849	0.0165052
578.927	0.0165507
579.005	0.0163909
579.083	0.0163647
579.161	0.0165300
579.239	0.0165438
579.317	0.0164400
579.396	0.0165444
579.474	0.0164243
579.552	0.0164567
579.630	0.0164144
579.708	0.0164256
579.786	0.0164481
579.864	0.0164320
579.942	0.0164301
580.021	0.0164024
580.099	0.0165173
580.177	0.0165725
580.255	0.0164343
580.333	0.0163413
580.411	0.0163739
580.489	0.0163289
580.567	0.0164174
580.646	0.0164536
580.724	0.0165395
580.802	0.0165936
580.880	0.0164259
580.958	0.0164292
581.036	0.0164067
581.114	0.0164438
581.192	0.0165662
581.271	0.0165482
581.349	0.0164304
581.427	0.0163651
581.505	0.0164288
581.583	0.0163989
581.661	0.0164766
581.739	0.0165132
581.817	0.0164040
581.896	0.0163694
581.974	0.0164341
582.052	0.0163990
582.130	0.0166078
582.208	0.0164585
582.286	0.0163493
582.364	0.0164433
582.442	0.0164305
582.521	0.0162980
582.599	0.0166161
582.677	0.0165701
582.755	0.0163778
582.833	0.0164476
582.911	0.0165053
582.989	0.0164218
583.067	0.0165359
583.146	0.0164754
583.224	0.0164869
583.302	0.0164998
583.380	0.0164894
583.458	0.0164224
583.536	0.0163510
583.614	0.0164211
583.692	0.0165186
583.771	0.0164465
583.849	0.0163286
583.927	0.0163435
584.005	0.0163720
584.083	0.0165354
584.161	0.0165302
584.239	0.0164586
584.317	0.0164693
584.396	0.0164425
584.474	0.0163231
584.552	0.0163875
584.630	0.0164771
584.708	0.0164391
584.786	0.0163862
584.864	0.0164856
584.942	0.0163612
585.021	0.0165179
585.099	0.0164610
585.177	0.0163941
585.255	0.0164259
585.333	0.0162968
585.411	0.0165417
585.489	0.0165029
585.567	0.0164134
585.646	0.0164451
585.724	0.0164748
585.802	0.0163801
585.880	0.0164463
585.958	0.0164401
586.036	0.0163870
586.114	0.0164496
586.192	0.0164711
586.271	0.0165736
586.349	0.0165108
586.427	0.0164677
586.505	0.0165311
586.583	0.0164131
586.661	0.0165270
586.739	0.0165346
586.817	0.0165592
586.896	0.0164265
586.974	0.0164554
587.052	0.0164570
587.130	0.0164191
587.208	0.0164101
587.286	0.0164320
587.364	0.0165108
587.442	0.0165582
587.521	0.0164491
587.599	0.0163348
587.677	0.0165275
587.755	0.0164793
587.833	0.0164003
587.911	0.0164446
587.989	0.0164902
588.067	0.0165161
588.146	0.0164532
588.224	0.0162800
588.302	0.0164729
588.380	0.0165862
588.458	0.0164711
588.536	0.0164776
588.614	0.0165319
588.692	0.0163721
588.771	0.0164929
588.849	0.0165222
588.927	0.0164789
589.005	0.0165864
589.083	0.0163692
589.161	0.0163787
589.239	0.0163811
589.317	0.0163437
589.396	0.0164341
589.474	0.0164518
589.552	0.0164767
589.630	0.0164874
589.708	0.0165063
589.786	0.0164119
589.864	0.0163797
589.942	0.0163963
590.021	0.0164596
590.099	0.0164057
590.177	0.0163820
590.255	0.0163848
590.333	0.0163831
590.411	0.0164431
590.489	0.0164742
590.567	0.0163181
590.646	0.0164803
590.724	0.0163456
590.802	0.0163271
590.880	0.0164590
590.958	0.0164713
591.036	0.0163945
591.114	0.0163898
591.192	0.0163225
591.271	0.0162981
591.349	0.0164952
591.427	0.0165371
591.505	0.0163318
591.583	0.0164786
591.661	0.0165340
591.739	0.0163588
591.817	0.0164027
591.896	0.0164302
591.974	0.0165762
592.052	0.0164404
592.130	0.0164141
592.208	0.0163777
592.286	0.0165549
592.364	0.0164951
592.442	0.0164534
592.521	0.0164101
592.599	0.0165111
592.677	0.0164310
592.755	0.0165125
592.833	0.0166022
592.911	0.0165128
592.989	0.0163196
593.067	0.0163151
593.146	0.0164488
593.224	0.0164977
593.302	0.0164896
593.380	0.0165138
593.458	0.0163805
593.536	0.0166328
593.614	0.0164568
593.692	0.0164603
593.771	0.0163897
593.849	0.0164875
593.927	0.0164677
594.005	0.0162697
594.083	0.0163513
594.161	0.0164711
594.239	0.0164195
594.317	0.0166629
594.396	0.0164434
594.474	0.0163946
594.552	0.0164874
594.630	0.0163360
594.708	0.0163618
594.786	0.0164483
594.864	0.0165707
594.942	0.0163629
595.021	0.0164271
595.099	0.0163511
595.177	0.0164005
595.255	0.0164383
595.333	0.0163728
595.411	0.0164742
595.489	0.0163743
595.567	0.0163955
595.646	0.0164231
595.724	0.0163950
595.802	0.0164331
595.880	0.0164210
595.958	0.0164183
596.036	0.0164091
596.114	0.0164838
596.192	0.0163221
596.271	0.0163670
596.349	0.0164951
596.427	0.0164478
596.505	0.0163590
596.583	0.0164908
596.661	0.0164397
596.739	0.0164868
596.817	0.0164597
596.896	0.0164179
596.974	0.0163974
597.052	0.0164042
597.130	0.0164715
597.208	0.0164790
597.286	0.0164050
597.364	0.0163318
597.442	0.0162716
597.521	0.0164187
597.599	0.0163661
597.677	0.0163931
597.755	0.0164296
597.833	0.0163635
597.911	0.0164909
597.989	0.0163826
598.067	0.0163758
598.146	0.0164564
598.224	0.0165106
598.302	0.0164414
598.380	0.0162958
598.458	0.0163980
598.536	0.0163879
598.614	0.0165171
598.692	0.0164503
598.771	0.0164064
598.849	0.0162858
598.927	0.0163718
599.005	0.0164280
599.083	0.0165017
599.161	0.0163902
599.239	0.0164368
599.317	0.0164681
599.396	0.0165091
599.474	0.0163501
599.552	0.0164088
599.630	0.0163674
599.708	0.0164460
599.786	0.0164725
599.864	0.0164783
599.942	0.0164450
600.021	0.0164005
600.099	0.0164993
600.177	0.0163273
600.255	0.0162520
600.333	0.0163528
600.411	0.0164507
600.489	0.0164609
600.567	0.0163066
600.646	0.0163290
600.724	0.0163530
600.802	0.0162431
600.880	0.0163865
600.958	0.0163428
601.036	0.0164159
601.114	0.0164903
601.192	0.0164758
601.271	0.0163985
601.349	0.0163808
601.427	0.0164868
601.505	0.0164019
601.583	0.0164024
601.661	0.0163670
601.739	0.0163611
601.817	0.0164227
601.896	0.0163731
601.974	0.0163055
602.052	0.0163626
602.130	0.0163512
602.208	0.0165079
602.286	0.0164364
602.364	0.0164541
602.442	0.0164259
602.521	0.0164751
602.599	0.0164441
602.677	0.0163894
602.755	0.0163819
602.833	0.0163921
602.911	0.0163148
602.989	0.0165095
603.067	0.0164036
603.146	0.0163477
603.224	0.0164684
603.302	0.0164162
603.380	0.0163895
603.458	0.0164865
603.536	0.0164314
603.614	0.0164442
603.692	0.0163589
603.771	0.0162938
603.849	0.0165077
603.927	0.0163982
604.005	0.0162549
604.083	0.0164400
604.161	0.0163836
604.239	0.0164766
604.317	0.0164079
604.396	0.0165066
604.474	0.0164543
604.552	0.0164835
604.630	0.0165314
604.708	0.0165858
604.786	0.0163860
604.864	0.0165645
604.942	0.0163509
605.021	0.0163434
605.099	0.0163710
605.177	0.0164280
605.255	0.0164545
605.333	0.0162662
605.411	0.0163983
605.489	0.0164716
605.567	0.0164034
605.646	0.0164046
605.724	0.0166174
605.802	0.0165942
605.880	0.0164079
605.958	0.0163960
606.036	0.0164655
606.114	0.0163997
606.192	0.0164978
606.271	0.0163628
606.349	0.0164011
606.427	0.0164514
606.505	0.0164288
606.583	0.0165317
606.661	0.0164690
606.739	0.0163980
606.817	0.0165113
606.896	0.0166328
606.974	0.0164703
607.052	0.0163679
607.130	0.0164816
607.208	0.0164663
607.286	0.0165275
607.364	0.0164466
607.442	0.0163490
607.521	0.0164698
607.599	0.0164839
607.677	0.0164369
607.755	0.0164295
607.833	0.0165664
607.911	0.0164122
607.989	0.0163103
608.067	0.0164961
608.146	0.0166103
608.224	0.0164411
608.302	0.0164301
608.380	0.0164117
608.458	0.0162340
608.536	0.0165553
608.614	0.0164518
608.692	0.0165404
608.771	0.0164951
608.849	0.0163805
608.927	0.0165269
609.005	0.0164502
609.083	0.0163509
609.161	0.0163896
609.239	0.0164820
609.317	0.0164972
609.396	0.0164526
609.474	0.0165383
609.552	0.0164740
609.630	0.0164475
609.708	0.0165742
609.786	0.0164335
609.864	0.0164149
609.942	0.0163780
610.021	0.0165006
610.099	0.0164514
610.177	0.0163654
610.255	0.0163767
610.333	0.0164596
610.411	0.0164100
610.489	0.0163693
610.567	0.0163959
610.646	0.0164341
610.724	0.0163734
610.802	0.0165228
610.880	0.0165447
610.958	0.0164159
611.036	0.0162611
611.114	0.0163955
611.192	0.0163646
611.271	0.0163642
611.349	0.0166080
611.427	0.0163554
611.505	0.0162895
611.583	0.0165060
611.661	0.0164131
611.739	0.0164061
611.817	0.0162841
611.896	0.0164459
611.974	0.0164178
612.052	0.0165131
612.130	0.0164045
612.208	0.0163107
612.286	0.0165018
612.364	0.0164845
612.442	0.0164494
612.521	0.0165360
612.599	0.0165003
612.677	0.0164098
612.755	0.0163214
612.833	0.0164239
612.911	0.0163968
612.989	0.0163270
613.067	0.0163181
613.146	0.0164369
613.224	0.0163781
613.302	0.0164304
613.380	0.0163969
613.458	0.0163573
613.536	0.0163034
613.614	0.0163638
613.692	0.0165247
613.771	0.0164395
613.849	0.0163935
613.927	0.0163572
614.005	0.0163377
614.083	0.0162825
614.161	0.0165247
614.239	0.0162599
614.317	0.0163700
614.396	0.0164474
614.474	0.0164357
614.552	0.0163579
614.630	0.0163815
614.708	0.0164809
614.786	0.0164989
614.864	0.0164162
614.942	0.0163425
615.021	0.0164022
615.099	0.0163174
615.177	0.0164568
615.255	0.0164787
615.333	0.0165049
615.411	0.0164069
615.489	0.0163416
615.567	0.0164428
615.646	0.0164330
615.724	0.0164181
615.802	0.0164908
615.880	0.0163268
615.958	0.0163921
616.036	0.0165424
616.114	0.0165892
616.192	0.0163264
616.271	0.0164436
616.349	0.0165425
616.427	0.0163490
616.505	0.0164227
616.583	0.0163763
616.661	0.0163966
616.739	0.0164044
616.817	0.0166051
616.896	0.0164629
616.974	0.0165228
617.052	0.0163541
617.130	0.0164689
617.208	0.0164370
617.286	0.0165160
617.364	0.0164608
617.442	0.0164217
617.521	0.0164266
617.599	0.0163439
617.677	0.0164195
617.755	0.0165623
617.833	0.0164402
617.911	0.0163324
617.989	0.0166593
618.067	0.0164118
618.146	0.0163219
618.224	0.0164025
618.302	0.0164701
618.380	0.0164887
618.458	0.0164194
618.536	0.0164979
618.614	0.0164475
618.692	0.0164590
618.771	0.0164162
618.849	0.0165160
618.927	0.0163969
619.005	0.0163935
619.083	0.0163729
619.161	0.0163470
619.239	0.0164410
619.317	0.0164638
619.396	0.0163891
619.474	0.0164191
619.552	0.0164478
619.630	0.0163461
619.708	0.0165153
619.786	0.0164723
619.864	0.0165649
619.942	0.0164156
620.021	0.0164749
620.099	0.0165328
620.177	0.0164449
620.255	0.0164695
620.333	0.0164046
620.411	0.0164438
620.489	0.0164256
620.567	0.0163154
620.646	0.0164665
620.724	0.0165717
620.802	0.0164751
620.880	0.0164103
620.958	0.0165208
621.036	0.0164494
621.114	0.0162889
621.192	0.0163081
621.271	0.0163573
621.349	0.0163752
621.427	0.0164634
621.505	0.0165614
621.583	0.0163416
621.661	0.0164250
621.739	0.0163593
621.817	0.0164188
621.896	0.0163406
621.974	0.0164812
622.052	0.0164042
622.130	0.0164320
622.208	0.0163457
622.286	0.0164368
622.364	0.0163644
622.442	0.0164344
622.521	0.0165113
622.599	0.0163456
622.677	0.0164064
622.755	0.0163336
622.833	0.0164575
622.911	0.0163921
622.989	0.0163721
623.067	0.0163757
623.146	0.0164019
623.224	0.0163697
623.302	0.0164009
623.380	0.0163228
623.458	0.0162875
623.536	0.0164396
623.614	0.0163127
623.692	0.0165242
623.771	0.0163861
623.849	0.0164933
623.927	0.0163477
624.005	0.0163582
624.083	0.0165730
624.161	0.0164171
624.239	0.0162754
624.317	0.0164412
624.396	0.0164622
624.474	0.0164006
624.552	0.0164309
624.630	0.0164129
624.708	0.0164461
624.786	0.0163881
624.864	0.0164456
624.942	0.0166064
625.021	0.0164567
625.099	0.0164243
625.177	0.0164752
625.255	0.0163132
625.333	0.0163120
625.411	0.0163390
625.489	0.0164133
625.567	0.0163995
625.646	0.0164538
625.724	0.0163480
625.802	0.0164510
625.880	0.0163569
625.958	0.0164530
626.036	0.0164417
626.114	0.0165083
626.192	0.0164095
626.271	0.0164408
626.349	0.0164904
626.427	0.0163577
626.505	0.0164046
626.583	0.0164429
626.661	0.0164262
626.739	0.0164264
626.817	0.0165154
626.896	0.0163919
626.974	0.0163977
627.052	0.0165061
627.130	0.0164124
627.208	0.0165186
627.286	0.0164877
627.364	0.0163730
627.442	0.0165939
627.521	0.0163023
627.599	0.0165055
627.677	0.0164457
627.755	0.0165053
627.833	0.0166232
627.911	0.0165645
627.989	0.0164408
628.067	0.0163849
628.146	0.0163461
628.224	0.0164538
628.302	0.0164107
628.380	0.0165170
628.458	0.0163504
628.536	0.0165895
628.614	0.0164838
628.692	0.0164343
628.771	0.0163984
628.849	0.0164583
628.927	0.0167000
629.005	0.0164506
629.083	0.0164245
629.161	0.0165020
629.239	0.0165205
629.317	0.0163882
629.396	0.0163956
629.474	0.0164964
629.552	0.0165495
629.630	0.0164335
629.708	0.0164684
629.786	0.0163982
629.864	0.0164642
629.942	0.0164444
630.021	0.0165108
630.099	0.0164867
630.177	0.0163314
630.255	0.0162807
630.333	0.0163870
630.411	0.0165517
630.489	0.0164129
630.567	0.0163254
630.646	0.0163889
630.724	0.0163907
630.802	0.0166051
630.880	0.0164152
630.958	0.0164619
631.036	0.0164962
631.114	0.0163097
631.192	0.0164576
631.271	0.0165336
631.349	0.0163792
631.427	0.0164816
631.505	0.0164382
631.583	0.0164734
631.661	0.0164863
631.739	0.0165913
631.817	0.0164951
631.896	0.0163828
631.974	0.0164423
632.052	0.0165455
632.130	0.0162971
632.208	0.0162978
632.286	0.0165592
632.364	0.0164407
632.442	0.0163857
632.521	0.0164670
632.599	0.0166411
632.677	0.0164618
632.755	0.0164836
632.833	0.0162964
632.911	0.0164023
632.989	0.0165276
633.067	0.0164861
633.146	0.0164596
633.224	0.0164281
633.302	0.0165303
633.380	0.0163571
633.458	0.0163795
633.536	0.0163132
633.614	0.0165162
633.692	0.0164775
633.771	0.0164884
633.849	0.0164431
633.927	0.0163456
634.005	0.0163365
634.083	0.0164057
634.161	0.0164803
634.239	0.0166171
634.317	0.0164124
634.396	0.0163222
634.474	0.0165160
634.552	0.0164862
634.630	0.0164270
634.708	0.0162968
634.786	0.0163943
634.864	0.0164462
634.942	0.0163496
635.021	0.0163916
635.099	0.0163824
635.177	0.0162583
635.255	0.0163725
635.333	0.0164225
635.411	0.0162914
635.489	0.0164335
635.567	0.0164738
635.646	0.0164090
635.724	0.0162440
635.802	0.0163639
635.880	0.0164466
635.958	0.0163371
636.036	0.0164030
636.114	0.0163822
636.192	0.0163858
636.271	0.0162394
636.349	0.0164315
636.427	0.0163688
636.505	0.0164009
636.583	0.0164751
636.661	0.0165025
636.739	0.0164434
636.817	0.0164571
636.896	0.0162841
636.974	0.0163486
637.052	0.0164017
637.130	0.0165015
637.208	0.0164222
637.286	0.0162743
637.364	0.0163348
637.442	0.0164353
637.521	0.0163425
637.599	0.0163387
637.677	0.0163183
637.755	0.0164025
637.833	0.0163921
637.911	0.0163110
637.989	0.0163869
638.067	0.0164048
638.146	0.0162508
638.224	0.0164915
638.302	0.0164554
638.380	0.0163741
638.458	0.0162786
638.536	0.0162797
638.614	0.0163816
638.692	0.0164193
638.771	0.0163528
638.849	0.0163423
638.927	0.0164585
639.005	0.0164372
639.083	0.0163068
639.161	0.0163181
639.239	0.0164396
639.317	0.0163632
639.396	0.0163779
639.474	0.0164657
639.552	0.0164849
639.630	0.0163869
639.708	0.0163289
639.786	0.0163162
639.864	0.0162652
639.942	0.0163298
640.021	0.0163767
640.099	0.0164120
640.177	0.0163125
640.255	0.0164192
640.333	0.0164806
640.411	0.0164198
640.489	0.0164201
640.567	0.0164065
640.646	0.0162982
640.724	0.0165695
640.802	0.0163171
640.880	0.0164187
640.958	0.0164687
641.036	0.0164445
641.114	0.0165016
641.192	0.0163809
641.271	0.0164183
641.349	0.0165300
641.427	0.0163828
641.505	0.0164336
641.583	0.0164449
641.661	0.0164371
641.739	0.0162585
641.817	0.0164968
641.896	0.0164523
641.974	0.0163803
642.052	0.0163168
642.130	0.0163737
642.208	0.0163736
642.286	0.0164580
642.364	0.0164216
642.442	0.0164165
642.521	0.0163956
642.599	0.0164186
642.677	0.0163692
642.755	0.0163876
642.833	0.0163887
642.911	0.0165159
642.989	0.0165686
643.067	0.0163303
643.146	0.0163791
643.224	0.0163874
643.302	0.0165462
643.380	0.0165174
643.458	0.0163947
643.536	0.0164362
643.614	0.0164286
643.692	0.0163945
643.771	0.0164023
643.849	0.0164902
643.927	0.0163689
644.005	0.0163423
644.083	0.0163007
644.161	0.0165121
644.239	0.0164539
644.317	0.0164645
644.396	0.0163470
644.474	0.0163575
644.552	0.0165408
644.630	0.0165785
644.708	0.0165950
644.786	0.0164420
644.864	0.0163303
644.942	0.0163143
645.021	0.0164458
645.099	0.0164804
645.177	0.0164210
645.255	0.0163457
645.333	0.0163736
645.411	0.0163897
645.489	0.0164514
645.567	0.0164320
645.646	0.0162769
645.724	0.0164056
645.802	0.0162926
645.880	0.0164501
645.958	0.0163256
646.036	0.0163548
646.114	0.0163632
646.192	0.0164125
646.271	0.0164577
646.349	0.0165632
646.427	0.0164452
646.505	0.0164709
646.583	0.0164868
646.661	0.0164114
646.739	0.0164128
646.817	0.0163222
646.896	0.0163459
646.974	0.0164944
647.052	0.0163913
647.130	0.0163329
647.208	0.0163702
647.286	0.0162920
647.364	0.0164732
647.442	0.0165044
647.521	0.0164130
647.599	0.0164003
647.677	0.0163510
647.755	0.0163936
647.833	0.0163397
647.911	0.0164042
647.989	0.0163064
648.067	0.0163889
648.146	0.0163504
648.224	0.0165459
648.302	0.0164130
648.380	0.0162102
648.458	0.0163365
648.536	0.0164029
648.614	0.0164983
648.692	0.0164115
648.771	0.0165598
648.849	0.0163927
648.927	0.0165704
649.005	0.0163099
649.083	0.0162825
649.161	0.0164182
649.239	0.0164021
649.317	0.0163438
649.396	0.0163197
649.474	0.0162913
649.552	0.0163597
649.630	0.0164022
649.708	0.0163943
649.786	0.0164041
649.864	0.0164017
649.942	0.0163351
650.021	0.0163988
650.099	0.0165286
650.177	0.0163313
650.255	0.0162776
650.333	0.0163804
650.411	0.0164588
650.489	0.0165326
650.567	0.0164012
650.646	0.0163895
650.724	0.0164573
650.802	0.0164137
650.880	0.0165025
650.958	0.0163797
651.036	0.0164053
651.114	0.0164979
651.192	0.0164936
651.271	0.0164638
651.349	0.0164057
651.427	0.0163584
651.505	0.0163988
651.583	0.0164823
651.661	0.0164163
651.739	0.0163444
651.817	0.0164991
651.896	0.0163956
651.974	0.0162964
652.052	0.0165439
652.130	0.0165091
652.208	0.0164716
652.286	0.0164116
652.364	0.0162889
652.442	0.0164127
652.521	0.0164407
652.599	0.0164793
652.677	0.0164299
652.755	0.0164018
652.833	0.0164490
652.911	0.0163208
652.989	0.0165046
653.067	0.0165008
653.146	0.0163732
653.224	0.0165070
653.302	0.0163764
653.380	0.0164184
653.458	0.0164856
653.536	0.0163132
653.614	0.0164645
653.692	0.0163716
653.771	0.0163754
653.849	0.0163571
653.927	0.0164611
654.005	0.0164385
654.083	0.0162865
654.161	0.0164241
654.239	0.0164090
654.317	0.0165169
654.396	0.0164061
654.474	0.0163711
654.552	0.0162392
654.630	0.0165067
654.708	0.0165514
654.786	0.0164042
654.864	0.0164386
654.942	0.0165222
655.021	0.0165006
655.099	0.0164526
655.177	0.0163307
655.255	0.0164980
655.333	0.0164088
655.411	0.0163615
655.489	0.0163261
655.567	0.0163720
655.646	0.0165270
655.724	0.0163251
655.802	0.0163735
655.880	0.0164764
655.958	0.0163921
656.036	0.0162382
656.114	0.0164907
656.192	0.0163998
656.271	0.0163675
656.349	0.0163547
656.427	0.0164543
656.505	0.0164846
656.583	0.0163450
656.661	0.0163859
656.739	0.0164053
656.817	0.0163766
656.896	0.0163528
656.974	0.0163145
657.052	0.0162315
657.130	0.0163108
657.208	0.0163622
657.286	0.0163563
657.364	0.0163747
657.442	0.0163361
657.521	0.0164352
657.599	0.0164209
657.677	0.0164801
657.755	0.0163983
657.833	0.0164329
657.911	0.0163766
657.989	0.0164089
658.067	0.0164210
658.146	0.0164502
658.224	0.0163559
658.302	0.0163568
658.380	0.0164275
658.458	0.0162821
658.536	0.0164310
658.614	0.0164973
658.692	0.0164802
658.771	0.0165379
658.849	0.0163534
658.927	0.0164462
659.005	0.0164272
659.083	0.0164947
659.161	0.0164646
659.239	0.0164159
659.317	0.0163696
659.396	0.0163383
659.474	0.0163036
659.552	0.0164814
659.630	0.0165422
659.708	0.0164432
659.786	0.0164037
659.864	0.0165743
659.942	0.0162854
660.021	0.0164214
660.099	0.0165192
660.177	0.0164378
660.255	0.0165964
660.333	0.0164014
660.411	0.0163647
660.489	0.0163653
660.567	0.0164053
660.646	0.0163562
660.724	0.0164336
660.802	0.0165041
660.880	0.0163713
660.958	0.0163309
661.036	0.0162800
661.114	0.0164441
661.192	0.0164032
661.271	0.0163320
661.349	0.0164254
661.427	0.0163405
661.505	0.0164728
661.583	0.0163560
661.661	0.0166150
661.739	0.0164889
661.817	0.0163910
661.896	0.0163428
661.974	0.0163734
662.052	0.0162725
662.130	0.0163562
662.208	0.0163693
662.286	0.0164061
662.364	0.0165920
662.442	0.0165436
662.521	0.0163366
662.599	0.0162811
662.677	0.0163797
662.755	0.0165414
662.833	0.0163732
662.911	0.0164574
662.989	0.0162582
663.067	0.0164272
663.146	0.0163917
663.224	0.0164275
663.302	0.0164716
663.380	0.0163841
663.458	0.0164217
663.536	0.0163342
663.614	0.0164314
663.692	0.0163926
663.771	0.0165018
663.849	0.0163712
663.927	0.0164856
664.005	0.0162709
664.083	0.0164334
664.161	0.0164019
664.239	0.0164894
664.317	0.0165162
664.396	0.0164466
664.474	0.0163483
664.552	0.0163222
664.630	0.0162301
664.708	0.0164128
664.786	0.0164182
664.864	0.0162275
664.942	0.0164412
665.021	0.0164213
665.099	0.0163075
665.177	0.0163198
665.255	0.0163026
665.333	0.0163512
665.411	0.0164406
665.489	0.0162415
665.567	0.0163869
665.646	0.0165062
665.724	0.0163528
665.802	0.0163841
665.880	0.0164445
665.958	0.0164261
666.036	0.0165044
666.114	0.0165448
666.192	0.0162205
666.271	0.0164266
666.349	0.0164858
666.427	0.0163992
666.505	0.0164201
666.583	0.0162960
666.661	0.0163777
666.739	0.0164550
666.817	0.0162872
666.896	0.0163232
666.974	0.0164554
667.052	0.0164158
667.130	0.0163412
667.208	0.0163642
667.286	0.0164259
667.364	0.0164670
667.442	0.0165224
667.521	0.0163598
667.599	0.0163630
667.677	0.0164107
667.755	0.0165159
667.833	0.0163954
667.911	0.0163477
667.989	0.0162872
668.067	0.0163924
668.146	0.0164040
668.224	0.0165105
668.302	0.0164056
668.380	0.0164841
668.458	0.0164408
668.536	0.0165894
668.614	0.0163830
668.692	0.0162669
668.771	0.0164883
668.849	0.0164665
668.927	0.0164384
669.005	0.0164478
669.083	0.0164221
669.161	0.0164272
669.239	0.0163876
669.317	0.0163899
669.396	0.0163461
669.474	0.0163986
669.552	0.0164067
669.630	0.0164362
669.708	0.0164489
669.786	0.0163359
669.864	0.0163796
669.942	0.0163788
670.021	0.0163444
670.099	0.0164332
670.177	0.0164759
670.255	0.0164655
670.333	0.0163899
670.411	0.0163659
670.489	0.0163781
670.567	0.0164546
670.646	0.0164619
670.724	0.0163937
670.802	0.0162345
670.880	0.0162066
670.958	0.0164002
671.036	0.0165685
671.114	0.0162776
671.192	0.0163371
671.271	0.0163629
671.349	0.0164481
671.427	0.0162909
671.505	0.0162927
671.583	0.0163802
671.661	0.0164716
671.739	0.0164264
671.817	0.0163582
671.896	0.0165107
671.974	0.0164214
672.052	0.0164386
672.130	0.0163059
672.208	0.0164367
672.286	0.0164184
672.364	0.0164671
672.442	0.0162856
672.521	0.0163238
672.599	0.0163515
672.677	0.0162843
672.755	0.0163992
672.833	0.0164146
672.911	0.0163357
672.989	0.0164328
673.067	0.0165066
673.146	0.0163178
673.224	0.0163390
673.302	0.0163627
673.380	0.0164552
673.458	0.0164525
673.536	0.0163883
673.614	0.0163369
673.692	0.0164502
673.771	0.0164311
673.849	0.0163786
673.927	0.0163772
674.005	0.0163165
674.083	0.0163297
674.161	0.0164311
674.239	0.0163396
674.317	0.0163837
674.396	0.0163264
674.474	0.0164151
674.552	0.0163560
674.630	0.0164483
674.708	0.0164762
674.786	0.0163422
674.864	0.0164226
674.942	0.0164330
675.021	0.0164514
675.099	0.0163670
675.177	0.0163646
675.255	0.0164951
675.333	0.0165105
675.411	0.0164373
675.489	0.0165022
675.567	0.0164941
675.646	0.0163556
675.724	0.0163246
675.802	0.0163161
675.880	0.0164474
675.958	0.0164637
676.036	0.0163551
676.114	0.0163821
676.192	0.0164377
676.271	0.0164975
676.349	0.0163921
676.427	0.0162958
676.505	0.0163401
676.583	0.0163557
676.661	0.0163596
676.739	0.0163916
676.817	0.0163712
676.896	0.0162934
676.974	0.0164214
677.052	0.0164989
677.130	0.0165108
677.208	0.0164946
677.286	0.0163494
677.364	0.0162943
677.442	0.0163477
677.521	0.0163312
677.599	0.0164420
677.677	0.0163612
677.755	0.0162933
677.833	0.0163773
677.911	0.0163577
677.989	0.0164919
678.067	0.0164371
678.146	0.0163793
678.224	0.0164144
678.302	0.0165517
678.380	0.0165621
678.458	0.0163794
678.536	0.0165084
678.614	0.0163823
678.692	0.0165439
678.771	0.0164992
678.849	0.0163478
678.927	0.0164783
679.005	0.0165134
679.083	0.0163036
679.161	0.0163424
679.239	0.0163743
679.317	0.0164214
679.396	0.0164578
679.474	0.0164807
679.552	0.0164006
679.630	0.0163635
679.708	0.0163365
679.786	0.0164057
679.864	0.0163506
679.942	0.0162960
680.021	0.0163910
680.099	0.0163426
680.177	0.0165494
680.255	0.0163710
680.333	0.0163397
680.411	0.0164433
680.489	0.0163094
680.567	0.0164476
680.646	0.0163856
680.724	0.0165377
680.802	0.0164169
680.880	0.0163461
680.958	0.0164577
681.036	0.0164784
681.114	0.0164044
681.192	0.0163541
681.271	0.0163657
681.349	0.0162818
681.427	0.0164322
681.505	0.0164170
681.583	0.0164822
681.661	0.0164018
681.739	0.0163673
681.817	0.0163018
681.896	0.0163494
681.974	0.0165172
682.052	0.0165771
682.130	0.0163934
682.208	0.0163132
682.286	0.0164652
682.364	0.0164349
682.442	0.0163172
682.521	0.0165086
682.599	0.0164223
682.677	0.0164485
682.755	0.0164499
682.833	0.0164735
682.911	0.0165320
682.989	0.0163469
683.067	0.0163086
683.146	0.0163525
683.224	0.0163361
683.302	0.0163350
683.380	0.0164185
683.458	0.0166380
683.536	0.0164826
683.614	0.0164003
683.692	0.0163692
683.771	0.0164101
683.849	0.0163876
683.927	0.0164532
684.005	0.0164562
684.083	0.0164549
684.161	0.0164017
684.239	0.0165231
684.317	0.0164421
684.396	0.0165474
684.474	0.0165304
684.552	0.0164906
684.630	0.0164285
684.708	0.0164153
684.786	0.0164245
684.864	0.0163286
684.942	0.0164411
685.021	0.0164610
685.099	0.0164148
685.177	0.0166068
685.255	0.0163592
685.333	0.0164342
685.411	0.0163830
685.489	0.0163871
685.567	0.0165022
685.646	0.0164096
685.724	0.0164928
685.802	0.0165773
685.880	0.0163552
685.958	0.0163071
686.036	0.0163590
686.114	0.0163725
686.192	0.0164149
686.271	0.0165047
686.349	0.0163001
686.427	0.0163268
686.505	0.0164165
686.583	0.0164754
686.661	0.0164440
686.739	0.0165265
686.817	0.0163910
686.896	0.0164962
686.974	0.0163815
687.052	0.0164120
687.130	0.0163685
687.208	0.0163219
687.286	0.0164243
687.364	0.0164635
687.442	0.0163466
687.521	0.0164149
687.599	0.0162312
687.677	0.0164513
687.755	0.0165157
687.833	0.0164927
687.911	0.0163937
687.989	0.0163410
688.067	0.0164330
688.146	0.0164628
688.224	0.0164319
688.302	0.0164511
688.380	0.0164325
688.458	0.0164978
688.536	0.0164170
688.614	0.0163831
688.692	0.0164191
688.771	0.0165100
688.849	0.0163662
688.927	0.0164030
689.005	0.0163789
689.083	0.0164513
689.161	0.0164752
689.239	0.0164139
689.317	0.0164552
689.396	0.0164586
689.474	0.0162387
689.552	0.0163103
689.630	0.0163702
689.708	0.0164783
689.786	0.0163757
689.864	0.0163166
689.942	0.0163834
690.021	0.0162994
690.099	0.0164008
690.177	0.0163058
690.255	0.0164306
690.333	0.0164794
690.411	0.0163858
690.489	0.0163423
690.567	0.0164855
690.646	0.0163869
690.724	0.0164104
690.802	0.0162354
690.880	0.0163881
690.958	0.0164343
691.036	0.0163350
691.114	0.0163880
691.192	0.0163773
691.271	0.0163286
691.349	0.0163132
691.427	0.0164217
691.505	0.0164606
691.583	0.0164382
691.661	0.0164223
691.739	0.0164819
691.817	0.0164465
691.896	0.0163399
691.974	0.0163297
692.052	0.0164553
692.130	0.0163488
692.208	0.0164112
692.286	0.0163075
692.364	0.0163014
692.442	0.0163583
692.521	0.0163115
692.599	0.0164333
692.677	0.0165262
692.755	0.0164901
692.833	0.0164001
692.911	0.0164001
692.989	0.0163451
693.067	0.0164670
693.146	0.0164363
693.224	0.0162981
693.302	0.0162935
693.380	0.0165326
693.458	0.0165294
693.536	0.0163576
693.614	0.0163023
693.692	0.0164102
693.771	0.0165276
693.849	0.0164473
693.927	0.0163817
694.005	0.0163612
694.083	0.0163774
694.161	0.0162716
694.239	0.0164331
694.317	0.0164581
694.396	0.0164028
694.474	0.0165261
694.552	0.0164529
694.630	0.0162827
694.708	0.0162734
694.786	0.0164845
694.864	0.0164965
694.942	0.0163404
695.021	0.0163304
695.099	0.0163552
695.177	0.0162556
695.255	0.0162610
695.333	0.0164095
695.411	0.0164386
695.489	0.0164849
695.567	0.0164526
695.646	0.0163501
695.724	0.0163921
695.802	0.0163998
695.880	0.0164154
695.958	0.0163086
696.036	0.0163055
696.114	0.0163228
696.192	0.0164192
696.271	0.0163780
696.349	0.0163918
696.427	0.0164195
696.505	0.0165406
696.583	0.0163535
696.661	0.0163182
696.739	0.0164220
696.817	0.0163572
696.896	0.0163306
696.974	0.0163510
697.052	0.0163107
697.130	0.0163074
697.208	0.0164467
697.286	0.0164903
697.364	0.0163296
697.442	0.0164254
697.521	0.0165050
697.599	0.0164565
697.677	0.0164230
697.755	0.0163443
697.833	0.0162917
697.911	0.0163439
697.989	0.0164227
698.067	0.0163718
698.146	0.0164387
698.224	0.0164654
698.302	0.0163413
698.380	0.0165092
698.458	0.0165046
698.536	0.0162693
698.614	0.0163470
698.692	0.0164310
698.771	0.0163961
698.849	0.0164610
698.927	0.0164034
699.005	0.0163470
699.083	0.0164639
699.161	0.0164300
699.239	0.0163300
699.317	0.0164585
699.396	0.0164323
699.474	0.0163313
699.552	0.0164360
699.630	0.0164442
699.708	0.0164149
699.786	0.0163595
699.864	0.0163892
699.942	0.0163774
700.021	0.0164793
700.099	0.0164590
700.177	0.0164098
700.255	0.0163491
700.333	0.0163586
700.411	0.0164353
700.489	0.0164122
700.567	0.0163343
700.646	0.0164108
700.724	0.0165567
700.802	0.0164141
700.880	0.0164695
700.958	0.0163687
701.036	0.0163845
701.114	0.0165002
701.192	0.0164276
701.271	0.0163886
701.349	0.0163468
701.427	0.0164906
701.505	0.0164141
701.583	0.0163471
701.661	0.0164746
701.739	0.0163950
701.817	0.0163886
701.896	0.0163536
701.974	0.0164835
702.052	0.0164555
702.130	0.0164183
702.208	0.0163228
702.286	0.0163010
702.364	0.0163418
702.442	0.0163931
702.521	0.0164868
702.599	0.0163747
702.677	0.0164743
702.755	0.0164048
702.833	0.0164811
702.911	0.0164494
702.989	0.0163971
703.067	0.0163783
703.146	0.0163604
703.224	0.0163450
703.302	0.0163599
703.380	0.0163914
703.458	0.0163766
703.536	0.0164411
703.614	0.0163988
703.692	0.0165040
703.771	0.0165020
703.849	0.0163474
703.927	0.0163779
704.005	0.0165218
704.083	0.0163591
704.161	0.0165241
704.239	0.0164192
704.317	0.0164626
704.396	0.0163116
704.474	0.0164807
704.552	0.0162581
704.630	0.0162890
704.708	0.0164053
704.786	0.0165051
704.864	0.0163900
704.942	0.0163153
705.021	0.0163867
705.099	0.0164336
705.177	0.0163599
705.255	0.0164143
705.333	0.0163857
705.411	0.0164122
705.489	0.0164270
705.567	0.0164132
705.646	0.0163856
705.724	0.0163298
705.802	0.0164088
705.880	0.0164620
705.958	0.0162453
706.036	0.0164316
706.114	0.0163005
706.192	0.0164423
706.271	0.0164339
706.349	0.0163628
706.427	0.0164188
706.505	0.0164612
706.583	0.0162690
706.661	0.0164061
706.739	0.0164484
706.817	0.0164773
706.896	0.0164235
706.974	0.0163119
707.052	0.0164124
707.130	0.0163413
707.208	0.0164326
707.286	0.0164133
707.364	0.0162581
707.442	0.0163144
707.521	0.0164477
707.599	0.0164490
707.677	0.0164706
707.755	0.0163758
707.833	0.0163399
707.911	0.0162555
707.989	0.0164397
708.067	0.0163922
708.146	0.0165221
708.224	0.0163799
708.302	0.0162909
708.380	0.0163190
708.458	0.0162050
708.536	0.0163876
708.614	0.0164734
708.692	0.0164628
708.771	0.0164462
708.849	0.0164376
708.927	0.0163831
709.005	0.0165285
709.083	0.0163852
709.161	0.0163126
709.239	0.0164103
709.317	0.0165141
709.396	0.0163701
709.474	0.0164443
709.552	0.0163640
709.630	0.0163474
709.708	0.0163375
709.786	0.0164480
709.864	0.0163594
709.942	0.0163805
710.021	0.0164720
710.099	0.0163645
710.177	0.0162187
710.255	0.0162327
710.333	0.0163578
710.411	0.0163703
710.489	0.0164188
710.567	0.0163845
710.646	0.0163786
710.724	0.0163929
710.802	0.0164013
710.880	0.0163888
710.958	0.0164314
711.036	0.0163259
711.114	0.0165312
711.192	0.0164655
711.271	0.0162529
711.349	0.0164445
711.427	0.0164548
711.505	0.0163416
711.583	0.0164347
711.661	0.0164191
711.739	0.0163229
711.817	0.0164055
711.896	0.0164827
711.974	0.0163416
712.052	0.0163507
712.130	0.0164326
712.208	0.0164531
712.286	0.0163687
712.364	0.0165041
712.442	0.0163451
712.521	0.0163859
712.599	0.0164795
712.677	0.0164553
712.755	0.0165154
712.833	0.0163661
712.911	0.0163527
712.989	0.0164452
713.067	0.0162447
713.146	0.0163672
713.224	0.0164217
713.302	0.0163637
713.380	0.0163488
713.458	0.0163647
713.536	0.0163268
713.614	0.0164082
713.692	0.0164776
713.771	0.0163204
713.849	0.0164675
713.927	0.0163506
714.005	0.0163613
714.083	0.0164588
714.161	0.0164661
714.239	0.0162994
714.317	0.0164127
714.396	0.0165086
714.474	0.0164082
714.552	0.0163807
714.630	0.0164466
714.708	0.0164193
714.786	0.0164072
714.864	0.0165937
714.942	0.0164977
715.021	0.0162680
715.099	0.0163532
715.177	0.0164748
715.255	0.0164902
715.333	0.0165302
715.411	0.0162971
715.489	0.0163732
715.567	0.0165099
715.646	0.0163885
715.724	0.0164069
715.802	0.0163322
715.880	0.0165258
715.958	0.0163460
716.036	0.0164118
716.114	0.0164046
716.192	0.0162992
716.271	0.0162922
716.349	0.0163583
716.427	0.0164806
716.505	0.0163692
716.583	0.0163760
716.661	0.0163605
716.739	0.0164134
716.817	0.0163715
716.896	0.0164281
716.974	0.0163572
717.052	0.0163393
717.130	0.0164008
717.208	0.0162014
717.286	0.0164306
717.364	0.0164077
717.442	0.0162804
717.521	0.0164550
717.599	0.0163857
717.677	0.0163529
717.755	0.0163158
717.833	0.0163072
717.911	0.0164861
717.989	0.0163509
718.067	0.0165112
718.146	0.0164236
718.224	0.0162500
718.302	0.0163759
718.380	0.0164668
718.458	0.0164498
718.536	0.0163840
718.614	0.0163718
718.692	0.0163956
718.771	0.0163461
718.849	0.0165110
718.927	0.0163652
719.005	0.0164721
719.083	0.0163177
719.161	0.0162479
719.239	0.0164127
719.317	0.0164901
719.396	0.0163756
719.474	0.0164397
719.552	0.0161975
719.630	0.0164938
719.708	0.0163983
719.786	0.0163313
719.864	0.0162897
719.942	0.0164622
720.021	0.0164754
720.099	0.0162885
720.177	0.0164079
720.255	0.0164180
720.333	0.0163642
720.411	0.0164530
720.489	0.0164265
720.567	0.0163749
720.646	0.0163918
720.724	0.0163186
720.802	0.0163474
720.880	0.0161970
720.958	0.0162749
721.036	0.0164522
721.114	0.0164377
721.192	0.0163602
721.271	0.0163365
721.349	0.0164295
721.427	0.0163713
721.505	0.0163973
721.583	0.0163841
721.661	0.0163344
721.739	0.0164723
721.817	0.0164975
721.896	0.0163116
721.974	0.0163663
722.052	0.0163191
722.130	0.0162370
722.208	0.0162499
722.286	0.0163544
722.364	0.0164024
722.442	0.0164700
722.521	0.0164027
722.599	0.0163082
722.677	0.0163934
722.755	0.0163309
722.833	0.0163467
722.911	0.0162545
722.989	0.0164243
723.067	0.0164605
723.146	0.0164694
723.224	0.0164709
723.302	0.0164298
723.380	0.0163926
723.458	0.0162949
723.536	0.0163139
723.614	0.0163090
723.692	0.0164160
723.771	0.0163936
723.849	0.0163273
723.927	0.0163855
724.005	0.0163979
724.083	0.0162801
724.161	0.0164377
724.239	0.0163831
724.317	0.0162424
724.396	0.0162897
724.474	0.0163943
724.552	0.0163882
724.630	0.0164780
724.708	0.0162531
724.786	0.0163817
724.864	0.0163515
724.942	0.0164459
725.021	0.0165158
725.099	0.0164334
725.177	0.0163950
725.255	0.0164556
725.333	0.0164729
725.411	0.0164605
725.489	0.0164874
725.567	0.0164567
725.646	0.0163970
725.724	0.0164803
725.802	0.0164767
725.880	0.0164676
725.958	0.0164272
726.036	0.0163670
726.114	0.0163751
726.192	0.0165479
726.271	0.0164790
726.349	0.0163850
726.427	0.0164101
726.505	0.0164866
726.583	0.0163927
726.661	0.0163768
726.739	0.0164778
726.817	0.0164608
726.896	0.0164747
726.974	0.0164098
727.052	0.0164925
727.130	0.0163879
727.208	0.0164980
727.286	0.0164729
727.364	0.0163895
727.442	0.0163888
727.521	0.0163913
727.599	0.0162627
727.677	0.0165046
727.755	0.0164608
727.833	0.0163921
727.911	0.0163647
727.989	0.0165105
728.067	0.0165096
728.146	0.0163504
728.224	0.0164628
728.302	0.0163013
728.380	0.0163243
728.458	0.0164712
728.536	0.0165222
728.614	0.0165261
728.692	0.0164111
728.771	0.0163557
728.849	0.0164574
728.927	0.0163507
729.005	0.0164024
729.083	0.0164056
729.161	0.0164725
729.239	0.0164658
729.317	0.0164254
729.396	0.0165588
729.474	0.0164860
729.552	0.0164160
729.630	0.0164120
729.708	0.0164388
729.786	0.0164913
729.864	0.0165282
729.942	0.0164330
730.021	0.0163788
730.099	0.0164902
730.177	0.0166035
730.255	0.0164494
730.333	0.0163858
730.411	0.0164718
730.489	0.0164471
730.567	0.0163741
730.646	0.0163810
730.724	0.0163677
730.802	0.0164381
730.880	0.0164571
730.958	0.0164825
731.036	0.0164865
731.114	0.0163915
731.192	0.0164006
731.271	0.0162611
731.349	0.0163336
731.427	0.0163705
731.505	0.0163009
731.583	0.0165673
731.661	0.0164604
731.739	0.0164706
731.817	0.0165802
731.896	0.0164574
731.974	0.0164445
732.052	0.0163659
732.130	0.0165817
732.208	0.0165100
732.286	0.0164290
732.364	0.0164323
732.442	0.0164203
732.521	0.0164756
732.599	0.0164025
732.677	0.0164901
732.755	0.0163243
732.833	0.0163697
732.911	0.0164336
732.989	0.0163890
733.067	0.0162276
733.146	0.0163322
733.224	0.0164021
733.302	0.0165023
733.380	0.0163597
733.458	0.0163983
733.536	0.0163596
733.614	0.0162906
733.692	0.0163873
733.771	0.0162436
733.849	0.0163786
733.927	0.0163776
734.005	0.0163720
734.083	0.0164171
734.161	0.0163873
734.239	0.0163123
734.317	0.0162212
734.396	0.0163037
734.474	0.0165494
734.552	0.0162270
734.630	0.0162722
734.708	0.0164268
734.786	0.0161907
734.864	0.0162366
734.942	0.0164063
735.021	0.0163694
735.099	0.0163107
735.177	0.0162925
735.255	0.0164082
735.333	0.0163581
735.411	0.0164281
735.489	0.0163654
735.567	0.0163906
735.646	0.0164053
735.724	0.0163058
735.802	0.0163734
735.880	0.0162976
735.958	0.0163555
736.036	0.0163490
736.114	0.0162366
736.192	0.0162991
736.271	0.0163533
736.349	0.0163045
736.427	0.0163570
736.505	0.0163880
736.583	0.0162848
736.661	0.0162778
736.739	0.0164517
736.817	0.0163851
736.896	0.0162215
736.974	0.0163139
737.052	0.0163264
737.130	0.0162920
737.208	0.0163059
737.286	0.0163722
737.364	0.0163082
737.442	0.0164211
737.521	0.0163198
737.599	0.0162894
737.677	0.0163414
737.755	0.0162057
737.833	0.0164151
737.911	0.0164337
737.989	0.0163397
738.067	0.0164443
738.146	0.0163719
738.224	0.0163113
738.302	0.0164764
738.380	0.0162766
738.458	0.0164315
738.536	0.0163416
738.614	0.0164066
738.692	0.0163552
738.771	0.0163352
738.849	0.0164665
738.927	0.0163499
739.005	0.0162908
739.083	0.0164188
739.161	0.0163935
739.239	0.0162413
739.317	0.0164322
739.396	0.0163983
739.474	0.0162833
739.552	0.0164796
739.630	0.0164732
739.708	0.0164576
739.786	0.0162049
739.864	0.0163995
739.942	0.0164896
740.021	0.0162697
740.099	0.0164533
740.177	0.0163058
740.255	0.0163140
740.333	0.0164272
740.411	0.0164133
740.489	0.0164062
740.567	0.0163667
740.646	0.0162766
740.724	0.0164301
740.802	0.0164683
740.880	0.0164333
740.958	0.0164001
741.036	0.0164877
741.114	0.0164763
741.192	0.0164554
741.271	0.0164421
741.349	0.0165314
741.427	0.0165187
741.505	0.0165076
741.583	0.0165002
741.661	0.0165623
741.739	0.0166183
741.817	0.0164275
741.896	0.0165097
741.974	0.0165138
742.052	0.0164315
742.130	0.0163159
742.208	0.0164297
742.286	0.0162234
742.364	0.0162249
742.442	0.0162108
742.521	0.0159516
742.599	0.0160803
742.677	0.0159985
742.755	0.0159894
742.833	0.0161481
742.911	0.0162054
742.989	0.0164323
743.067	0.0164623
743.146	0.0168454
743.224	0.0167772
743.302	0.0170398
743.380	0.0171477
743.458	0.0171643
743.536	0.0171633
743.614	0.0171259
743.692	0.0170341
743.771	0.0169771
743.849	0.0168350
743.927	0.0167854
744.005	0.0164665
744.083	0.0163666
744.161	0.0162051
744.239	0.0161555
744.317	0.0158929
744.396	0.0157509
744.474	0.0155672
744.552	0.0155064
744.630	0.0151793
744.708	0.0152586
744.786	0.0154361
744.864	0.0155046
744.942	0.0158829
745.021	0.0161928
745.099	0.0164399
745.177	0.0169458
745.255	0.0171506
745.333	0.0175615
745.411	0.0176289
745.489	0.0176933
745.567	0.0175227
745.646	0.0172906
745.724	0.0170065
745.802	0.0167243
745.880	0.0165068
745.958	0.0161906
746.036	0.0158844
746.114	0.0159671
746.192	0.0161877
746.271	0.0163038
746.349	0.0164867
746.427	0.0167777
746.505	0.0168731
746.583	0.0169322
746.661	0.0167770
746.739	0.0168097
746.817	0.0165476
746.896	0.0161099
746.974	0.0156464
747.052	0.0155184
747.130	0.0150420
747.208	0.0149358
747.286	0.0150754
747.364	0.0153240
747.442	0.0154639
747.521	0.0159022
747.599	0.0163735
747.677	0.0166726
747.755	0.0168639
747.833	0.0169967
747.911	0.0171225
747.989	0.0170174
748.067	0.0168457
748.146	0.0167292
748.224	0.0165588
748.302	0.0163703
748.380	0.0160883
748.458	0.0161665
748.536	0.0162044
748.614	0.0160486
748.692	0.0161726
748.771	0.0161253
748.849	0.0161228
748.927	0.0164384
749.005	0.0165206
749.083	0.0165787
749.161	0.0168810
749.239	0.0169552
749.317	0.0171455
749.396	0.0172759
749.474	0.0174785
749.552	0.0175794
749.630	0.0176051
749.708	0.0175750
749.786	0.0175827
749.864	0.0175345
749.942	0.0173914
750.021	0.0173182
750.099	0.0170189
750.177	0.0169099
750.255	0.0166687
750.333	0.0162834
750.411	0.0158475
750.489	0.0152460
750.567	0.0146533
750.646	0.0142056
750.724	0.0136081
750.802	0.0131857
750.880	0.0129277
750.958	0.0129461
751.036	0.0130362
751.114	0.0132352
751.192	0.0138721
751.271	0.0145483
751.349	0.0153005
751.427	0.0164111
751.505	0.0171392
751.583	0.0182960
751.661	0.0191356
751.739	0.0200056
751.817	0.0205928
751.896	0.0210406
751.974	0.0212794
752.052	0.0213850
752.130	0.0212180
752.208	0.0210762
752.286	0.0206597
752.364	0.0201972
752.442	0.0195043
752.521	0.0188128
752.599	0.0180546
752.677	0.0171723
752.755	0.0160181
752.833	0.0151271
752.911	0.0142214
752.989	0.0133057
753.067	0.0124351
753.146	0.0117166
753.224	0.0107658
753.302	0.0103035
753.380	0.00996193
753.458	0.0100422
753.536	0.0101030
753.614	0.0103275
753.692	0.0111900
753.771	0.0121287
753.849	0.0130288
753.927	0.0141884
754.005	0.0155775
754.083	0.0169431
754.161	0.0183730
754.239	0.0196844
754.317	0.0208661
754.396	0.0217822
754.474	0.0225556
754.552	0.0230567
754.630	0.0233074
754.708	0.0236366
754.786	0.0231777
754.864	0.0228707
754.942	0.0221935
755.021	0.0214093
755.099	0.0206428
755.177	0.0194710
755.255	0.0183824
755.333	0.0174242
755.411	0.0162561
755.489	0.0152404
755.567	0.0142815
755.646	0.0135327
755.724	0.0126974
755.802	0.0121243
755.880	0.0117462
755.958	0.0114386
756.036	0.0113852
756.114	0.0112300
756.192	0.0114078
756.271	0.0114693
756.349	0.0118629
756.427	0.0124261
756.505	0.0130173
756.583	0.0135305
756.661	0.0142320
756.739	0.0150441
756.817	0.0159455
756.896	0.0167307
756.974	0.0174171
757.052	0.0182094
757.130	0.0187994
757.208	0.0195824
757.286	0.0200475
757.364	0.0203505
757.442	0.0209208
757.521	0.0211127
757.599	0.0212364
757.677	0.0212952
757.755	0.0211581
757.833	0.0206406
757.911	0.0202975
757.989	0.0195999
758.067	0.0189059
758.146	0.0183012
758.224	0.0174775
758.302	0.0164060
758.380	0.0155896
758.458	0.0147817
758.536	0.0140106
758.614	0.0131818
758.692	0.0128035
758.771	0.0124741
758.849	0.0119417
758.927	0.0119454
759.005	0.0120261
759.083	0.0122708
759.161	0.0125546
759.239	0.0130694
759.317	0.0135266
759.396	0.0139365
759.474	0.0148953
759.552	0.0153117
759.630	0.0158191
759.708	0.0165231
759.786	0.0172097
759.864	0.0177071
759.942	0.0180858
760.021	0.0186974
760.099	0.0190637
760.177	0.0192810
760.255	0.0195995
760.333	0.0197043
760.411	0.0196841
760.489	0.0196433
760.567	0.0195486
760.646	0.0194074
760.724	0.0191741
760.802	0.0186423
760.880	0.0182382
760.958	0.0178394
761.036	0.0173833
761.114	0.0166749
761.192	0.0162801
761.271	0.0157137
761.349	0.0151364
761.427	0.0147840
761.505	0.0145377
761.583	0.0143420
761.661	0.0140721
761.739	0.0138615
761.817	0.0136539
761.896	0.0136578
761.974	0.0135916
762.052	0.0135136
762.130	0.0136615
762.208	0.0138026
762.286	0.0139429
762.364	0.0141663
762.442	0.0143419
762.521	0.0148968
762.599	0.0153201
762.677	0.0157072
762.755	0.0161591
762.833	0.0168478
762.911	0.0172312
762.989	0.0176082
763.067	0.0182188
763.146	0.0185326
763.224	0.0188563
763.302	0.0189243
763.380	0.0191880
763.458	0.0192489
763.536	0.0192347
763.614	0.0191775
763.692	0.0187227
763.771	0.0183933
763.849	0.0181699
763.927	0.0176340
764.005	0.0170531
764.083	0.0166160
764.161	0.0162881
764.239	0.0159859
764.317	0.0157314
764.396	0.0157189
764.474	0.0156145
764.552	0.0153061
764.630	0.0152644
764.708	0.0151614
764.786	0.0151817
764.864	0.0151905
764.942	0.0151917
765.021	0.0152671
765.099	0.0152594
765.177	0.0154507
765.255	0.0152937
765.333	0.0154087
765.411	0.0153549
765.489	0.0154328
765.567	0.0155443
765.646	0.0152356
765.724	0.0153135
765.802	0.0152818
765.880	0.0151876
765.958	0.0154686
766.036	0.0156062
766.114	0.0155064
766.192	0.0157138
766.271	0.0158762
766.349	0.0160370
766.427	0.0162909
766.505	0.0163662
766.583	0.0165823
766.661	0.0166765
766.739	0.0168626
766.817	0.0170660
766.896	0.0171064
766.974	0.0172126
767.052	0.0175297
767.130	0.0176077
767.208	0.0176803
767.286	0.0176751
767.364	0.0177054
767.442	0.0177754
767.521	0.0177241
767.599	0.0176312
767.677	0.0174264
767.755	0.0173470
767.833	0.0171902
767.911	0.0170365
767.989	0.0167841
768.067	0.0165178
768.146	0.0164299
768.224	0.0162801
768.302	0.0160731
768.380	0.0158135
768.458	0.0158255
768.536	0.0156159
768.614	0.0154958
768.692	0.0153762
768.771	0.0153629
768.849	0.0153228
768.927	0.0152811
769.005	0.0155240
769.083	0.0157770
769.161	0.0159715
769.239	0.0162535
769.317	0.0165252
769.396	0.0167416
769.474	0.0168655
769.552	0.0170095
769.630	0.0172172
769.708	0.0174960
769.786	0.0172827
769.864	0.0171401
769.942	0.0169473
770.021	0.0166562
770.099	0.0164573
770.177	0.0160882
770.255	0.0158387
770.333	0.0157586
770.411	0.0155672
770.489	0.0153016
770.567	0.0152584
770.646	0.0152586
770.724	0.0152038
770.802	0.0153778
770.880	0.0153103
770.958	0.0155402
771.036	0.0155303
771.114	0.0157199
771.192	0.0158830
771.271	0.0160215
771.349	0.0161563
771.427	0.0161315
771.505	0.0162591
771.583	0.0162518
771.661	0.0165360
771.739	0.0166113
771.817	0.0164750
771.896	0.0165871
771.974	0.0166219
772.052	0.0166444
772.130	0.0166016
772.208	0.0169170
772.286	0.0168869
772.364	0.0169151
772.442	0.0169160
772.521	0.0168919
772.599	0.0170075
772.677	0.0169078
772.755	0.0169156
772.833	0.0168913
772.911	0.0168491
772.989	0.0169112
773.067	0.0167739
773.146	0.0166161
773.224	0.0166849
773.302	0.0164553
773.380	0.0165009
773.458	0.0165188
773.536	0.0163086
773.614	0.0162492
773.692	0.0162634
773.771	0.0164969
773.849	0.0164705
773.927	0.0165459
774.005	0.0164421
774.083	0.0165941
774.161	0.0165410
774.239	0.0165855
774.317	0.0165438
774.396	0.0164818
774.474	0.0164692
774.552	0.0163808
774.630	0.0163372
774.708	0.0163426
774.786	0.0161277
774.864	0.0161019
774.942	0.0160276
775.021	0.0160577
775.099	0.0162163
775.177	0.0160193
775.255	0.0161687
775.333	0.0160323
775.411	0.0160999
775.489	0.0161962
775.567	0.0161849
775.646	0.0160986
775.724	0.0159850
775.802	0.0160046
775.880	0.0158847
775.958	0.0157424
776.036	0.0157700
776.114	0.0158200
776.192	0.0156931
776.271	0.0157047
776.349	0.0156369
776.427	0.0158797
776.505	0.0160201
776.583	0.0161434
776.661	0.0161602
776.739	0.0164461
776.817	0.0164443
776.896	0.0165720
776.974	0.0167716
777.052	0.0169466
777.130	0.0171003
777.208	0.0173847
777.286	0.0175106
777.364	0.0176595
777.442	0.0177001
777.521	0.0179172
777.599	0.0178754
777.677	0.0178571
777.755	0.0176823
777.833	0.0178299
777.911	0.0176364
777.989	0.0173044
778.067	0.0171375
778.146	0.0168736
778.224	0.0167715
778.302	0.0165446
778.380	0.0163414
778.458	0.0161221
778.536	0.0160426
778.614	0.0158852
778.692	0.0158743
778.771	0.0156003
778.849	0.0154205
778.927	0.0154137
779.005	0.0154687
779.083	0.0154786
779.161	0.0154388
779.239	0.0155814
779.317	0.0156828
779.396	0.0157599
779.474	0.0160997
779.552	0.0163017
779.630	0.0164320
779.708	0.0166464
779.786	0.0168138
779.864	0.0170971
779.942	0.0171632
780.021	0.0174120
780.099	0.0173621
780.177	0.0174464
780.255	0.0172414
780.333	0.0174014
780.411	0.0171010
780.489	0.0169853
780.567	0.0167124
780.646	0.0164787
780.724	0.0159802
780.802	0.0156856
780.880	0.0155525
780.958	0.0155154
781.036	0.0152280
781.114	0.0149501
781.192	0.0148859
781.271	0.0148138
781.349	0.0149835
781.427	0.0150402
781.505	0.0153260
781.583	0.0155817
781.661	0.0156985
781.739	0.0158401
781.817	0.0163106
781.896	0.0167605
781.974	0.0170301
782.052	0.0172556
782.130	0.0175404
782.208	0.0177001
782.286	0.0178155
782.364	0.0178625
782.442	0.0179372
782.521	0.0178902
782.599	0.0177940
782.677	0.0174584
782.755	0.0174271
782.833	0.0173310
782.911	0.0170962
782.989	0.0168649
783.067	0.0167721
783.146	0.0165899
783.224	0.0164702
783.302	0.0163535
783.380	0.0162067
783.458	0.0161807
783.536	0.0160344
783.614	0.0161021
783.692	0.0161744
783.771	0.0161880
783.849	0.0162666
783.927	0.0162660
784.005	0.0164639
784.083	0.0165061
784.161	0.0164574
784.239	0.0165883
784.317	0.0167193
784.396	0.0168605
784.474	0.0166467
784.552	0.0166676
784.630	0.0167000
784.708	0.0166505
784.786	0.0165785
784.864	0.0164965
784.942	0.0163351
785.021	0.0162391
785.099	0.0162549
785.177	0.0161597
785.255	0.0159727
785.333	0.0158509
785.411	0.0159650
785.489	0.0160748
785.567	0.0161220
785.646	0.0159252
785.724	0.0160596
785.802	0.0159099
785.880	0.0158042
785.958	0.0159343
786.036	0.0158978
786.114	0.0158244
786.192	0.0157314
786.271	0.0158169
786.349	0.0157980
786.427	0.0157540
786.505	0.0157146
786.583	0.0157140
786.661	0.0158976
786.739	0.0159293
786.817	0.0158907
786.896	0.0159595
786.974	0.0160438
787.052	0.0160992
787.130	0.0163102
787.208	0.0164732
787.286	0.0166093
787.364	0.0166501
787.442	0.0169734
787.521	0.0171540
787.599	0.0173008
787.677	0.0173882
787.755	0.0176453
787.833	0.0175359
787.911	0.0175345
787.989	0.0177438
788.067	0.0177296
788.146	0.0175883
788.224	0.0175466
788.302	0.0172255
788.380	0.0171530
788.458	0.0169073
788.536	0.0168056
788.614	0.0164756
788.692	0.0163297
788.771	0.0161341
788.849	0.0157606
788.927	0.0157405
789.005	0.0157021
789.083	0.0155721
789.161	0.0157784
789.239	0.0157619
789.317	0.0158650
789.396	0.0161303
789.474	0.0161925
789.552	0.0163845
789.630	0.0165683
789.708	0.0166158
789.786	0.0167205
789.864	0.0169400
789.942	0.0169312
790.021	0.0168077
790.099	0.0168767
790.177	0.0170158
790.255	0.0168692
790.333	0.0168524
790.411	0.0165769
790.489	0.0165029
790.567	0.0164124
790.646	0.0162535
790.724	0.0162154
790.802	0.0161092
790.880	0.0160941
790.958	0.0161316
791.036	0.0161639
791.114	0.0161274
791.192	0.0160047
791.271	0.0160527
791.349	0.0159198
791.427	0.0159846
791.505	0.0159483
791.583	0.0160271
791.661	0.0158620
791.739	0.0158678
791.817	0.0159781
791.896	0.0159030
791.974	0.0159325
792.052	0.0160104
792.130	0.0159259
792.208	0.0160299
792.286	0.0161052
792.364	0.0161085
792.442	0.0160164
792.521	0.0160758
792.599	0.0161465
792.677	0.0161932
792.755	0.0163289
792.833	0.0163267
792.911	0.0163984
792.989	0.0164636
793.067	0.0166062
793.146	0.0166803
793.224	0.0166246
793.302	0.0167883
793.380	0.0168361
793.458	0.0169757
793.536	0.0169078
793.614	0.0167360
793.692	0.0168417
793.771	0.0166363
793.849	0.0167643
793.927	0.0165861
794.005	0.0165762
794.083	0.0164781
794.161	0.0163726
794.239	0.0164441
794.317	0.0163413
794.396	0.0163083
794.474	0.0164352
794.552	0.0163808
794.630	0.0163448
794.708	0.0163261
794.786	0.0161818
794.864	0.0164250
794.942	0.0165571
795.021	0.0164935
795.099	0.0164169
795.177	0.0165943
795.255	0.0165889
795.333	0.0164662
795.411	0.0165341
795.489	0.0165185
795.567	0.0164156
795.646	0.0166324
795.724	0.0164620
795.802	0.0162906
795.880	0.0164774
795.958	0.0162876
796.036	0.0161819
796.114	0.0161082
796.192	0.0161514
796.271	0.0162242
796.349	0.0160261
796.427	0.0159653
796.505	0.0160245
796.583	0.0159644
796.661	0.0158264
796.739	0.0159555
796.817	0.0158743
796.896	0.0159067
796.974	0.0160068
797.052	0.0161500
797.130	0.0160629
797.208	0.0161675
797.286	0.0162297
797.364	0.0163328
797.442	0.0165493
797.521	0.0165333
797.599	0.0165167
797.677	0.0167257
797.755	0.0167837
797.833	0.0168733
797.911	0.0167247
797.989	0.0166232
798.067	0.0165000
798.146	0.0164841
798.224	0.0163733
798.302	0.0164180
798.380	0.0163216
798.458	0.0162563
798.536	0.0163133
798.614	0.0161649
798.692	0.0162754
798.771	0.0163210
798.849	0.0161639
798.927	0.0164107
799.005	0.0163496
799.083	0.0163379
799.161	0.0165628
799.239	0.0164706
799.317	0.0164703
799.396	0.0165624
799.474	0.0166320
799.552	0.0166466
799.630	0.0166106
799.708	0.0166706
799.786	0.0165826
799.864	0.0166445
799.942	0.0166761
800.021	0.0165234
800.099	0.0166764
800.177	0.0166558
800.255	0.0166553
800.333	0.0163696
800.411	0.0164182
800.489	0.0163864
800.567	0.0162748
800.646	0.0162569
800.724	0.0162641
800.802	0.0161772
800.880	0.0162287
800.958	0.0163152
801.036	0.0163773
801.114	0.0163528
801.192	0.0166191
801.271	0.0166488
801.349	0.0166318
801.427	0.0167506
801.505	0.0167814
801.583	0.0168349
801.661	0.0166883
801.739	0.0167558
801.817	0.0167994
801.896	0.0167363
801.974	0.0165853
802.052	0.0165334
802.130	0.0162209
802.208	0.0161951
802.286	0.0160525
802.364	0.0159550
802.442	0.0158744
802.521	0.0157301
802.599	0.0156841
802.677	0.0157647
802.755	0.0156601
802.833	0.0156922
802.911	0.0157895
802.989	0.0156996
803.067	0.0158113
803.146	0.0157893
803.224	0.0158863
803.302	0.0160698
803.380	0.0161477
803.458	0.0161015
803.536	0.0162727
803.614	0.0163364
803.692	0.0164973
803.771	0.0166339
803.849	0.0164890
803.927	0.0165812
804.005	0.0165810
804.083	0.0165734
804.161	0.0166016
804.239	0.0166898
804.317	0.0166293
804.396	0.0165977
804.474	0.0165974
804.552	0.0165847
804.630	0.0165842
804.708	0.0166064
804.786	0.0165878
804.864	0.0166638
804.942	0.0166666
805.021	0.0167769
805.099	0.0168559
805.177	0.0167867
805.255	0.0168487
805.333	0.0169776
805.411	0.0170003
805.489	0.0169407
805.567	0.0170166
805.646	0.0167116
805.724	0.0167172
805.802	0.0169807
805.880	0.0167691
805.958	0.0166286
806.036	0.0164684
806.114	0.0165981
806.192	0.0166096
806.271	0.0165322
806.349	0.0165364
806.427	0.0165495
806.505	0.0165269
806.583	0.0164769
806.661	0.0165282
806.739	0.0164143
806.817	0.0164172
806.896	0.0164059
806.974	0.0163546
807.052	0.0161671
807.130	0.0162594
807.208	0.0162974
807.286	0.0161818
807.364	0.0160162
807.442	0.0161536
807.521	0.0162722
807.599	0.0161675
807.677	0.0161359
807.755	0.0159699
807.833	0.0160136
807.911	0.0160529
807.989	0.0159543
808.067	0.0161584
808.146	0.0160173
808.224	0.0160349
808.302	0.0159594
808.380	0.0160786
808.458	0.0159417
808.536	0.0159882
808.614	0.0159869
808.692	0.0159881
808.771	0.0162029
808.849	0.0161275
808.927	0.0160715
809.005	0.0163840
809.083	0.0164230
809.161	0.0163116
809.239	0.0165373
809.317	0.0165710
809.396	0.0167560
809.474	0.0166572
809.552	0.0167619
809.630	0.0169451
809.708	0.0168068
809.786	0.0169548
809.864	0.0169439
809.942	0.0168118
810.021	0.0168542
810.099	0.0168096
810.177	0.0168983
810.255	0.0167776
810.333	0.0166073
810.411	0.0167052
810.489	0.0166618
810.567	0.0165232
810.646	0.0165096
810.724	0.0165838
810.802	0.0163340
810.880	0.0162765
810.958	0.0163026
811.036	0.0162193
811.114	0.0162580
811.192	0.0161822
811.271	0.0161128
811.349	0.0162373
811.427	0.0163201
811.505	0.0162526
811.583	0.0164230
811.661	0.0165078
811.739	0.0166222
811.817	0.0166821
811.896	0.0166883
811.974	0.0165947
812.052	0.0168013
812.130	0.0166736
812.208	0.0167904
812.286	0.0168215
812.364	0.0168115
812.442	0.0166972
812.521	0.0167336
812.599	0.0167053
812.677	0.0164437
812.755	0.0165560
812.833	0.0164428
812.911	0.0163163
812.989	0.0164280
813.067	0.0164286
813.146	0.0163074
813.224	0.0165135
813.302	0.0164139
813.380	0.0164098
813.458	0.0163741
813.536	0.0163186
813.614	0.0163690
813.692	0.0166879
813.771	0.0162713
813.849	0.0161871
813.927	0.0163395
814.005	0.0164005
814.083	0.0163533
814.161	0.0162753
814.239	0.0164406
814.317	0.0164137
814.396	0.0163110
814.474	0.0163941
814.552	0.0164325
814.630	0.0162255
814.708	0.0161829
814.786	0.0161311
814.864	0.0162538
814.942	0.0161888
815.021	0.0161777
815.099	0.0162429
815.177	0.0161749
815.255	0.0162646
815.333	0.0161504
815.411	0.0161975
815.489	0.0161961
815.567	0.0162710
815.646	0.0162489
815.724	0.0163040
815.802	0.0163949
815.880	0.0164179
815.958	0.0163461
816.036	0.0164108
816.114	0.0163964
816.192	0.0165759
816.271	0.0164172
816.349	0.0160980
816.427	0.0163751
816.505	0.0164532
816.583	0.0163165
816.661	0.0162453
816.739	0.0161578
816.817	0.0162948
816.896	0.0162312
816.974	0.0162401
817.052	0.0163143
817.130	0.0163701
817.208	0.0163983
817.286	0.0165434
817.364	0.0165829
817.442	0.0167371
817.521	0.0166753
817.599	0.0168168
817.677	0.0167798
817.755	0.0168195
817.833	0.0169238
817.911	0.0169628
817.989	0.0168227
818.067	0.0167371
818.146	0.0167527
818.224	0.0168056
818.302	0.0165985
818.380	0.0165529
818.458	0.0165790
818.536	0.0163535
818.614	0.0164565
818.692	0.0163585
818.771	0.0161655
818.849	0.0163223
818.927	0.0163064
819.005	0.0161282
819.083	0.0163706
819.161	0.0161933
819.239	0.0162304
819.317	0.0162360
819.396	0.0162790
819.474	0.0162468
819.552	0.0163820
819.630	0.0163589
819.708	0.0162408
819.786	0.0163055
819.864	0.0164398
819.942	0.0164162
820.021	0.0165128
820.099	0.0165162
820.177	0.0164872
820.255	0.0163038
820.333	0.0162756
820.411	0.0164073
820.489	0.0163961
820.567	0.0163841
820.646	0.0164091
820.724	0.0163992
820.802	0.0163269
820.880	0.0162772
820.958	0.0163735
821.036	0.0163472
821.114	0.0161913
821.192	0.0160194
821.271	0.0162183
821.349	0.0163694
821.427	0.0162040
821.505	0.0163231
821.583	0.0164001
821.661	0.0162956
821.739	0.0164275
821.817	0.0165163
821.896	0.0164375
821.974	0.0165977
822.052	0.0166463
822.130	0.0165027
822.208	0.0165944
822.286	0.0165222
822.364	0.0166032
822.442	0.0166174
822.521	0.0165263
822.599	0.0165604
822.677	0.0163604
822.755	0.0164745
822.833	0.0163256
822.911	0.0163601
822.989	0.0162824
823.067	0.0162538
823.146	0.0163643
823.224	0.0162613
823.302	0.0163532
823.380	0.0162279
823.458	0.0162567
823.536	0.0162164
823.614	0.0162797
823.692	0.0162112
823.771	0.0163081
823.849	0.0164120
823.927	0.0165150
824.005	0.0164517
824.083	0.0164222
824.161	0.0165395
824.239	0.0165350
824.317	0.0166711
824.396	0.0164637
824.474	0.0165771
824.552	0.0165690
824.630	0.0165121
824.708	0.0165811
824.786	0.0165863
824.864	0.0163686
824.942	0.0165120
825.021	0.0165047
825.099	0.0164140
825.177	0.0164397
825.255	0.0164133
825.333	0.0164579
825.411	0.0164391
825.489	0.0163564
825.567	0.0162641
825.646	0.0163556
825.724	0.0163911
825.802	0.0165084
825.880	0.0163793
825.958	0.0164423
826.036	0.0164659
826.114	0.0163804
826.192	0.0163508
826.271	0.0163751
826.349	0.0165573
826.427	0.0164775
826.505	0.0163350
826.583	0.0164970
826.661	0.0164413
826.739	0.0164221
826.817	0.0163515
826.896	0.0163101
826.974	0.0164397
827.052	0.0163293
827.130	0.0163205
827.208	0.0161831
827.286	0.0159602
827.364	0.0160685
827.442	0.0161459
827.521	0.0159469
827.599	0.0160030
827.677	0.0160131
827.755	0.0160125
827.833	0.0160475
827.911	0.0160645
827.989	0.0161242
828.067	0.0162172
828.146	0.0162552
828.224	0.0163039
828.302	0.0164880
828.380	0.0164841
828.458	0.0162830
828.536	0.0166576
828.614	0.0166108
828.692	0.0166135
828.771	0.0165369
828.849	0.0165472
828.927	0.0165800
829.005	0.0165852
829.083	0.0165393
829.161	0.0165510
829.239	0.0164647
829.317	0.0165144
829.396	0.0164729
829.474	0.0162970
829.552	0.0162885
829.630	0.0164297
829.708	0.0163024
829.786	0.0162351
829.864	0.0164342
829.942	0.0162426
830.021	0.0164379
830.099	0.0163336
830.177	0.0163232
830.255	0.0164545
830.333	0.0164935
830.411	0.0165369
830.489	0.0165125
830.567	0.0165495
830.646	0.0165253
830.724	0.0167181
830.802	0.0167530
830.880	0.0165607
830.958	0.0164255
831.036	0.0165105
831.114	0.0166100
831.192	0.0164349
831.271	0.0163391
831.349	0.0165040
831.427	0.0164185
831.505	0.0162916
831.583	0.0164603
831.661	0.0162653
831.739	0.0161676
831.817	0.0162834
831.896	0.0161842
831.974	0.0161375
832.052	0.0162353
832.130	0.0161401
832.208	0.0162575
832.286	0.0163166
832.364	0.0163988
832.442	0.0164792
832.521	0.0163926
832.599	0.0163859
832.677	0.0163950
832.755	0.0164462
832.833	0.0164789
832.911	0.0164023
832.989	0.0164005
833.067	0.0164919
833.146	0.0164017
833.224	0.0165152
833.302	0.0164330
833.380	0.0163234
833.458	0.0163306
833.536	0.0163615
833.614	0.0163383
833.692	0.0162721
833.771	0.0162960
833.849	0.0162299
833.927	0.0161131
834.005	0.0161430
834.083	0.0162264
834.161	0.0162437
834.239	0.0163689
834.317	0.0164296
834.396	0.0162205
834.474	0.0163206
834.552	0.0164126
834.630	0.0164464
834.708	0.0164181
834.786	0.0165933
834.864	0.0165749
834.942	0.0163386
835.021	0.0164088
835.099	0.0165121
835.177	0.0163727
835.255	0.0164137
835.333	0.0165362
835.411	0.0164487
835.489	0.0163846
835.567	0.0163628
835.646	0.0162980
835.724	0.0162943
835.802	0.0163882
835.880	0.0162891
835.958	0.0164184
836.036	0.0164185
836.114	0.0162599
836.192	0.0163972
836.271	0.0165186
836.349	0.0164906
836.427	0.0165990
836.505	0.0166347
836.583	0.0166879
836.661	0.0166969
836.739	0.0167831
836.817	0.0168468
836.896	0.0167701
836.974	0.0167357
837.052	0.0168631
837.130	0.0167409
837.208	0.0166695
837.286	0.0167000
837.364	0.0166527
837.442	0.0166508
837.521	0.0164532
837.599	0.0164503
837.677	0.0163541
837.755	0.0164151
837.833	0.0162052
837.911	0.0162209
837.989	0.0162692
838.067	0.0163201
838.146	0.0161510
838.224	0.0161295
838.302	0.0162218
838.380	0.0161093
838.458	0.0162735
838.536	0.0162701
838.614	0.0162266
838.692	0.0162381
838.771	0.0162805
838.849	0.0162820
838.927	0.0164349
839.005	0.0163878
839.083	0.0163602
839.161	0.0165473
839.239	0.0166085
839.317	0.0163722
839.396	0.0163681
839.474	0.0164543
839.552	0.0164272
839.630	0.0163020
839.708	0.0162039
839.786	0.0163067
839.864	0.0163240
839.942	0.0162034
840.021	0.0162832
840.099	0.0163442
840.177	0.0161677
840.255	0.0161221
840.333	0.0161886
840.411	0.0160594
840.489	0.0161787
840.567	0.0161929
840.646	0.0162598
840.724	0.0162988
840.802	0.0163133
840.880	0.0164331
840.958	0.0164104
841.036	0.0164916
841.114	0.0165353
841.192	0.0165163
841.271	0.0167971
841.349	0.0166495
841.427	0.0165249
841.505	0.0167319
841.583	0.0166541
841.661	0.0165405
841.739	0.0166550
841.817	0.0165179
841.896	0.0166782
841.974	0.0165331
842.052	0.0166185
842.130	0.0164677
842.208	0.0165148
842.286	0.0165957
842.364	0.0166255
842.442	0.0164146
842.521	0.0164538
842.599	0.0165157
842.677	0.0164684
842.755	0.0164342
842.833	0.0166707
842.911	0.0164769
842.989	0.0166378
843.067	0.0166967
843.146	0.0166824
843.224	0.0167030
843.302	0.0166791
843.380	0.0166034
843.458	0.0166344
843.536	0.0166020
843.614	0.0165308
843.692	0.0165720
843.771	0.0164658
843.849	0.0163332
843.927	0.0163232
844.005	0.0163081
844.083	0.0161266
844.161	0.0160619
844.239	0.0160848
844.317	0.0159389
844.396	0.0159620
844.474	0.0159341
844.552	0.0158687
844.630	0.0158906
844.708	0.0159187
844.786	0.0158919
844.864	0.0160999
844.942	0.0161009
845.021	0.0161226
845.099	0.0161344
845.177	0.0161430
845.255	0.0162193
845.333	0.0162362
845.411	0.0163129
845.489	0.0164275
845.567	0.0164713
845.646	0.0165627
845.724	0.0165284
845.802	0.0165240
845.880	0.0166253
845.958	0.0165443
846.036	0.0166766
846.114	0.0166241
846.192	0.0165025
846.271	0.0165595
846.349	0.0166386
846.427	0.0165023
846.505	0.0164014
846.583	0.0163261
846.661	0.0164198
846.739	0.0161629
846.817	0.0160970
846.896	0.0160110
846.974	0.0161221
847.052	0.0160719
847.130	0.0158980
847.208	0.0159467
847.286	0.0160958
847.364	0.0159733
847.442	0.0160355
847.521	0.0161450
847.599	0.0161005
847.677	0.0161427
847.755	0.0163043
847.833	0.0163451
847.911	0.0163365
847.989	0.0165588
848.067	0.0166586
848.146	0.0167654
848.224	0.0167175
848.302	0.0167230
848.380	0.0169157
848.458	0.0170725
848.536	0.0170734
848.614	0.0171319
848.692	0.0170805
848.771	0.0168847
848.849	0.0170280
848.927	0.0169390
849.005	0.0169038
849.083	0.0167963
849.161	0.0166918
849.239	0.0165211
849.317	0.0164468
849.396	0.0163317
849.474	0.0161227
849.552	0.0161641
849.630	0.0159927
849.708	0.0158433
849.786	0.0158110
849.864	0.0158251
849.942	0.0156620
850.021	0.0157476
850.099	0.0157532
850.177	0.0156674
850.255	0.0158116
850.333	0.0158515
850.411	0.0158275
850.489	0.0158590
850.567	0.0159954
850.646	0.0161217
850.724	0.0161870
850.802	0.0163100
850.880	0.0165377
850.958	0.0166183
851.036	0.0167740
851.114	0.0166688
851.192	0.0168739
851.271	0.0169890
851.349	0.0169393
851.427	0.0170544
851.505	0.0171863
851.583	0.0169024
851.661	0.0168919
851.739	0.0169787
851.817	0.0169247
851.896	0.0167319
851.974	0.0165646
852.052	0.0164467
852.130	0.0163338
852.208	0.0164087
852.286	0.0160686
852.364	0.0160401
852.442	0.0160798
852.521	0.0157346
852.599	0.0158775
852.677	0.0156868
852.755	0.0155685
852.833	0.0156366
852.911	0.0158051
852.989	0.0157627
853.067	0.0156487
853.146	0.0158262
853.224	0.0160111
853.302	0.0158913
853.380	0.0161598
853.458	0.0162181
853.536	0.0164971
853.614	0.0164633
853.692	0.0166002
853.771	0.0166084
853.849	0.0166590
853.927	0.0166866
854.005	0.0168134
854.083	0.0169985
854.161	0.0168472
854.239	0.0168073
854.317	0.0167439
854.396	0.0170266
854.474	0.0168496
854.552	0.0166386
854.630	0.0167189
854.708	0.0166280
854.786	0.0165881
854.864	0.0165961
854.942	0.0163897
855.021	0.0164451
855.099	0.0163825
855.177	0.0161848
855.255	0.0163767
855.333	0.0162876
855.411	0.0162763
855.489	0.0162319
855.567	0.0162724
855.646	0.0161563
855.724	0.0161508
855.802	0.0162553
855.880	0.0163029
855.958	0.0161653
856.036	0.0163620
856.114	0.0163867
856.192	0.0162988
856.271	0.0162502
856.349	0.0162640
856.427	0.0163866
856.505	0.0164483
856.583	0.0162550
856.661	0.0162798
856.739	0.0163800
856.817	0.0164784
856.896	0.0164352
856.974	0.0164291
857.052	0.0163898
857.130	0.0164584
857.208	0.0163277
857.286	0.0164683
857.364	0.0165347
857.442	0.0165475
857.521	0.0165510
857.599	0.0164478
857.677	0.0163440
857.755	0.0164677
857.833	0.0165517
857.911	0.0163980
857.989	0.0162823
858.067	0.0162684
858.146	0.0162971
858.224	0.0161901
858.302	0.0161534
858.380	0.0161883
858.458	0.0161516
858.536	0.0161588
858.614	0.0160937
858.692	0.0161430
858.771	0.0160818
858.849	0.0161172
858.927	0.0160455
859.005	0.0160331
859.083	0.0161721
859.161	0.0162814
859.239	0.0161781
859.317	0.0163921
859.396	0.0164824
859.474	0.0163232
859.552	0.0164114
859.630	0.0166108
859.708	0.0166975
859.786	0.0165057
859.864	0.0166708
859.942	0.0166711
860.021	0.0166337
860.099	0.0166514
860.177	0.0165147
860.255	0.0166991
860.333	0.0167017
860.411	0.0167226
860.489	0.0167082
860.567	0.0166273
860.646	0.0166013
860.724	0.0166742
860.802	0.0167522
860.880	0.0164821
860.958	0.0164939
861.036	0.0165087
861.114	0.0165028
861.192	0.0165356
861.271	0.0164031
861.349	0.0163581
861.427	0.0163533
861.505	0.0162257
861.583	0.0163560
861.661	0.0162886
861.739	0.0161772
861.817	0.0163214
861.896	0.0161762
861.974	0.0162389
862.052	0.0161230
862.130	0.0163259
862.208	0.0163090
862.286	0.0163383
862.364	0.0161881
862.442	0.0161736
862.521	0.0162798
862.599	0.0161738
862.677	0.0161496
862.755	0.0162071
862.833	0.0163326
862.911	0.0161418
862.989	0.0162438
863.067	0.0162114
863.146	0.0162875
863.224	0.0162687
863.302	0.0162933
863.380	0.0164635
863.458	0.0164485
863.536	0.0162770
863.614	0.0163367
863.692	0.0165384
863.771	0.0166134
863.849	0.0165780
863.927	0.0166130
864.005	0.0167616
864.083	0.0166539
864.161	0.0166476
864.239	0.0166875
864.317	0.0166476
864.396	0.0166344
864.474	0.0165832
864.552	0.0164969
864.630	0.0164766
864.708	0.0164378
864.786	0.0165183
864.864	0.0163842
864.942	0.0162975
865.021	0.0163866
865.099	0.0162015
865.177	0.0162135
865.255	0.0161948
865.333	0.0161642
865.411	0.0162204
865.489	0.0161707
865.567	0.0161671
865.646	0.0159942
865.724	0.0160643
865.802	0.0161047
865.880	0.0161185
865.958	0.0162939
866.036	0.0162412
866.114	0.0162194
866.192	0.0164310
866.271	0.0163525
866.349	0.0163235
866.427	0.0164026
866.505	0.0164109
866.583	0.0164997
866.661	0.0164363
866.739	0.0164590
866.817	0.0166091
866.896	0.0164476
866.974	0.0165524
867.052	0.0165626
867.130	0.0165063
867.208	0.0164731
867.286	0.0164308
867.364	0.0164970
867.442	0.0164310
867.521	0.0164788
867.599	0.0164877
867.677	0.0164835
867.755	0.0164407
867.833	0.0163341
867.911	0.0162866
867.989	0.0164602
868.067	0.0164467
868.146	0.0164197
868.224	0.0163341
868.302	0.0164151
868.380	0.0162444
868.458	0.0162566
868.536	0.0163154
868.614	0.0163361
868.692	0.0162231
868.771	0.0161109
868.849	0.0163079
868.927	0.0163253
869.005	0.0162711
869.083	0.0163049
869.161	0.0162817
869.239	0.0164720
869.317	0.0162921
869.396	0.0163494
869.474	0.0163525
869.552	0.0163680
869.630	0.0164468
869.708	0.0163287
869.786	0.0164943
869.864	0.0164964
869.942	0.0165401
