06/10/2022	16:15:37	Ver.	4.1	UNKNOWN
Optical Delay	550.020508	Delta X		0.078125	Sweeps	1	Scan Rate	0/0
Coordinates	Axis 1	NaN	Axis 2	NaN	Axis 3	NaN	Axis 4	NaN	Axis 5	NaN	Axis 6	0.000000
TX Power	0.000000	RX Power	0.000000

550.021	0.0161415
550.099	0.0160596
550.177	0.0161237
550.255	0.0161671
550.333	0.0161963
550.411	0.0159472
550.489	0.0162302
550.567	0.0161134
550.646	0.0160770
550.724	0.0160117
550.802	0.0161617
550.880	0.0162173
550.958	0.0163102
551.036	0.0160995
551.114	0.0161823
551.192	0.0161532
551.271	0.0162147
551.349	0.0160851
551.427	0.0160516
551.505	0.0161497
551.583	0.0161268
551.661	0.0161089
551.739	0.0161488
551.817	0.0160721
551.896	0.0159794
551.974	0.0161802
552.052	0.0160918
552.130	0.0161050
552.208	0.0162459
552.286	0.0161485
552.364	0.0161687
552.442	0.0160124
552.521	0.0162064
552.599	0.0160397
552.677	0.0162174
552.755	0.0161504
552.833	0.0162496
552.911	0.0161179
552.989	0.0160501
553.067	0.0160901
553.146	0.0161176
553.224	0.0161570
553.302	0.0160520
553.380	0.0161749
553.458	0.0159797
553.536	0.0162318
553.614	0.0161822
553.692	0.0160651
553.771	0.0161943
553.849	0.0163058
553.927	0.0161413
554.005	0.0161227
554.083	0.0161600
554.161	0.0161877
554.239	0.0161755
554.317	0.0161279
554.396	0.0160892
554.474	0.0161603
554.552	0.0162246
554.630	0.0161693
554.708	0.0158915
554.786	0.0161803
554.864	0.0161333
554.942	0.0160656
555.021	0.0162217
555.099	0.0161489
555.177	0.0160430
555.255	0.0162321
555.333	0.0160595
555.411	0.0159695
555.489	0.0161381
555.567	0.0161073
555.646	0.0161728
555.724	0.0161510
555.802	0.0160046
555.880	0.0160693
555.958	0.0160898
556.036	0.0161842
556.114	0.0161572
556.192	0.0160084
556.271	0.0161990
556.349	0.0162469
556.427	0.0161688
556.505	0.0161547
556.583	0.0161304
556.661	0.0161743
556.739	0.0161795
556.817	0.0160566
556.896	0.0161189
556.974	0.0161188
557.052	0.0160591
557.130	0.0160467
557.208	0.0162929
557.286	0.0160517
557.364	0.0161463
557.442	0.0161484
557.521	0.0161585
557.599	0.0162016
557.677	0.0161255
557.755	0.0161129
557.833	0.0161472
557.911	0.0162016
557.989	0.0161028
558.067	0.0160345
558.146	0.0161149
558.224	0.0160855
558.302	0.0160744
558.380	0.0162209
558.458	0.0161288
558.536	0.0161018
558.614	0.0160859
558.692	0.0161033
558.771	0.0161292
558.849	0.0160576
558.927	0.0160139
559.005	0.0161181
559.083	0.0161343
559.161	0.0161658
559.239	0.0160026
559.317	0.0161131
559.396	0.0161607
559.474	0.0161488
559.552	0.0162814
559.630	0.0160497
559.708	0.0162110
559.786	0.0161262
559.864	0.0162437
559.942	0.0162374
560.021	0.0161024
560.099	0.0159864
560.177	0.0161221
560.255	0.0162166
560.333	0.0161297
560.411	0.0161082
560.489	0.0161525
560.567	0.0160896
560.646	0.0160916
560.724	0.0162241
560.802	0.0163191
560.880	0.0161150
560.958	0.0161595
561.036	0.0161840
561.114	0.0161560
561.192	0.0161046
561.271	0.0161166
561.349	0.0161998
561.427	0.0162314
561.505	0.0160749
561.583	0.0160925
561.661	0.0161412
561.739	0.0162289
561.817	0.0161809
561.896	0.0161224
561.974	0.0161665
562.052	0.0161623
562.130	0.0161258
562.208	0.0161116
562.286	0.0162032
562.364	0.0160370
562.442	0.0161603
562.521	0.0161082
562.599	0.0162092
562.677	0.0162244
562.755	0.0162283
562.833	0.0161201
562.911	0.0161923
562.989	0.0161369
563.067	0.0161831
563.146	0.0161844
563.224	0.0162222
563.302	0.0162131
563.380	0.0162560
563.458	0.0162019
563.536	0.0160402
563.614	0.0161436
563.692	0.0161974
563.771	0.0161826
563.849	0.0161535
563.927	0.0160630
564.005	0.0161851
564.083	0.0161318
564.161	0.0161028
564.239	0.0161391
564.317	0.0161166
564.396	0.0161145
564.474	0.0162639
564.552	0.0162305
564.630	0.0160658
564.708	0.0160237
564.786	0.0161163
564.864	0.0160572
564.942	0.0161141
565.021	0.0161081
565.099	0.0161170
565.177	0.0161026
565.255	0.0161812
565.333	0.0160805
565.411	0.0160830
565.489	0.0159442
565.567	0.0161151
565.646	0.0161729
565.724	0.0160829
565.802	0.0161322
565.880	0.0162346
565.958	0.0160425
566.036	0.0160188
566.114	0.0160783
566.192	0.0160696
566.271	0.0160926
566.349	0.0160649
566.427	0.0159927
566.505	0.0160841
566.583	0.0161742
566.661	0.0161015
566.739	0.0161163
566.817	0.0160698
566.896	0.0161073
566.974	0.0161085
567.052	0.0161063
567.130	0.0161188
567.208	0.0161897
567.286	0.0160941
567.364	0.0161671
567.442	0.0161118
567.521	0.0161005
567.599	0.0162611
567.677	0.0162053
567.755	0.0160663
567.833	0.0161990
567.911	0.0162120
567.989	0.0161784
568.067	0.0161727
568.146	0.0161053
568.224	0.0161071
568.302	0.0160809
568.380	0.0160602
568.458	0.0162578
568.536	0.0161250
568.614	0.0160720
568.692	0.0160557
568.771	0.0161085
568.849	0.0161830
568.927	0.0161416
569.005	0.0160424
569.083	0.0160429
569.161	0.0161967
569.239	0.0162238
569.317	0.0160500
569.396	0.0161430
569.474	0.0162321
569.552	0.0162518
569.630	0.0160950
569.708	0.0161221
569.786	0.0161507
569.864	0.0162875
569.942	0.0161714
570.021	0.0162007
570.099	0.0162233
570.177	0.0159711
570.255	0.0160450
570.333	0.0161326
570.411	0.0160731
570.489	0.0162968
570.567	0.0161599
570.646	0.0160572
570.724	0.0160157
570.802	0.0161887
570.880	0.0160952
570.958	0.0160196
571.036	0.0161502
571.114	0.0161411
571.192	0.0161014
571.271	0.0159722
571.349	0.0160461
571.427	0.0160850
571.505	0.0160031
571.583	0.0162329
571.661	0.0162224
571.739	0.0161637
571.817	0.0160728
571.896	0.0161913
571.974	0.0161948
572.052	0.0160069
572.130	0.0160782
572.208	0.0162097
572.286	0.0161320
572.364	0.0161040
572.442	0.0160876
572.521	0.0161523
572.599	0.0161115
572.677	0.0160838
572.755	0.0162667
572.833	0.0161795
572.911	0.0160632
572.989	0.0160328
573.067	0.0161729
573.146	0.0162369
573.224	0.0162080
573.302	0.0161672
573.380	0.0162543
573.458	0.0160097
573.536	0.0160857
573.614	0.0161109
573.692	0.0161862
573.771	0.0161226
573.849	0.0161373
573.927	0.0161073
574.005	0.0161613
574.083	0.0162378
574.161	0.0161636
574.239	0.0160967
574.317	0.0162471
574.396	0.0160542
574.474	0.0160983
574.552	0.0161053
574.630	0.0161848
574.708	0.0160029
574.786	0.0160825
574.864	0.0163354
574.942	0.0161964
575.021	0.0161497
575.099	0.0162180
575.177	0.0162161
575.255	0.0162138
575.333	0.0161205
575.411	0.0161775
575.489	0.0160909
575.567	0.0160799
575.646	0.0161345
575.724	0.0161292
575.802	0.0161374
575.880	0.0161617
575.958	0.0162811
576.036	0.0162148
576.114	0.0159798
576.192	0.0161327
576.271	0.0160866
576.349	0.0161553
576.427	0.0161215
576.505	0.0162698
576.583	0.0161821
576.661	0.0162102
576.739	0.0161119
576.817	0.0161775
576.896	0.0159779
576.974	0.0159616
577.052	0.0160604
577.130	0.0160368
577.208	0.0160996
577.286	0.0159818
577.364	0.0161877
577.442	0.0162981
577.521	0.0161301
577.599	0.0160775
577.677	0.0161166
577.755	0.0161339
577.833	0.0162110
577.911	0.0161386
577.989	0.0160705
578.067	0.0161082
578.146	0.0162291
578.224	0.0161554
578.302	0.0160877
578.380	0.0161085
578.458	0.0160693
578.536	0.0161288
578.614	0.0162614
578.692	0.0159776
578.771	0.0160556
578.849	0.0161401
578.927	0.0162049
579.005	0.0162050
579.083	0.0161887
579.161	0.0162684
579.239	0.0160999
579.317	0.0161320
579.396	0.0160203
579.474	0.0160646
579.552	0.0162157
579.630	0.0161971
579.708	0.0161983
579.786	0.0161111
579.864	0.0161736
579.942	0.0163249
580.021	0.0161260
580.099	0.0161674
580.177	0.0161704
580.255	0.0161960
580.333	0.0161785
580.411	0.0162529
580.489	0.0160709
580.567	0.0161298
580.646	0.0161298
580.724	0.0160565
580.802	0.0159906
580.880	0.0159538
580.958	0.0160186
581.036	0.0162234
581.114	0.0160695
581.192	0.0161088
581.271	0.0161745
581.349	0.0161947
581.427	0.0162498
581.505	0.0161634
581.583	0.0161089
581.661	0.0161507
581.739	0.0161977
581.817	0.0161451
581.896	0.0161118
581.974	0.0161572
582.052	0.0160990
582.130	0.0161694
582.208	0.0161279
582.286	0.0160724
582.364	0.0161523
582.442	0.0160715
582.521	0.0161141
582.599	0.0161963
582.677	0.0160812
582.755	0.0162094
582.833	0.0161034
582.911	0.0160927
582.989	0.0161385
583.067	0.0162067
583.146	0.0161689
583.224	0.0160488
583.302	0.0161098
583.380	0.0162587
583.458	0.0162061
583.536	0.0161520
583.614	0.0160815
583.692	0.0161806
583.771	0.0162764
583.849	0.0161193
583.927	0.0161301
584.005	0.0161140
584.083	0.0161395
584.161	0.0162380
584.239	0.0162565
584.317	0.0161693
584.396	0.0161644
584.474	0.0161673
584.552	0.0161723
584.630	0.0161098
584.708	0.0162036
584.786	0.0161271
584.864	0.0162731
584.942	0.0161725
585.021	0.0160015
585.099	0.0160255
585.177	0.0161028
585.255	0.0161146
585.333	0.0159921
585.411	0.0160888
585.489	0.0161086
585.567	0.0161217
585.646	0.0160921
585.724	0.0161224
585.802	0.0160881
585.880	0.0159918
585.958	0.0160976
586.036	0.0161362
586.114	0.0160995
586.192	0.0161044
586.271	0.0160886
586.349	0.0160504
586.427	0.0160114
586.505	0.0159802
586.583	0.0161512
586.661	0.0161999
586.739	0.0161771
586.817	0.0161026
586.896	0.0160599
586.974	0.0160604
587.052	0.0161030
587.130	0.0161070
587.208	0.0160542
587.286	0.0161073
587.364	0.0161671
587.442	0.0160971
587.521	0.0161155
587.599	0.0161822
587.677	0.0159329
587.755	0.0161341
587.833	0.0161287
587.911	0.0161413
587.989	0.0161949
588.067	0.0161427
588.146	0.0161703
588.224	0.0161368
588.302	0.0160348
588.380	0.0161404
588.458	0.0162053
588.536	0.0162360
588.614	0.0161079
588.692	0.0160887
588.771	0.0162646
588.849	0.0160555
588.927	0.0162391
589.005	0.0160317
589.083	0.0160864
589.161	0.0162517
589.239	0.0160755
589.317	0.0160862
589.396	0.0161803
589.474	0.0161329
589.552	0.0161658
589.630	0.0162020
589.708	0.0161719
589.786	0.0160827
589.864	0.0161409
589.942	0.0160993
590.021	0.0160576
590.099	0.0160436
590.177	0.0161496
590.255	0.0160982
590.333	0.0162615
590.411	0.0161237
590.489	0.0161970
590.567	0.0161557
590.646	0.0160263
590.724	0.0161644
590.802	0.0161244
590.880	0.0161497
590.958	0.0160999
591.036	0.0161636
591.114	0.0162478
591.192	0.0160360
591.271	0.0160963
591.349	0.0161877
591.427	0.0161398
591.505	0.0161257
591.583	0.0161383
591.661	0.0162385
591.739	0.0162178
591.817	0.0161856
591.896	0.0161366
591.974	0.0161874
592.052	0.0161831
592.130	0.0162614
592.208	0.0160717
592.286	0.0160555
592.364	0.0162016
592.442	0.0161034
592.521	0.0161790
592.599	0.0161411
592.677	0.0161282
592.755	0.0161620
592.833	0.0161907
592.911	0.0161691
592.989	0.0161974
593.067	0.0161502
593.146	0.0161589
593.224	0.0160948
593.302	0.0160268
593.380	0.0161364
593.458	0.0160835
593.536	0.0161496
593.614	0.0161878
593.692	0.0161650
593.771	0.0161301
593.849	0.0162725
593.927	0.0161593
594.005	0.0161502
594.083	0.0160288
594.161	0.0161681
594.239	0.0161648
594.317	0.0160874
594.396	0.0162217
594.474	0.0161175
594.552	0.0161880
594.630	0.0160631
594.708	0.0159730
594.786	0.0160526
594.864	0.0160802
594.942	0.0161024
595.021	0.0161016
595.099	0.0161581
595.177	0.0159995
595.255	0.0161235
595.333	0.0162424
595.411	0.0161282
595.489	0.0161205
595.567	0.0161492
595.646	0.0162103
595.724	0.0162193
595.802	0.0162247
595.880	0.0161105
595.958	0.0161969
596.036	0.0160568
596.114	0.0161106
596.192	0.0161436
596.271	0.0161340
596.349	0.0161381
596.427	0.0161121
596.505	0.0161414
596.583	0.0161230
596.661	0.0161074
596.739	0.0160959
596.817	0.0160473
596.896	0.0162403
596.974	0.0161987
597.052	0.0162251
597.130	0.0161786
597.208	0.0161093
597.286	0.0162038
597.364	0.0162360
597.442	0.0159912
597.521	0.0161262
597.599	0.0161148
597.677	0.0161182
597.755	0.0161533
597.833	0.0161193
597.911	0.0161577
597.989	0.0161214
598.067	0.0160898
598.146	0.0160732
598.224	0.0162006
598.302	0.0162056
598.380	0.0161680
598.458	0.0162831
598.536	0.0160860
598.614	0.0161172
598.692	0.0160914
598.771	0.0161509
598.849	0.0161304
598.927	0.0161340
599.005	0.0161285
599.083	0.0161280
599.161	0.0163651
599.239	0.0161298
599.317	0.0162150
599.396	0.0161472
599.474	0.0161805
599.552	0.0162834
599.630	0.0162658
599.708	0.0161105
599.786	0.0160918
599.864	0.0160926
599.942	0.0161555
600.021	0.0162801
600.099	0.0160788
600.177	0.0160690
600.255	0.0162611
600.333	0.0161649
600.411	0.0161070
600.489	0.0160271
600.567	0.0161568
600.646	0.0161337
600.724	0.0161562
600.802	0.0161518
600.880	0.0161850
600.958	0.0162730
601.036	0.0161256
601.114	0.0160278
601.192	0.0162019
601.271	0.0160762
601.349	0.0160370
601.427	0.0161665
601.505	0.0161336
601.583	0.0161617
601.661	0.0162363
601.739	0.0162087
601.817	0.0160252
601.896	0.0161996
601.974	0.0162106
602.052	0.0159837
602.130	0.0161418
602.208	0.0161928
602.286	0.0161894
602.364	0.0162585
602.442	0.0161488
602.521	0.0161414
602.599	0.0160722
602.677	0.0162305
602.755	0.0162063
602.833	0.0161601
602.911	0.0161830
602.989	0.0162150
603.067	0.0162669
603.146	0.0162036
603.224	0.0161526
603.302	0.0160782
603.380	0.0161559
603.458	0.0160753
603.536	0.0161745
603.614	0.0161764
603.692	0.0161731
603.771	0.0161489
603.849	0.0160651
603.927	0.0161581
604.005	0.0161723
604.083	0.0161517
604.161	0.0161453
604.239	0.0161520
604.317	0.0161366
604.396	0.0160188
604.474	0.0162347
604.552	0.0160902
604.630	0.0161177
604.708	0.0161108
604.786	0.0163000
604.864	0.0160323
604.942	0.0160764
605.021	0.0161472
605.099	0.0161168
605.177	0.0161782
605.255	0.0161656
605.333	0.0161036
605.411	0.0161848
605.489	0.0162373
605.567	0.0162724
605.646	0.0161232
605.724	0.0162536
605.802	0.0162416
605.880	0.0161409
605.958	0.0161309
606.036	0.0162626
606.114	0.0162478
606.192	0.0161713
606.271	0.0162391
606.349	0.0161223
606.427	0.0161465
606.505	0.0160835
606.583	0.0160308
606.661	0.0161147
606.739	0.0160859
606.817	0.0162202
606.896	0.0161895
606.974	0.0161671
607.052	0.0161378
607.130	0.0161423
607.208	0.0161875
607.286	0.0160437
607.364	0.0161302
607.442	0.0160809
607.521	0.0163228
607.599	0.0161954
607.677	0.0161181
607.755	0.0160833
607.833	0.0160432
607.911	0.0160742
607.989	0.0161488
608.067	0.0161532
608.146	0.0161149
608.224	0.0161207
608.302	0.0160668
608.380	0.0160403
608.458	0.0160946
608.536	0.0160284
608.614	0.0161974
608.692	0.0163398
608.771	0.0161182
608.849	0.0160928
608.927	0.0160580
609.005	0.0160491
609.083	0.0161663
609.161	0.0161505
609.239	0.0161729
609.317	0.0161468
609.396	0.0161057
609.474	0.0161034
609.552	0.0160921
609.630	0.0161852
609.708	0.0161215
609.786	0.0161603
609.864	0.0159832
609.942	0.0160800
610.021	0.0161393
610.099	0.0162800
610.177	0.0161161
610.255	0.0160232
610.333	0.0161481
610.411	0.0161078
610.489	0.0161600
610.567	0.0161395
610.646	0.0162153
610.724	0.0160996
610.802	0.0161301
610.880	0.0160056
610.958	0.0161629
611.036	0.0161326
611.114	0.0160023
611.192	0.0162204
611.271	0.0161916
611.349	0.0160629
611.427	0.0161950
611.505	0.0160828
611.583	0.0161632
611.661	0.0160960
611.739	0.0160631
611.817	0.0161285
611.896	0.0160464
611.974	0.0161438
612.052	0.0161414
612.130	0.0161607
612.208	0.0161028
612.286	0.0161990
612.364	0.0162154
612.442	0.0161163
612.521	0.0160658
612.599	0.0160977
612.677	0.0161646
612.755	0.0161433
612.833	0.0160846
612.911	0.0160588
612.989	0.0160197
613.067	0.0160867
613.146	0.0161275
613.224	0.0161299
613.302	0.0161247
613.380	0.0162155
613.458	0.0161016
613.536	0.0160612
613.614	0.0160858
613.692	0.0159838
613.771	0.0160682
613.849	0.0162627
613.927	0.0161803
614.005	0.0160677
614.083	0.0160609
614.161	0.0162133
614.239	0.0161174
614.317	0.0161887
614.396	0.0161288
614.474	0.0162005
614.552	0.0160357
614.630	0.0161349
614.708	0.0161771
614.786	0.0161225
614.864	0.0160658
614.942	0.0161744
615.021	0.0161050
615.099	0.0160855
615.177	0.0161249
615.255	0.0161997
615.333	0.0160965
615.411	0.0160770
615.489	0.0159976
615.567	0.0161589
615.646	0.0162588
615.724	0.0160867
615.802	0.0161771
615.880	0.0161192
615.958	0.0163278
616.036	0.0162064
616.114	0.0160330
616.192	0.0161126
616.271	0.0161149
616.349	0.0161876
616.427	0.0161602
616.505	0.0161644
616.583	0.0161404
616.661	0.0161036
616.739	0.0161563
616.817	0.0161812
616.896	0.0160616
616.974	0.0160157
617.052	0.0162431
617.130	0.0161385
617.208	0.0161318
617.286	0.0161361
617.364	0.0162311
617.442	0.0160971
617.521	0.0162147
617.599	0.0162947
617.677	0.0159586
617.755	0.0160322
617.833	0.0162357
617.911	0.0161285
617.989	0.0162148
618.067	0.0162512
618.146	0.0161283
618.224	0.0160366
618.302	0.0162424
618.380	0.0161031
618.458	0.0161961
618.536	0.0162500
618.614	0.0161650
618.692	0.0161177
618.771	0.0161050
618.849	0.0162163
618.927	0.0160203
619.005	0.0160118
619.083	0.0161613
619.161	0.0162035
619.239	0.0162665
619.317	0.0161060
619.396	0.0161717
619.474	0.0162019
619.552	0.0160594
619.630	0.0159293
619.708	0.0160986
619.786	0.0161337
619.864	0.0161098
619.942	0.0161542
620.021	0.0161488
620.099	0.0161050
620.177	0.0161211
620.255	0.0160452
620.333	0.0161015
620.411	0.0160461
620.489	0.0161034
620.567	0.0161521
620.646	0.0162756
620.724	0.0161323
620.802	0.0160644
620.880	0.0162230
620.958	0.0160557
621.036	0.0160806
621.114	0.0162312
621.192	0.0162201
621.271	0.0161977
621.349	0.0161273
621.427	0.0162544
621.505	0.0161531
621.583	0.0161536
621.661	0.0161800
621.739	0.0160784
621.817	0.0160413
621.896	0.0161512
621.974	0.0161538
622.052	0.0161593
622.130	0.0161185
622.208	0.0162041
622.286	0.0160783
622.364	0.0161615
622.442	0.0162506
622.521	0.0161129
622.599	0.0161678
622.677	0.0162456
622.755	0.0160738
622.833	0.0162458
622.911	0.0162247
622.989	0.0160828
623.067	0.0162108
623.146	0.0160751
623.224	0.0161834
623.302	0.0160761
623.380	0.0162058
623.458	0.0162185
623.536	0.0162023
623.614	0.0162395
623.692	0.0161800
623.771	0.0162131
623.849	0.0162267
623.927	0.0162124
624.005	0.0160715
624.083	0.0162807
624.161	0.0162840
624.239	0.0159488
624.317	0.0161784
624.396	0.0161430
624.474	0.0163103
624.552	0.0162345
624.630	0.0161210
624.708	0.0161554
624.786	0.0160960
624.864	0.0161966
624.942	0.0161427
625.021	0.0162255
625.099	0.0160473
625.177	0.0163719
625.255	0.0160932
625.333	0.0161143
625.411	0.0161322
625.489	0.0161971
625.567	0.0161881
625.646	0.0161751
625.724	0.0160506
625.802	0.0162469
625.880	0.0161405
625.958	0.0161963
626.036	0.0161102
626.114	0.0162447
626.192	0.0161475
626.271	0.0160287
626.349	0.0163177
626.427	0.0161704
626.505	0.0161009
626.583	0.0162069
626.661	0.0160818
626.739	0.0161170
626.817	0.0161118
626.896	0.0164315
626.974	0.0162642
627.052	0.0161410
627.130	0.0161867
627.208	0.0162502
627.286	0.0162122
627.364	0.0161015
627.442	0.0162058
627.521	0.0161124
627.599	0.0162544
627.677	0.0162112
627.755	0.0161597
627.833	0.0161858
627.911	0.0162138
627.989	0.0162828
628.067	0.0162625
628.146	0.0160400
628.224	0.0161216
628.302	0.0162434
628.380	0.0161477
628.458	0.0160861
628.536	0.0160798
628.614	0.0160998
628.692	0.0159954
628.771	0.0160918
628.849	0.0161939
628.927	0.0161661
629.005	0.0161391
629.083	0.0160974
629.161	0.0160000
629.239	0.0160790
629.317	0.0161713
629.396	0.0162158
629.474	0.0161577
629.552	0.0161211
629.630	0.0161095
629.708	0.0161631
629.786	0.0162424
629.864	0.0161608
629.942	0.0162490
630.021	0.0160933
630.099	0.0160089
630.177	0.0161656
630.255	0.0162611
630.333	0.0160202
630.411	0.0161594
630.489	0.0162351
630.567	0.0162254
630.646	0.0162263
630.724	0.0161272
630.802	0.0160952
630.880	0.0161594
630.958	0.0161088
631.036	0.0160511
631.114	0.0162833
631.192	0.0162052
631.271	0.0161417
631.349	0.0160410
631.427	0.0162097
631.505	0.0161893
631.583	0.0163178
631.661	0.0161757
631.739	0.0160753
631.817	0.0161721
631.896	0.0160944
631.974	0.0162347
632.052	0.0161753
632.130	0.0161979
632.208	0.0162007
632.286	0.0163269
632.364	0.0160433
632.442	0.0161676
632.521	0.0161488
632.599	0.0161164
632.677	0.0163171
632.755	0.0161380
632.833	0.0161138
632.911	0.0161860
632.989	0.0161750
633.067	0.0162626
633.146	0.0162133
633.224	0.0161504
633.302	0.0162733
633.380	0.0160534
633.458	0.0161657
633.536	0.0161760
633.614	0.0161419
633.692	0.0162097
633.771	0.0162447
633.849	0.0162285
633.927	0.0160995
634.005	0.0163104
634.083	0.0160873
634.161	0.0161095
634.239	0.0162389
634.317	0.0161270
634.396	0.0161894
634.474	0.0161561
634.552	0.0161527
634.630	0.0162389
634.708	0.0160631
634.786	0.0161897
634.864	0.0161438
634.942	0.0160924
635.021	0.0162306
635.099	0.0161620
635.177	0.0162974
635.255	0.0161079
635.333	0.0162493
635.411	0.0162478
635.489	0.0161377
635.567	0.0161624
635.646	0.0161485
635.724	0.0161584
635.802	0.0162416
635.880	0.0162344
635.958	0.0162095
636.036	0.0160975
636.114	0.0161387
636.192	0.0162288
636.271	0.0161621
636.349	0.0163344
636.427	0.0161038
636.505	0.0161757
636.583	0.0161514
636.661	0.0161300
636.739	0.0161510
636.817	0.0162772
636.896	0.0161674
636.974	0.0162199
637.052	0.0162234
637.130	0.0163122
637.208	0.0163358
637.286	0.0160915
637.364	0.0162133
637.442	0.0162125
637.521	0.0161961
637.599	0.0160603
637.677	0.0160838
637.755	0.0161825
637.833	0.0162019
637.911	0.0162504
637.989	0.0161118
638.067	0.0162166
638.146	0.0160718
638.224	0.0160595
638.302	0.0162880
638.380	0.0160223
638.458	0.0160580
638.536	0.0161529
638.614	0.0160561
638.692	0.0161291
638.771	0.0160641
638.849	0.0162250
638.927	0.0161185
639.005	0.0160639
639.083	0.0161164
639.161	0.0161056
639.239	0.0161602
639.317	0.0160397
639.396	0.0161580
639.474	0.0161262
639.552	0.0161269
639.630	0.0160856
639.708	0.0160578
639.786	0.0160966
639.864	0.0162324
639.942	0.0161460
640.021	0.0161907
640.099	0.0160593
640.177	0.0160397
640.255	0.0160961
640.333	0.0162266
640.411	0.0161898
640.489	0.0163268
640.567	0.0161882
640.646	0.0161845
640.724	0.0162338
640.802	0.0160738
640.880	0.0162826
640.958	0.0161224
641.036	0.0162022
641.114	0.0160276
641.192	0.0161300
641.271	0.0160576
641.349	0.0162990
641.427	0.0163359
641.505	0.0162107
641.583	0.0161425
641.661	0.0163017
641.739	0.0161553
641.817	0.0160482
641.896	0.0162331
641.974	0.0161481
642.052	0.0161849
642.130	0.0161459
642.208	0.0161748
642.286	0.0161935
642.364	0.0160667
642.442	0.0160973
642.521	0.0159695
642.599	0.0161582
642.677	0.0161491
642.755	0.0161663
642.833	0.0162392
642.911	0.0161583
642.989	0.0161532
643.067	0.0160880
643.146	0.0162057
643.224	0.0161607
643.302	0.0160870
643.380	0.0161516
643.458	0.0161086
643.536	0.0161434
643.614	0.0161313
643.692	0.0161613
643.771	0.0162699
643.849	0.0162354
643.927	0.0161007
644.005	0.0161109
644.083	0.0161754
644.161	0.0162248
644.239	0.0161655
644.317	0.0161277
644.396	0.0161225
644.474	0.0162096
644.552	0.0162470
644.630	0.0161243
644.708	0.0160839
644.786	0.0161276
644.864	0.0161866
644.942	0.0161795
645.021	0.0161276
645.099	0.0161907
645.177	0.0161780
645.255	0.0161486
645.333	0.0161092
645.411	0.0161414
645.489	0.0161627
645.567	0.0162006
645.646	0.0159944
645.724	0.0161074
645.802	0.0161974
645.880	0.0162408
645.958	0.0162002
646.036	0.0160741
646.114	0.0162635
646.192	0.0161225
646.271	0.0162401
646.349	0.0161947
646.427	0.0161895
646.505	0.0162951
646.583	0.0160780
646.661	0.0161240
646.739	0.0161459
646.817	0.0161823
646.896	0.0160292
646.974	0.0161795
647.052	0.0162909
647.130	0.0161378
647.208	0.0160645
647.286	0.0162710
647.364	0.0161868
647.442	0.0160602
647.521	0.0162397
647.599	0.0162331
647.677	0.0160992
647.755	0.0161226
647.833	0.0161584
647.911	0.0162554
647.989	0.0161024
648.067	0.0162316
648.146	0.0161081
648.224	0.0160903
648.302	0.0162633
648.380	0.0159700
648.458	0.0160650
648.536	0.0161012
648.614	0.0161404
648.692	0.0162236
648.771	0.0160828
648.849	0.0162234
648.927	0.0160948
649.005	0.0161575
649.083	0.0162769
649.161	0.0161069
649.239	0.0160999
649.317	0.0161591
649.396	0.0160097
649.474	0.0162318
649.552	0.0161952
649.630	0.0161005
649.708	0.0160695
649.786	0.0162556
649.864	0.0161487
649.942	0.0161936
650.021	0.0161353
650.099	0.0161696
650.177	0.0159377
650.255	0.0161347
650.333	0.0160413
650.411	0.0162395
650.489	0.0162271
650.567	0.0160374
650.646	0.0161184
650.724	0.0161992
650.802	0.0160126
650.880	0.0161090
650.958	0.0161709
651.036	0.0161853
651.114	0.0161951
651.192	0.0162252
651.271	0.0162282
651.349	0.0161088
651.427	0.0162453
651.505	0.0162289
651.583	0.0161132
651.661	0.0162441
651.739	0.0162033
651.817	0.0161976
651.896	0.0161997
651.974	0.0160693
652.052	0.0160194
652.130	0.0162936
652.208	0.0162373
652.286	0.0161405
652.364	0.0159718
652.442	0.0162701
652.521	0.0162097
652.599	0.0162282
652.677	0.0161799
652.755	0.0162311
652.833	0.0162449
652.911	0.0161249
652.989	0.0162401
653.067	0.0161796
653.146	0.0161734
653.224	0.0161675
653.302	0.0161766
653.380	0.0161914
653.458	0.0161098
653.536	0.0162395
653.614	0.0162836
653.692	0.0161896
653.771	0.0161433
653.849	0.0162955
653.927	0.0161325
654.005	0.0161604
654.083	0.0160375
654.161	0.0162337
654.239	0.0161012
654.317	0.0161574
654.396	0.0161239
654.474	0.0162187
654.552	0.0161043
654.630	0.0160235
654.708	0.0161908
654.786	0.0160872
654.864	0.0159758
654.942	0.0162023
655.021	0.0162514
655.099	0.0161001
655.177	0.0160771
655.255	0.0161073
655.333	0.0161872
655.411	0.0162411
655.489	0.0161498
655.567	0.0161704
655.646	0.0161989
655.724	0.0160857
655.802	0.0160725
655.880	0.0161663
655.958	0.0162708
656.036	0.0161327
656.114	0.0162455
656.192	0.0160323
656.271	0.0161488
656.349	0.0162556
656.427	0.0161690
656.505	0.0160793
656.583	0.0162351
656.661	0.0161285
656.739	0.0162949
656.817	0.0160719
656.896	0.0160484
656.974	0.0161427
657.052	0.0162286
657.130	0.0162704
657.208	0.0161092
657.286	0.0163773
657.364	0.0160545
657.442	0.0160097
657.521	0.0160153
657.599	0.0162047
657.677	0.0161890
657.755	0.0161313
657.833	0.0161340
657.911	0.0162319
657.989	0.0160894
658.067	0.0162491
658.146	0.0161864
658.224	0.0161281
658.302	0.0161327
658.380	0.0161851
658.458	0.0161744
658.536	0.0161452
658.614	0.0161512
658.692	0.0161427
658.771	0.0160902
658.849	0.0161462
658.927	0.0161679
659.005	0.0161730
659.083	0.0161656
659.161	0.0161559
659.239	0.0161104
659.317	0.0161835
659.396	0.0160104
659.474	0.0161183
659.552	0.0161697
659.630	0.0161584
659.708	0.0161384
659.786	0.0161364
659.864	0.0160682
659.942	0.0161479
660.021	0.0160676
660.099	0.0161443
660.177	0.0162067
660.255	0.0161977
660.333	0.0161633
660.411	0.0161291
660.489	0.0161508
660.567	0.0162093
660.646	0.0160993
660.724	0.0161053
660.802	0.0161957
660.880	0.0161587
660.958	0.0160519
661.036	0.0162887
661.114	0.0161539
661.192	0.0161469
661.271	0.0161236
661.349	0.0161470
661.427	0.0161447
661.505	0.0162173
661.583	0.0161305
661.661	0.0161675
661.739	0.0162029
661.817	0.0161530
661.896	0.0160261
661.974	0.0161322
662.052	0.0160244
662.130	0.0160997
662.208	0.0161584
662.286	0.0161166
662.364	0.0161872
662.442	0.0162080
662.521	0.0162280
662.599	0.0159836
662.677	0.0161081
662.755	0.0161254
662.833	0.0161082
662.911	0.0160548
662.989	0.0161617
663.067	0.0160329
663.146	0.0160893
663.224	0.0161662
663.302	0.0161266
663.380	0.0162103
663.458	0.0161748
663.536	0.0160045
663.614	0.0161047
663.692	0.0161404
663.771	0.0161947
663.849	0.0161947
663.927	0.0162424
664.005	0.0161246
664.083	0.0160444
664.161	0.0161251
664.239	0.0161050
664.317	0.0161547
664.396	0.0161155
664.474	0.0162740
664.552	0.0161172
664.630	0.0160538
664.708	0.0162331
664.786	0.0161811
664.864	0.0161808
664.942	0.0162360
665.021	0.0162395
665.099	0.0161263
665.177	0.0161861
665.255	0.0163194
665.333	0.0162865
665.411	0.0161736
665.489	0.0160303
665.567	0.0160944
665.646	0.0162399
665.724	0.0161333
665.802	0.0161297
665.880	0.0161735
665.958	0.0162563
666.036	0.0160825
666.114	0.0160116
666.192	0.0160861
666.271	0.0160715
666.349	0.0162274
666.427	0.0162249
666.505	0.0161629
666.583	0.0161601
666.661	0.0161797
666.739	0.0160896
666.817	0.0161315
666.896	0.0161329
666.974	0.0161702
667.052	0.0162616
667.130	0.0161395
667.208	0.0161060
667.286	0.0161906
667.364	0.0161292
667.442	0.0160549
667.521	0.0161698
667.599	0.0161398
667.677	0.0161965
667.755	0.0161683
667.833	0.0161544
667.911	0.0160771
667.989	0.0160426
668.067	0.0161684
668.146	0.0161765
668.224	0.0161942
668.302	0.0160297
668.380	0.0161431
668.458	0.0162563
668.536	0.0160794
668.614	0.0161523
668.692	0.0160812
668.771	0.0161735
668.849	0.0161848
668.927	0.0162877
669.005	0.0162203
669.083	0.0160739
669.161	0.0161424
669.239	0.0162605
669.317	0.0161918
669.396	0.0161953
669.474	0.0160175
669.552	0.0161855
669.630	0.0161110
669.708	0.0161263
669.786	0.0161373
669.864	0.0162346
669.942	0.0161538
670.021	0.0160989
670.099	0.0161391
670.177	0.0160848
670.255	0.0162270
670.333	0.0162630
670.411	0.0162060
670.489	0.0161229
670.567	0.0161817
670.646	0.0163477
670.724	0.0162059
670.802	0.0161234
670.880	0.0160884
670.958	0.0163307
671.036	0.0161794
671.114	0.0162139
671.192	0.0162524
671.271	0.0161347
671.349	0.0161641
671.427	0.0162354
671.505	0.0161520
671.583	0.0161617
671.661	0.0162300
671.739	0.0160521
671.817	0.0162000
671.896	0.0161526
671.974	0.0161375
672.052	0.0160172
672.130	0.0161874
672.208	0.0161396
672.286	0.0161517
672.364	0.0161386
672.442	0.0161790
672.521	0.0161528
672.599	0.0160011
672.677	0.0161590
672.755	0.0161173
672.833	0.0161101
672.911	0.0161136
672.989	0.0161472
673.067	0.0161655
673.146	0.0161312
673.224	0.0160390
673.302	0.0161112
673.380	0.0161575
673.458	0.0163148
673.536	0.0162167
673.614	0.0160871
673.692	0.0161214
673.771	0.0162094
673.849	0.0161839
673.927	0.0162806
674.005	0.0161426
674.083	0.0162114
674.161	0.0162240
674.239	0.0161080
674.317	0.0163713
674.396	0.0160265
674.474	0.0161848
674.552	0.0161153
674.630	0.0161096
674.708	0.0161366
674.786	0.0160630
674.864	0.0160308
674.942	0.0160764
675.021	0.0160111
675.099	0.0161037
675.177	0.0161398
675.255	0.0160450
675.333	0.0160786
675.411	0.0160266
675.489	0.0161148
675.567	0.0161804
675.646	0.0161354
675.724	0.0160031
675.802	0.0160671
675.880	0.0160890
675.958	0.0161556
676.036	0.0161216
676.114	0.0160668
676.192	0.0160963
676.271	0.0163783
676.349	0.0162357
676.427	0.0160909
676.505	0.0162624
676.583	0.0161545
676.661	0.0162057
676.739	0.0162413
676.817	0.0162127
676.896	0.0161456
676.974	0.0161663
677.052	0.0162261
677.130	0.0163030
677.208	0.0162203
677.286	0.0161470
677.364	0.0162154
677.442	0.0161655
677.521	0.0160875
677.599	0.0161181
677.677	0.0160598
677.755	0.0161172
677.833	0.0159308
677.911	0.0161290
677.989	0.0160906
678.067	0.0159488
678.146	0.0162614
678.224	0.0159908
678.302	0.0161864
678.380	0.0161343
678.458	0.0160641
678.536	0.0161681
678.614	0.0161151
678.692	0.0162375
678.771	0.0162141
678.849	0.0161375
678.927	0.0160584
679.005	0.0162119
679.083	0.0162695
679.161	0.0162004
679.239	0.0160990
679.317	0.0161828
679.396	0.0161548
679.474	0.0162177
679.552	0.0162592
679.630	0.0161040
679.708	0.0162123
679.786	0.0162728
679.864	0.0159103
679.942	0.0161376
680.021	0.0162704
680.099	0.0161633
680.177	0.0161363
680.255	0.0162400
680.333	0.0161208
680.411	0.0159624
680.489	0.0161134
680.567	0.0160942
680.646	0.0162008
680.724	0.0161374
680.802	0.0160756
680.880	0.0160719
680.958	0.0160621
681.036	0.0161625
681.114	0.0160999
681.192	0.0162203
681.271	0.0161248
681.349	0.0161861
681.427	0.0161399
681.505	0.0160840
681.583	0.0161994
681.661	0.0161210
681.739	0.0161909
681.817	0.0161125
681.896	0.0161281
681.974	0.0161708
682.052	0.0161456
682.130	0.0160734
682.208	0.0161452
682.286	0.0161891
682.364	0.0161018
682.442	0.0161431
682.521	0.0161282
682.599	0.0160827
682.677	0.0161763
682.755	0.0162306
682.833	0.0161211
682.911	0.0162474
682.989	0.0160332
683.067	0.0160474
683.146	0.0160205
683.224	0.0160408
683.302	0.0160749
683.380	0.0161618
683.458	0.0161163
683.536	0.0160279
683.614	0.0160034
683.692	0.0161543
683.771	0.0160966
683.849	0.0161434
683.927	0.0162185
684.005	0.0161098
684.083	0.0160175
684.161	0.0160562
684.239	0.0160249
684.317	0.0163002
684.396	0.0162805
684.474	0.0160635
684.552	0.0159679
684.630	0.0161974
684.708	0.0161474
684.786	0.0162272
684.864	0.0161153
684.942	0.0161124
685.021	0.0161382
685.099	0.0162656
685.177	0.0162526
685.255	0.0162451
685.333	0.0162436
685.411	0.0161631
685.489	0.0161160
685.567	0.0161293
685.646	0.0162156
685.724	0.0161489
685.802	0.0162912
685.880	0.0161013
685.958	0.0161554
686.036	0.0161642
686.114	0.0161491
686.192	0.0161244
686.271	0.0162389
686.349	0.0161111
686.427	0.0160410
686.505	0.0161450
686.583	0.0161083
686.661	0.0160482
686.739	0.0161099
686.817	0.0160876
686.896	0.0162073
686.974	0.0160865
687.052	0.0161523
687.130	0.0161272
687.208	0.0161858
687.286	0.0162085
687.364	0.0161129
687.442	0.0160600
687.521	0.0162010
687.599	0.0161051
687.677	0.0160528
687.755	0.0160647
687.833	0.0162441
687.911	0.0161076
687.989	0.0161166
688.067	0.0161134
688.146	0.0160525
688.224	0.0161955
688.302	0.0161629
688.380	0.0160303
688.458	0.0160912
688.536	0.0161222
688.614	0.0162110
688.692	0.0161713
688.771	0.0161620
688.849	0.0161877
688.927	0.0161586
689.005	0.0163259
689.083	0.0161931
689.161	0.0160770
689.239	0.0162218
689.317	0.0161532
689.396	0.0161452
689.474	0.0161204
689.552	0.0162081
689.630	0.0161626
689.708	0.0160129
689.786	0.0160994
689.864	0.0162244
689.942	0.0161038
690.021	0.0160476
690.099	0.0160844
690.177	0.0161234
690.255	0.0162296
690.333	0.0160101
690.411	0.0161407
690.489	0.0160565
690.567	0.0160504
690.646	0.0161187
690.724	0.0160915
690.802	0.0161721
690.880	0.0161124
690.958	0.0160613
691.036	0.0161997
691.114	0.0161931
691.192	0.0161513
691.271	0.0160485
691.349	0.0161057
691.427	0.0161078
691.505	0.0161644
691.583	0.0161180
691.661	0.0161658
691.739	0.0160645
691.817	0.0161291
691.896	0.0160320
691.974	0.0160960
692.052	0.0159766
692.130	0.0162137
692.208	0.0161404
692.286	0.0161418
692.364	0.0162209
692.442	0.0160979
692.521	0.0161352
692.599	0.0161709
692.677	0.0161346
692.755	0.0161734
692.833	0.0161042
692.911	0.0161512
692.989	0.0162231
693.067	0.0162009
693.146	0.0160960
693.224	0.0161142
693.302	0.0161399
693.380	0.0160464
693.458	0.0159776
693.536	0.0161465
693.614	0.0161797
693.692	0.0160687
693.771	0.0160601
693.849	0.0161254
693.927	0.0161296
694.005	0.0159801
694.083	0.0161348
694.161	0.0162141
694.239	0.0160889
694.317	0.0160175
694.396	0.0161798
694.474	0.0161981
694.552	0.0160181
694.630	0.0161497
694.708	0.0161810
694.786	0.0160807
694.864	0.0160855
694.942	0.0161406
695.021	0.0161278
695.099	0.0161416
695.177	0.0160780
695.255	0.0161541
695.333	0.0161629
695.411	0.0162288
695.489	0.0162377
695.567	0.0161327
695.646	0.0161480
695.724	0.0160780
695.802	0.0160613
695.880	0.0160754
695.958	0.0161681
696.036	0.0160782
696.114	0.0160660
696.192	0.0161353
696.271	0.0161220
696.349	0.0161142
696.427	0.0162238
696.505	0.0161874
696.583	0.0161425
696.661	0.0161418
696.739	0.0161014
696.817	0.0160315
696.896	0.0161646
696.974	0.0161902
697.052	0.0162969
697.130	0.0162474
697.208	0.0160453
697.286	0.0160942
697.364	0.0161855
697.442	0.0160906
697.521	0.0161001
697.599	0.0161743
697.677	0.0161677
697.755	0.0160207
697.833	0.0161417
697.911	0.0162026
697.989	0.0160884
698.067	0.0160078
698.146	0.0161218
698.224	0.0160846
698.302	0.0162175
698.380	0.0162055
698.458	0.0160215
698.536	0.0160836
698.614	0.0161756
698.692	0.0161873
698.771	0.0161615
698.849	0.0161316
698.927	0.0161900
699.005	0.0160865
699.083	0.0160780
699.161	0.0160876
699.239	0.0160770
699.317	0.0161712
699.396	0.0161745
699.474	0.0160291
699.552	0.0160618
699.630	0.0162370
699.708	0.0160918
699.786	0.0161374
699.864	0.0161143
699.942	0.0160634
700.021	0.0161646
700.099	0.0160970
700.177	0.0160464
700.255	0.0161247
700.333	0.0162199
700.411	0.0161829
700.489	0.0158993
700.567	0.0160696
700.646	0.0160900
700.724	0.0161323
700.802	0.0161299
700.880	0.0161146
700.958	0.0161781
701.036	0.0161166
701.114	0.0160573
701.192	0.0161707
701.271	0.0162025
701.349	0.0161845
701.427	0.0162836
701.505	0.0163040
701.583	0.0162188
701.661	0.0161143
701.739	0.0161079
701.817	0.0162225
701.896	0.0161890
701.974	0.0163393
702.052	0.0161382
702.130	0.0161113
702.208	0.0160914
702.286	0.0160291
702.364	0.0160616
702.442	0.0161837
702.521	0.0161756
702.599	0.0162479
702.677	0.0162068
702.755	0.0160706
702.833	0.0161523
702.911	0.0161140
702.989	0.0161191
703.067	0.0161679
703.146	0.0161760
703.224	0.0161709
703.302	0.0162624
703.380	0.0161410
703.458	0.0161276
703.536	0.0161029
703.614	0.0161196
703.692	0.0162907
703.771	0.0162395
703.849	0.0161522
703.927	0.0161710
704.005	0.0160663
704.083	0.0162466
704.161	0.0162144
704.239	0.0161082
704.317	0.0161707
704.396	0.0161039
704.474	0.0161777
704.552	0.0163737
704.630	0.0161068
704.708	0.0161612
704.786	0.0160235
704.864	0.0162325
704.942	0.0161565
705.021	0.0160780
705.099	0.0160842
705.177	0.0161351
705.255	0.0162749
705.333	0.0161888
705.411	0.0161182
705.489	0.0162036
705.567	0.0161068
705.646	0.0160655
705.724	0.0161201
705.802	0.0159966
705.880	0.0161926
705.958	0.0162495
706.036	0.0161803
706.114	0.0161509
706.192	0.0160210
706.271	0.0160618
706.349	0.0161466
706.427	0.0160527
706.505	0.0162319
706.583	0.0161727
706.661	0.0161016
706.739	0.0161761
706.817	0.0162101
706.896	0.0162966
706.974	0.0161680
707.052	0.0161623
707.130	0.0162646
707.208	0.0162543
707.286	0.0161261
707.364	0.0162240
707.442	0.0160784
707.521	0.0161307
707.599	0.0162096
707.677	0.0160741
707.755	0.0161278
707.833	0.0161676
707.911	0.0161814
707.989	0.0163226
708.067	0.0161873
708.146	0.0162553
708.224	0.0161564
708.302	0.0161671
708.380	0.0160777
708.458	0.0161065
708.536	0.0161599
708.614	0.0163463
708.692	0.0162617
708.771	0.0160644
708.849	0.0161948
708.927	0.0162916
709.005	0.0161118
709.083	0.0161185
709.161	0.0161809
709.239	0.0160703
709.317	0.0162003
709.396	0.0160660
709.474	0.0161164
709.552	0.0160258
709.630	0.0160466
709.708	0.0161581
709.786	0.0162528
709.864	0.0162275
709.942	0.0161073
710.021	0.0160322
710.099	0.0161662
710.177	0.0161645
710.255	0.0161186
710.333	0.0160928
710.411	0.0160811
710.489	0.0161177
710.567	0.0161111
710.646	0.0161243
710.724	0.0160828
710.802	0.0161191
710.880	0.0161505
710.958	0.0161493
711.036	0.0162186
711.114	0.0161020
711.192	0.0161951
711.271	0.0161499
711.349	0.0159463
711.427	0.0162599
711.505	0.0161687
711.583	0.0162257
711.661	0.0161501
711.739	0.0160806
711.817	0.0163081
711.896	0.0162151
711.974	0.0160842
712.052	0.0161470
712.130	0.0161189
712.208	0.0160973
712.286	0.0161705
712.364	0.0161776
712.442	0.0160484
712.521	0.0160979
712.599	0.0161133
712.677	0.0161971
712.755	0.0161440
712.833	0.0161889
712.911	0.0160634
712.989	0.0161465
713.067	0.0162663
713.146	0.0162062
713.224	0.0160975
713.302	0.0162402
713.380	0.0161761
713.458	0.0161317
713.536	0.0161619
713.614	0.0160886
713.692	0.0161822
713.771	0.0161719
713.849	0.0159688
713.927	0.0161304
714.005	0.0160999
714.083	0.0161971
714.161	0.0161172
714.239	0.0160446
714.317	0.0161890
714.396	0.0161791
714.474	0.0162470
714.552	0.0161151
714.630	0.0160109
714.708	0.0162759
714.786	0.0161303
714.864	0.0160771
714.942	0.0161529
715.021	0.0161626
715.099	0.0161567
715.177	0.0162141
715.255	0.0162579
715.333	0.0161114
715.411	0.0160178
715.489	0.0161736
715.567	0.0162063
715.646	0.0162499
715.724	0.0162482
715.802	0.0160973
715.880	0.0159834
715.958	0.0161084
716.036	0.0162008
716.114	0.0161583
716.192	0.0160758
716.271	0.0161841
716.349	0.0161397
716.427	0.0162385
716.505	0.0160876
716.583	0.0161438
716.661	0.0160399
716.739	0.0161001
716.817	0.0161176
716.896	0.0161175
716.974	0.0159887
717.052	0.0161020
717.130	0.0161830
717.208	0.0161541
717.286	0.0162542
717.364	0.0160815
717.442	0.0160902
717.521	0.0160381
717.599	0.0162227
717.677	0.0160941
717.755	0.0160793
717.833	0.0160594
717.911	0.0162292
717.989	0.0162078
718.067	0.0162014
718.146	0.0163283
718.224	0.0162344
718.302	0.0161176
718.380	0.0161729
718.458	0.0162392
718.536	0.0162276
718.614	0.0162190
718.692	0.0161149
718.771	0.0162123
718.849	0.0161501
718.927	0.0161389
719.005	0.0161682
719.083	0.0161343
719.161	0.0161397
719.239	0.0162677
719.317	0.0161326
719.396	0.0160950
719.474	0.0161930
719.552	0.0161044
719.630	0.0162346
719.708	0.0161835
719.786	0.0160132
719.864	0.0160600
719.942	0.0161140
720.021	0.0161092
720.099	0.0162128
720.177	0.0161798
720.255	0.0160111
720.333	0.0162857
720.411	0.0161243
720.489	0.0161803
720.567	0.0161413
720.646	0.0160606
720.724	0.0161215
720.802	0.0161565
720.880	0.0160593
720.958	0.0161645
721.036	0.0161968
721.114	0.0160157
721.192	0.0160903
721.271	0.0159588
721.349	0.0161869
721.427	0.0161906
721.505	0.0162031
721.583	0.0161446
721.661	0.0160529
721.739	0.0162601
721.817	0.0160616
721.896	0.0161776
721.974	0.0160461
722.052	0.0161178
722.130	0.0161790
722.208	0.0161348
722.286	0.0161400
722.364	0.0161069
722.442	0.0162035
722.521	0.0161435
722.599	0.0160747
722.677	0.0161217
722.755	0.0161874
722.833	0.0159999
722.911	0.0160510
722.989	0.0161881
723.067	0.0161950
723.146	0.0161375
723.224	0.0161871
723.302	0.0161082
723.380	0.0162884
723.458	0.0161446
723.536	0.0161987
723.614	0.0161309
723.692	0.0161459
723.771	0.0161195
723.849	0.0161668
723.927	0.0161390
724.005	0.0161017
724.083	0.0162377
724.161	0.0161581
724.239	0.0162135
724.317	0.0161283
724.396	0.0161221
724.474	0.0161617
724.552	0.0160985
724.630	0.0161521
724.708	0.0161987
724.786	0.0160868
724.864	0.0159860
724.942	0.0161169
725.021	0.0161263
725.099	0.0159904
725.177	0.0160692
725.255	0.0161706
725.333	0.0161873
725.411	0.0161749
725.489	0.0160764
725.567	0.0159788
725.646	0.0160531
725.724	0.0161279
725.802	0.0162299
725.880	0.0161359
725.958	0.0160835
726.036	0.0160944
726.114	0.0162514
726.192	0.0162189
726.271	0.0161943
726.349	0.0161339
726.427	0.0160513
726.505	0.0161726
726.583	0.0161556
726.661	0.0160137
726.739	0.0161013
726.817	0.0162048
726.896	0.0161331
726.974	0.0161969
727.052	0.0160597
727.130	0.0161292
727.208	0.0160971
727.286	0.0161938
727.364	0.0161392
727.442	0.0161669
727.521	0.0161324
727.599	0.0162070
727.677	0.0161611
727.755	0.0163010
727.833	0.0160959
727.911	0.0161311
727.989	0.0161328
728.067	0.0162593
728.146	0.0163120
728.224	0.0163010
728.302	0.0162413
728.380	0.0161613
728.458	0.0161913
728.536	0.0161880
728.614	0.0163702
728.692	0.0161777
728.771	0.0160806
728.849	0.0161790
728.927	0.0162290
729.005	0.0162028
729.083	0.0162117
729.161	0.0162075
729.239	0.0161877
729.317	0.0161084
729.396	0.0162325
729.474	0.0161655
729.552	0.0161871
729.630	0.0162355
729.708	0.0163278
729.786	0.0161610
729.864	0.0162786
729.942	0.0161977
730.021	0.0161142
730.099	0.0161658
730.177	0.0161591
730.255	0.0161483
730.333	0.0161906
730.411	0.0162196
730.489	0.0163355
730.567	0.0162206
730.646	0.0160462
730.724	0.0160790
730.802	0.0162078
730.880	0.0162292
730.958	0.0162280
731.036	0.0162194
731.114	0.0162283
731.192	0.0161385
731.271	0.0161994
731.349	0.0161929
731.427	0.0161224
731.505	0.0161711
731.583	0.0162070
731.661	0.0162463
731.739	0.0161999
731.817	0.0162389
731.896	0.0160645
731.974	0.0160600
732.052	0.0161285
732.130	0.0161253
732.208	0.0160482
732.286	0.0160776
732.364	0.0162040
732.442	0.0161812
732.521	0.0160970
732.599	0.0162846
732.677	0.0162486
732.755	0.0161105
732.833	0.0160733
732.911	0.0160829
732.989	0.0161217
733.067	0.0160593
733.146	0.0159577
733.224	0.0161430
733.302	0.0161546
733.380	0.0161581
733.458	0.0161906
733.536	0.0160290
733.614	0.0160976
733.692	0.0161234
733.771	0.0161106
733.849	0.0161446
733.927	0.0161118
734.005	0.0161433
734.083	0.0160696
734.161	0.0160170
734.239	0.0161049
734.317	0.0160384
734.396	0.0160041
734.474	0.0160255
734.552	0.0160630
734.630	0.0161507
734.708	0.0159175
734.786	0.0159340
734.864	0.0159762
734.942	0.0160130
735.021	0.0158987
735.099	0.0161935
735.177	0.0160533
735.255	0.0160411
735.333	0.0160300
735.411	0.0161284
735.489	0.0160020
735.567	0.0159013
735.646	0.0160900
735.724	0.0160842
735.802	0.0160860
735.880	0.0160200
735.958	0.0159991
736.036	0.0160435
736.114	0.0160530
736.192	0.0162403
736.271	0.0160323
736.349	0.0161010
736.427	0.0159971
736.505	0.0159814
736.583	0.0159512
736.661	0.0160519
736.739	0.0160922
736.817	0.0160506
736.896	0.0159923
736.974	0.0158978
737.052	0.0160249
737.130	0.0161124
737.208	0.0159753
737.286	0.0161900
737.364	0.0159788
737.442	0.0159058
737.521	0.0160052
737.599	0.0161457
737.677	0.0160136
737.755	0.0160784
737.833	0.0159842
737.911	0.0161822
737.989	0.0160692
738.067	0.0159502
738.146	0.0160835
738.224	0.0160951
738.302	0.0161170
738.380	0.0160017
738.458	0.0159853
738.536	0.0159790
738.614	0.0160330
738.692	0.0161034
738.771	0.0160433
738.849	0.0160519
738.927	0.0160310
739.005	0.0160046
739.083	0.0161005
739.161	0.0161771
739.239	0.0161006
739.317	0.0160235
739.396	0.0158832
739.474	0.0160732
739.552	0.0159693
739.630	0.0160537
739.708	0.0160107
739.786	0.0161235
739.864	0.0161644
739.942	0.0160587
740.021	0.0160696
740.099	0.0159877
740.177	0.0160629
740.255	0.0161534
740.333	0.0161243
740.411	0.0159792
740.489	0.0160395
740.567	0.0161001
740.646	0.0159985
740.724	0.0161028
740.802	0.0161095
740.880	0.0160082
740.958	0.0161590
741.036	0.0161676
741.114	0.0161585
741.192	0.0160904
741.271	0.0161368
741.349	0.0162424
741.427	0.0162119
741.505	0.0162386
741.583	0.0162063
741.661	0.0161413
741.739	0.0162778
741.817	0.0162629
741.896	0.0161012
741.974	0.0161697
742.052	0.0161010
742.130	0.0159840
742.208	0.0159253
742.286	0.0158602
742.364	0.0158436
742.442	0.0155979
742.521	0.0156815
742.599	0.0157683
742.677	0.0156540
742.755	0.0158550
742.833	0.0159431
742.911	0.0160642
742.989	0.0161039
743.067	0.0162486
743.146	0.0164757
743.224	0.0166347
743.302	0.0166705
743.380	0.0168034
743.458	0.0168269
743.536	0.0170096
743.614	0.0168559
743.692	0.0168527
743.771	0.0166525
743.849	0.0165437
743.927	0.0164560
744.005	0.0162996
744.083	0.0161444
744.161	0.0157983
744.239	0.0155837
744.317	0.0154244
744.396	0.0151304
744.474	0.0147527
744.552	0.0146857
744.630	0.0145500
744.708	0.0145049
744.786	0.0145892
744.864	0.0148774
744.942	0.0152964
745.021	0.0158888
745.099	0.0164538
745.177	0.0170322
745.255	0.0175016
745.333	0.0178880
745.411	0.0179681
745.489	0.0182022
745.567	0.0182848
745.646	0.0178165
745.724	0.0176980
745.802	0.0173019
745.880	0.0167987
745.958	0.0164235
746.036	0.0162036
746.114	0.0159709
746.192	0.0157176
746.271	0.0154317
746.349	0.0154134
746.427	0.0152097
746.505	0.0151846
746.583	0.0150635
746.661	0.0145597
746.739	0.0144651
746.817	0.0143159
746.896	0.0141055
746.974	0.0140437
747.052	0.0141884
747.130	0.0145363
747.208	0.0149713
747.286	0.0156133
747.364	0.0162253
747.442	0.0170399
747.521	0.0177816
747.599	0.0183344
747.677	0.0189540
747.755	0.0192317
747.833	0.0191467
747.911	0.0188730
747.989	0.0185651
748.067	0.0180088
748.146	0.0175001
748.224	0.0168698
748.302	0.0163065
748.380	0.0154885
748.458	0.0151453
748.536	0.0147659
748.614	0.0144750
748.692	0.0141816
748.771	0.0138299
748.849	0.0137099
748.927	0.0136177
749.005	0.0137883
749.083	0.0135738
749.161	0.0134805
749.239	0.0136827
749.317	0.0137917
749.396	0.0140654
749.474	0.0144460
749.552	0.0151395
749.630	0.0156024
749.708	0.0161585
749.786	0.0167302
749.864	0.0175673
749.942	0.0181916
750.021	0.0188676
750.099	0.0195530
750.177	0.0202358
750.255	0.0205104
750.333	0.0207413
750.411	0.0206802
750.489	0.0202776
750.567	0.0196397
750.646	0.0188133
750.724	0.0180817
750.802	0.0171073
750.880	0.0161607
750.958	0.0151525
751.036	0.0142702
751.114	0.0135264
751.192	0.0129532
751.271	0.0124825
751.349	0.0122386
751.427	0.0120220
751.505	0.0119360
751.583	0.0119716
751.661	0.0122095
751.739	0.0124991
751.817	0.0126452
751.896	0.0129146
751.974	0.0133597
752.052	0.0137013
752.130	0.0142307
752.208	0.0148927
752.286	0.0154381
752.364	0.0162795
752.442	0.0172379
752.521	0.0181954
752.599	0.0191494
752.677	0.0200340
752.755	0.0209694
752.833	0.0216640
752.911	0.0222049
752.989	0.0225813
753.067	0.0227073
753.146	0.0223874
753.224	0.0219801
753.302	0.0212119
753.380	0.0203274
753.458	0.0194519
753.536	0.0182964
753.614	0.0170921
753.692	0.0158588
753.771	0.0147193
753.849	0.0134870
753.927	0.0123549
754.005	0.0114255
754.083	0.0106499
754.161	0.0101460
754.239	0.00962418
754.317	0.00925255
754.396	0.00921173
754.474	0.00933891
754.552	0.00947411
754.630	0.0100086
754.708	0.0108425
754.786	0.0115495
754.864	0.0125537
754.942	0.0135882
755.021	0.0147536
755.099	0.0158966
755.177	0.0171664
755.255	0.0183920
755.333	0.0196272
755.411	0.0206142
755.489	0.0215668
755.567	0.0224760
755.646	0.0232678
755.724	0.0238102
755.802	0.0241856
755.880	0.0242145
755.958	0.0240583
756.036	0.0237745
756.114	0.0230772
756.192	0.0221439
756.271	0.0211533
756.349	0.0201578
756.427	0.0185278
756.505	0.0170934
756.583	0.0156783
756.661	0.0143417
756.739	0.0128731
756.817	0.0114031
756.896	0.0106517
756.974	0.00965981
757.052	0.00885368
757.130	0.00834282
757.208	0.00823074
757.286	0.00809647
757.364	0.00823471
757.442	0.00866409
757.521	0.00933762
757.599	0.0100594
757.677	0.0109332
757.755	0.0119444
757.833	0.0132111
757.911	0.0145219
757.989	0.0158681
758.067	0.0171129
758.146	0.0183971
758.224	0.0195926
758.302	0.0207290
758.380	0.0216218
758.458	0.0223680
758.536	0.0228874
758.614	0.0231924
758.692	0.0234314
758.771	0.0230931
758.849	0.0227863
758.927	0.0225266
759.005	0.0218954
759.083	0.0211639
759.161	0.0203091
759.239	0.0191694
759.317	0.0181038
759.396	0.0170970
759.474	0.0159203
759.552	0.0147066
759.630	0.0137244
759.708	0.0128529
759.786	0.0121484
759.864	0.0115052
759.942	0.0111406
760.021	0.0108639
760.099	0.0106152
760.177	0.0107909
760.255	0.0109436
760.333	0.0110305
760.411	0.0113472
760.489	0.0117574
760.567	0.0122254
760.646	0.0126160
760.724	0.0133756
760.802	0.0139715
760.880	0.0147965
760.958	0.0154218
761.036	0.0161885
761.114	0.0170083
761.192	0.0177596
761.271	0.0186440
761.349	0.0193274
761.427	0.0200137
761.505	0.0205765
761.583	0.0210555
761.661	0.0211507
761.739	0.0214532
761.817	0.0215029
761.896	0.0212535
761.974	0.0209752
762.052	0.0204324
762.130	0.0197321
762.208	0.0189423
762.286	0.0179800
762.364	0.0171888
762.442	0.0162791
762.521	0.0150522
762.599	0.0142711
762.677	0.0133580
762.755	0.0126926
762.833	0.0118723
762.911	0.0115617
762.989	0.0110564
763.067	0.0107761
763.146	0.0106905
763.224	0.0110484
763.302	0.0111088
763.380	0.0116920
763.458	0.0122073
763.536	0.0129250
763.614	0.0136391
763.692	0.0143928
763.771	0.0151956
763.849	0.0159039
763.927	0.0166525
764.005	0.0175429
764.083	0.0182505
764.161	0.0189570
764.239	0.0194418
764.317	0.0199728
764.396	0.0201907
764.474	0.0202636
764.552	0.0202735
764.630	0.0199708
764.708	0.0197846
764.786	0.0192469
764.864	0.0189208
764.942	0.0184892
765.021	0.0177866
765.099	0.0174062
765.177	0.0170059
765.255	0.0163280
765.333	0.0158547
765.411	0.0156878
765.489	0.0153874
765.567	0.0150330
765.646	0.0148033
765.724	0.0145672
765.802	0.0145129
765.880	0.0144524
765.958	0.0142583
766.036	0.0143948
766.114	0.0143388
766.192	0.0142670
766.271	0.0144241
766.349	0.0143419
766.427	0.0144638
766.505	0.0145050
766.583	0.0145400
766.661	0.0145554
766.739	0.0146177
766.817	0.0147783
766.896	0.0151292
766.974	0.0149796
767.052	0.0151313
767.130	0.0154101
767.208	0.0155930
767.286	0.0156873
767.364	0.0158149
767.442	0.0159273
767.521	0.0162494
767.599	0.0165366
767.677	0.0166346
767.755	0.0168944
767.833	0.0172297
767.911	0.0174066
767.989	0.0176209
768.067	0.0177119
768.146	0.0178143
768.224	0.0179660
768.302	0.0180419
768.380	0.0179836
768.458	0.0178619
768.536	0.0177650
768.614	0.0176814
768.692	0.0175101
768.771	0.0173695
768.849	0.0172342
768.927	0.0166801
769.005	0.0164275
769.083	0.0160514
769.161	0.0158177
769.239	0.0155690
769.317	0.0155414
769.396	0.0153708
769.474	0.0153244
769.552	0.0152810
769.630	0.0152606
769.708	0.0152110
769.786	0.0153035
769.864	0.0152398
769.942	0.0154028
770.021	0.0154191
770.099	0.0154901
770.177	0.0155640
770.255	0.0155877
770.333	0.0157063
770.411	0.0156719
770.489	0.0159637
770.567	0.0159286
770.646	0.0158775
770.724	0.0157912
770.802	0.0159160
770.880	0.0158304
770.958	0.0158099
771.036	0.0156970
771.114	0.0159035
771.192	0.0160214
771.271	0.0159309
771.349	0.0159724
771.427	0.0159679
771.505	0.0159017
771.583	0.0162778
771.661	0.0163753
771.739	0.0162560
771.817	0.0162725
771.896	0.0163126
771.974	0.0163801
772.052	0.0162835
772.130	0.0161970
772.208	0.0161520
772.286	0.0161105
772.364	0.0159917
772.442	0.0159230
772.521	0.0159270
772.599	0.0158885
772.677	0.0157223
772.755	0.0158041
772.833	0.0156872
772.911	0.0157420
772.989	0.0156142
773.067	0.0157518
773.146	0.0158414
773.224	0.0158565
773.302	0.0159044
773.380	0.0160841
773.458	0.0162681
773.536	0.0163604
773.614	0.0163040
773.692	0.0165546
773.771	0.0165701
773.849	0.0165703
773.927	0.0166241
774.005	0.0166688
774.083	0.0165635
774.161	0.0166054
774.239	0.0166427
774.317	0.0165907
774.396	0.0166990
774.474	0.0166676
774.552	0.0166132
774.630	0.0166929
774.708	0.0167326
774.786	0.0168074
774.864	0.0167619
774.942	0.0167622
775.021	0.0168303
775.099	0.0166190
775.177	0.0165062
775.255	0.0163061
775.333	0.0163445
775.411	0.0161740
775.489	0.0160242
775.567	0.0157120
775.646	0.0154888
775.724	0.0153268
775.802	0.0151949
775.880	0.0152031
775.958	0.0152187
776.036	0.0152298
776.114	0.0152427
776.192	0.0153242
776.271	0.0154740
776.349	0.0155363
776.427	0.0155255
776.505	0.0153417
776.583	0.0155468
776.661	0.0156245
776.739	0.0154017
776.817	0.0153810
776.896	0.0152905
776.974	0.0154443
777.052	0.0152692
777.130	0.0153081
777.208	0.0153253
777.286	0.0154780
777.364	0.0157281
777.442	0.0157765
777.521	0.0160690
777.599	0.0159502
777.677	0.0162901
777.755	0.0166646
777.833	0.0167443
777.911	0.0170186
777.989	0.0172404
778.067	0.0173501
778.146	0.0175113
778.224	0.0176418
778.302	0.0177968
778.380	0.0178532
778.458	0.0178290
778.536	0.0178169
778.614	0.0177876
778.692	0.0177207
778.771	0.0175435
778.849	0.0174016
778.927	0.0171895
779.005	0.0169355
779.083	0.0168105
779.161	0.0165483
779.239	0.0163432
779.317	0.0160641
779.396	0.0157195
779.474	0.0153869
779.552	0.0151690
779.630	0.0149963
779.708	0.0148624
779.786	0.0146821
779.864	0.0145642
779.942	0.0146624
780.021	0.0147583
780.099	0.0148875
780.177	0.0151235
780.255	0.0151990
780.333	0.0152592
780.411	0.0157537
780.489	0.0159256
780.567	0.0161536
780.646	0.0163378
780.724	0.0165343
780.802	0.0166554
780.880	0.0169318
780.958	0.0168851
781.036	0.0169685
781.114	0.0170715
781.192	0.0169805
781.271	0.0170015
781.349	0.0167815
781.427	0.0167258
781.505	0.0165471
781.583	0.0162772
781.661	0.0161887
781.739	0.0159617
781.817	0.0159985
781.896	0.0156912
781.974	0.0156213
782.052	0.0154989
782.130	0.0155183
782.208	0.0153942
782.286	0.0154726
782.364	0.0153254
782.442	0.0154070
782.521	0.0156847
782.599	0.0156566
782.677	0.0158784
782.755	0.0161494
782.833	0.0161478
782.911	0.0163789
782.989	0.0163420
783.067	0.0166257
783.146	0.0167846
783.224	0.0166908
783.302	0.0165842
783.380	0.0167938
783.458	0.0168267
783.536	0.0167499
783.614	0.0166521
783.692	0.0166786
783.771	0.0166436
783.849	0.0164999
783.927	0.0165424
784.005	0.0163380
784.083	0.0163493
784.161	0.0163085
784.239	0.0163956
784.317	0.0162352
784.396	0.0161164
784.474	0.0160868
784.552	0.0158730
784.630	0.0159329
784.708	0.0158371
784.786	0.0158244
784.864	0.0160429
784.942	0.0159107
785.021	0.0158968
785.099	0.0161257
785.177	0.0162626
785.255	0.0162481
785.333	0.0163406
785.411	0.0166147
785.489	0.0166315
785.567	0.0167315
785.646	0.0167282
785.724	0.0167341
785.802	0.0166985
785.880	0.0163709
785.958	0.0164249
786.036	0.0164806
786.114	0.0165369
786.192	0.0161890
786.271	0.0160366
786.349	0.0160593
786.427	0.0159029
786.505	0.0156336
786.583	0.0155282
786.661	0.0155015
786.739	0.0154286
786.817	0.0153322
786.896	0.0152985
786.974	0.0151910
787.052	0.0152693
787.130	0.0152221
787.208	0.0150481
787.286	0.0150690
787.364	0.0151225
787.442	0.0151084
787.521	0.0149648
787.599	0.0149730
787.677	0.0150201
787.755	0.0151192
787.833	0.0153398
787.911	0.0155099
787.989	0.0155539
788.067	0.0158575
788.146	0.0159268
788.224	0.0163115
788.302	0.0164443
788.380	0.0166411
788.458	0.0169582
788.536	0.0171675
788.614	0.0173329
788.692	0.0174729
788.771	0.0174547
788.849	0.0175908
788.927	0.0176315
789.005	0.0175317
789.083	0.0175547
789.161	0.0174247
789.239	0.0173360
789.317	0.0169550
789.396	0.0168749
789.474	0.0167552
789.552	0.0165903
789.630	0.0163494
789.708	0.0159984
789.786	0.0158109
789.864	0.0158274
789.942	0.0155049
790.021	0.0153506
790.099	0.0152972
790.177	0.0153537
790.255	0.0153553
790.333	0.0152886
790.411	0.0155045
790.489	0.0156493
790.567	0.0157600
790.646	0.0158149
790.724	0.0160625
790.802	0.0163028
790.880	0.0163341
790.958	0.0164534
791.036	0.0165277
791.114	0.0165765
791.192	0.0165259
791.271	0.0164673
791.349	0.0166239
791.427	0.0163898
791.505	0.0163297
791.583	0.0161914
791.661	0.0161131
791.739	0.0160438
791.817	0.0159659
791.896	0.0158292
791.974	0.0159316
792.052	0.0158173
792.130	0.0157380
792.208	0.0157787
792.286	0.0156306
792.364	0.0157314
792.442	0.0154347
792.521	0.0153869
792.599	0.0155286
792.677	0.0155489
792.755	0.0154351
792.833	0.0153592
792.911	0.0154340
792.989	0.0154875
793.067	0.0153979
793.146	0.0154108
793.224	0.0155825
793.302	0.0157831
793.380	0.0157563
793.458	0.0155727
793.536	0.0159630
793.614	0.0160902
793.692	0.0161546
793.771	0.0162096
793.849	0.0164644
793.927	0.0165097
794.005	0.0165381
794.083	0.0167319
794.161	0.0168941
794.239	0.0167894
794.317	0.0167686
794.396	0.0169489
794.474	0.0169991
794.552	0.0169247
794.630	0.0167504
794.708	0.0167289
794.786	0.0166837
794.864	0.0164870
794.942	0.0164188
795.021	0.0162742
795.099	0.0161676
795.177	0.0160382
795.255	0.0159105
795.333	0.0159640
795.411	0.0157613
795.489	0.0156603
795.567	0.0157065
795.646	0.0155486
795.724	0.0155641
795.802	0.0156572
795.880	0.0155717
795.958	0.0156671
796.036	0.0157984
796.114	0.0160788
796.192	0.0162096
796.271	0.0163551
796.349	0.0165903
796.427	0.0165713
796.505	0.0164517
796.583	0.0164724
796.661	0.0165516
796.739	0.0164137
796.817	0.0164037
796.896	0.0161611
796.974	0.0162067
797.052	0.0162137
797.130	0.0160660
797.208	0.0159478
797.286	0.0157336
797.364	0.0156316
797.442	0.0156419
797.521	0.0155131
797.599	0.0154399
797.677	0.0153885
797.755	0.0153653
797.833	0.0155246
797.911	0.0155374
797.989	0.0155608
798.067	0.0154663
798.146	0.0156943
798.224	0.0158086
798.302	0.0159959
798.380	0.0161477
798.458	0.0160690
798.536	0.0162179
798.614	0.0162344
798.692	0.0163395
798.771	0.0164814
798.849	0.0163794
798.927	0.0163300
799.005	0.0162485
799.083	0.0161581
799.161	0.0162505
799.239	0.0160023
799.317	0.0159902
799.396	0.0161482
799.474	0.0161418
799.552	0.0159967
799.630	0.0161349
799.708	0.0160810
799.786	0.0160992
799.864	0.0162680
799.942	0.0163814
800.021	0.0163564
800.099	0.0163941
800.177	0.0163829
800.255	0.0166051
800.333	0.0166051
800.411	0.0166169
800.489	0.0164269
800.567	0.0163870
800.646	0.0163525
800.724	0.0163656
800.802	0.0161591
800.880	0.0161716
800.958	0.0160889
801.036	0.0160164
801.114	0.0159665
801.192	0.0158302
801.271	0.0157758
801.349	0.0156726
801.427	0.0158241
801.505	0.0158062
801.583	0.0158430
801.661	0.0160055
801.739	0.0160377
801.817	0.0161787
801.896	0.0162479
801.974	0.0163394
802.052	0.0163952
802.130	0.0164952
802.208	0.0166270
802.286	0.0166705
802.364	0.0168345
802.442	0.0168209
802.521	0.0169031
802.599	0.0167316
802.677	0.0167175
802.755	0.0167152
802.833	0.0164756
802.911	0.0163554
802.989	0.0162547
803.067	0.0160518
803.146	0.0159259
803.224	0.0157282
803.302	0.0154519
803.380	0.0154277
803.458	0.0154619
803.536	0.0154288
803.614	0.0152922
803.692	0.0151720
803.771	0.0151726
803.849	0.0154633
803.927	0.0154259
804.005	0.0154700
804.083	0.0156029
804.161	0.0156884
804.239	0.0158462
804.317	0.0159382
804.396	0.0160126
804.474	0.0161356
804.552	0.0162614
804.630	0.0161941
804.708	0.0164787
804.786	0.0164565
804.864	0.0162078
804.942	0.0163396
805.021	0.0163618
805.099	0.0163012
805.177	0.0163672
805.255	0.0165139
805.333	0.0163486
805.411	0.0162839
805.489	0.0162109
805.567	0.0163525
805.646	0.0162689
805.724	0.0163149
805.802	0.0164021
805.880	0.0163048
805.958	0.0165776
806.036	0.0165076
806.114	0.0165435
806.192	0.0164659
806.271	0.0164656
806.349	0.0165429
806.427	0.0166348
806.505	0.0165661
806.583	0.0164748
806.661	0.0165036
806.739	0.0165728
806.817	0.0165857
806.896	0.0164880
806.974	0.0164302
807.052	0.0163874
807.130	0.0163688
807.208	0.0162909
807.286	0.0162811
807.364	0.0161653
807.442	0.0161145
807.521	0.0162312
807.599	0.0160834
807.677	0.0160295
807.755	0.0159937
807.833	0.0160345
807.911	0.0160645
807.989	0.0161501
808.067	0.0160665
808.146	0.0160362
808.224	0.0160178
808.302	0.0161506
808.380	0.0161017
808.458	0.0160937
808.536	0.0161139
808.614	0.0162179
808.692	0.0163308
808.771	0.0161729
808.849	0.0161743
808.927	0.0160863
809.005	0.0161176
809.083	0.0160786
809.161	0.0157654
809.239	0.0160189
809.317	0.0160354
809.396	0.0158253
809.474	0.0157443
809.552	0.0158050
809.630	0.0157070
809.708	0.0157454
809.786	0.0157374
809.864	0.0157429
809.942	0.0157993
810.021	0.0158085
810.099	0.0157059
810.177	0.0157795
810.255	0.0159974
810.333	0.0160148
810.411	0.0160794
810.489	0.0161349
810.567	0.0162113
810.646	0.0162621
810.724	0.0162704
810.802	0.0163364
810.880	0.0164273
810.958	0.0163528
811.036	0.0163395
811.114	0.0165305
811.192	0.0164294
811.271	0.0163071
811.349	0.0162009
811.427	0.0161619
811.505	0.0163554
811.583	0.0163081
811.661	0.0161387
811.739	0.0161601
811.817	0.0162138
811.896	0.0161525
811.974	0.0161095
812.052	0.0161631
812.130	0.0161790
812.208	0.0162754
812.286	0.0163012
812.364	0.0161720
812.442	0.0161060
812.521	0.0163238
812.599	0.0163832
812.677	0.0164071
812.755	0.0164763
812.833	0.0165128
812.911	0.0163837
812.989	0.0165207
813.067	0.0166141
813.146	0.0165461
813.224	0.0164988
813.302	0.0164739
813.380	0.0165585
813.458	0.0165090
813.536	0.0164899
813.614	0.0163225
813.692	0.0163564
813.771	0.0162758
813.849	0.0162503
813.927	0.0162474
814.005	0.0160784
814.083	0.0160744
814.161	0.0158952
814.239	0.0158984
814.317	0.0160273
814.396	0.0157633
814.474	0.0158546
814.552	0.0159179
814.630	0.0158536
814.708	0.0157932
814.786	0.0158341
814.864	0.0158233
814.942	0.0158741
815.021	0.0157991
815.099	0.0159950
815.177	0.0158630
815.255	0.0157607
815.333	0.0157411
815.411	0.0157841
815.489	0.0157881
815.567	0.0157710
815.646	0.0157415
815.724	0.0158109
815.802	0.0157880
815.880	0.0158833
815.958	0.0157594
816.036	0.0158597
816.114	0.0157837
816.192	0.0158147
816.271	0.0161264
816.349	0.0159341
816.427	0.0159806
816.505	0.0161134
816.583	0.0161684
816.661	0.0162902
816.739	0.0164302
816.817	0.0163431
816.896	0.0162716
816.974	0.0163560
817.052	0.0163401
817.130	0.0164807
817.208	0.0164172
817.286	0.0163345
817.364	0.0161989
817.442	0.0162514
817.521	0.0161438
817.599	0.0161536
817.677	0.0160529
817.755	0.0160665
817.833	0.0159817
817.911	0.0159469
817.989	0.0160602
818.067	0.0161858
818.146	0.0162756
818.224	0.0163017
818.302	0.0163360
818.380	0.0163771
818.458	0.0164182
818.536	0.0163786
818.614	0.0165150
818.692	0.0165196
818.771	0.0164995
818.849	0.0165845
818.927	0.0165428
819.005	0.0164848
819.083	0.0163496
819.161	0.0163103
819.239	0.0162415
819.317	0.0161517
819.396	0.0160900
819.474	0.0160132
819.552	0.0158874
819.630	0.0158808
819.708	0.0158009
819.786	0.0158236
819.864	0.0157918
819.942	0.0157393
820.021	0.0158533
820.099	0.0158088
820.177	0.0157935
820.255	0.0159292
820.333	0.0158909
820.411	0.0159675
820.489	0.0158967
820.567	0.0160647
820.646	0.0160503
820.724	0.0161346
820.802	0.0162381
820.880	0.0160397
820.958	0.0162851
821.036	0.0162092
821.114	0.0161631
821.192	0.0162156
821.271	0.0162265
821.349	0.0160184
821.427	0.0161997
821.505	0.0161987
821.583	0.0161169
821.661	0.0161368
821.739	0.0160379
821.817	0.0161186
821.896	0.0159032
821.974	0.0158524
822.052	0.0160683
822.130	0.0160676
822.208	0.0158805
822.286	0.0159825
822.364	0.0159303
822.442	0.0159288
822.521	0.0161317
822.599	0.0158942
822.677	0.0159701
822.755	0.0160473
822.833	0.0159932
822.911	0.0161448
822.989	0.0160703
823.067	0.0161645
823.146	0.0162056
823.224	0.0161295
823.302	0.0161640
823.380	0.0161463
823.458	0.0160310
823.536	0.0160230
823.614	0.0161476
823.692	0.0161160
823.771	0.0161651
823.849	0.0160307
823.927	0.0160845
824.005	0.0161436
824.083	0.0160352
824.161	0.0159308
824.239	0.0160085
824.317	0.0160243
824.396	0.0159747
824.474	0.0159600
824.552	0.0159670
824.630	0.0160323
824.708	0.0160558
824.786	0.0160836
824.864	0.0160458
824.942	0.0160876
825.021	0.0161188
825.099	0.0162321
825.177	0.0162237
825.255	0.0162334
825.333	0.0162540
825.411	0.0162264
825.489	0.0162243
825.567	0.0161833
825.646	0.0161143
825.724	0.0163197
825.802	0.0162460
825.880	0.0161729
825.958	0.0162383
826.036	0.0162872
826.114	0.0161998
826.192	0.0161095
826.271	0.0160941
826.349	0.0160762
826.427	0.0160316
826.505	0.0161729
826.583	0.0161180
826.661	0.0161140
826.739	0.0161053
826.817	0.0162059
826.896	0.0160183
826.974	0.0159373
827.052	0.0161731
827.130	0.0161198
827.208	0.0162498
827.286	0.0161373
827.364	0.0162198
827.442	0.0161491
827.521	0.0161465
827.599	0.0161890
827.677	0.0162466
827.755	0.0160094
827.833	0.0161833
827.911	0.0162428
827.989	0.0159253
828.067	0.0160353
828.146	0.0157987
828.224	0.0158669
828.302	0.0157556
828.380	0.0156349
828.458	0.0156862
828.536	0.0157054
828.614	0.0155753
828.692	0.0155914
828.771	0.0157152
828.849	0.0158120
828.927	0.0158577
829.005	0.0158383
829.083	0.0159095
829.161	0.0160354
829.239	0.0162689
829.317	0.0163455
829.396	0.0161581
829.474	0.0163691
829.552	0.0165565
829.630	0.0164400
829.708	0.0164164
829.786	0.0165415
829.864	0.0164012
829.942	0.0162785
830.021	0.0163609
830.099	0.0162899
830.177	0.0162500
830.255	0.0160680
830.333	0.0161801
830.411	0.0160926
830.489	0.0159157
830.567	0.0157592
830.646	0.0158541
830.724	0.0158381
830.802	0.0159243
830.880	0.0157643
830.958	0.0159206
831.036	0.0159546
831.114	0.0159262
831.192	0.0161058
831.271	0.0161915
831.349	0.0161147
831.427	0.0164243
831.505	0.0163867
831.583	0.0163963
831.661	0.0165713
831.739	0.0165324
831.817	0.0165099
831.896	0.0165337
831.974	0.0164513
832.052	0.0163710
832.130	0.0164050
832.208	0.0163367
832.286	0.0163344
832.364	0.0162878
832.442	0.0162453
832.521	0.0161601
832.599	0.0159208
832.677	0.0159258
832.755	0.0158440
832.833	0.0158575
832.911	0.0158826
832.989	0.0158236
833.067	0.0159835
833.146	0.0158387
833.224	0.0159592
833.302	0.0159219
833.380	0.0159246
833.458	0.0160597
833.536	0.0161030
833.614	0.0161515
833.692	0.0160444
833.771	0.0161942
833.849	0.0160650
833.927	0.0160625
834.005	0.0160703
834.083	0.0160763
834.161	0.0160697
834.239	0.0160189
834.317	0.0160330
834.396	0.0158897
834.474	0.0160222
834.552	0.0158237
834.630	0.0158952
834.708	0.0158611
834.786	0.0159499
834.864	0.0159739
834.942	0.0159542
835.021	0.0160470
835.099	0.0160696
835.177	0.0160518
835.255	0.0160373
835.333	0.0160846
835.411	0.0162542
835.489	0.0161154
835.567	0.0160319
835.646	0.0162445
835.724	0.0162911
835.802	0.0162890
835.880	0.0161720
835.958	0.0161656
836.036	0.0162960
836.114	0.0162274
836.192	0.0161678
836.271	0.0160048
836.349	0.0160484
836.427	0.0161257
836.505	0.0160721
836.583	0.0160190
836.661	0.0158560
836.739	0.0160297
836.817	0.0158434
836.896	0.0159503
836.974	0.0160199
837.052	0.0160245
837.130	0.0161890
837.208	0.0162031
837.286	0.0162038
837.364	0.0162442
837.442	0.0163034
837.521	0.0163840
837.599	0.0164799
837.677	0.0165206
837.755	0.0165714
837.833	0.0165598
837.911	0.0166000
837.989	0.0166904
838.067	0.0165714
838.146	0.0164494
838.224	0.0165204
838.302	0.0164697
838.380	0.0163401
838.458	0.0162545
838.536	0.0162317
838.614	0.0162333
838.692	0.0160162
838.771	0.0159559
838.849	0.0160766
838.927	0.0159547
839.005	0.0158086
839.083	0.0159257
839.161	0.0159705
839.239	0.0158903
839.317	0.0158250
839.396	0.0158588
839.474	0.0159567
839.552	0.0159151
839.630	0.0161323
839.708	0.0160551
839.786	0.0159693
839.864	0.0160480
839.942	0.0161215
840.021	0.0161513
840.099	0.0160522
840.177	0.0161018
840.255	0.0159557
840.333	0.0159802
840.411	0.0160453
840.489	0.0160678
840.567	0.0158410
840.646	0.0159783
840.724	0.0160500
840.802	0.0159002
840.880	0.0159827
840.958	0.0159305
841.036	0.0158584
841.114	0.0159353
841.192	0.0158762
841.271	0.0159515
841.349	0.0160262
841.427	0.0161008
841.505	0.0161324
841.583	0.0161248
841.661	0.0160728
841.739	0.0162022
841.817	0.0162576
841.896	0.0161970
841.974	0.0161563
842.052	0.0161570
842.130	0.0161156
842.208	0.0162437
842.286	0.0162269
842.364	0.0161139
842.442	0.0162859
842.521	0.0162477
842.599	0.0160812
842.677	0.0159824
842.755	0.0159497
842.833	0.0161237
842.911	0.0158362
842.989	0.0159509
843.067	0.0161482
843.146	0.0160947
843.224	0.0161230
843.302	0.0160970
843.380	0.0162769
843.458	0.0162955
843.536	0.0163094
843.614	0.0164247
843.692	0.0164527
843.771	0.0166736
843.849	0.0165315
843.927	0.0164323
844.005	0.0165079
844.083	0.0165187
844.161	0.0164636
844.239	0.0165500
844.317	0.0164003
844.396	0.0164623
844.474	0.0162599
844.552	0.0159753
844.630	0.0160796
844.708	0.0160757
844.786	0.0158794
844.864	0.0157303
844.942	0.0157690
845.021	0.0156894
845.099	0.0156159
845.177	0.0155078
845.255	0.0154553
845.333	0.0155772
845.411	0.0156713
845.489	0.0156588
845.567	0.0155821
845.646	0.0157824
845.724	0.0158534
845.802	0.0159113
845.880	0.0161177
845.958	0.0160005
846.036	0.0160486
846.114	0.0160899
846.192	0.0160835
846.271	0.0161217
846.349	0.0161684
846.427	0.0162215
846.505	0.0161633
846.583	0.0161592
846.661	0.0162487
846.739	0.0161229
846.817	0.0161809
846.896	0.0160165
846.974	0.0161636
847.052	0.0160658
847.130	0.0160909
847.208	0.0160661
847.286	0.0160537
847.364	0.0160262
847.442	0.0159246
847.521	0.0160553
847.599	0.0159811
847.677	0.0159051
847.755	0.0157010
847.833	0.0158926
847.911	0.0159200
847.989	0.0157716
848.067	0.0158838
848.146	0.0159614
848.224	0.0161309
848.302	0.0159213
848.380	0.0161650
848.458	0.0161655
848.536	0.0159083
848.614	0.0161053
848.692	0.0163036
848.771	0.0160921
848.849	0.0162058
848.927	0.0162744
849.005	0.0161512
849.083	0.0161802
849.161	0.0161529
849.239	0.0162366
849.317	0.0163850
849.396	0.0164994
849.474	0.0164736
849.552	0.0165341
849.630	0.0166548
849.708	0.0165959
849.786	0.0167524
849.864	0.0167548
849.942	0.0167334
850.021	0.0166588
850.099	0.0165827
850.177	0.0166525
850.255	0.0163926
850.333	0.0164832
850.411	0.0162987
850.489	0.0160865
850.567	0.0160800
850.646	0.0160322
850.724	0.0157880
850.802	0.0156456
850.880	0.0155400
850.958	0.0154585
851.036	0.0154056
851.114	0.0153503
851.192	0.0153602
851.271	0.0153442
851.349	0.0155436
851.427	0.0154354
851.505	0.0154741
851.583	0.0154243
851.661	0.0156567
851.739	0.0157025
851.817	0.0158385
851.896	0.0159230
851.974	0.0162443
852.052	0.0163780
852.130	0.0164640
852.208	0.0166488
852.286	0.0167392
852.364	0.0167693
852.442	0.0167215
852.521	0.0168079
852.599	0.0168465
852.677	0.0168555
852.755	0.0167437
852.833	0.0166977
852.911	0.0167042
852.989	0.0165414
853.067	0.0164839
853.146	0.0162727
853.224	0.0161613
853.302	0.0159792
853.380	0.0158052
853.458	0.0157195
853.536	0.0156788
853.614	0.0154797
853.692	0.0153950
853.771	0.0152589
853.849	0.0153419
853.927	0.0152041
854.005	0.0151063
854.083	0.0152853
854.161	0.0152689
854.239	0.0154088
854.317	0.0154924
854.396	0.0155688
854.474	0.0157077
854.552	0.0159744
854.630	0.0159594
854.708	0.0161009
854.786	0.0162756
854.864	0.0163598
854.942	0.0165539
855.021	0.0166513
855.099	0.0166967
855.177	0.0168102
855.255	0.0166312
855.333	0.0167023
855.411	0.0166737
855.489	0.0167011
855.567	0.0166228
855.646	0.0167091
855.724	0.0166511
855.802	0.0165807
855.880	0.0164886
855.958	0.0164124
856.036	0.0163255
856.114	0.0161599
856.192	0.0162014
856.271	0.0161457
856.349	0.0161033
856.427	0.0161189
856.505	0.0158810
856.583	0.0159737
856.661	0.0159458
856.739	0.0158746
856.817	0.0159946
856.896	0.0157970
856.974	0.0157766
857.052	0.0158018
857.130	0.0158141
857.208	0.0159288
857.286	0.0159196
857.364	0.0159458
857.442	0.0156446
857.521	0.0158145
857.599	0.0159245
857.677	0.0158249
857.755	0.0159573
857.833	0.0160921
857.911	0.0158957
857.989	0.0159545
858.067	0.0159932
858.146	0.0159921
858.224	0.0160921
858.302	0.0161578
858.380	0.0161352
858.458	0.0161295
858.536	0.0161791
858.614	0.0161037
858.692	0.0163390
858.771	0.0161895
858.849	0.0162897
858.927	0.0161491
859.005	0.0161183
859.083	0.0159946
859.161	0.0160522
859.239	0.0161465
859.317	0.0159634
859.396	0.0159684
859.474	0.0158163
859.552	0.0158283
859.630	0.0159087
859.708	0.0158076
859.786	0.0158839
859.864	0.0158538
859.942	0.0158048
860.021	0.0159389
860.099	0.0158643
860.177	0.0158865
860.255	0.0159668
860.333	0.0158787
860.411	0.0160007
860.489	0.0161588
860.567	0.0161190
860.646	0.0161413
860.724	0.0162745
860.802	0.0164468
860.880	0.0164315
860.958	0.0165464
861.036	0.0163383
861.114	0.0164639
861.192	0.0164822
861.271	0.0164532
861.349	0.0166333
861.427	0.0165956
861.505	0.0166201
861.583	0.0165826
861.661	0.0165693
861.739	0.0164611
861.817	0.0166096
861.896	0.0165060
861.974	0.0163584
862.052	0.0162398
862.130	0.0163637
862.208	0.0163516
862.286	0.0161544
862.364	0.0161166
862.442	0.0161150
862.521	0.0161088
862.599	0.0160336
862.677	0.0160062
862.755	0.0159688
862.833	0.0158128
862.911	0.0158924
862.989	0.0158465
863.067	0.0158917
863.146	0.0157520
863.224	0.0159684
863.302	0.0159102
863.380	0.0158382
863.458	0.0159633
863.536	0.0158817
863.614	0.0159827
863.692	0.0160431
863.771	0.0158260
863.849	0.0159043
863.927	0.0160229
864.005	0.0159389
864.083	0.0159389
864.161	0.0159844
864.239	0.0160427
864.317	0.0160214
864.396	0.0160561
864.474	0.0159991
864.552	0.0161880
864.630	0.0161849
864.708	0.0163454
864.786	0.0162835
864.864	0.0161784
864.942	0.0162250
865.021	0.0164025
865.099	0.0163181
865.177	0.0161926
865.255	0.0162909
865.333	0.0164540
865.411	0.0163058
865.489	0.0162535
865.567	0.0161911
865.646	0.0162807
865.724	0.0162230
865.802	0.0161818
865.880	0.0162401
865.958	0.0161797
866.036	0.0161927
866.114	0.0162456
866.192	0.0161599
866.271	0.0159966
866.349	0.0158597
866.427	0.0159161
866.505	0.0160346
866.583	0.0160658
866.661	0.0159988
866.739	0.0159308
866.817	0.0160105
866.896	0.0160090
866.974	0.0159077
867.052	0.0161200
867.130	0.0160766
867.208	0.0159607
867.286	0.0161799
867.364	0.0159631
867.442	0.0159910
867.521	0.0159586
867.599	0.0161578
867.677	0.0161040
867.755	0.0160867
867.833	0.0162749
867.911	0.0162019
867.989	0.0161553
868.067	0.0161546
868.146	0.0161469
868.224	0.0160806
868.302	0.0161810
868.380	0.0160316
868.458	0.0161787
868.536	0.0161004
868.614	0.0160650
868.692	0.0161089
868.771	0.0159839
868.849	0.0161658
868.927	0.0161733
869.005	0.0160406
869.083	0.0161520
869.161	0.0162627
869.239	0.0161916
869.317	0.0160825
869.396	0.0162577
869.474	0.0161295
869.552	0.0161779
869.630	0.0162608
869.708	0.0160708
869.786	0.0161237
869.864	0.0161655
869.942	0.0161535
