06/10/2022	16:16:12	Ver.	4.1	UNKNOWN
Optical Delay	550.020508	Delta X		0.078125	Sweeps	1	Scan Rate	0/0
Coordinates	Axis 1	NaN	Axis 2	NaN	Axis 3	NaN	Axis 4	NaN	Axis 5	NaN	Axis 6	0.000000
TX Power	0.000000	RX Power	0.000000

550.021	0.0162502
550.099	0.0163234
550.177	0.0162320
550.255	0.0162126
550.333	0.0161729
550.411	0.0163512
550.489	0.0162586
550.567	0.0162747
550.646	0.0163478
550.724	0.0162098
550.802	0.0163208
550.880	0.0163625
550.958	0.0163310
551.036	0.0162763
551.114	0.0163293
551.192	0.0162584
551.271	0.0162725
551.349	0.0163792
551.427	0.0162270
551.505	0.0162648
551.583	0.0161244
551.661	0.0163829
551.739	0.0163447
551.817	0.0162076
551.896	0.0161713
551.974	0.0163770
552.052	0.0162125
552.130	0.0162295
552.208	0.0163213
552.286	0.0164075
552.364	0.0163168
552.442	0.0162647
552.521	0.0162537
552.599	0.0163181
552.677	0.0163988
552.755	0.0164208
552.833	0.0161564
552.911	0.0162492
552.989	0.0162909
553.067	0.0162360
553.146	0.0161925
553.224	0.0162463
553.302	0.0164027
553.380	0.0163219
553.458	0.0161970
553.536	0.0162377
553.614	0.0163292
553.692	0.0163687
553.771	0.0161635
553.849	0.0163486
553.927	0.0164397
554.005	0.0163375
554.083	0.0162261
554.161	0.0161411
554.239	0.0162718
554.317	0.0162842
554.396	0.0163474
554.474	0.0163010
554.552	0.0161823
554.630	0.0162664
554.708	0.0164613
554.786	0.0161773
554.864	0.0163270
554.942	0.0163312
555.021	0.0162676
555.099	0.0162596
555.177	0.0161443
555.255	0.0162097
555.333	0.0161591
555.411	0.0162486
555.489	0.0163711
555.567	0.0163870
555.646	0.0163141
555.724	0.0163816
555.802	0.0161918
555.880	0.0162733
555.958	0.0163202
556.036	0.0161903
556.114	0.0163577
556.192	0.0163815
556.271	0.0161505
556.349	0.0162518
556.427	0.0162467
556.505	0.0162109
556.583	0.0161515
556.661	0.0163356
556.739	0.0163646
556.817	0.0162823
556.896	0.0161235
556.974	0.0161185
557.052	0.0164183
557.130	0.0161892
557.208	0.0161789
557.286	0.0161987
557.364	0.0161941
557.442	0.0162347
557.521	0.0162295
557.599	0.0161853
557.677	0.0162321
557.755	0.0162211
557.833	0.0164015
557.911	0.0162929
557.989	0.0162836
558.067	0.0162434
558.146	0.0162704
558.224	0.0162600
558.302	0.0163171
558.380	0.0163071
558.458	0.0160685
558.536	0.0163739
558.614	0.0162485
558.692	0.0164306
558.771	0.0163277
558.849	0.0163264
558.927	0.0163197
559.005	0.0163630
559.083	0.0162015
559.161	0.0162154
559.239	0.0162746
559.317	0.0164042
559.396	0.0163035
559.474	0.0163116
559.552	0.0162321
559.630	0.0163141
559.708	0.0164043
559.786	0.0164372
559.864	0.0162595
559.942	0.0162580
560.021	0.0163735
560.099	0.0163116
560.177	0.0163752
560.255	0.0163346
560.333	0.0164201
560.411	0.0163342
560.489	0.0162473
560.567	0.0162614
560.646	0.0163069
560.724	0.0162939
560.802	0.0161716
560.880	0.0163371
560.958	0.0163129
561.036	0.0163499
561.114	0.0161501
561.192	0.0162762
561.271	0.0161650
561.349	0.0162649
561.427	0.0163950
561.505	0.0163805
561.583	0.0161641
561.661	0.0163395
561.739	0.0162222
561.817	0.0162077
561.896	0.0163199
561.974	0.0161419
562.052	0.0162095
562.130	0.0162260
562.208	0.0163966
562.286	0.0163179
562.364	0.0162314
562.442	0.0162062
562.521	0.0162267
562.599	0.0163251
562.677	0.0163326
562.755	0.0162747
562.833	0.0162534
562.911	0.0162386
562.989	0.0162276
563.067	0.0161916
563.146	0.0162370
563.224	0.0162608
563.302	0.0163289
563.380	0.0163291
563.458	0.0163264
563.536	0.0162840
563.614	0.0163577
563.692	0.0162773
563.771	0.0161303
563.849	0.0162013
563.927	0.0162816
564.005	0.0163306
564.083	0.0162465
564.161	0.0163371
564.239	0.0162480
564.317	0.0162025
564.396	0.0164003
564.474	0.0162936
564.552	0.0163160
564.630	0.0162520
564.708	0.0163324
564.786	0.0162875
564.864	0.0163758
564.942	0.0164093
565.021	0.0163846
565.099	0.0162901
565.177	0.0163567
565.255	0.0162189
565.333	0.0161774
565.411	0.0162785
565.489	0.0163564
565.567	0.0164054
565.646	0.0162679
565.724	0.0162871
565.802	0.0162194
565.880	0.0161835
565.958	0.0162696
566.036	0.0162968
566.114	0.0162521
566.192	0.0162716
566.271	0.0162637
566.349	0.0163985
566.427	0.0163969
566.505	0.0163486
566.583	0.0162137
566.661	0.0161298
566.739	0.0163953
566.817	0.0162008
566.896	0.0161562
566.974	0.0163327
567.052	0.0162286
567.130	0.0161255
567.208	0.0163116
567.286	0.0162363
567.364	0.0163482
567.442	0.0163211
567.521	0.0164072
567.599	0.0162391
567.677	0.0163103
567.755	0.0162241
567.833	0.0163631
567.911	0.0163002
567.989	0.0163345
568.067	0.0163491
568.146	0.0164412
568.224	0.0162710
568.302	0.0162714
568.380	0.0162574
568.458	0.0162726
568.536	0.0161806
568.614	0.0162078
568.692	0.0163746
568.771	0.0162487
568.849	0.0164219
568.927	0.0163754
569.005	0.0163616
569.083	0.0162450
569.161	0.0163607
569.239	0.0163364
569.317	0.0163300
569.396	0.0162469
569.474	0.0162515
569.552	0.0162084
569.630	0.0162709
569.708	0.0161514
569.786	0.0163535
569.864	0.0162729
569.942	0.0163580
570.021	0.0162928
570.099	0.0162045
570.177	0.0162549
570.255	0.0161604
570.333	0.0163051
570.411	0.0162882
570.489	0.0162790
570.567	0.0163338
570.646	0.0164028
570.724	0.0162475
570.802	0.0162920
570.880	0.0163570
570.958	0.0164272
571.036	0.0162991
571.114	0.0164089
571.192	0.0163210
571.271	0.0161929
571.349	0.0163934
571.427	0.0162631
571.505	0.0161448
571.583	0.0162699
571.661	0.0162667
571.739	0.0163464
571.817	0.0161835
571.896	0.0164307
571.974	0.0162328
572.052	0.0162782
572.130	0.0163727
572.208	0.0164323
572.286	0.0162199
572.364	0.0164500
572.442	0.0164074
572.521	0.0163598
572.599	0.0163615
572.677	0.0163217
572.755	0.0162854
572.833	0.0163270
572.911	0.0162540
572.989	0.0164007
573.067	0.0162820
573.146	0.0162672
573.224	0.0163248
573.302	0.0162685
573.380	0.0162528
573.458	0.0163802
573.536	0.0163132
573.614	0.0162399
573.692	0.0162256
573.771	0.0161700
573.849	0.0162889
573.927	0.0162930
574.005	0.0162874
574.083	0.0163579
574.161	0.0161958
574.239	0.0162712
574.317	0.0164796
574.396	0.0163969
574.474	0.0161063
574.552	0.0161596
574.630	0.0163290
574.708	0.0161441
574.786	0.0162461
574.864	0.0162990
574.942	0.0162807
575.021	0.0163988
575.099	0.0163220
575.177	0.0163395
575.255	0.0163868
575.333	0.0163226
575.411	0.0161922
575.489	0.0163342
575.567	0.0164306
575.646	0.0164216
575.724	0.0161830
575.802	0.0161964
575.880	0.0163352
575.958	0.0163074
576.036	0.0162752
576.114	0.0163540
576.192	0.0162553
576.271	0.0162880
576.349	0.0162971
576.427	0.0163055
576.505	0.0163429
576.583	0.0162157
576.661	0.0162429
576.739	0.0162827
576.817	0.0162361
576.896	0.0162539
576.974	0.0162106
577.052	0.0163522
577.130	0.0163187
577.208	0.0163305
577.286	0.0163651
577.364	0.0163114
577.442	0.0164423
577.521	0.0162467
577.599	0.0163077
577.677	0.0163756
577.755	0.0163613
577.833	0.0162024
577.911	0.0161868
577.989	0.0163078
578.067	0.0162568
578.146	0.0161478
578.224	0.0162410
578.302	0.0162537
578.380	0.0162737
578.458	0.0163152
578.536	0.0163701
578.614	0.0164390
578.692	0.0162103
578.771	0.0163631
578.849	0.0162402
578.927	0.0162568
579.005	0.0163453
579.083	0.0162843
579.161	0.0162274
579.239	0.0163303
579.317	0.0163140
579.396	0.0162032
579.474	0.0162712
579.552	0.0163573
579.630	0.0160883
579.708	0.0162086
579.786	0.0162576
579.864	0.0161976
579.942	0.0162222
580.021	0.0162535
580.099	0.0161870
580.177	0.0161822
580.255	0.0162561
580.333	0.0162343
580.411	0.0162144
580.489	0.0162518
580.567	0.0161658
580.646	0.0161220
580.724	0.0161151
580.802	0.0162170
580.880	0.0162543
580.958	0.0163167
581.036	0.0162685
581.114	0.0163044
581.192	0.0162585
581.271	0.0163327
581.349	0.0163290
581.427	0.0161634
581.505	0.0162899
581.583	0.0161903
581.661	0.0162282
581.739	0.0161933
581.817	0.0162444
581.896	0.0161253
581.974	0.0162757
582.052	0.0163094
582.130	0.0161736
582.208	0.0161801
582.286	0.0162743
582.364	0.0162701
582.442	0.0162583
582.521	0.0162627
582.599	0.0162134
582.677	0.0162178
582.755	0.0161874
582.833	0.0162600
582.911	0.0163651
582.989	0.0162904
583.067	0.0162415
583.146	0.0162869
583.224	0.0162561
583.302	0.0163114
583.380	0.0163880
583.458	0.0161932
583.536	0.0162309
583.614	0.0162273
583.692	0.0162897
583.771	0.0162692
583.849	0.0163325
583.927	0.0162965
584.005	0.0163450
584.083	0.0163110
584.161	0.0161827
584.239	0.0162215
584.317	0.0162365
584.396	0.0163005
584.474	0.0163264
584.552	0.0163155
584.630	0.0163278
584.708	0.0161555
584.786	0.0162149
584.864	0.0162347
584.942	0.0161933
585.021	0.0161412
585.099	0.0162874
585.177	0.0163008
585.255	0.0163156
585.333	0.0161069
585.411	0.0162559
585.489	0.0162967
585.567	0.0163858
585.646	0.0162304
585.724	0.0162566
585.802	0.0162798
585.880	0.0162413
585.958	0.0162977
586.036	0.0161985
586.114	0.0162367
586.192	0.0162518
586.271	0.0162920
586.349	0.0161985
586.427	0.0162715
586.505	0.0164749
586.583	0.0163662
586.661	0.0163652
586.739	0.0162787
586.817	0.0163425
586.896	0.0164418
586.974	0.0164387
587.052	0.0163071
587.130	0.0163248
587.208	0.0162923
587.286	0.0162949
587.364	0.0164757
587.442	0.0163193
587.521	0.0163374
587.599	0.0160380
587.677	0.0163420
587.755	0.0164017
587.833	0.0161948
587.911	0.0161457
587.989	0.0163405
588.067	0.0163602
588.146	0.0160830
588.224	0.0160970
588.302	0.0162717
588.380	0.0163438
588.458	0.0162440
588.536	0.0162051
588.614	0.0161871
588.692	0.0163137
588.771	0.0162399
588.849	0.0161830
588.927	0.0163300
589.005	0.0162625
589.083	0.0162561
589.161	0.0162852
589.239	0.0162898
589.317	0.0162524
589.396	0.0163089
589.474	0.0161477
589.552	0.0162477
589.630	0.0160496
589.708	0.0163298
589.786	0.0161409
589.864	0.0162354
589.942	0.0164616
590.021	0.0161704
590.099	0.0163959
590.177	0.0163405
590.255	0.0162446
590.333	0.0161427
590.411	0.0161393
590.489	0.0164052
590.567	0.0163804
590.646	0.0163582
590.724	0.0163555
590.802	0.0161254
590.880	0.0162409
590.958	0.0162158
591.036	0.0163074
591.114	0.0161954
591.192	0.0163395
591.271	0.0161387
591.349	0.0161727
591.427	0.0163400
591.505	0.0162880
591.583	0.0163386
591.661	0.0162967
591.739	0.0162865
591.817	0.0162974
591.896	0.0161993
591.974	0.0161388
592.052	0.0163493
592.130	0.0162553
592.208	0.0162702
592.286	0.0161166
592.364	0.0163655
592.442	0.0162327
592.521	0.0161430
592.599	0.0162081
592.677	0.0162658
592.755	0.0163139
592.833	0.0161561
592.911	0.0163281
592.989	0.0163533
593.067	0.0162517
593.146	0.0161807
593.224	0.0162218
593.302	0.0162605
593.380	0.0162553
593.458	0.0164539
593.536	0.0162490
593.614	0.0163274
593.692	0.0164176
593.771	0.0162745
593.849	0.0162030
593.927	0.0162120
594.005	0.0162930
594.083	0.0162752
594.161	0.0162205
594.239	0.0162659
594.317	0.0161533
594.396	0.0162458
594.474	0.0162490
594.552	0.0163284
594.630	0.0163159
594.708	0.0163189
594.786	0.0163454
594.864	0.0162457
594.942	0.0162470
595.021	0.0162155
595.099	0.0163625
595.177	0.0163041
595.255	0.0162650
595.333	0.0162749
595.411	0.0162752
595.489	0.0163178
595.567	0.0161564
595.646	0.0161079
595.724	0.0162099
595.802	0.0163261
595.880	0.0163329
595.958	0.0162491
596.036	0.0162920
596.114	0.0163752
596.192	0.0162270
596.271	0.0163007
596.349	0.0161279
596.427	0.0162350
596.505	0.0163124
596.583	0.0162445
596.661	0.0163289
596.739	0.0161417
596.817	0.0161732
596.896	0.0162322
596.974	0.0163549
597.052	0.0163354
597.130	0.0163564
597.208	0.0160228
597.286	0.0161449
597.364	0.0163065
597.442	0.0162825
597.521	0.0162106
597.599	0.0162300
597.677	0.0162334
597.755	0.0161545
597.833	0.0162946
597.911	0.0163399
597.989	0.0163644
598.067	0.0162309
598.146	0.0161781
598.224	0.0162887
598.302	0.0163522
598.380	0.0163426
598.458	0.0162661
598.536	0.0162669
598.614	0.0162962
598.692	0.0162111
598.771	0.0162615
598.849	0.0162362
598.927	0.0162750
599.005	0.0163031
599.083	0.0163188
599.161	0.0163141
599.239	0.0162669
599.317	0.0162772
599.396	0.0162309
599.474	0.0161294
599.552	0.0162538
599.630	0.0162396
599.708	0.0161359
599.786	0.0162682
599.864	0.0163052
599.942	0.0162852
600.021	0.0162045
600.099	0.0163329
600.177	0.0163527
600.255	0.0163287
600.333	0.0162550
600.411	0.0163882
600.489	0.0161544
600.567	0.0162830
600.646	0.0161158
600.724	0.0163028
600.802	0.0163275
600.880	0.0163107
600.958	0.0163308
601.036	0.0162926
601.114	0.0162701
601.192	0.0163113
601.271	0.0163574
601.349	0.0163272
601.427	0.0162933
601.505	0.0162526
601.583	0.0162833
601.661	0.0161987
601.739	0.0162453
601.817	0.0163977
601.896	0.0163507
601.974	0.0162392
602.052	0.0161840
602.130	0.0161951
602.208	0.0162842
602.286	0.0162471
602.364	0.0162154
602.442	0.0163175
602.521	0.0162067
602.599	0.0162848
602.677	0.0163028
602.755	0.0162914
602.833	0.0161863
602.911	0.0162173
602.989	0.0163438
603.067	0.0162259
603.146	0.0161173
603.224	0.0162546
603.302	0.0162623
603.380	0.0161794
603.458	0.0162037
603.536	0.0163592
603.614	0.0163833
603.692	0.0164416
603.771	0.0163819
603.849	0.0162224
603.927	0.0161999
604.005	0.0161906
604.083	0.0163523
604.161	0.0163168
604.239	0.0163239
604.317	0.0163187
604.396	0.0162420
604.474	0.0162566
604.552	0.0164333
604.630	0.0162939
604.708	0.0162655
604.786	0.0163127
604.864	0.0162518
604.942	0.0162757
605.021	0.0161445
605.099	0.0162079
605.177	0.0162302
605.255	0.0161920
605.333	0.0161766
605.411	0.0161240
605.489	0.0162309
605.567	0.0163223
605.646	0.0162946
605.724	0.0162473
605.802	0.0161950
605.880	0.0162376
605.958	0.0162490
606.036	0.0162301
606.114	0.0163201
606.192	0.0162615
606.271	0.0162914
606.349	0.0162820
606.427	0.0162431
606.505	0.0162795
606.583	0.0162316
606.661	0.0164090
606.739	0.0162663
606.817	0.0162825
606.896	0.0161763
606.974	0.0161295
607.052	0.0162140
607.130	0.0163811
607.208	0.0163203
607.286	0.0162696
607.364	0.0161694
607.442	0.0163031
607.521	0.0162678
607.599	0.0163159
607.677	0.0161915
607.755	0.0163068
607.833	0.0163346
607.911	0.0161698
607.989	0.0162714
608.067	0.0161373
608.146	0.0162263
608.224	0.0162247
608.302	0.0162629
608.380	0.0162625
608.458	0.0163872
608.536	0.0162756
608.614	0.0161829
608.692	0.0162268
608.771	0.0162758
608.849	0.0162295
608.927	0.0163427
609.005	0.0163207
609.083	0.0163437
609.161	0.0161979
609.239	0.0162171
609.317	0.0162157
609.396	0.0162858
609.474	0.0162730
609.552	0.0162587
609.630	0.0161942
609.708	0.0162904
609.786	0.0162080
609.864	0.0163175
609.942	0.0163303
610.021	0.0162425
610.099	0.0162060
610.177	0.0162444
610.255	0.0161062
610.333	0.0162775
610.411	0.0162001
610.489	0.0162277
610.567	0.0162621
610.646	0.0163825
610.724	0.0162424
610.802	0.0162152
610.880	0.0161814
610.958	0.0163145
611.036	0.0163212
611.114	0.0161299
611.192	0.0162206
611.271	0.0161172
611.349	0.0162660
611.427	0.0163461
611.505	0.0162242
611.583	0.0162301
611.661	0.0161455
611.739	0.0162415
611.817	0.0163774
611.896	0.0162934
611.974	0.0162465
612.052	0.0162447
612.130	0.0164124
612.208	0.0162714
612.286	0.0162782
612.364	0.0162319
612.442	0.0162189
612.521	0.0162891
612.599	0.0162821
612.677	0.0162970
612.755	0.0161733
612.833	0.0161465
612.911	0.0162617
612.989	0.0162072
613.067	0.0162854
613.146	0.0162827
613.224	0.0161948
613.302	0.0163004
613.380	0.0163139
613.458	0.0164004
613.536	0.0163326
613.614	0.0162815
613.692	0.0162778
613.771	0.0163707
613.849	0.0162033
613.927	0.0163130
614.005	0.0162862
614.083	0.0162144
614.161	0.0162423
614.239	0.0162790
614.317	0.0162581
614.396	0.0163508
614.474	0.0162864
614.552	0.0162608
614.630	0.0162710
614.708	0.0161609
614.786	0.0162270
614.864	0.0162842
614.942	0.0162179
615.021	0.0162503
615.099	0.0162197
615.177	0.0163551
615.255	0.0162340
615.333	0.0162764
615.411	0.0163434
615.489	0.0161992
615.567	0.0162769
615.646	0.0162504
615.724	0.0163015
615.802	0.0163818
615.880	0.0161600
615.958	0.0162129
616.036	0.0162170
616.114	0.0162248
616.192	0.0161828
616.271	0.0162885
616.349	0.0162673
616.427	0.0161514
616.505	0.0161935
616.583	0.0164406
616.661	0.0161685
616.739	0.0163180
616.817	0.0161890
616.896	0.0162397
616.974	0.0163612
617.052	0.0162470
617.130	0.0162710
617.208	0.0162943
617.286	0.0162035
617.364	0.0163404
617.442	0.0163461
617.521	0.0162339
617.599	0.0162113
617.677	0.0162255
617.755	0.0163318
617.833	0.0163477
617.911	0.0161866
617.989	0.0162592
618.067	0.0163458
618.146	0.0162576
618.224	0.0162752
618.302	0.0161169
618.380	0.0163828
618.458	0.0162108
618.536	0.0162281
618.614	0.0163047
618.692	0.0162472
618.771	0.0162100
618.849	0.0163545
618.927	0.0163167
619.005	0.0162897
619.083	0.0163086
619.161	0.0164066
619.239	0.0164217
619.317	0.0163074
619.396	0.0161353
619.474	0.0162537
619.552	0.0162564
619.630	0.0162452
619.708	0.0163310
619.786	0.0162887
619.864	0.0162753
619.942	0.0163478
620.021	0.0162991
620.099	0.0161670
620.177	0.0162225
620.255	0.0162822
620.333	0.0163782
620.411	0.0162566
620.489	0.0161905
620.567	0.0162991
620.646	0.0162675
620.724	0.0162876
620.802	0.0161576
620.880	0.0161681
620.958	0.0163037
621.036	0.0163998
621.114	0.0162650
621.192	0.0161237
621.271	0.0162503
621.349	0.0163313
621.427	0.0162061
621.505	0.0162218
621.583	0.0162711
621.661	0.0162859
621.739	0.0162510
621.817	0.0162672
621.896	0.0162209
621.974	0.0164462
622.052	0.0163023
622.130	0.0162109
622.208	0.0162538
622.286	0.0162933
622.364	0.0162427
622.442	0.0161919
622.521	0.0161364
622.599	0.0163844
622.677	0.0162290
622.755	0.0161364
622.833	0.0162839
622.911	0.0162085
622.989	0.0163049
623.067	0.0162310
623.146	0.0162894
623.224	0.0163870
623.302	0.0162057
623.380	0.0162325
623.458	0.0162373
623.536	0.0162854
623.614	0.0162387
623.692	0.0163424
623.771	0.0161478
623.849	0.0161916
623.927	0.0161518
624.005	0.0163911
624.083	0.0161549
624.161	0.0162771
624.239	0.0163194
624.317	0.0162572
624.396	0.0162466
624.474	0.0163128
624.552	0.0161913
624.630	0.0163729
624.708	0.0162923
624.786	0.0163129
624.864	0.0163120
624.942	0.0162798
625.021	0.0162505
625.099	0.0163148
625.177	0.0164081
625.255	0.0161913
625.333	0.0162402
625.411	0.0162874
625.489	0.0163323
625.567	0.0163497
625.646	0.0162636
625.724	0.0163351
625.802	0.0163507
625.880	0.0163776
625.958	0.0162807
626.036	0.0164474
626.114	0.0161945
626.192	0.0163615
626.271	0.0161861
626.349	0.0162051
626.427	0.0162710
626.505	0.0162748
626.583	0.0162157
626.661	0.0162986
626.739	0.0163629
626.817	0.0163329
626.896	0.0163415
626.974	0.0162794
627.052	0.0163102
627.130	0.0163410
627.208	0.0161774
627.286	0.0163226
627.364	0.0164088
627.442	0.0162449
627.521	0.0162914
627.599	0.0163327
627.677	0.0163173
627.755	0.0162961
627.833	0.0163815
627.911	0.0162630
627.989	0.0161200
628.067	0.0163741
628.146	0.0162960
628.224	0.0162589
628.302	0.0163206
628.380	0.0163219
628.458	0.0162514
628.536	0.0162965
628.614	0.0161850
628.692	0.0163439
628.771	0.0162885
628.849	0.0163004
628.927	0.0162322
629.005	0.0162590
629.083	0.0163457
629.161	0.0163046
629.239	0.0161398
629.317	0.0161525
629.396	0.0161571
629.474	0.0163634
629.552	0.0162295
629.630	0.0163702
629.708	0.0163609
629.786	0.0163041
629.864	0.0162382
629.942	0.0162656
630.021	0.0163679
630.099	0.0163857
630.177	0.0162354
630.255	0.0162761
630.333	0.0162209
630.411	0.0161905
630.489	0.0162707
630.567	0.0162235
630.646	0.0162503
630.724	0.0162490
630.802	0.0162910
630.880	0.0162115
630.958	0.0161897
631.036	0.0162880
631.114	0.0163450
631.192	0.0162509
631.271	0.0163048
631.349	0.0162460
631.427	0.0163329
631.505	0.0162760
631.583	0.0163204
631.661	0.0163353
631.739	0.0162460
631.817	0.0161840
631.896	0.0162611
631.974	0.0163049
632.052	0.0162792
632.130	0.0162656
632.208	0.0160921
632.286	0.0162151
632.364	0.0162556
632.442	0.0162888
632.521	0.0161980
632.599	0.0162646
632.677	0.0161556
632.755	0.0162589
632.833	0.0163251
632.911	0.0162993
632.989	0.0162733
633.067	0.0162630
633.146	0.0162202
633.224	0.0162036
633.302	0.0162494
633.380	0.0162293
633.458	0.0163146
633.536	0.0163765
633.614	0.0163623
633.692	0.0163361
633.771	0.0163255
633.849	0.0162747
633.927	0.0162601
634.005	0.0161344
634.083	0.0161185
634.161	0.0161922
634.239	0.0162422
634.317	0.0163815
634.396	0.0162351
634.474	0.0163249
634.552	0.0163869
634.630	0.0163510
634.708	0.0163187
634.786	0.0162752
634.864	0.0161852
634.942	0.0162391
635.021	0.0163889
635.099	0.0163485
635.177	0.0162283
635.255	0.0161823
635.333	0.0163699
635.411	0.0162109
635.489	0.0161824
635.567	0.0162517
635.646	0.0163659
635.724	0.0161748
635.802	0.0162542
635.880	0.0161928
635.958	0.0162881
636.036	0.0162375
636.114	0.0162857
636.192	0.0163625
636.271	0.0162775
636.349	0.0161955
636.427	0.0163614
636.505	0.0163028
636.583	0.0163792
636.661	0.0161615
636.739	0.0161953
636.817	0.0162240
636.896	0.0161040
636.974	0.0161884
637.052	0.0161668
637.130	0.0161723
637.208	0.0162677
637.286	0.0162911
637.364	0.0163374
637.442	0.0162904
637.521	0.0162215
637.599	0.0162271
637.677	0.0163529
637.755	0.0161922
637.833	0.0162589
637.911	0.0162280
637.989	0.0163457
638.067	0.0162543
638.146	0.0162482
638.224	0.0162918
638.302	0.0162352
638.380	0.0162565
638.458	0.0163300
638.536	0.0162110
638.614	0.0162730
638.692	0.0162938
638.771	0.0161463
638.849	0.0162457
638.927	0.0162537
639.005	0.0162193
639.083	0.0161784
639.161	0.0164406
639.239	0.0162490
639.317	0.0161606
639.396	0.0162784
639.474	0.0163080
639.552	0.0163144
639.630	0.0162209
639.708	0.0162115
639.786	0.0161572
639.864	0.0162889
639.942	0.0163387
640.021	0.0163068
640.099	0.0161999
640.177	0.0164143
640.255	0.0163374
640.333	0.0163530
640.411	0.0163120
640.489	0.0161409
640.567	0.0162328
640.646	0.0162479
640.724	0.0162535
640.802	0.0162369
640.880	0.0164046
640.958	0.0161661
641.036	0.0162553
641.114	0.0161259
641.192	0.0162125
641.271	0.0164014
641.349	0.0163087
641.427	0.0162937
641.505	0.0161886
641.583	0.0163267
641.661	0.0163323
641.739	0.0163277
641.817	0.0163673
641.896	0.0162887
641.974	0.0162807
642.052	0.0161525
642.130	0.0162260
642.208	0.0163266
642.286	0.0163255
642.364	0.0161755
642.442	0.0161942
642.521	0.0163571
642.599	0.0162984
642.677	0.0162856
642.755	0.0163717
642.833	0.0163170
642.911	0.0162929
642.989	0.0162122
643.067	0.0164074
643.146	0.0161820
643.224	0.0161667
643.302	0.0161857
643.380	0.0161749
643.458	0.0161774
643.536	0.0163351
643.614	0.0162804
643.692	0.0163199
643.771	0.0161984
643.849	0.0161947
643.927	0.0161963
644.005	0.0161008
644.083	0.0161209
644.161	0.0162811
644.239	0.0163220
644.317	0.0162875
644.396	0.0162277
644.474	0.0163791
644.552	0.0162991
644.630	0.0162849
644.708	0.0162937
644.786	0.0162667
644.864	0.0161877
644.942	0.0162185
645.021	0.0163418
645.099	0.0162475
645.177	0.0162751
645.255	0.0162236
645.333	0.0162779
645.411	0.0161399
645.489	0.0162450
645.567	0.0163513
645.646	0.0162929
645.724	0.0163158
645.802	0.0163460
645.880	0.0162675
645.958	0.0161433
646.036	0.0162802
646.114	0.0162688
646.192	0.0163480
646.271	0.0163628
646.349	0.0162646
646.427	0.0162525
646.505	0.0162903
646.583	0.0162791
646.661	0.0163591
646.739	0.0162386
646.817	0.0162304
646.896	0.0162748
646.974	0.0163979
647.052	0.0163306
647.130	0.0162397
647.208	0.0163112
647.286	0.0162555
647.364	0.0162701
647.442	0.0162829
647.521	0.0163482
647.599	0.0163252
647.677	0.0163055
647.755	0.0162680
647.833	0.0164194
647.911	0.0162144
647.989	0.0161467
648.067	0.0161147
648.146	0.0162559
648.224	0.0162708
648.302	0.0161569
648.380	0.0162811
648.458	0.0161932
648.536	0.0163024
648.614	0.0162843
648.692	0.0162814
648.771	0.0162229
648.849	0.0162454
648.927	0.0160540
649.005	0.0161634
649.083	0.0162130
649.161	0.0162037
649.239	0.0161953
649.317	0.0164234
649.396	0.0163818
649.474	0.0162823
649.552	0.0162000
649.630	0.0162562
649.708	0.0162292
649.786	0.0163127
649.864	0.0162721
649.942	0.0161937
650.021	0.0162221
650.099	0.0162035
650.177	0.0162930
650.255	0.0162675
650.333	0.0161549
650.411	0.0164999
650.489	0.0163263
650.567	0.0162232
650.646	0.0163093
650.724	0.0164648
650.802	0.0162484
650.880	0.0163512
650.958	0.0164306
651.036	0.0161568
651.114	0.0161433
651.192	0.0163294
651.271	0.0162928
651.349	0.0162735
651.427	0.0163074
651.505	0.0162376
651.583	0.0163136
651.661	0.0162756
651.739	0.0162701
651.817	0.0163383
651.896	0.0161670
651.974	0.0162711
652.052	0.0163229
652.130	0.0162508
652.208	0.0160752
652.286	0.0161774
652.364	0.0162540
652.442	0.0161722
652.521	0.0162603
652.599	0.0162514
652.677	0.0163052
652.755	0.0162050
652.833	0.0162432
652.911	0.0162052
652.989	0.0162456
653.067	0.0163369
653.146	0.0163152
653.224	0.0163150
653.302	0.0162938
653.380	0.0163023
653.458	0.0162772
653.536	0.0161969
653.614	0.0161617
653.692	0.0163986
653.771	0.0163022
653.849	0.0162783
653.927	0.0162122
654.005	0.0162653
654.083	0.0162136
654.161	0.0162894
654.239	0.0163084
654.317	0.0162868
654.396	0.0162939
654.474	0.0161885
654.552	0.0162781
654.630	0.0161896
654.708	0.0162153
654.786	0.0161918
654.864	0.0162456
654.942	0.0161890
655.021	0.0162729
655.099	0.0162540
655.177	0.0161650
655.255	0.0162324
655.333	0.0162575
655.411	0.0163844
655.489	0.0163416
655.567	0.0162035
655.646	0.0161999
655.724	0.0162187
655.802	0.0162681
655.880	0.0162595
655.958	0.0163385
656.036	0.0162560
656.114	0.0161651
656.192	0.0161954
656.271	0.0163427
656.349	0.0163602
656.427	0.0163499
656.505	0.0163025
656.583	0.0160553
656.661	0.0162416
656.739	0.0162476
656.817	0.0163677
656.896	0.0161796
656.974	0.0163443
657.052	0.0162430
657.130	0.0163665
657.208	0.0162767
657.286	0.0162003
657.364	0.0161894
657.442	0.0162053
657.521	0.0161858
657.599	0.0161071
657.677	0.0163114
657.755	0.0162281
657.833	0.0162341
657.911	0.0162563
657.989	0.0162354
658.067	0.0161246
658.146	0.0162547
658.224	0.0162671
658.302	0.0162177
658.380	0.0162377
658.458	0.0163698
658.536	0.0163245
658.614	0.0161655
658.692	0.0162051
658.771	0.0162354
658.849	0.0161846
658.927	0.0162606
659.005	0.0162980
659.083	0.0160692
659.161	0.0162847
659.239	0.0163619
659.317	0.0162330
659.396	0.0162074
659.474	0.0162802
659.552	0.0162530
659.630	0.0162643
659.708	0.0162566
659.786	0.0163452
659.864	0.0163075
659.942	0.0161837
660.021	0.0162884
660.099	0.0163118
660.177	0.0162085
660.255	0.0161333
660.333	0.0161559
660.411	0.0162889
660.489	0.0162450
660.567	0.0162526
660.646	0.0162104
660.724	0.0161526
660.802	0.0162376
660.880	0.0161409
660.958	0.0162118
661.036	0.0162063
661.114	0.0162538
661.192	0.0162164
661.271	0.0163114
661.349	0.0164581
661.427	0.0163495
661.505	0.0162366
661.583	0.0161140
661.661	0.0161000
661.739	0.0163400
661.817	0.0163332
661.896	0.0161761
661.974	0.0162790
662.052	0.0161920
662.130	0.0162621
662.208	0.0162734
662.286	0.0163404
662.364	0.0164436
662.442	0.0163694
662.521	0.0162088
662.599	0.0162693
662.677	0.0161382
662.755	0.0162121
662.833	0.0163526
662.911	0.0163646
662.989	0.0161293
663.067	0.0161788
663.146	0.0162428
663.224	0.0162892
663.302	0.0161489
663.380	0.0163229
663.458	0.0162707
663.536	0.0162284
663.614	0.0163251
663.692	0.0163120
663.771	0.0161854
663.849	0.0162189
663.927	0.0163091
664.005	0.0162611
664.083	0.0161700
664.161	0.0163388
664.239	0.0162560
664.317	0.0162038
664.396	0.0162586
664.474	0.0163685
664.552	0.0162798
664.630	0.0162120
664.708	0.0163432
664.786	0.0162145
664.864	0.0163863
664.942	0.0163987
665.021	0.0163288
665.099	0.0163105
665.177	0.0163269
665.255	0.0161999
665.333	0.0162639
665.411	0.0163678
665.489	0.0164025
665.567	0.0163389
665.646	0.0162105
665.724	0.0163274
665.802	0.0162814
665.880	0.0163232
665.958	0.0163426
666.036	0.0162896
666.114	0.0163110
666.192	0.0164330
666.271	0.0163040
666.349	0.0162210
666.427	0.0161216
666.505	0.0161900
666.583	0.0162125
666.661	0.0162108
666.739	0.0162830
666.817	0.0163492
666.896	0.0163128
666.974	0.0164047
667.052	0.0162746
667.130	0.0161840
667.208	0.0162415
667.286	0.0162648
667.364	0.0161708
667.442	0.0162450
667.521	0.0163554
667.599	0.0162376
667.677	0.0162704
667.755	0.0163357
667.833	0.0161990
667.911	0.0162759
667.989	0.0162521
668.067	0.0162278
668.146	0.0162282
668.224	0.0163040
668.302	0.0162410
668.380	0.0163132
668.458	0.0162442
668.536	0.0161633
668.614	0.0163300
668.692	0.0162344
668.771	0.0163213
668.849	0.0162903
668.927	0.0162684
669.005	0.0162991
669.083	0.0162312
669.161	0.0163183
669.239	0.0163590
669.317	0.0163403
669.396	0.0162100
669.474	0.0163240
669.552	0.0163588
669.630	0.0162175
669.708	0.0163784
669.786	0.0162310
669.864	0.0161882
669.942	0.0163166
670.021	0.0163978
670.099	0.0163243
670.177	0.0163871
670.255	0.0162373
670.333	0.0163597
670.411	0.0162865
670.489	0.0162720
670.567	0.0161447
670.646	0.0163831
670.724	0.0163437
670.802	0.0162530
670.880	0.0161992
670.958	0.0163009
671.036	0.0163405
671.114	0.0163071
671.192	0.0162737
671.271	0.0163716
671.349	0.0164452
671.427	0.0163306
671.505	0.0161512
671.583	0.0161510
671.661	0.0163096
671.739	0.0161906
671.817	0.0162463
671.896	0.0162749
671.974	0.0161436
672.052	0.0162328
672.130	0.0162820
672.208	0.0162181
672.286	0.0163370
672.364	0.0163731
672.442	0.0161465
672.521	0.0162687
672.599	0.0161225
672.677	0.0162512
672.755	0.0162096
672.833	0.0163698
672.911	0.0162223
672.989	0.0161589
673.067	0.0159981
673.146	0.0161781
673.224	0.0161914
673.302	0.0163087
673.380	0.0162274
673.458	0.0162279
673.536	0.0162217
673.614	0.0162347
673.692	0.0163222
673.771	0.0162854
673.849	0.0162061
673.927	0.0162350
674.005	0.0163139
674.083	0.0162135
674.161	0.0164310
674.239	0.0162366
674.317	0.0162246
674.396	0.0161373
674.474	0.0161878
674.552	0.0163575
674.630	0.0163331
674.708	0.0162499
674.786	0.0162203
674.864	0.0163303
674.942	0.0163411
675.021	0.0162639
675.099	0.0162460
675.177	0.0162634
675.255	0.0163267
675.333	0.0163122
675.411	0.0162438
675.489	0.0163205
675.567	0.0162484
675.646	0.0161971
675.724	0.0162063
675.802	0.0161323
675.880	0.0162080
675.958	0.0161559
676.036	0.0163150
676.114	0.0162492
676.192	0.0161153
676.271	0.0161670
676.349	0.0162166
676.427	0.0162811
676.505	0.0162448
676.583	0.0162492
676.661	0.0162149
676.739	0.0162051
676.817	0.0162291
676.896	0.0162769
676.974	0.0162863
677.052	0.0163627
677.130	0.0163432
677.208	0.0162059
677.286	0.0162214
677.364	0.0161900
677.442	0.0163943
677.521	0.0162994
677.599	0.0163106
677.677	0.0164236
677.755	0.0163458
677.833	0.0161641
677.911	0.0162679
677.989	0.0162288
678.067	0.0162833
678.146	0.0162476
678.224	0.0163205
678.302	0.0162698
678.380	0.0162563
678.458	0.0161504
678.536	0.0162315
678.614	0.0163429
678.692	0.0163099
678.771	0.0161449
678.849	0.0162448
678.927	0.0162226
679.005	0.0161938
679.083	0.0161809
679.161	0.0161497
679.239	0.0163068
679.317	0.0163263
679.396	0.0162621
679.474	0.0163074
679.552	0.0163350
679.630	0.0162426
679.708	0.0162714
679.786	0.0161884
679.864	0.0161517
679.942	0.0161919
680.021	0.0164916
680.099	0.0162756
680.177	0.0162334
680.255	0.0163561
680.333	0.0163956
680.411	0.0163116
680.489	0.0162325
680.567	0.0162418
680.646	0.0163010
680.724	0.0161721
680.802	0.0163383
680.880	0.0161518
680.958	0.0163938
681.036	0.0163599
681.114	0.0162760
681.192	0.0162523
681.271	0.0163486
681.349	0.0162396
681.427	0.0163136
681.505	0.0163255
681.583	0.0162440
681.661	0.0161914
681.739	0.0161387
681.817	0.0162531
681.896	0.0161221
681.974	0.0161372
682.052	0.0161443
682.130	0.0162440
682.208	0.0160629
682.286	0.0161526
682.364	0.0162804
682.442	0.0163662
682.521	0.0162337
682.599	0.0161707
682.677	0.0163020
682.755	0.0161866
682.833	0.0163148
682.911	0.0163223
682.989	0.0161881
683.067	0.0163378
683.146	0.0163055
683.224	0.0162868
683.302	0.0161929
683.380	0.0161945
683.458	0.0163565
683.536	0.0162174
683.614	0.0162122
683.692	0.0163880
683.771	0.0163879
683.849	0.0162206
683.927	0.0163142
684.005	0.0162455
684.083	0.0160882
684.161	0.0161739
684.239	0.0161833
684.317	0.0162403
684.396	0.0161645
684.474	0.0161866
684.552	0.0162185
684.630	0.0162949
684.708	0.0163825
684.786	0.0162987
684.864	0.0162229
684.942	0.0162681
685.021	0.0161687
685.099	0.0162582
685.177	0.0163092
685.255	0.0162259
685.333	0.0161533
685.411	0.0162294
685.489	0.0162405
685.567	0.0162918
685.646	0.0161024
685.724	0.0163651
685.802	0.0162801
685.880	0.0161665
685.958	0.0162033
686.036	0.0162665
686.114	0.0161981
686.192	0.0163467
686.271	0.0162959
686.349	0.0161323
686.427	0.0162965
686.505	0.0161676
686.583	0.0163443
686.661	0.0162508
686.739	0.0161809
686.817	0.0162119
686.896	0.0163052
686.974	0.0161683
687.052	0.0162230
687.130	0.0162660
687.208	0.0163609
687.286	0.0162432
687.364	0.0162970
687.442	0.0162454
687.521	0.0162641
687.599	0.0162778
687.677	0.0161908
687.755	0.0163423
687.833	0.0162753
687.911	0.0161672
687.989	0.0161925
688.067	0.0161045
688.146	0.0160579
688.224	0.0161588
688.302	0.0163076
688.380	0.0163772
688.458	0.0161028
688.536	0.0162987
688.614	0.0162773
688.692	0.0162288
688.771	0.0161768
688.849	0.0162598
688.927	0.0162840
689.005	0.0162321
689.083	0.0161941
689.161	0.0162206
689.239	0.0161562
689.317	0.0161653
689.396	0.0163406
689.474	0.0162396
689.552	0.0163814
689.630	0.0163493
689.708	0.0161858
689.786	0.0162518
689.864	0.0164240
689.942	0.0163354
690.021	0.0162304
690.099	0.0162837
690.177	0.0162730
690.255	0.0163402
690.333	0.0163807
690.411	0.0162864
690.489	0.0163206
690.567	0.0162057
690.646	0.0160928
690.724	0.0163667
690.802	0.0162649
690.880	0.0163625
690.958	0.0163190
691.036	0.0162122
691.114	0.0162206
691.192	0.0161471
691.271	0.0164155
691.349	0.0162912
691.427	0.0162466
691.505	0.0162077
691.583	0.0161980
691.661	0.0163094
691.739	0.0164115
691.817	0.0161356
691.896	0.0163036
691.974	0.0162602
692.052	0.0161654
692.130	0.0163677
692.208	0.0162507
692.286	0.0162193
692.364	0.0162889
692.442	0.0163369
692.521	0.0162917
692.599	0.0164080
692.677	0.0162843
692.755	0.0162219
692.833	0.0162682
692.911	0.0164340
692.989	0.0162898
693.067	0.0162567
693.146	0.0163540
693.224	0.0162910
693.302	0.0162686
693.380	0.0163179
693.458	0.0162904
693.536	0.0163464
693.614	0.0163722
693.692	0.0164274
693.771	0.0161774
693.849	0.0161233
693.927	0.0162743
694.005	0.0161690
694.083	0.0161800
694.161	0.0163924
694.239	0.0163298
694.317	0.0162010
694.396	0.0161825
694.474	0.0163632
694.552	0.0162299
694.630	0.0163050
694.708	0.0163221
694.786	0.0163577
694.864	0.0162910
694.942	0.0164030
695.021	0.0161796
695.099	0.0163063
695.177	0.0163446
695.255	0.0161849
695.333	0.0164009
695.411	0.0163760
695.489	0.0162693
695.567	0.0163482
695.646	0.0162695
695.724	0.0162244
695.802	0.0161549
695.880	0.0162962
695.958	0.0162417
696.036	0.0163292
696.114	0.0163421
696.192	0.0162892
696.271	0.0162860
696.349	0.0162740
696.427	0.0162189
696.505	0.0162629
696.583	0.0162382
696.661	0.0161368
696.739	0.0162190
696.817	0.0161684
696.896	0.0162997
696.974	0.0162524
697.052	0.0163220
697.130	0.0163959
697.208	0.0163317
697.286	0.0162791
697.364	0.0163870
697.442	0.0162748
697.521	0.0161533
697.599	0.0161490
697.677	0.0163213
697.755	0.0162529
697.833	0.0162701
697.911	0.0163397
697.989	0.0162854
698.067	0.0163062
698.146	0.0162254
698.224	0.0161573
698.302	0.0161689
698.380	0.0163522
698.458	0.0162328
698.536	0.0163724
698.614	0.0162695
698.692	0.0162384
698.771	0.0162679
698.849	0.0163198
698.927	0.0162798
699.005	0.0162875
699.083	0.0163534
699.161	0.0162756
699.239	0.0162335
699.317	0.0163314
699.396	0.0163847
699.474	0.0162695
699.552	0.0162739
699.630	0.0162396
699.708	0.0163104
699.786	0.0163155
699.864	0.0162412
699.942	0.0162911
700.021	0.0162393
700.099	0.0162531
700.177	0.0163927
700.255	0.0162800
700.333	0.0162652
700.411	0.0163677
700.489	0.0162550
700.567	0.0161650
700.646	0.0163412
700.724	0.0163378
700.802	0.0161974
700.880	0.0164617
700.958	0.0163136
701.036	0.0163803
701.114	0.0163167
701.192	0.0163358
701.271	0.0163171
701.349	0.0162792
701.427	0.0162782
701.505	0.0163456
701.583	0.0162713
701.661	0.0163728
701.739	0.0162483
701.817	0.0163258
701.896	0.0162292
701.974	0.0161871
702.052	0.0162321
702.130	0.0162943
702.208	0.0162977
702.286	0.0163232
702.364	0.0162583
702.442	0.0164304
702.521	0.0162470
702.599	0.0162637
702.677	0.0163143
702.755	0.0163043
702.833	0.0162054
702.911	0.0163151
702.989	0.0162813
703.067	0.0162421
703.146	0.0162393
703.224	0.0161850
703.302	0.0163070
703.380	0.0162369
703.458	0.0164533
703.536	0.0163309
703.614	0.0163647
703.692	0.0164109
703.771	0.0163559
703.849	0.0162784
703.927	0.0164518
704.005	0.0162313
704.083	0.0163606
704.161	0.0162451
704.239	0.0161696
704.317	0.0164114
704.396	0.0163376
704.474	0.0161720
704.552	0.0162304
704.630	0.0162557
704.708	0.0163240
704.786	0.0162582
704.864	0.0161506
704.942	0.0162447
705.021	0.0161935
705.099	0.0163316
705.177	0.0163954
705.255	0.0163008
705.333	0.0163701
705.411	0.0163054
705.489	0.0162264
705.567	0.0162022
705.646	0.0163669
705.724	0.0163634
705.802	0.0161654
705.880	0.0162978
705.958	0.0163716
706.036	0.0161977
706.114	0.0162311
706.192	0.0163066
706.271	0.0162656
706.349	0.0162675
706.427	0.0162078
706.505	0.0161432
706.583	0.0163267
706.661	0.0162765
706.739	0.0162280
706.817	0.0163027
706.896	0.0162619
706.974	0.0162070
707.052	0.0162499
707.130	0.0162373
707.208	0.0162110
707.286	0.0163444
707.364	0.0162090
707.442	0.0162521
707.521	0.0162280
707.599	0.0163168
707.677	0.0162155
707.755	0.0162559
707.833	0.0162148
707.911	0.0161787
707.989	0.0162325
708.067	0.0162469
708.146	0.0161916
708.224	0.0161076
708.302	0.0162572
708.380	0.0161880
708.458	0.0162225
708.536	0.0163675
708.614	0.0163009
708.692	0.0162579
708.771	0.0162063
708.849	0.0161465
708.927	0.0161528
709.005	0.0161752
709.083	0.0162347
709.161	0.0163266
709.239	0.0161968
709.317	0.0162962
709.396	0.0163714
709.474	0.0162573
709.552	0.0162078
709.630	0.0163320
709.708	0.0162663
709.786	0.0163344
709.864	0.0162738
709.942	0.0163660
710.021	0.0163831
710.099	0.0161952
710.177	0.0161619
710.255	0.0162410
710.333	0.0163602
710.411	0.0163312
710.489	0.0163019
710.567	0.0162069
710.646	0.0162508
710.724	0.0163390
710.802	0.0161912
710.880	0.0162991
710.958	0.0162782
711.036	0.0162840
711.114	0.0162752
711.192	0.0163791
711.271	0.0162317
711.349	0.0163384
711.427	0.0162994
711.505	0.0161863
711.583	0.0162274
711.661	0.0163132
711.739	0.0161952
711.817	0.0162221
711.896	0.0161221
711.974	0.0163663
712.052	0.0163309
712.130	0.0161892
712.208	0.0162652
712.286	0.0161835
712.364	0.0163151
712.442	0.0163421
712.521	0.0162075
712.599	0.0163907
712.677	0.0163011
712.755	0.0162383
712.833	0.0162197
712.911	0.0163454
712.989	0.0163257
713.067	0.0162379
713.146	0.0164523
713.224	0.0162241
713.302	0.0162339
713.380	0.0162668
713.458	0.0162860
713.536	0.0162367
713.614	0.0163882
713.692	0.0161711
713.771	0.0162157
713.849	0.0162241
713.927	0.0163401
714.005	0.0163933
714.083	0.0163991
714.161	0.0162556
714.239	0.0162936
714.317	0.0164418
714.396	0.0164219
714.474	0.0162448
714.552	0.0162918
714.630	0.0164055
714.708	0.0162171
714.786	0.0163145
714.864	0.0164252
714.942	0.0163094
715.021	0.0162627
715.099	0.0162664
715.177	0.0162823
715.255	0.0162979
715.333	0.0164037
715.411	0.0161808
715.489	0.0163239
715.567	0.0164139
715.646	0.0164223
715.724	0.0164474
715.802	0.0163453
715.880	0.0163213
715.958	0.0163947
716.036	0.0162423
716.114	0.0163032
716.192	0.0163692
716.271	0.0164616
716.349	0.0163136
716.427	0.0163000
716.505	0.0164190
716.583	0.0163487
716.661	0.0162775
716.739	0.0162568
716.817	0.0162070
716.896	0.0163479
716.974	0.0162970
717.052	0.0161911
717.130	0.0163144
717.208	0.0163954
717.286	0.0162833
717.364	0.0164490
717.442	0.0162402
717.521	0.0161744
717.599	0.0163320
717.677	0.0163309
717.755	0.0163360
717.833	0.0161700
717.911	0.0161606
717.989	0.0164037
718.067	0.0161480
718.146	0.0162821
718.224	0.0163773
718.302	0.0163657
718.380	0.0161772
718.458	0.0162511
718.536	0.0163581
718.614	0.0162825
718.692	0.0162445
718.771	0.0162968
718.849	0.0163365
718.927	0.0162151
719.005	0.0163947
719.083	0.0162234
719.161	0.0162875
719.239	0.0162457
719.317	0.0162402
719.396	0.0163050
719.474	0.0163083
719.552	0.0163116
719.630	0.0163459
719.708	0.0164185
719.786	0.0163800
719.864	0.0163477
719.942	0.0162199
720.021	0.0162495
720.099	0.0162901
720.177	0.0163265
720.255	0.0163596
720.333	0.0163213
720.411	0.0163645
720.489	0.0163117
720.567	0.0162814
720.646	0.0163320
720.724	0.0163127
720.802	0.0162302
720.880	0.0163209
720.958	0.0162307
721.036	0.0161224
721.114	0.0163493
721.192	0.0163150
721.271	0.0163133
721.349	0.0161417
721.427	0.0163028
721.505	0.0162267
721.583	0.0161993
721.661	0.0163487
721.739	0.0162951
721.817	0.0161871
721.896	0.0161966
721.974	0.0161620
722.052	0.0162872
722.130	0.0163996
722.208	0.0162466
722.286	0.0162609
722.364	0.0162155
722.442	0.0162608
722.521	0.0162586
722.599	0.0163477
722.677	0.0162029
722.755	0.0162246
722.833	0.0163313
722.911	0.0162575
722.989	0.0162161
723.067	0.0163059
723.146	0.0162926
723.224	0.0163072
723.302	0.0163257
723.380	0.0162962
723.458	0.0163842
723.536	0.0162189
723.614	0.0162905
723.692	0.0164043
723.771	0.0161877
723.849	0.0161744
723.927	0.0162766
724.005	0.0163052
724.083	0.0163464
724.161	0.0164189
724.239	0.0162138
724.317	0.0161936
724.396	0.0162996
724.474	0.0163257
724.552	0.0161610
724.630	0.0161666
724.708	0.0163741
724.786	0.0162689
724.864	0.0163563
724.942	0.0164490
725.021	0.0161873
725.099	0.0163240
725.177	0.0162138
725.255	0.0163582
725.333	0.0163817
725.411	0.0162853
725.489	0.0163536
725.567	0.0162671
725.646	0.0162161
725.724	0.0163570
725.802	0.0163593
725.880	0.0162271
725.958	0.0162766
726.036	0.0163918
726.114	0.0163025
726.192	0.0162856
726.271	0.0162928
726.349	0.0162976
726.427	0.0164382
726.505	0.0161864
726.583	0.0163089
726.661	0.0163338
726.739	0.0163357
726.817	0.0162407
726.896	0.0163331
726.974	0.0164233
727.052	0.0164265
727.130	0.0163892
727.208	0.0164028
727.286	0.0163638
727.364	0.0162695
727.442	0.0163482
727.521	0.0164252
727.599	0.0164401
727.677	0.0164211
727.755	0.0162304
727.833	0.0165592
727.911	0.0163398
727.989	0.0163100
728.067	0.0163223
728.146	0.0164312
728.224	0.0164285
728.302	0.0163521
728.380	0.0163231
728.458	0.0164676
728.536	0.0163747
728.614	0.0164508
728.692	0.0163949
728.771	0.0163550
728.849	0.0164656
728.927	0.0163093
729.005	0.0163481
729.083	0.0163540
729.161	0.0164481
729.239	0.0163471
729.317	0.0163597
729.396	0.0162869
729.474	0.0164340
729.552	0.0162976
729.630	0.0163274
729.708	0.0163320
729.786	0.0163283
729.864	0.0163099
729.942	0.0164212
730.021	0.0163165
730.099	0.0162772
730.177	0.0164095
730.255	0.0163469
730.333	0.0164133
730.411	0.0164919
730.489	0.0162898
730.567	0.0163152
730.646	0.0163355
730.724	0.0164718
730.802	0.0162754
730.880	0.0162743
730.958	0.0162378
731.036	0.0164114
731.114	0.0162833
731.192	0.0162448
731.271	0.0163602
731.349	0.0163624
731.427	0.0162659
731.505	0.0162939
731.583	0.0163662
731.661	0.0163134
731.739	0.0165136
731.817	0.0162704
731.896	0.0161926
731.974	0.0163161
732.052	0.0162534
732.130	0.0161855
732.208	0.0163419
732.286	0.0163372
732.364	0.0162547
732.442	0.0164197
732.521	0.0162952
732.599	0.0162818
732.677	0.0162434
732.755	0.0162560
732.833	0.0163518
732.911	0.0163443
732.989	0.0163349
733.067	0.0163858
733.146	0.0163532
733.224	0.0162615
733.302	0.0161490
733.380	0.0162176
733.458	0.0162674
733.536	0.0162003
733.614	0.0163080
733.692	0.0162231
733.771	0.0163360
733.849	0.0163212
733.927	0.0162270
734.005	0.0161276
734.083	0.0162733
734.161	0.0162970
734.239	0.0162507
734.317	0.0163024
734.396	0.0162675
734.474	0.0161808
734.552	0.0162724
734.630	0.0162292
734.708	0.0162194
734.786	0.0162910
734.864	0.0162793
734.942	0.0163144
735.021	0.0162379
735.099	0.0162541
735.177	0.0163712
735.255	0.0162076
735.333	0.0163762
735.411	0.0162267
735.489	0.0163853
735.567	0.0161027
735.646	0.0163628
735.724	0.0161953
735.802	0.0163139
735.880	0.0162858
735.958	0.0162418
736.036	0.0161475
736.114	0.0163245
736.192	0.0161884
736.271	0.0162268
736.349	0.0162877
736.427	0.0162337
736.505	0.0163157
736.583	0.0162740
736.661	0.0163053
736.739	0.0162247
736.817	0.0161315
736.896	0.0162064
736.974	0.0163036
737.052	0.0162969
737.130	0.0162918
737.208	0.0161219
737.286	0.0160956
737.364	0.0161329
737.442	0.0162386
737.521	0.0162306
737.599	0.0161036
737.677	0.0163049
737.755	0.0162150
737.833	0.0162577
737.911	0.0162221
737.989	0.0162572
738.067	0.0162660
738.146	0.0160973
738.224	0.0163088
738.302	0.0160703
738.380	0.0162085
738.458	0.0162486
738.536	0.0161803
738.614	0.0162874
738.692	0.0162780
738.771	0.0162859
738.849	0.0161687
738.927	0.0161452
739.005	0.0162151
739.083	0.0161270
739.161	0.0161789
739.239	0.0162540
739.317	0.0162343
739.396	0.0161923
739.474	0.0161396
739.552	0.0160738
739.630	0.0161220
739.708	0.0161804
739.786	0.0162737
739.864	0.0160973
739.942	0.0163776
740.021	0.0163121
740.099	0.0163544
740.177	0.0162495
740.255	0.0162941
740.333	0.0162675
740.411	0.0162469
740.489	0.0162183
740.567	0.0162300
740.646	0.0163142
740.724	0.0163202
740.802	0.0162454
740.880	0.0161419
740.958	0.0161909
741.036	0.0163354
741.114	0.0163750
741.192	0.0162682
741.271	0.0164132
741.349	0.0162569
741.427	0.0163525
741.505	0.0164112
741.583	0.0163875
741.661	0.0164337
741.739	0.0164548
741.817	0.0164790
741.896	0.0163128
741.974	0.0162331
742.052	0.0162083
742.130	0.0162666
742.208	0.0161277
742.286	0.0160583
742.364	0.0158855
742.442	0.0159646
742.521	0.0157884
742.599	0.0157951
742.677	0.0160107
742.755	0.0158958
742.833	0.0158624
742.911	0.0162949
742.989	0.0164247
743.067	0.0164993
743.146	0.0167480
743.224	0.0169363
743.302	0.0170396
743.380	0.0169932
743.458	0.0172137
743.536	0.0172175
743.614	0.0170880
743.692	0.0169836
743.771	0.0167321
743.849	0.0166650
743.927	0.0163421
744.005	0.0162563
744.083	0.0159607
744.161	0.0156943
744.239	0.0155695
744.317	0.0151540
744.396	0.0149828
744.474	0.0148927
744.552	0.0146968
744.630	0.0147157
744.708	0.0149040
744.786	0.0149975
744.864	0.0154568
744.942	0.0157043
745.021	0.0164344
745.099	0.0169200
745.177	0.0174928
745.255	0.0178098
745.333	0.0181409
745.411	0.0182067
745.489	0.0182295
745.567	0.0177507
745.646	0.0175167
745.724	0.0169998
745.802	0.0166550
745.880	0.0164700
745.958	0.0160445
746.036	0.0158366
746.114	0.0156921
746.192	0.0158893
746.271	0.0159420
746.349	0.0158990
746.427	0.0161053
746.505	0.0160360
746.583	0.0159852
746.661	0.0159057
746.739	0.0155030
746.817	0.0152513
746.896	0.0148787
746.974	0.0147652
747.052	0.0145844
747.130	0.0145849
747.208	0.0148962
747.286	0.0151942
747.364	0.0155010
747.442	0.0161386
747.521	0.0168230
747.599	0.0174744
747.677	0.0177689
747.755	0.0181376
747.833	0.0182147
747.911	0.0182355
747.989	0.0179462
748.067	0.0177445
748.146	0.0173914
748.224	0.0172320
748.302	0.0170163
748.380	0.0166811
748.458	0.0164799
748.536	0.0162378
748.614	0.0160712
748.692	0.0159723
748.771	0.0157356
748.849	0.0153570
748.927	0.0152556
749.005	0.0151158
749.083	0.0147880
749.161	0.0146858
749.239	0.0146233
749.317	0.0147147
749.396	0.0146542
749.474	0.0148372
749.552	0.0150628
749.630	0.0153671
749.708	0.0156200
749.786	0.0161921
749.864	0.0164491
749.942	0.0168185
750.021	0.0172955
750.099	0.0174151
750.177	0.0176794
750.255	0.0177668
750.333	0.0177068
750.411	0.0173847
750.489	0.0170947
750.567	0.0167295
750.646	0.0162099
750.724	0.0159401
750.802	0.0157267
750.880	0.0157357
750.958	0.0157693
751.036	0.0159505
751.114	0.0164241
751.192	0.0167463
751.271	0.0172773
751.349	0.0176289
751.427	0.0179513
751.505	0.0180106
751.583	0.0181177
751.661	0.0179630
751.739	0.0176463
751.817	0.0173332
751.896	0.0168459
751.974	0.0161256
752.052	0.0156546
752.130	0.0151562
752.208	0.0145837
752.286	0.0141508
752.364	0.0138964
752.442	0.0137179
752.521	0.0137010
752.599	0.0138860
752.677	0.0139244
752.755	0.0138845
752.833	0.0142296
752.911	0.0143939
752.989	0.0145300
753.067	0.0147858
753.146	0.0149979
753.224	0.0154926
753.302	0.0156697
753.380	0.0161383
753.458	0.0166830
753.536	0.0172000
753.614	0.0177074
753.692	0.0182988
753.771	0.0188388
753.849	0.0194292
753.927	0.0199723
754.005	0.0203502
754.083	0.0207398
754.161	0.0210588
754.239	0.0209769
754.317	0.0208395
754.396	0.0206201
754.474	0.0200809
754.552	0.0194787
754.630	0.0186571
754.708	0.0176128
754.786	0.0165088
754.864	0.0153542
754.942	0.0143942
755.021	0.0131953
755.099	0.0121752
755.177	0.0113356
755.255	0.0106950
755.333	0.0103910
755.411	0.0102998
755.489	0.0103133
755.567	0.0105180
755.646	0.0109266
755.724	0.0115405
755.802	0.0120845
755.880	0.0127923
755.958	0.0135314
756.036	0.0143093
756.114	0.0150816
756.192	0.0159425
756.271	0.0167318
756.349	0.0173962
756.427	0.0183674
756.505	0.0192519
756.583	0.0201372
756.661	0.0210066
756.739	0.0218668
756.817	0.0225582
756.896	0.0229897
756.974	0.0234326
757.052	0.0235307
757.130	0.0234630
757.208	0.0230782
757.286	0.0224793
757.364	0.0216798
757.442	0.0206316
757.521	0.0195860
757.599	0.0183064
757.677	0.0170479
757.755	0.0156554
757.833	0.0142340
757.911	0.0130391
757.989	0.0117681
758.067	0.0107549
758.146	0.00991020
758.224	0.00905869
758.302	0.00858910
758.380	0.00841965
758.458	0.00839409
758.536	0.00864105
758.614	0.00907265
758.692	0.00976219
758.771	0.0104786
758.849	0.0114748
758.927	0.0126733
759.005	0.0136754
759.083	0.0148099
759.161	0.0160168
759.239	0.0170683
759.317	0.0180897
759.396	0.0189735
759.474	0.0200591
759.552	0.0206754
759.630	0.0212261
759.708	0.0217101
759.786	0.0221815
759.864	0.0222635
759.942	0.0224382
760.021	0.0224024
760.099	0.0222923
760.177	0.0220396
760.255	0.0216792
760.333	0.0212800
760.411	0.0206325
760.489	0.0198154
760.567	0.0189880
760.646	0.0182295
760.724	0.0172841
760.802	0.0162614
760.880	0.0152364
760.958	0.0143022
761.036	0.0133383
761.114	0.0126795
761.192	0.0118869
761.271	0.0113999
761.349	0.0110143
761.427	0.0106326
761.505	0.0103738
761.583	0.0103993
761.661	0.0106442
761.739	0.0109651
761.817	0.0115548
761.896	0.0119657
761.974	0.0124163
762.052	0.0131289
762.130	0.0138104
762.208	0.0145815
762.286	0.0153868
762.364	0.0162231
762.442	0.0171259
762.521	0.0181488
762.599	0.0188947
762.677	0.0195249
762.755	0.0201836
762.833	0.0207059
762.911	0.0212165
762.989	0.0212703
763.067	0.0214471
763.146	0.0213709
763.224	0.0212573
763.302	0.0208099
763.380	0.0203336
763.458	0.0197829
763.536	0.0190683
763.614	0.0182118
763.692	0.0172650
763.771	0.0161848
763.849	0.0152717
763.927	0.0144014
764.005	0.0136105
764.083	0.0130335
764.161	0.0123853
764.239	0.0120419
764.317	0.0117572
764.396	0.0116068
764.474	0.0116252
764.552	0.0117911
764.630	0.0120513
764.708	0.0124128
764.786	0.0129174
764.864	0.0134017
764.942	0.0139600
765.021	0.0147110
765.099	0.0152415
765.177	0.0161322
765.255	0.0168237
765.333	0.0175318
765.411	0.0180077
765.489	0.0185645
765.567	0.0189530
765.646	0.0192628
765.724	0.0194621
765.802	0.0196587
765.880	0.0196317
765.958	0.0195878
766.036	0.0197278
766.114	0.0195646
766.192	0.0194852
766.271	0.0191683
766.349	0.0188598
766.427	0.0183748
766.505	0.0180151
766.583	0.0175472
766.661	0.0171591
766.739	0.0165425
766.817	0.0162182
766.896	0.0155999
766.974	0.0150105
767.052	0.0146095
767.130	0.0143541
767.208	0.0139629
767.286	0.0135574
767.364	0.0136067
767.442	0.0135998
767.521	0.0132622
767.599	0.0130077
767.677	0.0131230
767.755	0.0131567
767.833	0.0133482
767.911	0.0138045
767.989	0.0139809
768.067	0.0141199
768.146	0.0144455
768.224	0.0147079
768.302	0.0152412
768.380	0.0156221
768.458	0.0160574
768.536	0.0163116
768.614	0.0166370
768.692	0.0173853
768.771	0.0176103
768.849	0.0179425
768.927	0.0184395
769.005	0.0186526
769.083	0.0187606
769.161	0.0188152
769.239	0.0190947
769.317	0.0190369
769.396	0.0189749
769.474	0.0188678
769.552	0.0188173
769.630	0.0186655
769.708	0.0183556
769.786	0.0180584
769.864	0.0178714
769.942	0.0175401
770.021	0.0169624
770.099	0.0165599
770.177	0.0161565
770.255	0.0160487
770.333	0.0155390
770.411	0.0153260
770.489	0.0150162
770.567	0.0149862
770.646	0.0148627
770.724	0.0145164
770.802	0.0145049
770.880	0.0145936
770.958	0.0145164
771.036	0.0144896
771.114	0.0146097
771.192	0.0147582
771.271	0.0148904
771.349	0.0148027
771.427	0.0149916
771.505	0.0150633
771.583	0.0151996
771.661	0.0153609
771.739	0.0156958
771.817	0.0157603
771.896	0.0160851
771.974	0.0163334
772.052	0.0165440
772.130	0.0168148
772.208	0.0168736
772.286	0.0170042
772.364	0.0171098
772.442	0.0171210
772.521	0.0172072
772.599	0.0171312
772.677	0.0170925
772.755	0.0170322
772.833	0.0168396
772.911	0.0168806
772.989	0.0167133
773.067	0.0165812
773.146	0.0163187
773.224	0.0163092
773.302	0.0161684
773.380	0.0159638
773.458	0.0158876
773.536	0.0156939
773.614	0.0157527
773.692	0.0157061
773.771	0.0156593
773.849	0.0156582
773.927	0.0157439
774.005	0.0159566
774.083	0.0159985
774.161	0.0158895
774.239	0.0163010
774.317	0.0164201
774.396	0.0163882
774.474	0.0165311
774.552	0.0165569
774.630	0.0165437
774.708	0.0165811
774.786	0.0168597
774.864	0.0165585
774.942	0.0166399
775.021	0.0166105
775.099	0.0165509
775.177	0.0165469
775.255	0.0166556
775.333	0.0163432
775.411	0.0163215
775.489	0.0163855
775.567	0.0162444
775.646	0.0164208
775.724	0.0163456
775.802	0.0163927
775.880	0.0164029
775.958	0.0164455
776.036	0.0164720
776.114	0.0164954
776.192	0.0164949
776.271	0.0164270
776.349	0.0164617
776.427	0.0164648
776.505	0.0164407
776.583	0.0164960
776.661	0.0163619
776.739	0.0163425
776.817	0.0163371
776.896	0.0162880
776.974	0.0163241
777.052	0.0162276
777.130	0.0162252
777.208	0.0163601
777.286	0.0162424
777.364	0.0161189
777.442	0.0160854
777.521	0.0159128
777.599	0.0157708
777.677	0.0155804
777.755	0.0153875
777.833	0.0152641
777.911	0.0149640
777.989	0.0148463
778.067	0.0145860
778.146	0.0146344
778.224	0.0147220
778.302	0.0147401
778.380	0.0148658
778.458	0.0150711
778.536	0.0153585
778.614	0.0155376
778.692	0.0158649
778.771	0.0162861
778.849	0.0166048
778.927	0.0169258
779.005	0.0171938
779.083	0.0176311
779.161	0.0177788
779.239	0.0179533
779.317	0.0182842
779.396	0.0183161
779.474	0.0184915
779.552	0.0185726
779.630	0.0184883
779.708	0.0184386
779.786	0.0184727
779.864	0.0182374
779.942	0.0180492
780.021	0.0179530
780.099	0.0176481
780.177	0.0174139
780.255	0.0171101
780.333	0.0167442
780.411	0.0164911
780.489	0.0161559
780.567	0.0157928
780.646	0.0156115
780.724	0.0152699
780.802	0.0151630
780.880	0.0148474
780.958	0.0148313
781.036	0.0145963
781.114	0.0145869
781.192	0.0146797
781.271	0.0146809
781.349	0.0146938
781.427	0.0149346
781.505	0.0152962
781.583	0.0152947
781.661	0.0154390
781.739	0.0156221
781.817	0.0160109
781.896	0.0160184
781.974	0.0160530
782.052	0.0161870
782.130	0.0164594
782.208	0.0163357
782.286	0.0163612
782.364	0.0165240
782.442	0.0165748
782.521	0.0165639
782.599	0.0165840
782.677	0.0166273
782.755	0.0165895
782.833	0.0165018
782.911	0.0164307
782.989	0.0165778
783.067	0.0164977
783.146	0.0165111
783.224	0.0164945
783.302	0.0164944
783.380	0.0166050
783.458	0.0167406
783.536	0.0166233
783.614	0.0166564
783.692	0.0168750
783.771	0.0170444
783.849	0.0169989
783.927	0.0171934
784.005	0.0171446
784.083	0.0170486
784.161	0.0171918
784.239	0.0169859
784.317	0.0169476
784.396	0.0168363
784.474	0.0164834
784.552	0.0163922
784.630	0.0162883
784.708	0.0159774
784.786	0.0158128
784.864	0.0157368
784.942	0.0156771
785.021	0.0155901
785.099	0.0153345
785.177	0.0153463
785.255	0.0154186
785.333	0.0154319
785.411	0.0154535
785.489	0.0153929
785.567	0.0156248
785.646	0.0157905
785.724	0.0158159
785.802	0.0160155
785.880	0.0161346
785.958	0.0163097
786.036	0.0163815
786.114	0.0164897
786.192	0.0167455
786.271	0.0167171
786.349	0.0169201
786.427	0.0171122
786.505	0.0172231
786.583	0.0172906
786.661	0.0171156
786.739	0.0172323
786.817	0.0171486
786.896	0.0170228
786.974	0.0167622
787.052	0.0166953
787.130	0.0164621
787.208	0.0163792
787.286	0.0161547
787.364	0.0160932
787.442	0.0159353
787.521	0.0157416
787.599	0.0156396
787.677	0.0155492
787.755	0.0155702
787.833	0.0155611
787.911	0.0154855
787.989	0.0154904
788.067	0.0154752
788.146	0.0153860
788.224	0.0154095
788.302	0.0153735
788.380	0.0154346
788.458	0.0154139
788.536	0.0153951
788.614	0.0154266
788.692	0.0154252
788.771	0.0154517
788.849	0.0154235
788.927	0.0153875
789.005	0.0154494
789.083	0.0156507
789.161	0.0157347
789.239	0.0158661
789.317	0.0160246
789.396	0.0162315
789.474	0.0165742
789.552	0.0167048
789.630	0.0168268
789.708	0.0168781
789.786	0.0172980
789.864	0.0171168
789.942	0.0172611
790.021	0.0174726
790.099	0.0173825
790.177	0.0175682
790.255	0.0174973
790.333	0.0173342
790.411	0.0171986
790.489	0.0171234
790.567	0.0171303
790.646	0.0170556
790.724	0.0169115
790.802	0.0168027
790.880	0.0166979
790.958	0.0165022
791.036	0.0161617
791.114	0.0161459
791.192	0.0161635
791.271	0.0157835
791.349	0.0157598
791.427	0.0157408
791.505	0.0155826
791.583	0.0154510
791.661	0.0156818
791.739	0.0156349
791.817	0.0156462
791.896	0.0158469
791.974	0.0159417
792.052	0.0159819
792.130	0.0160973
792.208	0.0161827
792.286	0.0162189
792.364	0.0163275
792.442	0.0163569
792.521	0.0164294
792.599	0.0164459
792.677	0.0164724
792.755	0.0163868
792.833	0.0164292
792.911	0.0162077
792.989	0.0160443
793.067	0.0161749
793.146	0.0161724
793.224	0.0161092
793.302	0.0160291
793.380	0.0161602
793.458	0.0160977
793.536	0.0160429
793.614	0.0158694
793.692	0.0159639
793.771	0.0158779
793.849	0.0158856
793.927	0.0158163
794.005	0.0158904
794.083	0.0157559
794.161	0.0156824
794.239	0.0155464
794.317	0.0156973
794.396	0.0157188
794.474	0.0158071
794.552	0.0158652
794.630	0.0159470
794.708	0.0160133
794.786	0.0160398
794.864	0.0160149
794.942	0.0162129
795.021	0.0163359
795.099	0.0165359
795.177	0.0164981
795.255	0.0166787
795.333	0.0167977
795.411	0.0167314
795.489	0.0168649
795.567	0.0169154
795.646	0.0168434
795.724	0.0169572
795.802	0.0168320
795.880	0.0168396
795.958	0.0166892
796.036	0.0167059
796.114	0.0166370
796.192	0.0165867
796.271	0.0163272
796.349	0.0162862
796.427	0.0163875
796.505	0.0160988
796.583	0.0158839
796.661	0.0157165
796.739	0.0156219
796.817	0.0157574
796.896	0.0156963
796.974	0.0157079
797.052	0.0158363
797.130	0.0158820
797.208	0.0159098
797.286	0.0161253
797.364	0.0164333
797.442	0.0164565
797.521	0.0165452
797.599	0.0167257
797.677	0.0167698
797.755	0.0168874
797.833	0.0168417
797.911	0.0167407
797.989	0.0166535
798.067	0.0165154
798.146	0.0163770
798.224	0.0162913
798.302	0.0161504
798.380	0.0157841
798.458	0.0156158
798.536	0.0156284
798.614	0.0155875
798.692	0.0153461
798.771	0.0153701
798.849	0.0153493
798.927	0.0155246
799.005	0.0155464
799.083	0.0155723
799.161	0.0157588
799.239	0.0157308
799.317	0.0158407
799.396	0.0159023
799.474	0.0160013
799.552	0.0159795
799.630	0.0161560
799.708	0.0162119
799.786	0.0162138
799.864	0.0162472
799.942	0.0163332
800.021	0.0162141
800.099	0.0163123
800.177	0.0162802
800.255	0.0163372
800.333	0.0165432
800.411	0.0164108
800.489	0.0163775
800.567	0.0163932
800.646	0.0164989
800.724	0.0165894
800.802	0.0167307
800.880	0.0166232
800.958	0.0169279
801.036	0.0167340
801.114	0.0168073
801.192	0.0169717
801.271	0.0170059
801.349	0.0169608
801.427	0.0168867
801.505	0.0168703
801.583	0.0168779
801.661	0.0167056
801.739	0.0165884
801.817	0.0163658
801.896	0.0164138
801.974	0.0162064
802.052	0.0159428
802.130	0.0159372
802.208	0.0158622
802.286	0.0157671
802.364	0.0156869
802.442	0.0158551
802.521	0.0156951
802.599	0.0157623
802.677	0.0159137
802.755	0.0161191
802.833	0.0161095
802.911	0.0161464
802.989	0.0163245
803.067	0.0164276
803.146	0.0166092
803.224	0.0165823
803.302	0.0166940
803.380	0.0166940
803.458	0.0167455
803.536	0.0167032
803.614	0.0167848
803.692	0.0167618
803.771	0.0166372
803.849	0.0165081
803.927	0.0164644
804.005	0.0162118
804.083	0.0162259
804.161	0.0160549
804.239	0.0160952
804.317	0.0159559
804.396	0.0157544
804.474	0.0159241
804.552	0.0159006
804.630	0.0157928
804.708	0.0158005
804.786	0.0156752
804.864	0.0156702
804.942	0.0158618
805.021	0.0157304
805.099	0.0156846
805.177	0.0159010
805.255	0.0158854
805.333	0.0157989
805.411	0.0160660
805.489	0.0159678
805.567	0.0160795
805.646	0.0162489
805.724	0.0162656
805.802	0.0161805
805.880	0.0163168
805.958	0.0164240
806.036	0.0164252
806.114	0.0163833
806.192	0.0164602
806.271	0.0163646
806.349	0.0163701
806.427	0.0164401
806.505	0.0166299
806.583	0.0167187
806.661	0.0166747
806.739	0.0168221
806.817	0.0168156
806.896	0.0167850
806.974	0.0169376
807.052	0.0168939
807.130	0.0168647
807.208	0.0168820
807.286	0.0167549
807.364	0.0168268
807.442	0.0167819
807.521	0.0166684
807.599	0.0166152
807.677	0.0165239
807.755	0.0163319
807.833	0.0163555
807.911	0.0161351
807.989	0.0161935
808.067	0.0161648
808.146	0.0159959
808.224	0.0159107
808.302	0.0159746
808.380	0.0159889
808.458	0.0159420
808.536	0.0158681
808.614	0.0158890
808.692	0.0159702
808.771	0.0158035
808.849	0.0159528
808.927	0.0161739
809.005	0.0161980
809.083	0.0164283
809.161	0.0162126
809.239	0.0163689
809.317	0.0164818
809.396	0.0166278
809.474	0.0165405
809.552	0.0165051
809.630	0.0165753
809.708	0.0166658
809.786	0.0167360
809.864	0.0165717
809.942	0.0166022
810.021	0.0163823
810.099	0.0162824
810.177	0.0161519
810.255	0.0160767
810.333	0.0159815
810.411	0.0158833
810.489	0.0158564
810.567	0.0159484
810.646	0.0158147
810.724	0.0157977
810.802	0.0157664
810.880	0.0158018
810.958	0.0158207
811.036	0.0159377
811.114	0.0159773
811.192	0.0161454
811.271	0.0160880
811.349	0.0164402
811.427	0.0162377
811.505	0.0163363
811.583	0.0164231
811.661	0.0166406
811.739	0.0165139
811.817	0.0165680
811.896	0.0166668
811.974	0.0164968
812.052	0.0164313
812.130	0.0164177
812.208	0.0163035
812.286	0.0162693
812.364	0.0161902
812.442	0.0161200
812.521	0.0159729
812.599	0.0160216
812.677	0.0159670
812.755	0.0157547
812.833	0.0159130
812.911	0.0158531
812.989	0.0159082
813.067	0.0158588
813.146	0.0161060
813.224	0.0161446
813.302	0.0162514
813.380	0.0162328
813.458	0.0163941
813.536	0.0165207
813.614	0.0166643
813.692	0.0168030
813.771	0.0168724
813.849	0.0168719
813.927	0.0169456
814.005	0.0170670
814.083	0.0170108
814.161	0.0169431
814.239	0.0168739
814.317	0.0168298
814.396	0.0168651
814.474	0.0166247
814.552	0.0166357
814.630	0.0164983
814.708	0.0165079
814.786	0.0163799
814.864	0.0162029
814.942	0.0161996
815.021	0.0161732
815.099	0.0160873
815.177	0.0161487
815.255	0.0161548
815.333	0.0160999
815.411	0.0160524
815.489	0.0161089
815.567	0.0159015
815.646	0.0160165
815.724	0.0160319
815.802	0.0161927
815.880	0.0160754
815.958	0.0161618
816.036	0.0161890
816.114	0.0161967
816.192	0.0161126
816.271	0.0159494
816.349	0.0159585
816.427	0.0158421
816.505	0.0158360
816.583	0.0158759
816.661	0.0156995
816.739	0.0157951
816.817	0.0157106
816.896	0.0155415
816.974	0.0155654
817.052	0.0154848
817.130	0.0157311
817.208	0.0157161
817.286	0.0157806
817.364	0.0158854
817.442	0.0158986
817.521	0.0160098
817.599	0.0161581
817.677	0.0162986
817.755	0.0162971
817.833	0.0164252
817.911	0.0163294
817.989	0.0165829
818.067	0.0166018
818.146	0.0165820
818.224	0.0165063
818.302	0.0165719
818.380	0.0166599
818.458	0.0164185
818.536	0.0165002
818.614	0.0165896
818.692	0.0166480
818.771	0.0163893
818.849	0.0164832
818.927	0.0165411
819.005	0.0165498
819.083	0.0164293
819.161	0.0165071
819.239	0.0164619
819.317	0.0166624
819.396	0.0165509
819.474	0.0166853
819.552	0.0165561
819.630	0.0165464
819.708	0.0162650
819.786	0.0164645
819.864	0.0163699
819.942	0.0163329
820.021	0.0165118
820.099	0.0163335
820.177	0.0162090
820.255	0.0161755
820.333	0.0161595
820.411	0.0160461
820.489	0.0159897
820.567	0.0160612
820.646	0.0158468
820.724	0.0158117
820.802	0.0158011
820.880	0.0158234
820.958	0.0157929
821.036	0.0159095
821.114	0.0159830
821.192	0.0161282
821.271	0.0162366
821.349	0.0161944
821.427	0.0162003
821.505	0.0163575
821.583	0.0163162
821.661	0.0162728
821.739	0.0162406
821.817	0.0164454
821.896	0.0164998
821.974	0.0163274
822.052	0.0163437
822.130	0.0163987
822.208	0.0163176
822.286	0.0162989
822.364	0.0163931
822.442	0.0161221
822.521	0.0161972
822.599	0.0160931
822.677	0.0161160
822.755	0.0159901
822.833	0.0160141
822.911	0.0159493
822.989	0.0158666
823.067	0.0159576
823.146	0.0159365
823.224	0.0157791
823.302	0.0159547
823.380	0.0159176
823.458	0.0158292
823.536	0.0159727
823.614	0.0162420
823.692	0.0160275
823.771	0.0161618
823.849	0.0162253
823.927	0.0162972
824.005	0.0163533
824.083	0.0162509
824.161	0.0164127
824.239	0.0164317
824.317	0.0164315
824.396	0.0165099
824.474	0.0165057
824.552	0.0164651
824.630	0.0164828
824.708	0.0164089
824.786	0.0164165
824.864	0.0163050
824.942	0.0164282
825.021	0.0165254
825.099	0.0165095
825.177	0.0164067
825.255	0.0163972
825.333	0.0162619
825.411	0.0164643
825.489	0.0163552
825.567	0.0163261
825.646	0.0162923
825.724	0.0164417
825.802	0.0163966
825.880	0.0162901
825.958	0.0162325
826.036	0.0164600
826.114	0.0165287
826.192	0.0163462
826.271	0.0163506
826.349	0.0163983
826.427	0.0164317
826.505	0.0163180
826.583	0.0162615
826.661	0.0163342
826.739	0.0163181
826.817	0.0162263
826.896	0.0163471
826.974	0.0162637
827.052	0.0160125
827.130	0.0160709
827.208	0.0160669
827.286	0.0160603
827.364	0.0159544
827.442	0.0159146
827.521	0.0159038
827.599	0.0158915
827.677	0.0159342
827.755	0.0159789
827.833	0.0159016
827.911	0.0160910
827.989	0.0160181
828.067	0.0161691
828.146	0.0162272
828.224	0.0162193
828.302	0.0163246
828.380	0.0163586
828.458	0.0164394
828.536	0.0162902
828.614	0.0162441
828.692	0.0162215
828.771	0.0163618
828.849	0.0163456
828.927	0.0161968
829.005	0.0161630
829.083	0.0161457
829.161	0.0161150
829.239	0.0160116
829.317	0.0160118
829.396	0.0160596
829.474	0.0159841
829.552	0.0159780
829.630	0.0158048
829.708	0.0159350
829.786	0.0159682
829.864	0.0160789
829.942	0.0161229
830.021	0.0162120
830.099	0.0162227
830.177	0.0164139
830.255	0.0163428
830.333	0.0164185
830.411	0.0166142
830.489	0.0166387
830.567	0.0166094
830.646	0.0165682
830.724	0.0166782
830.802	0.0165693
830.880	0.0166816
830.958	0.0165204
831.036	0.0166017
831.114	0.0164204
831.192	0.0163546
831.271	0.0163999
831.349	0.0161721
831.427	0.0161471
831.505	0.0160534
831.583	0.0160815
831.661	0.0159508
831.739	0.0160048
831.817	0.0160448
831.896	0.0160957
831.974	0.0160253
832.052	0.0160340
832.130	0.0161810
832.208	0.0162161
832.286	0.0162320
832.364	0.0162663
832.442	0.0164402
832.521	0.0163750
832.599	0.0164501
832.677	0.0165002
832.755	0.0163367
832.833	0.0163605
832.911	0.0165297
832.989	0.0164370
833.067	0.0163287
833.146	0.0162705
833.224	0.0162077
833.302	0.0162740
833.380	0.0161212
833.458	0.0161220
833.536	0.0159929
833.614	0.0160858
833.692	0.0160974
833.771	0.0160456
833.849	0.0160128
833.927	0.0159613
834.005	0.0159448
834.083	0.0160802
834.161	0.0162495
834.239	0.0162286
834.317	0.0161407
834.396	0.0161366
834.474	0.0162698
834.552	0.0163518
834.630	0.0164646
834.708	0.0164407
834.786	0.0164567
834.864	0.0164422
834.942	0.0162586
835.021	0.0163313
835.099	0.0161555
835.177	0.0161320
835.255	0.0161381
835.333	0.0160117
835.411	0.0161515
835.489	0.0160918
835.567	0.0159094
835.646	0.0158773
835.724	0.0159130
835.802	0.0159085
835.880	0.0159060
835.958	0.0158977
836.036	0.0160422
836.114	0.0159942
836.192	0.0161469
836.271	0.0162527
836.349	0.0162373
836.427	0.0162560
836.505	0.0161317
836.583	0.0165564
836.661	0.0164581
836.739	0.0163686
836.817	0.0164472
836.896	0.0164890
836.974	0.0164640
837.052	0.0165957
837.130	0.0166238
837.208	0.0164036
837.286	0.0163980
837.364	0.0163618
837.442	0.0163087
837.521	0.0163067
837.599	0.0163280
837.677	0.0162587
837.755	0.0163406
837.833	0.0161115
837.911	0.0161594
837.989	0.0160965
838.067	0.0161286
838.146	0.0162096
838.224	0.0162838
838.302	0.0161444
838.380	0.0163380
838.458	0.0164799
838.536	0.0165269
838.614	0.0164462
838.692	0.0166331
838.771	0.0166831
838.849	0.0166466
838.927	0.0167115
839.005	0.0166550
839.083	0.0167910
839.161	0.0166806
839.239	0.0165361
839.317	0.0165208
839.396	0.0164774
839.474	0.0164308
839.552	0.0164058
839.630	0.0162678
839.708	0.0161604
839.786	0.0161899
839.864	0.0161453
839.942	0.0159737
840.021	0.0159705
840.099	0.0158492
840.177	0.0158757
840.255	0.0159149
840.333	0.0159575
840.411	0.0159087
840.489	0.0158108
840.567	0.0158607
840.646	0.0159790
840.724	0.0159490
840.802	0.0160006
840.880	0.0161776
840.958	0.0161825
841.036	0.0162270
841.114	0.0163204
841.192	0.0162158
841.271	0.0162464
841.349	0.0164261
841.427	0.0164950
841.505	0.0162561
841.583	0.0163176
841.661	0.0163846
841.739	0.0161884
841.817	0.0161828
841.896	0.0161214
841.974	0.0162353
842.052	0.0160857
842.130	0.0161405
842.208	0.0158698
842.286	0.0160515
842.364	0.0160237
842.442	0.0161978
842.521	0.0161430
842.599	0.0160948
842.677	0.0161311
842.755	0.0159549
842.833	0.0162166
842.911	0.0161906
842.989	0.0162330
843.067	0.0162354
843.146	0.0164420
843.224	0.0163602
843.302	0.0165814
843.380	0.0165620
843.458	0.0165137
843.536	0.0166087
843.614	0.0165195
843.692	0.0164359
843.771	0.0163789
843.849	0.0164478
843.927	0.0162815
844.005	0.0161622
844.083	0.0161205
844.161	0.0161021
844.239	0.0160854
844.317	0.0162296
844.396	0.0159907
844.474	0.0159363
844.552	0.0160799
844.630	0.0161401
844.708	0.0161610
844.786	0.0160924
844.864	0.0161806
844.942	0.0161353
845.021	0.0163170
845.099	0.0164359
845.177	0.0164864
845.255	0.0164930
845.333	0.0166209
845.411	0.0164702
845.489	0.0166409
845.567	0.0165781
845.646	0.0165027
845.724	0.0165335
845.802	0.0164635
845.880	0.0164708
845.958	0.0163764
846.036	0.0163801
846.114	0.0161521
846.192	0.0161206
846.271	0.0161913
846.349	0.0160217
846.427	0.0160793
846.505	0.0160148
846.583	0.0159908
846.661	0.0156096
846.739	0.0156399
846.817	0.0158644
846.896	0.0157197
846.974	0.0156400
847.052	0.0158289
847.130	0.0158544
847.208	0.0160172
847.286	0.0161757
847.364	0.0160748
847.442	0.0162506
847.521	0.0163153
847.599	0.0163103
847.677	0.0165085
847.755	0.0165372
847.833	0.0164876
847.911	0.0165566
847.989	0.0165491
848.067	0.0165094
848.146	0.0166058
848.224	0.0165619
848.302	0.0166800
848.380	0.0165849
848.458	0.0164260
848.536	0.0162517
848.614	0.0161090
848.692	0.0160532
848.771	0.0161407
848.849	0.0159407
848.927	0.0158051
849.005	0.0157692
849.083	0.0157647
849.161	0.0158327
849.239	0.0157269
849.317	0.0157700
849.396	0.0158001
849.474	0.0158722
849.552	0.0160709
849.630	0.0160314
849.708	0.0160133
849.786	0.0161269
849.864	0.0161703
849.942	0.0161550
850.021	0.0163406
850.099	0.0164971
850.177	0.0164366
850.255	0.0164375
850.333	0.0167945
850.411	0.0168069
850.489	0.0168315
850.567	0.0169185
850.646	0.0168408
850.724	0.0169141
850.802	0.0169196
850.880	0.0169373
850.958	0.0169789
851.036	0.0167503
851.114	0.0167638
851.192	0.0168583
851.271	0.0165804
851.349	0.0166511
851.427	0.0164201
851.505	0.0162805
851.583	0.0160390
851.661	0.0159652
851.739	0.0159817
851.817	0.0159082
851.896	0.0156838
851.974	0.0155884
852.052	0.0156287
852.130	0.0154890
852.208	0.0156618
852.286	0.0154718
852.364	0.0155922
852.442	0.0156110
852.521	0.0156201
852.599	0.0157846
852.677	0.0158858
852.755	0.0158766
852.833	0.0161263
852.911	0.0163385
852.989	0.0164508
853.067	0.0165734
853.146	0.0166925
853.224	0.0167915
853.302	0.0168212
853.380	0.0168974
853.458	0.0168787
853.536	0.0169035
853.614	0.0169092
853.692	0.0169408
853.771	0.0170241
853.849	0.0169296
853.927	0.0168086
854.005	0.0167978
854.083	0.0166573
854.161	0.0165629
854.239	0.0163728
854.317	0.0163811
854.396	0.0160620
854.474	0.0157755
854.552	0.0158057
854.630	0.0155518
854.708	0.0155234
854.786	0.0154774
854.864	0.0154767
854.942	0.0152726
855.021	0.0152842
855.099	0.0152670
855.177	0.0151708
855.255	0.0152557
855.333	0.0154373
855.411	0.0152888
855.489	0.0154774
855.567	0.0155931
855.646	0.0157699
855.724	0.0158816
855.802	0.0161233
855.880	0.0161292
855.958	0.0163525
856.036	0.0164613
856.114	0.0165746
856.192	0.0166756
856.271	0.0167429
856.349	0.0169873
856.427	0.0169642
856.505	0.0169309
856.583	0.0169524
856.661	0.0169656
856.739	0.0170454
856.817	0.0169204
856.896	0.0169981
856.974	0.0168345
857.052	0.0168330
857.130	0.0167924
857.208	0.0167649
857.286	0.0167056
857.364	0.0166512
857.442	0.0166527
857.521	0.0165403
857.599	0.0165270
857.677	0.0163293
857.755	0.0162302
857.833	0.0163833
857.911	0.0162560
857.989	0.0160798
858.067	0.0160000
858.146	0.0159943
858.224	0.0159229
858.302	0.0159061
858.380	0.0159650
858.458	0.0156927
858.536	0.0156515
858.614	0.0158377
858.692	0.0157858
858.771	0.0157692
858.849	0.0158135
858.927	0.0159457
859.005	0.0159246
859.083	0.0159304
859.161	0.0161288
859.239	0.0161166
859.317	0.0162237
859.396	0.0162076
859.474	0.0163329
859.552	0.0163689
859.630	0.0163657
859.708	0.0163294
859.786	0.0164312
859.864	0.0164921
859.942	0.0165570
860.021	0.0163097
860.099	0.0164237
860.177	0.0162930
860.255	0.0163008
860.333	0.0162781
860.411	0.0162299
860.489	0.0162185
860.567	0.0159516
860.646	0.0161049
860.724	0.0160299
860.802	0.0160091
860.880	0.0158948
860.958	0.0158862
861.036	0.0159927
861.114	0.0159773
861.192	0.0159845
861.271	0.0159300
861.349	0.0159828
861.427	0.0159921
861.505	0.0160876
861.583	0.0161162
861.661	0.0161454
861.739	0.0164883
861.817	0.0164261
861.896	0.0164709
861.974	0.0165908
862.052	0.0165887
862.130	0.0164941
862.208	0.0166673
862.286	0.0167188
862.364	0.0166643
862.442	0.0166959
862.521	0.0169089
862.599	0.0166676
862.677	0.0167094
862.755	0.0167731
862.833	0.0166325
862.911	0.0166474
862.989	0.0166247
863.067	0.0166288
863.146	0.0165595
863.224	0.0163791
863.302	0.0164515
863.380	0.0161852
863.458	0.0162854
863.536	0.0160352
863.614	0.0160299
863.692	0.0160806
863.771	0.0161977
863.849	0.0160915
863.927	0.0160677
864.005	0.0161411
864.083	0.0161530
864.161	0.0160649
864.239	0.0162206
864.317	0.0162349
864.396	0.0161532
864.474	0.0161366
864.552	0.0162581
864.630	0.0160898
864.708	0.0162677
864.786	0.0160497
864.864	0.0161141
864.942	0.0160916
865.021	0.0160724
865.099	0.0162217
865.177	0.0161443
865.255	0.0161504
865.333	0.0160921
865.411	0.0162490
865.489	0.0162435
865.567	0.0162318
865.646	0.0161620
865.724	0.0160863
865.802	0.0162685
865.880	0.0163184
865.958	0.0162678
866.036	0.0163141
866.114	0.0165797
866.192	0.0164486
866.271	0.0163933
866.349	0.0162223
866.427	0.0164678
866.505	0.0164942
866.583	0.0163766
866.661	0.0164065
866.739	0.0164179
866.817	0.0163844
866.896	0.0163017
866.974	0.0162255
867.052	0.0161426
867.130	0.0161299
867.208	0.0160355
867.286	0.0160008
867.364	0.0159350
867.442	0.0157602
867.521	0.0159953
867.599	0.0158633
867.677	0.0157584
867.755	0.0158464
867.833	0.0158707
867.911	0.0159224
867.989	0.0160312
868.067	0.0160215
868.146	0.0159953
868.224	0.0161110
868.302	0.0160307
868.380	0.0161998
868.458	0.0163864
868.536	0.0162378
868.614	0.0164449
868.692	0.0163996
868.771	0.0165867
868.849	0.0164510
868.927	0.0165043
869.005	0.0164709
869.083	0.0165301
869.161	0.0166456
869.239	0.0165686
869.317	0.0165390
869.396	0.0165406
869.474	0.0164962
869.552	0.0165395
869.630	0.0165102
869.708	0.0165227
869.786	0.0164162
869.864	0.0164192
869.942	0.0163014
