06/10/2022	16:18:42	Ver.	4.1	UNKNOWN
Optical Delay	599.995081	Delta X		0.078125	Sweeps	1	Scan Rate	0/0
Coordinates	Axis 1	NaN	Axis 2	NaN	Axis 3	NaN	Axis 4	NaN	Axis 5	NaN	Axis 6	0.000000
TX Power	0.000000	RX Power	0.000000

599.995	0.0164948
600.073	0.0164621
600.151	0.0167009
600.229	0.0164253
600.308	0.0164289
600.386	0.0165272
600.464	0.0164999
600.542	0.0164842
600.620	0.0166125
600.698	0.0165018
600.776	0.0164701
600.854	0.0164573
600.933	0.0163869
601.011	0.0165572
601.089	0.0164424
601.167	0.0164763
601.245	0.0164392
601.323	0.0165884
601.401	0.0164932
601.479	0.0164009
601.558	0.0165458
601.636	0.0165189
601.714	0.0165267
601.792	0.0164477
601.870	0.0163567
601.948	0.0164372
602.026	0.0165249
602.104	0.0164784
602.183	0.0164462
602.261	0.0164113
602.339	0.0165137
602.417	0.0164706
602.495	0.0164340
602.573	0.0164361
602.651	0.0163556
602.729	0.0166096
602.808	0.0165270
602.886	0.0163999
602.964	0.0164984
603.042	0.0165347
603.120	0.0163005
603.198	0.0165366
603.276	0.0164809
603.354	0.0164498
603.433	0.0164547
603.511	0.0165881
603.589	0.0163885
603.667	0.0164130
603.745	0.0165263
603.823	0.0165749
603.901	0.0165664
603.979	0.0163895
604.058	0.0164828
604.136	0.0165737
604.214	0.0164808
604.292	0.0166595
604.370	0.0164582
604.448	0.0162633
604.526	0.0165841
604.604	0.0164934
604.683	0.0165015
604.761	0.0164748
604.839	0.0164340
604.917	0.0164758
604.995	0.0165330
605.073	0.0164939
605.151	0.0166480
605.229	0.0165746
605.308	0.0166102
605.386	0.0165904
605.464	0.0165566
605.542	0.0165817
605.620	0.0165914
605.698	0.0164770
605.776	0.0166425
605.854	0.0165511
605.933	0.0165165
606.011	0.0165965
606.089	0.0165361
606.167	0.0164142
606.245	0.0164791
606.323	0.0164619
606.401	0.0164970
606.479	0.0163701
606.558	0.0165183
606.636	0.0164976
606.714	0.0166706
606.792	0.0165254
606.870	0.0165407
606.948	0.0163466
607.026	0.0164140
607.104	0.0164686
607.183	0.0164983
607.261	0.0164521
607.339	0.0165709
607.417	0.0163650
607.495	0.0164569
607.573	0.0165907
607.651	0.0164012
607.729	0.0163998
607.808	0.0164423
607.886	0.0164237
607.964	0.0164380
608.042	0.0165141
608.120	0.0165682
608.198	0.0164538
608.276	0.0165221
608.354	0.0164064
608.433	0.0163654
608.511	0.0165083
608.589	0.0164953
608.667	0.0165652
608.745	0.0165458
608.823	0.0162857
608.901	0.0164394
608.979	0.0165031
609.058	0.0165434
609.136	0.0165314
609.214	0.0165439
609.292	0.0164400
609.370	0.0164842
609.448	0.0165063
609.526	0.0163929
609.604	0.0164670
609.683	0.0165565
609.761	0.0164531
609.839	0.0164581
609.917	0.0163443
609.995	0.0164796
610.073	0.0164363
610.151	0.0163611
610.229	0.0164093
610.308	0.0164770
610.386	0.0165047
610.464	0.0166532
610.542	0.0164821
610.620	0.0163699
610.698	0.0164427
610.776	0.0164116
610.854	0.0165445
610.933	0.0165479
611.011	0.0164725
611.089	0.0164684
611.167	0.0164043
611.245	0.0165089
611.323	0.0162889
611.401	0.0163010
611.479	0.0165369
611.558	0.0166016
611.636	0.0164531
611.714	0.0164983
611.792	0.0165694
611.870	0.0165084
611.948	0.0165038
612.026	0.0164692
612.104	0.0164291
612.183	0.0165165
612.261	0.0163857
612.339	0.0165554
612.417	0.0164159
612.495	0.0164224
612.573	0.0164624
612.651	0.0164715
612.729	0.0164614
612.808	0.0164056
612.886	0.0164314
612.964	0.0165615
613.042	0.0165460
613.120	0.0165211
613.198	0.0165051
613.276	0.0164377
613.354	0.0164310
613.433	0.0165432
613.511	0.0164410
613.589	0.0163878
613.667	0.0165099
613.745	0.0165171
613.823	0.0164858
613.901	0.0165015
613.979	0.0165977
614.058	0.0164771
614.136	0.0164330
614.214	0.0163785
614.292	0.0164192
614.370	0.0164911
614.448	0.0164648
614.526	0.0163788
614.604	0.0163886
614.683	0.0163814
614.761	0.0164115
614.839	0.0165934
614.917	0.0164063
614.995	0.0163927
615.073	0.0163999
615.151	0.0164635
615.229	0.0164941
615.308	0.0164913
615.386	0.0165287
615.464	0.0164977
615.542	0.0163894
615.620	0.0163760
615.698	0.0165226
615.776	0.0164797
615.854	0.0164017
615.933	0.0163180
616.011	0.0163537
616.089	0.0165083
616.167	0.0166207
616.245	0.0165499
616.323	0.0164747
616.401	0.0165250
616.479	0.0164680
616.558	0.0164207
616.636	0.0162935
616.714	0.0164948
616.792	0.0165054
616.870	0.0164756
616.948	0.0163748
617.026	0.0163964
617.104	0.0164466
617.183	0.0164704
617.261	0.0164534
617.339	0.0164895
617.417	0.0165150
617.495	0.0165847
617.573	0.0164680
617.651	0.0163969
617.729	0.0164642
617.808	0.0164606
617.886	0.0162878
617.964	0.0164153
618.042	0.0163940
618.120	0.0164992
618.198	0.0165099
618.276	0.0164374
618.354	0.0164143
618.433	0.0164266
618.511	0.0166516
618.589	0.0165538
618.667	0.0165074
618.745	0.0165288
618.823	0.0164398
618.901	0.0163673
618.979	0.0164816
619.058	0.0165417
619.136	0.0165334
619.214	0.0164281
619.292	0.0165057
619.370	0.0164717
619.448	0.0164249
619.526	0.0164059
619.604	0.0164168
619.683	0.0165491
619.761	0.0164594
619.839	0.0164637
619.917	0.0164124
619.995	0.0164892
620.073	0.0164173
620.151	0.0164846
620.229	0.0164666
620.308	0.0165382
620.386	0.0164857
620.464	0.0165092
620.542	0.0164959
620.620	0.0164240
620.698	0.0164325
620.776	0.0165025
620.854	0.0164151
620.933	0.0163966
621.011	0.0164531
621.089	0.0164064
621.167	0.0165506
621.245	0.0164768
621.323	0.0164599
621.401	0.0164688
621.479	0.0164541
621.558	0.0165722
621.636	0.0163817
621.714	0.0163818
621.792	0.0164574
621.870	0.0164981
621.948	0.0164478
622.026	0.0162698
622.104	0.0163419
622.183	0.0165908
622.261	0.0165658
622.339	0.0165205
622.417	0.0164174
622.495	0.0163818
622.573	0.0163560
622.651	0.0164326
622.729	0.0164715
622.808	0.0163376
622.886	0.0165190
622.964	0.0165408
623.042	0.0164310
623.120	0.0164701
623.198	0.0165134
623.276	0.0164576
623.354	0.0164426
623.433	0.0164884
623.511	0.0164915
623.589	0.0162979
623.667	0.0164845
623.745	0.0166380
623.823	0.0164961
623.901	0.0164822
623.979	0.0164595
624.058	0.0164798
624.136	0.0164899
624.214	0.0165138
624.292	0.0165899
624.370	0.0165261
624.448	0.0164497
624.526	0.0164142
624.604	0.0164619
624.683	0.0163400
624.761	0.0165242
624.839	0.0164323
624.917	0.0164350
624.995	0.0165059
625.073	0.0164453
625.151	0.0164628
625.229	0.0164523
625.308	0.0164829
625.386	0.0165141
625.464	0.0165939
625.542	0.0163702
625.620	0.0164373
625.698	0.0164524
625.776	0.0165517
625.854	0.0164091
625.933	0.0163836
626.011	0.0166235
626.089	0.0164557
626.167	0.0165936
626.245	0.0164252
626.323	0.0164053
626.401	0.0164192
626.479	0.0164359
626.558	0.0164381
626.636	0.0165073
626.714	0.0164923
626.792	0.0164687
626.870	0.0164806
626.948	0.0165629
627.026	0.0165117
627.104	0.0164561
627.183	0.0165006
627.261	0.0164581
627.339	0.0164858
627.417	0.0164790
627.495	0.0165271
627.573	0.0166193
627.651	0.0164928
627.729	0.0164870
627.808	0.0164678
627.886	0.0165385
627.964	0.0164604
628.042	0.0165212
628.120	0.0164867
628.198	0.0165015
628.276	0.0164752
628.354	0.0164029
628.433	0.0165005
628.511	0.0164633
628.589	0.0165112
628.667	0.0164916
628.745	0.0163754
628.823	0.0163257
628.901	0.0165432
628.979	0.0164466
629.058	0.0163652
629.136	0.0164185
629.214	0.0164223
629.292	0.0164581
629.370	0.0164206
629.448	0.0164012
629.526	0.0165476
629.604	0.0164941
629.683	0.0165743
629.761	0.0164879
629.839	0.0163094
629.917	0.0163920
629.995	0.0164384
630.073	0.0165237
630.151	0.0163252
630.229	0.0164059
630.308	0.0164674
630.386	0.0164386
630.464	0.0165790
630.542	0.0163856
630.620	0.0164880
630.698	0.0163796
630.776	0.0164869
630.854	0.0165132
630.933	0.0164101
631.011	0.0164321
631.089	0.0166791
631.167	0.0165697
631.245	0.0164052
631.323	0.0165228
631.401	0.0164239
631.479	0.0164990
631.558	0.0164822
631.636	0.0164461
631.714	0.0164773
631.792	0.0164745
631.870	0.0164355
631.948	0.0164571
632.026	0.0163945
632.104	0.0163728
632.183	0.0164821
632.261	0.0165077
632.339	0.0165690
632.417	0.0165399
632.495	0.0164833
632.573	0.0164975
632.651	0.0164299
632.729	0.0163326
632.808	0.0164453
632.886	0.0164425
632.964	0.0164078
633.042	0.0165638
633.120	0.0166221
633.198	0.0166080
633.276	0.0164068
633.354	0.0164883
633.433	0.0165174
633.511	0.0164349
633.589	0.0165630
633.667	0.0164067
633.745	0.0165380
633.823	0.0166016
633.901	0.0164425
633.979	0.0163334
634.058	0.0164947
634.136	0.0163486
634.214	0.0163261
634.292	0.0165279
634.370	0.0164564
634.448	0.0163327
634.526	0.0165028
634.604	0.0164669
634.683	0.0164344
634.761	0.0165384
634.839	0.0166459
634.917	0.0164869
634.995	0.0163258
635.073	0.0164405
635.151	0.0165121
635.229	0.0164746
635.308	0.0165234
635.386	0.0164359
635.464	0.0163467
635.542	0.0166119
635.620	0.0166378
635.698	0.0164579
635.776	0.0164705
635.854	0.0165229
635.933	0.0164926
636.011	0.0164432
636.089	0.0165047
636.167	0.0164761
636.245	0.0165278
636.323	0.0164457
636.401	0.0165320
636.479	0.0165558
636.558	0.0164867
636.636	0.0166209
636.714	0.0165397
636.792	0.0165736
636.870	0.0164542
636.948	0.0165167
637.026	0.0165381
637.104	0.0165396
637.183	0.0165040
637.261	0.0165342
637.339	0.0165012
637.417	0.0163847
637.495	0.0164266
637.573	0.0164415
637.651	0.0165196
637.729	0.0164489
637.808	0.0165217
637.886	0.0164709
637.964	0.0165206
638.042	0.0166344
638.120	0.0165563
638.198	0.0164166
638.276	0.0164574
638.354	0.0164957
638.433	0.0164834
638.511	0.0163514
638.589	0.0164067
638.667	0.0163943
638.745	0.0164042
638.823	0.0163818
638.901	0.0164680
638.979	0.0164529
639.058	0.0164307
639.136	0.0164405
639.214	0.0163660
639.292	0.0164185
639.370	0.0164346
639.448	0.0164368
639.526	0.0164689
639.604	0.0164086
639.683	0.0163892
639.761	0.0164074
639.839	0.0165213
639.917	0.0165641
639.995	0.0164996
640.073	0.0165603
640.151	0.0163847
640.229	0.0164227
640.308	0.0164503
640.386	0.0164458
640.464	0.0165923
640.542	0.0165037
640.620	0.0164489
640.698	0.0163428
640.776	0.0164796
640.854	0.0165263
640.933	0.0164023
641.011	0.0163528
641.089	0.0166212
641.167	0.0165335
641.245	0.0164576
641.323	0.0164752
641.401	0.0164080
641.479	0.0165850
641.558	0.0164708
641.636	0.0163922
641.714	0.0164652
641.792	0.0163995
641.870	0.0163664
641.948	0.0164661
642.026	0.0164751
642.104	0.0165415
642.183	0.0165537
642.261	0.0165633
642.339	0.0164281
642.417	0.0163760
642.495	0.0164690
642.573	0.0164178
642.651	0.0163737
642.729	0.0165028
642.808	0.0164338
642.886	0.0164688
642.964	0.0163909
643.042	0.0164488
643.120	0.0165983
643.198	0.0164816
643.276	0.0165112
643.354	0.0164439
643.433	0.0165183
643.511	0.0163387
643.589	0.0165268
643.667	0.0165285
643.745	0.0164048
643.823	0.0164682
643.901	0.0164428
643.979	0.0164787
644.058	0.0164687
644.136	0.0164955
644.214	0.0164415
644.292	0.0165637
644.370	0.0163548
644.448	0.0164170
644.526	0.0164461
644.604	0.0164493
644.683	0.0164285
644.761	0.0165787
644.839	0.0163278
644.917	0.0164561
644.995	0.0163935
645.073	0.0165406
645.151	0.0164680
645.229	0.0164944
645.308	0.0164467
645.386	0.0165710
645.464	0.0164741
645.542	0.0163373
645.620	0.0164857
645.698	0.0164552
645.776	0.0164642
645.854	0.0164006
645.933	0.0164091
646.011	0.0165101
646.089	0.0164240
646.167	0.0164269
646.245	0.0164083
646.323	0.0166078
646.401	0.0164522
646.479	0.0165172
646.558	0.0165380
646.636	0.0165086
646.714	0.0165096
646.792	0.0164780
646.870	0.0163936
646.948	0.0164444
647.026	0.0165839
647.104	0.0164323
647.183	0.0164672
647.261	0.0164961
647.339	0.0163420
647.417	0.0163682
647.495	0.0164287
647.573	0.0164770
647.651	0.0164909
647.729	0.0164621
647.808	0.0164215
647.886	0.0163502
647.964	0.0164508
648.042	0.0164520
648.120	0.0164339
648.198	0.0165281
648.276	0.0164964
648.354	0.0164087
648.433	0.0164430
648.511	0.0164180
648.589	0.0166535
648.667	0.0163505
648.745	0.0166352
648.823	0.0163254
648.901	0.0164738
648.979	0.0163524
649.058	0.0166105
649.136	0.0164748
649.214	0.0164323
649.292	0.0165252
649.370	0.0165121
649.448	0.0165115
649.526	0.0164397
649.604	0.0164336
649.683	0.0164474
649.761	0.0164797
649.839	0.0164158
649.917	0.0164115
649.995	0.0164355
650.073	0.0163630
650.151	0.0166197
650.229	0.0164725
650.308	0.0164560
650.386	0.0164674
650.464	0.0165609
650.542	0.0164905
650.620	0.0164507
650.698	0.0165752
650.776	0.0163028
650.854	0.0164969
650.933	0.0165009
651.011	0.0164890
651.089	0.0164565
651.167	0.0164494
651.245	0.0166176
651.323	0.0165258
651.401	0.0164372
651.479	0.0165137
651.558	0.0165157
651.636	0.0165983
651.714	0.0165702
651.792	0.0163255
651.870	0.0164017
651.948	0.0164295
652.026	0.0165367
652.104	0.0164233
652.183	0.0165710
652.261	0.0164991
652.339	0.0163364
652.417	0.0164014
652.495	0.0165120
652.573	0.0165013
652.651	0.0164306
652.729	0.0163944
652.808	0.0165067
652.886	0.0164412
652.964	0.0164373
653.042	0.0164354
653.120	0.0164471
653.198	0.0165245
653.276	0.0165779
653.354	0.0165257
653.433	0.0163657
653.511	0.0164587
653.589	0.0165090
653.667	0.0165046
653.745	0.0164048
653.823	0.0164816
653.901	0.0165892
653.979	0.0165457
654.058	0.0166061
654.136	0.0164677
654.214	0.0165946
654.292	0.0164314
654.370	0.0164699
654.448	0.0163988
654.526	0.0163649
654.604	0.0165041
654.683	0.0165640
654.761	0.0164620
654.839	0.0165367
654.917	0.0164162
654.995	0.0163801
655.073	0.0163889
655.151	0.0164240
655.229	0.0164836
655.308	0.0163781
655.386	0.0165157
655.464	0.0165240
655.542	0.0164323
655.620	0.0164201
655.698	0.0165473
655.776	0.0165520
655.854	0.0165603
655.933	0.0165317
656.011	0.0164740
656.089	0.0164674
656.167	0.0163924
656.245	0.0164604
656.323	0.0166048
656.401	0.0164258
656.479	0.0165128
656.558	0.0164124
656.636	0.0165530
656.714	0.0164649
656.792	0.0164474
656.870	0.0165180
656.948	0.0165274
657.026	0.0163976
657.104	0.0164130
657.183	0.0165466
657.261	0.0163830
657.339	0.0164978
657.417	0.0163236
657.495	0.0163689
657.573	0.0166116
657.651	0.0164687
657.729	0.0165490
657.808	0.0164665
657.886	0.0164722
657.964	0.0163931
658.042	0.0164857
658.120	0.0164368
658.198	0.0164728
658.276	0.0166024
658.354	0.0163264
658.433	0.0163842
658.511	0.0166105
658.589	0.0165446
658.667	0.0164494
658.745	0.0164606
658.823	0.0165489
658.901	0.0165266
658.979	0.0164351
659.058	0.0164584
659.136	0.0165099
659.214	0.0164933
659.292	0.0163222
659.370	0.0163766
659.448	0.0164704
659.526	0.0165626
659.604	0.0164967
659.683	0.0163590
659.761	0.0164574
659.839	0.0163390
659.917	0.0165227
659.995	0.0165613
660.073	0.0165305
660.151	0.0163895
660.229	0.0163754
660.308	0.0165855
660.386	0.0164951
660.464	0.0164135
660.542	0.0164786
660.620	0.0164544
660.698	0.0163884
660.776	0.0164668
660.854	0.0164141
660.933	0.0164725
661.011	0.0164149
661.089	0.0164505
661.167	0.0164574
661.245	0.0164342
661.323	0.0164091
661.401	0.0164394
661.479	0.0165204
661.558	0.0166233
661.636	0.0163918
661.714	0.0164400
661.792	0.0164540
661.870	0.0164491
661.948	0.0163925
662.026	0.0164530
662.104	0.0164150
662.183	0.0164735
662.261	0.0164938
662.339	0.0164415
662.417	0.0164548
662.495	0.0165066
662.573	0.0164117
662.651	0.0163738
662.729	0.0166319
662.808	0.0163902
662.886	0.0163602
662.964	0.0164839
663.042	0.0165546
663.120	0.0164142
663.198	0.0164092
663.276	0.0164356
663.354	0.0164605
663.433	0.0163766
663.511	0.0164315
663.589	0.0164381
663.667	0.0165289
663.745	0.0163609
663.823	0.0165275
663.901	0.0164490
663.979	0.0165058
664.058	0.0164610
664.136	0.0165495
664.214	0.0164809
664.292	0.0164277
664.370	0.0164178
664.448	0.0165459
664.526	0.0164478
664.604	0.0164040
664.683	0.0164001
664.761	0.0164981
664.839	0.0165108
664.917	0.0164886
664.995	0.0164241
665.073	0.0165333
665.151	0.0165108
665.229	0.0164239
665.308	0.0164442
665.386	0.0164609
665.464	0.0164709
665.542	0.0164709
665.620	0.0164971
665.698	0.0165199
665.776	0.0163430
665.854	0.0164780
665.933	0.0166141
666.011	0.0165298
666.089	0.0164741
666.167	0.0166089
666.245	0.0164855
666.323	0.0164640
666.401	0.0163425
666.479	0.0165012
666.558	0.0164426
666.636	0.0166665
666.714	0.0163624
666.792	0.0163291
666.870	0.0164956
666.948	0.0164729
667.026	0.0165269
667.104	0.0164636
667.183	0.0165827
667.261	0.0164638
667.339	0.0164020
667.417	0.0164008
667.495	0.0164570
667.573	0.0165054
667.651	0.0165875
667.729	0.0165935
667.808	0.0166569
667.886	0.0166381
667.964	0.0164697
668.042	0.0164281
668.120	0.0165389
668.198	0.0163899
668.276	0.0163679
668.354	0.0164993
668.433	0.0164232
668.511	0.0164380
668.589	0.0163555
668.667	0.0165156
668.745	0.0164737
668.823	0.0164854
668.901	0.0165435
668.979	0.0164892
669.058	0.0163689
669.136	0.0162085
669.214	0.0164487
669.292	0.0165670
669.370	0.0165226
669.448	0.0163667
669.526	0.0165543
669.604	0.0165496
669.683	0.0164175
669.761	0.0165071
669.839	0.0163723
669.917	0.0163880
669.995	0.0164999
670.073	0.0165748
670.151	0.0165435
670.229	0.0163721
670.308	0.0163739
670.386	0.0165296
670.464	0.0164824
670.542	0.0163251
670.620	0.0165108
670.698	0.0165646
670.776	0.0165021
670.854	0.0163168
670.933	0.0164667
671.011	0.0165838
671.089	0.0163417
671.167	0.0165278
671.245	0.0164465
671.323	0.0164439
671.401	0.0165475
671.479	0.0164342
671.558	0.0163927
671.636	0.0165631
671.714	0.0164740
671.792	0.0165862
671.870	0.0164619
671.948	0.0164484
672.026	0.0164310
672.104	0.0165965
672.183	0.0164558
672.261	0.0163967
672.339	0.0166559
672.417	0.0164468
672.495	0.0165248
672.573	0.0163878
672.651	0.0162767
672.729	0.0165393
672.808	0.0163432
672.886	0.0164650
672.964	0.0164487
673.042	0.0164898
673.120	0.0163022
673.198	0.0165318
673.276	0.0165105
673.354	0.0164805
673.433	0.0165292
673.511	0.0163183
673.589	0.0163184
673.667	0.0164549
673.745	0.0165094
673.823	0.0165388
673.901	0.0164372
673.979	0.0165459
674.058	0.0165050
674.136	0.0165174
674.214	0.0162847
674.292	0.0164622
674.370	0.0165560
674.448	0.0164828
674.526	0.0165218
674.604	0.0165400
674.683	0.0163384
674.761	0.0163817
674.839	0.0164220
674.917	0.0164151
674.995	0.0164101
675.073	0.0165955
675.151	0.0163360
675.229	0.0164425
675.308	0.0164732
675.386	0.0166115
675.464	0.0165256
675.542	0.0165421
675.620	0.0164151
675.698	0.0163798
675.776	0.0165038
675.854	0.0164551
675.933	0.0164578
676.011	0.0165266
676.089	0.0165860
676.167	0.0164259
676.245	0.0165865
676.323	0.0164314
676.401	0.0164946
676.479	0.0162770
676.558	0.0164239
676.636	0.0164307
676.714	0.0164811
676.792	0.0164176
676.870	0.0165226
676.948	0.0163833
677.026	0.0165902
677.104	0.0164615
677.183	0.0164035
677.261	0.0164348
677.339	0.0164082
677.417	0.0165236
677.495	0.0164024
677.573	0.0164211
677.651	0.0164553
677.729	0.0164406
677.808	0.0163941
677.886	0.0165489
677.964	0.0164973
678.042	0.0163931
678.120	0.0163206
678.198	0.0165612
678.276	0.0165897
678.354	0.0164994
678.433	0.0164692
678.511	0.0164402
678.589	0.0165632
678.667	0.0165314
678.745	0.0164065
678.823	0.0165073
678.901	0.0164607
678.979	0.0165950
679.058	0.0165119
679.136	0.0163956
679.214	0.0163789
679.292	0.0164581
679.370	0.0164083
679.448	0.0164502
679.526	0.0164944
679.604	0.0164874
679.683	0.0164955
679.761	0.0164038
679.839	0.0164546
679.917	0.0164542
679.995	0.0163506
680.073	0.0164658
680.151	0.0165503
680.229	0.0163583
680.308	0.0163023
680.386	0.0164468
680.464	0.0162614
680.542	0.0164712
680.620	0.0164079
680.698	0.0162946
680.776	0.0164576
680.854	0.0164848
680.933	0.0163016
681.011	0.0165163
681.089	0.0165797
681.167	0.0164028
681.245	0.0164187
681.323	0.0164430
681.401	0.0164410
681.479	0.0164835
681.558	0.0165113
681.636	0.0165752
681.714	0.0165840
681.792	0.0163943
681.870	0.0164108
681.948	0.0165408
682.026	0.0164928
682.104	0.0163780
682.183	0.0163276
682.261	0.0164439
682.339	0.0163918
682.417	0.0163831
682.495	0.0164819
682.573	0.0164661
682.651	0.0165511
682.729	0.0163663
682.808	0.0164668
682.886	0.0163007
682.964	0.0164345
683.042	0.0164521
683.120	0.0163469
683.198	0.0164234
683.276	0.0164099
683.354	0.0165345
683.433	0.0164834
683.511	0.0164919
683.589	0.0163923
683.667	0.0164204
683.745	0.0165099
683.823	0.0165186
683.901	0.0163921
683.979	0.0165171
684.058	0.0165342
684.136	0.0164817
684.214	0.0165703
684.292	0.0164449
684.370	0.0164472
684.448	0.0164252
684.526	0.0163543
684.604	0.0165135
684.683	0.0164099
684.761	0.0166184
684.839	0.0165459
684.917	0.0165500
684.995	0.0164531
685.073	0.0164656
685.151	0.0165579
685.229	0.0165101
685.308	0.0164227
685.386	0.0164725
685.464	0.0166457
685.542	0.0165192
685.620	0.0165658
685.698	0.0164640
685.776	0.0165804
685.854	0.0165779
685.933	0.0166173
686.011	0.0163939
686.089	0.0164326
686.167	0.0164325
686.245	0.0162029
686.323	0.0165757
686.401	0.0165285
686.479	0.0164166
686.558	0.0164792
686.636	0.0163824
686.714	0.0163798
686.792	0.0164369
686.870	0.0165385
686.948	0.0166209
687.026	0.0163151
687.104	0.0163609
687.183	0.0165129
687.261	0.0164320
687.339	0.0164687
687.417	0.0164449
687.495	0.0164777
687.573	0.0164471
687.651	0.0164389
687.729	0.0164924
687.808	0.0164877
687.886	0.0163128
687.964	0.0164845
688.042	0.0164262
688.120	0.0164732
688.198	0.0165166
688.276	0.0164986
688.354	0.0164881
688.433	0.0163153
688.511	0.0164091
688.589	0.0164757
688.667	0.0164240
688.745	0.0164403
688.823	0.0162964
688.901	0.0164754
688.979	0.0164607
689.058	0.0165297
689.136	0.0164655
689.214	0.0164028
689.292	0.0165884
689.370	0.0164527
689.448	0.0165643
689.526	0.0165014
689.604	0.0164683
689.683	0.0165348
689.761	0.0165524
689.839	0.0164559
689.917	0.0164147
689.995	0.0164336
690.073	0.0164716
690.151	0.0164765
690.229	0.0164713
690.308	0.0164514
690.386	0.0165230
690.464	0.0164725
690.542	0.0164376
690.620	0.0165010
690.698	0.0163711
690.776	0.0164351
690.854	0.0164992
690.933	0.0163921
691.011	0.0163356
691.089	0.0162258
691.167	0.0165284
691.245	0.0164724
691.323	0.0163618
691.401	0.0163139
691.479	0.0165210
691.558	0.0164170
691.636	0.0165695
691.714	0.0165185
691.792	0.0164220
691.870	0.0165161
691.948	0.0165096
692.026	0.0164492
692.104	0.0164809
692.183	0.0163408
692.261	0.0163187
692.339	0.0164002
692.417	0.0165668
692.495	0.0163500
692.573	0.0163789
692.651	0.0165536
692.729	0.0167559
692.808	0.0164351
692.886	0.0163528
692.964	0.0165343
693.042	0.0165633
693.120	0.0165099
693.198	0.0165443
693.276	0.0164288
693.354	0.0166597
693.433	0.0164980
693.511	0.0165519
693.589	0.0165453
693.667	0.0165646
693.745	0.0165530
693.823	0.0165854
693.901	0.0163867
693.979	0.0164555
694.058	0.0164870
694.136	0.0165481
694.214	0.0164552
694.292	0.0166042
694.370	0.0165065
694.448	0.0164565
694.526	0.0164383
694.604	0.0165785
694.683	0.0166442
694.761	0.0165559
694.839	0.0165120
694.917	0.0164789
694.995	0.0164890
695.073	0.0165096
695.151	0.0163437
695.229	0.0165227
695.308	0.0165697
695.386	0.0164655
695.464	0.0164808
695.542	0.0164385
695.620	0.0163685
695.698	0.0165485
695.776	0.0163670
695.854	0.0163123
695.933	0.0163892
696.011	0.0163658
696.089	0.0164397
696.167	0.0164966
696.245	0.0164552
696.323	0.0164522
696.401	0.0164417
696.479	0.0166078
696.558	0.0164616
696.636	0.0165036
696.714	0.0164281
696.792	0.0163976
696.870	0.0165456
696.948	0.0164684
697.026	0.0165115
697.104	0.0164744
697.183	0.0164999
697.261	0.0165882
697.339	0.0166411
697.417	0.0164651
697.495	0.0165046
697.573	0.0166518
697.651	0.0164529
697.729	0.0165315
697.808	0.0163866
697.886	0.0165359
697.964	0.0164979
698.042	0.0164995
698.120	0.0164755
698.198	0.0163662
698.276	0.0164367
698.354	0.0164584
698.433	0.0165818
698.511	0.0165046
698.589	0.0164027
698.667	0.0164909
698.745	0.0165443
698.823	0.0165450
698.901	0.0165840
698.979	0.0164527
699.058	0.0165042
699.136	0.0166331
699.214	0.0164928
699.292	0.0165046
699.370	0.0165691
699.448	0.0164222
699.526	0.0163539
699.604	0.0164674
699.683	0.0165578
699.761	0.0163506
699.839	0.0164001
699.917	0.0165554
699.995	0.0166021
700.073	0.0164296
700.151	0.0164181
700.229	0.0163354
700.308	0.0163812
700.386	0.0165899
700.464	0.0163326
700.542	0.0164754
700.620	0.0164985
700.698	0.0164923
700.776	0.0164155
700.854	0.0165291
700.933	0.0163692
701.011	0.0162021
701.089	0.0165837
701.167	0.0164265
701.245	0.0165385
701.323	0.0165128
701.401	0.0164838
701.479	0.0164269
701.558	0.0163992
701.636	0.0165775
701.714	0.0163473
701.792	0.0164541
701.870	0.0164053
701.948	0.0164240
702.026	0.0165895
702.104	0.0164723
702.183	0.0164757
702.261	0.0164063
702.339	0.0163507
702.417	0.0165712
702.495	0.0164926
702.573	0.0164503
702.651	0.0164729
702.729	0.0165994
702.808	0.0165575
702.886	0.0162917
702.964	0.0164645
703.042	0.0163744
703.120	0.0164635
703.198	0.0163395
703.276	0.0164765
703.354	0.0164838
703.433	0.0164521
703.511	0.0164664
703.589	0.0164915
703.667	0.0163525
703.745	0.0164263
703.823	0.0164532
703.901	0.0163845
703.979	0.0164526
704.058	0.0165221
704.136	0.0163779
704.214	0.0163855
704.292	0.0165206
704.370	0.0165541
704.448	0.0164504
704.526	0.0163766
704.604	0.0165164
704.683	0.0165233
704.761	0.0164597
704.839	0.0164601
704.917	0.0164767
704.995	0.0166135
705.073	0.0165009
705.151	0.0165282
705.229	0.0162389
705.308	0.0164116
705.386	0.0164459
705.464	0.0164625
705.542	0.0165177
705.620	0.0163398
705.698	0.0165573
705.776	0.0165133
705.854	0.0164568
705.933	0.0164405
706.011	0.0164373
706.089	0.0163892
706.167	0.0164856
706.245	0.0164328
706.323	0.0165502
706.401	0.0163753
706.479	0.0163267
706.558	0.0165227
706.636	0.0164908
706.714	0.0165715
706.792	0.0164696
706.870	0.0165077
706.948	0.0164274
707.026	0.0164774
707.104	0.0164307
707.183	0.0163277
707.261	0.0164617
707.339	0.0164672
707.417	0.0164688
707.495	0.0166026
707.573	0.0164801
707.651	0.0165662
707.729	0.0163933
707.808	0.0164827
707.886	0.0163860
707.964	0.0165273
708.042	0.0164379
708.120	0.0165351
708.198	0.0165259
708.276	0.0163152
708.354	0.0164210
708.433	0.0164115
708.511	0.0164881
708.589	0.0165343
708.667	0.0163962
708.745	0.0164809
708.823	0.0164600
708.901	0.0164314
708.979	0.0165041
709.058	0.0163771
709.136	0.0164581
709.214	0.0164373
709.292	0.0163903
709.370	0.0164820
709.448	0.0164855
709.526	0.0164894
709.604	0.0164429
709.683	0.0165195
709.761	0.0164742
709.839	0.0164336
709.917	0.0164041
709.995	0.0164591
710.073	0.0165122
710.151	0.0163883
710.229	0.0164181
710.308	0.0164622
710.386	0.0166341
710.464	0.0165068
710.542	0.0165572
710.620	0.0165304
710.698	0.0165203
710.776	0.0165636
710.854	0.0164619
710.933	0.0164410
711.011	0.0164188
711.089	0.0165495
711.167	0.0165135
711.245	0.0165238
711.323	0.0165575
711.401	0.0164474
711.479	0.0164414
711.558	0.0163678
711.636	0.0165451
711.714	0.0164729
711.792	0.0165270
711.870	0.0164694
711.948	0.0163978
712.026	0.0164732
712.104	0.0165582
712.183	0.0164921
712.261	0.0165657
712.339	0.0166765
712.417	0.0165748
712.495	0.0165484
712.573	0.0165366
712.651	0.0165551
712.729	0.0163304
712.808	0.0165800
712.886	0.0164345
712.964	0.0165517
713.042	0.0163860
713.120	0.0164082
713.198	0.0164384
713.276	0.0164560
713.354	0.0164594
713.433	0.0164315
713.511	0.0166342
713.589	0.0165731
713.667	0.0164944
713.745	0.0164643
713.823	0.0165189
713.901	0.0165586
713.979	0.0164666
714.058	0.0163715
714.136	0.0165997
714.214	0.0164778
714.292	0.0164769
714.370	0.0166219
714.448	0.0165340
714.526	0.0164826
714.604	0.0164606
714.683	0.0164648
714.761	0.0166598
714.839	0.0165200
714.917	0.0162852
714.995	0.0165486
715.073	0.0166250
715.151	0.0164088
715.229	0.0165034
715.308	0.0165372
715.386	0.0163583
715.464	0.0163889
715.542	0.0163673
715.620	0.0164478
715.698	0.0166103
715.776	0.0167044
715.854	0.0165993
715.933	0.0165815
716.011	0.0164236
716.089	0.0164431
716.167	0.0164305
716.245	0.0165927
716.323	0.0164748
716.401	0.0164758
716.479	0.0164909
716.558	0.0164431
716.636	0.0165394
716.714	0.0164957
716.792	0.0165129
716.870	0.0164275
716.948	0.0164860
717.026	0.0164568
717.104	0.0163477
717.183	0.0164476
717.261	0.0164296
717.339	0.0163998
717.417	0.0164471
717.495	0.0164590
717.573	0.0165377
717.651	0.0163712
717.729	0.0163206
717.808	0.0164014
717.886	0.0163323
717.964	0.0164716
718.042	0.0165225
718.120	0.0164213
718.198	0.0165616
718.276	0.0164890
718.354	0.0164138
718.433	0.0164825
718.511	0.0165412
718.589	0.0164429
718.667	0.0164622
718.745	0.0164584
718.823	0.0164288
718.901	0.0164507
718.979	0.0164738
719.058	0.0163992
719.136	0.0165279
719.214	0.0164470
719.292	0.0165506
719.370	0.0164227
719.448	0.0164024
719.526	0.0164365
719.604	0.0164792
719.683	0.0165105
719.761	0.0165266
719.839	0.0164336
719.917	0.0165813
719.995	0.0165014
720.073	0.0164811
720.151	0.0164735
720.229	0.0164756
720.308	0.0164500
720.386	0.0164208
720.464	0.0164835
720.542	0.0164838
720.620	0.0165995
720.698	0.0165149
720.776	0.0164581
720.854	0.0163142
720.933	0.0165717
721.011	0.0164389
721.089	0.0164595
721.167	0.0164381
721.245	0.0163630
721.323	0.0164936
721.401	0.0165011
721.479	0.0165324
721.558	0.0164873
721.636	0.0164986
721.714	0.0165411
721.792	0.0165816
721.870	0.0164480
721.948	0.0164838
722.026	0.0164231
722.104	0.0165038
722.183	0.0164380
722.261	0.0163986
722.339	0.0166096
722.417	0.0165528
722.495	0.0164711
722.573	0.0163309
722.651	0.0165031
722.729	0.0164540
722.808	0.0165135
722.886	0.0163892
722.964	0.0165948
723.042	0.0164808
723.120	0.0164812
723.198	0.0163903
723.276	0.0164379
723.354	0.0164890
723.433	0.0164316
723.511	0.0165422
723.589	0.0165210
723.667	0.0164796
723.745	0.0166398
723.823	0.0165173
723.901	0.0164124
723.979	0.0165557
724.058	0.0166042
724.136	0.0166156
724.214	0.0164769
724.292	0.0165781
724.370	0.0166002
724.448	0.0165663
724.526	0.0164846
724.604	0.0164367
724.683	0.0166287
724.761	0.0164603
724.839	0.0163840
724.917	0.0164514
724.995	0.0164789
725.073	0.0165830
725.151	0.0165976
725.229	0.0164625
725.308	0.0164713
725.386	0.0165329
725.464	0.0165757
725.542	0.0166125
725.620	0.0164984
725.698	0.0165250
725.776	0.0166737
725.854	0.0164750
725.933	0.0164716
726.011	0.0165759
726.089	0.0165594
726.167	0.0164558
726.245	0.0163935
726.323	0.0165664
726.401	0.0164838
726.479	0.0165448
726.558	0.0164867
726.636	0.0165755
726.714	0.0165189
726.792	0.0164700
726.870	0.0165723
726.948	0.0165004
727.026	0.0165467
727.104	0.0164723
727.183	0.0163654
727.261	0.0164565
727.339	0.0165510
727.417	0.0164590
727.495	0.0166421
727.573	0.0166412
727.651	0.0166408
727.729	0.0165462
727.808	0.0164965
727.886	0.0165270
727.964	0.0165526
728.042	0.0164780
728.120	0.0165979
728.198	0.0165475
728.276	0.0166198
728.354	0.0164890
728.433	0.0166154
728.511	0.0165616
728.589	0.0165639
728.667	0.0164610
728.745	0.0165058
728.823	0.0165381
728.901	0.0166002
728.979	0.0165675
729.058	0.0165614
729.136	0.0164456
729.214	0.0164261
729.292	0.0165307
729.370	0.0165445
729.448	0.0165692
729.526	0.0164914
729.604	0.0164626
729.683	0.0165833
729.761	0.0164154
729.839	0.0166416
729.917	0.0166403
729.995	0.0165658
730.073	0.0164677
730.151	0.0165111
730.229	0.0165597
730.308	0.0165347
730.386	0.0164828
730.464	0.0164938
730.542	0.0165107
730.620	0.0164673
730.698	0.0165110
730.776	0.0165211
730.854	0.0164503
730.933	0.0163815
731.011	0.0165199
731.089	0.0165649
731.167	0.0165479
731.245	0.0164536
731.323	0.0164805
731.401	0.0164491
731.479	0.0165244
731.558	0.0163950
731.636	0.0165284
731.714	0.0164806
731.792	0.0165668
731.870	0.0163639
731.948	0.0163190
732.026	0.0165409
732.104	0.0165149
732.183	0.0165827
732.261	0.0164380
732.339	0.0164172
732.417	0.0165266
732.495	0.0165642
732.573	0.0165319
732.651	0.0164688
732.729	0.0164773
732.808	0.0165849
732.886	0.0165368
732.964	0.0164102
733.042	0.0164035
733.120	0.0165176
733.198	0.0165398
733.276	0.0163795
733.354	0.0164029
733.433	0.0165903
733.511	0.0164789
733.589	0.0164767
733.667	0.0164518
733.745	0.0164028
733.823	0.0163798
733.901	0.0164940
733.979	0.0165178
734.058	0.0164903
734.136	0.0164927
734.214	0.0164172
734.292	0.0163995
734.370	0.0163884
734.448	0.0164350
734.526	0.0164879
734.604	0.0164375
734.683	0.0164465
734.761	0.0163918
734.839	0.0163567
734.917	0.0165016
734.995	0.0164276
735.073	0.0165003
735.151	0.0165432
735.229	0.0164937
735.308	0.0164268
735.386	0.0165292
735.464	0.0165192
735.542	0.0164909
735.620	0.0165131
735.698	0.0164487
735.776	0.0165042
735.854	0.0165081
735.933	0.0165055
736.011	0.0163354
736.089	0.0164084
736.167	0.0165279
736.245	0.0165087
736.323	0.0163242
736.401	0.0164561
736.479	0.0165465
736.558	0.0164790
736.636	0.0162400
736.714	0.0163709
736.792	0.0164714
736.870	0.0165630
736.948	0.0165230
737.026	0.0163600
737.104	0.0164293
737.183	0.0165063
737.261	0.0164527
737.339	0.0165187
737.417	0.0164217
737.495	0.0164822
737.573	0.0163294
737.651	0.0165041
737.729	0.0163853
737.808	0.0164401
737.886	0.0163971
737.964	0.0165611
738.042	0.0164046
738.120	0.0165842
738.198	0.0165012
738.276	0.0165201
738.354	0.0162948
738.433	0.0165215
738.511	0.0164722
738.589	0.0163808
738.667	0.0164629
738.745	0.0165121
738.823	0.0165842
738.901	0.0164230
738.979	0.0164073
739.058	0.0164615
739.136	0.0164701
739.214	0.0164914
739.292	0.0162821
739.370	0.0163777
739.448	0.0165524
739.526	0.0163490
739.604	0.0165302
739.683	0.0165231
739.761	0.0164539
739.839	0.0165276
739.917	0.0165871
739.995	0.0164787
740.073	0.0164394
740.151	0.0164528
740.229	0.0166354
740.308	0.0166077
740.386	0.0165134
740.464	0.0165551
740.542	0.0165651
740.620	0.0165941
740.698	0.0165606
740.776	0.0165633
740.854	0.0164920
740.933	0.0163883
741.011	0.0163166
741.089	0.0164158
741.167	0.0162943
741.245	0.0162614
741.323	0.0159807
741.401	0.0160126
741.479	0.0161412
741.558	0.0158795
741.636	0.0160709
741.714	0.0161263
741.792	0.0164259
741.870	0.0165087
741.948	0.0167944
742.026	0.0168206
742.104	0.0170578
742.183	0.0172781
742.261	0.0172279
742.339	0.0173448
742.417	0.0174557
742.495	0.0171448
742.573	0.0170082
742.651	0.0171394
742.729	0.0168241
742.808	0.0166930
742.886	0.0165233
742.964	0.0162464
743.042	0.0159058
743.120	0.0157169
743.198	0.0155467
743.276	0.0153204
743.354	0.0153173
743.433	0.0149966
743.511	0.0148096
743.589	0.0149942
743.667	0.0152443
743.745	0.0153661
743.823	0.0158539
743.901	0.0164648
743.979	0.0170840
744.058	0.0178226
744.136	0.0183969
744.214	0.0188092
744.292	0.0189711
744.370	0.0189119
744.448	0.0184904
744.526	0.0181058
744.604	0.0173921
744.683	0.0168671
744.761	0.0160715
744.839	0.0156642
744.917	0.0153039
744.995	0.0152226
745.073	0.0153272
745.151	0.0153911
745.229	0.0155083
745.308	0.0157676
745.386	0.0159351
745.464	0.0160876
745.542	0.0158962
745.620	0.0158871
745.698	0.0158324
745.776	0.0154742
745.854	0.0152081
745.933	0.0151025
746.011	0.0150906
746.089	0.0151356
746.167	0.0154641
746.245	0.0160108
746.323	0.0170071
746.401	0.0177648
746.479	0.0184361
746.558	0.0190194
746.636	0.0193733
746.714	0.0194180
746.792	0.0192527
746.870	0.0185536
746.948	0.0181533
747.026	0.0173868
747.104	0.0166692
747.183	0.0159893
747.261	0.0154549
747.339	0.0150983
747.417	0.0149649
747.495	0.0148808
747.573	0.0147449
747.651	0.0147242
747.729	0.0148317
747.808	0.0150092
747.886	0.0151161
747.964	0.0152471
748.042	0.0153421
748.120	0.0156246
748.198	0.0156753
748.276	0.0158602
748.354	0.0163032
748.433	0.0165485
748.511	0.0168012
748.589	0.0172860
748.667	0.0177190
748.745	0.0178373
748.823	0.0182146
748.901	0.0184492
748.979	0.0187441
749.058	0.0188391
749.136	0.0189567
749.214	0.0187672
749.292	0.0182797
749.370	0.0179417
749.448	0.0172925
749.526	0.0163993
749.604	0.0156370
749.683	0.0150982
749.761	0.0145470
749.839	0.0143447
749.917	0.0143029
749.995	0.0143913
750.073	0.0145800
750.151	0.0149989
750.229	0.0153417
750.308	0.0157082
750.386	0.0160507
750.464	0.0164503
750.542	0.0166836
750.620	0.0169315
750.698	0.0168758
750.776	0.0170188
750.854	0.0170294
750.933	0.0168826
751.011	0.0167761
751.089	0.0166818
751.167	0.0167149
751.245	0.0168776
751.323	0.0170440
751.401	0.0171314
751.479	0.0173833
751.558	0.0175774
751.636	0.0177258
751.714	0.0177033
751.792	0.0176277
751.870	0.0174450
751.948	0.0172119
752.026	0.0169353
752.104	0.0165328
752.183	0.0162124
752.261	0.0161162
752.339	0.0156480
752.417	0.0154341
752.495	0.0154801
752.573	0.0151661
752.651	0.0152869
752.729	0.0150610
752.808	0.0152889
752.886	0.0153790
752.964	0.0157430
753.042	0.0159637
753.120	0.0162688
753.198	0.0164656
753.276	0.0164967
753.354	0.0165126
753.433	0.0166051
753.511	0.0167680
753.589	0.0168134
753.667	0.0168454
753.745	0.0169373
753.823	0.0167862
753.901	0.0167765
753.979	0.0167824
754.058	0.0166277
754.136	0.0168532
754.214	0.0168234
754.292	0.0169800
754.370	0.0171320
754.448	0.0171777
754.526	0.0173999
754.604	0.0175973
754.683	0.0177842
754.761	0.0178555
754.839	0.0178893
754.917	0.0176086
754.995	0.0175426
755.073	0.0173859
755.151	0.0169849
755.229	0.0167213
755.308	0.0162677
755.386	0.0159407
755.464	0.0156252
755.542	0.0154147
755.620	0.0149921
755.698	0.0148055
755.776	0.0146897
755.854	0.0145953
755.933	0.0145278
756.011	0.0147135
756.089	0.0146856
756.167	0.0148650
756.245	0.0149173
756.323	0.0152200
756.401	0.0154597
756.479	0.0157027
756.558	0.0160143
756.636	0.0163763
756.714	0.0167380
756.792	0.0170440
756.870	0.0173121
756.948	0.0177944
757.026	0.0180346
757.104	0.0183402
757.183	0.0185042
757.261	0.0187676
757.339	0.0188607
757.417	0.0190475
757.495	0.0189350
757.573	0.0190106
757.651	0.0188470
757.729	0.0188309
757.808	0.0186084
757.886	0.0182315
757.964	0.0179573
758.042	0.0174735
758.120	0.0171156
758.198	0.0166415
758.276	0.0161539
758.354	0.0155684
758.433	0.0149938
758.511	0.0145947
758.589	0.0140279
758.667	0.0137239
758.745	0.0135927
758.823	0.0135770
758.901	0.0134540
758.979	0.0135950
759.058	0.0138420
759.136	0.0141657
759.214	0.0145299
759.292	0.0147725
759.370	0.0149254
759.448	0.0155238
759.526	0.0157765
759.604	0.0159593
759.683	0.0161144
759.761	0.0162938
759.839	0.0165958
759.917	0.0170396
759.995	0.0171352
760.073	0.0173709
760.151	0.0177976
760.229	0.0180279
760.308	0.0184036
760.386	0.0187585
760.464	0.0191936
760.542	0.0192625
760.620	0.0194086
760.698	0.0193468
760.776	0.0192925
760.854	0.0190678
760.933	0.0188551
761.011	0.0185495
761.089	0.0180956
761.167	0.0177604
761.245	0.0172661
761.323	0.0167902
761.401	0.0163158
761.479	0.0161069
761.558	0.0156651
761.636	0.0155942
761.714	0.0153336
761.792	0.0150744
761.870	0.0150882
761.948	0.0149944
762.026	0.0147833
762.104	0.0148476
762.183	0.0149445
762.261	0.0150034
762.339	0.0147960
762.417	0.0148509
762.495	0.0148556
762.573	0.0148908
762.651	0.0149281
762.729	0.0149245
762.808	0.0147136
762.886	0.0147800
762.964	0.0148422
763.042	0.0147958
763.120	0.0148213
763.198	0.0149574
763.276	0.0149281
763.354	0.0153245
763.433	0.0153292
763.511	0.0154504
763.589	0.0156242
763.667	0.0160807
763.745	0.0164970
763.823	0.0168940
763.901	0.0173228
763.979	0.0179147
764.058	0.0186236
764.136	0.0189912
764.214	0.0196711
764.292	0.0198689
764.370	0.0200336
764.448	0.0203041
764.526	0.0203887
764.604	0.0201232
764.683	0.0197536
764.761	0.0196268
764.839	0.0194193
764.917	0.0190543
764.995	0.0185473
765.073	0.0179798
765.151	0.0174255
765.229	0.0168944
765.308	0.0163021
765.386	0.0157796
765.464	0.0150623
765.542	0.0147260
765.620	0.0142326
765.698	0.0140419
765.776	0.0142651
765.854	0.0141904
765.933	0.0144949
766.011	0.0147956
766.089	0.0148637
766.167	0.0152158
766.245	0.0154917
766.323	0.0155093
766.401	0.0156963
766.479	0.0157640
766.558	0.0156259
766.636	0.0155747
766.714	0.0151115
766.792	0.0149496
766.870	0.0148027
766.948	0.0144702
767.026	0.0140525
767.104	0.0137485
767.183	0.0136295
767.261	0.0135078
767.339	0.0135436
767.417	0.0137225
767.495	0.0139989
767.573	0.0142974
767.651	0.0148589
767.729	0.0156786
767.808	0.0164527
767.886	0.0171278
767.964	0.0178991
768.042	0.0184781
768.120	0.0193245
768.198	0.0200259
768.276	0.0206261
768.354	0.0212585
768.433	0.0215955
768.511	0.0219112
768.589	0.0218807
768.667	0.0216711
768.745	0.0213227
768.823	0.0209327
768.901	0.0205087
768.979	0.0195117
769.058	0.0188388
769.136	0.0180711
769.214	0.0174510
769.292	0.0167869
769.370	0.0161835
769.448	0.0156763
769.526	0.0152451
769.604	0.0149660
769.683	0.0145400
769.761	0.0144739
769.839	0.0143975
769.917	0.0142661
769.995	0.0142637
770.073	0.0144473
770.151	0.0145727
770.229	0.0148615
770.308	0.0149010
770.386	0.0148546
770.464	0.0150453
770.542	0.0149917
770.620	0.0148825
770.698	0.0147552
770.776	0.0147048
770.854	0.0142342
770.933	0.0142220
771.011	0.0141253
771.089	0.0137264
771.167	0.0135987
771.245	0.0137318
771.323	0.0135783
771.401	0.0135554
771.479	0.0137549
771.558	0.0139448
771.636	0.0143974
771.714	0.0149562
771.792	0.0155317
771.870	0.0161190
771.948	0.0167309
772.026	0.0175073
772.104	0.0181277
772.183	0.0188128
772.261	0.0192843
772.339	0.0199687
772.417	0.0201678
772.495	0.0205390
772.573	0.0206805
772.651	0.0208265
772.729	0.0206573
772.808	0.0203400
772.886	0.0202351
772.964	0.0198882
773.042	0.0195070
773.120	0.0189732
773.198	0.0184838
773.276	0.0183231
773.354	0.0179943
773.433	0.0177284
773.511	0.0175871
773.589	0.0174519
773.667	0.0172453
773.745	0.0171128
773.823	0.0170217
773.901	0.0170275
773.979	0.0169711
774.058	0.0167156
774.136	0.0165473
774.214	0.0163689
774.292	0.0160200
774.370	0.0156505
774.448	0.0151948
774.526	0.0147658
774.604	0.0143594
774.683	0.0137851
774.761	0.0132323
774.839	0.0128437
774.917	0.0125580
774.995	0.0121202
775.073	0.0118617
775.151	0.0118407
775.229	0.0117593
775.308	0.0118274
775.386	0.0121233
775.464	0.0123184
775.542	0.0127021
775.620	0.0132188
775.698	0.0135770
775.776	0.0142375
775.854	0.0149929
775.933	0.0158528
776.011	0.0166497
776.089	0.0174559
776.167	0.0181829
776.245	0.0190338
776.323	0.0196163
776.401	0.0200528
776.479	0.0204867
776.558	0.0205951
776.636	0.0209584
776.714	0.0209749
776.792	0.0208113
776.870	0.0205730
776.948	0.0202345
777.026	0.0200076
777.104	0.0195744
777.183	0.0192426
777.261	0.0185899
777.339	0.0182295
777.417	0.0177910
777.495	0.0174721
777.573	0.0170563
777.651	0.0170897
777.729	0.0168129
777.808	0.0166586
777.886	0.0166589
777.964	0.0167432
778.042	0.0168450
778.120	0.0168832
778.198	0.0167774
778.276	0.0168378
778.354	0.0167334
778.433	0.0164999
778.511	0.0164439
778.589	0.0163473
778.667	0.0160013
778.745	0.0156174
778.823	0.0153381
778.901	0.0148416
778.979	0.0145431
779.058	0.0139158
779.136	0.0137704
779.214	0.0132098
779.292	0.0127723
779.370	0.0126533
779.448	0.0125991
779.526	0.0123145
779.604	0.0124789
779.683	0.0126396
779.761	0.0128618
779.839	0.0135062
779.917	0.0138214
779.995	0.0143573
780.073	0.0149880
780.151	0.0158423
780.229	0.0162189
780.308	0.0169360
780.386	0.0174740
780.464	0.0179961
780.542	0.0184228
780.620	0.0188587
780.698	0.0193571
780.776	0.0197135
780.854	0.0199579
780.933	0.0198644
781.011	0.0199323
781.089	0.0199630
781.167	0.0198169
781.245	0.0196151
781.323	0.0195374
781.401	0.0192490
781.479	0.0188624
781.558	0.0185006
781.636	0.0182867
781.714	0.0179110
781.792	0.0175483
781.870	0.0170514
781.948	0.0167480
782.026	0.0165692
782.104	0.0160344
782.183	0.0159171
782.261	0.0155979
782.339	0.0154353
782.417	0.0153320
782.495	0.0152045
782.573	0.0150507
782.651	0.0150190
782.729	0.0149973
782.808	0.0151083
782.886	0.0151726
782.964	0.0153384
783.042	0.0153696
783.120	0.0153821
783.198	0.0153101
783.276	0.0153417
783.354	0.0154612
783.433	0.0155719
783.511	0.0157693
783.589	0.0158892
783.667	0.0158961
783.745	0.0161342
783.823	0.0162399
783.901	0.0163253
783.979	0.0166140
784.058	0.0167490
784.136	0.0169308
784.214	0.0170774
784.292	0.0174988
784.370	0.0174895
784.448	0.0174894
784.526	0.0176405
784.604	0.0176556
784.683	0.0176374
784.761	0.0175793
784.839	0.0174701
784.917	0.0173248
784.995	0.0172070
785.073	0.0168835
785.151	0.0166660
785.229	0.0163787
785.308	0.0162562
785.386	0.0160298
785.464	0.0158746
785.542	0.0157682
785.620	0.0156090
785.698	0.0155650
785.776	0.0156245
785.854	0.0154966
785.933	0.0156668
786.011	0.0157590
786.089	0.0160103
786.167	0.0161374
786.245	0.0163006
786.323	0.0163630
786.401	0.0165908
786.479	0.0166651
786.558	0.0165668
786.636	0.0168951
786.714	0.0168994
786.792	0.0168844
786.870	0.0167397
786.948	0.0168114
787.026	0.0167222
787.104	0.0165867
787.183	0.0167041
787.261	0.0165638
787.339	0.0165268
787.417	0.0164028
787.495	0.0164918
787.573	0.0164288
787.651	0.0164704
787.729	0.0164596
787.808	0.0164981
787.886	0.0167855
787.964	0.0167616
788.042	0.0169094
788.120	0.0169116
788.198	0.0171486
788.276	0.0174352
788.354	0.0174097
788.433	0.0174742
788.511	0.0174815
788.589	0.0175381
788.667	0.0175251
788.745	0.0172389
788.823	0.0171746
788.901	0.0170034
788.979	0.0167799
789.058	0.0166792
789.136	0.0164431
789.214	0.0160747
789.292	0.0158918
789.370	0.0156389
789.448	0.0151727
789.526	0.0151868
789.604	0.0149790
789.683	0.0148344
789.761	0.0148730
789.839	0.0148917
789.917	0.0147970
789.995	0.0148850
790.073	0.0150681
790.151	0.0150091
790.229	0.0152202
790.308	0.0154488
790.386	0.0156443
790.464	0.0157444
790.542	0.0159954
790.620	0.0162627
790.698	0.0164793
790.776	0.0167496
790.854	0.0170348
790.933	0.0173542
791.011	0.0175346
791.089	0.0178043
791.167	0.0178836
791.245	0.0178156
791.323	0.0180220
791.401	0.0180538
791.479	0.0180544
791.558	0.0179343
791.636	0.0178941
791.714	0.0176380
791.792	0.0176546
791.870	0.0174683
791.948	0.0172164
792.026	0.0169766
792.104	0.0166341
792.183	0.0166287
792.261	0.0165732
792.339	0.0162419
792.417	0.0161662
792.495	0.0160765
792.573	0.0159525
792.651	0.0159224
792.729	0.0158344
792.808	0.0156964
792.886	0.0156004
792.964	0.0155793
793.042	0.0154170
793.120	0.0155225
793.198	0.0154871
793.276	0.0155769
793.354	0.0157993
793.433	0.0157186
793.511	0.0158154
793.589	0.0161311
793.667	0.0162665
793.745	0.0163013
793.823	0.0164915
793.901	0.0165016
793.979	0.0164012
794.058	0.0166769
794.136	0.0167380
794.214	0.0166280
794.292	0.0168534
794.370	0.0170565
794.448	0.0170615
794.526	0.0168959
794.604	0.0172044
794.683	0.0172122
794.761	0.0171303
794.839	0.0173613
794.917	0.0173432
794.995	0.0172591
795.073	0.0172290
795.151	0.0173793
795.229	0.0172278
795.308	0.0171876
795.386	0.0172628
795.464	0.0168894
795.542	0.0168532
795.620	0.0168213
795.698	0.0166622
795.776	0.0165469
795.854	0.0161960
795.933	0.0162236
796.011	0.0162438
796.089	0.0162086
796.167	0.0162496
796.245	0.0161030
796.323	0.0161860
796.401	0.0162688
796.479	0.0162917
796.558	0.0161438
796.636	0.0163280
796.714	0.0163016
796.792	0.0160172
796.870	0.0160762
796.948	0.0161955
797.026	0.0159419
797.104	0.0157845
797.183	0.0157941
797.261	0.0156968
797.339	0.0156040
797.417	0.0156812
797.495	0.0153781
797.573	0.0152567
797.651	0.0152898
797.729	0.0154248
797.808	0.0153125
797.886	0.0155462
797.964	0.0156733
798.042	0.0157347
798.120	0.0158855
798.198	0.0161192
798.276	0.0161376
798.354	0.0163708
798.433	0.0165247
798.511	0.0170742
798.589	0.0171985
798.667	0.0173065
798.745	0.0176801
798.823	0.0175847
798.901	0.0179359
798.979	0.0180796
799.058	0.0180998
799.136	0.0181568
799.214	0.0180846
799.292	0.0181757
799.370	0.0178089
799.448	0.0177991
799.526	0.0175252
799.604	0.0174265
799.683	0.0171162
799.761	0.0171037
799.839	0.0166940
799.917	0.0163521
799.995	0.0161195
800.073	0.0161452
800.151	0.0158512
800.229	0.0157187
800.308	0.0155230
800.386	0.0154784
800.464	0.0153071
800.542	0.0152640
800.620	0.0154361
800.698	0.0153363
800.776	0.0153923
800.854	0.0154462
800.933	0.0155935
801.011	0.0155978
801.089	0.0157076
801.167	0.0157884
801.245	0.0156649
801.323	0.0158800
801.401	0.0160384
801.479	0.0160416
801.558	0.0161784
801.636	0.0162544
801.714	0.0163483
801.792	0.0164339
801.870	0.0164573
801.948	0.0166000
802.026	0.0165867
802.104	0.0165327
802.183	0.0166293
802.261	0.0166697
802.339	0.0166777
802.417	0.0166464
802.495	0.0168023
802.573	0.0169141
802.651	0.0168998
802.729	0.0168566
802.808	0.0170309
802.886	0.0167200
802.964	0.0168945
803.042	0.0167397
803.120	0.0168559
803.198	0.0167211
803.276	0.0167191
803.354	0.0168740
803.433	0.0167484
803.511	0.0167291
803.589	0.0167670
803.667	0.0168633
803.745	0.0169296
803.823	0.0168933
803.901	0.0167037
803.979	0.0167639
804.058	0.0167895
804.136	0.0166763
804.214	0.0165334
804.292	0.0166090
804.370	0.0164422
804.448	0.0166288
804.526	0.0165243
804.604	0.0165286
804.683	0.0163423
804.761	0.0162541
804.839	0.0162224
804.917	0.0162554
804.995	0.0162079
805.073	0.0161566
805.151	0.0160463
805.229	0.0160265
805.308	0.0158744
805.386	0.0159315
805.464	0.0158317
805.542	0.0158440
805.620	0.0159735
805.698	0.0160196
805.776	0.0159991
805.854	0.0159998
805.933	0.0162725
806.011	0.0163355
806.089	0.0164352
806.167	0.0166281
806.245	0.0166200
806.323	0.0168088
806.401	0.0172176
806.479	0.0170399
806.558	0.0170977
806.636	0.0173700
806.714	0.0173190
806.792	0.0171828
806.870	0.0173022
806.948	0.0173942
807.026	0.0173356
807.104	0.0172366
807.183	0.0170355
807.261	0.0169300
807.339	0.0168483
807.417	0.0167931
807.495	0.0166096
807.573	0.0164902
807.651	0.0164115
807.729	0.0164613
807.808	0.0163979
807.886	0.0162746
807.964	0.0160987
808.042	0.0162350
808.120	0.0161570
808.198	0.0162002
808.276	0.0161985
808.354	0.0161408
808.433	0.0161066
808.511	0.0162169
808.589	0.0160945
808.667	0.0160569
808.745	0.0160411
808.823	0.0158596
808.901	0.0159265
808.979	0.0159822
809.058	0.0159399
809.136	0.0159285
809.214	0.0159856
809.292	0.0160163
809.370	0.0159647
809.448	0.0159862
809.526	0.0160661
809.604	0.0161178
809.683	0.0161520
809.761	0.0161525
809.839	0.0162984
809.917	0.0163857
809.995	0.0164461
810.073	0.0163786
810.151	0.0164698
810.229	0.0166129
810.308	0.0167928
810.386	0.0168710
810.464	0.0168372
810.542	0.0169299
810.620	0.0168960
810.698	0.0170819
810.776	0.0172190
810.854	0.0171087
810.933	0.0171462
811.011	0.0171485
811.089	0.0172140
811.167	0.0172867
811.245	0.0173090
811.323	0.0172862
811.401	0.0170813
811.479	0.0170415
811.558	0.0170694
811.636	0.0169901
811.714	0.0169859
811.792	0.0168545
811.870	0.0167838
811.948	0.0167426
812.026	0.0168767
812.104	0.0167187
812.183	0.0165277
812.261	0.0165445
812.339	0.0164777
812.417	0.0163061
812.495	0.0162373
812.573	0.0161271
812.651	0.0160553
812.729	0.0159875
812.808	0.0159286
812.886	0.0158215
812.964	0.0157564
813.042	0.0157572
813.120	0.0157643
813.198	0.0156439
813.276	0.0154135
813.354	0.0157434
813.433	0.0157380
813.511	0.0158542
813.589	0.0159984
813.667	0.0159657
813.745	0.0162140
813.823	0.0162965
813.901	0.0164529
813.979	0.0164727
814.058	0.0165501
814.136	0.0167277
814.214	0.0167829
814.292	0.0165407
814.370	0.0168147
814.448	0.0168249
814.526	0.0170233
814.604	0.0171137
814.683	0.0168628
814.761	0.0169160
814.839	0.0170479
814.917	0.0167649
814.995	0.0169205
815.073	0.0167581
815.151	0.0167708
815.229	0.0167381
815.308	0.0166227
815.386	0.0165700
815.464	0.0165104
815.542	0.0164057
815.620	0.0165646
815.698	0.0165543
815.776	0.0163835
815.854	0.0163264
815.933	0.0162146
816.011	0.0162890
816.089	0.0161525
816.167	0.0161356
816.245	0.0161695
816.323	0.0160193
816.401	0.0160497
816.479	0.0159671
816.558	0.0160458
816.636	0.0161465
816.714	0.0162086
816.792	0.0161269
816.870	0.0162142
816.948	0.0162173
817.026	0.0162814
817.104	0.0162994
817.183	0.0163587
817.261	0.0165049
817.339	0.0166615
817.417	0.0167663
817.495	0.0168436
817.573	0.0168250
817.651	0.0170247
817.729	0.0169448
817.808	0.0168707
817.886	0.0169970
817.964	0.0170369
818.042	0.0169334
818.120	0.0168924
818.198	0.0167042
818.276	0.0167365
818.354	0.0167969
818.433	0.0166186
818.511	0.0166820
818.589	0.0166740
818.667	0.0166044
818.745	0.0168090
818.823	0.0166582
818.901	0.0166128
818.979	0.0165978
819.058	0.0167350
819.136	0.0166936
819.214	0.0166965
819.292	0.0166983
819.370	0.0166445
819.448	0.0166599
819.526	0.0165777
819.604	0.0165553
819.683	0.0165520
819.761	0.0163879
819.839	0.0163210
819.917	0.0161940
819.995	0.0159999
820.073	0.0158548
820.151	0.0157204
820.229	0.0156566
820.308	0.0156246
820.386	0.0155406
820.464	0.0154749
820.542	0.0154985
820.620	0.0156233
820.698	0.0156519
820.776	0.0156053
820.854	0.0156991
820.933	0.0156943
821.011	0.0158279
821.089	0.0159280
821.167	0.0161073
821.245	0.0162081
821.323	0.0162312
821.401	0.0164619
821.479	0.0164124
821.558	0.0166373
821.636	0.0166757
821.714	0.0166831
821.792	0.0167828
821.870	0.0168090
821.948	0.0168074
822.026	0.0168825
822.104	0.0169355
822.183	0.0168027
822.261	0.0167873
822.339	0.0169486
822.417	0.0167979
822.495	0.0168382
822.573	0.0167604
822.651	0.0168008
822.729	0.0168892
822.808	0.0169519
822.886	0.0168719
822.964	0.0169113
823.042	0.0169587
823.120	0.0170751
823.198	0.0169913
823.276	0.0170875
823.354	0.0170024
823.433	0.0168261
823.511	0.0168092
823.589	0.0168542
823.667	0.0168214
823.745	0.0167422
823.823	0.0167054
823.901	0.0165450
823.979	0.0164317
824.058	0.0164350
824.136	0.0162965
824.214	0.0161070
824.292	0.0159975
824.370	0.0160794
824.448	0.0158761
824.526	0.0157697
824.604	0.0156942
824.683	0.0156126
824.761	0.0156378
824.839	0.0156315
824.917	0.0156999
824.995	0.0157697
825.073	0.0157801
825.151	0.0157603
825.229	0.0158295
825.308	0.0160249
825.386	0.0161991
825.464	0.0162087
825.542	0.0162383
825.620	0.0163519
825.698	0.0163950
825.776	0.0165668
825.854	0.0166709
825.933	0.0167928
826.011	0.0168930
826.089	0.0168897
826.167	0.0168937
826.245	0.0168588
826.323	0.0168148
826.401	0.0167458
826.479	0.0168975
826.558	0.0167845
826.636	0.0167620
826.714	0.0167176
826.792	0.0165961
826.870	0.0164503
826.948	0.0165636
827.026	0.0165410
827.104	0.0162624
827.183	0.0164085
827.261	0.0163737
827.339	0.0163189
827.417	0.0161707
827.495	0.0162404
827.573	0.0161540
827.651	0.0162024
827.729	0.0162067
827.808	0.0161042
827.886	0.0161567
827.964	0.0159921
828.042	0.0161247
828.120	0.0160477
828.198	0.0160507
828.276	0.0160311
828.354	0.0161300
828.433	0.0162126
828.511	0.0161668
828.589	0.0161501
828.667	0.0160854
828.745	0.0161472
828.823	0.0162270
828.901	0.0162306
828.979	0.0163174
829.058	0.0164030
829.136	0.0164619
829.214	0.0165219
829.292	0.0166967
829.370	0.0167848
829.448	0.0166373
829.526	0.0168552
829.604	0.0170477
829.683	0.0170683
829.761	0.0170945
829.839	0.0171062
829.917	0.0171532
829.995	0.0172721
830.073	0.0171041
830.151	0.0171857
830.229	0.0169978
830.308	0.0168232
830.386	0.0168947
830.464	0.0169038
830.542	0.0166473
830.620	0.0165369
830.698	0.0166514
830.776	0.0166109
830.854	0.0164372
830.933	0.0163267
831.011	0.0164445
831.089	0.0163862
831.167	0.0163336
831.245	0.0163977
831.323	0.0163199
831.401	0.0163354
831.479	0.0161981
831.558	0.0162233
831.636	0.0164003
831.714	0.0163646
831.792	0.0163297
831.870	0.0163799
831.948	0.0163148
832.026	0.0162012
832.104	0.0163028
832.183	0.0162625
832.261	0.0162745
832.339	0.0161831
832.417	0.0160199
832.495	0.0160690
832.573	0.0159752
832.651	0.0159174
832.729	0.0158246
832.808	0.0157630
832.886	0.0158477
832.964	0.0158203
833.042	0.0159409
833.120	0.0159193
833.198	0.0160213
833.276	0.0160480
833.354	0.0162712
833.433	0.0163744
833.511	0.0163444
833.589	0.0166700
833.667	0.0167063
833.745	0.0166965
833.823	0.0169067
833.901	0.0170689
833.979	0.0171687
834.058	0.0170790
834.136	0.0170322
834.214	0.0171534
834.292	0.0171750
834.370	0.0171616
834.448	0.0171820
834.526	0.0171497
834.604	0.0169622
834.683	0.0169585
834.761	0.0168140
834.839	0.0168005
834.917	0.0165818
834.995	0.0166324
835.073	0.0165659
835.151	0.0165080
835.229	0.0164320
835.308	0.0164713
835.386	0.0164255
835.464	0.0163091
835.542	0.0163516
835.620	0.0163990
835.698	0.0164556
835.776	0.0163938
835.854	0.0162905
835.933	0.0164008
836.011	0.0164966
836.089	0.0162856
836.167	0.0163884
836.245	0.0164228
836.323	0.0165099
836.401	0.0163010
836.479	0.0164650
836.558	0.0163369
836.636	0.0161932
836.714	0.0161341
836.792	0.0162307
836.870	0.0162517
836.948	0.0160451
837.026	0.0162674
837.104	0.0161364
837.183	0.0162540
837.261	0.0162334
837.339	0.0160687
837.417	0.0162497
837.495	0.0161848
837.573	0.0162469
837.651	0.0165247
837.729	0.0165346
837.808	0.0164972
837.886	0.0167012
837.964	0.0167510
838.042	0.0169570
838.120	0.0168968
838.198	0.0168629
838.276	0.0168236
838.354	0.0168646
838.433	0.0167354
838.511	0.0168542
838.589	0.0168296
838.667	0.0167669
838.745	0.0166074
838.823	0.0165286
838.901	0.0164989
838.979	0.0165269
839.058	0.0163552
839.136	0.0162225
839.214	0.0163698
839.292	0.0162437
839.370	0.0163699
839.448	0.0161687
839.526	0.0161047
839.604	0.0164222
839.683	0.0161395
839.761	0.0162300
839.839	0.0164177
839.917	0.0163225
839.995	0.0163560
840.073	0.0165018
840.151	0.0165073
840.229	0.0165694
840.308	0.0165849
840.386	0.0166354
840.464	0.0165904
840.542	0.0165412
840.620	0.0166644
840.698	0.0165253
840.776	0.0163730
840.854	0.0163498
840.933	0.0163789
841.011	0.0164402
841.089	0.0164043
841.167	0.0163365
841.245	0.0163662
841.323	0.0164963
841.401	0.0165125
841.479	0.0164805
841.558	0.0164805
841.636	0.0165536
841.714	0.0165929
841.792	0.0166478
841.870	0.0165872
841.948	0.0168225
842.026	0.0168313
842.104	0.0168451
842.183	0.0168648
842.261	0.0169779
842.339	0.0170337
842.417	0.0170398
842.495	0.0172360
842.573	0.0171290
842.651	0.0170415
842.729	0.0167861
842.808	0.0169969
842.886	0.0169583
842.964	0.0167953
843.042	0.0167876
843.120	0.0164413
843.198	0.0163987
843.276	0.0162605
843.354	0.0162784
843.433	0.0161626
843.511	0.0159631
843.589	0.0160400
843.667	0.0159988
843.745	0.0159818
843.823	0.0160202
843.901	0.0160477
843.979	0.0159281
844.058	0.0160189
844.136	0.0160490
844.214	0.0160860
844.292	0.0161245
844.370	0.0162411
844.448	0.0162829
844.526	0.0163450
844.604	0.0164807
844.683	0.0164916
844.761	0.0162840
844.839	0.0164980
844.917	0.0165203
844.995	0.0164406
845.073	0.0166180
845.151	0.0165831
845.229	0.0164408
845.308	0.0162444
845.386	0.0163844
845.464	0.0163316
845.542	0.0163096
845.620	0.0162349
845.698	0.0161420
845.776	0.0161782
845.854	0.0162624
845.933	0.0162263
846.011	0.0163757
846.089	0.0162567
846.167	0.0162991
846.245	0.0164578
846.323	0.0166427
846.401	0.0166602
846.479	0.0167973
846.558	0.0168284
846.636	0.0169707
846.714	0.0170989
846.792	0.0171463
846.870	0.0170909
846.948	0.0169222
847.026	0.0168996
847.104	0.0169510
847.183	0.0170387
847.261	0.0169907
847.339	0.0168808
847.417	0.0166990
847.495	0.0165552
847.573	0.0165813
847.651	0.0164827
847.729	0.0163908
847.808	0.0164130
847.886	0.0162144
847.964	0.0162874
848.042	0.0163342
848.120	0.0161735
848.198	0.0162779
848.276	0.0162000
848.354	0.0162492
848.433	0.0162218
848.511	0.0162076
848.589	0.0163419
848.667	0.0164423
848.745	0.0164910
848.823	0.0163708
848.901	0.0164975
848.979	0.0166679
849.058	0.0164119
849.136	0.0164324
849.214	0.0164536
849.292	0.0165561
849.370	0.0164051
849.448	0.0164537
849.526	0.0164465
849.604	0.0163427
849.683	0.0163392
849.761	0.0163965
849.839	0.0162937
849.917	0.0163795
849.995	0.0163599
850.073	0.0162115
850.151	0.0164748
850.229	0.0163969
850.308	0.0163825
850.386	0.0163996
850.464	0.0165812
850.542	0.0166904
850.620	0.0165572
850.698	0.0166917
850.776	0.0168011
850.854	0.0168073
850.933	0.0167722
851.011	0.0169170
851.089	0.0168652
851.167	0.0169054
851.245	0.0169426
851.323	0.0167240
851.401	0.0167632
851.479	0.0168496
851.558	0.0167049
851.636	0.0165010
851.714	0.0165193
851.792	0.0163740
851.870	0.0163771
851.948	0.0160423
852.026	0.0161044
852.104	0.0160303
852.183	0.0161497
852.261	0.0160677
852.339	0.0161144
852.417	0.0161163
852.495	0.0160739
852.573	0.0161400
852.651	0.0161286
852.729	0.0161592
852.808	0.0162206
852.886	0.0163470
852.964	0.0163792
853.042	0.0163661
853.120	0.0166982
853.198	0.0166296
853.276	0.0167435
853.354	0.0166364
853.433	0.0167785
853.511	0.0168755
853.589	0.0168505
853.667	0.0168290
853.745	0.0169193
853.823	0.0168655
853.901	0.0167268
853.979	0.0168229
854.058	0.0168149
854.136	0.0167984
854.214	0.0166724
854.292	0.0167525
854.370	0.0166080
854.448	0.0165327
854.526	0.0165766
854.604	0.0165491
854.683	0.0164511
854.761	0.0166046
854.839	0.0165892
854.917	0.0165423
854.995	0.0165388
855.073	0.0164194
855.151	0.0165197
855.229	0.0163187
855.308	0.0163516
855.386	0.0164019
855.464	0.0163300
855.542	0.0163319
855.620	0.0162743
855.698	0.0162403
855.776	0.0162048
855.854	0.0161643
855.933	0.0161747
856.011	0.0161211
856.089	0.0162457
856.167	0.0161337
856.245	0.0161888
856.323	0.0160092
856.401	0.0160684
856.479	0.0163043
856.558	0.0163365
856.636	0.0162305
856.714	0.0162941
856.792	0.0164403
856.870	0.0164874
856.948	0.0165309
857.026	0.0166233
857.104	0.0167833
857.183	0.0168770
857.261	0.0168555
857.339	0.0170159
857.417	0.0171082
857.495	0.0171956
857.573	0.0171056
857.651	0.0169675
857.729	0.0170506
857.808	0.0167934
857.886	0.0167564
857.964	0.0165049
858.042	0.0166096
858.120	0.0165371
858.198	0.0164505
858.276	0.0162526
858.354	0.0161884
858.433	0.0160725
858.511	0.0161401
858.589	0.0160568
858.667	0.0162564
858.745	0.0160381
858.823	0.0159943
858.901	0.0160718
858.979	0.0161768
859.058	0.0161817
859.136	0.0160300
859.214	0.0160908
859.292	0.0161730
859.370	0.0162064
859.448	0.0161598
859.526	0.0162930
859.604	0.0161853
859.683	0.0163607
859.761	0.0161755
859.839	0.0163834
859.917	0.0162608
859.995	0.0163815
860.073	0.0164125
860.151	0.0164141
860.229	0.0163603
860.308	0.0164061
860.386	0.0165061
860.464	0.0164478
860.542	0.0166209
860.620	0.0167109
860.698	0.0166506
860.776	0.0168111
860.854	0.0168004
860.933	0.0169688
861.011	0.0169363
861.089	0.0169056
861.167	0.0170890
861.245	0.0171246
861.323	0.0171523
861.401	0.0170681
861.479	0.0171020
861.558	0.0171117
861.636	0.0171218
861.714	0.0170502
861.792	0.0169525
861.870	0.0167390
861.948	0.0167152
862.026	0.0167928
862.104	0.0166898
862.183	0.0167721
862.261	0.0165337
862.339	0.0165848
862.417	0.0164701
862.495	0.0164633
862.573	0.0162968
862.651	0.0163043
862.729	0.0161604
862.808	0.0161861
862.886	0.0161821
862.964	0.0160215
863.042	0.0161201
863.120	0.0161765
863.198	0.0161863
863.276	0.0160658
863.354	0.0159632
863.433	0.0161136
863.511	0.0161175
863.589	0.0161118
863.667	0.0161514
863.745	0.0160960
863.823	0.0162348
863.901	0.0160730
863.979	0.0161132
864.058	0.0161834
864.136	0.0162054
864.214	0.0162701
864.292	0.0163036
864.370	0.0162043
864.448	0.0163812
864.526	0.0165841
864.604	0.0165076
864.683	0.0165068
864.761	0.0166426
864.839	0.0168336
864.917	0.0169361
864.995	0.0170497
865.073	0.0169495
865.151	0.0171589
865.229	0.0170502
865.308	0.0171579
865.386	0.0172608
865.464	0.0173478
865.542	0.0172965
865.620	0.0172330
865.698	0.0172580
865.776	0.0172271
865.854	0.0171706
865.933	0.0170709
866.011	0.0171962
866.089	0.0168892
866.167	0.0169987
866.245	0.0168622
866.323	0.0166816
866.401	0.0165956
866.479	0.0163239
866.558	0.0161756
866.636	0.0161829
866.714	0.0161154
866.792	0.0160454
866.870	0.0158156
866.948	0.0158231
867.026	0.0158131
867.104	0.0157180
867.183	0.0157870
867.261	0.0156856
867.339	0.0156435
867.417	0.0156844
867.495	0.0155944
867.573	0.0157307
867.651	0.0156768
867.729	0.0158427
867.808	0.0159417
867.886	0.0159866
867.964	0.0161477
868.042	0.0161936
868.120	0.0163441
868.198	0.0163916
868.276	0.0164951
868.354	0.0166135
868.433	0.0165650
868.511	0.0166062
868.589	0.0167178
868.667	0.0167367
868.745	0.0167238
868.823	0.0168393
868.901	0.0169025
868.979	0.0169073
869.058	0.0171146
869.136	0.0170809
869.214	0.0171213
869.292	0.0171490
869.370	0.0171783
869.448	0.0171917
869.526	0.0172961
869.604	0.0173483
869.683	0.0172515
869.761	0.0171696
869.839	0.0171477
869.917	0.0172660
869.995	0.0171529
870.073	0.0170081
870.151	0.0171607
870.229	0.0169940
870.308	0.0169628
870.386	0.0168673
870.464	0.0167947
870.542	0.0168026
870.620	0.0166241
870.698	0.0165713
870.776	0.0164449
870.854	0.0163474
870.933	0.0161561
871.011	0.0159680
871.089	0.0160406
871.167	0.0156686
871.245	0.0157040
871.323	0.0155499
871.401	0.0155499
871.479	0.0154895
871.558	0.0153854
871.636	0.0152367
871.714	0.0151967
871.792	0.0154495
871.870	0.0155350
871.948	0.0154430
872.026	0.0154914
872.104	0.0155453
872.183	0.0157325
872.261	0.0157876
872.339	0.0160039
872.417	0.0160063
872.495	0.0161845
872.573	0.0162961
872.651	0.0163467
872.729	0.0164750
872.808	0.0168815
872.886	0.0167684
872.964	0.0169455
873.042	0.0168902
873.120	0.0169559
873.198	0.0170657
873.276	0.0172098
873.354	0.0172083
873.433	0.0171772
873.511	0.0173074
873.589	0.0172667
873.667	0.0171793
873.745	0.0171770
873.823	0.0170906
873.901	0.0169715
873.979	0.0170738
874.058	0.0169935
874.136	0.0169024
874.214	0.0168842
874.292	0.0169769
874.370	0.0167661
874.448	0.0167689
874.526	0.0168246
874.604	0.0168216
874.683	0.0167966
874.761	0.0167411
874.839	0.0165930
874.917	0.0167363
874.995	0.0166965
875.073	0.0165829
875.151	0.0164638
875.229	0.0165991
875.308	0.0164445
875.386	0.0162789
875.464	0.0162179
875.542	0.0162237
875.620	0.0161602
875.698	0.0161425
875.776	0.0160290
875.854	0.0160829
875.933	0.0161060
876.011	0.0159241
876.089	0.0159461
876.167	0.0157967
876.245	0.0159637
876.323	0.0159418
876.401	0.0160166
876.479	0.0160535
876.558	0.0160643
876.636	0.0160751
876.714	0.0161766
876.792	0.0163276
876.870	0.0162821
876.948	0.0164655
877.026	0.0164364
877.104	0.0164900
877.183	0.0167191
877.261	0.0168278
877.339	0.0167751
877.417	0.0169460
877.495	0.0169327
877.573	0.0170211
877.651	0.0170575
877.729	0.0168159
877.808	0.0168325
877.886	0.0169163
877.964	0.0168436
878.042	0.0168085
878.120	0.0167780
878.198	0.0167885
878.276	0.0167686
878.354	0.0166821
878.433	0.0166643
878.511	0.0166788
878.589	0.0166850
878.667	0.0166924
878.745	0.0165834
878.823	0.0164874
878.901	0.0166044
878.979	0.0165305
879.058	0.0164506
879.136	0.0163741
879.214	0.0163850
879.292	0.0162079
879.370	0.0162402
879.448	0.0163046
879.526	0.0162198
879.604	0.0161950
879.683	0.0162804
879.761	0.0161990
879.839	0.0163775
879.917	0.0163583
879.995	0.0163759
880.073	0.0163288
880.151	0.0163892
880.229	0.0162849
880.308	0.0162862
880.386	0.0164547
880.464	0.0166158
880.542	0.0165055
880.620	0.0165831
880.698	0.0165475
880.776	0.0164727
880.854	0.0166475
880.933	0.0165859
881.011	0.0164446
881.089	0.0166620
881.167	0.0166414
881.245	0.0167342
881.323	0.0165739
881.401	0.0167165
881.479	0.0168758
881.558	0.0166437
881.636	0.0164692
881.714	0.0167290
881.792	0.0165568
881.870	0.0164623
881.948	0.0165786
882.026	0.0167121
882.104	0.0166007
882.183	0.0166391
882.261	0.0166057
882.339	0.0165466
882.417	0.0164603
882.495	0.0165299
882.573	0.0165710
882.651	0.0165599
882.729	0.0165598
882.808	0.0163506
882.886	0.0165241
882.964	0.0165460
883.042	0.0164511
883.120	0.0165408
883.198	0.0164915
883.276	0.0165283
883.354	0.0164613
883.433	0.0164396
883.511	0.0165540
883.589	0.0164092
883.667	0.0163458
883.745	0.0163364
883.823	0.0163568
883.901	0.0166410
883.979	0.0166164
884.058	0.0163889
884.136	0.0163893
884.214	0.0163905
884.292	0.0165669
884.370	0.0165437
884.448	0.0165601
884.526	0.0166032
884.604	0.0167300
884.683	0.0167125
884.761	0.0166943
884.839	0.0167989
884.917	0.0166786
884.995	0.0167417
885.073	0.0167157
885.151	0.0166433
885.229	0.0167697
885.308	0.0166968
885.386	0.0166380
885.464	0.0166184
885.542	0.0166904
885.620	0.0165952
885.698	0.0163816
885.776	0.0166658
885.854	0.0166052
885.933	0.0165188
886.011	0.0164381
886.089	0.0161845
886.167	0.0164705
886.245	0.0162122
886.323	0.0161387
886.401	0.0162731
886.479	0.0162920
886.558	0.0161518
886.636	0.0161134
886.714	0.0160908
886.792	0.0161421
886.870	0.0162399
886.948	0.0162001
887.026	0.0162744
887.104	0.0162662
887.183	0.0165533
887.261	0.0164888
887.339	0.0164850
887.417	0.0166027
887.495	0.0166701
887.573	0.0167931
887.651	0.0168083
887.729	0.0170315
887.808	0.0169867
887.886	0.0169925
887.964	0.0170856
888.042	0.0170656
888.120	0.0169896
888.198	0.0168141
888.276	0.0170679
888.354	0.0169412
888.433	0.0168298
888.511	0.0168020
888.589	0.0168745
888.667	0.0167416
888.745	0.0168061
888.823	0.0167167
888.901	0.0165611
888.979	0.0165522
889.058	0.0166010
889.136	0.0165144
889.214	0.0165594
889.292	0.0164490
889.370	0.0165330
889.448	0.0163708
889.526	0.0164167
889.604	0.0164611
889.683	0.0164302
889.761	0.0164727
889.839	0.0164053
889.917	0.0164012
889.995	0.0163349
890.073	0.0164189
890.151	0.0164030
890.229	0.0163544
890.308	0.0164243
890.386	0.0163421
890.464	0.0163545
890.542	0.0162853
890.620	0.0162504
890.698	0.0163412
890.776	0.0162640
890.854	0.0162919
890.933	0.0162855
891.011	0.0162691
891.089	0.0165452
891.167	0.0163894
891.245	0.0163958
891.323	0.0163744
891.401	0.0165148
891.479	0.0166142
891.558	0.0165899
891.636	0.0165487
891.714	0.0165759
891.792	0.0164984
891.870	0.0167132
891.948	0.0166544
892.026	0.0165671
892.104	0.0167413
892.183	0.0164281
892.261	0.0166138
892.339	0.0166359
892.417	0.0166644
892.495	0.0165954
892.573	0.0167216
892.651	0.0167006
892.729	0.0166499
892.808	0.0165634
892.886	0.0166283
892.964	0.0165204
893.042	0.0165314
893.120	0.0163734
893.198	0.0164922
893.276	0.0165065
893.354	0.0165042
893.433	0.0163490
893.511	0.0162840
893.589	0.0163960
893.667	0.0163296
893.745	0.0164466
893.823	0.0163029
893.901	0.0162863
893.979	0.0163807
894.058	0.0162411
894.136	0.0163083
894.214	0.0163913
894.292	0.0163744
894.370	0.0164009
894.448	0.0164680
894.526	0.0164794
894.604	0.0165672
894.683	0.0166065
894.761	0.0166712
894.839	0.0166604
894.917	0.0166718
894.995	0.0165820
895.073	0.0166518
895.151	0.0167522
895.229	0.0166875
895.308	0.0167774
895.386	0.0167873
895.464	0.0167255
895.542	0.0167448
895.620	0.0167072
895.698	0.0165659
895.776	0.0166065
895.854	0.0166142
895.933	0.0168248
896.011	0.0167599
896.089	0.0165244
896.167	0.0165909
896.245	0.0165668
896.323	0.0164663
896.401	0.0164870
896.479	0.0164638
896.558	0.0164448
896.636	0.0163760
896.714	0.0164492
896.792	0.0162274
896.870	0.0162476
896.948	0.0164978
897.026	0.0163284
897.104	0.0163349
897.183	0.0163352
897.261	0.0162881
897.339	0.0163009
897.417	0.0160941
897.495	0.0162881
897.573	0.0162229
897.651	0.0162514
897.729	0.0161976
897.808	0.0160914
897.886	0.0162728
897.964	0.0162101
898.042	0.0162613
898.120	0.0162412
898.198	0.0163567
898.276	0.0164124
898.354	0.0164425
898.433	0.0162671
898.511	0.0163227
898.589	0.0165618
898.667	0.0165316
898.745	0.0163599
898.823	0.0164196
898.901	0.0165149
898.979	0.0165004
899.058	0.0165089
899.136	0.0164577
899.214	0.0164766
899.292	0.0165228
899.370	0.0166164
899.448	0.0166103
899.526	0.0166221
899.604	0.0165289
899.683	0.0165077
899.761	0.0166637
899.839	0.0165070
899.917	0.0166106
899.995	0.0167044
900.073	0.0164853
900.151	0.0167582
900.229	0.0166508
900.308	0.0166283
900.386	0.0167268
900.464	0.0167829
900.542	0.0167190
900.620	0.0166476
900.698	0.0169064
900.776	0.0169155
900.854	0.0167940
900.933	0.0167063
901.011	0.0167457
901.089	0.0166492
901.167	0.0166589
901.245	0.0167123
901.323	0.0166306
901.401	0.0164153
901.479	0.0165366
901.558	0.0165195
901.636	0.0164371
901.714	0.0165259
901.792	0.0164605
901.870	0.0164021
901.948	0.0163708
902.026	0.0162211
902.104	0.0162559
902.183	0.0163114
902.261	0.0165118
902.339	0.0162895
902.417	0.0162983
902.495	0.0162794
902.573	0.0163551
902.651	0.0163232
902.729	0.0163212
902.808	0.0163349
902.886	0.0162399
902.964	0.0162626
903.042	0.0161394
903.120	0.0162208
903.198	0.0163531
903.276	0.0163202
903.354	0.0163456
903.433	0.0162476
903.511	0.0164079
903.589	0.0164073
903.667	0.0163528
903.745	0.0165454
903.823	0.0164951
903.901	0.0165112
903.979	0.0164475
904.058	0.0164758
904.136	0.0165722
904.214	0.0166106
904.292	0.0165880
904.370	0.0166989
904.448	0.0165874
904.526	0.0166309
904.604	0.0167001
904.683	0.0166078
904.761	0.0166473
904.839	0.0166144
904.917	0.0166485
904.995	0.0165780
905.073	0.0166041
905.151	0.0165958
905.229	0.0165788
905.308	0.0164673
905.386	0.0165409
905.464	0.0165442
905.542	0.0164005
905.620	0.0163567
905.698	0.0163126
905.776	0.0163098
905.854	0.0164605
905.933	0.0163881
906.011	0.0163303
906.089	0.0165223
906.167	0.0163863
906.245	0.0164297
906.323	0.0164500
906.401	0.0165375
906.479	0.0165817
906.558	0.0166888
906.636	0.0165939
906.714	0.0165466
906.792	0.0167993
906.870	0.0167680
906.948	0.0165417
907.026	0.0166245
907.104	0.0166930
907.183	0.0167239
907.261	0.0165845
907.339	0.0166811
907.417	0.0166264
907.495	0.0165101
907.573	0.0166225
907.651	0.0165457
907.729	0.0166225
907.808	0.0163370
907.886	0.0164351
907.964	0.0164725
908.042	0.0164290
908.120	0.0164067
908.198	0.0163422
908.276	0.0164172
908.354	0.0163500
908.433	0.0162439
908.511	0.0162098
908.589	0.0164349
908.667	0.0164837
908.745	0.0164119
908.823	0.0165199
908.901	0.0164441
908.979	0.0164838
909.058	0.0165912
909.136	0.0166032
909.214	0.0164526
909.292	0.0165224
909.370	0.0165601
909.448	0.0165232
909.526	0.0164639
909.604	0.0165186
909.683	0.0164120
909.761	0.0164456
909.839	0.0164188
909.917	0.0162594
909.995	0.0165112
910.073	0.0164716
910.151	0.0163277
910.229	0.0163583
910.308	0.0165487
910.386	0.0164476
910.464	0.0164419
910.542	0.0164181
910.620	0.0167477
910.698	0.0165471
910.776	0.0165034
910.854	0.0165829
910.933	0.0164854
911.011	0.0167680
911.089	0.0167313
911.167	0.0166875
911.245	0.0165199
911.323	0.0164630
911.401	0.0167323
911.479	0.0166562
911.558	0.0167796
911.636	0.0165911
911.714	0.0165970
911.792	0.0167370
911.870	0.0166029
911.948	0.0165875
912.026	0.0165914
912.104	0.0166183
912.183	0.0164851
912.261	0.0164594
912.339	0.0165106
912.417	0.0164516
912.495	0.0164480
912.573	0.0162709
912.651	0.0164486
912.729	0.0164850
912.808	0.0164135
912.886	0.0162850
912.964	0.0163779
913.042	0.0163420
913.120	0.0165617
913.198	0.0163717
913.276	0.0162576
913.354	0.0163586
913.433	0.0164803
913.511	0.0163483
913.589	0.0163529
913.667	0.0164259
913.745	0.0163879
913.823	0.0164218
913.901	0.0164061
913.979	0.0163478
914.058	0.0165643
914.136	0.0165940
914.214	0.0166436
914.292	0.0164362
914.370	0.0164560
914.448	0.0165794
914.526	0.0165552
914.604	0.0166971
914.683	0.0166902
914.761	0.0165324
914.839	0.0164644
914.917	0.0166269
914.995	0.0167738
915.073	0.0166637
915.151	0.0168164
915.229	0.0166678
915.308	0.0167263
915.386	0.0166107
915.464	0.0168402
915.542	0.0168518
915.620	0.0166990
915.698	0.0165461
915.776	0.0166129
915.854	0.0166919
915.933	0.0167866
916.011	0.0166246
916.089	0.0166422
916.167	0.0166042
916.245	0.0164151
916.323	0.0165580
916.401	0.0163869
916.479	0.0163975
916.558	0.0164335
916.636	0.0162366
916.714	0.0163117
916.792	0.0163213
916.870	0.0162638
916.948	0.0162452
917.026	0.0162423
917.104	0.0163284
917.183	0.0163290
917.261	0.0162620
917.339	0.0160706
917.417	0.0161623
917.495	0.0161494
917.573	0.0161433
917.651	0.0161343
917.729	0.0160535
917.808	0.0162791
917.886	0.0162832
917.964	0.0162450
918.042	0.0164168
918.120	0.0162959
918.198	0.0163030
918.276	0.0164538
918.354	0.0165092
918.433	0.0164124
918.511	0.0164597
918.589	0.0164994
918.667	0.0165746
918.745	0.0165307
918.823	0.0164838
918.901	0.0167716
918.979	0.0167336
919.058	0.0166227
919.136	0.0167967
919.214	0.0166423
919.292	0.0167637
919.370	0.0168585
919.448	0.0167782
919.526	0.0167686
919.604	0.0168505
919.683	0.0166941
919.761	0.0165269
919.839	0.0165824
919.917	0.0166008
