06/10/2022	16:19:32	Ver.	4.1	UNKNOWN
Optical Delay	599.995081	Delta X		0.078125	Sweeps	1	Scan Rate	0/0
Coordinates	Axis 1	NaN	Axis 2	NaN	Axis 3	NaN	Axis 4	NaN	Axis 5	NaN	Axis 6	0.000000
TX Power	0.000000	RX Power	0.000000

599.995	0.0163581
600.073	0.0163356
600.151	0.0163471
600.229	0.0164581
600.308	0.0164206
600.386	0.0163667
600.464	0.0163401
600.542	0.0163322
600.620	0.0163866
600.698	0.0164194
600.776	0.0163288
600.854	0.0163271
600.933	0.0162453
601.011	0.0163862
601.089	0.0162190
601.167	0.0163152
601.245	0.0162312
601.323	0.0165040
601.401	0.0163548
601.479	0.0164064
601.558	0.0163336
601.636	0.0163631
601.714	0.0162850
601.792	0.0163683
601.870	0.0163617
601.948	0.0165070
602.026	0.0163330
602.104	0.0164326
602.183	0.0164557
602.261	0.0164414
602.339	0.0164709
602.417	0.0162081
602.495	0.0163773
602.573	0.0165285
602.651	0.0164163
602.729	0.0165109
602.808	0.0165226
602.886	0.0163213
602.964	0.0162560
603.042	0.0162939
603.120	0.0164276
603.198	0.0162997
603.276	0.0162872
603.354	0.0163562
603.433	0.0163879
603.511	0.0163322
603.589	0.0163454
603.667	0.0164651
603.745	0.0164168
603.823	0.0163656
603.901	0.0164424
603.979	0.0163698
604.058	0.0163449
604.136	0.0163257
604.214	0.0163338
604.292	0.0163163
604.370	0.0161740
604.448	0.0164156
604.526	0.0163327
604.604	0.0162531
604.683	0.0163697
604.761	0.0164136
604.839	0.0162465
604.917	0.0163463
604.995	0.0164294
605.073	0.0163747
605.151	0.0163966
605.229	0.0162907
605.308	0.0163077
605.386	0.0164468
605.464	0.0164159
605.542	0.0164243
605.620	0.0163561
605.698	0.0162400
605.776	0.0163469
605.854	0.0162306
605.933	0.0163168
606.011	0.0162902
606.089	0.0163213
606.167	0.0165117
606.245	0.0164668
606.323	0.0163496
606.401	0.0163905
606.479	0.0164404
606.558	0.0164322
606.636	0.0163983
606.714	0.0163905
606.792	0.0163538
606.870	0.0162628
606.948	0.0163508
607.026	0.0164140
607.104	0.0163505
607.183	0.0163979
607.261	0.0162678
607.339	0.0163180
607.417	0.0163007
607.495	0.0163786
607.573	0.0163392
607.651	0.0162870
607.729	0.0163001
607.808	0.0163049
607.886	0.0163657
607.964	0.0164809
608.042	0.0163641
608.120	0.0162123
608.198	0.0163740
608.276	0.0163683
608.354	0.0163605
608.433	0.0164135
608.511	0.0162801
608.589	0.0163770
608.667	0.0163718
608.745	0.0164362
608.823	0.0161409
608.901	0.0162090
608.979	0.0164542
609.058	0.0163339
609.136	0.0162598
609.214	0.0163547
609.292	0.0164507
609.370	0.0163552
609.448	0.0162356
609.526	0.0164774
609.604	0.0165584
609.683	0.0163231
609.761	0.0162166
609.839	0.0163657
609.917	0.0164510
609.995	0.0163741
610.073	0.0164880
610.151	0.0162825
610.229	0.0162544
610.308	0.0164474
610.386	0.0162817
610.464	0.0163815
610.542	0.0162883
610.620	0.0162197
610.698	0.0164806
610.776	0.0164568
610.854	0.0163116
610.933	0.0162461
611.011	0.0162659
611.089	0.0164503
611.167	0.0163036
611.245	0.0161735
611.323	0.0162672
611.401	0.0163348
611.479	0.0164168
611.558	0.0164858
611.636	0.0163425
611.714	0.0162835
611.792	0.0163247
611.870	0.0162523
611.948	0.0165312
612.026	0.0163739
612.104	0.0163081
612.183	0.0161882
612.261	0.0162548
612.339	0.0164463
612.417	0.0163247
612.495	0.0163693
612.573	0.0163356
612.651	0.0163643
612.729	0.0164149
612.808	0.0163779
612.886	0.0165199
612.964	0.0164161
613.042	0.0163342
613.120	0.0162991
613.198	0.0164845
613.276	0.0164410
613.354	0.0162746
613.433	0.0164251
613.511	0.0163662
613.589	0.0163596
613.667	0.0164106
613.745	0.0162579
613.823	0.0162372
613.901	0.0164645
613.979	0.0164531
614.058	0.0164391
614.136	0.0162930
614.214	0.0163127
614.292	0.0163243
614.370	0.0162253
614.448	0.0163982
614.526	0.0162742
614.604	0.0162730
614.683	0.0163634
614.761	0.0163078
614.839	0.0163300
614.917	0.0163396
614.995	0.0164172
615.073	0.0163053
615.151	0.0163894
615.229	0.0163602
615.308	0.0161596
615.386	0.0164018
615.464	0.0164050
615.542	0.0163978
615.620	0.0164288
615.698	0.0163693
615.776	0.0163416
615.854	0.0164715
615.933	0.0163750
616.011	0.0163684
616.089	0.0163203
616.167	0.0164696
616.245	0.0162469
616.323	0.0163578
616.401	0.0162933
616.479	0.0163098
616.558	0.0164564
616.636	0.0163810
616.714	0.0164532
616.792	0.0164824
616.870	0.0162312
616.948	0.0162671
617.026	0.0164819
617.104	0.0163581
617.183	0.0164175
617.261	0.0163534
617.339	0.0163748
617.417	0.0163355
617.495	0.0163986
617.573	0.0163937
617.651	0.0163188
617.729	0.0164809
617.808	0.0164445
617.886	0.0162862
617.964	0.0162946
618.042	0.0163908
618.120	0.0162998
618.198	0.0162756
618.276	0.0162522
618.354	0.0162691
618.433	0.0162448
618.511	0.0162325
618.589	0.0163544
618.667	0.0163731
618.745	0.0163918
618.823	0.0162183
618.901	0.0162485
618.979	0.0163558
619.058	0.0163429
619.136	0.0162623
619.214	0.0163596
619.292	0.0162503
619.370	0.0163361
619.448	0.0162565
619.526	0.0164001
619.604	0.0163644
619.683	0.0163687
619.761	0.0164735
619.839	0.0163865
619.917	0.0162463
619.995	0.0163754
620.073	0.0164295
620.151	0.0162452
620.229	0.0161758
620.308	0.0163504
620.386	0.0164092
620.464	0.0163800
620.542	0.0163300
620.620	0.0164174
620.698	0.0163708
620.776	0.0163922
620.854	0.0164142
620.933	0.0162674
621.011	0.0163245
621.089	0.0163707
621.167	0.0163843
621.245	0.0163114
621.323	0.0163479
621.401	0.0163006
621.479	0.0162528
621.558	0.0164577
621.636	0.0163793
621.714	0.0163569
621.792	0.0164564
621.870	0.0163602
621.948	0.0164494
622.026	0.0163477
622.104	0.0163696
622.183	0.0162788
622.261	0.0163514
622.339	0.0163441
622.417	0.0163879
622.495	0.0164480
622.573	0.0162910
622.651	0.0163741
622.729	0.0164367
622.808	0.0164095
622.886	0.0163405
622.964	0.0163344
623.042	0.0162896
623.120	0.0164434
623.198	0.0164054
623.276	0.0164098
623.354	0.0162861
623.433	0.0163383
623.511	0.0162721
623.589	0.0162951
623.667	0.0162784
623.745	0.0162093
623.823	0.0163687
623.901	0.0163569
623.979	0.0161842
624.058	0.0163773
624.136	0.0164394
624.214	0.0164140
624.292	0.0163273
624.370	0.0163277
624.448	0.0162360
624.526	0.0163905
624.604	0.0164963
624.683	0.0163783
624.761	0.0162159
624.839	0.0162831
624.917	0.0163808
624.995	0.0164828
625.073	0.0164922
625.151	0.0164105
625.229	0.0163351
625.308	0.0163980
625.386	0.0163075
625.464	0.0164249
625.542	0.0163995
625.620	0.0163117
625.698	0.0163553
625.776	0.0163548
625.854	0.0163212
625.933	0.0162570
626.011	0.0164165
626.089	0.0163754
626.167	0.0162961
626.245	0.0163148
626.323	0.0163810
626.401	0.0163872
626.479	0.0162820
626.558	0.0161689
626.636	0.0163841
626.714	0.0163255
626.792	0.0163792
626.870	0.0162572
626.948	0.0163063
627.026	0.0162203
627.104	0.0163297
627.183	0.0162761
627.261	0.0163892
627.339	0.0163165
627.417	0.0163271
627.495	0.0165343
627.573	0.0163704
627.651	0.0163471
627.729	0.0163338
627.808	0.0163145
627.886	0.0163412
627.964	0.0163135
628.042	0.0163325
628.120	0.0162303
628.198	0.0163175
628.276	0.0164423
628.354	0.0163474
628.433	0.0161235
628.511	0.0162793
628.589	0.0161872
628.667	0.0163374
628.745	0.0163689
628.823	0.0162990
628.901	0.0162469
628.979	0.0163808
629.058	0.0164173
629.136	0.0162807
629.214	0.0162991
629.292	0.0165269
629.370	0.0163608
629.448	0.0162565
629.526	0.0163846
629.604	0.0163364
629.683	0.0162371
629.761	0.0164101
629.839	0.0164134
629.917	0.0164164
629.995	0.0163732
630.073	0.0164852
630.151	0.0164616
630.229	0.0164011
630.308	0.0162504
630.386	0.0163422
630.464	0.0163174
630.542	0.0161942
630.620	0.0163756
630.698	0.0163586
630.776	0.0163440
630.854	0.0163523
630.933	0.0163569
631.011	0.0162659
631.089	0.0163023
631.167	0.0163062
631.245	0.0164058
631.323	0.0163427
631.401	0.0163646
631.479	0.0164129
631.558	0.0162168
631.636	0.0162853
631.714	0.0164188
631.792	0.0163106
631.870	0.0163317
631.948	0.0163704
632.026	0.0162958
632.104	0.0164123
632.183	0.0163947
632.261	0.0162228
632.339	0.0164355
632.417	0.0162199
632.495	0.0164011
632.573	0.0163441
632.651	0.0163653
632.729	0.0162607
632.808	0.0163335
632.886	0.0164292
632.964	0.0162740
633.042	0.0163683
633.120	0.0162465
633.198	0.0164016
633.276	0.0163385
633.354	0.0162758
633.433	0.0162968
633.511	0.0164228
633.589	0.0163072
633.667	0.0162233
633.745	0.0164079
633.823	0.0164192
633.901	0.0164053
633.979	0.0163976
634.058	0.0164529
634.136	0.0163590
634.214	0.0164615
634.292	0.0162643
634.370	0.0163474
634.448	0.0164376
634.526	0.0163864
634.604	0.0163338
634.683	0.0163463
634.761	0.0163254
634.839	0.0163558
634.917	0.0163367
634.995	0.0163726
635.073	0.0165291
635.151	0.0163862
635.229	0.0163061
635.308	0.0163914
635.386	0.0163493
635.464	0.0163010
635.542	0.0163294
635.620	0.0162897
635.698	0.0164618
635.776	0.0164230
635.854	0.0162153
635.933	0.0163461
636.011	0.0163670
636.089	0.0163607
636.167	0.0164017
636.245	0.0162907
636.323	0.0163462
636.401	0.0163049
636.479	0.0164098
636.558	0.0163400
636.636	0.0163007
636.714	0.0164223
636.792	0.0163317
636.870	0.0163962
636.948	0.0164006
637.026	0.0163594
637.104	0.0164586
637.183	0.0162710
637.261	0.0163686
637.339	0.0163253
637.417	0.0162537
637.495	0.0164490
637.573	0.0163812
637.651	0.0163689
637.729	0.0163857
637.808	0.0163549
637.886	0.0162593
637.964	0.0164500
638.042	0.0163299
638.120	0.0164044
638.198	0.0161824
638.276	0.0163090
638.354	0.0166816
638.433	0.0163976
638.511	0.0162354
638.589	0.0163084
638.667	0.0164411
638.745	0.0163082
638.823	0.0162905
638.901	0.0164610
638.979	0.0163538
639.058	0.0163136
639.136	0.0163908
639.214	0.0164971
639.292	0.0163521
639.370	0.0163008
639.448	0.0164353
639.526	0.0163900
639.604	0.0164388
639.683	0.0164531
639.761	0.0164129
639.839	0.0163735
639.917	0.0164043
639.995	0.0163120
640.073	0.0162491
640.151	0.0162863
640.229	0.0163216
640.308	0.0163885
640.386	0.0164967
640.464	0.0163419
640.542	0.0162936
640.620	0.0163731
640.698	0.0163434
640.776	0.0163712
640.854	0.0165094
640.933	0.0164805
641.011	0.0164681
641.089	0.0162590
641.167	0.0163838
641.245	0.0163452
641.323	0.0163355
641.401	0.0163109
641.479	0.0164837
641.558	0.0162812
641.636	0.0161179
641.714	0.0162986
641.792	0.0162160
641.870	0.0163789
641.948	0.0163795
642.026	0.0162576
642.104	0.0163722
642.183	0.0164008
642.261	0.0163058
642.339	0.0162215
642.417	0.0163010
642.495	0.0163660
642.573	0.0164201
642.651	0.0164945
642.729	0.0163256
642.808	0.0162173
642.886	0.0164434
642.964	0.0164143
643.042	0.0164130
643.120	0.0162671
643.198	0.0163033
643.276	0.0163826
643.354	0.0163345
643.433	0.0164304
643.511	0.0164937
643.589	0.0162856
643.667	0.0163180
643.745	0.0164356
643.823	0.0163851
643.901	0.0163076
643.979	0.0162080
644.058	0.0164050
644.136	0.0164462
644.214	0.0162940
644.292	0.0162654
644.370	0.0163296
644.448	0.0162594
644.526	0.0163406
644.604	0.0163944
644.683	0.0163435
644.761	0.0162523
644.839	0.0164137
644.917	0.0163854
644.995	0.0162511
645.073	0.0163721
645.151	0.0164412
645.229	0.0164727
645.308	0.0163846
645.386	0.0163628
645.464	0.0162490
645.542	0.0163511
645.620	0.0164536
645.698	0.0162141
645.776	0.0164444
645.854	0.0163362
645.933	0.0163726
646.011	0.0164108
646.089	0.0164474
646.167	0.0163647
646.245	0.0163170
646.323	0.0164531
646.401	0.0163142
646.479	0.0162342
646.558	0.0164666
646.636	0.0162489
646.714	0.0162920
646.792	0.0163648
646.870	0.0162444
646.948	0.0162132
647.026	0.0163983
647.104	0.0163845
647.183	0.0163659
647.261	0.0163078
647.339	0.0162451
647.417	0.0163096
647.495	0.0164542
647.573	0.0165399
647.651	0.0163662
647.729	0.0163589
647.808	0.0162978
647.886	0.0164279
647.964	0.0163087
648.042	0.0164401
648.120	0.0163116
648.198	0.0163396
648.276	0.0164239
648.354	0.0162606
648.433	0.0162973
648.511	0.0163369
648.589	0.0163802
648.667	0.0164296
648.745	0.0164196
648.823	0.0162589
648.901	0.0162807
648.979	0.0163093
649.058	0.0163554
649.136	0.0164133
649.214	0.0163353
649.292	0.0162747
649.370	0.0162761
649.448	0.0163177
649.526	0.0163271
649.604	0.0164193
649.683	0.0163833
649.761	0.0163335
649.839	0.0162711
649.917	0.0163393
649.995	0.0164543
650.073	0.0165333
650.151	0.0163616
650.229	0.0164053
650.308	0.0163757
650.386	0.0163309
650.464	0.0162553
650.542	0.0164114
650.620	0.0163196
650.698	0.0165154
650.776	0.0163941
650.854	0.0162209
650.933	0.0164472
651.011	0.0163739
651.089	0.0164194
651.167	0.0162875
651.245	0.0163794
651.323	0.0161268
651.401	0.0163176
651.479	0.0163607
651.558	0.0164128
651.636	0.0164391
651.714	0.0162676
651.792	0.0165800
651.870	0.0163306
651.948	0.0163267
652.026	0.0162514
652.104	0.0162575
652.183	0.0163054
652.261	0.0163130
652.339	0.0164015
652.417	0.0164407
652.495	0.0163980
652.573	0.0164500
652.651	0.0164009
652.729	0.0162284
652.808	0.0163129
652.886	0.0162959
652.964	0.0162550
653.042	0.0163978
653.120	0.0164838
653.198	0.0163910
653.276	0.0162833
653.354	0.0164409
653.433	0.0161708
653.511	0.0163087
653.589	0.0162403
653.667	0.0162552
653.745	0.0163693
653.823	0.0163718
653.901	0.0163316
653.979	0.0162891
654.058	0.0162831
654.136	0.0163676
654.214	0.0163808
654.292	0.0162737
654.370	0.0163822
654.448	0.0162519
654.526	0.0163705
654.604	0.0163027
654.683	0.0163849
654.761	0.0164384
654.839	0.0163493
654.917	0.0162865
654.995	0.0164758
655.073	0.0164340
655.151	0.0162535
655.229	0.0163963
655.308	0.0163254
655.386	0.0164033
655.464	0.0163838
655.542	0.0162935
655.620	0.0163174
655.698	0.0163508
655.776	0.0164076
655.854	0.0164053
655.933	0.0163741
656.011	0.0164828
656.089	0.0166225
656.167	0.0163522
656.245	0.0162753
656.323	0.0162135
656.401	0.0163768
656.479	0.0164373
656.558	0.0164144
656.636	0.0162164
656.714	0.0163014
656.792	0.0164462
656.870	0.0163190
656.948	0.0164407
657.026	0.0163985
657.104	0.0164080
657.183	0.0164204
657.261	0.0162254
657.339	0.0163931
657.417	0.0163360
657.495	0.0162750
657.573	0.0164282
657.651	0.0162846
657.729	0.0162963
657.808	0.0163631
657.886	0.0164515
657.964	0.0163046
658.042	0.0164147
658.120	0.0164763
658.198	0.0163946
658.276	0.0163287
658.354	0.0161889
658.433	0.0163625
658.511	0.0163394
658.589	0.0162977
658.667	0.0164456
658.745	0.0163231
658.823	0.0163611
658.901	0.0163503
658.979	0.0163123
659.058	0.0162698
659.136	0.0163694
659.214	0.0163486
659.292	0.0163195
659.370	0.0163941
659.448	0.0164327
659.526	0.0163596
659.604	0.0162922
659.683	0.0164274
659.761	0.0162458
659.839	0.0162470
659.917	0.0163139
659.995	0.0163327
660.073	0.0163235
660.151	0.0162298
660.229	0.0162404
660.308	0.0164069
660.386	0.0163183
660.464	0.0163309
660.542	0.0163560
660.620	0.0163187
660.698	0.0164983
660.776	0.0163332
660.854	0.0163014
660.933	0.0163287
661.011	0.0162925
661.089	0.0162687
661.167	0.0163080
661.245	0.0164062
661.323	0.0164243
661.401	0.0163415
661.479	0.0164108
661.558	0.0163505
661.636	0.0163414
661.714	0.0163460
661.792	0.0164627
661.870	0.0163590
661.948	0.0162735
662.026	0.0163689
662.104	0.0162402
662.183	0.0162490
662.261	0.0163554
662.339	0.0163826
662.417	0.0163023
662.495	0.0163744
662.573	0.0163503
662.651	0.0163784
662.729	0.0162919
662.808	0.0162582
662.886	0.0164467
662.964	0.0163706
663.042	0.0163680
663.120	0.0163609
663.198	0.0164079
663.276	0.0163341
663.354	0.0162779
663.433	0.0163124
663.511	0.0163932
663.589	0.0163853
663.667	0.0163245
663.745	0.0163526
663.823	0.0164510
663.901	0.0163776
663.979	0.0163623
664.058	0.0163164
664.136	0.0163467
664.214	0.0164697
664.292	0.0162460
664.370	0.0163762
664.448	0.0163982
664.526	0.0162852
664.604	0.0163597
664.683	0.0163361
664.761	0.0164276
664.839	0.0163577
664.917	0.0161980
664.995	0.0162735
665.073	0.0162772
665.151	0.0163707
665.229	0.0163174
665.308	0.0163046
665.386	0.0162795
665.464	0.0163264
665.542	0.0164875
665.620	0.0162465
665.698	0.0163698
665.776	0.0163958
665.854	0.0163750
665.933	0.0163472
666.011	0.0162656
666.089	0.0163355
666.167	0.0163094
666.245	0.0163548
666.323	0.0164457
666.401	0.0162902
666.479	0.0163289
666.558	0.0164912
666.636	0.0161955
666.714	0.0163808
666.792	0.0162775
666.870	0.0162483
666.948	0.0164020
667.026	0.0163269
667.104	0.0161893
667.183	0.0164192
667.261	0.0164535
667.339	0.0162323
667.417	0.0162701
667.495	0.0163443
667.573	0.0163717
667.651	0.0163361
667.729	0.0162506
667.808	0.0162589
667.886	0.0164252
667.964	0.0162989
668.042	0.0163770
668.120	0.0163323
668.198	0.0163349
668.276	0.0162619
668.354	0.0161510
668.433	0.0163670
668.511	0.0164482
668.589	0.0163306
668.667	0.0162585
668.745	0.0163137
668.823	0.0163015
668.901	0.0163651
668.979	0.0163519
669.058	0.0164044
669.136	0.0162420
669.214	0.0163940
669.292	0.0162097
669.370	0.0162386
669.448	0.0163992
669.526	0.0164416
669.604	0.0163741
669.683	0.0163580
669.761	0.0163664
669.839	0.0162826
669.917	0.0163868
669.995	0.0163702
670.073	0.0164109
670.151	0.0163659
670.229	0.0163210
670.308	0.0164432
670.386	0.0165322
670.464	0.0164048
670.542	0.0163403
670.620	0.0163710
670.698	0.0162759
670.776	0.0164280
670.854	0.0163091
670.933	0.0163338
671.011	0.0164913
671.089	0.0164606
671.167	0.0162467
671.245	0.0162964
671.323	0.0162844
671.401	0.0163560
671.479	0.0164393
671.558	0.0164362
671.636	0.0161560
671.714	0.0163574
671.792	0.0163238
671.870	0.0162553
671.948	0.0163043
672.026	0.0164011
672.104	0.0162427
672.183	0.0162244
672.261	0.0163893
672.339	0.0163236
672.417	0.0164240
672.495	0.0163898
672.573	0.0163307
672.651	0.0163135
672.729	0.0164028
672.808	0.0163419
672.886	0.0163038
672.964	0.0163508
673.042	0.0164656
673.120	0.0163180
673.198	0.0162694
673.276	0.0163261
673.354	0.0163895
673.433	0.0164087
673.511	0.0163437
673.589	0.0164491
673.667	0.0164845
673.745	0.0163070
673.823	0.0163555
673.901	0.0163783
673.979	0.0163926
674.058	0.0163042
674.136	0.0164404
674.214	0.0164703
674.292	0.0162608
674.370	0.0163192
674.448	0.0164532
674.526	0.0163371
674.604	0.0163016
674.683	0.0163142
674.761	0.0163782
674.839	0.0163873
674.917	0.0164468
674.995	0.0163905
675.073	0.0163631
675.151	0.0162431
675.229	0.0163501
675.308	0.0163852
675.386	0.0163100
675.464	0.0163198
675.542	0.0163896
675.620	0.0162277
675.698	0.0163375
675.776	0.0163228
675.854	0.0162765
675.933	0.0163514
676.011	0.0163160
676.089	0.0164437
676.167	0.0162624
676.245	0.0163165
676.323	0.0163611
676.401	0.0163426
676.479	0.0163701
676.558	0.0164000
676.636	0.0163039
676.714	0.0163521
676.792	0.0164053
676.870	0.0163588
676.948	0.0164030
677.026	0.0164209
677.104	0.0164445
677.183	0.0164482
677.261	0.0163691
677.339	0.0163535
677.417	0.0162502
677.495	0.0162583
677.573	0.0163873
677.651	0.0163931
677.729	0.0161921
677.808	0.0162033
677.886	0.0162877
677.964	0.0164175
678.042	0.0164033
678.120	0.0164195
678.198	0.0163564
678.276	0.0162296
678.354	0.0163364
678.433	0.0163085
678.511	0.0162708
678.589	0.0163404
678.667	0.0163194
678.745	0.0163395
678.823	0.0163608
678.901	0.0163995
678.979	0.0163136
679.058	0.0163276
679.136	0.0162745
679.214	0.0162315
679.292	0.0164291
679.370	0.0162775
679.448	0.0164556
679.526	0.0164417
679.604	0.0163403
679.683	0.0163107
679.761	0.0162985
679.839	0.0164941
679.917	0.0165013
679.995	0.0164396
680.073	0.0162736
680.151	0.0161752
680.229	0.0163588
680.308	0.0163090
680.386	0.0163400
680.464	0.0164243
680.542	0.0163572
680.620	0.0163251
680.698	0.0163057
680.776	0.0162381
680.854	0.0162826
680.933	0.0164407
681.011	0.0163129
681.089	0.0163471
681.167	0.0161935
681.245	0.0161988
681.323	0.0165163
681.401	0.0162993
681.479	0.0164071
681.558	0.0163386
681.636	0.0163844
681.714	0.0162090
681.792	0.0164214
681.870	0.0163784
681.948	0.0163058
682.026	0.0165265
682.104	0.0163092
682.183	0.0164215
682.261	0.0163817
682.339	0.0163952
682.417	0.0164471
682.495	0.0163663
682.573	0.0164702
682.651	0.0164319
682.729	0.0163227
682.808	0.0162846
682.886	0.0163568
682.964	0.0164631
683.042	0.0163455
683.120	0.0162417
683.198	0.0164406
683.276	0.0162686
683.354	0.0163779
683.433	0.0164035
683.511	0.0163842
683.589	0.0163259
683.667	0.0163572
683.745	0.0163169
683.823	0.0162361
683.901	0.0163622
683.979	0.0163161
684.058	0.0162841
684.136	0.0163768
684.214	0.0164215
684.292	0.0163194
684.370	0.0162292
684.448	0.0162884
684.526	0.0164467
684.604	0.0164393
684.683	0.0163302
684.761	0.0163814
684.839	0.0163042
684.917	0.0163560
684.995	0.0162962
685.073	0.0162737
685.151	0.0162927
685.229	0.0164037
685.308	0.0164754
685.386	0.0163779
685.464	0.0162028
685.542	0.0163570
685.620	0.0165829
685.698	0.0162642
685.776	0.0163692
685.854	0.0164233
685.933	0.0164870
686.011	0.0163558
686.089	0.0163772
686.167	0.0163268
686.245	0.0164764
686.323	0.0163794
686.401	0.0162491
686.479	0.0163097
686.558	0.0164464
686.636	0.0164113
686.714	0.0164106
686.792	0.0162106
686.870	0.0164154
686.948	0.0163097
687.026	0.0163563
687.104	0.0163062
687.183	0.0163484
687.261	0.0163988
687.339	0.0161848
687.417	0.0163946
687.495	0.0163489
687.573	0.0161893
687.651	0.0163322
687.729	0.0162509
687.808	0.0163235
687.886	0.0163190
687.964	0.0162757
688.042	0.0163824
688.120	0.0162625
688.198	0.0162216
688.276	0.0162473
688.354	0.0161732
688.433	0.0164050
688.511	0.0163356
688.589	0.0163228
688.667	0.0162165
688.745	0.0162189
688.823	0.0163731
688.901	0.0162757
688.979	0.0163331
689.058	0.0162292
689.136	0.0162739
689.214	0.0162891
689.292	0.0164481
689.370	0.0164217
689.448	0.0163401
689.526	0.0161518
689.604	0.0162863
689.683	0.0163948
689.761	0.0163729
689.839	0.0163222
689.917	0.0163725
689.995	0.0162901
690.073	0.0162918
690.151	0.0163503
690.229	0.0162873
690.308	0.0163983
690.386	0.0163969
690.464	0.0163689
690.542	0.0164085
690.620	0.0163412
690.698	0.0162933
690.776	0.0164305
690.854	0.0163625
690.933	0.0162325
691.011	0.0163665
691.089	0.0163755
691.167	0.0164439
691.245	0.0165054
691.323	0.0162962
691.401	0.0162038
691.479	0.0163674
691.558	0.0162119
691.636	0.0163039
691.714	0.0164499
691.792	0.0162688
691.870	0.0162932
691.948	0.0163219
692.026	0.0164021
692.104	0.0163282
692.183	0.0162985
692.261	0.0162809
692.339	0.0163603
692.417	0.0163979
692.495	0.0163683
692.573	0.0163165
692.651	0.0162891
692.729	0.0162724
692.808	0.0163071
692.886	0.0163327
692.964	0.0163430
693.042	0.0163373
693.120	0.0164143
693.198	0.0163363
693.276	0.0162255
693.354	0.0163731
693.433	0.0163049
693.511	0.0163933
693.589	0.0165292
693.667	0.0162822
693.745	0.0162217
693.823	0.0163065
693.901	0.0162659
693.979	0.0163066
694.058	0.0163162
694.136	0.0162745
694.214	0.0163792
694.292	0.0164070
694.370	0.0163010
694.448	0.0164738
694.526	0.0163737
694.604	0.0164991
694.683	0.0163953
694.761	0.0163013
694.839	0.0163096
694.917	0.0162541
694.995	0.0164678
695.073	0.0164835
695.151	0.0163216
695.229	0.0164407
695.308	0.0163572
695.386	0.0163719
695.464	0.0163634
695.542	0.0163792
695.620	0.0163969
695.698	0.0162967
695.776	0.0164176
695.854	0.0162756
695.933	0.0164049
696.011	0.0164255
696.089	0.0163301
696.167	0.0163848
696.245	0.0164242
696.323	0.0164073
696.401	0.0162883
696.479	0.0163021
696.558	0.0162985
696.636	0.0163069
696.714	0.0163174
696.792	0.0163268
696.870	0.0163071
696.948	0.0163790
697.026	0.0162318
697.104	0.0162556
697.183	0.0164518
697.261	0.0164748
697.339	0.0163154
697.417	0.0163058
697.495	0.0164149
697.573	0.0163408
697.651	0.0163733
697.729	0.0162884
697.808	0.0164357
697.886	0.0163203
697.964	0.0162746
698.042	0.0163115
698.120	0.0163849
698.198	0.0163428
698.276	0.0163865
698.354	0.0162814
698.433	0.0162096
698.511	0.0163648
698.589	0.0162589
698.667	0.0163632
698.745	0.0164027
698.823	0.0163417
698.901	0.0163130
698.979	0.0163605
699.058	0.0164024
699.136	0.0164484
699.214	0.0162849
699.292	0.0162933
699.370	0.0163496
699.448	0.0162786
699.526	0.0163492
699.604	0.0163211
699.683	0.0163600
699.761	0.0163827
699.839	0.0163647
699.917	0.0163132
699.995	0.0163232
700.073	0.0164344
700.151	0.0164270
700.229	0.0163362
700.308	0.0164628
700.386	0.0163699
700.464	0.0165154
700.542	0.0163167
700.620	0.0162633
700.698	0.0163906
700.776	0.0164339
700.854	0.0163966
700.933	0.0163519
701.011	0.0163480
701.089	0.0162752
701.167	0.0164117
701.245	0.0163240
701.323	0.0162105
701.401	0.0163168
701.479	0.0165178
701.558	0.0162964
701.636	0.0163635
701.714	0.0164005
701.792	0.0163782
701.870	0.0163736
701.948	0.0164215
702.026	0.0163628
702.104	0.0162945
702.183	0.0161492
702.261	0.0163574
702.339	0.0163968
702.417	0.0163271
702.495	0.0163419
702.573	0.0163650
702.651	0.0163141
702.729	0.0162962
702.808	0.0162738
702.886	0.0163929
702.964	0.0162852
703.042	0.0163129
703.120	0.0163500
703.198	0.0162939
703.276	0.0164557
703.354	0.0165313
703.433	0.0164458
703.511	0.0163548
703.589	0.0163408
703.667	0.0164377
703.745	0.0164019
703.823	0.0162940
703.901	0.0163356
703.979	0.0164313
704.058	0.0163228
704.136	0.0163507
704.214	0.0163398
704.292	0.0164631
704.370	0.0163560
704.448	0.0164789
704.526	0.0164678
704.604	0.0163233
704.683	0.0164851
704.761	0.0164116
704.839	0.0164353
704.917	0.0163921
704.995	0.0163633
705.073	0.0164778
705.151	0.0163184
705.229	0.0163757
705.308	0.0164073
705.386	0.0164313
705.464	0.0164732
705.542	0.0163258
705.620	0.0163622
705.698	0.0162916
705.776	0.0162800
705.854	0.0163890
705.933	0.0163644
706.011	0.0163610
706.089	0.0163930
706.167	0.0162448
706.245	0.0161905
706.323	0.0163123
706.401	0.0163406
706.479	0.0163200
706.558	0.0163708
706.636	0.0164135
706.714	0.0162942
706.792	0.0164038
706.870	0.0163046
706.948	0.0162372
707.026	0.0163341
707.104	0.0165082
707.183	0.0164301
707.261	0.0163712
707.339	0.0163662
707.417	0.0162703
707.495	0.0162716
707.573	0.0163711
707.651	0.0163335
707.729	0.0162853
707.808	0.0164510
707.886	0.0163435
707.964	0.0163612
708.042	0.0164568
708.120	0.0163416
708.198	0.0164429
708.276	0.0163179
708.354	0.0162825
708.433	0.0164141
708.511	0.0164494
708.589	0.0164276
708.667	0.0164554
708.745	0.0163987
708.823	0.0163976
708.901	0.0163216
708.979	0.0164517
709.058	0.0163940
709.136	0.0164147
709.214	0.0163071
709.292	0.0165219
709.370	0.0163271
709.448	0.0163997
709.526	0.0163452
709.604	0.0164966
709.683	0.0166139
709.761	0.0163338
709.839	0.0165395
709.917	0.0162783
709.995	0.0163213
710.073	0.0164081
710.151	0.0164316
710.229	0.0164018
710.308	0.0164364
710.386	0.0163326
710.464	0.0164548
710.542	0.0164140
710.620	0.0161992
710.698	0.0164128
710.776	0.0164605
710.854	0.0162988
710.933	0.0162636
711.011	0.0164231
711.089	0.0163116
711.167	0.0163612
711.245	0.0163623
711.323	0.0163735
711.401	0.0162209
711.479	0.0163873
711.558	0.0163912
711.636	0.0163713
711.714	0.0163927
711.792	0.0162196
711.870	0.0163042
711.948	0.0164285
712.026	0.0163741
712.104	0.0162137
712.183	0.0162697
712.261	0.0164096
712.339	0.0162885
712.417	0.0164093
712.495	0.0163643
712.573	0.0163911
712.651	0.0163260
712.729	0.0162473
712.808	0.0163241
712.886	0.0164027
712.964	0.0164566
713.042	0.0163131
713.120	0.0163493
713.198	0.0163271
713.276	0.0164520
713.354	0.0162723
713.433	0.0164052
713.511	0.0164567
713.589	0.0163884
713.667	0.0163050
713.745	0.0163678
713.823	0.0164053
713.901	0.0164060
713.979	0.0163518
714.058	0.0162701
714.136	0.0163472
714.214	0.0163004
714.292	0.0164285
714.370	0.0164882
714.448	0.0163162
714.526	0.0162372
714.604	0.0162728
714.683	0.0162289
714.761	0.0162411
714.839	0.0163773
714.917	0.0164399
714.995	0.0162934
715.073	0.0163734
715.151	0.0162197
715.229	0.0163622
715.308	0.0162695
715.386	0.0163102
715.464	0.0163787
715.542	0.0163226
715.620	0.0163464
715.698	0.0164023
715.776	0.0164690
715.854	0.0164329
715.933	0.0162553
716.011	0.0163020
716.089	0.0162160
716.167	0.0163204
716.245	0.0164495
716.323	0.0162463
716.401	0.0163710
716.479	0.0162856
716.558	0.0163351
716.636	0.0163990
716.714	0.0163228
716.792	0.0162704
716.870	0.0163631
716.948	0.0163823
717.026	0.0163639
717.104	0.0163790
717.183	0.0163500
717.261	0.0164489
717.339	0.0163743
717.417	0.0164312
717.495	0.0163503
717.573	0.0164197
717.651	0.0163863
717.729	0.0163519
717.808	0.0162761
717.886	0.0163510
717.964	0.0162659
718.042	0.0164677
718.120	0.0165302
718.198	0.0163618
718.276	0.0164798
718.354	0.0163814
718.433	0.0162959
718.511	0.0163535
718.589	0.0164024
718.667	0.0163395
718.745	0.0163752
718.823	0.0164063
718.901	0.0163162
718.979	0.0163381
719.058	0.0163390
719.136	0.0162410
719.214	0.0164030
719.292	0.0164461
719.370	0.0163564
719.448	0.0163322
719.526	0.0162776
719.604	0.0162667
719.683	0.0162524
719.761	0.0162292
719.839	0.0163835
719.917	0.0164283
719.995	0.0163124
720.073	0.0163338
720.151	0.0161997
720.229	0.0163359
720.308	0.0164163
720.386	0.0163410
720.464	0.0163220
720.542	0.0162752
720.620	0.0163498
720.698	0.0165097
720.776	0.0164699
720.854	0.0162527
720.933	0.0162624
721.011	0.0163310
721.089	0.0164452
721.167	0.0163412
721.245	0.0163287
721.323	0.0164773
721.401	0.0163274
721.479	0.0162481
721.558	0.0163152
721.636	0.0164524
721.714	0.0163026
721.792	0.0163234
721.870	0.0163757
721.948	0.0163329
722.026	0.0163371
722.104	0.0163672
722.183	0.0164320
722.261	0.0165136
722.339	0.0165270
722.417	0.0164422
722.495	0.0162302
722.573	0.0163634
722.651	0.0163737
722.729	0.0162479
722.808	0.0164419
722.886	0.0163924
722.964	0.0163568
723.042	0.0163560
723.120	0.0162460
723.198	0.0163576
723.276	0.0163889
723.354	0.0163503
723.433	0.0162233
723.511	0.0163214
723.589	0.0163710
723.667	0.0163630
723.745	0.0163901
723.823	0.0164290
723.901	0.0163308
723.979	0.0162434
724.058	0.0162572
724.136	0.0164398
724.214	0.0163985
724.292	0.0163031
724.370	0.0164440
724.448	0.0163400
724.526	0.0162276
724.604	0.0163989
724.683	0.0164512
724.761	0.0163957
724.839	0.0163902
724.917	0.0163043
724.995	0.0163350
725.073	0.0163526
725.151	0.0165170
725.229	0.0163149
725.308	0.0162843
725.386	0.0166673
725.464	0.0163719
725.542	0.0162342
725.620	0.0163371
725.698	0.0164344
725.776	0.0164150
725.854	0.0164349
725.933	0.0164674
726.011	0.0163608
726.089	0.0164404
726.167	0.0163577
726.245	0.0162701
726.323	0.0163835
726.401	0.0163097
726.479	0.0163692
726.558	0.0164389
726.636	0.0163626
726.714	0.0163410
726.792	0.0164513
726.870	0.0164240
726.948	0.0164207
727.026	0.0164096
727.104	0.0163963
727.183	0.0163663
727.261	0.0164092
727.339	0.0163114
727.417	0.0164008
727.495	0.0163063
727.573	0.0164821
727.651	0.0165498
727.729	0.0165296
727.808	0.0163909
727.886	0.0164436
727.964	0.0163753
728.042	0.0165477
728.120	0.0163860
728.198	0.0164281
728.276	0.0163535
728.354	0.0163586
728.433	0.0162975
728.511	0.0164399
728.589	0.0162360
728.667	0.0163004
728.745	0.0163524
728.823	0.0164494
728.901	0.0164260
728.979	0.0165028
729.058	0.0163355
729.136	0.0163095
729.214	0.0164328
729.292	0.0164349
729.370	0.0164893
729.448	0.0164803
729.526	0.0163547
729.604	0.0163944
729.683	0.0164288
729.761	0.0163593
729.839	0.0164103
729.917	0.0163141
729.995	0.0163871
730.073	0.0164125
730.151	0.0162749
730.229	0.0162240
730.308	0.0164899
730.386	0.0163810
730.464	0.0161501
730.542	0.0163396
730.620	0.0164657
730.698	0.0165137
730.776	0.0161446
730.854	0.0163029
730.933	0.0164462
731.011	0.0162774
731.089	0.0163302
731.167	0.0163162
731.245	0.0162846
731.323	0.0163376
731.401	0.0164538
731.479	0.0163700
731.558	0.0164525
731.636	0.0164054
731.714	0.0163943
731.792	0.0164064
731.870	0.0162746
731.948	0.0164060
732.026	0.0165217
732.104	0.0164562
732.183	0.0164051
732.261	0.0163981
732.339	0.0164365
732.417	0.0163874
732.495	0.0163229
732.573	0.0164263
732.651	0.0163456
732.729	0.0163494
732.808	0.0164050
732.886	0.0163995
732.964	0.0163686
733.042	0.0163738
733.120	0.0163585
733.198	0.0162510
733.276	0.0162861
733.354	0.0163187
733.433	0.0163005
733.511	0.0162672
733.589	0.0161858
733.667	0.0163895
733.745	0.0162762
733.823	0.0163579
733.901	0.0163951
733.979	0.0163313
734.058	0.0163649
734.136	0.0162711
734.214	0.0163515
734.292	0.0163074
734.370	0.0163248
734.448	0.0163189
734.526	0.0162035
734.604	0.0163532
734.683	0.0163234
734.761	0.0163103
734.839	0.0162989
734.917	0.0163645
734.995	0.0164120
735.073	0.0163431
735.151	0.0161706
735.229	0.0164050
735.308	0.0163015
735.386	0.0164545
735.464	0.0164324
735.542	0.0162659
735.620	0.0162244
735.698	0.0162099
735.776	0.0163824
735.854	0.0162890
735.933	0.0163036
736.011	0.0163238
736.089	0.0163087
736.167	0.0163147
736.245	0.0163781
736.323	0.0163775
736.401	0.0163377
736.479	0.0164388
736.558	0.0161819
736.636	0.0163829
736.714	0.0163869
736.792	0.0162569
736.870	0.0162663
736.948	0.0162213
737.026	0.0163015
737.104	0.0164420
737.183	0.0163005
737.261	0.0162746
737.339	0.0163756
737.417	0.0163161
737.495	0.0162961
737.573	0.0163536
737.651	0.0163018
737.729	0.0163128
737.808	0.0162700
737.886	0.0162531
737.964	0.0162843
738.042	0.0162706
738.120	0.0163363
738.198	0.0163068
738.276	0.0163114
738.354	0.0162958
738.433	0.0163045
738.511	0.0163142
738.589	0.0164257
738.667	0.0163104
738.745	0.0163098
738.823	0.0164434
738.901	0.0165157
738.979	0.0163638
739.058	0.0163185
739.136	0.0164290
739.214	0.0164056
739.292	0.0164684
739.370	0.0163918
739.448	0.0165237
739.526	0.0164142
739.604	0.0164915
739.683	0.0165682
739.761	0.0166186
739.839	0.0165067
739.917	0.0164581
739.995	0.0164952
740.073	0.0163068
740.151	0.0162115
740.229	0.0162304
740.308	0.0161198
740.386	0.0160402
740.464	0.0160470
740.542	0.0160719
740.620	0.0158652
740.698	0.0159499
740.776	0.0160684
740.854	0.0161784
740.933	0.0163274
741.011	0.0164617
741.089	0.0166677
741.167	0.0168683
741.245	0.0169656
741.323	0.0171613
741.401	0.0171493
741.479	0.0172375
741.558	0.0170998
741.636	0.0171031
741.714	0.0170722
741.792	0.0168414
741.870	0.0166226
741.948	0.0164376
742.026	0.0161668
742.104	0.0158257
742.183	0.0157120
742.261	0.0154435
742.339	0.0152419
742.417	0.0150510
742.495	0.0149083
742.573	0.0147553
742.651	0.0146498
742.729	0.0148131
742.808	0.0150539
742.886	0.0156523
742.964	0.0160565
743.042	0.0167586
743.120	0.0176688
743.198	0.0180010
743.276	0.0185114
743.354	0.0188913
743.433	0.0187536
743.511	0.0186006
743.589	0.0181512
743.667	0.0176158
743.745	0.0168528
743.823	0.0163843
743.901	0.0158743
743.979	0.0154247
744.058	0.0151925
744.136	0.0151649
744.214	0.0151986
744.292	0.0152129
744.370	0.0153557
744.448	0.0156192
744.526	0.0157545
744.604	0.0158555
744.683	0.0157915
744.761	0.0156773
744.839	0.0156567
744.917	0.0152237
744.995	0.0149213
745.073	0.0149635
745.151	0.0149925
745.229	0.0153178
745.308	0.0157722
745.386	0.0163098
745.464	0.0171046
745.542	0.0179840
745.620	0.0186772
745.698	0.0190882
745.776	0.0193074
745.854	0.0192035
745.933	0.0187502
746.011	0.0182047
746.089	0.0175886
746.167	0.0170675
746.245	0.0163231
746.323	0.0158926
746.401	0.0152597
746.479	0.0148788
746.558	0.0148416
746.636	0.0145336
746.714	0.0145026
746.792	0.0143584
746.870	0.0144321
746.948	0.0144513
747.026	0.0144578
747.104	0.0147092
747.183	0.0149005
747.261	0.0151695
747.339	0.0155335
747.417	0.0158215
747.495	0.0162957
747.573	0.0167474
747.651	0.0171737
747.729	0.0176903
747.808	0.0179997
747.886	0.0183447
747.964	0.0186821
748.042	0.0189838
748.120	0.0189743
748.198	0.0190501
748.276	0.0188515
748.354	0.0185397
748.433	0.0177263
748.511	0.0171431
748.589	0.0163596
748.667	0.0156444
748.745	0.0147739
748.823	0.0142020
748.901	0.0139703
748.979	0.0139069
749.058	0.0140125
749.136	0.0141009
749.214	0.0145502
749.292	0.0147839
749.370	0.0151683
749.448	0.0155015
749.526	0.0158447
749.604	0.0163275
749.683	0.0165353
749.761	0.0168774
749.839	0.0169891
749.917	0.0169254
749.995	0.0170247
750.073	0.0170490
750.151	0.0170017
750.229	0.0170567
750.308	0.0170235
750.386	0.0172530
750.464	0.0172651
750.542	0.0173792
750.620	0.0174354
750.698	0.0176463
750.776	0.0176112
750.854	0.0175581
750.933	0.0173323
751.011	0.0171290
751.089	0.0168182
751.167	0.0165376
751.245	0.0160964
751.323	0.0156566
751.401	0.0154179
751.479	0.0150318
751.558	0.0146101
751.636	0.0145637
751.714	0.0144995
751.792	0.0146368
751.870	0.0148080
751.948	0.0150812
752.026	0.0155629
752.104	0.0157977
752.183	0.0161057
752.261	0.0164418
752.339	0.0169155
752.417	0.0171612
752.495	0.0172269
752.573	0.0172549
752.651	0.0174068
752.729	0.0174398
752.808	0.0174281
752.886	0.0173688
752.964	0.0173824
753.042	0.0172414
753.120	0.0170399
753.198	0.0168439
753.276	0.0167051
753.354	0.0165198
753.433	0.0163050
753.511	0.0162907
753.589	0.0162723
753.667	0.0162759
753.745	0.0164086
753.823	0.0163502
753.901	0.0162988
753.979	0.0164313
754.058	0.0161861
754.136	0.0160557
754.214	0.0161053
754.292	0.0157929
754.370	0.0156420
754.448	0.0155083
754.526	0.0153255
754.604	0.0152817
754.683	0.0152471
754.761	0.0154633
754.839	0.0155383
754.917	0.0157217
754.995	0.0160507
755.073	0.0163857
755.151	0.0166647
755.229	0.0166304
755.308	0.0169633
755.386	0.0170534
755.464	0.0172104
755.542	0.0173200
755.620	0.0175981
755.698	0.0175961
755.776	0.0176388
755.854	0.0177132
755.933	0.0176637
756.011	0.0175658
756.089	0.0174277
756.167	0.0170967
756.245	0.0169628
756.323	0.0167075
756.401	0.0164561
756.479	0.0160903
756.558	0.0158424
756.636	0.0156927
756.714	0.0155007
756.792	0.0153300
756.870	0.0153179
756.948	0.0152413
757.026	0.0152939
757.104	0.0151913
757.183	0.0152203
757.261	0.0152835
757.339	0.0153958
757.417	0.0151605
757.495	0.0154534
757.573	0.0154673
757.651	0.0155535
757.729	0.0156918
757.808	0.0158976
757.886	0.0161615
757.964	0.0164375
758.042	0.0169130
758.120	0.0171411
758.198	0.0173388
758.276	0.0175955
758.354	0.0177036
758.433	0.0178671
758.511	0.0179896
758.589	0.0182227
758.667	0.0183266
758.745	0.0182727
758.823	0.0182092
758.901	0.0182177
758.979	0.0181925
759.058	0.0180693
759.136	0.0178670
759.214	0.0176609
759.292	0.0172792
759.370	0.0169921
759.448	0.0166998
759.526	0.0162667
759.604	0.0157967
759.683	0.0155155
759.761	0.0150621
759.839	0.0146447
759.917	0.0144176
759.995	0.0139970
760.073	0.0137635
760.151	0.0135744
760.229	0.0134212
760.308	0.0132880
760.386	0.0134245
760.464	0.0134330
760.542	0.0139954
760.620	0.0143650
760.698	0.0148494
760.776	0.0153548
760.854	0.0156059
760.933	0.0160869
761.011	0.0166816
761.089	0.0169278
761.167	0.0171692
761.245	0.0177151
761.323	0.0181000
761.401	0.0182352
761.479	0.0184149
761.558	0.0186239
761.636	0.0188774
761.714	0.0190197
761.792	0.0190889
761.870	0.0190946
761.948	0.0188743
762.026	0.0187733
762.104	0.0186662
762.183	0.0185991
762.261	0.0182714
762.339	0.0179534
762.417	0.0176563
762.495	0.0171672
762.573	0.0167090
762.651	0.0162262
762.729	0.0157084
762.808	0.0154121
762.886	0.0149036
762.964	0.0145952
763.042	0.0145229
763.120	0.0142292
763.198	0.0142554
763.276	0.0142783
763.354	0.0143105
763.433	0.0144393
763.511	0.0147318
763.589	0.0148251
763.667	0.0150697
763.745	0.0151273
763.823	0.0153220
763.901	0.0153339
763.979	0.0156343
764.058	0.0158942
764.136	0.0158398
764.214	0.0158208
764.292	0.0157925
764.370	0.0158756
764.448	0.0157954
764.526	0.0155814
764.604	0.0155560
764.683	0.0156983
764.761	0.0157442
764.839	0.0158435
764.917	0.0161307
764.995	0.0165107
765.073	0.0169005
765.151	0.0173065
765.229	0.0177990
765.308	0.0181047
765.386	0.0184077
765.464	0.0187508
765.542	0.0188860
765.620	0.0189631
765.698	0.0189078
765.776	0.0185510
765.854	0.0185308
765.933	0.0182640
766.011	0.0179179
766.089	0.0175268
766.167	0.0170032
766.245	0.0167220
766.323	0.0163216
766.401	0.0159797
766.479	0.0157925
766.558	0.0155267
766.636	0.0154028
766.714	0.0152307
766.792	0.0151580
766.870	0.0153185
766.948	0.0153171
767.026	0.0154491
767.104	0.0155760
767.183	0.0156286
767.261	0.0160927
767.339	0.0163280
767.417	0.0167004
767.495	0.0172346
767.573	0.0174363
767.651	0.0175272
767.729	0.0176816
767.808	0.0176752
767.886	0.0174924
767.964	0.0171303
768.042	0.0165230
768.120	0.0159431
768.198	0.0153361
768.276	0.0147440
768.354	0.0139693
768.433	0.0135920
768.511	0.0131261
768.589	0.0126218
768.667	0.0125420
768.745	0.0123380
768.823	0.0123840
768.901	0.0125314
768.979	0.0129028
769.058	0.0130692
769.136	0.0135765
769.214	0.0141939
769.292	0.0148391
769.370	0.0153738
769.448	0.0161357
769.526	0.0169290
769.604	0.0176735
769.683	0.0185666
769.761	0.0193728
769.839	0.0200134
769.917	0.0205824
769.995	0.0210780
770.073	0.0213042
770.151	0.0214285
770.229	0.0215347
770.308	0.0212761
770.386	0.0209395
770.464	0.0206374
770.542	0.0201539
770.620	0.0195832
770.698	0.0187535
770.776	0.0181236
770.854	0.0175515
770.933	0.0170029
771.011	0.0165331
771.089	0.0161783
771.167	0.0158221
771.245	0.0154591
771.323	0.0151881
771.401	0.0150170
771.479	0.0149434
771.558	0.0149886
771.636	0.0148521
771.714	0.0148583
771.792	0.0148515
771.870	0.0147165
771.948	0.0144546
772.026	0.0143560
772.104	0.0140762
772.183	0.0137354
772.261	0.0133772
772.339	0.0130505
772.417	0.0127744
772.495	0.0126799
772.573	0.0124290
772.651	0.0123244
772.729	0.0122894
772.808	0.0124274
772.886	0.0125411
772.964	0.0127885
773.042	0.0132690
773.120	0.0134937
773.198	0.0137764
773.276	0.0141933
773.354	0.0146548
773.433	0.0153245
773.511	0.0159895
773.589	0.0165763
773.667	0.0172025
773.745	0.0179302
773.823	0.0185531
773.901	0.0193744
773.979	0.0199583
774.058	0.0207322
774.136	0.0213640
774.214	0.0217035
774.292	0.0220924
774.370	0.0224345
774.448	0.0224005
774.526	0.0223952
774.604	0.0223637
774.683	0.0219651
774.761	0.0215733
774.839	0.0210149
774.917	0.0204383
774.995	0.0198317
775.073	0.0189263
775.151	0.0183231
775.229	0.0174045
775.308	0.0167612
775.386	0.0158730
775.464	0.0151430
775.542	0.0143821
775.620	0.0140828
775.698	0.0135842
775.776	0.0131038
775.854	0.0128499
775.933	0.0126952
776.011	0.0124193
776.089	0.0124139
776.167	0.0123903
776.245	0.0125852
776.323	0.0128562
776.401	0.0129012
776.479	0.0130714
776.558	0.0131812
776.636	0.0133173
776.714	0.0135658
776.792	0.0136220
776.870	0.0137698
776.948	0.0139371
777.026	0.0141333
777.104	0.0142033
777.183	0.0143078
777.261	0.0143247
777.339	0.0145746
777.417	0.0146617
777.495	0.0147796
777.573	0.0152052
777.651	0.0154659
777.729	0.0157587
777.808	0.0161926
777.886	0.0169018
777.964	0.0174419
778.042	0.0180618
778.120	0.0185134
778.198	0.0191273
778.276	0.0196033
778.354	0.0198105
778.433	0.0200971
778.511	0.0203928
778.589	0.0206113
778.667	0.0207309
778.745	0.0207490
778.823	0.0205988
778.901	0.0205409
778.979	0.0202952
779.058	0.0200540
779.136	0.0197829
779.214	0.0196421
779.292	0.0193156
779.370	0.0189269
779.448	0.0186076
779.526	0.0181624
779.604	0.0178066
779.683	0.0175101
779.761	0.0169200
779.839	0.0164133
779.917	0.0162963
779.995	0.0156999
780.073	0.0152618
780.151	0.0149828
780.229	0.0146910
780.308	0.0142371
780.386	0.0140622
780.464	0.0136697
780.542	0.0134228
780.620	0.0131889
780.698	0.0128960
780.776	0.0129107
780.854	0.0128971
780.933	0.0127840
781.011	0.0127695
781.089	0.0127870
781.167	0.0131024
781.245	0.0131439
781.323	0.0134159
781.401	0.0137304
781.479	0.0139082
781.558	0.0141942
781.636	0.0145568
781.714	0.0149162
781.792	0.0150959
781.870	0.0155186
781.948	0.0158689
782.026	0.0158700
782.104	0.0162449
782.183	0.0163268
782.261	0.0166801
782.339	0.0169603
782.417	0.0171751
782.495	0.0175548
782.573	0.0177750
782.651	0.0180418
782.729	0.0183357
782.808	0.0186362
782.886	0.0190786
782.964	0.0191029
783.042	0.0193047
783.120	0.0196067
783.198	0.0196095
783.276	0.0197160
783.354	0.0198685
783.433	0.0196874
783.511	0.0194682
783.589	0.0196739
783.667	0.0194043
783.745	0.0190464
783.823	0.0186460
783.901	0.0183829
783.979	0.0179202
784.058	0.0176193
784.136	0.0172273
784.214	0.0169355
784.292	0.0167567
784.370	0.0162466
784.448	0.0159198
784.526	0.0158454
784.604	0.0155139
784.683	0.0151939
784.761	0.0152058
784.839	0.0150928
784.917	0.0147290
784.995	0.0147058
785.073	0.0146030
785.151	0.0144907
785.229	0.0143575
785.308	0.0139403
785.386	0.0141672
785.464	0.0141607
785.542	0.0141530
785.620	0.0142543
785.698	0.0143544
785.776	0.0143436
785.854	0.0146340
785.933	0.0150668
786.011	0.0150401
786.089	0.0153037
786.167	0.0153967
786.245	0.0156349
786.323	0.0158886
786.401	0.0159198
786.479	0.0159370
786.558	0.0158955
786.636	0.0159824
786.714	0.0159933
786.792	0.0159238
786.870	0.0159313
786.948	0.0159798
787.026	0.0160805
787.104	0.0161011
787.183	0.0161591
787.261	0.0163356
787.339	0.0165540
787.417	0.0169341
787.495	0.0172334
787.573	0.0174759
787.651	0.0176483
787.729	0.0179175
787.808	0.0182302
787.886	0.0185670
787.964	0.0188554
788.042	0.0188255
788.120	0.0189812
788.198	0.0190636
788.276	0.0189504
788.354	0.0188728
788.433	0.0185709
788.511	0.0181974
788.589	0.0179766
788.667	0.0177294
788.745	0.0172257
788.823	0.0168852
788.901	0.0165418
788.979	0.0161243
789.058	0.0159783
789.136	0.0156770
789.214	0.0154433
789.292	0.0151891
789.370	0.0150243
789.448	0.0149347
789.526	0.0151012
789.604	0.0150980
789.683	0.0153373
789.761	0.0156517
789.839	0.0158485
789.917	0.0159742
789.995	0.0162527
790.073	0.0164825
790.151	0.0164439
790.229	0.0165804
790.308	0.0166859
790.386	0.0166544
790.464	0.0167125
790.542	0.0166902
790.620	0.0166015
790.698	0.0164729
790.776	0.0162508
790.854	0.0159876
790.933	0.0158099
791.011	0.0156194
791.089	0.0153408
791.167	0.0151179
791.245	0.0149875
791.323	0.0147655
791.401	0.0147481
791.479	0.0146091
791.558	0.0145531
791.636	0.0145918
791.714	0.0146867
791.792	0.0147020
791.870	0.0147758
791.948	0.0149619
792.026	0.0151978
792.104	0.0153999
792.183	0.0156430
792.261	0.0158996
792.339	0.0160935
792.417	0.0165109
792.495	0.0167423
792.573	0.0172396
792.651	0.0174702
792.729	0.0177927
792.808	0.0182020
792.886	0.0183565
792.964	0.0185912
793.042	0.0187161
793.120	0.0190292
793.198	0.0189856
793.276	0.0189838
793.354	0.0189896
793.433	0.0188606
793.511	0.0184365
793.589	0.0181659
793.667	0.0179181
793.745	0.0174854
793.823	0.0171416
793.901	0.0167975
793.979	0.0164783
794.058	0.0159374
794.136	0.0158389
794.214	0.0155794
794.292	0.0153741
794.370	0.0150427
794.448	0.0148750
794.526	0.0148628
794.604	0.0148209
794.683	0.0148688
794.761	0.0148505
794.839	0.0150410
794.917	0.0152001
794.995	0.0151994
795.073	0.0154015
795.151	0.0156638
795.229	0.0156508
795.308	0.0159053
795.386	0.0160707
795.464	0.0160333
795.542	0.0162326
795.620	0.0162936
795.698	0.0164250
795.776	0.0164188
795.854	0.0163139
795.933	0.0163145
796.011	0.0161578
796.089	0.0162335
796.167	0.0160947
796.245	0.0161221
796.323	0.0163380
796.401	0.0161116
796.479	0.0163773
796.558	0.0163539
796.636	0.0162659
796.714	0.0164266
796.792	0.0165366
796.870	0.0165455
796.948	0.0167091
797.026	0.0166720
797.104	0.0166941
797.183	0.0168022
797.261	0.0167154
797.339	0.0166682
797.417	0.0167482
797.495	0.0167240
797.573	0.0165527
797.651	0.0164382
797.729	0.0163712
797.808	0.0163321
797.886	0.0164245
797.964	0.0164668
798.042	0.0165286
798.120	0.0166556
798.198	0.0164770
798.276	0.0167296
798.354	0.0168223
798.433	0.0168385
798.511	0.0168837
798.589	0.0168176
798.667	0.0166811
798.745	0.0164946
798.823	0.0165533
798.901	0.0165379
798.979	0.0166927
799.058	0.0164326
799.136	0.0163174
799.214	0.0161562
799.292	0.0160189
799.370	0.0159241
799.448	0.0158082
799.526	0.0157631
799.604	0.0155138
799.683	0.0155016
799.761	0.0154661
799.839	0.0154648
799.917	0.0153706
799.995	0.0154569
800.073	0.0154855
800.151	0.0155317
800.229	0.0155718
800.308	0.0155247
800.386	0.0158144
800.464	0.0160742
800.542	0.0163506
800.620	0.0166769
800.698	0.0167802
800.776	0.0169822
800.854	0.0172757
800.933	0.0174008
801.011	0.0176579
801.089	0.0176229
801.167	0.0176727
801.245	0.0176372
801.323	0.0175707
801.401	0.0173859
801.479	0.0172367
801.558	0.0171207
801.636	0.0169856
801.714	0.0166639
801.792	0.0165406
801.870	0.0162726
801.948	0.0161788
802.026	0.0159251
802.104	0.0158007
802.183	0.0155856
802.261	0.0155187
802.339	0.0155827
802.417	0.0155685
802.495	0.0155784
802.573	0.0154299
802.651	0.0156102
802.729	0.0156797
802.808	0.0155759
802.886	0.0157077
802.964	0.0157588
803.042	0.0158171
803.120	0.0159625
803.198	0.0159349
803.276	0.0159578
803.354	0.0161139
803.433	0.0162704
803.511	0.0161827
803.589	0.0163378
803.667	0.0165007
803.745	0.0165572
803.823	0.0165409
803.901	0.0166590
803.979	0.0166783
804.058	0.0166586
804.136	0.0167894
804.214	0.0166375
804.292	0.0168278
804.370	0.0170107
804.448	0.0169218
804.526	0.0168592
804.604	0.0168864
804.683	0.0168891
804.761	0.0168220
804.839	0.0168107
804.917	0.0167345
804.995	0.0166523
805.073	0.0166117
805.151	0.0163959
805.229	0.0163980
805.308	0.0164382
805.386	0.0162492
805.464	0.0162329
805.542	0.0162621
805.620	0.0163269
805.698	0.0161274
805.776	0.0161363
805.854	0.0160536
805.933	0.0160629
806.011	0.0161644
806.089	0.0161036
806.167	0.0161012
806.245	0.0162206
806.323	0.0163995
806.401	0.0163151
806.479	0.0164469
806.558	0.0164720
806.636	0.0163914
806.714	0.0165273
806.792	0.0165782
806.870	0.0165702
806.948	0.0164042
807.026	0.0162878
807.104	0.0163902
807.183	0.0163869
807.261	0.0164249
807.339	0.0162106
807.417	0.0162451
807.495	0.0162573
807.573	0.0161700
807.651	0.0162178
807.729	0.0162457
807.808	0.0163876
807.886	0.0164773
807.964	0.0163748
808.042	0.0165774
808.120	0.0164646
808.198	0.0166198
808.276	0.0166859
808.354	0.0167479
808.433	0.0167715
808.511	0.0169167
808.589	0.0169524
808.667	0.0169099
808.745	0.0168045
808.823	0.0167215
808.901	0.0166860
808.979	0.0166954
809.058	0.0165987
809.136	0.0165654
809.214	0.0163423
809.292	0.0163455
809.370	0.0162383
809.448	0.0162247
809.526	0.0162328
809.604	0.0162980
809.683	0.0161813
809.761	0.0163045
809.839	0.0163381
809.917	0.0162625
809.995	0.0162073
810.073	0.0161940
810.151	0.0161337
810.229	0.0161269
810.308	0.0160011
810.386	0.0160918
810.464	0.0159097
810.542	0.0157930
810.620	0.0157678
810.698	0.0156386
810.776	0.0156425
810.854	0.0157274
810.933	0.0157723
811.011	0.0157756
811.089	0.0158240
811.167	0.0158674
811.245	0.0157601
811.323	0.0159099
811.401	0.0160571
811.479	0.0162279
811.558	0.0163525
811.636	0.0165560
811.714	0.0167031
811.792	0.0168258
811.870	0.0169497
811.948	0.0171242
812.026	0.0173200
812.104	0.0173598
812.183	0.0175628
812.261	0.0174855
812.339	0.0174660
812.417	0.0175312
812.495	0.0174065
812.573	0.0174221
812.651	0.0171679
812.729	0.0169186
812.808	0.0170701
812.886	0.0169460
812.964	0.0166221
813.042	0.0164246
813.120	0.0162708
813.198	0.0160431
813.276	0.0159138
813.354	0.0159264
813.433	0.0159450
813.511	0.0157648
813.589	0.0158213
813.667	0.0157674
813.745	0.0157301
813.823	0.0158003
813.901	0.0160203
813.979	0.0160429
814.058	0.0160168
814.136	0.0160811
814.214	0.0162246
814.292	0.0162167
814.370	0.0161236
814.448	0.0161543
814.526	0.0162872
814.604	0.0163125
814.683	0.0163344
814.761	0.0162799
814.839	0.0162143
814.917	0.0161262
814.995	0.0161953
815.073	0.0162550
815.151	0.0162093
815.229	0.0160642
815.308	0.0162191
815.386	0.0162259
815.464	0.0161951
815.542	0.0161973
815.620	0.0163383
815.698	0.0163552
815.776	0.0162016
815.854	0.0165795
815.933	0.0165022
816.011	0.0165301
816.089	0.0166177
816.167	0.0163664
816.245	0.0165250
816.323	0.0164604
816.401	0.0164069
816.479	0.0164758
816.558	0.0164864
816.636	0.0164735
816.714	0.0164813
816.792	0.0165458
816.870	0.0165051
816.948	0.0165001
817.026	0.0164327
817.104	0.0165011
817.183	0.0164194
817.261	0.0163894
817.339	0.0165009
817.417	0.0162842
817.495	0.0162355
817.573	0.0164515
817.651	0.0164133
817.729	0.0162861
817.808	0.0164001
817.886	0.0163939
817.964	0.0163671
818.042	0.0164929
818.120	0.0162435
818.198	0.0164175
818.276	0.0164249
818.354	0.0163500
818.433	0.0162144
818.511	0.0161287
818.589	0.0163025
818.667	0.0162898
818.745	0.0162530
818.823	0.0162197
818.901	0.0161120
818.979	0.0162248
819.058	0.0161491
819.136	0.0163013
819.214	0.0164165
819.292	0.0163287
819.370	0.0162012
819.448	0.0162959
819.526	0.0163828
819.604	0.0165009
819.683	0.0165336
819.761	0.0166025
819.839	0.0166943
819.917	0.0166954
819.995	0.0166610
820.073	0.0168758
820.151	0.0166862
820.229	0.0167462
820.308	0.0168677
820.386	0.0167432
820.464	0.0167858
820.542	0.0167451
820.620	0.0166319
820.698	0.0165379
820.776	0.0165829
820.854	0.0163636
820.933	0.0162240
821.011	0.0161586
821.089	0.0161401
821.167	0.0160227
821.245	0.0159323
821.323	0.0159293
821.401	0.0158846
821.479	0.0159494
821.558	0.0159808
821.636	0.0158549
821.714	0.0158183
821.792	0.0157603
821.870	0.0158563
821.948	0.0158389
822.026	0.0158076
822.104	0.0157509
822.183	0.0158636
822.261	0.0158749
822.339	0.0158898
822.417	0.0160097
822.495	0.0160272
822.573	0.0160372
822.651	0.0161848
822.729	0.0161156
822.808	0.0161376
822.886	0.0161979
822.964	0.0163342
823.042	0.0163512
823.120	0.0162478
823.198	0.0163242
823.276	0.0164642
823.354	0.0165943
823.433	0.0166296
823.511	0.0165858
823.589	0.0167027
823.667	0.0168279
823.745	0.0168273
823.823	0.0169395
823.901	0.0168070
823.979	0.0169195
824.058	0.0169482
824.136	0.0169731
824.214	0.0168962
824.292	0.0168139
824.370	0.0169549
824.448	0.0169605
824.526	0.0168224
824.604	0.0166904
824.683	0.0166592
824.761	0.0165928
824.839	0.0165697
824.917	0.0166621
824.995	0.0164217
825.073	0.0163853
825.151	0.0163625
825.229	0.0163457
825.308	0.0161600
825.386	0.0160197
825.464	0.0162494
825.542	0.0163303
825.620	0.0162070
825.698	0.0159460
825.776	0.0161001
825.854	0.0161694
825.933	0.0160838
826.011	0.0161002
826.089	0.0160664
826.167	0.0161086
826.245	0.0160150
826.323	0.0160651
826.401	0.0159628
826.479	0.0160136
826.558	0.0160237
826.636	0.0161076
826.714	0.0160757
826.792	0.0160305
826.870	0.0159317
826.948	0.0159277
827.026	0.0160034
827.104	0.0161434
827.183	0.0162424
827.261	0.0161347
827.339	0.0161901
827.417	0.0161604
827.495	0.0162551
827.573	0.0164218
827.651	0.0163363
827.729	0.0164088
827.808	0.0163976
827.886	0.0164491
827.964	0.0164915
828.042	0.0165189
828.120	0.0165117
828.198	0.0165681
828.276	0.0167005
828.354	0.0165754
828.433	0.0165991
828.511	0.0166286
828.589	0.0166006
828.667	0.0167039
828.745	0.0165951
828.823	0.0165652
828.901	0.0164404
828.979	0.0164900
829.058	0.0164442
829.136	0.0163890
829.214	0.0163293
829.292	0.0162639
829.370	0.0161821
829.448	0.0162314
829.526	0.0161934
829.604	0.0161146
829.683	0.0160130
829.761	0.0160880
829.839	0.0159814
829.917	0.0159538
829.995	0.0159727
830.073	0.0160117
830.151	0.0161385
830.229	0.0161282
830.308	0.0161137
830.386	0.0161674
830.464	0.0161633
830.542	0.0162048
830.620	0.0162633
830.698	0.0163634
830.776	0.0164487
830.854	0.0164520
830.933	0.0165153
831.011	0.0165725
831.089	0.0166450
831.167	0.0165337
831.245	0.0167803
831.323	0.0167685
831.401	0.0168388
831.479	0.0167699
831.558	0.0167397
831.636	0.0167065
831.714	0.0167631
831.792	0.0168262
831.870	0.0166779
831.948	0.0165932
832.026	0.0165996
832.104	0.0166499
832.183	0.0166150
832.261	0.0164748
832.339	0.0164774
832.417	0.0163086
832.495	0.0163398
832.573	0.0162924
832.651	0.0163525
832.729	0.0161149
832.808	0.0160554
832.886	0.0160649
832.964	0.0161150
833.042	0.0161340
833.120	0.0159424
833.198	0.0160016
833.276	0.0161130
833.354	0.0158174
833.433	0.0159480
833.511	0.0160796
833.589	0.0159540
833.667	0.0160207
833.745	0.0158504
833.823	0.0159618
833.901	0.0159607
833.979	0.0161170
834.058	0.0161897
834.136	0.0162362
834.214	0.0161504
834.292	0.0162325
834.370	0.0161568
834.448	0.0161282
834.526	0.0161637
834.604	0.0162783
834.683	0.0162881
834.761	0.0163467
834.839	0.0162655
834.917	0.0164612
834.995	0.0164382
835.073	0.0164687
835.151	0.0165246
835.229	0.0165441
835.308	0.0164540
835.386	0.0165522
835.464	0.0167342
835.542	0.0168124
835.620	0.0167641
835.698	0.0166537
835.776	0.0165510
835.854	0.0167412
835.933	0.0168468
836.011	0.0168197
836.089	0.0167619
836.167	0.0168294
836.245	0.0165507
836.323	0.0166960
836.401	0.0167451
836.479	0.0165989
836.558	0.0165067
836.636	0.0164717
836.714	0.0164457
836.792	0.0165179
836.870	0.0163658
836.948	0.0164102
837.026	0.0164655
837.104	0.0162153
837.183	0.0162730
837.261	0.0164186
837.339	0.0164890
837.417	0.0164034
837.495	0.0163944
837.573	0.0162543
837.651	0.0161969
837.729	0.0163163
837.808	0.0162212
837.886	0.0163404
837.964	0.0162577
838.042	0.0160785
838.120	0.0160548
838.198	0.0161199
838.276	0.0161166
838.354	0.0160428
838.433	0.0159339
838.511	0.0161320
838.589	0.0160188
838.667	0.0158891
838.745	0.0160196
838.823	0.0161366
838.901	0.0160223
838.979	0.0162744
839.058	0.0162022
839.136	0.0163080
839.214	0.0161984
839.292	0.0164452
839.370	0.0164731
839.448	0.0164716
839.526	0.0165353
839.604	0.0164659
839.683	0.0165168
839.761	0.0165639
839.839	0.0165900
839.917	0.0167386
839.995	0.0166257
840.073	0.0165511
840.151	0.0165929
840.229	0.0166237
840.308	0.0166217
840.386	0.0165010
840.464	0.0165202
840.542	0.0164496
840.620	0.0163277
840.698	0.0163506
840.776	0.0162536
840.854	0.0162688
840.933	0.0161443
841.011	0.0163528
841.089	0.0162939
841.167	0.0162616
841.245	0.0161946
841.323	0.0162818
841.401	0.0163407
841.479	0.0162072
841.558	0.0164420
841.636	0.0164126
841.714	0.0163649
841.792	0.0162980
841.870	0.0162293
841.948	0.0162087
842.026	0.0161493
842.104	0.0163052
842.183	0.0162104
842.261	0.0162099
842.339	0.0161996
842.417	0.0161537
842.495	0.0160939
842.573	0.0162612
842.651	0.0161967
842.729	0.0163267
842.808	0.0163716
842.886	0.0163200
842.964	0.0162827
843.042	0.0164428
843.120	0.0164803
843.198	0.0165632
843.276	0.0166273
843.354	0.0167527
843.433	0.0166557
843.511	0.0166360
843.589	0.0167805
843.667	0.0169019
843.745	0.0168488
843.823	0.0168556
843.901	0.0167782
843.979	0.0166705
844.058	0.0168219
844.136	0.0167458
844.214	0.0167220
844.292	0.0167638
844.370	0.0167683
844.448	0.0167228
844.526	0.0165478
844.604	0.0164935
844.683	0.0164630
844.761	0.0163515
844.839	0.0163951
844.917	0.0162179
844.995	0.0161501
845.073	0.0162406
845.151	0.0160997
845.229	0.0160596
845.308	0.0159933
845.386	0.0160605
845.464	0.0160079
845.542	0.0160057
845.620	0.0160881
845.698	0.0160529
845.776	0.0161848
845.854	0.0160822
845.933	0.0159653
846.011	0.0160985
846.089	0.0160507
846.167	0.0162364
846.245	0.0162166
846.323	0.0160256
846.401	0.0161752
846.479	0.0162305
846.558	0.0161707
846.636	0.0161003
846.714	0.0161327
846.792	0.0161016
846.870	0.0161685
846.948	0.0162419
847.026	0.0163435
847.104	0.0161233
847.183	0.0161417
847.261	0.0161789
847.339	0.0162331
847.417	0.0162025
847.495	0.0162102
847.573	0.0163564
847.651	0.0163959
847.729	0.0163419
847.808	0.0164870
847.886	0.0166473
847.964	0.0166689
848.042	0.0166351
848.120	0.0166650
848.198	0.0167577
848.276	0.0166998
848.354	0.0167690
848.433	0.0168817
848.511	0.0169111
848.589	0.0167324
848.667	0.0166134
848.745	0.0167114
848.823	0.0166657
848.901	0.0165203
848.979	0.0165373
849.058	0.0163805
849.136	0.0164996
849.214	0.0164781
849.292	0.0164184
849.370	0.0164058
849.448	0.0162496
849.526	0.0162521
849.604	0.0163582
849.683	0.0164082
849.761	0.0162024
849.839	0.0161817
849.917	0.0163069
849.995	0.0162249
850.073	0.0162422
850.151	0.0163179
850.229	0.0163598
850.308	0.0162876
850.386	0.0164413
850.464	0.0164434
850.542	0.0164320
850.620	0.0163828
850.698	0.0162371
850.776	0.0164909
850.854	0.0162945
850.933	0.0163464
851.011	0.0162555
851.089	0.0161211
851.167	0.0161042
851.245	0.0161317
851.323	0.0160631
851.401	0.0160435
851.479	0.0159326
851.558	0.0159014
851.636	0.0159592
851.714	0.0160150
851.792	0.0159866
851.870	0.0161098
851.948	0.0162117
852.026	0.0161685
852.104	0.0163190
852.183	0.0164624
852.261	0.0163876
852.339	0.0165193
852.417	0.0166055
852.495	0.0167044
852.573	0.0166743
852.651	0.0167398
852.729	0.0168559
852.808	0.0166664
852.886	0.0166925
852.964	0.0167066
853.042	0.0166645
853.120	0.0164233
853.198	0.0165520
853.276	0.0164172
853.354	0.0161913
853.433	0.0162195
853.511	0.0161261
853.589	0.0161715
853.667	0.0160882
853.745	0.0160230
853.823	0.0159412
853.901	0.0161240
853.979	0.0162337
854.058	0.0160693
854.136	0.0161604
854.214	0.0161351
854.292	0.0161679
854.370	0.0161868
854.448	0.0163726
854.526	0.0163226
854.604	0.0165166
854.683	0.0163021
854.761	0.0165044
854.839	0.0165226
854.917	0.0164027
854.995	0.0166056
855.073	0.0167118
855.151	0.0166504
855.229	0.0167654
855.308	0.0167554
855.386	0.0167173
855.464	0.0167962
855.542	0.0167395
855.620	0.0167209
855.698	0.0167382
855.776	0.0166068
855.854	0.0165789
855.933	0.0165891
856.011	0.0165572
856.089	0.0165297
856.167	0.0163950
856.245	0.0164780
856.323	0.0162887
856.401	0.0163570
856.479	0.0162344
856.558	0.0161314
856.636	0.0161955
856.714	0.0161461
856.792	0.0160590
856.870	0.0161007
856.948	0.0159741
857.026	0.0159587
857.104	0.0160187
857.183	0.0160197
857.261	0.0160905
857.339	0.0161549
857.417	0.0163035
857.495	0.0162892
857.573	0.0161582
857.651	0.0162863
857.729	0.0162711
857.808	0.0162714
857.886	0.0163581
857.964	0.0164285
858.042	0.0163078
858.120	0.0163711
858.198	0.0164476
858.276	0.0163755
858.354	0.0164396
858.433	0.0164836
858.511	0.0164885
858.589	0.0166785
858.667	0.0165372
858.745	0.0164359
858.823	0.0166030
858.901	0.0165566
858.979	0.0165593
859.058	0.0165768
859.136	0.0165311
859.214	0.0165057
859.292	0.0164706
859.370	0.0163935
859.448	0.0163886
859.526	0.0163676
859.604	0.0163637
859.683	0.0163090
859.761	0.0161842
859.839	0.0162068
859.917	0.0162642
859.995	0.0162353
860.073	0.0161744
860.151	0.0160844
860.229	0.0162201
860.308	0.0162167
860.386	0.0161228
860.464	0.0160864
860.542	0.0161116
860.620	0.0160858
860.698	0.0161449
860.776	0.0162933
860.854	0.0163472
860.933	0.0162096
861.011	0.0162837
861.089	0.0164649
861.167	0.0164732
861.245	0.0165019
861.323	0.0164383
861.401	0.0165089
861.479	0.0167265
861.558	0.0166557
861.636	0.0166899
861.714	0.0166094
861.792	0.0166517
861.870	0.0167660
861.948	0.0167433
862.026	0.0167999
862.104	0.0167040
862.183	0.0167744
862.261	0.0166798
862.339	0.0167488
862.417	0.0169109
862.495	0.0168549
862.573	0.0167583
862.651	0.0167366
862.729	0.0166196
862.808	0.0166897
862.886	0.0166036
862.964	0.0165398
863.042	0.0163715
863.120	0.0163449
863.198	0.0162186
863.276	0.0162511
863.354	0.0162044
863.433	0.0162209
863.511	0.0162299
863.589	0.0160876
863.667	0.0162163
863.745	0.0161741
863.823	0.0162446
863.901	0.0161386
863.979	0.0160847
864.058	0.0161765
864.136	0.0160477
864.214	0.0160878
864.292	0.0160941
864.370	0.0160833
864.448	0.0160583
864.526	0.0160654
864.604	0.0161366
864.683	0.0159074
864.761	0.0161007
864.839	0.0160882
864.917	0.0160274
864.995	0.0160609
865.073	0.0161102
865.151	0.0160674
865.229	0.0160695
865.308	0.0160579
865.386	0.0161386
865.464	0.0161833
865.542	0.0161097
865.620	0.0160805
865.698	0.0161214
865.776	0.0159800
865.854	0.0161958
865.933	0.0162531
866.011	0.0161873
866.089	0.0163035
866.167	0.0165586
866.245	0.0166892
866.323	0.0167345
866.401	0.0166586
866.479	0.0168456
866.558	0.0170190
866.636	0.0170289
866.714	0.0171142
866.792	0.0173544
866.870	0.0174439
866.948	0.0173578
867.026	0.0174889
867.104	0.0175674
867.183	0.0173953
867.261	0.0173433
867.339	0.0172343
867.417	0.0171136
867.495	0.0170471
867.573	0.0169495
867.651	0.0167336
867.729	0.0166841
867.808	0.0166234
867.886	0.0164150
867.964	0.0163390
868.042	0.0160166
868.120	0.0160966
868.198	0.0158620
868.276	0.0156638
868.354	0.0157168
868.433	0.0157282
868.511	0.0156562
868.589	0.0155568
868.667	0.0155370
868.745	0.0155716
868.823	0.0154221
868.901	0.0155205
868.979	0.0156918
869.058	0.0156734
869.136	0.0155951
869.214	0.0155740
869.292	0.0155759
869.370	0.0157273
869.448	0.0157224
869.526	0.0158826
869.604	0.0159145
869.683	0.0158199
869.761	0.0159272
869.839	0.0160630
869.917	0.0160152
869.995	0.0160923
870.073	0.0161967
870.151	0.0162225
870.229	0.0162830
870.308	0.0163870
870.386	0.0164579
870.464	0.0166158
870.542	0.0166718
870.620	0.0168333
870.698	0.0168523
870.776	0.0168735
870.854	0.0169702
870.933	0.0171045
871.011	0.0170694
871.089	0.0171951
871.167	0.0173753
871.245	0.0174089
871.323	0.0172796
871.401	0.0172616
871.479	0.0172358
871.558	0.0173008
871.636	0.0172401
871.714	0.0171978
871.792	0.0171439
871.870	0.0168916
871.948	0.0169728
872.026	0.0167330
872.104	0.0167064
872.183	0.0164927
872.261	0.0162296
872.339	0.0160725
872.417	0.0161160
872.495	0.0161762
872.573	0.0159259
872.651	0.0158488
872.729	0.0157578
872.808	0.0156570
872.886	0.0156088
872.964	0.0157111
873.042	0.0157113
873.120	0.0154860
873.198	0.0154249
873.276	0.0155534
873.354	0.0156458
873.433	0.0155022
873.511	0.0155065
873.589	0.0156739
873.667	0.0158157
873.745	0.0157343
873.823	0.0158873
873.901	0.0159625
873.979	0.0159988
874.058	0.0160309
874.136	0.0161232
874.214	0.0161193
874.292	0.0163236
874.370	0.0163108
874.448	0.0163929
874.526	0.0164445
874.604	0.0166062
874.683	0.0166086
874.761	0.0165941
874.839	0.0168534
874.917	0.0168806
874.995	0.0168317
875.073	0.0168967
875.151	0.0167457
875.229	0.0168541
875.308	0.0168935
875.386	0.0169970
875.464	0.0166911
875.542	0.0168142
875.620	0.0168120
875.698	0.0168324
875.776	0.0167857
875.854	0.0168880
875.933	0.0169157
876.011	0.0167488
876.089	0.0166013
876.167	0.0167937
876.245	0.0166274
876.323	0.0165969
876.401	0.0166521
876.479	0.0167280
876.558	0.0165626
876.636	0.0163635
876.714	0.0164549
876.792	0.0164145
876.870	0.0160894
876.948	0.0159615
877.026	0.0161539
877.104	0.0158974
877.183	0.0160176
877.261	0.0158966
877.339	0.0159148
877.417	0.0158546
877.495	0.0156018
877.573	0.0157142
877.651	0.0156683
877.729	0.0156953
877.808	0.0159473
877.886	0.0158834
877.964	0.0160476
878.042	0.0158188
878.120	0.0158792
878.198	0.0160188
878.276	0.0160403
878.354	0.0160180
878.433	0.0161391
878.511	0.0162286
878.589	0.0160941
878.667	0.0163375
878.745	0.0164650
878.823	0.0164666
878.901	0.0164979
878.979	0.0165396
879.058	0.0167422
879.136	0.0165920
879.214	0.0168418
879.292	0.0167734
879.370	0.0168392
879.448	0.0168580
879.526	0.0169743
879.604	0.0170451
879.683	0.0168441
879.761	0.0169047
879.839	0.0170107
879.917	0.0168926
879.995	0.0169911
880.073	0.0169291
880.151	0.0167491
880.229	0.0168061
880.308	0.0167629
880.386	0.0166489
880.464	0.0167403
880.542	0.0167485
880.620	0.0166138
880.698	0.0166863
880.776	0.0163875
880.854	0.0163279
880.933	0.0162991
881.011	0.0163478
881.089	0.0162862
881.167	0.0161200
881.245	0.0162321
881.323	0.0160847
881.401	0.0161644
881.479	0.0160119
881.558	0.0160355
881.636	0.0159300
881.714	0.0160486
881.792	0.0160361
881.870	0.0160102
881.948	0.0160115
882.026	0.0160249
882.104	0.0161702
882.183	0.0161086
882.261	0.0160397
882.339	0.0160542
882.417	0.0160661
882.495	0.0161551
882.573	0.0160145
882.651	0.0161365
882.729	0.0161382
882.808	0.0161037
882.886	0.0161323
882.964	0.0160925
883.042	0.0162935
883.120	0.0163091
883.198	0.0161833
883.276	0.0163715
883.354	0.0164098
883.433	0.0163911
883.511	0.0162438
883.589	0.0164077
883.667	0.0165229
883.745	0.0166594
883.823	0.0165686
883.901	0.0166039
883.979	0.0166098
884.058	0.0165609
884.136	0.0167512
884.214	0.0167319
884.292	0.0167906
884.370	0.0167960
884.448	0.0168789
884.526	0.0168519
884.604	0.0169439
884.683	0.0167896
884.761	0.0168559
884.839	0.0169894
884.917	0.0168830
884.995	0.0169202
885.073	0.0168643
885.151	0.0168141
885.229	0.0168835
885.308	0.0168057
885.386	0.0166824
885.464	0.0167132
885.542	0.0166049
885.620	0.0166280
885.698	0.0164294
885.776	0.0165173
885.854	0.0164629
885.933	0.0164315
886.011	0.0163388
886.089	0.0163074
886.167	0.0162610
886.245	0.0163284
886.323	0.0163355
886.401	0.0162396
886.479	0.0163379
886.558	0.0162910
886.636	0.0163237
886.714	0.0163291
886.792	0.0161932
886.870	0.0162658
886.948	0.0162168
887.026	0.0161006
887.104	0.0161441
887.183	0.0162377
887.261	0.0161631
887.339	0.0160856
887.417	0.0160702
887.495	0.0160584
887.573	0.0159662
887.651	0.0159711
887.729	0.0159293
887.808	0.0159030
887.886	0.0159211
887.964	0.0157709
888.042	0.0158376
888.120	0.0157655
888.198	0.0157795
888.276	0.0158239
888.354	0.0158498
888.433	0.0159492
888.511	0.0160193
888.589	0.0160390
888.667	0.0162138
888.745	0.0162502
888.823	0.0161999
888.901	0.0162373
888.979	0.0163570
889.058	0.0166487
889.136	0.0165791
889.214	0.0167224
889.292	0.0167331
889.370	0.0169141
889.448	0.0168929
889.526	0.0169399
889.604	0.0168958
889.683	0.0170213
889.761	0.0171117
889.839	0.0171455
889.917	0.0168559
889.995	0.0169580
890.073	0.0169603
890.151	0.0169205
890.229	0.0168342
890.308	0.0169056
890.386	0.0168467
890.464	0.0168110
890.542	0.0167518
890.620	0.0166621
890.698	0.0164872
890.776	0.0165399
890.854	0.0165620
890.933	0.0163395
891.011	0.0162234
891.089	0.0163535
891.167	0.0161326
891.245	0.0164547
891.323	0.0163808
891.401	0.0162285
891.479	0.0162130
891.558	0.0161997
891.636	0.0161283
891.714	0.0160303
891.792	0.0162022
891.870	0.0161794
891.948	0.0161701
892.026	0.0161297
892.104	0.0161012
892.183	0.0161078
892.261	0.0162605
892.339	0.0160884
892.417	0.0160669
892.495	0.0160986
892.573	0.0161282
892.651	0.0160670
892.729	0.0160124
892.808	0.0160235
892.886	0.0160356
892.964	0.0162118
893.042	0.0161506
893.120	0.0162819
893.198	0.0160533
893.276	0.0161448
893.354	0.0162138
893.433	0.0160509
893.511	0.0161351
893.589	0.0162619
893.667	0.0161789
893.745	0.0162932
893.823	0.0165070
893.901	0.0162688
893.979	0.0163721
894.058	0.0162862
894.136	0.0163239
894.214	0.0164725
894.292	0.0164189
894.370	0.0163763
894.448	0.0163660
894.526	0.0163671
894.604	0.0162511
894.683	0.0163677
894.761	0.0162465
894.839	0.0162414
894.917	0.0162627
894.995	0.0165134
895.073	0.0164547
895.151	0.0164054
895.229	0.0163648
895.308	0.0163506
895.386	0.0162670
895.464	0.0163486
895.542	0.0164139
895.620	0.0161662
895.698	0.0162188
895.776	0.0163219
895.854	0.0163132
895.933	0.0162961
896.011	0.0161697
896.089	0.0164057
896.167	0.0163002
896.245	0.0161516
896.323	0.0163814
896.401	0.0162798
896.479	0.0163326
896.558	0.0163868
896.636	0.0163545
896.714	0.0164909
896.792	0.0165414
896.870	0.0165446
896.948	0.0164955
897.026	0.0164546
897.104	0.0165765
897.183	0.0166034
897.261	0.0166341
897.339	0.0165954
897.417	0.0165733
897.495	0.0165854
897.573	0.0165735
897.651	0.0165739
897.729	0.0165143
897.808	0.0165651
897.886	0.0165192
897.964	0.0164294
898.042	0.0164076
898.120	0.0163330
898.198	0.0164272
898.276	0.0164329
898.354	0.0162812
898.433	0.0162386
898.511	0.0161997
898.589	0.0161739
898.667	0.0161037
898.745	0.0161492
898.823	0.0161649
898.901	0.0160252
898.979	0.0159480
899.058	0.0159659
899.136	0.0161413
899.214	0.0159134
899.292	0.0160991
899.370	0.0159383
899.448	0.0161694
899.526	0.0161331
899.604	0.0161232
899.683	0.0161326
899.761	0.0161037
899.839	0.0161317
899.917	0.0162030
899.995	0.0161953
900.073	0.0162372
900.151	0.0163055
900.229	0.0162019
900.308	0.0160903
900.386	0.0162737
900.464	0.0163241
900.542	0.0163509
900.620	0.0161748
900.698	0.0163331
900.776	0.0163074
900.854	0.0163829
900.933	0.0162859
901.011	0.0163274
901.089	0.0163315
901.167	0.0163773
901.245	0.0163817
901.323	0.0164294
901.401	0.0162769
901.479	0.0165365
901.558	0.0166736
901.636	0.0166223
901.714	0.0166624
901.792	0.0166280
901.870	0.0166996
901.948	0.0166199
902.026	0.0165156
902.104	0.0166209
902.183	0.0166106
902.261	0.0167201
902.339	0.0166985
902.417	0.0165844
902.495	0.0164523
902.573	0.0165222
902.651	0.0164262
902.729	0.0166512
902.808	0.0165310
902.886	0.0165900
902.964	0.0165456
903.042	0.0163909
903.120	0.0164117
903.198	0.0165219
903.276	0.0164827
903.354	0.0164433
903.433	0.0163420
903.511	0.0163764
903.589	0.0163419
903.667	0.0163716
903.745	0.0162698
903.823	0.0162814
903.901	0.0163991
903.979	0.0164097
904.058	0.0163621
904.136	0.0163720
904.214	0.0163863
904.292	0.0162500
904.370	0.0162505
904.448	0.0162230
904.526	0.0161844
904.604	0.0161969
904.683	0.0161707
904.761	0.0162855
904.839	0.0161145
904.917	0.0162001
904.995	0.0160983
905.073	0.0161339
905.151	0.0161684
905.229	0.0162605
905.308	0.0162663
905.386	0.0162611
905.464	0.0162833
905.542	0.0161591
905.620	0.0161384
905.698	0.0162402
905.776	0.0165202
905.854	0.0164111
905.933	0.0163212
906.011	0.0165375
906.089	0.0164593
906.167	0.0165569
906.245	0.0165811
906.323	0.0165615
906.401	0.0164632
906.479	0.0163863
906.558	0.0163242
906.636	0.0164134
906.714	0.0164133
906.792	0.0163801
906.870	0.0162164
906.948	0.0162101
907.026	0.0162626
907.104	0.0162107
907.183	0.0162056
907.261	0.0161652
907.339	0.0162695
907.417	0.0161321
907.495	0.0162167
907.573	0.0162004
907.651	0.0163666
907.729	0.0164420
907.808	0.0164526
907.886	0.0164613
907.964	0.0164848
908.042	0.0166494
908.120	0.0166843
908.198	0.0166786
908.276	0.0166951
908.354	0.0168329
908.433	0.0166264
908.511	0.0167074
908.589	0.0168723
908.667	0.0169379
908.745	0.0167452
908.823	0.0165958
908.901	0.0167170
908.979	0.0167307
909.058	0.0166663
909.136	0.0165728
909.214	0.0165797
909.292	0.0165588
909.370	0.0164545
909.448	0.0164265
909.526	0.0163789
909.604	0.0163554
909.683	0.0163061
909.761	0.0161681
909.839	0.0162635
909.917	0.0161969
909.995	0.0162325
910.073	0.0160817
910.151	0.0161996
910.229	0.0162254
910.308	0.0161230
910.386	0.0161102
910.464	0.0160624
910.542	0.0161998
910.620	0.0162801
910.698	0.0161992
910.776	0.0161063
910.854	0.0162239
910.933	0.0161996
911.011	0.0162242
911.089	0.0164119
911.167	0.0163235
911.245	0.0163097
911.323	0.0163226
911.401	0.0162674
911.479	0.0163430
911.558	0.0163487
911.636	0.0163617
911.714	0.0163536
911.792	0.0162817
911.870	0.0161673
911.948	0.0162812
912.026	0.0163980
912.104	0.0164021
912.183	0.0163354
912.261	0.0163873
912.339	0.0164532
912.417	0.0165321
912.495	0.0164498
912.573	0.0163915
912.651	0.0164161
912.729	0.0164842
912.808	0.0165457
912.886	0.0165602
912.964	0.0164733
913.042	0.0165002
913.120	0.0165037
913.198	0.0165279
913.276	0.0165432
913.354	0.0163920
913.433	0.0163994
913.511	0.0163925
913.589	0.0163237
913.667	0.0164166
913.745	0.0164448
913.823	0.0164041
913.901	0.0163242
913.979	0.0163171
914.058	0.0162054
914.136	0.0161340
914.214	0.0161980
914.292	0.0161520
914.370	0.0161016
914.448	0.0160918
914.526	0.0159902
914.604	0.0161768
914.683	0.0162051
914.761	0.0162759
914.839	0.0162624
914.917	0.0162827
914.995	0.0162817
915.073	0.0162565
915.151	0.0162079
915.229	0.0162231
915.308	0.0163685
915.386	0.0161863
915.464	0.0162554
915.542	0.0162482
915.620	0.0164168
915.698	0.0163264
915.776	0.0163539
915.854	0.0164143
915.933	0.0164217
916.011	0.0166399
916.089	0.0165491
916.167	0.0165712
916.245	0.0166163
916.323	0.0165229
916.401	0.0166182
916.479	0.0165044
916.558	0.0166190
916.636	0.0167440
916.714	0.0165002
916.792	0.0165038
916.870	0.0166228
916.948	0.0164902
917.026	0.0165086
917.104	0.0164774
917.183	0.0163543
917.261	0.0163730
917.339	0.0164469
917.417	0.0166349
917.495	0.0165549
917.573	0.0164689
917.651	0.0164512
917.729	0.0162400
917.808	0.0162037
917.886	0.0161557
917.964	0.0161078
918.042	0.0162863
918.120	0.0162238
918.198	0.0159707
918.276	0.0159960
918.354	0.0159959
918.433	0.0160995
918.511	0.0159890
918.589	0.0160329
918.667	0.0160489
918.745	0.0158775
918.823	0.0160341
918.901	0.0159847
918.979	0.0161401
919.058	0.0159740
919.136	0.0158723
919.214	0.0160111
919.292	0.0159859
919.370	0.0161103
919.448	0.0160766
919.526	0.0160242
919.604	0.0162126
919.683	0.0161321
919.761	0.0163982
919.839	0.0164458
919.917	0.0163525
