06/10/2022	16:19:52	Ver.	4.1	UNKNOWN
Optical Delay	599.995081	Delta X		0.078125	Sweeps	1	Scan Rate	0/0
Coordinates	Axis 1	NaN	Axis 2	NaN	Axis 3	NaN	Axis 4	NaN	Axis 5	NaN	Axis 6	0.000000
TX Power	0.000000	RX Power	0.000000

599.995	0.0162788
600.073	0.0162849
600.151	0.0162588
600.229	0.0163308
600.308	0.0162556
600.386	0.0163067
600.464	0.0162390
600.542	0.0162640
600.620	0.0162308
600.698	0.0163244
600.776	0.0163051
600.854	0.0162135
600.933	0.0162238
601.011	0.0163041
601.089	0.0162119
601.167	0.0162158
601.245	0.0164244
601.323	0.0163424
601.401	0.0161758
601.479	0.0162164
601.558	0.0162833
601.636	0.0161935
601.714	0.0163466
601.792	0.0162728
601.870	0.0162578
601.948	0.0162697
602.026	0.0163000
602.104	0.0161776
602.183	0.0162979
602.261	0.0161810
602.339	0.0162290
602.417	0.0163357
602.495	0.0160794
602.573	0.0161636
602.651	0.0163529
602.729	0.0162892
602.808	0.0162083
602.886	0.0162971
602.964	0.0161964
603.042	0.0162915
603.120	0.0160378
603.198	0.0163377
603.276	0.0163024
603.354	0.0162609
603.433	0.0163528
603.511	0.0161705
603.589	0.0162775
603.667	0.0162793
603.745	0.0161271
603.823	0.0163551
603.901	0.0162144
603.979	0.0161148
604.058	0.0161873
604.136	0.0162724
604.214	0.0162460
604.292	0.0162337
604.370	0.0163870
604.448	0.0163265
604.526	0.0163640
604.604	0.0163165
604.683	0.0162693
604.761	0.0163090
604.839	0.0161596
604.917	0.0163139
604.995	0.0161908
605.073	0.0161727
605.151	0.0163260
605.229	0.0162389
605.308	0.0164177
605.386	0.0162714
605.464	0.0160618
605.542	0.0161848
605.620	0.0163170
605.698	0.0163419
605.776	0.0161595
605.854	0.0161906
605.933	0.0162578
606.011	0.0163169
606.089	0.0163080
606.167	0.0162757
606.245	0.0162265
606.323	0.0162344
606.401	0.0163293
606.479	0.0162640
606.558	0.0163153
606.636	0.0163577
606.714	0.0162637
606.792	0.0162156
606.870	0.0162306
606.948	0.0163712
607.026	0.0162340
607.104	0.0162404
607.183	0.0162812
607.261	0.0164241
607.339	0.0162119
607.417	0.0161684
607.495	0.0162705
607.573	0.0162675
607.651	0.0162022
607.729	0.0163471
607.808	0.0163441
607.886	0.0162320
607.964	0.0163699
608.042	0.0162926
608.120	0.0162756
608.198	0.0161617
608.276	0.0162626
608.354	0.0162517
608.433	0.0163115
608.511	0.0163533
608.589	0.0162626
608.667	0.0162576
608.745	0.0162607
608.823	0.0163288
608.901	0.0163438
608.979	0.0161695
609.058	0.0163303
609.136	0.0162309
609.214	0.0162453
609.292	0.0162136
609.370	0.0161652
609.448	0.0163742
609.526	0.0162331
609.604	0.0163073
609.683	0.0161929
609.761	0.0162120
609.839	0.0162640
609.917	0.0161304
609.995	0.0160885
610.073	0.0161982
610.151	0.0162088
610.229	0.0161320
610.308	0.0164539
610.386	0.0161878
610.464	0.0160604
610.542	0.0163499
610.620	0.0162482
610.698	0.0162321
610.776	0.0161942
610.854	0.0161008
610.933	0.0160945
611.011	0.0163297
611.089	0.0161530
611.167	0.0161758
611.245	0.0162655
611.323	0.0162648
611.401	0.0162762
611.479	0.0164208
611.558	0.0161499
611.636	0.0162366
611.714	0.0163496
611.792	0.0162442
611.870	0.0162637
611.948	0.0162826
612.026	0.0162300
612.104	0.0161938
612.183	0.0161434
612.261	0.0162872
612.339	0.0162827
612.417	0.0160872
612.495	0.0162168
612.573	0.0162546
612.651	0.0163373
612.729	0.0161746
612.808	0.0161568
612.886	0.0161870
612.964	0.0162538
613.042	0.0163076
613.120	0.0162370
613.198	0.0163330
613.276	0.0162593
613.354	0.0162701
613.433	0.0162868
613.511	0.0161334
613.589	0.0162469
613.667	0.0162028
613.745	0.0161982
613.823	0.0162670
613.901	0.0163735
613.979	0.0161636
614.058	0.0162124
614.136	0.0162011
614.214	0.0161489
614.292	0.0162122
614.370	0.0161088
614.448	0.0162612
614.526	0.0162984
614.604	0.0163502
614.683	0.0162598
614.761	0.0161633
614.839	0.0162189
614.917	0.0161404
614.995	0.0162125
615.073	0.0161959
615.151	0.0163210
615.229	0.0162567
615.308	0.0161330
615.386	0.0161931
615.464	0.0164104
615.542	0.0162923
615.620	0.0163519
615.698	0.0163259
615.776	0.0162740
615.854	0.0163029
615.933	0.0162624
616.011	0.0163684
616.089	0.0163579
616.167	0.0162289
616.245	0.0162714
616.323	0.0162934
616.401	0.0163103
616.479	0.0160915
616.558	0.0162554
616.636	0.0162286
616.714	0.0161494
616.792	0.0161916
616.870	0.0161356
616.948	0.0161975
617.026	0.0162908
617.104	0.0161869
617.183	0.0162189
617.261	0.0162523
617.339	0.0162537
617.417	0.0161620
617.495	0.0161705
617.573	0.0163847
617.651	0.0162932
617.729	0.0161842
617.808	0.0163136
617.886	0.0164033
617.964	0.0162618
618.042	0.0162967
618.120	0.0163994
618.198	0.0163077
618.276	0.0161568
618.354	0.0162634
618.433	0.0162437
618.511	0.0163206
618.589	0.0164285
618.667	0.0163370
618.745	0.0162768
618.823	0.0163380
618.901	0.0162189
618.979	0.0162884
619.058	0.0160860
619.136	0.0163639
619.214	0.0162307
619.292	0.0162835
619.370	0.0163414
619.448	0.0162814
619.526	0.0162944
619.604	0.0162202
619.683	0.0163602
619.761	0.0163010
619.839	0.0162431
619.917	0.0162337
619.995	0.0162004
620.073	0.0162597
620.151	0.0162304
620.229	0.0161590
620.308	0.0163543
620.386	0.0162775
620.464	0.0162585
620.542	0.0162522
620.620	0.0163338
620.698	0.0163011
620.776	0.0162471
620.854	0.0163024
620.933	0.0162449
621.011	0.0162720
621.089	0.0162610
621.167	0.0162198
621.245	0.0162264
621.323	0.0163111
621.401	0.0161568
621.479	0.0163140
621.558	0.0162913
621.636	0.0161909
621.714	0.0161794
621.792	0.0163290
621.870	0.0163354
621.948	0.0163293
622.026	0.0162648
622.104	0.0161713
622.183	0.0162617
622.261	0.0162954
622.339	0.0162260
622.417	0.0161787
622.495	0.0161819
622.573	0.0163094
622.651	0.0162609
622.729	0.0163046
622.808	0.0161803
622.886	0.0161125
622.964	0.0162547
623.042	0.0162772
623.120	0.0161472
623.198	0.0162146
623.276	0.0161740
623.354	0.0163152
623.433	0.0163163
623.511	0.0161214
623.589	0.0162350
623.667	0.0161801
623.745	0.0162414
623.823	0.0162822
623.901	0.0162366
623.979	0.0163377
624.058	0.0161154
624.136	0.0162540
624.214	0.0161560
624.292	0.0162787
624.370	0.0162569
624.448	0.0161498
624.526	0.0162823
624.604	0.0162942
624.683	0.0162353
624.761	0.0161893
624.839	0.0161179
624.917	0.0163648
624.995	0.0162836
625.073	0.0163260
625.151	0.0163589
625.229	0.0162232
625.308	0.0162563
625.386	0.0163078
625.464	0.0162476
625.542	0.0163789
625.620	0.0162481
625.698	0.0163309
625.776	0.0162243
625.854	0.0162099
625.933	0.0162536
626.011	0.0162449
626.089	0.0164180
626.167	0.0162753
626.245	0.0162422
626.323	0.0162770
626.401	0.0162782
626.479	0.0162524
626.558	0.0162991
626.636	0.0162343
626.714	0.0163937
626.792	0.0162937
626.870	0.0163237
626.948	0.0163048
627.026	0.0162145
627.104	0.0161468
627.183	0.0163084
627.261	0.0162061
627.339	0.0162380
627.417	0.0162759
627.495	0.0163307
627.573	0.0163489
627.651	0.0161739
627.729	0.0161102
627.808	0.0163214
627.886	0.0163518
627.964	0.0163416
628.042	0.0162833
628.120	0.0162452
628.198	0.0161256
628.276	0.0163528
628.354	0.0162812
628.433	0.0162974
628.511	0.0162569
628.589	0.0162124
628.667	0.0161823
628.745	0.0163056
628.823	0.0162469
628.901	0.0162527
628.979	0.0161765
629.058	0.0162193
629.136	0.0163061
629.214	0.0163515
629.292	0.0162281
629.370	0.0163216
629.448	0.0162614
629.526	0.0161256
629.604	0.0162054
629.683	0.0163792
629.761	0.0163415
629.839	0.0162635
629.917	0.0161670
629.995	0.0164163
630.073	0.0163267
630.151	0.0162257
630.229	0.0161623
630.308	0.0161708
630.386	0.0162379
630.464	0.0163840
630.542	0.0162976
630.620	0.0162602
630.698	0.0163122
630.776	0.0162040
630.854	0.0160352
630.933	0.0162396
631.011	0.0162711
631.089	0.0161845
631.167	0.0162898
631.245	0.0161475
631.323	0.0162086
631.401	0.0162489
631.479	0.0162668
631.558	0.0163077
631.636	0.0162992
631.714	0.0162234
631.792	0.0162363
631.870	0.0162474
631.948	0.0163131
632.026	0.0162252
632.104	0.0162560
632.183	0.0162395
632.261	0.0163069
632.339	0.0162280
632.417	0.0161815
632.495	0.0162511
632.573	0.0161779
632.651	0.0162671
632.729	0.0163129
632.808	0.0162827
632.886	0.0162440
632.964	0.0161756
633.042	0.0162746
633.120	0.0162836
633.198	0.0163166
633.276	0.0162198
633.354	0.0163172
633.433	0.0161500
633.511	0.0163763
633.589	0.0163211
633.667	0.0162434
633.745	0.0163168
633.823	0.0160793
633.901	0.0162250
633.979	0.0164014
634.058	0.0162383
634.136	0.0162460
634.214	0.0162761
634.292	0.0161279
634.370	0.0161918
634.448	0.0163338
634.526	0.0162766
634.604	0.0162726
634.683	0.0161546
634.761	0.0163148
634.839	0.0161620
634.917	0.0161966
634.995	0.0163480
635.073	0.0162608
635.151	0.0162774
635.229	0.0163696
635.308	0.0163421
635.386	0.0162097
635.464	0.0162592
635.542	0.0163799
635.620	0.0161719
635.698	0.0163180
635.776	0.0163011
635.854	0.0161893
635.933	0.0163174
636.011	0.0161523
636.089	0.0162872
636.167	0.0162431
636.245	0.0162564
636.323	0.0162293
636.401	0.0162764
636.479	0.0161474
636.558	0.0162247
636.636	0.0162804
636.714	0.0163516
636.792	0.0163377
636.870	0.0162487
636.948	0.0162503
637.026	0.0162006
637.104	0.0162090
637.183	0.0162591
637.261	0.0161155
637.339	0.0162151
637.417	0.0162849
637.495	0.0161996
637.573	0.0163544
637.651	0.0161447
637.729	0.0161774
637.808	0.0163277
637.886	0.0163300
637.964	0.0163776
638.042	0.0161905
638.120	0.0163377
638.198	0.0162485
638.276	0.0162261
638.354	0.0162173
638.433	0.0162536
638.511	0.0161701
638.589	0.0162604
638.667	0.0162471
638.745	0.0161846
638.823	0.0163306
638.901	0.0163092
638.979	0.0161938
639.058	0.0161829
639.136	0.0161178
639.214	0.0162496
639.292	0.0162125
639.370	0.0162706
639.448	0.0163152
639.526	0.0160557
639.604	0.0162007
639.683	0.0163371
639.761	0.0162061
639.839	0.0162206
639.917	0.0162809
639.995	0.0163705
640.073	0.0161990
640.151	0.0162572
640.229	0.0162112
640.308	0.0161491
640.386	0.0163686
640.464	0.0162051
640.542	0.0160674
640.620	0.0162226
640.698	0.0162095
640.776	0.0163125
640.854	0.0163287
640.933	0.0161377
641.011	0.0162885
641.089	0.0163359
641.167	0.0161417
641.245	0.0162111
641.323	0.0161961
641.401	0.0162187
641.479	0.0161767
641.558	0.0162730
641.636	0.0161806
641.714	0.0161548
641.792	0.0162917
641.870	0.0162842
641.948	0.0162098
642.026	0.0162843
642.104	0.0163086
642.183	0.0162048
642.261	0.0162967
642.339	0.0162266
642.417	0.0163191
642.495	0.0161792
642.573	0.0162186
642.651	0.0162220
642.729	0.0162775
642.808	0.0163333
642.886	0.0162325
642.964	0.0162283
643.042	0.0163000
643.120	0.0162126
643.198	0.0162981
643.276	0.0161665
643.354	0.0162647
643.433	0.0162314
643.511	0.0163254
643.589	0.0164188
643.667	0.0161868
643.745	0.0161749
643.823	0.0162509
643.901	0.0162394
643.979	0.0161594
644.058	0.0162298
644.136	0.0163231
644.214	0.0162854
644.292	0.0162782
644.370	0.0163137
644.448	0.0162173
644.526	0.0162457
644.604	0.0162822
644.683	0.0161238
644.761	0.0163804
644.839	0.0162212
644.917	0.0161333
644.995	0.0162952
645.073	0.0162572
645.151	0.0161758
645.229	0.0161711
645.308	0.0162347
645.386	0.0161952
645.464	0.0162754
645.542	0.0162688
645.620	0.0163027
645.698	0.0162476
645.776	0.0162708
645.854	0.0163053
645.933	0.0162807
646.011	0.0162709
646.089	0.0162384
646.167	0.0162862
646.245	0.0162704
646.323	0.0162321
646.401	0.0162345
646.479	0.0162590
646.558	0.0162725
646.636	0.0162077
646.714	0.0162643
646.792	0.0162681
646.870	0.0161616
646.948	0.0163334
647.026	0.0163568
647.104	0.0162553
647.183	0.0163364
647.261	0.0162382
647.339	0.0162759
647.417	0.0163490
647.495	0.0161706
647.573	0.0162614
647.651	0.0162442
647.729	0.0161717
647.808	0.0162715
647.886	0.0163576
647.964	0.0163213
648.042	0.0161195
648.120	0.0161995
648.198	0.0162177
648.276	0.0162367
648.354	0.0163678
648.433	0.0160953
648.511	0.0162321
648.589	0.0162865
648.667	0.0162943
648.745	0.0162103
648.823	0.0161945
648.901	0.0163750
648.979	0.0164047
649.058	0.0162120
649.136	0.0161990
649.214	0.0161221
649.292	0.0162273
649.370	0.0161800
649.448	0.0163100
649.526	0.0162864
649.604	0.0162437
649.683	0.0163538
649.761	0.0162344
649.839	0.0162832
649.917	0.0162727
649.995	0.0161590
650.073	0.0163705
650.151	0.0162283
650.229	0.0162177
650.308	0.0162200
650.386	0.0161418
650.464	0.0164210
650.542	0.0164072
650.620	0.0162603
650.698	0.0161454
650.776	0.0162337
650.854	0.0161031
650.933	0.0162630
651.011	0.0162728
651.089	0.0163251
651.167	0.0162662
651.245	0.0162283
651.323	0.0162266
651.401	0.0162623
651.479	0.0161922
651.558	0.0163155
651.636	0.0164558
651.714	0.0162550
651.792	0.0162550
651.870	0.0162653
651.948	0.0162349
652.026	0.0162474
652.104	0.0161868
652.183	0.0162189
652.261	0.0162440
652.339	0.0163032
652.417	0.0162701
652.495	0.0163503
652.573	0.0163002
652.651	0.0162324
652.729	0.0162698
652.808	0.0163899
652.886	0.0162764
652.964	0.0161919
653.042	0.0162530
653.120	0.0163811
653.198	0.0163416
653.276	0.0163369
653.354	0.0161599
653.433	0.0162717
653.511	0.0162625
653.589	0.0161732
653.667	0.0162357
653.745	0.0163021
653.823	0.0162139
653.901	0.0162563
653.979	0.0163802
654.058	0.0164037
654.136	0.0161960
654.214	0.0162846
654.292	0.0162330
654.370	0.0163159
654.448	0.0162097
654.526	0.0162658
654.604	0.0162535
654.683	0.0163733
654.761	0.0162677
654.839	0.0161600
654.917	0.0161591
654.995	0.0164013
655.073	0.0162590
655.151	0.0160974
655.229	0.0162336
655.308	0.0163263
655.386	0.0162803
655.464	0.0162969
655.542	0.0162450
655.620	0.0161197
655.698	0.0162807
655.776	0.0163114
655.854	0.0161025
655.933	0.0160889
656.011	0.0162892
656.089	0.0162568
656.167	0.0160873
656.245	0.0162353
656.323	0.0162093
656.401	0.0161569
656.479	0.0161982
656.558	0.0162757
656.636	0.0162047
656.714	0.0163255
656.792	0.0162206
656.870	0.0161893
656.948	0.0162323
657.026	0.0162717
657.104	0.0161749
657.183	0.0161909
657.261	0.0163161
657.339	0.0162374
657.417	0.0163109
657.495	0.0162225
657.573	0.0162331
657.651	0.0162080
657.729	0.0162514
657.808	0.0161161
657.886	0.0161763
657.964	0.0162814
658.042	0.0162690
658.120	0.0161913
658.198	0.0162688
658.276	0.0161806
658.354	0.0162558
658.433	0.0162709
658.511	0.0161880
658.589	0.0161915
658.667	0.0160972
658.745	0.0161960
658.823	0.0163275
658.901	0.0163028
658.979	0.0162917
659.058	0.0162725
659.136	0.0163837
659.214	0.0162771
659.292	0.0162110
659.370	0.0162225
659.448	0.0162445
659.526	0.0163211
659.604	0.0163391
659.683	0.0160899
659.761	0.0162579
659.839	0.0161691
659.917	0.0160669
659.995	0.0163326
660.073	0.0161962
660.151	0.0161657
660.229	0.0163137
660.308	0.0162598
660.386	0.0162609
660.464	0.0161967
660.542	0.0161861
660.620	0.0162273
660.698	0.0162070
660.776	0.0161873
660.854	0.0161507
660.933	0.0162327
661.011	0.0163106
661.089	0.0161604
661.167	0.0162521
661.245	0.0162569
661.323	0.0163686
661.401	0.0161833
661.479	0.0162729
661.558	0.0162972
661.636	0.0161823
661.714	0.0163088
661.792	0.0162098
661.870	0.0162170
661.948	0.0164774
662.026	0.0162433
662.104	0.0162766
662.183	0.0162090
662.261	0.0162804
662.339	0.0164010
662.417	0.0162202
662.495	0.0161789
662.573	0.0161257
662.651	0.0162991
662.729	0.0162853
662.808	0.0162313
662.886	0.0161655
662.964	0.0162454
663.042	0.0162423
663.120	0.0162922
663.198	0.0162907
663.276	0.0161857
663.354	0.0162310
663.433	0.0163416
663.511	0.0162860
663.589	0.0163126
663.667	0.0162885
663.745	0.0162688
663.823	0.0162250
663.901	0.0162106
663.979	0.0163252
664.058	0.0163811
664.136	0.0163450
664.214	0.0162695
664.292	0.0161744
664.370	0.0162540
664.448	0.0163039
664.526	0.0161568
664.604	0.0161211
664.683	0.0163137
664.761	0.0161538
664.839	0.0162045
664.917	0.0163487
664.995	0.0162067
665.073	0.0163755
665.151	0.0162095
665.229	0.0163694
665.308	0.0162127
665.386	0.0161560
665.464	0.0162492
665.542	0.0161301
665.620	0.0162057
665.698	0.0162313
665.776	0.0162637
665.854	0.0162666
665.933	0.0162022
666.011	0.0163153
666.089	0.0163200
666.167	0.0162845
666.245	0.0163964
666.323	0.0162689
666.401	0.0161964
666.479	0.0162711
666.558	0.0163069
666.636	0.0161571
666.714	0.0161783
666.792	0.0163396
666.870	0.0161292
666.948	0.0162191
667.026	0.0162175
667.104	0.0163334
667.183	0.0162451
667.261	0.0163047
667.339	0.0161547
667.417	0.0160432
667.495	0.0163013
667.573	0.0162473
667.651	0.0161810
667.729	0.0162576
667.808	0.0162102
667.886	0.0161732
667.964	0.0162586
668.042	0.0162362
668.120	0.0162514
668.198	0.0162605
668.276	0.0161544
668.354	0.0162599
668.433	0.0162492
668.511	0.0162295
668.589	0.0162511
668.667	0.0162738
668.745	0.0162341
668.823	0.0161932
668.901	0.0162223
668.979	0.0163562
669.058	0.0162699
669.136	0.0161636
669.214	0.0161574
669.292	0.0162757
669.370	0.0161131
669.448	0.0161594
669.526	0.0161716
669.604	0.0162469
669.683	0.0162580
669.761	0.0162908
669.839	0.0161067
669.917	0.0162121
669.995	0.0162151
670.073	0.0162464
670.151	0.0161712
670.229	0.0162677
670.308	0.0162842
670.386	0.0162458
670.464	0.0161744
670.542	0.0162506
670.620	0.0161650
670.698	0.0162679
670.776	0.0162442
670.854	0.0162048
670.933	0.0163117
671.011	0.0163345
671.089	0.0162778
671.167	0.0161536
671.245	0.0161574
671.323	0.0161333
671.401	0.0161508
671.479	0.0162034
671.558	0.0162389
671.636	0.0163870
671.714	0.0161362
671.792	0.0161400
671.870	0.0160588
671.948	0.0161499
672.026	0.0162298
672.104	0.0162262
672.183	0.0161955
672.261	0.0162466
672.339	0.0162460
672.417	0.0163503
672.495	0.0162180
672.573	0.0162907
672.651	0.0161979
672.729	0.0162690
672.808	0.0162184
672.886	0.0162712
672.964	0.0160944
673.042	0.0161988
673.120	0.0162566
673.198	0.0161430
673.276	0.0162677
673.354	0.0162155
673.433	0.0162671
673.511	0.0161961
673.589	0.0161341
673.667	0.0162667
673.745	0.0162868
673.823	0.0162238
673.901	0.0161610
673.979	0.0162981
674.058	0.0162717
674.136	0.0162103
674.214	0.0162506
674.292	0.0161970
674.370	0.0162591
674.448	0.0162366
674.526	0.0162377
674.604	0.0161478
674.683	0.0163544
674.761	0.0161240
674.839	0.0162594
674.917	0.0163474
674.995	0.0162034
675.073	0.0162156
675.151	0.0162466
675.229	0.0163253
675.308	0.0162327
675.386	0.0161497
675.464	0.0161868
675.542	0.0161985
675.620	0.0163840
675.698	0.0162704
675.776	0.0162100
675.854	0.0161709
675.933	0.0161745
676.011	0.0162400
676.089	0.0162791
676.167	0.0162006
676.245	0.0161980
676.323	0.0162258
676.401	0.0162390
676.479	0.0163817
676.558	0.0162691
676.636	0.0162164
676.714	0.0161794
676.792	0.0161523
676.870	0.0161095
676.948	0.0161501
677.026	0.0161472
677.104	0.0162643
677.183	0.0161236
677.261	0.0163026
677.339	0.0162617
677.417	0.0161726
677.495	0.0162584
677.573	0.0162918
677.651	0.0163485
677.729	0.0163237
677.808	0.0162519
677.886	0.0163509
677.964	0.0161472
678.042	0.0162060
678.120	0.0161072
678.198	0.0162977
678.276	0.0162392
678.354	0.0162371
678.433	0.0161997
678.511	0.0161971
678.589	0.0163876
678.667	0.0163194
678.745	0.0163097
678.823	0.0162066
678.901	0.0160608
678.979	0.0161498
679.058	0.0162786
679.136	0.0161971
679.214	0.0162065
679.292	0.0162270
679.370	0.0162271
679.448	0.0162823
679.526	0.0163462
679.604	0.0162029
679.683	0.0162164
679.761	0.0163863
679.839	0.0162797
679.917	0.0161837
679.995	0.0163232
680.073	0.0163451
680.151	0.0162646
680.229	0.0163011
680.308	0.0162832
680.386	0.0162743
680.464	0.0162528
680.542	0.0161237
680.620	0.0163522
680.698	0.0163661
680.776	0.0162453
680.854	0.0162248
680.933	0.0161551
681.011	0.0163294
681.089	0.0162330
681.167	0.0161268
681.245	0.0163055
681.323	0.0163551
681.401	0.0162115
681.479	0.0162792
681.558	0.0162185
681.636	0.0162299
681.714	0.0163040
681.792	0.0162175
681.870	0.0162856
681.948	0.0162982
682.026	0.0163246
682.104	0.0161506
682.183	0.0161915
682.261	0.0162641
682.339	0.0162817
682.417	0.0163089
682.495	0.0161507
682.573	0.0161886
682.651	0.0162375
682.729	0.0162586
682.808	0.0164072
682.886	0.0163111
682.964	0.0162603
683.042	0.0162438
683.120	0.0162897
683.198	0.0163845
683.276	0.0162104
683.354	0.0162842
683.433	0.0163280
683.511	0.0161711
683.589	0.0162567
683.667	0.0162277
683.745	0.0162135
683.823	0.0161703
683.901	0.0163578
683.979	0.0161777
684.058	0.0161736
684.136	0.0162041
684.214	0.0162706
684.292	0.0162679
684.370	0.0161309
684.448	0.0163334
684.526	0.0162196
684.604	0.0162186
684.683	0.0162330
684.761	0.0161266
684.839	0.0162201
684.917	0.0161403
684.995	0.0162186
685.073	0.0161700
685.151	0.0162524
685.229	0.0162409
685.308	0.0161103
685.386	0.0162218
685.464	0.0161394
685.542	0.0161137
685.620	0.0163055
685.698	0.0163103
685.776	0.0162473
685.854	0.0162418
685.933	0.0162582
686.011	0.0162273
686.089	0.0163020
686.167	0.0162688
686.245	0.0162629
686.323	0.0164148
686.401	0.0161584
686.479	0.0163181
686.558	0.0164059
686.636	0.0161622
686.714	0.0162173
686.792	0.0162760
686.870	0.0163274
686.948	0.0163190
687.026	0.0163124
687.104	0.0162572
687.183	0.0162595
687.261	0.0163721
687.339	0.0162866
687.417	0.0162112
687.495	0.0160951
687.573	0.0163192
687.651	0.0162640
687.729	0.0162217
687.808	0.0162458
687.886	0.0162470
687.964	0.0161554
688.042	0.0161053
688.120	0.0162264
688.198	0.0162310
688.276	0.0162285
688.354	0.0161859
688.433	0.0161609
688.511	0.0161835
688.589	0.0162855
688.667	0.0161250
688.745	0.0161652
688.823	0.0162591
688.901	0.0162624
688.979	0.0162006
689.058	0.0163065
689.136	0.0162894
689.214	0.0162295
689.292	0.0161622
689.370	0.0160967
689.448	0.0162041
689.526	0.0162057
689.604	0.0161874
689.683	0.0161021
689.761	0.0162563
689.839	0.0162816
689.917	0.0162067
689.995	0.0161546
690.073	0.0162989
690.151	0.0162577
690.229	0.0161696
690.308	0.0163363
690.386	0.0161899
690.464	0.0161309
690.542	0.0162244
690.620	0.0162511
690.698	0.0162625
690.776	0.0161414
690.854	0.0161517
690.933	0.0163603
691.011	0.0162379
691.089	0.0161763
691.167	0.0162244
691.245	0.0163338
691.323	0.0161683
691.401	0.0161746
691.479	0.0162813
691.558	0.0162399
691.636	0.0162772
691.714	0.0160725
691.792	0.0162397
691.870	0.0162230
691.948	0.0162714
692.026	0.0161803
692.104	0.0162394
692.183	0.0162458
692.261	0.0161115
692.339	0.0162742
692.417	0.0161565
692.495	0.0162234
692.573	0.0160876
692.651	0.0161520
692.729	0.0161637
692.808	0.0162352
692.886	0.0164639
692.964	0.0163087
693.042	0.0161163
693.120	0.0161249
693.198	0.0163915
693.276	0.0162057
693.354	0.0162067
693.433	0.0163938
693.511	0.0162855
693.589	0.0161269
693.667	0.0160791
693.745	0.0162032
693.823	0.0161496
693.901	0.0161410
693.979	0.0162687
694.058	0.0162309
694.136	0.0160874
694.214	0.0161782
694.292	0.0162378
694.370	0.0163409
694.448	0.0164116
694.526	0.0162013
694.604	0.0161024
694.683	0.0163803
694.761	0.0162485
694.839	0.0161896
694.917	0.0162666
694.995	0.0162229
695.073	0.0162781
695.151	0.0162659
695.229	0.0162167
695.308	0.0162254
695.386	0.0162857
695.464	0.0162303
695.542	0.0162354
695.620	0.0163493
695.698	0.0163837
695.776	0.0163664
695.854	0.0162778
695.933	0.0162551
696.011	0.0161862
696.089	0.0161180
696.167	0.0162815
696.245	0.0162821
696.323	0.0162947
696.401	0.0162536
696.479	0.0162295
696.558	0.0162324
696.636	0.0162041
696.714	0.0162917
696.792	0.0162018
696.870	0.0161465
696.948	0.0162477
697.026	0.0163399
697.104	0.0163284
697.183	0.0161804
697.261	0.0162035
697.339	0.0162083
697.417	0.0163627
697.495	0.0162544
697.573	0.0161480
697.651	0.0162995
697.729	0.0161842
697.808	0.0161623
697.886	0.0162463
697.964	0.0163185
698.042	0.0162217
698.120	0.0162207
698.198	0.0161668
698.276	0.0162164
698.354	0.0162096
698.433	0.0161749
698.511	0.0162673
698.589	0.0162173
698.667	0.0163477
698.745	0.0161956
698.823	0.0162018
698.901	0.0161970
698.979	0.0161710
699.058	0.0162759
699.136	0.0162356
699.214	0.0161745
699.292	0.0162466
699.370	0.0163136
699.448	0.0162318
699.526	0.0162617
699.604	0.0160740
699.683	0.0163623
699.761	0.0163374
699.839	0.0162554
699.917	0.0162088
699.995	0.0163187
700.073	0.0162147
700.151	0.0162524
700.229	0.0163875
700.308	0.0162597
700.386	0.0162493
700.464	0.0162216
700.542	0.0162437
700.620	0.0161889
700.698	0.0161773
700.776	0.0161164
700.854	0.0162322
700.933	0.0162605
701.011	0.0161945
701.089	0.0163364
701.167	0.0160942
701.245	0.0162420
701.323	0.0161005
701.401	0.0162087
701.479	0.0161523
701.558	0.0160546
701.636	0.0161223
701.714	0.0161968
701.792	0.0161965
701.870	0.0161813
701.948	0.0161766
702.026	0.0162424
702.104	0.0161837
702.183	0.0160816
702.261	0.0162869
702.339	0.0162556
702.417	0.0162583
702.495	0.0161965
702.573	0.0162342
702.651	0.0162331
702.729	0.0162344
702.808	0.0161925
702.886	0.0161697
702.964	0.0162416
703.042	0.0163145
703.120	0.0163499
703.198	0.0162856
703.276	0.0162292
703.354	0.0161660
703.433	0.0161053
703.511	0.0162341
703.589	0.0162265
703.667	0.0162321
703.745	0.0161569
703.823	0.0161899
703.901	0.0162158
703.979	0.0162735
704.058	0.0162717
704.136	0.0162274
704.214	0.0162780
704.292	0.0161453
704.370	0.0161195
704.448	0.0163242
704.526	0.0162725
704.604	0.0162497
704.683	0.0162206
704.761	0.0163943
704.839	0.0162389
704.917	0.0162431
704.995	0.0161819
705.073	0.0162761
705.151	0.0161649
705.229	0.0162215
705.308	0.0161622
705.386	0.0161826
705.464	0.0163036
705.542	0.0164213
705.620	0.0162614
705.698	0.0162035
705.776	0.0162997
705.854	0.0162096
705.933	0.0162751
706.011	0.0162011
706.089	0.0161790
706.167	0.0163121
706.245	0.0162390
706.323	0.0162259
706.401	0.0160704
706.479	0.0162877
706.558	0.0162289
706.636	0.0161832
706.714	0.0163013
706.792	0.0161748
706.870	0.0162594
706.948	0.0162531
707.026	0.0162141
707.104	0.0161685
707.183	0.0161824
707.261	0.0162363
707.339	0.0162170
707.417	0.0162829
707.495	0.0161182
707.573	0.0163094
707.651	0.0161848
707.729	0.0163010
707.808	0.0163596
707.886	0.0162156
707.964	0.0162003
708.042	0.0163065
708.120	0.0163123
708.198	0.0161695
708.276	0.0162434
708.354	0.0162316
708.433	0.0161501
708.511	0.0161506
708.589	0.0162589
708.667	0.0162262
708.745	0.0161034
708.823	0.0162437
708.901	0.0162097
708.979	0.0163052
709.058	0.0162686
709.136	0.0162667
709.214	0.0162379
709.292	0.0163725
709.370	0.0163031
709.448	0.0162753
709.526	0.0162616
709.604	0.0163086
709.683	0.0163323
709.761	0.0163470
709.839	0.0163680
709.917	0.0162968
709.995	0.0162463
710.073	0.0162515
710.151	0.0161218
710.229	0.0162811
710.308	0.0162337
710.386	0.0163690
710.464	0.0161847
710.542	0.0162302
710.620	0.0163750
710.698	0.0161898
710.776	0.0161491
710.854	0.0162063
710.933	0.0161677
711.011	0.0163207
711.089	0.0163151
711.167	0.0163274
711.245	0.0162022
711.323	0.0163014
711.401	0.0161526
711.479	0.0162068
711.558	0.0162920
711.636	0.0163134
711.714	0.0161743
711.792	0.0163310
711.870	0.0162482
711.948	0.0162691
712.026	0.0164117
712.104	0.0160661
712.183	0.0161529
712.261	0.0163810
712.339	0.0163515
712.417	0.0162179
712.495	0.0161983
712.573	0.0162238
712.651	0.0162135
712.729	0.0162350
712.808	0.0163213
712.886	0.0162917
712.964	0.0162717
713.042	0.0163394
713.120	0.0162740
713.198	0.0161246
713.276	0.0162576
713.354	0.0161442
713.433	0.0161488
713.511	0.0162560
713.589	0.0162572
713.667	0.0162709
713.745	0.0161823
713.823	0.0162135
713.901	0.0162222
713.979	0.0161761
714.058	0.0162761
714.136	0.0163051
714.214	0.0162964
714.292	0.0162900
714.370	0.0163605
714.448	0.0161992
714.526	0.0161141
714.604	0.0162103
714.683	0.0162463
714.761	0.0163684
714.839	0.0163511
714.917	0.0163200
714.995	0.0162833
715.073	0.0162820
715.151	0.0162557
715.229	0.0163043
715.308	0.0162498
715.386	0.0162564
715.464	0.0163400
715.542	0.0162271
715.620	0.0162722
715.698	0.0161882
715.776	0.0162820
715.854	0.0162740
715.933	0.0162096
716.011	0.0161926
716.089	0.0161078
716.167	0.0161876
716.245	0.0162235
716.323	0.0162739
716.401	0.0163686
716.479	0.0162716
716.558	0.0162536
716.636	0.0162763
716.714	0.0162728
716.792	0.0161830
716.870	0.0162385
716.948	0.0162096
717.026	0.0162901
717.104	0.0163332
717.183	0.0161945
717.261	0.0163755
717.339	0.0161396
717.417	0.0162321
717.495	0.0162541
717.573	0.0162167
717.651	0.0162997
717.729	0.0161222
717.808	0.0161734
717.886	0.0163677
717.964	0.0163145
718.042	0.0162781
718.120	0.0162766
718.198	0.0162611
718.276	0.0162215
718.354	0.0162572
718.433	0.0162997
718.511	0.0162723
718.589	0.0162352
718.667	0.0161758
718.745	0.0162978
718.823	0.0162769
718.901	0.0161685
718.979	0.0163036
719.058	0.0161763
719.136	0.0162276
719.214	0.0162717
719.292	0.0163781
719.370	0.0163306
719.448	0.0162526
719.526	0.0163483
719.604	0.0163184
719.683	0.0162128
719.761	0.0161587
719.839	0.0162236
719.917	0.0163453
719.995	0.0162578
720.073	0.0162632
720.151	0.0162440
720.229	0.0161575
720.308	0.0161824
720.386	0.0162662
720.464	0.0162432
720.542	0.0161807
720.620	0.0161877
720.698	0.0162611
720.776	0.0162774
720.854	0.0161807
720.933	0.0162444
721.011	0.0161964
721.089	0.0162275
721.167	0.0162293
721.245	0.0162546
721.323	0.0162444
721.401	0.0161900
721.479	0.0162143
721.558	0.0161787
721.636	0.0160389
721.714	0.0163278
721.792	0.0163791
721.870	0.0164542
721.948	0.0162837
722.026	0.0161688
722.104	0.0161721
722.183	0.0161198
722.261	0.0162051
722.339	0.0161781
722.417	0.0162152
722.495	0.0161330
722.573	0.0161435
722.651	0.0163156
722.729	0.0161799
722.808	0.0162215
722.886	0.0163036
722.964	0.0161546
723.042	0.0161525
723.120	0.0161806
723.198	0.0162944
723.276	0.0162476
723.354	0.0163077
723.433	0.0163298
723.511	0.0162086
723.589	0.0163256
723.667	0.0162581
723.745	0.0161743
723.823	0.0162843
723.901	0.0162343
723.979	0.0163472
724.058	0.0161607
724.136	0.0163686
724.214	0.0164013
724.292	0.0162360
724.370	0.0161552
724.448	0.0163142
724.526	0.0163392
724.604	0.0161928
724.683	0.0162625
724.761	0.0163171
724.839	0.0162557
724.917	0.0163011
724.995	0.0162515
725.073	0.0163662
725.151	0.0163092
725.229	0.0162110
725.308	0.0161967
725.386	0.0163383
725.464	0.0161845
725.542	0.0163015
725.620	0.0162433
725.698	0.0162232
725.776	0.0163835
725.854	0.0162490
725.933	0.0162128
726.011	0.0162647
726.089	0.0163236
726.167	0.0162148
726.245	0.0161744
726.323	0.0161755
726.401	0.0162160
726.479	0.0162565
726.558	0.0161477
726.636	0.0161476
726.714	0.0161908
726.792	0.0162526
726.870	0.0162685
726.948	0.0162151
727.026	0.0162997
727.104	0.0162128
727.183	0.0162788
727.261	0.0163549
727.339	0.0163276
727.417	0.0163588
727.495	0.0163909
727.573	0.0162832
727.651	0.0161783
727.729	0.0161984
727.808	0.0162913
727.886	0.0162039
727.964	0.0162701
728.042	0.0163007
728.120	0.0163159
728.198	0.0161633
728.276	0.0163298
728.354	0.0162919
728.433	0.0161117
728.511	0.0162885
728.589	0.0163211
728.667	0.0162933
728.745	0.0165424
728.823	0.0162408
728.901	0.0161740
728.979	0.0162731
729.058	0.0162312
729.136	0.0162359
729.214	0.0162794
729.292	0.0162117
729.370	0.0161129
729.448	0.0162399
729.526	0.0162649
729.604	0.0162257
729.683	0.0163925
729.761	0.0161764
729.839	0.0162022
729.917	0.0163495
729.995	0.0162656
730.073	0.0162080
730.151	0.0162833
730.229	0.0163198
730.308	0.0162416
730.386	0.0162997
730.464	0.0162363
730.542	0.0162643
730.620	0.0161415
730.698	0.0164381
730.776	0.0162604
730.854	0.0163168
730.933	0.0162775
731.011	0.0161955
731.089	0.0162859
731.167	0.0163578
731.245	0.0163364
731.323	0.0161713
731.401	0.0162037
731.479	0.0163753
731.558	0.0163764
731.636	0.0164052
731.714	0.0162913
731.792	0.0163512
731.870	0.0162814
731.948	0.0161804
732.026	0.0161910
732.104	0.0162460
732.183	0.0162502
732.261	0.0162930
732.339	0.0162486
732.417	0.0162460
732.495	0.0162149
732.573	0.0162799
732.651	0.0163176
732.729	0.0161668
732.808	0.0162527
732.886	0.0161996
732.964	0.0163979
733.042	0.0163074
733.120	0.0161892
733.198	0.0162934
733.276	0.0163387
733.354	0.0162887
733.433	0.0162556
733.511	0.0162282
733.589	0.0161916
733.667	0.0161475
733.745	0.0161881
733.823	0.0163856
733.901	0.0162504
733.979	0.0162094
734.058	0.0162222
734.136	0.0162162
734.214	0.0161632
734.292	0.0162606
734.370	0.0161813
734.448	0.0161732
734.526	0.0162478
734.604	0.0162639
734.683	0.0162371
734.761	0.0162820
734.839	0.0162183
734.917	0.0160518
734.995	0.0162883
735.073	0.0162776
735.151	0.0161935
735.229	0.0162666
735.308	0.0162524
735.386	0.0161319
735.464	0.0163228
735.542	0.0162698
735.620	0.0161936
735.698	0.0163000
735.776	0.0163375
735.854	0.0161792
735.933	0.0161062
736.011	0.0161408
736.089	0.0162408
736.167	0.0162730
736.245	0.0163783
736.323	0.0163792
736.401	0.0163723
736.479	0.0163632
736.558	0.0161955
736.636	0.0162268
736.714	0.0162693
736.792	0.0161548
736.870	0.0161366
736.948	0.0162342
737.026	0.0162418
737.104	0.0162359
737.183	0.0163272
737.261	0.0162715
737.339	0.0161987
737.417	0.0161936
737.495	0.0162417
737.573	0.0161732
737.651	0.0160684
737.729	0.0160966
737.808	0.0161887
737.886	0.0163489
737.964	0.0161337
738.042	0.0162186
738.120	0.0162095
738.198	0.0161026
738.276	0.0161697
738.354	0.0161746
738.433	0.0161378
738.511	0.0162771
738.589	0.0161404
738.667	0.0163078
738.745	0.0162743
738.823	0.0162859
738.901	0.0161668
738.979	0.0164487
739.058	0.0164397
739.136	0.0164290
739.214	0.0162453
739.292	0.0162374
739.370	0.0163259
739.448	0.0162630
739.526	0.0164591
739.604	0.0164634
739.683	0.0162943
739.761	0.0162696
739.839	0.0162825
739.917	0.0162206
739.995	0.0161711
740.073	0.0161942
740.151	0.0160337
740.229	0.0158764
740.308	0.0158723
740.386	0.0157745
740.464	0.0157888
740.542	0.0159386
740.620	0.0160645
740.698	0.0160319
740.776	0.0162125
740.854	0.0164320
740.933	0.0165955
741.011	0.0168978
741.089	0.0170193
741.167	0.0171844
741.245	0.0170327
741.323	0.0170148
741.401	0.0169337
741.479	0.0170059
741.558	0.0167766
741.636	0.0165470
741.714	0.0163670
741.792	0.0160978
741.870	0.0159566
741.948	0.0157446
742.026	0.0154521
742.104	0.0152313
742.183	0.0149307
742.261	0.0148249
742.339	0.0149141
742.417	0.0146485
742.495	0.0147057
742.573	0.0148824
742.651	0.0154131
742.729	0.0157762
742.808	0.0164257
742.886	0.0172025
742.964	0.0179010
743.042	0.0182521
743.120	0.0187453
743.198	0.0187203
743.276	0.0187885
743.354	0.0181396
743.433	0.0176325
743.511	0.0169711
743.589	0.0164340
743.667	0.0157905
743.745	0.0154556
743.823	0.0151520
743.901	0.0149979
743.979	0.0150699
744.058	0.0152235
744.136	0.0152431
744.214	0.0154334
744.292	0.0155352
744.370	0.0156879
744.448	0.0156821
744.526	0.0155242
744.604	0.0155968
744.683	0.0152759
744.761	0.0150407
744.839	0.0147791
744.917	0.0148105
744.995	0.0150061
745.073	0.0156281
745.151	0.0162270
745.229	0.0168889
745.308	0.0176597
745.386	0.0183513
745.464	0.0187465
745.542	0.0191636
745.620	0.0191514
745.698	0.0187902
745.776	0.0182516
745.854	0.0176413
745.933	0.0170528
746.011	0.0164658
746.089	0.0158687
746.167	0.0154649
746.245	0.0149803
746.323	0.0147546
746.401	0.0144860
746.479	0.0143987
746.558	0.0143340
746.636	0.0143258
746.714	0.0143311
746.792	0.0143340
746.870	0.0144209
746.948	0.0146860
747.026	0.0148080
747.104	0.0153468
747.183	0.0155992
747.261	0.0161539
747.339	0.0164655
747.417	0.0169273
747.495	0.0173503
747.573	0.0179055
747.651	0.0182284
747.729	0.0184452
747.808	0.0185891
747.886	0.0188599
747.964	0.0188351
748.042	0.0186792
748.120	0.0183167
748.198	0.0177689
748.276	0.0171136
748.354	0.0164147
748.433	0.0155781
748.511	0.0148576
748.589	0.0143748
748.667	0.0140478
748.745	0.0139726
748.823	0.0140179
748.901	0.0141968
748.979	0.0144035
749.058	0.0146268
749.136	0.0151374
749.214	0.0155148
749.292	0.0159189
749.370	0.0161674
749.448	0.0164358
749.526	0.0166763
749.604	0.0167506
749.683	0.0168622
749.761	0.0169718
749.839	0.0168584
749.917	0.0167948
749.995	0.0168936
750.073	0.0170027
750.151	0.0169047
750.229	0.0170354
750.308	0.0173385
750.386	0.0172978
750.464	0.0174261
750.542	0.0175317
750.620	0.0174271
750.698	0.0171830
750.776	0.0170757
750.854	0.0168636
750.933	0.0165423
751.011	0.0161414
751.089	0.0157716
751.167	0.0155108
751.245	0.0152663
751.323	0.0151682
751.401	0.0150256
751.479	0.0148595
751.558	0.0150802
751.636	0.0150404
751.714	0.0151998
751.792	0.0154131
751.870	0.0157427
751.948	0.0159721
752.026	0.0161373
752.104	0.0163393
752.183	0.0165985
752.261	0.0166413
752.339	0.0168532
752.417	0.0169567
752.495	0.0170785
752.573	0.0170608
752.651	0.0170534
752.729	0.0170496
752.808	0.0169357
752.886	0.0168480
752.964	0.0166931
753.042	0.0164902
753.120	0.0164357
753.198	0.0163489
753.276	0.0164130
753.354	0.0164274
753.433	0.0165246
753.511	0.0164826
753.589	0.0166436
753.667	0.0165131
753.745	0.0163969
753.823	0.0163831
753.901	0.0162537
753.979	0.0161726
754.058	0.0160355
754.136	0.0159679
754.214	0.0157896
754.292	0.0158161
754.370	0.0157219
754.448	0.0157725
754.526	0.0158775
754.604	0.0159126
754.683	0.0160339
754.761	0.0160416
754.839	0.0162370
754.917	0.0164162
754.995	0.0161230
755.073	0.0161196
755.151	0.0160364
755.229	0.0158884
755.308	0.0160157
755.386	0.0160378
755.464	0.0160232
755.542	0.0162976
755.620	0.0163637
755.698	0.0165721
755.776	0.0166418
755.854	0.0167166
755.933	0.0169196
756.011	0.0169056
756.089	0.0169745
756.167	0.0169775
756.245	0.0170683
756.323	0.0170844
756.401	0.0169535
756.479	0.0169204
756.558	0.0167752
756.636	0.0168915
756.714	0.0166043
756.792	0.0163867
756.870	0.0164143
756.948	0.0162553
757.026	0.0158745
757.104	0.0158210
757.183	0.0156255
757.261	0.0154603
757.339	0.0153507
757.417	0.0152345
757.495	0.0152657
757.573	0.0152464
757.651	0.0154790
757.729	0.0156033
757.808	0.0158369
757.886	0.0158222
757.964	0.0159093
758.042	0.0159252
758.120	0.0160069
758.198	0.0160374
758.276	0.0159994
758.354	0.0161486
758.433	0.0161295
758.511	0.0161851
758.589	0.0163514
758.667	0.0164617
758.745	0.0167471
758.823	0.0169418
758.901	0.0168996
758.979	0.0171236
759.058	0.0171592
759.136	0.0171646
759.214	0.0175188
759.292	0.0175050
759.370	0.0175875
759.448	0.0178688
759.526	0.0177896
759.604	0.0178361
759.683	0.0178879
759.761	0.0177018
759.839	0.0175438
759.917	0.0171731
759.995	0.0168089
760.073	0.0164369
760.151	0.0159878
760.229	0.0156812
760.308	0.0152433
760.386	0.0147701
760.464	0.0145098
760.542	0.0142688
760.620	0.0141933
760.698	0.0140540
760.776	0.0138966
760.854	0.0141237
760.933	0.0141184
761.011	0.0141823
761.089	0.0141854
761.167	0.0144717
761.245	0.0146342
761.323	0.0149828
761.401	0.0153526
761.479	0.0156545
761.558	0.0158015
761.636	0.0161067
761.714	0.0164468
761.792	0.0167498
761.870	0.0170474
761.948	0.0173076
762.026	0.0177262
762.104	0.0181018
762.183	0.0182996
762.261	0.0185753
762.339	0.0186556
762.417	0.0185626
762.495	0.0187762
762.573	0.0186523
762.651	0.0185325
762.729	0.0181670
762.808	0.0180750
762.886	0.0178187
762.964	0.0176457
763.042	0.0174438
763.120	0.0170655
763.198	0.0165918
763.276	0.0163188
763.354	0.0159315
763.433	0.0154720
763.511	0.0152740
763.589	0.0149582
763.667	0.0146202
763.745	0.0145683
763.823	0.0145344
763.901	0.0144530
763.979	0.0144710
764.058	0.0146292
764.136	0.0146571
764.214	0.0146077
764.292	0.0147688
764.370	0.0146520
764.448	0.0146420
764.526	0.0146668
764.604	0.0148057
764.683	0.0148965
764.761	0.0151841
764.839	0.0151247
764.917	0.0155404
764.995	0.0154729
765.073	0.0153227
765.151	0.0154294
765.229	0.0154979
765.308	0.0154819
765.386	0.0155953
765.464	0.0158295
765.542	0.0162222
765.620	0.0166866
765.698	0.0170461
765.776	0.0176346
765.854	0.0182023
765.933	0.0185001
766.011	0.0190041
766.089	0.0192066
766.167	0.0194074
766.245	0.0193033
766.323	0.0192994
766.401	0.0190760
766.479	0.0186244
766.558	0.0182135
766.636	0.0177803
766.714	0.0172781
766.792	0.0165499
766.870	0.0159006
766.948	0.0155422
767.026	0.0151273
767.104	0.0146914
767.183	0.0145354
767.261	0.0142728
767.339	0.0142471
767.417	0.0141731
767.495	0.0143621
767.573	0.0144737
767.651	0.0145026
767.729	0.0148705
767.808	0.0154433
767.886	0.0157756
767.964	0.0162199
768.042	0.0167204
768.120	0.0169575
768.198	0.0174559
768.276	0.0178469
768.354	0.0180370
768.433	0.0180370
768.511	0.0179154
768.589	0.0175957
768.667	0.0172266
768.745	0.0165905
768.823	0.0160544
768.901	0.0155284
768.979	0.0149719
769.058	0.0143320
769.136	0.0138009
769.214	0.0132430
769.292	0.0130478
769.370	0.0127174
769.448	0.0127388
769.526	0.0125546
769.604	0.0126778
769.683	0.0129044
769.761	0.0131624
769.839	0.0137975
769.917	0.0140656
769.995	0.0147955
770.073	0.0153205
770.151	0.0161010
770.229	0.0168661
770.308	0.0175911
770.386	0.0182879
770.464	0.0190446
770.542	0.0194820
770.620	0.0198392
770.698	0.0201772
770.776	0.0203828
770.854	0.0204185
770.933	0.0205386
771.011	0.0204813
771.089	0.0204049
771.167	0.0200084
771.245	0.0196405
771.323	0.0193375
771.401	0.0187834
771.479	0.0182911
771.558	0.0178284
771.636	0.0172682
771.714	0.0168271
771.792	0.0164021
771.870	0.0160075
771.948	0.0157545
772.026	0.0154217
772.104	0.0151471
772.183	0.0151124
772.261	0.0151315
772.339	0.0151449
772.417	0.0151943
772.495	0.0150106
772.573	0.0149715
772.651	0.0148771
772.729	0.0146281
772.808	0.0140053
772.886	0.0138135
772.964	0.0133706
773.042	0.0131206
773.120	0.0126485
773.198	0.0122843
773.276	0.0121191
773.354	0.0120522
773.433	0.0118076
773.511	0.0118558
773.589	0.0120971
773.667	0.0123271
773.745	0.0127914
773.823	0.0130685
773.901	0.0135152
773.979	0.0142745
774.058	0.0146705
774.136	0.0149687
774.214	0.0157664
774.292	0.0164882
774.370	0.0171658
774.448	0.0178628
774.526	0.0184306
774.604	0.0191003
774.683	0.0199430
774.761	0.0205261
774.839	0.0210344
774.917	0.0217951
774.995	0.0222788
775.073	0.0226785
775.151	0.0227631
775.229	0.0229058
775.308	0.0227892
775.386	0.0225507
775.464	0.0221533
775.542	0.0214619
775.620	0.0206683
775.698	0.0198334
775.776	0.0189114
775.854	0.0179453
775.933	0.0169028
776.011	0.0159962
776.089	0.0151420
776.167	0.0144278
776.245	0.0138696
776.323	0.0133462
776.401	0.0129406
776.479	0.0126480
776.558	0.0126120
776.636	0.0123930
776.714	0.0123903
776.792	0.0125999
776.870	0.0126831
776.948	0.0126914
777.026	0.0128665
777.104	0.0130846
777.183	0.0131696
777.261	0.0133778
777.339	0.0134756
777.417	0.0136102
777.495	0.0136901
777.573	0.0137786
777.651	0.0139360
777.729	0.0141405
777.808	0.0142455
777.886	0.0144479
777.964	0.0145865
778.042	0.0147453
778.120	0.0151303
778.198	0.0150989
778.276	0.0152233
778.354	0.0156958
778.433	0.0159724
778.511	0.0162170
778.589	0.0164965
778.667	0.0167196
778.745	0.0169871
778.823	0.0173814
778.901	0.0176815
778.979	0.0180081
779.058	0.0183031
779.136	0.0186807
779.214	0.0191485
779.292	0.0194385
779.370	0.0199026
779.448	0.0203082
779.526	0.0205180
779.604	0.0206586
779.683	0.0208801
779.761	0.0210331
779.839	0.0210187
779.917	0.0207387
779.995	0.0204739
780.073	0.0202933
780.151	0.0200404
780.229	0.0194666
780.308	0.0189243
780.386	0.0183533
780.464	0.0176439
780.542	0.0171170
780.620	0.0162595
780.698	0.0155954
780.776	0.0150539
780.854	0.0143512
780.933	0.0136752
781.011	0.0130396
781.089	0.0127587
781.167	0.0123792
781.245	0.0122253
781.323	0.0119680
781.401	0.0118934
781.479	0.0118938
781.558	0.0120612
781.636	0.0122045
781.714	0.0125374
781.792	0.0130339
781.870	0.0132909
781.948	0.0136758
782.026	0.0138987
782.104	0.0144744
782.183	0.0146913
782.261	0.0148630
782.339	0.0150946
782.417	0.0153269
782.495	0.0155367
782.573	0.0155734
782.651	0.0155859
782.729	0.0156284
782.808	0.0157404
782.886	0.0156227
782.964	0.0158736
783.042	0.0159646
783.120	0.0161211
783.198	0.0162589
783.276	0.0166418
783.354	0.0168980
783.433	0.0173119
783.511	0.0175175
783.589	0.0179157
783.667	0.0182406
783.745	0.0185443
783.823	0.0188004
783.901	0.0191327
783.979	0.0194695
784.058	0.0196685
784.136	0.0198151
784.214	0.0199664
784.292	0.0200882
784.370	0.0199777
784.448	0.0200066
784.526	0.0198077
784.604	0.0196038
784.683	0.0192693
784.761	0.0188594
784.839	0.0185188
784.917	0.0178613
784.995	0.0175278
785.073	0.0171339
785.151	0.0165668
785.229	0.0162386
785.308	0.0158080
785.386	0.0154672
785.464	0.0150635
785.542	0.0147067
785.620	0.0145016
785.698	0.0143087
785.776	0.0141283
785.854	0.0140002
785.933	0.0138055
786.011	0.0138281
786.089	0.0137238
786.167	0.0137156
786.245	0.0137544
786.323	0.0138340
786.401	0.0139017
786.479	0.0139396
786.558	0.0140603
786.636	0.0141797
786.714	0.0142908
786.792	0.0145671
786.870	0.0145489
786.948	0.0149743
787.026	0.0149529
787.104	0.0149899
787.183	0.0153165
787.261	0.0152387
787.339	0.0152232
787.417	0.0152448
787.495	0.0152635
787.573	0.0151481
787.651	0.0151694
787.729	0.0151598
787.808	0.0153567
787.886	0.0154175
787.964	0.0155646
788.042	0.0157330
788.120	0.0161039
788.198	0.0164562
788.276	0.0168993
788.354	0.0173631
788.433	0.0177535
788.511	0.0184026
788.589	0.0187710
788.667	0.0191328
788.745	0.0194688
788.823	0.0199247
788.901	0.0201189
788.979	0.0201938
789.058	0.0202724
789.136	0.0200407
789.214	0.0197497
789.292	0.0194955
789.370	0.0189828
789.448	0.0184667
789.526	0.0179619
789.604	0.0174712
789.683	0.0167799
789.761	0.0163103
789.839	0.0157934
789.917	0.0151853
789.995	0.0147551
790.073	0.0145981
790.151	0.0141302
790.229	0.0141668
790.308	0.0140138
790.386	0.0140405
790.464	0.0140436
790.542	0.0141877
790.620	0.0144350
790.698	0.0146414
790.776	0.0149675
790.854	0.0151518
790.933	0.0153920
791.011	0.0156669
791.089	0.0156993
791.167	0.0161348
791.245	0.0163126
791.323	0.0163996
791.401	0.0164973
791.479	0.0167107
791.558	0.0165815
791.636	0.0165527
791.714	0.0164400
791.792	0.0162469
791.870	0.0159548
791.948	0.0158353
792.026	0.0154694
792.104	0.0153768
792.183	0.0151244
792.261	0.0149064
792.339	0.0145624
792.417	0.0144147
792.495	0.0143258
792.573	0.0141226
792.651	0.0141647
792.729	0.0139340
792.808	0.0140303
792.886	0.0142363
792.964	0.0144960
793.042	0.0147124
793.120	0.0150801
793.198	0.0155763
793.276	0.0159485
793.354	0.0164865
793.433	0.0169331
793.511	0.0173727
793.589	0.0178202
793.667	0.0180624
793.745	0.0187572
793.823	0.0190443
793.901	0.0194015
793.979	0.0195941
794.058	0.0197045
794.136	0.0196938
794.214	0.0196646
794.292	0.0195084
794.370	0.0190407
794.448	0.0187354
794.526	0.0182957
794.604	0.0177873
794.683	0.0173551
794.761	0.0168860
794.839	0.0163474
794.917	0.0158863
794.995	0.0153671
795.073	0.0150346
795.151	0.0146923
795.229	0.0145444
795.308	0.0143864
795.386	0.0144204
795.464	0.0144263
795.542	0.0143406
795.620	0.0144868
795.698	0.0145586
795.776	0.0148707
795.854	0.0150105
795.933	0.0151196
796.011	0.0153697
796.089	0.0155566
796.167	0.0157409
796.245	0.0161027
796.323	0.0160928
796.401	0.0160526
796.479	0.0162123
796.558	0.0162180
796.636	0.0161487
796.714	0.0162388
796.792	0.0161195
796.870	0.0159582
796.948	0.0157699
797.026	0.0158714
797.104	0.0155892
797.183	0.0156821
797.261	0.0154859
797.339	0.0154867
797.417	0.0153609
797.495	0.0155067
797.573	0.0154845
797.651	0.0156837
797.729	0.0157660
797.808	0.0159126
797.886	0.0161058
797.964	0.0162312
798.042	0.0162793
798.120	0.0165015
798.198	0.0166524
798.276	0.0166903
798.354	0.0168384
798.433	0.0168987
798.511	0.0170883
798.589	0.0169801
798.667	0.0171245
798.745	0.0170591
798.823	0.0172764
798.901	0.0173659
798.979	0.0173089
799.058	0.0172033
799.136	0.0172169
799.214	0.0170647
799.292	0.0170313
799.370	0.0169514
799.448	0.0169307
799.526	0.0167046
799.604	0.0167034
799.683	0.0165914
799.761	0.0164070
799.839	0.0161567
799.917	0.0160165
799.995	0.0158995
800.073	0.0156644
800.151	0.0155251
800.229	0.0153513
800.308	0.0153661
800.386	0.0153983
800.464	0.0153470
800.542	0.0153735
800.620	0.0154346
800.698	0.0155653
800.776	0.0156035
800.854	0.0157179
800.933	0.0157021
801.011	0.0156973
801.089	0.0159361
801.167	0.0159404
801.245	0.0161796
801.323	0.0163983
801.401	0.0164960
801.479	0.0166574
801.558	0.0167179
801.636	0.0165493
801.714	0.0168190
801.792	0.0168089
801.870	0.0167200
801.948	0.0168147
802.026	0.0167041
802.104	0.0165649
802.183	0.0163621
802.261	0.0162728
802.339	0.0164069
802.417	0.0163316
802.495	0.0162295
802.573	0.0161233
802.651	0.0161099
802.729	0.0160445
802.808	0.0160590
802.886	0.0160030
802.964	0.0160485
803.042	0.0159930
803.120	0.0159120
803.198	0.0158853
803.276	0.0159367
803.354	0.0159599
803.433	0.0159040
803.511	0.0158672
803.589	0.0159256
803.667	0.0158112
803.745	0.0157693
803.823	0.0155773
803.901	0.0158141
803.979	0.0157922
804.058	0.0157417
804.136	0.0158447
804.214	0.0160030
804.292	0.0161426
804.370	0.0161954
804.448	0.0163357
804.526	0.0162934
804.604	0.0165198
804.683	0.0167285
804.761	0.0167340
804.839	0.0169041
804.917	0.0169228
804.995	0.0168526
805.073	0.0169908
805.151	0.0169277
805.229	0.0169557
805.308	0.0170909
805.386	0.0169736
805.464	0.0169232
805.542	0.0170879
805.620	0.0168481
805.698	0.0167283
805.776	0.0168325
805.854	0.0166579
805.933	0.0166424
806.011	0.0165729
806.089	0.0162988
806.167	0.0161585
806.245	0.0159428
806.323	0.0160112
806.401	0.0158942
806.479	0.0157039
806.558	0.0156197
806.636	0.0156097
806.714	0.0155377
806.792	0.0155583
806.870	0.0156926
806.948	0.0156542
807.026	0.0157738
807.104	0.0158578
807.183	0.0161049
807.261	0.0161037
807.339	0.0161980
807.417	0.0162807
807.495	0.0163107
807.573	0.0163068
807.651	0.0163547
807.729	0.0164759
807.808	0.0163528
807.886	0.0164422
807.964	0.0163464
808.042	0.0163154
808.120	0.0163392
808.198	0.0163161
808.276	0.0163728
808.354	0.0161752
808.433	0.0161313
808.511	0.0162521
808.589	0.0160748
808.667	0.0161343
808.745	0.0162513
808.823	0.0162272
808.901	0.0163725
808.979	0.0165982
809.058	0.0165481
809.136	0.0164512
809.214	0.0166412
809.292	0.0165961
809.370	0.0164382
809.448	0.0167206
809.526	0.0165537
809.604	0.0166499
809.683	0.0165651
809.761	0.0165643
809.839	0.0165119
809.917	0.0165228
809.995	0.0162257
810.073	0.0162891
810.151	0.0161124
810.229	0.0161723
810.308	0.0161771
810.386	0.0159698
810.464	0.0159132
810.542	0.0158221
810.620	0.0158950
810.698	0.0158482
810.776	0.0159553
810.854	0.0158999
810.933	0.0159979
811.011	0.0159167
811.089	0.0158251
811.167	0.0159496
811.245	0.0159471
811.323	0.0159441
811.401	0.0159003
811.479	0.0159420
811.558	0.0159713
811.636	0.0160184
811.714	0.0159846
811.792	0.0160310
811.870	0.0160579
811.948	0.0159672
812.026	0.0159571
812.104	0.0160136
812.183	0.0159302
812.261	0.0158778
812.339	0.0160410
812.417	0.0159978
812.495	0.0161943
812.573	0.0162930
812.651	0.0164420
812.729	0.0164552
812.808	0.0167101
812.886	0.0167411
812.964	0.0166851
813.042	0.0169036
813.120	0.0171110
813.198	0.0170408
813.276	0.0169566
813.354	0.0169749
813.433	0.0170045
813.511	0.0169212
813.589	0.0168910
813.667	0.0168516
813.745	0.0168719
813.823	0.0166440
813.901	0.0164729
813.979	0.0164152
814.058	0.0162003
814.136	0.0160398
814.214	0.0160757
814.292	0.0161297
814.370	0.0160715
814.448	0.0159045
814.526	0.0156995
814.604	0.0157724
814.683	0.0158870
814.761	0.0158527
814.839	0.0158475
814.917	0.0158652
814.995	0.0158438
815.073	0.0160503
815.151	0.0159371
815.229	0.0159539
815.308	0.0160026
815.386	0.0159763
815.464	0.0161105
815.542	0.0161586
815.620	0.0161277
815.698	0.0160650
815.776	0.0159769
815.854	0.0161205
815.933	0.0161463
816.011	0.0160601
816.089	0.0161967
816.167	0.0160933
816.245	0.0161053
816.323	0.0163175
816.401	0.0164581
816.479	0.0163822
816.558	0.0164821
816.636	0.0164294
816.714	0.0164037
816.792	0.0164075
816.870	0.0164750
816.948	0.0163457
817.026	0.0162288
817.104	0.0162267
817.183	0.0163197
817.261	0.0161000
817.339	0.0163550
817.417	0.0162228
817.495	0.0160303
817.573	0.0160799
817.651	0.0161685
817.729	0.0160766
817.808	0.0161024
817.886	0.0161584
817.964	0.0162094
818.042	0.0162782
818.120	0.0162527
818.198	0.0162431
818.276	0.0161869
818.354	0.0161864
818.433	0.0163457
818.511	0.0164784
818.589	0.0166189
818.667	0.0166038
818.745	0.0165610
818.823	0.0164666
818.901	0.0165158
818.979	0.0165960
819.058	0.0164231
819.136	0.0165881
819.214	0.0164535
819.292	0.0163320
819.370	0.0162568
819.448	0.0163017
819.526	0.0162383
819.604	0.0160664
819.683	0.0160998
819.761	0.0161108
819.839	0.0159134
819.917	0.0159364
819.995	0.0158553
820.073	0.0157735
820.151	0.0159911
820.229	0.0157620
820.308	0.0159184
820.386	0.0160729
820.464	0.0161574
820.542	0.0161718
820.620	0.0163322
820.698	0.0163684
820.776	0.0166318
820.854	0.0165851
820.933	0.0165298
821.011	0.0167281
821.089	0.0167005
821.167	0.0166819
821.245	0.0166634
821.323	0.0166652
821.401	0.0165058
821.479	0.0163693
821.558	0.0163636
821.636	0.0162444
821.714	0.0160307
821.792	0.0158871
821.870	0.0158718
821.948	0.0158772
822.026	0.0158627
822.104	0.0156790
822.183	0.0155766
822.261	0.0156816
822.339	0.0157623
822.417	0.0157676
822.495	0.0158958
822.573	0.0157474
822.651	0.0158883
822.729	0.0158870
822.808	0.0159591
822.886	0.0159786
822.964	0.0159152
823.042	0.0160910
823.120	0.0161060
823.198	0.0161766
823.276	0.0163972
823.354	0.0164761
823.433	0.0163006
823.511	0.0162746
823.589	0.0163783
823.667	0.0163364
823.745	0.0163776
823.823	0.0164428
823.901	0.0163602
823.979	0.0163349
824.058	0.0162946
824.136	0.0163541
824.214	0.0164638
824.292	0.0165775
824.370	0.0165822
824.448	0.0165293
824.526	0.0165449
824.604	0.0165136
824.683	0.0166842
824.761	0.0167001
824.839	0.0166608
824.917	0.0165651
824.995	0.0166644
825.073	0.0166663
825.151	0.0165883
825.229	0.0165839
825.308	0.0164520
825.386	0.0166057
825.464	0.0164657
825.542	0.0164324
825.620	0.0164419
825.698	0.0162313
825.776	0.0161541
825.854	0.0162094
825.933	0.0161133
826.011	0.0161488
826.089	0.0160900
826.167	0.0160207
826.245	0.0160356
826.323	0.0159994
826.401	0.0159043
826.479	0.0160313
826.558	0.0159217
826.636	0.0157834
826.714	0.0158884
826.792	0.0159393
826.870	0.0161861
826.948	0.0159965
827.026	0.0160515
827.104	0.0160052
827.183	0.0160822
827.261	0.0161929
827.339	0.0160226
827.417	0.0161057
827.495	0.0161884
827.573	0.0160668
827.651	0.0159717
827.729	0.0159698
827.808	0.0161854
827.886	0.0159927
827.964	0.0160895
828.042	0.0160440
828.120	0.0161534
828.198	0.0161090
828.276	0.0160825
828.354	0.0161939
828.433	0.0162408
828.511	0.0162955
828.589	0.0161772
828.667	0.0163151
828.745	0.0163499
828.823	0.0164114
828.901	0.0164342
828.979	0.0164207
829.058	0.0166153
829.136	0.0166881
829.214	0.0164709
829.292	0.0165010
829.370	0.0165285
829.448	0.0164300
829.526	0.0164691
829.604	0.0163986
829.683	0.0163239
829.761	0.0164111
829.839	0.0161996
829.917	0.0161536
829.995	0.0160976
830.073	0.0161891
830.151	0.0160966
830.229	0.0160879
830.308	0.0160403
830.386	0.0161171
830.464	0.0160117
830.542	0.0161181
830.620	0.0161132
830.698	0.0162080
830.776	0.0162318
830.854	0.0161452
830.933	0.0161717
831.011	0.0160909
831.089	0.0162286
831.167	0.0162073
831.245	0.0161348
831.323	0.0161949
831.401	0.0163280
831.479	0.0163410
831.558	0.0163609
831.636	0.0163214
831.714	0.0163542
831.792	0.0162686
831.870	0.0162856
831.948	0.0163195
832.026	0.0164412
832.104	0.0161840
832.183	0.0164437
832.261	0.0165391
832.339	0.0165289
832.417	0.0165221
832.495	0.0163484
832.573	0.0164622
832.651	0.0167283
832.729	0.0165924
832.808	0.0164788
832.886	0.0165823
832.964	0.0165410
833.042	0.0165499
833.120	0.0164433
833.198	0.0163786
833.276	0.0163516
833.354	0.0163670
833.433	0.0161951
833.511	0.0161953
833.589	0.0162025
833.667	0.0160837
833.745	0.0160027
833.823	0.0160534
833.901	0.0159944
833.979	0.0160739
834.058	0.0158923
834.136	0.0159702
834.214	0.0157796
834.292	0.0159117
834.370	0.0158362
834.448	0.0158356
834.526	0.0157145
834.604	0.0159573
834.683	0.0159917
834.761	0.0159072
834.839	0.0159879
834.917	0.0159594
834.995	0.0159669
835.073	0.0159278
835.151	0.0160849
835.229	0.0159523
835.308	0.0158894
835.386	0.0160862
835.464	0.0161970
835.542	0.0161343
835.620	0.0162135
835.698	0.0162340
835.776	0.0163656
835.854	0.0162646
835.933	0.0162560
836.011	0.0163052
836.089	0.0164415
836.167	0.0164189
836.245	0.0165017
836.323	0.0165565
836.401	0.0165145
836.479	0.0165300
836.558	0.0166112
836.636	0.0166431
836.714	0.0165868
836.792	0.0166498
836.870	0.0167239
836.948	0.0167023
837.026	0.0166215
837.104	0.0165305
837.183	0.0165276
837.261	0.0166884
837.339	0.0164810
837.417	0.0165596
837.495	0.0163111
837.573	0.0163508
837.651	0.0163920
837.729	0.0163477
837.808	0.0163947
837.886	0.0161865
837.964	0.0162180
838.042	0.0161702
838.120	0.0162421
838.198	0.0162035
838.276	0.0161858
838.354	0.0161456
838.433	0.0161903
838.511	0.0161612
838.589	0.0161656
838.667	0.0161804
838.745	0.0160868
838.823	0.0161354
838.901	0.0161938
838.979	0.0161272
839.058	0.0161364
839.136	0.0159666
839.214	0.0161522
839.292	0.0161073
839.370	0.0161169
839.448	0.0159531
839.526	0.0161351
839.604	0.0160603
839.683	0.0160088
839.761	0.0160062
839.839	0.0160304
839.917	0.0162140
839.995	0.0162077
840.073	0.0161172
840.151	0.0162263
840.229	0.0163067
840.308	0.0162855
840.386	0.0162771
840.464	0.0163036
840.542	0.0162460
840.620	0.0163456
840.698	0.0163235
840.776	0.0164616
840.854	0.0164196
840.933	0.0163573
841.011	0.0165127
841.089	0.0164129
841.167	0.0165153
841.245	0.0166301
841.323	0.0163501
841.401	0.0162698
841.479	0.0165121
841.558	0.0164893
841.636	0.0162643
841.714	0.0164029
841.792	0.0163531
841.870	0.0161050
841.948	0.0162162
842.026	0.0161899
842.104	0.0159827
842.183	0.0161491
842.261	0.0160346
842.339	0.0159910
842.417	0.0159483
842.495	0.0159425
842.573	0.0159160
842.651	0.0160299
842.729	0.0159895
842.808	0.0159049
842.886	0.0157486
842.964	0.0159710
843.042	0.0160944
843.120	0.0160531
843.198	0.0160944
843.276	0.0161711
843.354	0.0161653
843.433	0.0162798
843.511	0.0164187
843.589	0.0163677
843.667	0.0164709
843.745	0.0163384
843.823	0.0166573
843.901	0.0165045
843.979	0.0164723
844.058	0.0164233
844.136	0.0164748
844.214	0.0165394
844.292	0.0164294
844.370	0.0165717
844.448	0.0165105
844.526	0.0165303
844.604	0.0165054
844.683	0.0164960
844.761	0.0166022
844.839	0.0163147
844.917	0.0164442
844.995	0.0165770
845.073	0.0164291
845.151	0.0163927
845.229	0.0164338
845.308	0.0164899
845.386	0.0164158
845.464	0.0162605
845.542	0.0162241
845.620	0.0162943
845.698	0.0161496
845.776	0.0162109
845.854	0.0161296
845.933	0.0160198
846.011	0.0159697
846.089	0.0160392
846.167	0.0160903
846.245	0.0160197
846.323	0.0161037
846.401	0.0160308
846.479	0.0159776
846.558	0.0160687
846.636	0.0160102
846.714	0.0158973
846.792	0.0159831
846.870	0.0160600
846.948	0.0160435
847.026	0.0159502
847.104	0.0160282
847.183	0.0160249
847.261	0.0158540
847.339	0.0160531
847.417	0.0161846
847.495	0.0159851
847.573	0.0160544
847.651	0.0160281
847.729	0.0160690
847.808	0.0160758
847.886	0.0161365
847.964	0.0162162
848.042	0.0162386
848.120	0.0162487
848.198	0.0161179
848.276	0.0161996
848.354	0.0162943
848.433	0.0163642
848.511	0.0164359
848.589	0.0163038
848.667	0.0163178
848.745	0.0163356
848.823	0.0163043
848.901	0.0164929
848.979	0.0164450
849.058	0.0165067
849.136	0.0165282
849.214	0.0164693
849.292	0.0165901
849.370	0.0166428
849.448	0.0165533
849.526	0.0164790
849.604	0.0166380
849.683	0.0165136
849.761	0.0165114
849.839	0.0167292
849.917	0.0165441
849.995	0.0165760
850.073	0.0165339
850.151	0.0166537
850.229	0.0166171
850.308	0.0164261
850.386	0.0164607
850.464	0.0163814
850.542	0.0164092
850.620	0.0163423
850.698	0.0162967
850.776	0.0162998
850.854	0.0162917
850.933	0.0162021
851.011	0.0161743
851.089	0.0160677
851.167	0.0161635
851.245	0.0159772
851.323	0.0161314
851.401	0.0159361
851.479	0.0159654
851.558	0.0161346
851.636	0.0161363
851.714	0.0160597
851.792	0.0159496
851.870	0.0159766
851.948	0.0161168
852.026	0.0160674
852.104	0.0160520
852.183	0.0162053
852.261	0.0161077
852.339	0.0160236
852.417	0.0161691
852.495	0.0162043
852.573	0.0162006
852.651	0.0162608
852.729	0.0163232
852.808	0.0163569
852.886	0.0166065
852.964	0.0163545
853.042	0.0164394
853.120	0.0164620
853.198	0.0163445
853.276	0.0163461
853.354	0.0163226
853.433	0.0162091
853.511	0.0163354
853.589	0.0162797
853.667	0.0162229
853.745	0.0162849
853.823	0.0160995
853.901	0.0160202
853.979	0.0161214
854.058	0.0163049
854.136	0.0161478
854.214	0.0160061
854.292	0.0160971
854.370	0.0160872
854.448	0.0162013
854.526	0.0162880
854.604	0.0161462
854.683	0.0160480
854.761	0.0161386
854.839	0.0160347
854.917	0.0161803
854.995	0.0160521
855.073	0.0162334
855.151	0.0163063
855.229	0.0161903
855.308	0.0163226
855.386	0.0163751
855.464	0.0165230
855.542	0.0164503
855.620	0.0164704
855.698	0.0165302
855.776	0.0165483
855.854	0.0165259
855.933	0.0166134
856.011	0.0163964
856.089	0.0165865
856.167	0.0164763
856.245	0.0165307
856.323	0.0165644
856.401	0.0164356
856.479	0.0164606
856.558	0.0164124
856.636	0.0163740
856.714	0.0162941
856.792	0.0161484
856.870	0.0160815
856.948	0.0160812
857.026	0.0160062
857.104	0.0162176
857.183	0.0159415
857.261	0.0159311
857.339	0.0159245
857.417	0.0161555
857.495	0.0160176
857.573	0.0161953
857.651	0.0160511
857.729	0.0160811
857.808	0.0161940
857.886	0.0161031
857.964	0.0161079
858.042	0.0161155
858.120	0.0161915
858.198	0.0161796
858.276	0.0161669
858.354	0.0160039
858.433	0.0161261
858.511	0.0161722
858.589	0.0161443
858.667	0.0161524
858.745	0.0161709
858.823	0.0161320
858.901	0.0163157
858.979	0.0162484
859.058	0.0163676
859.136	0.0163569
859.214	0.0162899
859.292	0.0162888
859.370	0.0165338
859.448	0.0163963
859.526	0.0162616
859.604	0.0164777
859.683	0.0165046
859.761	0.0163962
859.839	0.0164143
859.917	0.0164191
859.995	0.0164356
860.073	0.0163412
860.151	0.0164516
860.229	0.0163218
860.308	0.0161788
860.386	0.0162357
860.464	0.0162782
860.542	0.0161095
860.620	0.0161715
860.698	0.0160322
860.776	0.0160469
860.854	0.0160064
860.933	0.0159133
861.011	0.0159116
861.089	0.0159123
861.167	0.0160444
861.245	0.0158862
861.323	0.0160364
861.401	0.0157549
861.479	0.0159895
861.558	0.0161073
861.636	0.0161672
861.714	0.0161807
861.792	0.0162794
861.870	0.0164126
861.948	0.0165372
862.026	0.0165279
862.104	0.0167762
862.183	0.0167837
862.261	0.0167892
862.339	0.0167194
862.417	0.0167303
862.495	0.0167260
862.573	0.0166682
862.651	0.0167169
862.729	0.0167199
862.808	0.0166001
862.886	0.0166766
862.964	0.0165483
863.042	0.0163508
863.120	0.0161924
863.198	0.0163110
863.276	0.0162727
863.354	0.0163489
863.433	0.0161362
863.511	0.0161793
863.589	0.0161151
863.667	0.0161054
863.745	0.0160828
863.823	0.0160519
863.901	0.0161768
863.979	0.0161972
864.058	0.0161769
864.136	0.0159755
864.214	0.0160977
864.292	0.0161472
864.370	0.0161470
864.448	0.0160156
864.526	0.0160889
864.604	0.0160245
864.683	0.0161600
864.761	0.0161890
864.839	0.0161240
864.917	0.0160742
864.995	0.0158838
865.073	0.0158543
865.151	0.0159212
865.229	0.0159323
865.308	0.0159135
865.386	0.0157718
865.464	0.0158044
865.542	0.0157456
865.620	0.0156405
865.698	0.0157601
865.776	0.0159653
865.854	0.0158709
865.933	0.0157855
866.011	0.0158918
866.089	0.0157662
866.167	0.0157767
866.245	0.0157278
866.323	0.0157815
866.401	0.0159664
866.479	0.0160249
866.558	0.0161536
866.636	0.0162069
866.714	0.0163045
866.792	0.0164521
866.870	0.0165484
866.948	0.0167074
867.026	0.0167666
867.104	0.0168326
867.183	0.0168420
867.261	0.0170188
867.339	0.0171325
867.417	0.0170070
867.495	0.0171365
867.573	0.0171104
867.651	0.0171877
867.729	0.0170576
867.808	0.0169287
867.886	0.0168748
867.964	0.0168286
868.042	0.0168382
868.120	0.0167513
868.198	0.0167176
868.276	0.0165896
868.354	0.0165634
868.433	0.0164297
868.511	0.0165517
868.589	0.0163349
868.667	0.0163205
868.745	0.0162125
868.823	0.0161291
868.901	0.0161936
868.979	0.0160110
869.058	0.0158215
869.136	0.0156754
869.214	0.0156876
869.292	0.0156198
869.370	0.0155193
869.448	0.0154778
869.526	0.0154564
869.604	0.0154320
869.683	0.0153718
869.761	0.0153889
869.839	0.0153114
869.917	0.0153701
869.995	0.0155353
870.073	0.0154264
870.151	0.0153266
870.229	0.0154257
870.308	0.0155402
870.386	0.0156080
870.464	0.0155751
870.542	0.0156211
870.620	0.0158548
870.698	0.0160020
870.776	0.0158536
870.854	0.0160841
870.933	0.0160650
871.011	0.0160675
871.089	0.0162066
871.167	0.0164407
871.245	0.0165157
871.323	0.0166912
871.401	0.0167064
871.479	0.0168330
871.558	0.0169508
871.636	0.0169377
871.714	0.0170800
871.792	0.0170881
871.870	0.0170485
871.948	0.0170927
872.026	0.0173230
872.104	0.0172031
872.183	0.0170910
872.261	0.0171374
872.339	0.0170824
872.417	0.0169683
872.495	0.0169016
872.573	0.0167678
872.651	0.0166236
872.729	0.0166235
872.808	0.0164829
872.886	0.0163101
872.964	0.0161718
873.042	0.0162043
873.120	0.0160145
873.198	0.0159104
873.276	0.0158569
873.354	0.0158617
873.433	0.0157922
873.511	0.0156647
873.589	0.0155843
873.667	0.0154891
873.745	0.0155268
873.823	0.0154057
873.901	0.0155122
873.979	0.0154971
874.058	0.0155145
874.136	0.0154862
874.214	0.0154830
874.292	0.0156625
874.370	0.0156512
874.448	0.0158353
874.526	0.0157381
874.604	0.0159528
874.683	0.0160958
874.761	0.0161484
874.839	0.0160665
874.917	0.0163118
874.995	0.0164174
875.073	0.0163486
875.151	0.0163733
875.229	0.0165313
875.308	0.0165079
875.386	0.0163925
875.464	0.0164194
875.542	0.0164842
875.620	0.0165228
875.698	0.0165138
875.776	0.0165635
875.854	0.0167190
875.933	0.0166042
876.011	0.0166737
876.089	0.0168690
876.167	0.0167976
876.245	0.0166642
876.323	0.0167873
876.401	0.0167626
876.479	0.0166631
876.558	0.0167481
876.636	0.0168661
876.714	0.0166789
876.792	0.0168414
876.870	0.0167780
876.948	0.0169264
877.026	0.0166801
877.104	0.0167376
877.183	0.0166982
877.261	0.0165450
877.339	0.0164469
877.417	0.0163940
877.495	0.0162736
877.573	0.0162395
877.651	0.0160567
877.729	0.0159338
877.808	0.0158714
877.886	0.0159176
877.964	0.0158550
878.042	0.0157875
878.120	0.0157044
878.198	0.0156807
878.276	0.0156664
878.354	0.0155734
878.433	0.0156114
878.511	0.0155026
878.589	0.0156841
878.667	0.0157211
878.745	0.0156824
878.823	0.0157961
878.901	0.0158611
878.979	0.0160253
879.058	0.0159237
879.136	0.0159637
879.214	0.0159676
879.292	0.0163233
879.370	0.0163120
879.448	0.0162561
879.526	0.0165539
879.604	0.0164527
879.683	0.0164919
879.761	0.0165715
879.839	0.0165864
879.917	0.0166456
879.995	0.0168076
880.073	0.0168021
880.151	0.0167497
880.229	0.0166462
880.308	0.0165862
880.386	0.0168147
880.464	0.0167425
880.542	0.0168798
880.620	0.0167326
880.698	0.0166647
880.776	0.0167488
880.854	0.0167922
880.933	0.0166758
881.011	0.0167577
881.089	0.0168307
881.167	0.0165853
881.245	0.0167232
881.323	0.0166583
881.401	0.0165592
881.479	0.0167154
881.558	0.0166367
881.636	0.0166081
881.714	0.0163900
881.792	0.0164742
881.870	0.0164232
881.948	0.0163724
882.026	0.0163837
882.104	0.0161741
882.183	0.0161897
882.261	0.0160187
882.339	0.0159301
882.417	0.0160050
882.495	0.0158405
882.573	0.0157814
882.651	0.0156820
882.729	0.0156381
882.808	0.0156521
882.886	0.0155852
882.964	0.0155901
883.042	0.0156322
883.120	0.0157163
883.198	0.0157614
883.276	0.0157608
883.354	0.0157639
883.433	0.0157832
883.511	0.0158163
883.589	0.0159340
883.667	0.0157737
883.745	0.0159609
883.823	0.0159533
883.901	0.0159112
883.979	0.0160452
884.058	0.0161535
884.136	0.0161877
884.214	0.0160892
884.292	0.0162778
884.370	0.0163349
884.448	0.0162430
884.526	0.0164034
884.604	0.0164403
884.683	0.0165112
884.761	0.0166177
884.839	0.0166747
884.917	0.0166582
884.995	0.0167112
885.073	0.0166703
885.151	0.0168533
885.229	0.0167613
885.308	0.0168657
885.386	0.0168436
885.464	0.0168376
885.542	0.0168713
885.620	0.0168329
885.698	0.0167138
885.776	0.0169200
885.854	0.0170114
885.933	0.0167918
886.011	0.0169470
886.089	0.0167486
886.167	0.0165897
886.245	0.0165945
886.323	0.0165607
886.401	0.0164912
886.479	0.0164063
886.558	0.0165716
886.636	0.0163701
886.714	0.0163406
886.792	0.0163224
886.870	0.0162715
886.948	0.0161413
887.026	0.0161596
887.104	0.0161674
887.183	0.0160652
887.261	0.0161458
887.339	0.0161486
887.417	0.0161086
887.495	0.0160907
887.573	0.0160845
887.651	0.0160401
887.729	0.0160753
887.808	0.0159026
887.886	0.0160197
887.964	0.0158852
888.042	0.0158880
888.120	0.0157733
888.198	0.0157771
888.276	0.0156226
888.354	0.0156331
888.433	0.0156816
888.511	0.0157951
888.589	0.0155403
888.667	0.0155591
888.745	0.0156705
888.823	0.0156101
888.901	0.0157400
888.979	0.0157882
889.058	0.0158645
889.136	0.0158614
889.214	0.0158224
889.292	0.0160063
889.370	0.0158998
889.448	0.0161215
889.526	0.0163339
889.604	0.0163607
889.683	0.0163650
889.761	0.0163642
889.839	0.0164333
889.917	0.0165051
889.995	0.0166055
890.073	0.0166608
890.151	0.0166538
890.229	0.0168117
890.308	0.0165958
890.386	0.0168676
890.464	0.0167611
890.542	0.0166563
890.620	0.0166964
890.698	0.0167232
890.776	0.0166003
890.854	0.0167629
890.933	0.0167599
891.011	0.0167087
891.089	0.0166640
891.167	0.0166323
891.245	0.0166177
891.323	0.0166190
891.401	0.0164510
891.479	0.0166378
891.558	0.0165799
891.636	0.0164447
891.714	0.0165067
891.792	0.0163480
891.870	0.0163129
891.948	0.0164415
892.026	0.0164500
892.104	0.0163032
892.183	0.0163289
892.261	0.0163950
892.339	0.0163510
892.417	0.0161383
892.495	0.0161017
892.573	0.0161187
892.651	0.0160103
892.729	0.0159309
892.808	0.0160313
892.886	0.0158482
892.964	0.0159669
893.042	0.0158210
893.120	0.0159449
893.198	0.0159296
893.276	0.0159496
893.354	0.0158934
893.433	0.0159267
893.511	0.0159472
893.589	0.0158256
893.667	0.0158581
893.745	0.0158427
893.823	0.0158638
893.901	0.0159806
893.979	0.0159582
894.058	0.0160329
894.136	0.0159793
894.214	0.0161919
894.292	0.0160934
894.370	0.0161354
894.448	0.0160687
894.526	0.0162140
894.604	0.0161173
894.683	0.0161131
894.761	0.0160657
894.839	0.0160745
894.917	0.0161959
894.995	0.0160894
895.073	0.0161581
895.151	0.0161558
895.229	0.0162541
895.308	0.0163544
895.386	0.0162354
895.464	0.0160297
895.542	0.0163359
895.620	0.0163466
895.698	0.0162400
895.776	0.0165247
895.854	0.0165115
895.933	0.0163023
896.011	0.0163206
896.089	0.0164136
896.167	0.0163203
896.245	0.0162584
896.323	0.0163505
896.401	0.0163438
896.479	0.0163255
896.558	0.0163264
896.636	0.0161707
896.714	0.0163424
896.792	0.0162725
896.870	0.0162565
896.948	0.0163875
897.026	0.0163567
897.104	0.0163756
897.183	0.0163754
897.261	0.0163551
897.339	0.0162472
897.417	0.0162223
897.495	0.0164178
897.573	0.0163811
897.651	0.0163629
897.729	0.0165375
897.808	0.0163770
897.886	0.0163515
897.964	0.0164462
898.042	0.0164132
898.120	0.0162794
898.198	0.0163414
898.276	0.0164622
898.354	0.0164201
898.433	0.0163652
898.511	0.0164172
898.589	0.0164294
898.667	0.0164028
898.745	0.0162524
898.823	0.0163342
898.901	0.0163083
898.979	0.0162610
899.058	0.0161759
899.136	0.0161365
899.214	0.0161499
899.292	0.0159880
899.370	0.0160103
899.448	0.0160397
899.526	0.0159862
899.604	0.0160109
899.683	0.0160461
899.761	0.0160546
899.839	0.0159494
899.917	0.0160030
899.995	0.0159679
900.073	0.0160673
900.151	0.0161046
900.229	0.0161404
900.308	0.0160746
900.386	0.0160548
900.464	0.0160438
900.542	0.0161872
900.620	0.0161934
900.698	0.0163460
900.776	0.0161440
900.854	0.0161348
900.933	0.0161897
901.011	0.0161868
901.089	0.0161337
901.167	0.0162440
901.245	0.0160857
901.323	0.0161610
901.401	0.0161565
901.479	0.0162891
901.558	0.0162317
901.636	0.0163113
901.714	0.0162725
901.792	0.0162377
901.870	0.0164249
901.948	0.0163816
902.026	0.0163840
902.104	0.0163364
902.183	0.0163032
902.261	0.0162457
902.339	0.0164005
902.417	0.0163628
902.495	0.0163998
902.573	0.0163591
902.651	0.0164024
902.729	0.0165221
902.808	0.0164198
902.886	0.0163315
902.964	0.0164404
903.042	0.0164404
903.120	0.0162308
903.198	0.0163253
903.276	0.0163224
903.354	0.0163258
903.433	0.0161912
903.511	0.0163004
903.589	0.0163121
903.667	0.0163279
903.745	0.0163136
903.823	0.0163737
903.901	0.0162991
903.979	0.0164940
904.058	0.0163253
904.136	0.0163515
904.214	0.0163515
904.292	0.0161921
904.370	0.0162039
904.448	0.0162475
904.526	0.0163869
904.604	0.0162777
904.683	0.0161276
904.761	0.0162419
904.839	0.0160480
904.917	0.0161659
904.995	0.0162994
905.073	0.0161769
905.151	0.0161665
905.229	0.0163148
905.308	0.0161182
905.386	0.0161194
905.464	0.0160239
905.542	0.0161400
905.620	0.0162611
905.698	0.0160768
905.776	0.0162251
905.854	0.0161842
905.933	0.0161069
906.011	0.0162669
906.089	0.0160056
906.167	0.0160829
906.245	0.0159978
906.323	0.0160370
906.401	0.0160888
906.479	0.0160535
906.558	0.0159081
906.636	0.0160072
906.714	0.0161244
906.792	0.0159315
906.870	0.0161734
906.948	0.0161639
907.026	0.0161896
907.104	0.0161557
907.183	0.0161761
907.261	0.0162950
907.339	0.0161764
907.417	0.0161320
907.495	0.0163127
907.573	0.0163725
907.651	0.0165040
907.729	0.0162393
907.808	0.0162530
907.886	0.0163611
907.964	0.0164560
908.042	0.0163053
908.120	0.0163900
908.198	0.0163937
908.276	0.0163906
908.354	0.0163770
908.433	0.0164312
908.511	0.0164570
908.589	0.0163713
908.667	0.0162827
908.745	0.0163210
908.823	0.0163830
908.901	0.0163956
908.979	0.0163563
909.058	0.0163045
909.136	0.0164071
909.214	0.0163419
909.292	0.0163494
909.370	0.0163118
909.448	0.0163435
909.526	0.0161496
909.604	0.0161414
909.683	0.0163336
909.761	0.0163166
909.839	0.0162676
909.917	0.0162614
909.995	0.0163816
910.073	0.0162923
910.151	0.0162934
910.229	0.0162820
910.308	0.0163327
910.386	0.0163232
910.464	0.0161924
910.542	0.0162490
910.620	0.0162019
910.698	0.0162048
910.776	0.0161679
910.854	0.0162962
910.933	0.0163551
911.011	0.0163138
911.089	0.0161294
911.167	0.0161971
911.245	0.0160765
911.323	0.0160664
911.401	0.0162003
911.479	0.0160640
911.558	0.0160344
911.636	0.0159811
911.714	0.0159642
911.792	0.0161032
911.870	0.0160106
911.948	0.0161343
912.026	0.0160548
912.104	0.0160973
912.183	0.0160840
912.261	0.0160693
912.339	0.0161391
912.417	0.0160812
912.495	0.0161462
912.573	0.0162031
912.651	0.0161467
912.729	0.0161687
912.808	0.0163073
912.886	0.0164001
912.964	0.0163964
913.042	0.0164476
913.120	0.0164713
913.198	0.0163322
913.276	0.0164165
913.354	0.0164608
913.433	0.0164312
913.511	0.0163676
913.589	0.0163672
913.667	0.0163381
913.745	0.0162926
913.823	0.0162094
913.901	0.0161593
913.979	0.0162012
914.058	0.0161584
914.136	0.0161630
914.214	0.0160059
914.292	0.0160870
914.370	0.0160597
914.448	0.0161207
914.526	0.0161485
914.604	0.0160242
914.683	0.0159731
914.761	0.0160260
914.839	0.0161102
914.917	0.0161091
914.995	0.0160352
915.073	0.0160773
915.151	0.0160391
915.229	0.0160806
915.308	0.0161126
915.386	0.0160579
915.464	0.0161241
915.542	0.0161692
915.620	0.0159889
915.698	0.0161655
915.776	0.0161078
915.854	0.0161209
915.933	0.0161268
916.011	0.0162624
916.089	0.0163646
916.167	0.0162072
916.245	0.0162506
916.323	0.0163544
916.401	0.0162337
916.479	0.0161975
916.558	0.0163528
916.636	0.0163167
916.714	0.0164137
916.792	0.0165504
916.870	0.0164970
916.948	0.0165073
917.026	0.0164662
917.104	0.0164915
917.183	0.0165441
917.261	0.0166510
917.339	0.0167387
917.417	0.0164914
917.495	0.0164453
917.573	0.0165041
917.651	0.0164687
917.729	0.0164374
917.808	0.0164403
917.886	0.0163812
917.964	0.0162963
918.042	0.0162031
918.120	0.0162399
918.198	0.0162071
918.276	0.0161482
918.354	0.0161517
918.433	0.0162045
918.511	0.0160760
918.589	0.0160966
918.667	0.0159869
918.745	0.0161691
918.823	0.0159859
918.901	0.0159083
918.979	0.0158396
919.058	0.0158411
919.136	0.0158157
919.214	0.0158734
919.292	0.0158971
919.370	0.0159853
919.448	0.0159439
919.526	0.0159607
919.604	0.0159702
919.683	0.0159655
919.761	0.0160028
919.839	0.0159116
919.917	0.0159817
