06/10/2022	16:20:57	Ver.	4.1	UNKNOWN
Optical Delay	599.995081	Delta X		0.078125	Sweeps	1	Scan Rate	0/0
Coordinates	Axis 1	NaN	Axis 2	NaN	Axis 3	NaN	Axis 4	NaN	Axis 5	NaN	Axis 6	0.000000
TX Power	0.000000	RX Power	0.000000

599.995	0.0166733
600.073	0.0165954
600.151	0.0166152
600.229	0.0166494
600.308	0.0166203
600.386	0.0167461
600.464	0.0166679
600.542	0.0166685
600.620	0.0165707
600.698	0.0166679
600.776	0.0167232
600.854	0.0166342
600.933	0.0166619
601.011	0.0166231
601.089	0.0167552
601.167	0.0166309
601.245	0.0166287
601.323	0.0166324
601.401	0.0165708
601.479	0.0167083
601.558	0.0168022
601.636	0.0166390
601.714	0.0166260
601.792	0.0165806
601.870	0.0167041
601.948	0.0166161
602.026	0.0167484
602.104	0.0166882
602.183	0.0166570
602.261	0.0166344
602.339	0.0165645
602.417	0.0167115
602.495	0.0165675
602.573	0.0165294
602.651	0.0166597
602.729	0.0167290
602.808	0.0166529
602.886	0.0166711
602.964	0.0166341
603.042	0.0166863
603.120	0.0166072
603.198	0.0165972
603.276	0.0165097
603.354	0.0166572
603.433	0.0167479
603.511	0.0165905
603.589	0.0166905
603.667	0.0168362
603.745	0.0166965
603.823	0.0166274
603.901	0.0167342
603.979	0.0165912
604.058	0.0165534
604.136	0.0165474
604.214	0.0165764
604.292	0.0166667
604.370	0.0165975
604.448	0.0166291
604.526	0.0167722
604.604	0.0166467
604.683	0.0167391
604.761	0.0167139
604.839	0.0166283
604.917	0.0167090
604.995	0.0165743
605.073	0.0166512
605.151	0.0166384
605.229	0.0167310
605.308	0.0167644
605.386	0.0167096
605.464	0.0166570
605.542	0.0166718
605.620	0.0166003
605.698	0.0166188
605.776	0.0167332
605.854	0.0166779
605.933	0.0167339
606.011	0.0165767
606.089	0.0167150
606.167	0.0167036
606.245	0.0166382
606.323	0.0165377
606.401	0.0166922
606.479	0.0167455
606.558	0.0167485
606.636	0.0165603
606.714	0.0165916
606.792	0.0166855
606.870	0.0165864
606.948	0.0165809
607.026	0.0165512
607.104	0.0165836
607.183	0.0166161
607.261	0.0166938
607.339	0.0166071
607.417	0.0167251
607.495	0.0166465
607.573	0.0165428
607.651	0.0165807
607.729	0.0166100
607.808	0.0165733
607.886	0.0166236
607.964	0.0165653
608.042	0.0166273
608.120	0.0165652
608.198	0.0165142
608.276	0.0167394
608.354	0.0166496
608.433	0.0166651
608.511	0.0166530
608.589	0.0166883
608.667	0.0166823
608.745	0.0165482
608.823	0.0165788
608.901	0.0166634
608.979	0.0166837
609.058	0.0166906
609.136	0.0165549
609.214	0.0167096
609.292	0.0167275
609.370	0.0166396
609.448	0.0166715
609.526	0.0167308
609.604	0.0167081
609.683	0.0164680
609.761	0.0166577
609.839	0.0167892
609.917	0.0165991
609.995	0.0168319
610.073	0.0166348
610.151	0.0167400
610.229	0.0167022
610.308	0.0166476
610.386	0.0167466
610.464	0.0167860
610.542	0.0166464
610.620	0.0166682
610.698	0.0165575
610.776	0.0166686
610.854	0.0165607
610.933	0.0167765
611.011	0.0166091
611.089	0.0165910
611.167	0.0166911
611.245	0.0166042
611.323	0.0166658
611.401	0.0165656
611.479	0.0165909
611.558	0.0167308
611.636	0.0165620
611.714	0.0166550
611.792	0.0166422
611.870	0.0166387
611.948	0.0166020
612.026	0.0167010
612.104	0.0166289
612.183	0.0166042
612.261	0.0166521
612.339	0.0167612
612.417	0.0165784
612.495	0.0166460
612.573	0.0167207
612.651	0.0166831
612.729	0.0166761
612.808	0.0167738
612.886	0.0166373
612.964	0.0167043
613.042	0.0166518
613.120	0.0166660
613.198	0.0166137
613.276	0.0166673
613.354	0.0165896
613.433	0.0166155
613.511	0.0165974
613.589	0.0166809
613.667	0.0167046
613.745	0.0166665
613.823	0.0166945
613.901	0.0167582
613.979	0.0166236
614.058	0.0166538
614.136	0.0166800
614.214	0.0166946
614.292	0.0166018
614.370	0.0166743
614.448	0.0167445
614.526	0.0166979
614.604	0.0167286
614.683	0.0166373
614.761	0.0165905
614.839	0.0165926
614.917	0.0167455
614.995	0.0167146
615.073	0.0166130
615.151	0.0166311
615.229	0.0166360
615.308	0.0166208
615.386	0.0166774
615.464	0.0165862
615.542	0.0166496
615.620	0.0166993
615.698	0.0166741
615.776	0.0166419
615.854	0.0166109
615.933	0.0165935
616.011	0.0166080
616.089	0.0166593
616.167	0.0165902
616.245	0.0165058
616.323	0.0165611
616.401	0.0166839
616.479	0.0167086
616.558	0.0166780
616.636	0.0165833
616.714	0.0165602
616.792	0.0167099
616.870	0.0165849
616.948	0.0167368
617.026	0.0167497
617.104	0.0166351
617.183	0.0166644
617.261	0.0165196
617.339	0.0167378
617.417	0.0167322
617.495	0.0166507
617.573	0.0166646
617.651	0.0166315
617.729	0.0167290
617.808	0.0168243
617.886	0.0165858
617.964	0.0165276
618.042	0.0166183
618.120	0.0166938
618.198	0.0166457
618.276	0.0165409
618.354	0.0166209
618.433	0.0166876
618.511	0.0166440
618.589	0.0166176
618.667	0.0166525
618.745	0.0166883
618.823	0.0167272
618.901	0.0166217
618.979	0.0167439
619.058	0.0166824
619.136	0.0166573
619.214	0.0165678
619.292	0.0166437
619.370	0.0167639
619.448	0.0167783
619.526	0.0165561
619.604	0.0165756
619.683	0.0166489
619.761	0.0166360
619.839	0.0165424
619.917	0.0166270
619.995	0.0167029
620.073	0.0167084
620.151	0.0164854
620.229	0.0166447
620.308	0.0166398
620.386	0.0165827
620.464	0.0166927
620.542	0.0167380
620.620	0.0166039
620.698	0.0166682
620.776	0.0167543
620.854	0.0165827
620.933	0.0166797
621.011	0.0166319
621.089	0.0165928
621.167	0.0166613
621.245	0.0166312
621.323	0.0165856
621.401	0.0165590
621.479	0.0165800
621.558	0.0166137
621.636	0.0168491
621.714	0.0167175
621.792	0.0166038
621.870	0.0166201
621.948	0.0166079
622.026	0.0167087
622.104	0.0167228
622.183	0.0166995
622.261	0.0165200
622.339	0.0166481
622.417	0.0167747
622.495	0.0166542
622.573	0.0166310
622.651	0.0166212
622.729	0.0166052
622.808	0.0165270
622.886	0.0166219
622.964	0.0166361
623.042	0.0165624
623.120	0.0167037
623.198	0.0167201
623.276	0.0166576
623.354	0.0166724
623.433	0.0166594
623.511	0.0166566
623.589	0.0165762
623.667	0.0166901
623.745	0.0165304
623.823	0.0165292
623.901	0.0167522
623.979	0.0167242
624.058	0.0166267
624.136	0.0166826
624.214	0.0165573
624.292	0.0165432
624.370	0.0165887
624.448	0.0167097
624.526	0.0166232
624.604	0.0166847
624.683	0.0168202
624.761	0.0167564
624.839	0.0166847
624.917	0.0165841
624.995	0.0166106
625.073	0.0165943
625.151	0.0165894
625.229	0.0167071
625.308	0.0166911
625.386	0.0167390
625.464	0.0165903
625.542	0.0165741
625.620	0.0166749
625.698	0.0166683
625.776	0.0165756
625.854	0.0165215
625.933	0.0168087
626.011	0.0166560
626.089	0.0165603
626.167	0.0166879
626.245	0.0165476
626.323	0.0167287
626.401	0.0166959
626.479	0.0166537
626.558	0.0166065
626.636	0.0166882
626.714	0.0166262
626.792	0.0165085
626.870	0.0167117
626.948	0.0166949
627.026	0.0165885
627.104	0.0167290
627.183	0.0167250
627.261	0.0168095
627.339	0.0166243
627.417	0.0166475
627.495	0.0167149
627.573	0.0167059
627.651	0.0167034
627.729	0.0166727
627.808	0.0166492
627.886	0.0165562
627.964	0.0166770
628.042	0.0165363
628.120	0.0166967
628.198	0.0167562
628.276	0.0167091
628.354	0.0167062
628.433	0.0167277
628.511	0.0167001
628.589	0.0165570
628.667	0.0166688
628.745	0.0167603
628.823	0.0166320
628.901	0.0166096
628.979	0.0167522
629.058	0.0167413
629.136	0.0167490
629.214	0.0167783
629.292	0.0167085
629.370	0.0165787
629.448	0.0166651
629.526	0.0166707
629.604	0.0166588
629.683	0.0165544
629.761	0.0166051
629.839	0.0167505
629.917	0.0166154
629.995	0.0166502
630.073	0.0166508
630.151	0.0166555
630.229	0.0165736
630.308	0.0167754
630.386	0.0167739
630.464	0.0166844
630.542	0.0167601
630.620	0.0166717
630.698	0.0165934
630.776	0.0167233
630.854	0.0167443
630.933	0.0166657
631.011	0.0166982
631.089	0.0165996
631.167	0.0166830
631.245	0.0166962
631.323	0.0167600
631.401	0.0166124
631.479	0.0165873
631.558	0.0165606
631.636	0.0166921
631.714	0.0166415
631.792	0.0167377
631.870	0.0165675
631.948	0.0165390
632.026	0.0167074
632.104	0.0166312
632.183	0.0166897
632.261	0.0166772
632.339	0.0165242
632.417	0.0167567
632.495	0.0166269
632.573	0.0166921
632.651	0.0167126
632.729	0.0165582
632.808	0.0167484
632.886	0.0166785
632.964	0.0166319
633.042	0.0166781
633.120	0.0166496
633.198	0.0167358
633.276	0.0166222
633.354	0.0167136
633.433	0.0167339
633.511	0.0166087
633.589	0.0166817
633.667	0.0167530
633.745	0.0165737
633.823	0.0166451
633.901	0.0166339
633.979	0.0167397
634.058	0.0168101
634.136	0.0167247
634.214	0.0167544
634.292	0.0166985
634.370	0.0166037
634.448	0.0167899
634.526	0.0166827
634.604	0.0167030
634.683	0.0165820
634.761	0.0167191
634.839	0.0165180
634.917	0.0166328
634.995	0.0167608
635.073	0.0167413
635.151	0.0166306
635.229	0.0165644
635.308	0.0165601
635.386	0.0167318
635.464	0.0166525
635.542	0.0166371
635.620	0.0165715
635.698	0.0166516
635.776	0.0167090
635.854	0.0166438
635.933	0.0165598
636.011	0.0165751
636.089	0.0167832
636.167	0.0166666
636.245	0.0165691
636.323	0.0166241
636.401	0.0167050
636.479	0.0164870
636.558	0.0165478
636.636	0.0167787
636.714	0.0166653
636.792	0.0165736
636.870	0.0165581
636.948	0.0166388
637.026	0.0165318
637.104	0.0167407
637.183	0.0166943
637.261	0.0166110
637.339	0.0165325
637.417	0.0166819
637.495	0.0166791
637.573	0.0164726
637.651	0.0165967
637.729	0.0166447
637.808	0.0166818
637.886	0.0167821
637.964	0.0166633
638.042	0.0165393
638.120	0.0166611
638.198	0.0167228
638.276	0.0166364
638.354	0.0166224
638.433	0.0166860
638.511	0.0166093
638.589	0.0166732
638.667	0.0166336
638.745	0.0167203
638.823	0.0166726
638.901	0.0166773
638.979	0.0167354
639.058	0.0166031
639.136	0.0167693
639.214	0.0166911
639.292	0.0166554
639.370	0.0166998
639.448	0.0165829
639.526	0.0166723
639.604	0.0165417
639.683	0.0166993
639.761	0.0166840
639.839	0.0166618
639.917	0.0167042
639.995	0.0167816
640.073	0.0166940
640.151	0.0166696
640.229	0.0168030
640.308	0.0166139
640.386	0.0165590
640.464	0.0167068
640.542	0.0166187
640.620	0.0166616
640.698	0.0166835
640.776	0.0167027
640.854	0.0166921
640.933	0.0166513
641.011	0.0166413
641.089	0.0165931
641.167	0.0168553
641.245	0.0166470
641.323	0.0165981
641.401	0.0166146
641.479	0.0166283
641.558	0.0166432
641.636	0.0165434
641.714	0.0167038
641.792	0.0167856
641.870	0.0166879
641.948	0.0167709
642.026	0.0165858
642.104	0.0165849
642.183	0.0165574
642.261	0.0165331
642.339	0.0165920
642.417	0.0167163
642.495	0.0166998
642.573	0.0166093
642.651	0.0167149
642.729	0.0167596
642.808	0.0166116
642.886	0.0166215
642.964	0.0166788
643.042	0.0167484
643.120	0.0165877
643.198	0.0165551
643.276	0.0167300
643.354	0.0166052
643.433	0.0166245
643.511	0.0165079
643.589	0.0166869
643.667	0.0166692
643.745	0.0165600
643.823	0.0166216
643.901	0.0167722
643.979	0.0166323
644.058	0.0166206
644.136	0.0167236
644.214	0.0166808
644.292	0.0167216
644.370	0.0166901
644.448	0.0165527
644.526	0.0166431
644.604	0.0167411
644.683	0.0167823
644.761	0.0165207
644.839	0.0164917
644.917	0.0167278
644.995	0.0167606
645.073	0.0166468
645.151	0.0165842
645.229	0.0167027
645.308	0.0165597
645.386	0.0166224
645.464	0.0165948
645.542	0.0165179
645.620	0.0167334
645.698	0.0166976
645.776	0.0166250
645.854	0.0166008
645.933	0.0166522
646.011	0.0167406
646.089	0.0167003
646.167	0.0165643
646.245	0.0166152
646.323	0.0167200
646.401	0.0166008
646.479	0.0165075
646.558	0.0166679
646.636	0.0165297
646.714	0.0167360
646.792	0.0166794
646.870	0.0166046
646.948	0.0167232
647.026	0.0166795
647.104	0.0165401
647.183	0.0166583
647.261	0.0167132
647.339	0.0167123
647.417	0.0166379
647.495	0.0167108
647.573	0.0166796
647.651	0.0166134
647.729	0.0166043
647.808	0.0166605
647.886	0.0168333
647.964	0.0166809
648.042	0.0167425
648.120	0.0169003
648.198	0.0168260
648.276	0.0167124
648.354	0.0165990
648.433	0.0166808
648.511	0.0167294
648.589	0.0166377
648.667	0.0168530
648.745	0.0166531
648.823	0.0166894
648.901	0.0167430
648.979	0.0167200
649.058	0.0166694
649.136	0.0166713
649.214	0.0166062
649.292	0.0167507
649.370	0.0167666
649.448	0.0166280
649.526	0.0166951
649.604	0.0166316
649.683	0.0166885
649.761	0.0166887
649.839	0.0167397
649.917	0.0166637
649.995	0.0167402
650.073	0.0165466
650.151	0.0165901
650.229	0.0166862
650.308	0.0166349
650.386	0.0166936
650.464	0.0165691
650.542	0.0167931
650.620	0.0166591
650.698	0.0166251
650.776	0.0166392
650.854	0.0166512
650.933	0.0167722
651.011	0.0167889
651.089	0.0165913
651.167	0.0166254
651.245	0.0166168
651.323	0.0167920
651.401	0.0167601
651.479	0.0166338
651.558	0.0165817
651.636	0.0166934
651.714	0.0165616
651.792	0.0166753
651.870	0.0167139
651.948	0.0166746
652.026	0.0166484
652.104	0.0166693
652.183	0.0166312
652.261	0.0165984
652.339	0.0166911
652.417	0.0165956
652.495	0.0166797
652.573	0.0168165
652.651	0.0167367
652.729	0.0167131
652.808	0.0167199
652.886	0.0165002
652.964	0.0166917
653.042	0.0166187
653.120	0.0166706
653.198	0.0168100
653.276	0.0167189
653.354	0.0165665
653.433	0.0167307
653.511	0.0166904
653.589	0.0165963
653.667	0.0165511
653.745	0.0166056
653.823	0.0166932
653.901	0.0168606
653.979	0.0166979
654.058	0.0166153
654.136	0.0166355
654.214	0.0167386
654.292	0.0166798
654.370	0.0166137
654.448	0.0165853
654.526	0.0166264
654.604	0.0165870
654.683	0.0166591
654.761	0.0166492
654.839	0.0167545
654.917	0.0166702
654.995	0.0165635
655.073	0.0165505
655.151	0.0168148
655.229	0.0167290
655.308	0.0167136
655.386	0.0165624
655.464	0.0166669
655.542	0.0167552
655.620	0.0166069
655.698	0.0167772
655.776	0.0167250
655.854	0.0165710
655.933	0.0167920
656.011	0.0167926
656.089	0.0165676
656.167	0.0166512
656.245	0.0167246
656.323	0.0166286
656.401	0.0167702
656.479	0.0166602
656.558	0.0166540
656.636	0.0166523
656.714	0.0165644
656.792	0.0165939
656.870	0.0167045
656.948	0.0166084
657.026	0.0165794
657.104	0.0165916
657.183	0.0165952
657.261	0.0164433
657.339	0.0166029
657.417	0.0166998
657.495	0.0166567
657.573	0.0166502
657.651	0.0165788
657.729	0.0167066
657.808	0.0165195
657.886	0.0166046
657.964	0.0167590
658.042	0.0166402
658.120	0.0166220
658.198	0.0165625
658.276	0.0164895
658.354	0.0166416
658.433	0.0166114
658.511	0.0166052
658.589	0.0165315
658.667	0.0167564
658.745	0.0166454
658.823	0.0165818
658.901	0.0165941
658.979	0.0166756
659.058	0.0164935
659.136	0.0165553
659.214	0.0166069
659.292	0.0165845
659.370	0.0166857
659.448	0.0166357
659.526	0.0166657
659.604	0.0167239
659.683	0.0166496
659.761	0.0166506
659.839	0.0165916
659.917	0.0166061
659.995	0.0166573
660.073	0.0166599
660.151	0.0166001
660.229	0.0166164
660.308	0.0166065
660.386	0.0166366
660.464	0.0165263
660.542	0.0164928
660.620	0.0166589
660.698	0.0166566
660.776	0.0167775
660.854	0.0166516
660.933	0.0166759
661.011	0.0166368
661.089	0.0166185
661.167	0.0166291
661.245	0.0165733
661.323	0.0165465
661.401	0.0167566
661.479	0.0165926
661.558	0.0166532
661.636	0.0168116
661.714	0.0167191
661.792	0.0166056
661.870	0.0165939
661.948	0.0165556
662.026	0.0167738
662.104	0.0166493
662.183	0.0166382
662.261	0.0167413
662.339	0.0166924
662.417	0.0167071
662.495	0.0167522
662.573	0.0166818
662.651	0.0166220
662.729	0.0167528
662.808	0.0166493
662.886	0.0166735
662.964	0.0165899
663.042	0.0166792
663.120	0.0167086
663.198	0.0164442
663.276	0.0166809
663.354	0.0165043
663.433	0.0165981
663.511	0.0166037
663.589	0.0167313
663.667	0.0166132
663.745	0.0166434
663.823	0.0166499
663.901	0.0165701
663.979	0.0166297
664.058	0.0165785
664.136	0.0166722
664.214	0.0166241
664.292	0.0165168
664.370	0.0166061
664.448	0.0166309
664.526	0.0166432
664.604	0.0166204
664.683	0.0166965
664.761	0.0164436
664.839	0.0167617
664.917	0.0167152
664.995	0.0166422
665.073	0.0165547
665.151	0.0166740
665.229	0.0167394
665.308	0.0166629
665.386	0.0167081
665.464	0.0166982
665.542	0.0165885
665.620	0.0167439
665.698	0.0166490
665.776	0.0166238
665.854	0.0165974
665.933	0.0166319
666.011	0.0166826
666.089	0.0165758
666.167	0.0166069
666.245	0.0167323
666.323	0.0166798
666.401	0.0166884
666.479	0.0165502
666.558	0.0165408
666.636	0.0165731
666.714	0.0166913
666.792	0.0167020
666.870	0.0168055
666.948	0.0166927
667.026	0.0166384
667.104	0.0167519
667.183	0.0166620
667.261	0.0167139
667.339	0.0166184
667.417	0.0165632
667.495	0.0166510
667.573	0.0166987
667.651	0.0166238
667.729	0.0166497
667.808	0.0166866
667.886	0.0166767
667.964	0.0165835
668.042	0.0166514
668.120	0.0166553
668.198	0.0166084
668.276	0.0166636
668.354	0.0166705
668.433	0.0166952
668.511	0.0167000
668.589	0.0167661
668.667	0.0166670
668.745	0.0166737
668.823	0.0165872
668.901	0.0167997
668.979	0.0166685
669.058	0.0166520
669.136	0.0168108
669.214	0.0166702
669.292	0.0166701
669.370	0.0166361
669.448	0.0166615
669.526	0.0167519
669.604	0.0166291
669.683	0.0165742
669.761	0.0166287
669.839	0.0166369
669.917	0.0166383
669.995	0.0166989
670.073	0.0167768
670.151	0.0167186
670.229	0.0168069
670.308	0.0166473
670.386	0.0166647
670.464	0.0166505
670.542	0.0166661
670.620	0.0167487
670.698	0.0166677
670.776	0.0166888
670.854	0.0166665
670.933	0.0167094
671.011	0.0165527
671.089	0.0166498
671.167	0.0167842
671.245	0.0165786
671.323	0.0165514
671.401	0.0166809
671.479	0.0167067
671.558	0.0166592
671.636	0.0166498
671.714	0.0167523
671.792	0.0167284
671.870	0.0167033
671.948	0.0167062
672.026	0.0166973
672.104	0.0166162
672.183	0.0167419
672.261	0.0167358
672.339	0.0166164
672.417	0.0166055
672.495	0.0167177
672.573	0.0168079
672.651	0.0166536
672.729	0.0165746
672.808	0.0165752
672.886	0.0166783
672.964	0.0167754
673.042	0.0166809
673.120	0.0166980
673.198	0.0167326
673.276	0.0166406
673.354	0.0167178
673.433	0.0166085
673.511	0.0166154
673.589	0.0166476
673.667	0.0165440
673.745	0.0165575
673.823	0.0166493
673.901	0.0167572
673.979	0.0166829
674.058	0.0166084
674.136	0.0166328
674.214	0.0168016
674.292	0.0166274
674.370	0.0166677
674.448	0.0167545
674.526	0.0165833
674.604	0.0164905
674.683	0.0166108
674.761	0.0166500
674.839	0.0167697
674.917	0.0167665
674.995	0.0166054
675.073	0.0166327
675.151	0.0165785
675.229	0.0165301
675.308	0.0167205
675.386	0.0166370
675.464	0.0166235
675.542	0.0166103
675.620	0.0167370
675.698	0.0166496
675.776	0.0167202
675.854	0.0167055
675.933	0.0165842
676.011	0.0166970
676.089	0.0165295
676.167	0.0167062
676.245	0.0167751
676.323	0.0166389
676.401	0.0164754
676.479	0.0165698
676.558	0.0166082
676.636	0.0166857
676.714	0.0165734
676.792	0.0166326
676.870	0.0167688
676.948	0.0166097
677.026	0.0165903
677.104	0.0166380
677.183	0.0165858
677.261	0.0166695
677.339	0.0166661
677.417	0.0166782
677.495	0.0167175
677.573	0.0166138
677.651	0.0167587
677.729	0.0167468
677.808	0.0167486
677.886	0.0165875
677.964	0.0166968
678.042	0.0167390
678.120	0.0166858
678.198	0.0166373
678.276	0.0167606
678.354	0.0165867
678.433	0.0166152
678.511	0.0166719
678.589	0.0166888
678.667	0.0166402
678.745	0.0167384
678.823	0.0167075
678.901	0.0167609
678.979	0.0165775
679.058	0.0165804
679.136	0.0165923
679.214	0.0166292
679.292	0.0166193
679.370	0.0166783
679.448	0.0165891
679.526	0.0166467
679.604	0.0166763
679.683	0.0167672
679.761	0.0167040
679.839	0.0165303
679.917	0.0167722
679.995	0.0166877
680.073	0.0165493
680.151	0.0166785
680.229	0.0167413
680.308	0.0168031
680.386	0.0167435
680.464	0.0167812
680.542	0.0167551
680.620	0.0166563
680.698	0.0166604
680.776	0.0167319
680.854	0.0165845
680.933	0.0166829
681.011	0.0167329
681.089	0.0165778
681.167	0.0164889
681.245	0.0165379
681.323	0.0168186
681.401	0.0167268
681.479	0.0166032
681.558	0.0167088
681.636	0.0166728
681.714	0.0166663
681.792	0.0167707
681.870	0.0166665
681.948	0.0165965
682.026	0.0167323
682.104	0.0167736
682.183	0.0166093
682.261	0.0166369
682.339	0.0167667
682.417	0.0165836
682.495	0.0166936
682.573	0.0165826
682.651	0.0166209
682.729	0.0167328
682.808	0.0166484
682.886	0.0167021
682.964	0.0166247
683.042	0.0165763
683.120	0.0167574
683.198	0.0165916
683.276	0.0166860
683.354	0.0166516
683.433	0.0166588
683.511	0.0165698
683.589	0.0165463
683.667	0.0166783
683.745	0.0166393
683.823	0.0167327
683.901	0.0166799
683.979	0.0167067
684.058	0.0165293
684.136	0.0167422
684.214	0.0167089
684.292	0.0166190
684.370	0.0166882
684.448	0.0167337
684.526	0.0166261
684.604	0.0168166
684.683	0.0168089
684.761	0.0166367
684.839	0.0166513
684.917	0.0167378
684.995	0.0166605
685.073	0.0167368
685.151	0.0167850
685.229	0.0168664
685.308	0.0167273
685.386	0.0166380
685.464	0.0165611
685.542	0.0167373
685.620	0.0166673
685.698	0.0166882
685.776	0.0167293
685.854	0.0166290
685.933	0.0166858
686.011	0.0167890
686.089	0.0168192
686.167	0.0166637
686.245	0.0167050
686.323	0.0165008
686.401	0.0167355
686.479	0.0167738
686.558	0.0166961
686.636	0.0166367
686.714	0.0166851
686.792	0.0167940
686.870	0.0167659
686.948	0.0166506
687.026	0.0166525
687.104	0.0167297
687.183	0.0168066
687.261	0.0166773
687.339	0.0166455
687.417	0.0167256
687.495	0.0166003
687.573	0.0165826
687.651	0.0167928
687.729	0.0166798
687.808	0.0166905
687.886	0.0166094
687.964	0.0167564
688.042	0.0167699
688.120	0.0166447
688.198	0.0166494
688.276	0.0166219
688.354	0.0166544
688.433	0.0168025
688.511	0.0167067
688.589	0.0165893
688.667	0.0168706
688.745	0.0168122
688.823	0.0166332
688.901	0.0166535
688.979	0.0166612
689.058	0.0167902
689.136	0.0165842
689.214	0.0166952
689.292	0.0168809
689.370	0.0165746
689.448	0.0166418
689.526	0.0167159
689.604	0.0166974
689.683	0.0165778
689.761	0.0166770
689.839	0.0165878
689.917	0.0166919
689.995	0.0167879
690.073	0.0166294
690.151	0.0165566
690.229	0.0167011
690.308	0.0166853
690.386	0.0168233
690.464	0.0166245
690.542	0.0165937
690.620	0.0165844
690.698	0.0166389
690.776	0.0166225
690.854	0.0165924
690.933	0.0167266
691.011	0.0166482
691.089	0.0167101
691.167	0.0165845
691.245	0.0166167
691.323	0.0167334
691.401	0.0167323
691.479	0.0167403
691.558	0.0166984
691.636	0.0167030
691.714	0.0167428
691.792	0.0166325
691.870	0.0167601
691.948	0.0167451
692.026	0.0166576
692.104	0.0166879
692.183	0.0166504
692.261	0.0166043
692.339	0.0165609
692.417	0.0168236
692.495	0.0167171
692.573	0.0165939
692.651	0.0167113
692.729	0.0166637
692.808	0.0167247
692.886	0.0166526
692.964	0.0165961
693.042	0.0166956
693.120	0.0166588
693.198	0.0166537
693.276	0.0167793
693.354	0.0167006
693.433	0.0167709
693.511	0.0165834
693.589	0.0165772
693.667	0.0166390
693.745	0.0167284
693.823	0.0166514
693.901	0.0167123
693.979	0.0166202
694.058	0.0166705
694.136	0.0166840
694.214	0.0165640
694.292	0.0167181
694.370	0.0167019
694.448	0.0166264
694.526	0.0167554
694.604	0.0168238
694.683	0.0166682
694.761	0.0166970
694.839	0.0166351
694.917	0.0166853
694.995	0.0165825
695.073	0.0166772
695.151	0.0167388
695.229	0.0167123
695.308	0.0166095
695.386	0.0167648
695.464	0.0166819
695.542	0.0166360
695.620	0.0167448
695.698	0.0165632
695.776	0.0166085
695.854	0.0165812
695.933	0.0166716
696.011	0.0166776
696.089	0.0166290
696.167	0.0165665
696.245	0.0165822
696.323	0.0165916
696.401	0.0167508
696.479	0.0167330
696.558	0.0166436
696.636	0.0167379
696.714	0.0166223
696.792	0.0167313
696.870	0.0166093
696.948	0.0166537
697.026	0.0166419
697.104	0.0166875
697.183	0.0167358
697.261	0.0167106
697.339	0.0166883
697.417	0.0167911
697.495	0.0166224
697.573	0.0166773
697.651	0.0166713
697.729	0.0166828
697.808	0.0166914
697.886	0.0167029
697.964	0.0167175
698.042	0.0166633
698.120	0.0165369
698.198	0.0166602
698.276	0.0167134
698.354	0.0164568
698.433	0.0166442
698.511	0.0167087
698.589	0.0166085
698.667	0.0166225
698.745	0.0166711
698.823	0.0166493
698.901	0.0165506
698.979	0.0166287
699.058	0.0165560
699.136	0.0166748
699.214	0.0165298
699.292	0.0166042
699.370	0.0166805
699.448	0.0167679
699.526	0.0164736
699.604	0.0166289
699.683	0.0166458
699.761	0.0166990
699.839	0.0166329
699.917	0.0168156
699.995	0.0165372
700.073	0.0166270
700.151	0.0165095
700.229	0.0166630
700.308	0.0167197
700.386	0.0166988
700.464	0.0167233
700.542	0.0166370
700.620	0.0166249
700.698	0.0166624
700.776	0.0167822
700.854	0.0165908
700.933	0.0165241
701.011	0.0166557
701.089	0.0165955
701.167	0.0165800
701.245	0.0166894
701.323	0.0165643
701.401	0.0167074
701.479	0.0166206
701.558	0.0166137
701.636	0.0166201
701.714	0.0166476
701.792	0.0166031
701.870	0.0165894
701.948	0.0167544
702.026	0.0166861
702.104	0.0165572
702.183	0.0168410
702.261	0.0167936
702.339	0.0165713
702.417	0.0166013
702.495	0.0165982
702.573	0.0167168
702.651	0.0165867
702.729	0.0167424
702.808	0.0166624
702.886	0.0166584
702.964	0.0166209
703.042	0.0167249
703.120	0.0166737
703.198	0.0165744
703.276	0.0166338
703.354	0.0166090
703.433	0.0165836
703.511	0.0166595
703.589	0.0166664
703.667	0.0166795
703.745	0.0165749
703.823	0.0166811
703.901	0.0165342
703.979	0.0166090
704.058	0.0167560
704.136	0.0166985
704.214	0.0166706
704.292	0.0166098
704.370	0.0166655
704.448	0.0166501
704.526	0.0166676
704.604	0.0167751
704.683	0.0167319
704.761	0.0166789
704.839	0.0166354
704.917	0.0166219
704.995	0.0166753
705.073	0.0165598
705.151	0.0166040
705.229	0.0165556
705.308	0.0166611
705.386	0.0167615
705.464	0.0167492
705.542	0.0168020
705.620	0.0167603
705.698	0.0166630
705.776	0.0166578
705.854	0.0166148
705.933	0.0166919
706.011	0.0164216
706.089	0.0165805
706.167	0.0167105
706.245	0.0166570
706.323	0.0166724
706.401	0.0167127
706.479	0.0168228
706.558	0.0166686
706.636	0.0166649
706.714	0.0165975
706.792	0.0167545
706.870	0.0166534
706.948	0.0166481
707.026	0.0166478
707.104	0.0168829
707.183	0.0167204
707.261	0.0165683
707.339	0.0167103
707.417	0.0166849
707.495	0.0165912
707.573	0.0166814
707.651	0.0166805
707.729	0.0164980
707.808	0.0166727
707.886	0.0167339
707.964	0.0166727
708.042	0.0165738
708.120	0.0166224
708.198	0.0165795
708.276	0.0166908
708.354	0.0164684
708.433	0.0165139
708.511	0.0165607
708.589	0.0166195
708.667	0.0165664
708.745	0.0164433
708.823	0.0166496
708.901	0.0166778
708.979	0.0166830
709.058	0.0166563
709.136	0.0166486
709.214	0.0167315
709.292	0.0166483
709.370	0.0166042
709.448	0.0166077
709.526	0.0165813
709.604	0.0165205
709.683	0.0166247
709.761	0.0166086
709.839	0.0166449
709.917	0.0165332
709.995	0.0166137
710.073	0.0165853
710.151	0.0165181
710.229	0.0167769
710.308	0.0167389
710.386	0.0166130
710.464	0.0166321
710.542	0.0167152
710.620	0.0166013
710.698	0.0166683
710.776	0.0166975
710.854	0.0167464
710.933	0.0164946
711.011	0.0165458
711.089	0.0166106
711.167	0.0166156
711.245	0.0166663
711.323	0.0165819
711.401	0.0167233
711.479	0.0165586
711.558	0.0166940
711.636	0.0166373
711.714	0.0165390
711.792	0.0164522
711.870	0.0165416
711.948	0.0166646
712.026	0.0166739
712.104	0.0166017
712.183	0.0167187
712.261	0.0166751
712.339	0.0165600
712.417	0.0165849
712.495	0.0165214
712.573	0.0166234
712.651	0.0166041
712.729	0.0164781
712.808	0.0165998
712.886	0.0166436
712.964	0.0165411
713.042	0.0165274
713.120	0.0165966
713.198	0.0165941
713.276	0.0165631
713.354	0.0166401
713.433	0.0166312
713.511	0.0167227
713.589	0.0166222
713.667	0.0165872
713.745	0.0166224
713.823	0.0164751
713.901	0.0167989
713.979	0.0167361
714.058	0.0165102
714.136	0.0166523
714.214	0.0165134
714.292	0.0166416
714.370	0.0166520
714.448	0.0165092
714.526	0.0165154
714.604	0.0166179
714.683	0.0167482
714.761	0.0166621
714.839	0.0165681
714.917	0.0165874
714.995	0.0165785
715.073	0.0166171
715.151	0.0166433
715.229	0.0166005
715.308	0.0166194
715.386	0.0166699
715.464	0.0166949
715.542	0.0166850
715.620	0.0168510
715.698	0.0165749
715.776	0.0166544
715.854	0.0166956
715.933	0.0166013
716.011	0.0167487
716.089	0.0166512
716.167	0.0166767
716.245	0.0165359
716.323	0.0165970
716.401	0.0168409
716.479	0.0166766
716.558	0.0167535
716.636	0.0166082
716.714	0.0165962
716.792	0.0166839
716.870	0.0167468
716.948	0.0167727
717.026	0.0166447
717.104	0.0167567
717.183	0.0165698
717.261	0.0166405
717.339	0.0167005
717.417	0.0167714
717.495	0.0167422
717.573	0.0166253
717.651	0.0164900
717.729	0.0166708
717.808	0.0166841
717.886	0.0167597
717.964	0.0166438
718.042	0.0166263
718.120	0.0165385
718.198	0.0165677
718.276	0.0167126
718.354	0.0167762
718.433	0.0167873
718.511	0.0165880
718.589	0.0165279
718.667	0.0165140
718.745	0.0165906
718.823	0.0167277
718.901	0.0165432
718.979	0.0166305
719.058	0.0167305
719.136	0.0167035
719.214	0.0166985
719.292	0.0166426
719.370	0.0166868
719.448	0.0166815
719.526	0.0166493
719.604	0.0166739
719.683	0.0165948
719.761	0.0167112
719.839	0.0165808
719.917	0.0166351
719.995	0.0166702
720.073	0.0166759
720.151	0.0167122
720.229	0.0165953
720.308	0.0165252
720.386	0.0166849
720.464	0.0165027
720.542	0.0165807
720.620	0.0166936
720.698	0.0167055
720.776	0.0165651
720.854	0.0166579
720.933	0.0165109
721.011	0.0166830
721.089	0.0167654
721.167	0.0166148
721.245	0.0165649
721.323	0.0166772
721.401	0.0166637
721.479	0.0166362
721.558	0.0167148
721.636	0.0167286
721.714	0.0166718
721.792	0.0166451
721.870	0.0166530
721.948	0.0166821
722.026	0.0166199
722.104	0.0168193
722.183	0.0167754
722.261	0.0167008
722.339	0.0165457
722.417	0.0165934
722.495	0.0166886
722.573	0.0167043
722.651	0.0166422
722.729	0.0166547
722.808	0.0166466
722.886	0.0167300
722.964	0.0164845
723.042	0.0166708
723.120	0.0167351
723.198	0.0166039
723.276	0.0167560
723.354	0.0165144
723.433	0.0165957
723.511	0.0165724
723.589	0.0165152
723.667	0.0164186
723.745	0.0167544
723.823	0.0167925
723.901	0.0166238
723.979	0.0166375
724.058	0.0167186
724.136	0.0165794
724.214	0.0165865
724.292	0.0167342
724.370	0.0164893
724.448	0.0166710
724.526	0.0166376
724.604	0.0166361
724.683	0.0166048
724.761	0.0167222
724.839	0.0166312
724.917	0.0165594
724.995	0.0165555
725.073	0.0165574
725.151	0.0167780
725.229	0.0166566
725.308	0.0166516
725.386	0.0165850
725.464	0.0166608
725.542	0.0166298
725.620	0.0167126
725.698	0.0167390
725.776	0.0166533
725.854	0.0166201
725.933	0.0166361
726.011	0.0166323
726.089	0.0166097
726.167	0.0166150
726.245	0.0166427
726.323	0.0167542
726.401	0.0166347
726.479	0.0166190
726.558	0.0166726
726.636	0.0165149
726.714	0.0165779
726.792	0.0165443
726.870	0.0166729
726.948	0.0166515
727.026	0.0166213
727.104	0.0165693
727.183	0.0167497
727.261	0.0166278
727.339	0.0166191
727.417	0.0166319
727.495	0.0166853
727.573	0.0166936
727.651	0.0165369
727.729	0.0165228
727.808	0.0165985
727.886	0.0165231
727.964	0.0167640
728.042	0.0168208
728.120	0.0166434
728.198	0.0166134
728.276	0.0166257
728.354	0.0166969
728.433	0.0166342
728.511	0.0165370
728.589	0.0167336
728.667	0.0164832
728.745	0.0164790
728.823	0.0166673
728.901	0.0166998
728.979	0.0165455
729.058	0.0166397
729.136	0.0167330
729.214	0.0165978
729.292	0.0166294
729.370	0.0166202
729.448	0.0166156
729.526	0.0165698
729.604	0.0165840
729.683	0.0164629
729.761	0.0165083
729.839	0.0166366
729.917	0.0164665
729.995	0.0164974
730.073	0.0165903
730.151	0.0166982
730.229	0.0165295
730.308	0.0165414
730.386	0.0166400
730.464	0.0166161
730.542	0.0165375
730.620	0.0166100
730.698	0.0167377
730.776	0.0166389
730.854	0.0165761
730.933	0.0164134
731.011	0.0165319
731.089	0.0166578
731.167	0.0165339
731.245	0.0165961
731.323	0.0165900
731.401	0.0165562
731.479	0.0166056
731.558	0.0166338
731.636	0.0166335
731.714	0.0166196
731.792	0.0166950
731.870	0.0165249
731.948	0.0165941
732.026	0.0165802
732.104	0.0166441
732.183	0.0166240
732.261	0.0166761
732.339	0.0165315
732.417	0.0166547
732.495	0.0166606
732.573	0.0165769
732.651	0.0166823
732.729	0.0165816
732.808	0.0166333
732.886	0.0165107
732.964	0.0165620
733.042	0.0166161
733.120	0.0165611
733.198	0.0166658
733.276	0.0166150
733.354	0.0166734
733.433	0.0165900
733.511	0.0165872
733.589	0.0166302
733.667	0.0165974
733.745	0.0166389
733.823	0.0166068
733.901	0.0165526
733.979	0.0166426
734.058	0.0165991
734.136	0.0165592
734.214	0.0166786
734.292	0.0165879
734.370	0.0164796
734.448	0.0165522
734.526	0.0167148
734.604	0.0166787
734.683	0.0166410
734.761	0.0166108
734.839	0.0165840
734.917	0.0165565
734.995	0.0166391
735.073	0.0166232
735.151	0.0165320
735.229	0.0165208
735.308	0.0165112
735.386	0.0165784
735.464	0.0165261
735.542	0.0166978
735.620	0.0165452
735.698	0.0165004
735.776	0.0164880
735.854	0.0164751
735.933	0.0166335
736.011	0.0166824
736.089	0.0165981
736.167	0.0166075
736.245	0.0166602
736.323	0.0164718
736.401	0.0165921
736.479	0.0166622
736.558	0.0166080
736.636	0.0166637
736.714	0.0166091
736.792	0.0165468
736.870	0.0166340
736.948	0.0167350
737.026	0.0167001
737.104	0.0165829
737.183	0.0165647
737.261	0.0167207
737.339	0.0166044
737.417	0.0167282
737.495	0.0166013
737.573	0.0166458
737.651	0.0166415
737.729	0.0167024
737.808	0.0167033
737.886	0.0166503
737.964	0.0166113
738.042	0.0166692
738.120	0.0167590
738.198	0.0166340
738.276	0.0165116
738.354	0.0167667
738.433	0.0165314
738.511	0.0165696
738.589	0.0165653
738.667	0.0164278
738.745	0.0165511
738.823	0.0165154
738.901	0.0163377
738.979	0.0162017
739.058	0.0161384
739.136	0.0162168
739.214	0.0164006
739.292	0.0164020
739.370	0.0165236
739.448	0.0166782
739.526	0.0167714
739.604	0.0169876
739.683	0.0171571
739.761	0.0172700
739.839	0.0173476
739.917	0.0174397
739.995	0.0174275
740.073	0.0173183
740.151	0.0173396
740.229	0.0172796
740.308	0.0169402
740.386	0.0168353
740.464	0.0166573
740.542	0.0163506
740.620	0.0160571
740.698	0.0159063
740.776	0.0155621
740.854	0.0152868
740.933	0.0152511
741.011	0.0150941
741.089	0.0152458
741.167	0.0152878
741.245	0.0155064
741.323	0.0159129
741.401	0.0164352
741.479	0.0170779
741.558	0.0176508
741.636	0.0182977
741.714	0.0189334
741.792	0.0189970
741.870	0.0190256
741.948	0.0187309
742.026	0.0183739
742.104	0.0179496
742.183	0.0174379
742.261	0.0166753
742.339	0.0162018
742.417	0.0158728
742.495	0.0157536
742.573	0.0155952
742.651	0.0155012
742.729	0.0156949
742.808	0.0155902
742.886	0.0158361
742.964	0.0160756
743.042	0.0160405
743.120	0.0159858
743.198	0.0159174
743.276	0.0157329
743.354	0.0156557
743.433	0.0154557
743.511	0.0153733
743.589	0.0154804
743.667	0.0157516
743.745	0.0161558
743.823	0.0167487
743.901	0.0176489
743.979	0.0181026
744.058	0.0187087
744.136	0.0191564
744.214	0.0192115
744.292	0.0191362
744.370	0.0188000
744.448	0.0183530
744.526	0.0178661
744.604	0.0172349
744.683	0.0168394
744.761	0.0164487
744.839	0.0160976
744.917	0.0157237
744.995	0.0155260
745.073	0.0153128
745.151	0.0150686
745.229	0.0148888
745.308	0.0149068
745.386	0.0147678
745.464	0.0148898
745.542	0.0150269
745.620	0.0151031
745.698	0.0153622
745.776	0.0157206
745.854	0.0159457
745.933	0.0164351
746.011	0.0168291
746.089	0.0172959
746.167	0.0177528
746.245	0.0181138
746.323	0.0185591
746.401	0.0187090
746.479	0.0189793
746.558	0.0190007
746.636	0.0190417
746.714	0.0188705
746.792	0.0186221
746.870	0.0181879
746.948	0.0172927
747.026	0.0167170
747.104	0.0159734
747.183	0.0152315
747.261	0.0149075
747.339	0.0145970
747.417	0.0145910
747.495	0.0145785
747.573	0.0148782
747.651	0.0150709
747.729	0.0152422
747.808	0.0155353
747.886	0.0159521
747.964	0.0163035
748.042	0.0164169
748.120	0.0166585
748.198	0.0167786
748.276	0.0170428
748.354	0.0168012
748.433	0.0169937
748.511	0.0171061
748.589	0.0170879
748.667	0.0170931
748.745	0.0171394
748.823	0.0172476
748.901	0.0174558
748.979	0.0177036
749.058	0.0174806
749.136	0.0174585
749.214	0.0175462
749.292	0.0175708
749.370	0.0174006
749.448	0.0172198
749.526	0.0170971
749.604	0.0166928
749.683	0.0166172
749.761	0.0165313
749.839	0.0162165
749.917	0.0159677
749.995	0.0156985
750.073	0.0157862
750.151	0.0157904
750.229	0.0156567
750.308	0.0156890
750.386	0.0159085
750.464	0.0157339
750.542	0.0158302
750.620	0.0164021
750.698	0.0163603
750.776	0.0163639
750.854	0.0164111
750.933	0.0166644
751.011	0.0166598
751.089	0.0167739
751.167	0.0169558
751.245	0.0169919
751.323	0.0170258
751.401	0.0170263
751.479	0.0170982
751.558	0.0171534
751.636	0.0169051
751.714	0.0169090
751.792	0.0170723
751.870	0.0169205
751.948	0.0169061
752.026	0.0169529
752.104	0.0169563
752.183	0.0170885
752.261	0.0169550
752.339	0.0171185
752.417	0.0169237
752.495	0.0168452
752.573	0.0169227
752.651	0.0166542
752.729	0.0165977
752.808	0.0164487
752.886	0.0162404
752.964	0.0161373
753.042	0.0158980
753.120	0.0159117
753.198	0.0158008
753.276	0.0156419
753.354	0.0157917
753.433	0.0158952
753.511	0.0158076
753.589	0.0159654
753.667	0.0159998
753.745	0.0160945
753.823	0.0162038
753.901	0.0162569
753.979	0.0163737
754.058	0.0167312
754.136	0.0169054
754.214	0.0171579
754.292	0.0173129
754.370	0.0174906
754.448	0.0175518
754.526	0.0177236
754.604	0.0176614
754.683	0.0175843
754.761	0.0175261
754.839	0.0173338
754.917	0.0172739
754.995	0.0171191
755.073	0.0168624
755.151	0.0166770
755.229	0.0165492
755.308	0.0164248
755.386	0.0161012
755.464	0.0160748
755.542	0.0159435
755.620	0.0158400
755.698	0.0157827
755.776	0.0157144
755.854	0.0158250
755.933	0.0157307
756.011	0.0158418
756.089	0.0158690
756.167	0.0158564
756.245	0.0162151
756.323	0.0162001
756.401	0.0163186
756.479	0.0166562
756.558	0.0167788
756.636	0.0168929
756.714	0.0168330
756.792	0.0168148
756.870	0.0170876
756.948	0.0169521
757.026	0.0170493
757.104	0.0171790
757.183	0.0169912
757.261	0.0171713
757.339	0.0172420
757.417	0.0171793
757.495	0.0172314
757.573	0.0172224
757.651	0.0172200
757.729	0.0172421
757.808	0.0171706
757.886	0.0171704
757.964	0.0169423
758.042	0.0168146
758.120	0.0168360
758.198	0.0166138
758.276	0.0166656
758.354	0.0164532
758.433	0.0163380
758.511	0.0161595
758.589	0.0160730
758.667	0.0160642
758.745	0.0158996
758.823	0.0157610
758.901	0.0157093
758.979	0.0157953
759.058	0.0158923
759.136	0.0159685
759.214	0.0161720
759.292	0.0161936
759.370	0.0162629
759.448	0.0163514
759.526	0.0163797
759.604	0.0166439
759.683	0.0166089
759.761	0.0166467
759.839	0.0166435
759.917	0.0167804
759.995	0.0167408
760.073	0.0166375
760.151	0.0166881
760.229	0.0168784
760.308	0.0169607
760.386	0.0171234
760.464	0.0170892
760.542	0.0173338
760.620	0.0175146
760.698	0.0178170
760.776	0.0178967
760.854	0.0178954
760.933	0.0177873
761.011	0.0178128
761.089	0.0176556
761.167	0.0174245
761.245	0.0172810
761.323	0.0171275
761.401	0.0168594
761.479	0.0166395
761.558	0.0164571
761.636	0.0162087
761.714	0.0158808
761.792	0.0158266
761.870	0.0155587
761.948	0.0153690
762.026	0.0152358
762.104	0.0151376
762.183	0.0150359
762.261	0.0150763
762.339	0.0150987
762.417	0.0152177
762.495	0.0152901
762.573	0.0153754
762.651	0.0155860
762.729	0.0156996
762.808	0.0159048
762.886	0.0160892
762.964	0.0161856
763.042	0.0161539
763.120	0.0163509
763.198	0.0168360
763.276	0.0171334
763.354	0.0173077
763.433	0.0176979
763.511	0.0178363
763.589	0.0180558
763.667	0.0183214
763.745	0.0185081
763.823	0.0186751
763.901	0.0186258
763.979	0.0184993
764.058	0.0183501
764.136	0.0183311
764.214	0.0183996
764.292	0.0181098
764.370	0.0178975
764.448	0.0176923
764.526	0.0174858
764.604	0.0174306
764.683	0.0170066
764.761	0.0168211
764.839	0.0166177
764.917	0.0162295
764.995	0.0160561
765.073	0.0157423
765.151	0.0155189
765.229	0.0151502
765.308	0.0150834
765.386	0.0149324
765.464	0.0148660
765.542	0.0147910
765.620	0.0148322
765.698	0.0146909
765.776	0.0148624
765.854	0.0150208
765.933	0.0151886
766.011	0.0152267
766.089	0.0156758
766.167	0.0155912
766.245	0.0156888
766.323	0.0160073
766.401	0.0162253
766.479	0.0160552
766.558	0.0163544
766.636	0.0164266
766.714	0.0165729
766.792	0.0166078
766.870	0.0166280
766.948	0.0169365
767.026	0.0169950
767.104	0.0171063
767.183	0.0175464
767.261	0.0176849
767.339	0.0178481
767.417	0.0182887
767.495	0.0186780
767.573	0.0187478
767.651	0.0191265
767.729	0.0192541
767.808	0.0192863
767.886	0.0192051
767.964	0.0188956
768.042	0.0187604
768.120	0.0184872
768.198	0.0178840
768.276	0.0176476
768.354	0.0172202
768.433	0.0166560
768.511	0.0162105
768.589	0.0157880
768.667	0.0155376
768.745	0.0151505
768.823	0.0148651
768.901	0.0146741
768.979	0.0146587
769.058	0.0147887
769.136	0.0149962
769.214	0.0151199
769.292	0.0153133
769.370	0.0157212
769.448	0.0161113
769.526	0.0162555
769.604	0.0165562
769.683	0.0167857
769.761	0.0168483
769.839	0.0169584
769.917	0.0169836
769.995	0.0170083
770.073	0.0167894
770.151	0.0164951
770.229	0.0161276
770.308	0.0160282
770.386	0.0158201
770.464	0.0154577
770.542	0.0152242
770.620	0.0150942
770.698	0.0150576
770.776	0.0148580
770.854	0.0149074
770.933	0.0150989
771.011	0.0152457
771.089	0.0154887
771.167	0.0158932
771.245	0.0160972
771.323	0.0165870
771.401	0.0170621
771.479	0.0171615
771.558	0.0175853
771.636	0.0180289
771.714	0.0183273
771.792	0.0186677
771.870	0.0188886
771.948	0.0191241
772.026	0.0191071
772.104	0.0193003
772.183	0.0189852
772.261	0.0187789
772.339	0.0187696
772.417	0.0183936
772.495	0.0183003
772.573	0.0180418
772.651	0.0175697
772.729	0.0172545
772.808	0.0170634
772.886	0.0168273
772.964	0.0165014
773.042	0.0161791
773.120	0.0160850
773.198	0.0157530
773.276	0.0155952
773.354	0.0155490
773.433	0.0156386
773.511	0.0158028
773.589	0.0158892
773.667	0.0159772
773.745	0.0162727
773.823	0.0165721
773.901	0.0166073
773.979	0.0167825
774.058	0.0168594
774.136	0.0168784
774.214	0.0169419
774.292	0.0168491
774.370	0.0166650
774.448	0.0165748
774.526	0.0162161
774.604	0.0160050
774.683	0.0158395
774.761	0.0154337
774.839	0.0150110
774.917	0.0149127
774.995	0.0148180
775.073	0.0145766
775.151	0.0141756
775.229	0.0141800
775.308	0.0140943
775.386	0.0138895
775.464	0.0139705
775.542	0.0139242
775.620	0.0138992
775.698	0.0140523
775.776	0.0142239
775.854	0.0146455
775.933	0.0150635
776.011	0.0154192
776.089	0.0159494
776.167	0.0166580
776.245	0.0174155
776.323	0.0181604
776.401	0.0189989
776.479	0.0198483
776.558	0.0205933
776.636	0.0212083
776.714	0.0217425
776.792	0.0222012
776.870	0.0223654
776.948	0.0225191
777.026	0.0224144
777.104	0.0222210
777.183	0.0218002
777.261	0.0212424
777.339	0.0205678
777.417	0.0198593
777.495	0.0191584
777.573	0.0182366
777.651	0.0172227
777.729	0.0164932
777.808	0.0156390
777.886	0.0150079
777.964	0.0141942
778.042	0.0136704
778.120	0.0132292
778.198	0.0128024
778.276	0.0127423
778.354	0.0126777
778.433	0.0127900
778.511	0.0127913
778.589	0.0131039
778.667	0.0133827
778.745	0.0135849
778.823	0.0140863
778.901	0.0142057
778.979	0.0144840
779.058	0.0147272
779.136	0.0149821
779.214	0.0152236
779.292	0.0152794
779.370	0.0155007
779.448	0.0156983
779.526	0.0158035
779.604	0.0159975
779.683	0.0163262
779.761	0.0165341
779.839	0.0165414
779.917	0.0164891
779.995	0.0166873
780.073	0.0168033
780.151	0.0165393
780.229	0.0165217
780.308	0.0164563
780.386	0.0162505
780.464	0.0160635
780.542	0.0160390
780.620	0.0159818
780.698	0.0159313
780.776	0.0162616
780.854	0.0166832
780.933	0.0167784
781.011	0.0172852
781.089	0.0178786
781.167	0.0185532
781.245	0.0191521
781.323	0.0198537
781.401	0.0205896
781.479	0.0213044
781.558	0.0216399
781.636	0.0220103
781.714	0.0221953
781.792	0.0223283
781.870	0.0219679
781.948	0.0217706
782.026	0.0209756
782.104	0.0203282
782.183	0.0196201
782.261	0.0187160
782.339	0.0176391
782.417	0.0167076
782.495	0.0156216
782.573	0.0148361
782.651	0.0137783
782.729	0.0130945
782.808	0.0124017
782.886	0.0120090
782.964	0.0117216
783.042	0.0115081
783.120	0.0115243
783.198	0.0118201
783.276	0.0122176
783.354	0.0126432
783.433	0.0131205
783.511	0.0136995
783.589	0.0141337
783.667	0.0148411
783.745	0.0153420
783.823	0.0157966
783.901	0.0162520
783.979	0.0167148
784.058	0.0168642
784.136	0.0170028
784.214	0.0171034
784.292	0.0171587
784.370	0.0171194
784.448	0.0170808
784.526	0.0169871
784.604	0.0167850
784.683	0.0165981
784.761	0.0164908
784.839	0.0162823
784.917	0.0160598
784.995	0.0158907
785.073	0.0156793
785.151	0.0155402
785.229	0.0155601
785.308	0.0153851
785.386	0.0153184
785.464	0.0156755
785.542	0.0156681
785.620	0.0158115
785.698	0.0162260
785.776	0.0167585
785.854	0.0172778
785.933	0.0178039
786.011	0.0183734
786.089	0.0192225
786.167	0.0199691
786.245	0.0205643
786.323	0.0210766
786.401	0.0216986
786.479	0.0223200
786.558	0.0225650
786.636	0.0229048
786.714	0.0225908
786.792	0.0225462
786.870	0.0222862
786.948	0.0216811
787.026	0.0210818
787.104	0.0202320
787.183	0.0192900
787.261	0.0182265
787.339	0.0172469
787.417	0.0160350
787.495	0.0149481
787.573	0.0138413
787.651	0.0128908
787.729	0.0120734
787.808	0.0113996
787.886	0.0109502
787.964	0.0106654
788.042	0.0105506
788.120	0.0106267
788.198	0.0109878
788.276	0.0112646
788.354	0.0117850
788.433	0.0124628
788.511	0.0129651
788.589	0.0136169
788.667	0.0142587
788.745	0.0149323
788.823	0.0155267
788.901	0.0162018
788.979	0.0164630
789.058	0.0166797
789.136	0.0171217
789.214	0.0174947
789.292	0.0173504
789.370	0.0173210
789.448	0.0172752
789.526	0.0170625
789.604	0.0169191
789.683	0.0167931
789.761	0.0166320
789.839	0.0164430
789.917	0.0163306
789.995	0.0163140
790.073	0.0162759
790.151	0.0164449
790.229	0.0165245
790.308	0.0166655
790.386	0.0169514
790.464	0.0171404
790.542	0.0174751
790.620	0.0179167
790.698	0.0182532
790.776	0.0186180
790.854	0.0190088
790.933	0.0193833
791.011	0.0197308
791.089	0.0199245
791.167	0.0202790
791.245	0.0206660
791.323	0.0207066
791.401	0.0207178
791.479	0.0207423
791.558	0.0205979
791.636	0.0203220
791.714	0.0201066
791.792	0.0197522
791.870	0.0194331
791.948	0.0188654
792.026	0.0181525
792.104	0.0175259
792.183	0.0167581
792.261	0.0160442
792.339	0.0154915
792.417	0.0147021
792.495	0.0141351
792.573	0.0137620
792.651	0.0131751
792.729	0.0128234
792.808	0.0127473
792.886	0.0125407
792.964	0.0124116
793.042	0.0125761
793.120	0.0128128
793.198	0.0129816
793.276	0.0133347
793.354	0.0137544
793.433	0.0142732
793.511	0.0146805
793.589	0.0150127
793.667	0.0156495
793.745	0.0162009
793.823	0.0166162
793.901	0.0169936
793.979	0.0172381
794.058	0.0175632
794.136	0.0177030
794.214	0.0176952
794.292	0.0176544
794.370	0.0174398
794.448	0.0174469
794.526	0.0170898
794.604	0.0169416
794.683	0.0165994
794.761	0.0163789
794.839	0.0160773
794.917	0.0158132
794.995	0.0156313
795.073	0.0153509
795.151	0.0154156
795.229	0.0152448
795.308	0.0153780
795.386	0.0156232
795.464	0.0160284
795.542	0.0162185
795.620	0.0166961
795.698	0.0171211
795.776	0.0176144
795.854	0.0183245
795.933	0.0186094
796.011	0.0191393
796.089	0.0195566
796.167	0.0198663
796.245	0.0201967
796.323	0.0203156
796.401	0.0204077
796.479	0.0204517
796.558	0.0202962
796.636	0.0202367
796.714	0.0196714
796.792	0.0194731
796.870	0.0189478
796.948	0.0183984
797.026	0.0178297
797.104	0.0172444
797.183	0.0168784
797.261	0.0162384
797.339	0.0157767
797.417	0.0154127
797.495	0.0149598
797.573	0.0146725
797.651	0.0145355
797.729	0.0144437
797.808	0.0143728
797.886	0.0143155
797.964	0.0142850
798.042	0.0145300
798.120	0.0146349
798.198	0.0148208
798.276	0.0150793
798.354	0.0152952
798.433	0.0154814
798.511	0.0156323
798.589	0.0160091
798.667	0.0161939
798.745	0.0160693
798.823	0.0163229
798.901	0.0166257
798.979	0.0167167
799.058	0.0167506
799.136	0.0166710
799.214	0.0166820
799.292	0.0166619
799.370	0.0164276
799.448	0.0163307
799.526	0.0161870
799.604	0.0159397
799.683	0.0156908
799.761	0.0155721
799.839	0.0154667
799.917	0.0152002
799.995	0.0148687
800.073	0.0148807
800.151	0.0149747
800.229	0.0147803
800.308	0.0150574
800.386	0.0150784
800.464	0.0153899
800.542	0.0157317
800.620	0.0160476
800.698	0.0165534
800.776	0.0170502
800.854	0.0175511
800.933	0.0180501
801.011	0.0185683
801.089	0.0191900
801.167	0.0193514
801.245	0.0196024
801.323	0.0199458
801.401	0.0201666
801.479	0.0202491
801.558	0.0201527
801.636	0.0200375
801.714	0.0200717
801.792	0.0196291
801.870	0.0193465
801.948	0.0187565
802.026	0.0182941
802.104	0.0179194
802.183	0.0172906
802.261	0.0166963
802.339	0.0161933
802.417	0.0156437
802.495	0.0152384
802.573	0.0149981
802.651	0.0146422
802.729	0.0147025
802.808	0.0146682
802.886	0.0144790
802.964	0.0145206
803.042	0.0147004
803.120	0.0149634
803.198	0.0151010
803.276	0.0152061
803.354	0.0154738
803.433	0.0157264
803.511	0.0160245
803.589	0.0162650
803.667	0.0164225
803.745	0.0165580
803.823	0.0166411
803.901	0.0168530
803.979	0.0168950
804.058	0.0169250
804.136	0.0169386
804.214	0.0170224
804.292	0.0170083
804.370	0.0168715
804.448	0.0168483
804.526	0.0167249
804.604	0.0166587
804.683	0.0165203
804.761	0.0163779
804.839	0.0160865
804.917	0.0158189
804.995	0.0156278
805.073	0.0154797
805.151	0.0153720
805.229	0.0153853
805.308	0.0152596
805.386	0.0150695
805.464	0.0152570
805.542	0.0152864
805.620	0.0153206
805.698	0.0154339
805.776	0.0156670
805.854	0.0158346
805.933	0.0161555
806.011	0.0163123
806.089	0.0167317
806.167	0.0170966
806.245	0.0174641
806.323	0.0176688
806.401	0.0178590
806.479	0.0182108
806.558	0.0183567
806.636	0.0185423
806.714	0.0185307
806.792	0.0185638
806.870	0.0188046
806.948	0.0186623
807.026	0.0186509
807.104	0.0187189
807.183	0.0185818
807.261	0.0183595
807.339	0.0181084
807.417	0.0179519
807.495	0.0177547
807.573	0.0173383
807.651	0.0170844
807.729	0.0169531
807.808	0.0166022
807.886	0.0163094
807.964	0.0162370
808.042	0.0160462
808.120	0.0158312
808.198	0.0157955
808.276	0.0157071
808.354	0.0157280
808.433	0.0156528
808.511	0.0158840
808.589	0.0159217
808.667	0.0161011
808.745	0.0160654
808.823	0.0162059
808.901	0.0162887
808.979	0.0164419
809.058	0.0165569
809.136	0.0164291
809.214	0.0164686
809.292	0.0165512
809.370	0.0166629
809.448	0.0165694
809.526	0.0164583
809.604	0.0163458
809.683	0.0163442
809.761	0.0164110
809.839	0.0162466
809.917	0.0160005
809.995	0.0160708
810.073	0.0159557
810.151	0.0159219
810.229	0.0158809
810.308	0.0157689
810.386	0.0157207
810.464	0.0158341
810.542	0.0158987
810.620	0.0157444
810.698	0.0159066
810.776	0.0159224
810.854	0.0160728
810.933	0.0161830
811.011	0.0162944
811.089	0.0163608
811.167	0.0166125
811.245	0.0167867
811.323	0.0168430
811.401	0.0170523
811.479	0.0171121
811.558	0.0171585
811.636	0.0172967
811.714	0.0174868
811.792	0.0174487
811.870	0.0175979
811.948	0.0174532
812.026	0.0175990
812.104	0.0174553
812.183	0.0175083
812.261	0.0175602
812.339	0.0176081
812.417	0.0173168
812.495	0.0172889
812.573	0.0172891
812.651	0.0172511
812.729	0.0172736
812.808	0.0173675
812.886	0.0173316
812.964	0.0170612
813.042	0.0172063
813.120	0.0171786
813.198	0.0172212
813.276	0.0171855
813.354	0.0171171
813.433	0.0167771
813.511	0.0168439
813.589	0.0167714
813.667	0.0165835
813.745	0.0166675
813.823	0.0166437
813.901	0.0164063
813.979	0.0163608
814.058	0.0161717
814.136	0.0162041
814.214	0.0160741
814.292	0.0161504
814.370	0.0160765
814.448	0.0160542
814.526	0.0160071
814.604	0.0160982
814.683	0.0160706
814.761	0.0161099
814.839	0.0162885
814.917	0.0163286
814.995	0.0163315
815.073	0.0164976
815.151	0.0166447
815.229	0.0164616
815.308	0.0164217
815.386	0.0165285
815.464	0.0164983
815.542	0.0166879
815.620	0.0163713
815.698	0.0162655
815.776	0.0165393
815.854	0.0163786
815.933	0.0163078
816.011	0.0163674
816.089	0.0163959
816.167	0.0164637
816.245	0.0164207
816.323	0.0164245
816.401	0.0163937
816.479	0.0166106
816.558	0.0165939
816.636	0.0166842
816.714	0.0167552
816.792	0.0167424
816.870	0.0167054
816.948	0.0170013
817.026	0.0168993
817.104	0.0168587
817.183	0.0167342
817.261	0.0165918
817.339	0.0167285
817.417	0.0166869
817.495	0.0168313
817.573	0.0167530
817.651	0.0168322
817.729	0.0168385
817.808	0.0168311
817.886	0.0169839
817.964	0.0169653
818.042	0.0170305
818.120	0.0169518
818.198	0.0169534
818.276	0.0168522
818.354	0.0172313
818.433	0.0171896
818.511	0.0170372
818.589	0.0171919
818.667	0.0172502
818.745	0.0171830
818.823	0.0171617
818.901	0.0169987
818.979	0.0170309
819.058	0.0169453
819.136	0.0168137
819.214	0.0167577
819.292	0.0165903
819.370	0.0166399
819.448	0.0164077
819.526	0.0162737
819.604	0.0161417
819.683	0.0160914
819.761	0.0161355
819.839	0.0161467
819.917	0.0162459
819.995	0.0161287
820.073	0.0161744
820.151	0.0162517
820.229	0.0161764
820.308	0.0163525
820.386	0.0165157
820.464	0.0164893
820.542	0.0164008
820.620	0.0165568
820.698	0.0166255
820.776	0.0166735
820.854	0.0167762
820.933	0.0166862
821.011	0.0169187
821.089	0.0168517
821.167	0.0168170
821.245	0.0167472
821.323	0.0168378
821.401	0.0169397
821.479	0.0167813
821.558	0.0167604
821.636	0.0168525
821.714	0.0167957
821.792	0.0167149
821.870	0.0167311
821.948	0.0166969
822.026	0.0167816
822.104	0.0166608
822.183	0.0166631
822.261	0.0166454
822.339	0.0164458
822.417	0.0165237
822.495	0.0166886
822.573	0.0165166
822.651	0.0164628
822.729	0.0164468
822.808	0.0165066
822.886	0.0164619
822.964	0.0165953
823.042	0.0166073
823.120	0.0168632
823.198	0.0166728
823.276	0.0166628
823.354	0.0169613
823.433	0.0169060
823.511	0.0169295
823.589	0.0170039
823.667	0.0168612
823.745	0.0168487
823.823	0.0168327
823.901	0.0166290
823.979	0.0167428
824.058	0.0167549
824.136	0.0166088
824.214	0.0165212
824.292	0.0163847
824.370	0.0164832
824.448	0.0164478
824.526	0.0163857
824.604	0.0163953
824.683	0.0164706
824.761	0.0163700
824.839	0.0163840
824.917	0.0164644
824.995	0.0164273
825.073	0.0165057
825.151	0.0164605
825.229	0.0166054
825.308	0.0164828
825.386	0.0166776
825.464	0.0167081
825.542	0.0167915
825.620	0.0168724
825.698	0.0168472
825.776	0.0169428
825.854	0.0169713
825.933	0.0169151
826.011	0.0170306
826.089	0.0168169
826.167	0.0166434
826.245	0.0166521
826.323	0.0166822
826.401	0.0165189
826.479	0.0164158
826.558	0.0165037
826.636	0.0165007
826.714	0.0164494
826.792	0.0165143
826.870	0.0164133
826.948	0.0163831
827.026	0.0165488
827.104	0.0166058
827.183	0.0166588
827.261	0.0166679
827.339	0.0167304
827.417	0.0166876
827.495	0.0166228
827.573	0.0166827
827.651	0.0166148
827.729	0.0165878
827.808	0.0164507
827.886	0.0165832
827.964	0.0165378
828.042	0.0164179
828.120	0.0165867
828.198	0.0164651
828.276	0.0164034
828.354	0.0165746
828.433	0.0164433
828.511	0.0164001
828.589	0.0164942
828.667	0.0163232
828.745	0.0166364
828.823	0.0164138
828.901	0.0165473
828.979	0.0166545
829.058	0.0167908
829.136	0.0168603
829.214	0.0168492
829.292	0.0167684
829.370	0.0168438
829.448	0.0169589
829.526	0.0168383
829.604	0.0168491
829.683	0.0165485
829.761	0.0168257
829.839	0.0166542
829.917	0.0165591
829.995	0.0164889
830.073	0.0165493
830.151	0.0161926
830.229	0.0161679
830.308	0.0161868
830.386	0.0162924
830.464	0.0161621
830.542	0.0161881
830.620	0.0163622
830.698	0.0163064
830.776	0.0165059
830.854	0.0163838
830.933	0.0165452
831.011	0.0165741
831.089	0.0168558
831.167	0.0170087
831.245	0.0170550
831.323	0.0170949
831.401	0.0170302
831.479	0.0171088
831.558	0.0169904
831.636	0.0170677
831.714	0.0169851
831.792	0.0169168
831.870	0.0169556
831.948	0.0166634
832.026	0.0167866
832.104	0.0167013
832.183	0.0164005
832.261	0.0165817
832.339	0.0164505
832.417	0.0164603
832.495	0.0162827
832.573	0.0161419
832.651	0.0161958
832.729	0.0163509
832.808	0.0163537
832.886	0.0163174
832.964	0.0165040
833.042	0.0165522
833.120	0.0164844
833.198	0.0164911
833.276	0.0165273
833.354	0.0167982
833.433	0.0167574
833.511	0.0168704
833.589	0.0167739
833.667	0.0169544
833.745	0.0168645
833.823	0.0168728
833.901	0.0170842
833.979	0.0170419
834.058	0.0169775
834.136	0.0168530
834.214	0.0168710
834.292	0.0168111
834.370	0.0167188
834.448	0.0167904
834.526	0.0166070
834.604	0.0166310
834.683	0.0167223
834.761	0.0166689
834.839	0.0164744
834.917	0.0164037
834.995	0.0165072
835.073	0.0166111
835.151	0.0165447
835.229	0.0163236
835.308	0.0166074
835.386	0.0165901
835.464	0.0165221
835.542	0.0165836
835.620	0.0164484
835.698	0.0164053
835.776	0.0164298
835.854	0.0164780
835.933	0.0164359
836.011	0.0164074
836.089	0.0163728
836.167	0.0163695
836.245	0.0163046
836.323	0.0163210
836.401	0.0164167
836.479	0.0164588
836.558	0.0164184
836.636	0.0164213
836.714	0.0164838
836.792	0.0165934
836.870	0.0166043
836.948	0.0166787
837.026	0.0165959
837.104	0.0164462
837.183	0.0166126
837.261	0.0167475
837.339	0.0167732
837.417	0.0167868
837.495	0.0167987
837.573	0.0168255
837.651	0.0167249
837.729	0.0166216
837.808	0.0166848
837.886	0.0166680
837.964	0.0167803
838.042	0.0166663
838.120	0.0166926
838.198	0.0166268
838.276	0.0166525
838.354	0.0166266
838.433	0.0167438
838.511	0.0167221
838.589	0.0166039
838.667	0.0167403
838.745	0.0168392
838.823	0.0166602
838.901	0.0166202
838.979	0.0167483
839.058	0.0167730
839.136	0.0168646
839.214	0.0168547
839.292	0.0167970
839.370	0.0169775
839.448	0.0169235
839.526	0.0168960
839.604	0.0170371
839.683	0.0171671
839.761	0.0170576
839.839	0.0171405
839.917	0.0170895
839.995	0.0170000
840.073	0.0169548
840.151	0.0169777
840.229	0.0167754
840.308	0.0166126
840.386	0.0165732
840.464	0.0164645
840.542	0.0162921
840.620	0.0163104
840.698	0.0163081
840.776	0.0161746
840.854	0.0162401
840.933	0.0161932
841.011	0.0162106
841.089	0.0162550
841.167	0.0161275
841.245	0.0162563
841.323	0.0163444
841.401	0.0165001
841.479	0.0164637
841.558	0.0166681
841.636	0.0166211
841.714	0.0169088
841.792	0.0169648
841.870	0.0168438
841.948	0.0169423
842.026	0.0170034
842.104	0.0169975
842.183	0.0170735
842.261	0.0170008
842.339	0.0168309
842.417	0.0168346
842.495	0.0168597
842.573	0.0167781
842.651	0.0166507
842.729	0.0165164
842.808	0.0165397
842.886	0.0164472
842.964	0.0163797
843.042	0.0163589
843.120	0.0165789
843.198	0.0164726
843.276	0.0164469
843.354	0.0165423
843.433	0.0165849
843.511	0.0165962
843.589	0.0167769
843.667	0.0166947
843.745	0.0167690
843.823	0.0168804
843.901	0.0169073
843.979	0.0168528
844.058	0.0169117
844.136	0.0167645
844.214	0.0167448
844.292	0.0167793
844.370	0.0167206
844.448	0.0168539
844.526	0.0167809
844.604	0.0165090
844.683	0.0165092
844.761	0.0164655
844.839	0.0163782
844.917	0.0163129
844.995	0.0165484
845.073	0.0165312
845.151	0.0165025
845.229	0.0164505
845.308	0.0166116
845.386	0.0165679
845.464	0.0167899
845.542	0.0168259
845.620	0.0167979
845.698	0.0168739
845.776	0.0170562
845.854	0.0168994
845.933	0.0170225
846.011	0.0169312
846.089	0.0169677
846.167	0.0169704
846.245	0.0168384
846.323	0.0168990
846.401	0.0169386
846.479	0.0169298
846.558	0.0167985
846.636	0.0166054
846.714	0.0167035
846.792	0.0166566
846.870	0.0167066
846.948	0.0166688
847.026	0.0166318
847.104	0.0166503
847.183	0.0165180
847.261	0.0164289
847.339	0.0165654
847.417	0.0166055
847.495	0.0165321
847.573	0.0165750
847.651	0.0164982
847.729	0.0164573
847.808	0.0165353
847.886	0.0165204
847.964	0.0165474
848.042	0.0163728
848.120	0.0164001
848.198	0.0163924
848.276	0.0164631
848.354	0.0164929
848.433	0.0165491
848.511	0.0164123
848.589	0.0165643
848.667	0.0164117
848.745	0.0164333
848.823	0.0164470
848.901	0.0164333
848.979	0.0164570
849.058	0.0163607
849.136	0.0163012
849.214	0.0165457
849.292	0.0164375
849.370	0.0164842
849.448	0.0164999
849.526	0.0165107
849.604	0.0165797
849.683	0.0166277
849.761	0.0167089
849.839	0.0166244
849.917	0.0168484
849.995	0.0168113
850.073	0.0169161
850.151	0.0169036
850.229	0.0169200
850.308	0.0168616
850.386	0.0168638
850.464	0.0167809
850.542	0.0168680
850.620	0.0168188
850.698	0.0167787
850.776	0.0168427
850.854	0.0167835
850.933	0.0166563
851.011	0.0167784
851.089	0.0167753
851.167	0.0166859
851.245	0.0166003
851.323	0.0167044
851.401	0.0166873
851.479	0.0167320
851.558	0.0167932
851.636	0.0168755
851.714	0.0168445
851.792	0.0168738
851.870	0.0169231
851.948	0.0170158
852.026	0.0169540
852.104	0.0169141
852.183	0.0169972
852.261	0.0168710
852.339	0.0169557
852.417	0.0169349
852.495	0.0169188
852.573	0.0167673
852.651	0.0166895
852.729	0.0165220
852.808	0.0166372
852.886	0.0165139
852.964	0.0164347
853.042	0.0163124
853.120	0.0162160
853.198	0.0160710
853.276	0.0160210
853.354	0.0159592
853.433	0.0160045
853.511	0.0160519
853.589	0.0161820
853.667	0.0161843
853.745	0.0162512
853.823	0.0161774
853.901	0.0164931
853.979	0.0165043
854.058	0.0165935
854.136	0.0166738
854.214	0.0166936
854.292	0.0168939
854.370	0.0167926
854.448	0.0168492
854.526	0.0169169
854.604	0.0168447
854.683	0.0169419
854.761	0.0166671
854.839	0.0166528
854.917	0.0166485
854.995	0.0166647
855.073	0.0167570
855.151	0.0164293
855.229	0.0163866
855.308	0.0163837
855.386	0.0164442
855.464	0.0163350
855.542	0.0162724
855.620	0.0162582
855.698	0.0163553
855.776	0.0164413
855.854	0.0164751
855.933	0.0164915
856.011	0.0165627
856.089	0.0164794
856.167	0.0166110
856.245	0.0168333
856.323	0.0168078
856.401	0.0167873
856.479	0.0168569
856.558	0.0169973
856.636	0.0169550
856.714	0.0170429
856.792	0.0169839
856.870	0.0168649
856.948	0.0167582
857.026	0.0168792
857.104	0.0166998
857.183	0.0167236
857.261	0.0166497
857.339	0.0166277
857.417	0.0166756
857.495	0.0167442
857.573	0.0165360
857.651	0.0166221
857.729	0.0166681
857.808	0.0166939
857.886	0.0167903
857.964	0.0168630
858.042	0.0169079
858.120	0.0167301
858.198	0.0167922
858.276	0.0168392
858.354	0.0166792
858.433	0.0168571
858.511	0.0167276
858.589	0.0167203
858.667	0.0167445
858.745	0.0165600
858.823	0.0164059
858.901	0.0163340
858.979	0.0163909
859.058	0.0163547
859.136	0.0164129
859.214	0.0162032
859.292	0.0163282
859.370	0.0161694
859.448	0.0161414
859.526	0.0162009
859.604	0.0162379
859.683	0.0163275
859.761	0.0163159
859.839	0.0163612
859.917	0.0164335
859.995	0.0164993
860.073	0.0165430
860.151	0.0165029
860.229	0.0166004
860.308	0.0168478
860.386	0.0169250
860.464	0.0169998
860.542	0.0169626
860.620	0.0169212
860.698	0.0171533
860.776	0.0171790
860.854	0.0172097
860.933	0.0171629
861.011	0.0171134
861.089	0.0169576
861.167	0.0169960
861.245	0.0168842
861.323	0.0167719
861.401	0.0165730
861.479	0.0165378
861.558	0.0165125
861.636	0.0164758
861.714	0.0163185
861.792	0.0162724
861.870	0.0162148
861.948	0.0162826
862.026	0.0161201
862.104	0.0161267
862.183	0.0162744
862.261	0.0161395
862.339	0.0162453
862.417	0.0161848
862.495	0.0163584
862.573	0.0164634
862.651	0.0164195
862.729	0.0165084
862.808	0.0165401
862.886	0.0166714
862.964	0.0166936
863.042	0.0168007
863.120	0.0167334
863.198	0.0168755
863.276	0.0168734
863.354	0.0167927
863.433	0.0168608
863.511	0.0169661
863.589	0.0168383
863.667	0.0168607
863.745	0.0168263
863.823	0.0168475
863.901	0.0169152
863.979	0.0169743
864.058	0.0169164
864.136	0.0168620
864.214	0.0166758
864.292	0.0169395
864.370	0.0169928
864.448	0.0170254
864.526	0.0169261
864.604	0.0170063
864.683	0.0169736
864.761	0.0169756
864.839	0.0168997
864.917	0.0169114
864.995	0.0169248
865.073	0.0168893
865.151	0.0168880
865.229	0.0169748
865.308	0.0170016
865.386	0.0169015
865.464	0.0169388
865.542	0.0167018
865.620	0.0167999
865.698	0.0168038
865.776	0.0166891
865.854	0.0166069
865.933	0.0165781
866.011	0.0164216
866.089	0.0162485
866.167	0.0162582
866.245	0.0162450
866.323	0.0162094
866.401	0.0160664
866.479	0.0160866
866.558	0.0161774
866.636	0.0160674
866.714	0.0161005
866.792	0.0161941
866.870	0.0162197
866.948	0.0161607
867.026	0.0161224
867.104	0.0161324
867.183	0.0164339
867.261	0.0163652
867.339	0.0162987
867.417	0.0163233
867.495	0.0162894
867.573	0.0163462
867.651	0.0163103
867.729	0.0164571
867.808	0.0165079
867.886	0.0164555
867.964	0.0164061
868.042	0.0165398
868.120	0.0166097
868.198	0.0166305
868.276	0.0166122
868.354	0.0168663
868.433	0.0168820
868.511	0.0170921
868.589	0.0171629
868.667	0.0171976
868.745	0.0171408
868.823	0.0173631
868.901	0.0173082
868.979	0.0173979
869.058	0.0174901
869.136	0.0175394
869.214	0.0173683
869.292	0.0173643
869.370	0.0172842
869.448	0.0173588
869.526	0.0171609
869.604	0.0171962
869.683	0.0170249
869.761	0.0171176
869.839	0.0170250
869.917	0.0169077
869.995	0.0169608
870.073	0.0167889
870.151	0.0168277
870.229	0.0168767
870.308	0.0165875
870.386	0.0166619
870.464	0.0165766
870.542	0.0165385
870.620	0.0164997
870.698	0.0163867
870.776	0.0164828
870.854	0.0165597
870.933	0.0164820
871.011	0.0163708
871.089	0.0164912
871.167	0.0163728
871.245	0.0163232
871.323	0.0162402
871.401	0.0163799
871.479	0.0162687
871.558	0.0162886
871.636	0.0161683
871.714	0.0160015
871.792	0.0159642
871.870	0.0161165
871.948	0.0160506
872.026	0.0159663
872.104	0.0160004
872.183	0.0159472
872.261	0.0158899
872.339	0.0160103
872.417	0.0160059
872.495	0.0161951
872.573	0.0161163
872.651	0.0161084
872.729	0.0163473
872.808	0.0165646
872.886	0.0166395
872.964	0.0166933
873.042	0.0168188
873.120	0.0170298
873.198	0.0170652
873.276	0.0172138
873.354	0.0174220
873.433	0.0175648
873.511	0.0176271
873.589	0.0175859
873.667	0.0176029
873.745	0.0175748
873.823	0.0174884
873.901	0.0174310
873.979	0.0172964
874.058	0.0172679
874.136	0.0171133
874.214	0.0170359
874.292	0.0170161
874.370	0.0168025
874.448	0.0166968
874.526	0.0166027
874.604	0.0165549
874.683	0.0162534
874.761	0.0163886
874.839	0.0162931
874.917	0.0161215
874.995	0.0162296
875.073	0.0162366
875.151	0.0161479
875.229	0.0161455
875.308	0.0161494
875.386	0.0161630
875.464	0.0163729
875.542	0.0163288
875.620	0.0162876
875.698	0.0164294
875.776	0.0166187
875.854	0.0165612
875.933	0.0165111
876.011	0.0167155
876.089	0.0167768
876.167	0.0166320
876.245	0.0166051
876.323	0.0165708
876.401	0.0167215
876.479	0.0168433
876.558	0.0167648
876.636	0.0166001
876.714	0.0166039
876.792	0.0165269
876.870	0.0167289
876.948	0.0166978
877.026	0.0165578
877.104	0.0166859
877.183	0.0166738
877.261	0.0166100
877.339	0.0166354
877.417	0.0168842
877.495	0.0167146
877.573	0.0166897
877.651	0.0168262
877.729	0.0169285
877.808	0.0170030
877.886	0.0171663
877.964	0.0169849
878.042	0.0170396
878.120	0.0172084
878.198	0.0171588
878.276	0.0171861
878.354	0.0170699
878.433	0.0171043
878.511	0.0170020
878.589	0.0171070
878.667	0.0170982
878.745	0.0169702
878.823	0.0168047
878.901	0.0168288
878.979	0.0168022
879.058	0.0166521
879.136	0.0166685
879.214	0.0166122
879.292	0.0163710
879.370	0.0162922
879.448	0.0163863
879.526	0.0163616
879.604	0.0161078
879.683	0.0161106
879.761	0.0160152
879.839	0.0159267
879.917	0.0158738
879.995	0.0160533
880.073	0.0160336
880.151	0.0159197
880.229	0.0159752
880.308	0.0160114
880.386	0.0161097
880.464	0.0161214
880.542	0.0160526
880.620	0.0160435
880.698	0.0161607
880.776	0.0162777
880.854	0.0163737
880.933	0.0165187
881.011	0.0166203
881.089	0.0166719
881.167	0.0166982
881.245	0.0167839
881.323	0.0169218
881.401	0.0169239
881.479	0.0170101
881.558	0.0170790
881.636	0.0170147
881.714	0.0170888
881.792	0.0170960
881.870	0.0171740
881.948	0.0169780
882.026	0.0169608
882.104	0.0170139
882.183	0.0170312
882.261	0.0168301
882.339	0.0169949
882.417	0.0170541
882.495	0.0169762
882.573	0.0169705
882.651	0.0171142
882.729	0.0171083
882.808	0.0171370
882.886	0.0172687
882.964	0.0171630
883.042	0.0173054
883.120	0.0173270
883.198	0.0174335
883.276	0.0174476
883.354	0.0173236
883.433	0.0172394
883.511	0.0172148
883.589	0.0172950
883.667	0.0170953
883.745	0.0170436
883.823	0.0169927
883.901	0.0168068
883.979	0.0165705
884.058	0.0164876
884.136	0.0164191
884.214	0.0163480
884.292	0.0161730
884.370	0.0158411
884.448	0.0159200
884.526	0.0158292
884.604	0.0156867
884.683	0.0157336
884.761	0.0155846
884.839	0.0155538
884.917	0.0156456
884.995	0.0156632
885.073	0.0156449
885.151	0.0156960
885.229	0.0159420
885.308	0.0158658
885.386	0.0159451
885.464	0.0160332
885.542	0.0162194
885.620	0.0163178
885.698	0.0163586
885.776	0.0163877
885.854	0.0165954
885.933	0.0165796
886.011	0.0167123
886.089	0.0167673
886.167	0.0168275
886.245	0.0168697
886.323	0.0168192
886.401	0.0168148
886.479	0.0167226
886.558	0.0168351
886.636	0.0169638
886.714	0.0168031
886.792	0.0168540
886.870	0.0171005
886.948	0.0169530
887.026	0.0170180
887.104	0.0169690
887.183	0.0170915
887.261	0.0171777
887.339	0.0171422
887.417	0.0171530
887.495	0.0172513
887.573	0.0172125
887.651	0.0172358
887.729	0.0173001
887.808	0.0174055
887.886	0.0174001
887.964	0.0173499
888.042	0.0173451
888.120	0.0175391
888.198	0.0172912
888.276	0.0172240
888.354	0.0172536
888.433	0.0172369
888.511	0.0171161
888.589	0.0171506
888.667	0.0170802
888.745	0.0170395
888.823	0.0168520
888.901	0.0168050
888.979	0.0165748
889.058	0.0164641
889.136	0.0165375
889.214	0.0163740
889.292	0.0163326
889.370	0.0162080
889.448	0.0161818
889.526	0.0160155
889.604	0.0159537
889.683	0.0159782
889.761	0.0160135
889.839	0.0158786
889.917	0.0159899
889.995	0.0159786
890.073	0.0161510
890.151	0.0161876
890.229	0.0160884
890.308	0.0161529
890.386	0.0162794
890.464	0.0161115
890.542	0.0163901
890.620	0.0163744
890.698	0.0164468
890.776	0.0165128
890.854	0.0165627
890.933	0.0164834
891.011	0.0165541
891.089	0.0165654
891.167	0.0166484
891.245	0.0166580
891.323	0.0165384
891.401	0.0165388
891.479	0.0164536
891.558	0.0165659
891.636	0.0165800
891.714	0.0166547
891.792	0.0166673
891.870	0.0166230
891.948	0.0167919
892.026	0.0168589
892.104	0.0167717
892.183	0.0168517
892.261	0.0168812
892.339	0.0169839
892.417	0.0170233
892.495	0.0170344
892.573	0.0171014
892.651	0.0169798
892.729	0.0169781
892.808	0.0169282
892.886	0.0170918
892.964	0.0171204
893.042	0.0170805
893.120	0.0170704
893.198	0.0170275
893.276	0.0170184
893.354	0.0170819
893.433	0.0171369
893.511	0.0169031
893.589	0.0170257
893.667	0.0171591
893.745	0.0170473
893.823	0.0169118
893.901	0.0167269
893.979	0.0168619
894.058	0.0166695
894.136	0.0166151
894.214	0.0165385
894.292	0.0166030
894.370	0.0163725
894.448	0.0163759
894.526	0.0163290
894.604	0.0163634
894.683	0.0163261
894.761	0.0163464
894.839	0.0163213
894.917	0.0163423
894.995	0.0163425
895.073	0.0161406
895.151	0.0163405
895.229	0.0164206
895.308	0.0163873
895.386	0.0162701
895.464	0.0164104
895.542	0.0163184
895.620	0.0163200
895.698	0.0161200
895.776	0.0161404
895.854	0.0162268
895.933	0.0162393
896.011	0.0164339
896.089	0.0160549
896.167	0.0162545
896.245	0.0163827
896.323	0.0162841
896.401	0.0162455
896.479	0.0162086
896.558	0.0161974
896.636	0.0163384
896.714	0.0162446
896.792	0.0162272
896.870	0.0164499
896.948	0.0165424
897.026	0.0165244
897.104	0.0164986
897.183	0.0165349
897.261	0.0166354
897.339	0.0166783
897.417	0.0166418
897.495	0.0168280
897.573	0.0166730
897.651	0.0168364
897.729	0.0168465
897.808	0.0168022
897.886	0.0168405
897.964	0.0169450
898.042	0.0170200
898.120	0.0168887
898.198	0.0171053
898.276	0.0171964
898.354	0.0171260
898.433	0.0172092
898.511	0.0171015
898.589	0.0171687
898.667	0.0171420
898.745	0.0171819
898.823	0.0169079
898.901	0.0169021
898.979	0.0169703
899.058	0.0168565
899.136	0.0168440
899.214	0.0168064
899.292	0.0167418
899.370	0.0167721
899.448	0.0166445
899.526	0.0164925
899.604	0.0165480
899.683	0.0165586
899.761	0.0164411
899.839	0.0163920
899.917	0.0163045
899.995	0.0162930
900.073	0.0164133
900.151	0.0163588
900.229	0.0165251
900.308	0.0164733
900.386	0.0164792
900.464	0.0163721
900.542	0.0165514
900.620	0.0164091
900.698	0.0163007
900.776	0.0164716
900.854	0.0165503
900.933	0.0164542
901.011	0.0164761
901.089	0.0164622
901.167	0.0166476
901.245	0.0166605
901.323	0.0164156
901.401	0.0165717
901.479	0.0166570
901.558	0.0164990
901.636	0.0165617
901.714	0.0166045
901.792	0.0166013
901.870	0.0165306
901.948	0.0164089
902.026	0.0165234
902.104	0.0165544
902.183	0.0165740
902.261	0.0165363
902.339	0.0165717
902.417	0.0165917
902.495	0.0166956
902.573	0.0166024
902.651	0.0165282
902.729	0.0166499
902.808	0.0167417
902.886	0.0166092
902.964	0.0166800
903.042	0.0168222
903.120	0.0166302
903.198	0.0167486
903.276	0.0170177
903.354	0.0168570
903.433	0.0167167
903.511	0.0168259
903.589	0.0168620
903.667	0.0168388
903.745	0.0168346
903.823	0.0168417
903.901	0.0168026
903.979	0.0167585
904.058	0.0167808
904.136	0.0166780
904.214	0.0168217
904.292	0.0168067
904.370	0.0167321
904.448	0.0166870
904.526	0.0167968
904.604	0.0166659
904.683	0.0165908
904.761	0.0166688
904.839	0.0165900
904.917	0.0165909
904.995	0.0166225
905.073	0.0165985
905.151	0.0166392
905.229	0.0166447
905.308	0.0166413
905.386	0.0166773
905.464	0.0165266
905.542	0.0167573
905.620	0.0167786
905.698	0.0166248
905.776	0.0165838
905.854	0.0166247
905.933	0.0166245
906.011	0.0166083
906.089	0.0166650
906.167	0.0164581
906.245	0.0165072
906.323	0.0164629
906.401	0.0164123
906.479	0.0164466
906.558	0.0164242
906.636	0.0165222
906.714	0.0165153
906.792	0.0166214
906.870	0.0165175
906.948	0.0165714
907.026	0.0164207
907.104	0.0165422
907.183	0.0165836
907.261	0.0165099
907.339	0.0166386
907.417	0.0166403
907.495	0.0166206
907.573	0.0165091
907.651	0.0165173
907.729	0.0166074
907.808	0.0165255
907.886	0.0166839
907.964	0.0166821
908.042	0.0167944
908.120	0.0166779
908.198	0.0166109
908.276	0.0165805
908.354	0.0167009
908.433	0.0166645
908.511	0.0166346
908.589	0.0165368
908.667	0.0166181
908.745	0.0167479
908.823	0.0166568
908.901	0.0167745
908.979	0.0168181
909.058	0.0168670
909.136	0.0169739
909.214	0.0169938
909.292	0.0168734
909.370	0.0169403
909.448	0.0170344
909.526	0.0171256
909.604	0.0170010
909.683	0.0170090
909.761	0.0169394
909.839	0.0169276
909.917	0.0168696
909.995	0.0168890
910.073	0.0169473
910.151	0.0167551
910.229	0.0167303
910.308	0.0167065
910.386	0.0167507
910.464	0.0166984
910.542	0.0165102
910.620	0.0166131
910.698	0.0165052
910.776	0.0164642
910.854	0.0164097
910.933	0.0165299
911.011	0.0165860
911.089	0.0165002
911.167	0.0164424
911.245	0.0163789
911.323	0.0165746
911.401	0.0165653
911.479	0.0164093
911.558	0.0165804
911.636	0.0166511
911.714	0.0167202
911.792	0.0166824
911.870	0.0166571
911.948	0.0165691
912.026	0.0165769
912.104	0.0167168
912.183	0.0168118
912.261	0.0166341
912.339	0.0166292
912.417	0.0167824
912.495	0.0166707
912.573	0.0166630
912.651	0.0167189
912.729	0.0165910
912.808	0.0164686
912.886	0.0164991
912.964	0.0165113
913.042	0.0165433
913.120	0.0165470
913.198	0.0165026
913.276	0.0166070
913.354	0.0168290
913.433	0.0168095
913.511	0.0167293
913.589	0.0167188
913.667	0.0168915
913.745	0.0170125
913.823	0.0168735
913.901	0.0169868
913.979	0.0168897
914.058	0.0168781
914.136	0.0169190
914.214	0.0170205
914.292	0.0169717
914.370	0.0169128
914.448	0.0169040
914.526	0.0167929
914.604	0.0169350
914.683	0.0168122
914.761	0.0167760
914.839	0.0165941
914.917	0.0167443
914.995	0.0168256
915.073	0.0166305
915.151	0.0165038
915.229	0.0165459
915.308	0.0166100
915.386	0.0165098
915.464	0.0164436
915.542	0.0164382
915.620	0.0163825
915.698	0.0165679
915.776	0.0165806
915.854	0.0162936
915.933	0.0164612
916.011	0.0164727
916.089	0.0165047
916.167	0.0164855
916.245	0.0165771
916.323	0.0165047
916.401	0.0164816
916.479	0.0164883
916.558	0.0164848
916.636	0.0164385
916.714	0.0165142
916.792	0.0164492
916.870	0.0163454
916.948	0.0162851
917.026	0.0163793
917.104	0.0164833
917.183	0.0164536
917.261	0.0165540
917.339	0.0164886
917.417	0.0163885
917.495	0.0165074
917.573	0.0165684
917.651	0.0164681
917.729	0.0164444
917.808	0.0166925
917.886	0.0165533
917.964	0.0166591
918.042	0.0165616
918.120	0.0167410
918.198	0.0167112
918.276	0.0167469
918.354	0.0167570
918.433	0.0169388
918.511	0.0168591
918.589	0.0168634
918.667	0.0168240
918.745	0.0169363
918.823	0.0168696
918.901	0.0168520
918.979	0.0168897
919.058	0.0169408
919.136	0.0169031
919.214	0.0169263
919.292	0.0168408
919.370	0.0168449
919.448	0.0167587
919.526	0.0167696
919.604	0.0167091
919.683	0.0168127
919.761	0.0166319
919.839	0.0166511
919.917	0.0166914
