06/10/2022	16:21:47	Ver.	4.1	UNKNOWN
Optical Delay	599.995081	Delta X		0.078125	Sweeps	1	Scan Rate	0/0
Coordinates	Axis 1	NaN	Axis 2	NaN	Axis 3	NaN	Axis 4	NaN	Axis 5	NaN	Axis 6	0.000000
TX Power	0.000000	RX Power	0.000000

599.995	0.0159048
600.073	0.0158192
600.151	0.0158640
600.229	0.0159700
600.308	0.0158681
600.386	0.0159754
600.464	0.0158992
600.542	0.0160799
600.620	0.0160362
600.698	0.0159394
600.776	0.0159132
600.854	0.0158337
600.933	0.0158646
601.011	0.0159174
601.089	0.0160105
601.167	0.0158308
601.245	0.0159470
601.323	0.0159023
601.401	0.0159943
601.479	0.0159703
601.558	0.0158034
601.636	0.0158328
601.714	0.0158927
601.792	0.0158952
601.870	0.0158407
601.948	0.0159443
602.026	0.0159132
602.104	0.0158980
602.183	0.0159691
602.261	0.0158126
602.339	0.0158704
602.417	0.0159164
602.495	0.0159252
602.573	0.0158913
602.651	0.0158422
602.729	0.0159130
602.808	0.0158796
602.886	0.0159263
602.964	0.0158384
603.042	0.0158517
603.120	0.0159058
603.198	0.0159179
603.276	0.0159644
603.354	0.0161098
603.433	0.0160067
603.511	0.0157644
603.589	0.0158475
603.667	0.0159922
603.745	0.0160364
603.823	0.0158931
603.901	0.0160147
603.979	0.0158270
604.058	0.0159641
604.136	0.0159370
604.214	0.0159289
604.292	0.0160585
604.370	0.0157727
604.448	0.0158862
604.526	0.0160701
604.604	0.0159321
604.683	0.0158935
604.761	0.0158977
604.839	0.0158215
604.917	0.0159003
604.995	0.0158881
605.073	0.0160035
605.151	0.0160635
605.229	0.0159193
605.308	0.0159641
605.386	0.0158759
605.464	0.0158936
605.542	0.0158287
605.620	0.0158011
605.698	0.0159649
605.776	0.0159570
605.854	0.0158629
605.933	0.0158002
606.011	0.0159390
606.089	0.0159217
606.167	0.0160189
606.245	0.0158171
606.323	0.0159962
606.401	0.0158676
606.479	0.0158644
606.558	0.0159016
606.636	0.0159947
606.714	0.0160565
606.792	0.0158961
606.870	0.0159698
606.948	0.0159435
607.026	0.0158430
607.104	0.0158597
607.183	0.0159435
607.261	0.0158010
607.339	0.0158839
607.417	0.0161064
607.495	0.0159660
607.573	0.0159333
607.651	0.0158026
607.729	0.0159185
607.808	0.0159247
607.886	0.0158527
607.964	0.0158374
608.042	0.0157452
608.120	0.0158611
608.198	0.0159612
608.276	0.0159196
608.354	0.0159254
608.433	0.0158911
608.511	0.0159878
608.589	0.0158627
608.667	0.0158459
608.745	0.0159447
608.823	0.0160007
608.901	0.0159468
608.979	0.0159776
609.058	0.0159794
609.136	0.0158948
609.214	0.0159119
609.292	0.0159803
609.370	0.0158768
609.448	0.0158311
609.526	0.0158505
609.604	0.0158781
609.683	0.0159401
609.761	0.0159762
609.839	0.0159180
609.917	0.0157514
609.995	0.0158412
610.073	0.0159267
610.151	0.0158679
610.229	0.0158188
610.308	0.0159224
610.386	0.0158751
610.464	0.0159183
610.542	0.0158006
610.620	0.0157902
610.698	0.0158667
610.776	0.0159015
610.854	0.0157674
610.933	0.0157534
611.011	0.0158848
611.089	0.0160007
611.167	0.0159109
611.245	0.0158141
611.323	0.0160287
611.401	0.0159175
611.479	0.0160205
611.558	0.0157503
611.636	0.0158770
611.714	0.0159093
611.792	0.0157491
611.870	0.0158883
611.948	0.0159429
612.026	0.0159009
612.104	0.0157238
612.183	0.0157830
612.261	0.0158104
612.339	0.0159538
612.417	0.0159859
612.495	0.0159180
612.573	0.0158311
612.651	0.0159167
612.729	0.0160303
612.808	0.0159222
612.886	0.0158786
612.964	0.0158701
613.042	0.0157646
613.120	0.0157908
613.198	0.0158645
613.276	0.0159616
613.354	0.0158691
613.433	0.0158495
613.511	0.0157899
613.589	0.0158160
613.667	0.0158736
613.745	0.0158628
613.823	0.0159191
613.901	0.0159093
613.979	0.0159608
614.058	0.0158585
614.136	0.0159508
614.214	0.0158572
614.292	0.0159559
614.370	0.0158932
614.448	0.0158460
614.526	0.0159173
614.604	0.0158838
614.683	0.0158290
614.761	0.0158492
614.839	0.0159969
614.917	0.0158804
614.995	0.0159259
615.073	0.0158511
615.151	0.0158577
615.229	0.0159915
615.308	0.0159534
615.386	0.0159242
615.464	0.0159123
615.542	0.0159119
615.620	0.0159593
615.698	0.0158720
615.776	0.0157603
615.854	0.0159365
615.933	0.0159477
616.011	0.0158378
616.089	0.0157105
616.167	0.0158887
616.245	0.0160612
616.323	0.0159699
616.401	0.0159621
616.479	0.0159178
616.558	0.0159238
616.636	0.0159112
616.714	0.0157587
616.792	0.0158639
616.870	0.0159632
616.948	0.0158751
617.026	0.0158820
617.104	0.0159106
617.183	0.0159830
617.261	0.0159904
617.339	0.0159911
617.417	0.0159675
617.495	0.0159507
617.573	0.0158604
617.651	0.0158661
617.729	0.0159202
617.808	0.0159384
617.886	0.0158227
617.964	0.0160411
618.042	0.0159559
618.120	0.0159211
618.198	0.0159191
618.276	0.0159468
618.354	0.0157722
618.433	0.0159080
618.511	0.0160012
618.589	0.0158846
618.667	0.0158762
618.745	0.0158614
618.823	0.0158902
618.901	0.0157594
618.979	0.0159647
619.058	0.0159568
619.136	0.0160101
619.214	0.0157862
619.292	0.0159058
619.370	0.0159221
619.448	0.0159573
619.526	0.0158837
619.604	0.0158002
619.683	0.0158789
619.761	0.0158961
619.839	0.0158788
619.917	0.0159010
619.995	0.0158824
620.073	0.0160081
620.151	0.0158810
620.229	0.0159516
620.308	0.0158192
620.386	0.0157645
620.464	0.0159753
620.542	0.0159228
620.620	0.0158941
620.698	0.0159120
620.776	0.0160012
620.854	0.0159184
620.933	0.0158092
621.011	0.0158414
621.089	0.0160481
621.167	0.0157858
621.245	0.0159277
621.323	0.0160088
621.401	0.0158714
621.479	0.0158707
621.558	0.0159598
621.636	0.0158987
621.714	0.0159613
621.792	0.0159784
621.870	0.0159091
621.948	0.0158586
622.026	0.0158804
622.104	0.0158563
622.183	0.0159206
622.261	0.0159544
622.339	0.0158925
622.417	0.0158453
622.495	0.0158830
622.573	0.0158892
622.651	0.0159367
622.729	0.0158733
622.808	0.0159294
622.886	0.0159519
622.964	0.0159576
623.042	0.0158549
623.120	0.0158738
623.198	0.0159554
623.276	0.0159876
623.354	0.0159137
623.433	0.0159063
623.511	0.0159045
623.589	0.0159518
623.667	0.0157863
623.745	0.0159104
623.823	0.0158952
623.901	0.0158619
623.979	0.0158344
624.058	0.0159319
624.136	0.0158549
624.214	0.0159573
624.292	0.0159052
624.370	0.0158828
624.448	0.0159710
624.526	0.0160031
624.604	0.0159002
624.683	0.0159294
624.761	0.0158671
624.839	0.0159271
624.917	0.0160143
624.995	0.0158601
625.073	0.0159228
625.151	0.0159307
625.229	0.0159669
625.308	0.0159550
625.386	0.0158755
625.464	0.0158299
625.542	0.0160090
625.620	0.0159579
625.698	0.0157838
625.776	0.0159148
625.854	0.0158071
625.933	0.0158664
626.011	0.0159106
626.089	0.0158419
626.167	0.0159370
626.245	0.0159885
626.323	0.0159363
626.401	0.0159075
626.479	0.0159483
626.558	0.0159437
626.636	0.0159788
626.714	0.0160063
626.792	0.0159821
626.870	0.0160134
626.948	0.0159893
627.026	0.0158624
627.104	0.0160969
627.183	0.0159442
627.261	0.0159450
627.339	0.0159807
627.417	0.0159148
627.495	0.0160876
627.573	0.0159393
627.651	0.0157121
627.729	0.0159664
627.808	0.0159796
627.886	0.0157578
627.964	0.0158612
628.042	0.0160080
628.120	0.0159935
628.198	0.0158649
628.276	0.0159133
628.354	0.0160043
628.433	0.0158534
628.511	0.0158546
628.589	0.0159471
628.667	0.0158018
628.745	0.0157539
628.823	0.0158516
628.901	0.0159897
628.979	0.0158727
629.058	0.0158093
629.136	0.0159132
629.214	0.0158262
629.292	0.0159641
629.370	0.0159653
629.448	0.0157568
629.526	0.0159000
629.604	0.0158541
629.683	0.0158959
629.761	0.0159697
629.839	0.0158506
629.917	0.0158337
629.995	0.0158981
630.073	0.0159386
630.151	0.0158877
630.229	0.0159835
630.308	0.0159488
630.386	0.0159426
630.464	0.0158411
630.542	0.0158585
630.620	0.0158482
630.698	0.0157761
630.776	0.0159144
630.854	0.0158626
630.933	0.0158694
631.011	0.0159179
631.089	0.0159023
631.167	0.0159875
631.245	0.0159874
631.323	0.0158295
631.401	0.0158183
631.479	0.0158350
631.558	0.0159472
631.636	0.0158534
631.714	0.0159315
631.792	0.0158659
631.870	0.0159178
631.948	0.0159517
632.026	0.0159542
632.104	0.0159359
632.183	0.0160203
632.261	0.0159388
632.339	0.0158506
632.417	0.0159035
632.495	0.0158846
632.573	0.0159261
632.651	0.0159846
632.729	0.0160104
632.808	0.0160382
632.886	0.0159290
632.964	0.0158995
633.042	0.0159451
633.120	0.0157180
633.198	0.0159186
633.276	0.0158888
633.354	0.0159764
633.433	0.0159629
633.511	0.0160195
633.589	0.0159951
633.667	0.0158083
633.745	0.0158565
633.823	0.0158958
633.901	0.0158392
633.979	0.0158302
634.058	0.0159387
634.136	0.0159539
634.214	0.0159819
634.292	0.0159100
634.370	0.0158695
634.448	0.0159003
634.526	0.0159225
634.604	0.0159248
634.683	0.0159139
634.761	0.0158676
634.839	0.0158653
634.917	0.0159382
634.995	0.0160325
635.073	0.0158147
635.151	0.0157878
635.229	0.0160088
635.308	0.0158821
635.386	0.0158849
635.464	0.0157771
635.542	0.0158667
635.620	0.0159949
635.698	0.0159406
635.776	0.0160104
635.854	0.0159246
635.933	0.0159413
636.011	0.0158420
636.089	0.0158634
636.167	0.0159421
636.245	0.0160011
636.323	0.0158237
636.401	0.0158916
636.479	0.0159057
636.558	0.0157651
636.636	0.0158892
636.714	0.0160214
636.792	0.0158793
636.870	0.0158107
636.948	0.0159607
637.026	0.0158096
637.104	0.0158736
637.183	0.0159194
637.261	0.0158693
637.339	0.0158949
637.417	0.0158122
637.495	0.0158302
637.573	0.0159348
637.651	0.0158828
637.729	0.0158466
637.808	0.0159823
637.886	0.0159445
637.964	0.0157730
638.042	0.0160183
638.120	0.0157930
638.198	0.0158857
638.276	0.0159865
638.354	0.0160136
638.433	0.0158656
638.511	0.0159322
638.589	0.0158282
638.667	0.0160363
638.745	0.0159837
638.823	0.0159811
638.901	0.0159018
638.979	0.0159219
639.058	0.0159313
639.136	0.0158103
639.214	0.0160488
639.292	0.0159242
639.370	0.0159229
639.448	0.0158863
639.526	0.0157965
639.604	0.0158253
639.683	0.0159214
639.761	0.0158885
639.839	0.0158961
639.917	0.0159126
639.995	0.0159729
640.073	0.0158642
640.151	0.0159281
640.229	0.0159302
640.308	0.0158706
640.386	0.0159827
640.464	0.0158279
640.542	0.0158820
640.620	0.0159512
640.698	0.0158615
640.776	0.0159344
640.854	0.0159703
640.933	0.0159344
641.011	0.0160340
641.089	0.0159782
641.167	0.0160138
641.245	0.0159190
641.323	0.0158012
641.401	0.0159581
641.479	0.0159017
641.558	0.0158582
641.636	0.0159464
641.714	0.0158605
641.792	0.0158395
641.870	0.0158910
641.948	0.0159296
642.026	0.0159097
642.104	0.0159087
642.183	0.0159250
642.261	0.0159225
642.339	0.0159395
642.417	0.0158931
642.495	0.0158771
642.573	0.0159541
642.651	0.0159693
642.729	0.0159081
642.808	0.0159727
642.886	0.0159383
642.964	0.0159285
643.042	0.0158875
643.120	0.0159148
643.198	0.0158490
643.276	0.0157541
643.354	0.0158815
643.433	0.0159003
643.511	0.0158714
643.589	0.0157794
643.667	0.0158971
643.745	0.0159602
643.823	0.0158888
643.901	0.0157845
643.979	0.0157819
644.058	0.0158466
644.136	0.0159863
644.214	0.0159571
644.292	0.0160676
644.370	0.0159565
644.448	0.0158478
644.526	0.0158395
644.604	0.0158443
644.683	0.0157959
644.761	0.0160277
644.839	0.0158376
644.917	0.0160769
644.995	0.0157700
645.073	0.0160075
645.151	0.0160453
645.229	0.0158652
645.308	0.0160287
645.386	0.0159466
645.464	0.0158785
645.542	0.0158520
645.620	0.0159160
645.698	0.0158660
645.776	0.0159547
645.854	0.0158430
645.933	0.0158647
646.011	0.0158371
646.089	0.0159579
646.167	0.0159722
646.245	0.0159731
646.323	0.0158934
646.401	0.0157502
646.479	0.0160117
646.558	0.0157358
646.636	0.0158424
646.714	0.0157872
646.792	0.0159136
646.870	0.0157230
646.948	0.0158953
647.026	0.0158426
647.104	0.0158204
647.183	0.0159431
647.261	0.0159255
647.339	0.0157593
647.417	0.0159148
647.495	0.0160088
647.573	0.0160407
647.651	0.0158364
647.729	0.0158308
647.808	0.0159241
647.886	0.0160038
647.964	0.0158578
648.042	0.0159129
648.120	0.0159412
648.198	0.0160355
648.276	0.0159571
648.354	0.0159269
648.433	0.0157197
648.511	0.0159162
648.589	0.0158473
648.667	0.0159173
648.745	0.0159045
648.823	0.0158703
648.901	0.0159090
648.979	0.0159269
649.058	0.0159692
649.136	0.0159064
649.214	0.0157924
649.292	0.0160754
649.370	0.0159270
649.448	0.0159203
649.526	0.0158279
649.604	0.0160456
649.683	0.0159650
649.761	0.0159519
649.839	0.0159284
649.917	0.0159492
649.995	0.0159711
650.073	0.0158160
650.151	0.0159666
650.229	0.0159640
650.308	0.0158778
650.386	0.0159204
650.464	0.0159557
650.542	0.0159095
650.620	0.0159343
650.698	0.0160249
650.776	0.0158340
650.854	0.0158970
650.933	0.0160145
651.011	0.0158326
651.089	0.0159226
651.167	0.0158334
651.245	0.0159343
651.323	0.0159797
651.401	0.0158901
651.479	0.0160842
651.558	0.0160006
651.636	0.0159058
651.714	0.0159415
651.792	0.0158958
651.870	0.0158869
651.948	0.0159394
652.026	0.0159988
652.104	0.0159304
652.183	0.0158720
652.261	0.0159779
652.339	0.0159530
652.417	0.0158998
652.495	0.0160315
652.573	0.0158422
652.651	0.0159033
652.729	0.0158931
652.808	0.0159222
652.886	0.0159137
652.964	0.0160770
653.042	0.0158856
653.120	0.0159221
653.198	0.0160264
653.276	0.0159225
653.354	0.0159641
653.433	0.0159117
653.511	0.0159664
653.589	0.0159445
653.667	0.0158163
653.745	0.0158628
653.823	0.0160407
653.901	0.0159287
653.979	0.0160642
654.058	0.0159117
654.136	0.0160336
654.214	0.0157741
654.292	0.0159380
654.370	0.0158808
654.448	0.0158468
654.526	0.0160143
654.604	0.0160014
654.683	0.0158535
654.761	0.0158488
654.839	0.0159193
654.917	0.0159706
654.995	0.0159622
655.073	0.0159034
655.151	0.0158856
655.229	0.0158901
655.308	0.0160657
655.386	0.0158648
655.464	0.0159949
655.542	0.0158644
655.620	0.0157442
655.698	0.0160016
655.776	0.0158987
655.854	0.0159496
655.933	0.0159763
656.011	0.0157869
656.089	0.0158881
656.167	0.0159568
656.245	0.0159636
656.323	0.0158490
656.401	0.0158758
656.479	0.0159409
656.558	0.0159522
656.636	0.0158551
656.714	0.0158595
656.792	0.0159974
656.870	0.0158665
656.948	0.0158418
657.026	0.0158966
657.104	0.0159837
657.183	0.0160107
657.261	0.0160199
657.339	0.0158386
657.417	0.0159586
657.495	0.0158882
657.573	0.0160040
657.651	0.0159323
657.729	0.0159460
657.808	0.0158059
657.886	0.0159365
657.964	0.0158743
658.042	0.0158525
658.120	0.0160340
658.198	0.0159756
658.276	0.0159322
658.354	0.0158743
658.433	0.0159989
658.511	0.0158803
658.589	0.0157800
658.667	0.0158254
658.745	0.0158468
658.823	0.0158871
658.901	0.0159582
658.979	0.0159093
659.058	0.0158828
659.136	0.0159530
659.214	0.0159554
659.292	0.0158910
659.370	0.0158704
659.448	0.0159191
659.526	0.0158798
659.604	0.0159139
659.683	0.0157687
659.761	0.0159998
659.839	0.0158701
659.917	0.0159046
659.995	0.0159218
660.073	0.0158220
660.151	0.0158604
660.229	0.0157607
660.308	0.0159081
660.386	0.0157767
660.464	0.0159576
660.542	0.0159064
660.620	0.0159250
660.698	0.0159051
660.776	0.0160023
660.854	0.0158831
660.933	0.0158997
661.011	0.0159684
661.089	0.0157707
661.167	0.0158450
661.245	0.0159384
661.323	0.0158602
661.401	0.0158937
661.479	0.0159155
661.558	0.0158973
661.636	0.0159422
661.714	0.0160560
661.792	0.0158475
661.870	0.0157980
661.948	0.0158998
662.026	0.0159068
662.104	0.0158045
662.183	0.0157878
662.261	0.0158493
662.339	0.0158636
662.417	0.0158177
662.495	0.0158328
662.573	0.0159518
662.651	0.0159850
662.729	0.0158882
662.808	0.0159425
662.886	0.0158840
662.964	0.0158242
663.042	0.0159527
663.120	0.0157883
663.198	0.0157085
663.276	0.0158012
663.354	0.0158653
663.433	0.0159073
663.511	0.0158842
663.589	0.0160117
663.667	0.0159863
663.745	0.0158701
663.823	0.0158203
663.901	0.0158900
663.979	0.0158730
664.058	0.0157080
664.136	0.0158652
664.214	0.0158101
664.292	0.0160101
664.370	0.0159587
664.448	0.0157990
664.526	0.0157842
664.604	0.0157870
664.683	0.0158138
664.761	0.0158106
664.839	0.0157774
664.917	0.0157558
664.995	0.0158470
665.073	0.0158965
665.151	0.0158998
665.229	0.0158827
665.308	0.0160008
665.386	0.0159361
665.464	0.0158566
665.542	0.0158868
665.620	0.0158597
665.698	0.0158554
665.776	0.0158754
665.854	0.0158480
665.933	0.0157655
666.011	0.0158620
666.089	0.0160237
666.167	0.0158736
666.245	0.0159155
666.323	0.0158551
666.401	0.0159290
666.479	0.0159569
666.558	0.0157983
666.636	0.0157634
666.714	0.0158405
666.792	0.0158561
666.870	0.0158401
666.948	0.0158918
667.026	0.0158273
667.104	0.0159048
667.183	0.0159866
667.261	0.0158519
667.339	0.0158741
667.417	0.0159737
667.495	0.0159813
667.573	0.0159163
667.651	0.0158680
667.729	0.0158717
667.808	0.0159453
667.886	0.0158951
667.964	0.0157851
668.042	0.0160224
668.120	0.0159168
668.198	0.0157916
668.276	0.0159670
668.354	0.0158804
668.433	0.0159092
668.511	0.0159035
668.589	0.0158077
668.667	0.0159586
668.745	0.0158473
668.823	0.0158802
668.901	0.0158810
668.979	0.0158285
669.058	0.0157696
669.136	0.0158978
669.214	0.0159211
669.292	0.0158127
669.370	0.0157339
669.448	0.0158735
669.526	0.0159641
669.604	0.0157127
669.683	0.0158386
669.761	0.0158129
669.839	0.0158393
669.917	0.0158474
669.995	0.0159534
670.073	0.0160449
670.151	0.0159988
670.229	0.0158866
670.308	0.0158871
670.386	0.0159663
670.464	0.0159074
670.542	0.0159397
670.620	0.0159119
670.698	0.0158980
670.776	0.0158635
670.854	0.0157948
670.933	0.0160709
671.011	0.0159892
671.089	0.0157915
671.167	0.0158826
671.245	0.0158901
671.323	0.0160876
671.401	0.0159912
671.479	0.0158064
671.558	0.0159657
671.636	0.0158001
671.714	0.0159763
671.792	0.0159109
671.870	0.0158741
671.948	0.0159908
672.026	0.0158527
672.104	0.0158459
672.183	0.0159637
672.261	0.0158504
672.339	0.0159854
672.417	0.0159459
672.495	0.0158915
672.573	0.0159550
672.651	0.0159673
672.729	0.0158520
672.808	0.0159749
672.886	0.0159232
672.964	0.0158378
673.042	0.0158890
673.120	0.0159442
673.198	0.0157907
673.276	0.0158511
673.354	0.0159794
673.433	0.0157694
673.511	0.0159718
673.589	0.0158826
673.667	0.0159228
673.745	0.0158826
673.823	0.0159679
673.901	0.0158414
673.979	0.0160052
674.058	0.0159402
674.136	0.0158572
674.214	0.0159016
674.292	0.0158353
674.370	0.0159104
674.448	0.0159453
674.526	0.0159766
674.604	0.0158013
674.683	0.0158214
674.761	0.0160000
674.839	0.0159098
674.917	0.0159207
674.995	0.0158796
675.073	0.0158874
675.151	0.0159217
675.229	0.0159418
675.308	0.0159196
675.386	0.0159261
675.464	0.0158643
675.542	0.0159612
675.620	0.0159211
675.698	0.0159238
675.776	0.0159414
675.854	0.0158500
675.933	0.0159529
676.011	0.0158784
676.089	0.0159460
676.167	0.0158445
676.245	0.0160347
676.323	0.0159789
676.401	0.0159467
676.479	0.0159335
676.558	0.0158932
676.636	0.0159161
676.714	0.0158905
676.792	0.0159522
676.870	0.0160574
676.948	0.0158488
677.026	0.0158331
677.104	0.0160766
677.183	0.0160384
677.261	0.0159490
677.339	0.0160215
677.417	0.0158765
677.495	0.0158693
677.573	0.0160067
677.651	0.0160126
677.729	0.0160831
677.808	0.0158340
677.886	0.0159624
677.964	0.0159513
678.042	0.0158735
678.120	0.0159559
678.198	0.0158144
678.276	0.0158922
678.354	0.0159233
678.433	0.0158826
678.511	0.0159977
678.589	0.0158884
678.667	0.0159650
678.745	0.0158937
678.823	0.0158473
678.901	0.0159119
678.979	0.0159489
679.058	0.0158886
679.136	0.0160081
679.214	0.0160338
679.292	0.0159635
679.370	0.0159243
679.448	0.0159032
679.526	0.0158469
679.604	0.0159523
679.683	0.0159872
679.761	0.0159292
679.839	0.0159370
679.917	0.0158654
679.995	0.0159895
680.073	0.0159595
680.151	0.0157721
680.229	0.0159375
680.308	0.0159674
680.386	0.0159404
680.464	0.0158826
680.542	0.0158643
680.620	0.0160878
680.698	0.0159148
680.776	0.0160298
680.854	0.0159666
680.933	0.0158317
681.011	0.0158643
681.089	0.0157969
681.167	0.0158698
681.245	0.0159454
681.323	0.0158911
681.401	0.0158503
681.479	0.0157520
681.558	0.0159852
681.636	0.0158411
681.714	0.0159650
681.792	0.0159672
681.870	0.0158591
681.948	0.0157516
682.026	0.0157743
682.104	0.0159569
682.183	0.0160149
682.261	0.0158609
682.339	0.0157783
682.417	0.0158221
682.495	0.0159527
682.573	0.0159869
682.651	0.0160236
682.729	0.0159856
682.808	0.0158990
682.886	0.0159618
682.964	0.0159609
683.042	0.0160229
683.120	0.0160615
683.198	0.0159875
683.276	0.0158901
683.354	0.0159663
683.433	0.0159373
683.511	0.0158963
683.589	0.0158794
683.667	0.0159431
683.745	0.0159659
683.823	0.0159046
683.901	0.0158802
683.979	0.0159172
684.058	0.0157819
684.136	0.0159866
684.214	0.0158148
684.292	0.0157354
684.370	0.0158090
684.448	0.0158144
684.526	0.0160213
684.604	0.0158999
684.683	0.0158405
684.761	0.0158804
684.839	0.0159660
684.917	0.0158619
684.995	0.0158517
685.073	0.0159650
685.151	0.0159265
685.229	0.0158855
685.308	0.0158101
685.386	0.0158207
685.464	0.0159693
685.542	0.0159106
685.620	0.0159220
685.698	0.0158459
685.776	0.0158741
685.854	0.0159118
685.933	0.0160276
686.011	0.0158532
686.089	0.0159510
686.167	0.0159225
686.245	0.0158332
686.323	0.0158932
686.401	0.0158594
686.479	0.0158979
686.558	0.0158984
686.636	0.0159876
686.714	0.0158728
686.792	0.0159251
686.870	0.0157833
686.948	0.0158976
687.026	0.0158141
687.104	0.0157997
687.183	0.0158513
687.261	0.0158451
687.339	0.0159132
687.417	0.0158635
687.495	0.0158308
687.573	0.0159097
687.651	0.0157700
687.729	0.0158994
687.808	0.0159903
687.886	0.0158787
687.964	0.0159295
688.042	0.0159560
688.120	0.0159856
688.198	0.0160078
688.276	0.0159085
688.354	0.0157594
688.433	0.0158842
688.511	0.0159088
688.589	0.0158732
688.667	0.0158853
688.745	0.0158902
688.823	0.0158423
688.901	0.0157909
688.979	0.0159412
689.058	0.0160213
689.136	0.0158601
689.214	0.0158637
689.292	0.0159346
689.370	0.0158868
689.448	0.0158794
689.526	0.0158369
689.604	0.0158805
689.683	0.0159860
689.761	0.0158679
689.839	0.0158260
689.917	0.0159258
689.995	0.0159721
690.073	0.0160358
690.151	0.0157606
690.229	0.0158647
690.308	0.0160013
690.386	0.0158539
690.464	0.0158138
690.542	0.0158170
690.620	0.0159422
690.698	0.0158235
690.776	0.0159174
690.854	0.0158480
690.933	0.0159158
691.011	0.0157866
691.089	0.0157949
691.167	0.0159301
691.245	0.0158995
691.323	0.0159674
691.401	0.0158441
691.479	0.0159777
691.558	0.0159068
691.636	0.0158669
691.714	0.0157435
691.792	0.0159776
691.870	0.0159505
691.948	0.0159137
692.026	0.0159627
692.104	0.0159087
692.183	0.0159316
692.261	0.0158805
692.339	0.0158836
692.417	0.0158434
692.495	0.0160334
692.573	0.0158613
692.651	0.0159071
692.729	0.0158498
692.808	0.0157813
692.886	0.0158972
692.964	0.0159175
693.042	0.0159019
693.120	0.0160992
693.198	0.0159185
693.276	0.0158073
693.354	0.0158778
693.433	0.0157390
693.511	0.0158096
693.589	0.0159752
693.667	0.0159944
693.745	0.0158549
693.823	0.0159057
693.901	0.0160162
693.979	0.0159706
694.058	0.0159525
694.136	0.0160353
694.214	0.0159486
694.292	0.0159373
694.370	0.0158626
694.448	0.0158702
694.526	0.0159010
694.604	0.0159026
694.683	0.0158529
694.761	0.0159798
694.839	0.0159780
694.917	0.0160327
694.995	0.0157623
695.073	0.0159039
695.151	0.0158455
695.229	0.0158717
695.308	0.0158408
695.386	0.0160069
695.464	0.0160590
695.542	0.0158252
695.620	0.0158361
695.698	0.0158685
695.776	0.0158293
695.854	0.0158949
695.933	0.0158344
696.011	0.0157323
696.089	0.0158486
696.167	0.0159973
696.245	0.0159294
696.323	0.0158658
696.401	0.0159177
696.479	0.0158580
696.558	0.0157152
696.636	0.0159314
696.714	0.0159534
696.792	0.0158366
696.870	0.0160111
696.948	0.0159335
697.026	0.0159039
697.104	0.0158151
697.183	0.0159049
697.261	0.0158295
697.339	0.0158797
697.417	0.0159644
697.495	0.0159808
697.573	0.0159268
697.651	0.0158972
697.729	0.0158530
697.808	0.0158921
697.886	0.0159229
697.964	0.0158952
698.042	0.0159710
698.120	0.0157996
698.198	0.0160474
698.276	0.0157988
698.354	0.0158981
698.433	0.0159133
698.511	0.0159882
698.589	0.0158650
698.667	0.0158660
698.745	0.0159097
698.823	0.0158414
698.901	0.0159273
698.979	0.0158746
699.058	0.0157890
699.136	0.0158971
699.214	0.0159177
699.292	0.0158858
699.370	0.0157490
699.448	0.0159622
699.526	0.0160144
699.604	0.0159666
699.683	0.0160126
699.761	0.0159129
699.839	0.0157968
699.917	0.0158434
699.995	0.0158485
700.073	0.0159535
700.151	0.0159733
700.229	0.0158456
700.308	0.0159056
700.386	0.0158084
700.464	0.0159103
700.542	0.0159640
700.620	0.0159779
700.698	0.0158838
700.776	0.0159211
700.854	0.0157420
700.933	0.0159654
701.011	0.0158843
701.089	0.0158597
701.167	0.0158733
701.245	0.0158356
701.323	0.0159334
701.401	0.0158989
701.479	0.0158887
701.558	0.0159623
701.636	0.0158875
701.714	0.0159583
701.792	0.0158037
701.870	0.0157977
701.948	0.0158318
702.026	0.0159174
702.104	0.0158915
702.183	0.0159229
702.261	0.0158888
702.339	0.0158731
702.417	0.0158729
702.495	0.0158345
702.573	0.0159373
702.651	0.0158927
702.729	0.0158166
702.808	0.0157877
702.886	0.0160151
702.964	0.0158347
703.042	0.0158509
703.120	0.0158418
703.198	0.0159045
703.276	0.0159261
703.354	0.0158366
703.433	0.0157349
703.511	0.0160091
703.589	0.0160263
703.667	0.0158270
703.745	0.0159675
703.823	0.0159007
703.901	0.0159608
703.979	0.0158484
704.058	0.0159247
704.136	0.0159718
704.214	0.0159475
704.292	0.0159668
704.370	0.0158828
704.448	0.0157394
704.526	0.0159271
704.604	0.0160151
704.683	0.0158266
704.761	0.0157533
704.839	0.0157413
704.917	0.0157812
704.995	0.0159032
705.073	0.0158472
705.151	0.0159089
705.229	0.0159883
705.308	0.0157925
705.386	0.0158611
705.464	0.0158776
705.542	0.0159678
705.620	0.0159467
705.698	0.0158295
705.776	0.0158546
705.854	0.0158854
705.933	0.0159299
706.011	0.0159918
706.089	0.0158287
706.167	0.0158511
706.245	0.0158972
706.323	0.0158685
706.401	0.0159454
706.479	0.0159950
706.558	0.0158871
706.636	0.0159739
706.714	0.0158996
706.792	0.0159167
706.870	0.0158524
706.948	0.0158789
707.026	0.0160330
707.104	0.0159238
707.183	0.0158221
707.261	0.0157316
707.339	0.0158003
707.417	0.0159526
707.495	0.0159309
707.573	0.0158653
707.651	0.0159166
707.729	0.0159923
707.808	0.0159431
707.886	0.0158446
707.964	0.0159140
708.042	0.0158628
708.120	0.0159585
708.198	0.0159310
708.276	0.0159398
708.354	0.0158413
708.433	0.0158612
708.511	0.0159336
708.589	0.0160299
708.667	0.0159697
708.745	0.0158658
708.823	0.0160371
708.901	0.0160120
708.979	0.0159471
709.058	0.0159319
709.136	0.0161225
709.214	0.0159534
709.292	0.0159837
709.370	0.0160329
709.448	0.0159460
709.526	0.0158177
709.604	0.0161002
709.683	0.0160003
709.761	0.0158430
709.839	0.0159226
709.917	0.0158329
709.995	0.0158397
710.073	0.0158684
710.151	0.0159698
710.229	0.0158522
710.308	0.0158395
710.386	0.0160662
710.464	0.0159819
710.542	0.0157288
710.620	0.0158807
710.698	0.0159299
710.776	0.0158075
710.854	0.0159698
710.933	0.0160398
711.011	0.0160367
711.089	0.0159859
711.167	0.0159115
711.245	0.0159359
711.323	0.0158189
711.401	0.0159312
711.479	0.0158298
711.558	0.0158630
711.636	0.0158643
711.714	0.0158242
711.792	0.0159109
711.870	0.0159847
711.948	0.0158923
712.026	0.0158722
712.104	0.0158955
712.183	0.0157466
712.261	0.0158783
712.339	0.0158602
712.417	0.0160241
712.495	0.0159123
712.573	0.0158772
712.651	0.0159795
712.729	0.0158438
712.808	0.0158804
712.886	0.0158548
712.964	0.0160120
713.042	0.0159329
713.120	0.0160468
713.198	0.0160231
713.276	0.0158934
713.354	0.0158739
713.433	0.0158571
713.511	0.0158073
713.589	0.0159996
713.667	0.0159306
713.745	0.0159121
713.823	0.0159579
713.901	0.0158979
713.979	0.0159721
714.058	0.0158994
714.136	0.0160535
714.214	0.0157607
714.292	0.0159212
714.370	0.0159686
714.448	0.0160538
714.526	0.0158188
714.604	0.0158731
714.683	0.0159942
714.761	0.0157521
714.839	0.0160605
714.917	0.0158852
714.995	0.0158040
715.073	0.0158991
715.151	0.0159913
715.229	0.0158649
715.308	0.0158451
715.386	0.0159755
715.464	0.0159383
715.542	0.0159150
715.620	0.0159062
715.698	0.0158723
715.776	0.0159347
715.854	0.0157947
715.933	0.0160103
716.011	0.0159537
716.089	0.0158060
716.167	0.0159432
716.245	0.0158367
716.323	0.0158880
716.401	0.0160094
716.479	0.0158974
716.558	0.0158904
716.636	0.0158793
716.714	0.0158913
716.792	0.0159382
716.870	0.0158610
716.948	0.0157798
717.026	0.0158823
717.104	0.0159967
717.183	0.0159885
717.261	0.0158377
717.339	0.0158270
717.417	0.0158642
717.495	0.0158997
717.573	0.0159439
717.651	0.0158622
717.729	0.0158270
717.808	0.0158027
717.886	0.0157918
717.964	0.0158604
718.042	0.0157846
718.120	0.0156779
718.198	0.0158041
718.276	0.0159947
718.354	0.0159915
718.433	0.0158920
718.511	0.0158389
718.589	0.0158152
718.667	0.0158968
718.745	0.0158880
718.823	0.0157367
718.901	0.0158538
718.979	0.0158871
719.058	0.0158539
719.136	0.0159523
719.214	0.0158792
719.292	0.0158430
719.370	0.0158096
719.448	0.0159998
719.526	0.0158721
719.604	0.0158061
719.683	0.0157832
719.761	0.0158275
719.839	0.0158310
719.917	0.0157085
719.995	0.0157952
720.073	0.0158466
720.151	0.0158426
720.229	0.0156570
720.308	0.0157632
720.386	0.0158436
720.464	0.0157546
720.542	0.0158172
720.620	0.0158884
720.698	0.0159056
720.776	0.0157339
720.854	0.0158409
720.933	0.0157333
721.011	0.0157507
721.089	0.0157412
721.167	0.0158519
721.245	0.0156803
721.323	0.0158174
721.401	0.0156943
721.479	0.0157793
721.558	0.0157579
721.636	0.0158286
721.714	0.0157296
721.792	0.0157536
721.870	0.0158011
721.948	0.0158463
722.026	0.0157517
722.104	0.0157408
722.183	0.0158533
722.261	0.0158047
722.339	0.0158375
722.417	0.0157285
722.495	0.0157019
722.573	0.0157856
722.651	0.0157505
722.729	0.0158839
722.808	0.0158024
722.886	0.0157358
722.964	0.0159175
723.042	0.0159098
723.120	0.0157502
723.198	0.0157822
723.276	0.0158639
723.354	0.0158197
723.433	0.0157742
723.511	0.0158051
723.589	0.0159615
723.667	0.0158811
723.745	0.0158466
723.823	0.0159007
723.901	0.0158514
723.979	0.0157698
724.058	0.0157983
724.136	0.0158028
724.214	0.0158657
724.292	0.0158405
724.370	0.0158366
724.448	0.0158321
724.526	0.0159737
724.604	0.0158860
724.683	0.0157505
724.761	0.0159004
724.839	0.0158949
724.917	0.0158486
724.995	0.0158680
725.073	0.0159296
725.151	0.0158450
725.229	0.0158485
725.308	0.0158869
725.386	0.0159587
725.464	0.0159254
725.542	0.0158827
725.620	0.0158373
725.698	0.0158775
725.776	0.0158881
725.854	0.0158547
725.933	0.0159080
726.011	0.0159422
726.089	0.0157512
726.167	0.0158604
726.245	0.0159018
726.323	0.0159431
726.401	0.0158208
726.479	0.0159776
726.558	0.0158965
726.636	0.0158683
726.714	0.0158910
726.792	0.0158794
726.870	0.0160471
726.948	0.0159771
727.026	0.0157795
727.104	0.0159560
727.183	0.0159123
727.261	0.0159357
727.339	0.0157835
727.417	0.0158179
727.495	0.0158636
727.573	0.0158661
727.651	0.0159660
727.729	0.0159463
727.808	0.0159561
727.886	0.0158511
727.964	0.0159644
728.042	0.0158808
728.120	0.0158739
728.198	0.0157429
728.276	0.0159763
728.354	0.0159609
728.433	0.0158988
728.511	0.0159660
728.589	0.0160092
728.667	0.0157407
728.745	0.0158952
728.823	0.0159025
728.901	0.0158718
728.979	0.0159968
729.058	0.0159838
729.136	0.0159822
729.214	0.0159038
729.292	0.0158521
729.370	0.0158488
729.448	0.0159882
729.526	0.0159254
729.604	0.0158939
729.683	0.0159374
729.761	0.0160542
729.839	0.0160701
729.917	0.0159105
729.995	0.0159557
730.073	0.0159541
730.151	0.0159488
730.229	0.0158144
730.308	0.0159253
730.386	0.0161179
730.464	0.0158667
730.542	0.0159763
730.620	0.0159930
730.698	0.0158553
730.776	0.0160149
730.854	0.0158855
730.933	0.0158984
731.011	0.0159111
731.089	0.0159740
731.167	0.0158799
731.245	0.0159948
731.323	0.0159532
731.401	0.0159282
731.479	0.0160832
731.558	0.0160912
731.636	0.0160331
731.714	0.0159930
731.792	0.0159238
731.870	0.0159211
731.948	0.0158829
732.026	0.0159711
732.104	0.0159283
732.183	0.0160153
732.261	0.0159859
732.339	0.0159770
732.417	0.0158904
732.495	0.0157056
732.573	0.0159248
732.651	0.0160360
732.729	0.0161465
732.808	0.0158844
732.886	0.0158105
732.964	0.0159894
733.042	0.0159231
733.120	0.0157518
733.198	0.0157483
733.276	0.0159416
733.354	0.0158290
733.433	0.0159045
733.511	0.0158353
733.589	0.0158855
733.667	0.0160065
733.745	0.0159949
733.823	0.0157519
733.901	0.0158329
733.979	0.0159393
734.058	0.0159379
734.136	0.0158488
734.214	0.0158140
734.292	0.0158414
734.370	0.0158513
734.448	0.0158503
734.526	0.0159383
734.604	0.0157685
734.683	0.0157891
734.761	0.0158613
734.839	0.0158357
734.917	0.0159087
734.995	0.0158642
735.073	0.0158458
735.151	0.0158567
735.229	0.0158305
735.308	0.0158146
735.386	0.0158272
735.464	0.0159321
735.542	0.0158279
735.620	0.0158959
735.698	0.0158134
735.776	0.0158746
735.854	0.0158949
735.933	0.0160085
736.011	0.0158411
736.089	0.0158156
736.167	0.0159724
736.245	0.0158641
736.323	0.0158636
736.401	0.0159625
736.479	0.0159451
736.558	0.0159975
736.636	0.0160522
736.714	0.0159573
736.792	0.0159302
736.870	0.0160143
736.948	0.0159124
737.026	0.0158104
737.104	0.0159999
737.183	0.0160258
737.261	0.0159686
737.339	0.0157682
737.417	0.0158666
737.495	0.0159772
737.573	0.0159824
737.651	0.0158278
737.729	0.0156393
737.808	0.0156354
737.886	0.0157929
737.964	0.0154890
738.042	0.0155363
738.120	0.0155682
738.198	0.0154691
738.276	0.0155741
738.354	0.0158688
738.433	0.0159045
738.511	0.0159758
738.589	0.0163074
738.667	0.0163903
738.745	0.0163821
738.823	0.0166467
738.901	0.0165710
738.979	0.0165285
739.058	0.0165015
739.136	0.0165611
739.214	0.0164845
739.292	0.0161540
739.370	0.0159554
739.448	0.0157079
739.526	0.0155685
739.604	0.0154251
739.683	0.0152184
739.761	0.0148215
739.839	0.0146064
739.917	0.0143457
739.995	0.0144576
740.073	0.0144031
740.151	0.0144393
740.229	0.0147610
740.308	0.0150290
740.386	0.0156609
740.464	0.0161594
740.542	0.0168253
740.620	0.0173746
740.698	0.0177326
740.776	0.0179652
740.854	0.0180731
740.933	0.0178622
741.011	0.0174963
741.089	0.0170337
741.167	0.0164801
741.245	0.0159720
741.323	0.0156245
741.401	0.0154379
741.479	0.0150870
741.558	0.0148301
741.636	0.0149171
741.714	0.0150693
741.792	0.0151173
741.870	0.0151355
741.948	0.0152375
742.026	0.0152371
742.104	0.0150668
742.183	0.0150481
742.261	0.0148338
742.339	0.0146336
742.417	0.0146534
742.495	0.0147622
742.573	0.0149054
742.651	0.0149507
742.729	0.0154582
742.808	0.0162434
742.886	0.0165717
742.964	0.0172528
743.042	0.0177652
743.120	0.0180197
743.198	0.0179990
743.276	0.0179159
743.354	0.0178627
743.433	0.0173362
743.511	0.0170065
743.589	0.0167725
743.667	0.0161905
743.745	0.0157762
743.823	0.0155794
743.901	0.0152171
743.979	0.0149706
744.058	0.0147282
744.136	0.0145985
744.214	0.0142751
744.292	0.0142065
744.370	0.0141455
744.448	0.0140014
744.526	0.0139875
744.604	0.0142733
744.683	0.0143615
744.761	0.0147560
744.839	0.0151273
744.917	0.0155478
744.995	0.0158606
745.073	0.0163717
745.151	0.0168160
745.229	0.0172341
745.308	0.0175433
745.386	0.0178947
745.464	0.0180811
745.542	0.0182626
745.620	0.0181985
745.698	0.0181266
745.776	0.0177731
745.854	0.0172655
745.933	0.0167641
746.011	0.0160681
746.089	0.0154713
746.167	0.0149890
746.245	0.0145197
746.323	0.0142677
746.401	0.0141943
746.479	0.0141428
746.558	0.0141760
746.636	0.0142838
746.714	0.0146195
746.792	0.0148126
746.870	0.0149240
746.948	0.0152511
747.026	0.0154067
747.104	0.0156318
747.183	0.0157946
747.261	0.0158183
747.339	0.0159713
747.417	0.0160175
747.495	0.0161236
747.573	0.0161008
747.651	0.0163102
747.729	0.0163884
747.808	0.0167628
747.886	0.0168536
747.964	0.0170222
748.042	0.0172177
748.120	0.0172652
748.198	0.0170371
748.276	0.0172346
748.354	0.0170826
748.433	0.0167011
748.511	0.0164502
748.589	0.0161933
748.667	0.0157527
748.745	0.0156648
748.823	0.0154906
748.901	0.0152532
748.979	0.0149952
749.058	0.0147749
749.136	0.0145810
749.214	0.0147600
749.292	0.0146831
749.370	0.0148615
749.448	0.0150101
749.526	0.0151071
749.604	0.0153027
749.683	0.0156033
749.761	0.0157507
749.839	0.0158279
749.917	0.0159403
749.995	0.0159955
750.073	0.0160170
750.151	0.0163564
750.229	0.0165437
750.308	0.0165704
750.386	0.0167654
750.464	0.0166990
750.542	0.0165563
750.620	0.0164176
750.698	0.0163175
750.776	0.0163342
750.854	0.0161977
750.933	0.0161076
751.011	0.0160752
751.089	0.0160312
751.167	0.0160828
751.245	0.0159508
751.323	0.0158981
751.401	0.0159061
751.479	0.0158652
751.558	0.0159592
751.636	0.0157514
751.714	0.0157486
751.792	0.0157905
751.870	0.0157101
751.948	0.0156492
752.026	0.0155352
752.104	0.0155836
752.183	0.0154698
752.261	0.0155479
752.339	0.0155257
752.417	0.0155473
752.495	0.0156842
752.573	0.0156554
752.651	0.0156696
752.729	0.0156958
752.808	0.0157557
752.886	0.0156924
752.964	0.0158823
753.042	0.0160006
753.120	0.0160835
753.198	0.0161655
753.276	0.0162441
753.354	0.0162151
753.433	0.0161816
753.511	0.0163464
753.589	0.0162490
753.667	0.0163220
753.745	0.0165206
753.823	0.0163744
753.901	0.0161751
753.979	0.0161447
754.058	0.0162156
754.136	0.0162187
754.214	0.0159618
754.292	0.0160591
754.370	0.0159763
754.448	0.0158836
754.526	0.0159612
754.604	0.0156706
754.683	0.0155764
754.761	0.0154878
754.839	0.0154404
754.917	0.0153497
754.995	0.0152559
755.073	0.0154987
755.151	0.0152946
755.229	0.0152200
755.308	0.0154527
755.386	0.0155177
755.464	0.0156066
755.542	0.0156601
755.620	0.0159370
755.698	0.0160482
755.776	0.0161959
755.854	0.0163342
755.933	0.0164993
756.011	0.0165243
756.089	0.0163925
756.167	0.0164957
756.245	0.0164312
756.323	0.0163977
756.401	0.0164320
756.479	0.0161922
756.558	0.0162457
756.636	0.0162027
756.714	0.0161015
756.792	0.0161172
756.870	0.0159840
756.948	0.0159119
757.026	0.0160358
757.104	0.0158096
757.183	0.0158772
757.261	0.0158723
757.339	0.0157495
757.417	0.0156895
757.495	0.0157687
757.573	0.0155109
757.651	0.0154850
757.729	0.0153723
757.808	0.0152645
757.886	0.0152782
757.964	0.0153660
758.042	0.0153408
758.120	0.0153911
758.198	0.0157516
758.276	0.0158340
758.354	0.0158099
758.433	0.0161382
758.511	0.0162084
758.589	0.0163176
758.667	0.0165076
758.745	0.0166475
758.823	0.0167995
758.901	0.0168713
758.979	0.0167935
759.058	0.0168449
759.136	0.0167442
759.214	0.0165448
759.292	0.0164049
759.370	0.0161868
759.448	0.0161788
759.526	0.0159772
759.604	0.0158898
759.683	0.0156985
759.761	0.0154274
759.839	0.0153533
759.917	0.0153596
759.995	0.0152722
760.073	0.0152097
760.151	0.0151878
760.229	0.0151021
760.308	0.0151817
760.386	0.0152111
760.464	0.0153650
760.542	0.0155880
760.620	0.0155677
760.698	0.0158294
760.776	0.0159880
760.854	0.0159715
760.933	0.0159033
761.011	0.0158956
761.089	0.0160080
761.167	0.0159582
761.245	0.0157429
761.323	0.0158685
761.401	0.0158763
761.479	0.0158517
761.558	0.0160672
761.636	0.0160864
761.714	0.0161684
761.792	0.0162326
761.870	0.0161871
761.948	0.0163887
762.026	0.0164211
762.104	0.0164964
762.183	0.0163770
762.261	0.0165160
762.339	0.0166147
762.417	0.0164742
762.495	0.0164829
762.573	0.0164192
762.651	0.0165012
762.729	0.0162633
762.808	0.0160386
762.886	0.0158604
762.964	0.0157767
763.042	0.0156219
763.120	0.0154446
763.198	0.0155240
763.276	0.0153114
763.354	0.0151827
763.433	0.0152091
763.511	0.0151010
763.589	0.0149001
763.667	0.0147124
763.745	0.0148508
763.823	0.0147759
763.901	0.0147079
763.979	0.0148360
764.058	0.0148543
764.136	0.0150237
764.214	0.0149984
764.292	0.0152052
764.370	0.0155878
764.448	0.0157525
764.526	0.0158298
764.604	0.0162376
764.683	0.0165277
764.761	0.0166497
764.839	0.0167850
764.917	0.0171307
764.995	0.0170821
765.073	0.0172406
765.151	0.0172393
765.229	0.0171738
765.308	0.0171381
765.386	0.0171008
765.464	0.0171360
765.542	0.0169756
765.620	0.0169090
765.698	0.0168767
765.776	0.0167448
765.854	0.0167432
765.933	0.0166969
766.011	0.0166457
766.089	0.0165493
766.167	0.0163084
766.245	0.0162057
766.323	0.0159335
766.401	0.0158204
766.479	0.0154226
766.558	0.0152086
766.636	0.0151474
766.714	0.0146748
766.792	0.0143772
766.870	0.0142253
766.948	0.0138546
767.026	0.0137656
767.104	0.0135879
767.183	0.0135717
767.261	0.0136154
767.339	0.0136089
767.417	0.0139053
767.495	0.0139047
767.573	0.0141266
767.651	0.0145855
767.729	0.0147439
767.808	0.0151569
767.886	0.0154394
767.964	0.0158520
768.042	0.0162428
768.120	0.0166723
768.198	0.0170026
768.276	0.0174571
768.354	0.0177072
768.433	0.0181160
768.511	0.0182475
768.589	0.0183379
768.667	0.0184564
768.745	0.0184823
768.823	0.0182399
768.901	0.0181792
768.979	0.0177926
769.058	0.0177662
769.136	0.0174916
769.214	0.0169214
769.292	0.0165733
769.370	0.0162272
769.448	0.0159700
769.526	0.0154007
769.604	0.0151402
769.683	0.0148956
769.761	0.0146929
769.839	0.0145085
769.917	0.0145231
769.995	0.0144528
770.073	0.0147228
770.151	0.0147009
770.229	0.0148671
770.308	0.0149976
770.386	0.0152779
770.464	0.0154862
770.542	0.0156964
770.620	0.0158640
770.698	0.0161670
770.776	0.0161613
770.854	0.0163005
770.933	0.0162802
771.011	0.0160451
771.089	0.0160577
771.167	0.0158883
771.245	0.0156994
771.323	0.0155374
771.401	0.0153696
771.479	0.0151057
771.558	0.0148384
771.636	0.0147009
771.714	0.0146719
771.792	0.0144196
771.870	0.0143427
771.948	0.0144741
772.026	0.0142304
772.104	0.0141498
772.183	0.0143095
772.261	0.0143594
772.339	0.0147797
772.417	0.0149346
772.495	0.0151959
772.573	0.0155043
772.651	0.0159530
772.729	0.0161440
772.808	0.0165989
772.886	0.0169985
772.964	0.0174504
773.042	0.0177486
773.120	0.0179702
773.198	0.0181789
773.276	0.0182784
773.354	0.0182424
773.433	0.0183144
773.511	0.0182172
773.589	0.0179295
773.667	0.0179427
773.745	0.0178470
773.823	0.0176038
773.901	0.0171609
773.979	0.0169713
774.058	0.0166692
774.136	0.0164704
774.214	0.0161583
774.292	0.0159822
774.370	0.0155164
774.448	0.0154138
774.526	0.0152619
774.604	0.0148868
774.683	0.0146242
774.761	0.0146725
774.839	0.0146129
774.917	0.0144955
774.995	0.0143663
775.073	0.0145201
775.151	0.0146334
775.229	0.0146938
775.308	0.0146844
775.386	0.0148357
775.464	0.0149352
775.542	0.0149409
775.620	0.0149492
775.698	0.0149276
775.776	0.0149595
775.854	0.0151299
775.933	0.0148847
776.011	0.0149351
776.089	0.0148606
776.167	0.0147608
776.245	0.0146522
776.323	0.0147643
776.401	0.0148447
776.479	0.0146324
776.558	0.0148458
776.636	0.0147613
776.714	0.0149911
776.792	0.0151853
776.870	0.0152930
776.948	0.0154868
777.026	0.0156973
777.104	0.0159610
777.183	0.0161362
777.261	0.0162558
777.339	0.0164159
777.417	0.0168476
777.495	0.0174584
777.573	0.0176369
777.651	0.0180409
777.729	0.0182749
777.808	0.0186205
777.886	0.0189332
777.964	0.0191531
778.042	0.0192387
778.120	0.0192335
778.198	0.0191826
778.276	0.0189223
778.354	0.0187314
778.433	0.0183720
778.511	0.0180653
778.589	0.0176564
778.667	0.0171185
778.745	0.0167398
778.823	0.0160797
778.901	0.0154868
778.979	0.0150685
779.058	0.0146169
779.136	0.0143021
779.214	0.0138049
779.292	0.0135976
779.370	0.0133860
779.448	0.0132470
779.526	0.0131929
779.604	0.0132760
779.683	0.0134193
779.761	0.0135778
779.839	0.0137788
779.917	0.0140954
779.995	0.0144212
780.073	0.0147208
780.151	0.0149670
780.229	0.0150275
780.308	0.0153544
780.386	0.0155671
780.464	0.0157146
780.542	0.0158731
780.620	0.0160095
780.698	0.0161619
780.776	0.0163975
780.854	0.0164285
780.933	0.0164753
781.011	0.0164331
781.089	0.0163331
781.167	0.0161342
781.245	0.0160471
781.323	0.0156238
781.401	0.0154367
781.479	0.0150760
781.558	0.0148967
781.636	0.0145779
781.714	0.0141920
781.792	0.0141238
781.870	0.0141149
781.948	0.0139575
782.026	0.0141103
782.104	0.0143258
782.183	0.0145476
782.261	0.0149749
782.339	0.0154909
782.417	0.0161707
782.495	0.0168999
782.573	0.0176352
782.651	0.0182642
782.729	0.0190717
782.808	0.0198312
782.886	0.0204247
782.964	0.0208589
783.042	0.0211417
783.120	0.0211678
783.198	0.0211062
783.276	0.0207610
783.354	0.0204282
783.433	0.0197948
783.511	0.0189603
783.589	0.0181220
783.667	0.0173102
783.745	0.0163123
783.823	0.0152975
783.901	0.0145178
783.979	0.0134422
784.058	0.0129318
784.136	0.0123175
784.214	0.0121037
784.292	0.0117390
784.370	0.0117853
784.448	0.0117755
784.526	0.0120348
784.604	0.0124829
784.683	0.0129536
784.761	0.0135206
784.839	0.0139777
784.917	0.0144383
784.995	0.0148528
785.073	0.0153057
785.151	0.0155679
785.229	0.0158833
785.308	0.0160242
785.386	0.0162592
785.464	0.0163058
785.542	0.0162295
785.620	0.0161320
785.698	0.0160254
785.776	0.0162058
785.854	0.0161682
785.933	0.0162060
786.011	0.0160905
786.089	0.0160496
786.167	0.0161358
786.245	0.0162594
786.323	0.0160349
786.401	0.0158434
786.479	0.0157685
786.558	0.0155596
786.636	0.0153908
786.714	0.0151233
786.792	0.0149515
786.870	0.0145950
786.948	0.0145256
787.026	0.0143405
787.104	0.0142688
787.183	0.0142325
787.261	0.0144258
787.339	0.0147080
787.417	0.0151125
787.495	0.0158165
787.573	0.0162846
787.651	0.0168027
787.729	0.0175681
787.808	0.0185543
787.886	0.0193314
787.964	0.0200671
788.042	0.0207498
788.120	0.0213732
788.198	0.0217586
788.276	0.0219171
788.354	0.0219235
788.433	0.0217319
788.511	0.0214777
788.589	0.0207708
788.667	0.0199776
788.745	0.0191051
788.823	0.0180223
788.901	0.0168906
788.979	0.0157915
789.058	0.0145950
789.136	0.0135052
789.214	0.0126305
789.292	0.0118502
789.370	0.0110143
789.448	0.0108025
789.526	0.0104816
789.604	0.0105091
789.683	0.0105254
789.761	0.0108279
789.839	0.0111311
789.917	0.0114719
789.995	0.0120927
790.073	0.0124689
790.151	0.0129947
790.229	0.0135961
790.308	0.0139567
790.386	0.0144576
790.464	0.0149446
790.542	0.0152465
790.620	0.0155848
790.698	0.0158414
790.776	0.0159818
790.854	0.0161393
790.933	0.0162792
791.011	0.0163076
791.089	0.0163313
791.167	0.0164677
791.245	0.0164828
791.323	0.0165714
791.401	0.0166536
791.479	0.0167131
791.558	0.0167416
791.636	0.0168014
791.714	0.0164566
791.792	0.0164954
791.870	0.0163991
791.948	0.0161674
792.026	0.0161206
792.104	0.0160950
792.183	0.0160044
792.261	0.0158515
792.339	0.0159845
792.417	0.0162961
792.495	0.0163911
792.573	0.0168002
792.651	0.0171416
792.729	0.0175044
792.808	0.0179507
792.886	0.0186178
792.964	0.0189970
793.042	0.0194518
793.120	0.0199689
793.198	0.0202952
793.276	0.0205695
793.354	0.0207211
793.433	0.0206476
793.511	0.0204745
793.589	0.0200312
793.667	0.0195612
793.745	0.0190182
793.823	0.0182533
793.901	0.0174126
793.979	0.0164504
794.058	0.0155389
794.136	0.0144137
794.214	0.0134040
794.292	0.0124261
794.370	0.0115910
794.448	0.0110444
794.526	0.0106422
794.604	0.0101444
794.683	0.00996048
794.761	0.0102315
794.839	0.0103923
794.917	0.0105642
794.995	0.0110806
795.073	0.0117686
795.151	0.0125389
795.229	0.0131655
795.308	0.0139933
795.386	0.0148817
795.464	0.0154615
795.542	0.0159898
795.620	0.0164040
795.698	0.0169074
795.776	0.0171227
795.854	0.0172216
795.933	0.0173224
796.011	0.0172826
796.089	0.0173051
796.167	0.0172543
796.245	0.0173015
796.323	0.0169895
796.401	0.0168910
796.479	0.0167809
796.558	0.0166293
796.636	0.0166837
796.714	0.0164250
796.792	0.0162817
796.870	0.0163204
796.948	0.0161504
797.026	0.0157478
797.104	0.0158224
797.183	0.0157264
797.261	0.0156046
797.339	0.0156244
797.417	0.0156275
797.495	0.0156252
797.573	0.0157626
797.651	0.0160818
797.729	0.0161144
797.808	0.0164680
797.886	0.0168186
797.964	0.0170293
798.042	0.0174391
798.120	0.0178578
798.198	0.0182607
798.276	0.0185946
798.354	0.0187484
798.433	0.0191008
798.511	0.0191795
798.589	0.0191703
798.667	0.0191272
798.745	0.0190056
798.823	0.0186499
798.901	0.0183076
798.979	0.0178944
799.058	0.0174485
799.136	0.0166566
799.214	0.0161089
799.292	0.0155504
799.370	0.0149626
799.448	0.0143842
799.526	0.0138674
799.604	0.0133846
799.683	0.0129586
799.761	0.0128534
799.839	0.0126128
799.917	0.0125072
799.995	0.0126254
800.073	0.0128403
800.151	0.0130142
800.229	0.0131350
800.308	0.0134245
800.386	0.0137783
800.464	0.0140437
800.542	0.0144619
800.620	0.0146761
800.698	0.0149724
800.776	0.0152768
800.854	0.0156254
800.933	0.0156591
801.011	0.0155974
801.089	0.0157298
801.167	0.0157704
801.245	0.0157281
801.323	0.0156956
801.401	0.0158090
801.479	0.0156113
801.558	0.0155391
801.636	0.0156576
801.714	0.0155415
801.792	0.0158308
801.870	0.0156091
801.948	0.0155948
802.026	0.0155065
802.104	0.0158057
802.183	0.0157653
802.261	0.0160414
802.339	0.0160950
802.417	0.0161183
802.495	0.0162273
802.573	0.0162895
802.651	0.0164525
802.729	0.0165493
802.808	0.0166280
802.886	0.0169797
802.964	0.0170804
803.042	0.0173331
803.120	0.0176138
803.198	0.0177436
803.276	0.0179434
803.354	0.0181204
803.433	0.0182804
803.511	0.0186689
803.589	0.0186631
803.667	0.0186845
803.745	0.0189030
803.823	0.0188134
803.901	0.0185047
803.979	0.0184007
804.058	0.0179776
804.136	0.0176307
804.214	0.0171587
804.292	0.0166528
804.370	0.0161060
804.448	0.0156566
804.526	0.0151353
804.604	0.0146552
804.683	0.0141259
804.761	0.0138089
804.839	0.0135904
804.917	0.0133514
804.995	0.0133039
805.073	0.0132597
805.151	0.0133285
805.229	0.0134025
805.308	0.0135753
805.386	0.0137950
805.464	0.0139722
805.542	0.0142440
805.620	0.0144334
805.698	0.0147359
805.776	0.0150863
805.854	0.0152024
805.933	0.0152232
806.011	0.0153044
806.089	0.0153337
806.167	0.0155853
806.245	0.0156526
806.323	0.0155617
806.401	0.0156320
806.479	0.0157726
806.558	0.0157785
806.636	0.0156187
806.714	0.0157343
806.792	0.0158722
806.870	0.0158298
806.948	0.0160501
807.026	0.0159641
807.104	0.0161222
807.183	0.0160265
807.261	0.0159132
807.339	0.0159480
807.417	0.0161418
807.495	0.0159480
807.573	0.0159804
807.651	0.0158401
807.729	0.0158551
807.808	0.0158914
807.886	0.0160407
807.964	0.0160549
808.042	0.0159415
808.120	0.0159899
808.198	0.0161642
808.276	0.0163142
808.354	0.0163438
808.433	0.0167685
808.511	0.0169852
808.589	0.0170794
808.667	0.0172805
808.745	0.0175766
808.823	0.0177796
808.901	0.0179086
808.979	0.0182140
809.058	0.0181964
809.136	0.0183810
809.214	0.0181740
809.292	0.0180800
809.370	0.0178710
809.448	0.0175821
809.526	0.0172635
809.604	0.0170533
809.683	0.0166208
809.761	0.0161277
809.839	0.0157494
809.917	0.0154234
809.995	0.0151006
810.073	0.0148625
810.151	0.0147346
810.229	0.0143642
810.308	0.0144040
810.386	0.0144752
810.464	0.0144121
810.542	0.0145298
810.620	0.0146371
810.698	0.0147884
810.776	0.0149519
810.854	0.0152338
810.933	0.0152407
811.011	0.0150999
811.089	0.0153043
811.167	0.0154581
811.245	0.0154579
811.323	0.0155602
811.401	0.0155447
811.479	0.0156182
811.558	0.0155118
811.636	0.0155617
811.714	0.0155560
811.792	0.0157652
811.870	0.0157729
811.948	0.0157850
812.026	0.0158586
812.104	0.0158050
812.183	0.0157053
812.261	0.0156021
812.339	0.0157329
812.417	0.0157609
812.495	0.0156397
812.573	0.0156966
812.651	0.0156783
812.729	0.0154967
812.808	0.0152821
812.886	0.0150632
812.964	0.0150310
813.042	0.0151111
813.120	0.0149934
813.198	0.0148811
813.276	0.0149968
813.354	0.0150121
813.433	0.0152673
813.511	0.0150984
813.589	0.0154433
813.667	0.0158360
813.745	0.0160432
813.823	0.0161866
813.901	0.0165854
813.979	0.0168124
814.058	0.0171194
814.136	0.0175007
814.214	0.0177773
814.292	0.0178356
814.370	0.0180447
814.448	0.0182231
814.526	0.0182446
814.604	0.0182584
814.683	0.0182110
814.761	0.0180872
814.839	0.0178270
814.917	0.0176758
814.995	0.0175012
815.073	0.0171333
815.151	0.0168753
815.229	0.0164714
815.308	0.0162482
815.386	0.0160590
815.464	0.0157537
815.542	0.0156248
815.620	0.0152065
815.698	0.0150806
815.776	0.0151617
815.854	0.0150655
815.933	0.0148001
816.011	0.0148795
816.089	0.0149932
816.167	0.0148455
816.245	0.0147519
816.323	0.0148338
816.401	0.0148938
816.479	0.0147755
816.558	0.0148289
816.636	0.0149772
816.714	0.0150597
816.792	0.0149676
816.870	0.0150729
816.948	0.0152715
817.026	0.0152357
817.104	0.0151254
817.183	0.0151947
817.261	0.0154015
817.339	0.0155254
817.417	0.0156064
817.495	0.0156564
817.573	0.0156718
817.651	0.0157978
817.729	0.0159045
817.808	0.0159337
817.886	0.0159605
817.964	0.0160120
818.042	0.0160133
818.120	0.0159499
818.198	0.0158543
818.276	0.0157181
818.354	0.0155785
818.433	0.0155286
818.511	0.0154545
818.589	0.0152837
818.667	0.0152936
818.745	0.0153333
818.823	0.0152160
818.901	0.0153099
818.979	0.0153268
819.058	0.0155291
819.136	0.0154428
819.214	0.0156866
819.292	0.0158183
819.370	0.0159804
819.448	0.0161201
819.526	0.0163849
819.604	0.0166655
819.683	0.0168536
819.761	0.0169045
819.839	0.0170837
819.917	0.0173342
819.995	0.0173783
820.073	0.0174432
820.151	0.0172847
820.229	0.0172797
820.308	0.0173528
820.386	0.0171779
820.464	0.0172830
820.542	0.0171703
820.620	0.0168326
820.698	0.0169703
820.776	0.0167580
820.854	0.0164948
820.933	0.0163622
821.011	0.0162138
821.089	0.0160894
821.167	0.0158907
821.245	0.0157877
821.323	0.0157207
821.401	0.0154781
821.479	0.0153297
821.558	0.0152191
821.636	0.0149445
821.714	0.0149271
821.792	0.0148223
821.870	0.0148065
821.948	0.0146807
822.026	0.0148820
822.104	0.0147958
822.183	0.0148383
822.261	0.0150581
822.339	0.0152670
822.417	0.0153629
822.495	0.0154918
822.573	0.0157236
822.651	0.0158372
822.729	0.0159283
822.808	0.0160362
822.886	0.0160153
822.964	0.0161364
823.042	0.0161027
823.120	0.0162328
823.198	0.0160128
823.276	0.0159883
823.354	0.0159460
823.433	0.0159052
823.511	0.0159440
823.589	0.0157744
823.667	0.0154314
823.745	0.0154074
823.823	0.0154974
823.901	0.0153580
823.979	0.0152401
824.058	0.0151125
824.136	0.0151758
824.214	0.0151903
824.292	0.0152669
824.370	0.0152842
824.448	0.0154938
824.526	0.0154494
824.604	0.0154767
824.683	0.0157797
824.761	0.0157042
824.839	0.0158149
824.917	0.0160793
824.995	0.0161833
825.073	0.0163293
825.151	0.0163658
825.229	0.0164095
825.308	0.0164195
825.386	0.0165530
825.464	0.0165088
825.542	0.0165203
825.620	0.0165809
825.698	0.0164755
825.776	0.0165483
825.854	0.0164736
825.933	0.0165126
826.011	0.0162679
826.089	0.0163726
826.167	0.0164250
826.245	0.0163566
826.323	0.0163636
826.401	0.0163673
826.479	0.0162986
826.558	0.0164777
826.636	0.0164022
826.714	0.0162927
826.792	0.0163834
826.870	0.0164325
826.948	0.0162756
827.026	0.0161877
827.104	0.0162044
827.183	0.0160339
827.261	0.0160737
827.339	0.0158177
827.417	0.0156850
827.495	0.0155550
827.573	0.0154842
827.651	0.0154517
827.729	0.0153942
827.808	0.0153735
827.886	0.0153043
827.964	0.0152995
828.042	0.0153676
828.120	0.0154240
828.198	0.0154784
828.276	0.0155501
828.354	0.0156426
828.433	0.0156908
828.511	0.0156263
828.589	0.0158459
828.667	0.0158789
828.745	0.0159893
828.823	0.0157957
828.901	0.0156448
828.979	0.0156663
829.058	0.0156319
829.136	0.0155286
829.214	0.0154762
829.292	0.0154547
829.370	0.0153524
829.448	0.0152335
829.526	0.0153297
829.604	0.0153772
829.683	0.0153444
829.761	0.0151826
829.839	0.0154041
829.917	0.0155667
829.995	0.0155813
830.073	0.0156158
830.151	0.0157850
830.229	0.0159493
830.308	0.0159485
830.386	0.0161059
830.464	0.0161913
830.542	0.0163773
830.620	0.0162560
830.698	0.0162914
830.776	0.0163953
830.854	0.0163754
830.933	0.0163144
831.011	0.0163982
831.089	0.0164365
831.167	0.0163795
831.245	0.0164361
831.323	0.0164088
831.401	0.0163323
831.479	0.0163828
831.558	0.0163634
831.636	0.0161716
831.714	0.0161339
831.792	0.0161178
831.870	0.0161560
831.948	0.0161871
832.026	0.0160452
832.104	0.0160056
832.183	0.0158485
832.261	0.0157810
832.339	0.0158403
832.417	0.0159946
832.495	0.0159155
832.573	0.0158871
832.651	0.0158633
832.729	0.0158176
832.808	0.0157951
832.886	0.0158762
832.964	0.0158297
833.042	0.0159367
833.120	0.0161391
833.198	0.0160641
833.276	0.0159650
833.354	0.0159906
833.433	0.0160491
833.511	0.0158287
833.589	0.0159184
833.667	0.0158086
833.745	0.0156591
833.823	0.0158017
833.901	0.0158785
833.979	0.0158493
834.058	0.0156791
834.136	0.0157989
834.214	0.0157450
834.292	0.0157700
834.370	0.0156702
834.448	0.0156653
834.526	0.0156696
834.604	0.0156492
834.683	0.0157162
834.761	0.0156078
834.839	0.0156431
834.917	0.0157858
834.995	0.0157356
835.073	0.0157564
835.151	0.0159679
835.229	0.0158501
835.308	0.0159303
835.386	0.0160489
835.464	0.0159503
835.542	0.0159455
835.620	0.0159785
835.698	0.0160357
835.776	0.0161117
835.854	0.0160493
835.933	0.0159237
836.011	0.0160291
836.089	0.0160960
836.167	0.0159863
836.245	0.0159062
836.323	0.0159155
836.401	0.0160039
836.479	0.0159967
836.558	0.0158795
836.636	0.0159341
836.714	0.0159189
836.792	0.0158849
836.870	0.0158873
836.948	0.0157267
837.026	0.0159589
837.104	0.0160187
837.183	0.0158599
837.261	0.0158427
837.339	0.0160184
837.417	0.0159186
837.495	0.0159110
837.573	0.0161203
837.651	0.0159137
837.729	0.0159139
837.808	0.0160142
837.886	0.0160325
837.964	0.0160147
838.042	0.0159048
838.120	0.0159707
838.198	0.0159821
838.276	0.0159536
838.354	0.0159332
838.433	0.0160197
838.511	0.0160233
838.589	0.0160966
838.667	0.0160647
838.745	0.0162486
838.823	0.0161988
838.901	0.0162099
838.979	0.0162933
839.058	0.0162955
839.136	0.0163091
839.214	0.0163545
839.292	0.0161868
839.370	0.0162106
839.448	0.0161217
839.526	0.0160484
839.604	0.0159080
839.683	0.0157177
839.761	0.0155938
839.839	0.0156297
839.917	0.0154597
839.995	0.0153978
840.073	0.0152951
840.151	0.0151270
840.229	0.0152000
840.308	0.0151348
840.386	0.0152858
840.464	0.0153291
840.542	0.0153905
840.620	0.0155648
840.698	0.0156013
840.776	0.0157115
840.854	0.0158203
840.933	0.0160242
841.011	0.0161826
841.089	0.0162338
841.167	0.0162349
841.245	0.0163361
841.323	0.0164501
841.401	0.0162511
841.479	0.0162197
841.558	0.0162902
841.636	0.0162408
841.714	0.0162118
841.792	0.0161660
841.870	0.0161217
841.948	0.0159708
842.026	0.0159904
842.104	0.0158601
842.183	0.0157301
842.261	0.0157780
842.339	0.0157475
842.417	0.0156490
842.495	0.0156657
842.573	0.0157495
842.651	0.0155925
842.729	0.0155394
842.808	0.0156950
842.886	0.0158659
842.964	0.0158862
843.042	0.0158723
843.120	0.0158687
843.198	0.0157977
843.276	0.0160950
843.354	0.0160134
843.433	0.0160268
843.511	0.0159954
843.589	0.0160660
843.667	0.0162196
843.745	0.0160793
843.823	0.0162757
843.901	0.0161913
843.979	0.0162148
844.058	0.0162937
844.136	0.0160452
844.214	0.0160268
844.292	0.0160958
844.370	0.0161333
844.448	0.0159967
844.526	0.0159218
844.604	0.0156803
844.683	0.0157639
844.761	0.0157561
844.839	0.0157696
844.917	0.0156290
844.995	0.0156667
845.073	0.0156693
845.151	0.0156552
845.229	0.0155703
845.308	0.0156338
845.386	0.0158449
845.464	0.0157491
845.542	0.0157701
845.620	0.0158082
845.698	0.0157224
845.776	0.0159159
845.854	0.0156774
845.933	0.0158352
846.011	0.0158680
846.089	0.0158437
846.167	0.0158756
846.245	0.0158241
846.323	0.0158909
846.401	0.0158893
846.479	0.0158401
846.558	0.0157925
846.636	0.0158661
846.714	0.0158555
846.792	0.0157667
846.870	0.0158703
846.948	0.0158337
847.026	0.0158138
847.104	0.0157568
847.183	0.0157355
847.261	0.0158201
847.339	0.0157568
847.417	0.0158731
847.495	0.0159523
847.573	0.0158825
847.651	0.0159568
847.729	0.0160022
847.808	0.0159940
847.886	0.0160011
847.964	0.0159631
848.042	0.0161681
848.120	0.0163248
848.198	0.0161160
848.276	0.0160382
848.354	0.0161691
848.433	0.0158837
848.511	0.0159982
848.589	0.0159145
848.667	0.0157426
848.745	0.0158036
848.823	0.0156999
848.901	0.0155479
848.979	0.0155784
849.058	0.0156726
849.136	0.0154840
849.214	0.0156124
849.292	0.0155820
849.370	0.0155645
849.448	0.0157533
849.526	0.0157724
849.604	0.0156886
849.683	0.0159001
849.761	0.0158746
849.839	0.0160349
849.917	0.0159636
849.995	0.0160406
850.073	0.0160284
850.151	0.0159180
850.229	0.0161056
850.308	0.0160336
850.386	0.0158929
850.464	0.0158782
850.542	0.0157835
850.620	0.0158817
850.698	0.0156803
850.776	0.0157489
850.854	0.0156972
850.933	0.0155765
851.011	0.0157707
851.089	0.0156828
851.167	0.0156020
851.245	0.0157779
851.323	0.0158382
851.401	0.0158978
851.479	0.0160402
851.558	0.0160308
851.636	0.0160550
851.714	0.0160907
851.792	0.0160584
851.870	0.0160970
851.948	0.0161601
852.026	0.0162221
852.104	0.0162827
852.183	0.0160869
852.261	0.0160721
852.339	0.0160979
852.417	0.0159403
852.495	0.0158374
852.573	0.0157355
852.651	0.0157166
852.729	0.0157191
852.808	0.0156239
852.886	0.0155500
852.964	0.0154890
853.042	0.0157893
853.120	0.0156559
853.198	0.0156711
853.276	0.0156850
853.354	0.0156905
853.433	0.0158392
853.511	0.0159531
853.589	0.0161149
853.667	0.0160455
853.745	0.0161784
853.823	0.0162708
853.901	0.0161313
853.979	0.0162935
854.058	0.0162424
854.136	0.0162817
854.214	0.0160873
854.292	0.0160814
854.370	0.0161285
854.448	0.0159686
854.526	0.0158157
854.604	0.0157940
854.683	0.0158461
854.761	0.0157619
854.839	0.0157099
854.917	0.0155579
854.995	0.0154223
855.073	0.0155804
855.151	0.0155594
855.229	0.0154986
855.308	0.0156546
855.386	0.0156886
855.464	0.0156427
855.542	0.0155527
855.620	0.0156756
855.698	0.0159722
855.776	0.0158900
855.854	0.0157305
855.933	0.0161193
856.011	0.0161691
856.089	0.0161753
856.167	0.0161063
856.245	0.0161162
856.323	0.0161164
856.401	0.0161711
856.479	0.0160904
856.558	0.0160584
856.636	0.0159546
856.714	0.0158959
856.792	0.0159454
856.870	0.0159006
856.948	0.0158933
857.026	0.0158704
857.104	0.0158979
857.183	0.0159252
857.261	0.0158089
857.339	0.0158262
857.417	0.0159370
857.495	0.0157117
857.573	0.0158258
857.651	0.0159010
857.729	0.0157082
857.808	0.0159070
857.886	0.0159556
857.964	0.0157549
858.042	0.0158958
858.120	0.0159026
858.198	0.0159120
858.276	0.0160316
858.354	0.0160085
858.433	0.0159959
858.511	0.0161417
858.589	0.0160258
858.667	0.0158454
858.745	0.0161926
858.823	0.0161115
858.901	0.0160561
858.979	0.0161124
859.058	0.0160275
859.136	0.0160368
859.214	0.0160071
859.292	0.0159327
859.370	0.0159017
859.448	0.0159278
859.526	0.0159709
859.604	0.0160081
859.683	0.0160151
859.761	0.0160229
859.839	0.0160100
859.917	0.0159529
859.995	0.0160464
860.073	0.0161344
860.151	0.0160822
860.229	0.0159938
860.308	0.0160239
860.386	0.0159538
860.464	0.0159353
860.542	0.0159701
860.620	0.0160151
860.698	0.0158939
860.776	0.0158859
860.854	0.0158861
860.933	0.0157485
861.011	0.0157238
861.089	0.0156773
861.167	0.0155151
861.245	0.0155773
861.323	0.0155888
861.401	0.0156562
861.479	0.0156235
861.558	0.0157349
861.636	0.0157394
861.714	0.0158186
861.792	0.0160471
861.870	0.0160809
861.948	0.0160748
862.026	0.0162186
862.104	0.0163704
862.183	0.0162734
862.261	0.0162793
862.339	0.0163534
862.417	0.0163618
862.495	0.0164827
862.573	0.0163029
862.651	0.0162353
862.729	0.0162836
862.808	0.0161321
862.886	0.0161590
862.964	0.0160136
863.042	0.0158563
863.120	0.0157176
863.198	0.0157275
863.276	0.0156424
863.354	0.0153340
863.433	0.0153814
863.511	0.0152441
863.589	0.0151318
863.667	0.0150146
863.745	0.0150581
863.823	0.0150245
863.901	0.0150256
863.979	0.0152749
864.058	0.0154098
864.136	0.0154974
864.214	0.0156697
864.292	0.0156763
864.370	0.0159210
864.448	0.0160534
864.526	0.0161436
864.604	0.0162880
864.683	0.0164342
864.761	0.0165217
864.839	0.0165250
864.917	0.0164952
864.995	0.0164234
865.073	0.0164996
865.151	0.0164629
865.229	0.0164393
865.308	0.0162506
865.386	0.0161739
865.464	0.0162520
865.542	0.0162305
865.620	0.0160438
865.698	0.0160278
865.776	0.0160694
865.854	0.0158694
865.933	0.0158559
866.011	0.0159307
866.089	0.0158811
866.167	0.0159154
866.245	0.0158984
866.323	0.0159274
866.401	0.0159501
866.479	0.0159502
866.558	0.0159373
866.636	0.0160873
866.714	0.0160589
866.792	0.0159914
866.870	0.0159272
866.948	0.0160368
867.026	0.0160452
867.104	0.0160766
867.183	0.0159475
867.261	0.0157793
867.339	0.0159512
867.417	0.0158145
867.495	0.0157243
867.573	0.0156107
867.651	0.0157641
867.729	0.0156750
867.808	0.0154938
867.886	0.0155902
867.964	0.0154331
868.042	0.0154198
868.120	0.0152224
868.198	0.0153455
868.276	0.0155157
868.354	0.0154251
868.433	0.0153453
868.511	0.0153656
868.589	0.0153791
868.667	0.0154223
868.745	0.0154558
868.823	0.0154596
868.901	0.0155448
868.979	0.0156564
869.058	0.0157097
869.136	0.0158611
869.214	0.0158364
869.292	0.0160220
869.370	0.0159978
869.448	0.0160837
869.526	0.0161117
869.604	0.0162856
869.683	0.0161675
869.761	0.0161971
869.839	0.0161776
869.917	0.0162933
869.995	0.0164989
870.073	0.0162966
870.151	0.0163892
870.229	0.0162249
870.308	0.0162556
870.386	0.0163171
870.464	0.0161411
870.542	0.0161794
870.620	0.0162574
870.698	0.0161066
870.776	0.0162109
870.854	0.0161035
870.933	0.0160627
871.011	0.0160818
871.089	0.0162739
871.167	0.0160490
871.245	0.0158582
871.323	0.0159948
871.401	0.0160090
871.479	0.0158001
871.558	0.0158229
871.636	0.0157299
871.714	0.0157479
871.792	0.0156250
871.870	0.0155261
871.948	0.0155164
872.026	0.0155163
872.104	0.0156887
872.183	0.0156748
872.261	0.0157323
872.339	0.0156641
872.417	0.0157358
872.495	0.0158006
872.573	0.0157743
872.651	0.0158233
872.729	0.0157240
872.808	0.0159252
872.886	0.0157774
872.964	0.0158898
873.042	0.0158221
873.120	0.0159016
873.198	0.0158701
873.276	0.0158022
873.354	0.0158311
873.433	0.0156805
873.511	0.0158058
873.589	0.0157218
873.667	0.0158402
873.745	0.0157705
873.823	0.0157780
873.901	0.0156363
873.979	0.0157598
874.058	0.0157398
874.136	0.0157609
874.214	0.0158606
874.292	0.0158479
874.370	0.0158154
874.448	0.0157993
874.526	0.0159523
874.604	0.0160616
874.683	0.0159798
874.761	0.0162122
874.839	0.0163378
874.917	0.0162364
874.995	0.0162996
875.073	0.0162927
875.151	0.0163509
875.229	0.0164209
875.308	0.0162658
875.386	0.0161803
875.464	0.0161273
875.542	0.0160326
875.620	0.0159787
875.698	0.0157791
875.776	0.0157979
875.854	0.0156605
875.933	0.0156444
876.011	0.0155125
876.089	0.0155270
876.167	0.0155209
876.245	0.0155012
876.323	0.0154882
876.401	0.0154720
876.479	0.0155315
876.558	0.0155759
876.636	0.0155642
876.714	0.0155046
876.792	0.0155924
876.870	0.0155328
876.948	0.0156541
877.026	0.0156742
877.104	0.0158467
877.183	0.0160274
877.261	0.0160289
877.339	0.0161174
877.417	0.0160622
877.495	0.0161477
877.573	0.0162717
877.651	0.0163820
877.729	0.0162350
877.808	0.0162328
877.886	0.0163586
877.964	0.0163417
878.042	0.0159922
878.120	0.0161073
878.198	0.0161963
878.276	0.0160547
878.354	0.0161299
878.433	0.0158929
878.511	0.0158957
878.589	0.0159043
878.667	0.0159294
878.745	0.0159084
878.823	0.0158950
878.901	0.0157994
878.979	0.0158874
879.058	0.0161096
879.136	0.0159859
879.214	0.0160609
879.292	0.0160217
879.370	0.0161545
879.448	0.0162016
879.526	0.0163668
879.604	0.0162908
879.683	0.0162428
879.761	0.0164059
879.839	0.0164365
879.917	0.0164127
879.995	0.0164919
880.073	0.0164178
880.151	0.0163059
880.229	0.0161578
880.308	0.0160075
880.386	0.0160516
880.464	0.0159818
880.542	0.0157457
880.620	0.0155991
880.698	0.0153999
880.776	0.0155360
880.854	0.0154205
880.933	0.0153035
881.011	0.0152905
881.089	0.0152607
881.167	0.0152444
881.245	0.0150847
881.323	0.0153529
881.401	0.0152077
881.479	0.0152682
881.558	0.0153265
881.636	0.0153400
881.714	0.0157140
881.792	0.0157512
881.870	0.0156921
881.948	0.0157214
882.026	0.0158404
882.104	0.0160184
882.183	0.0159961
882.261	0.0161391
882.339	0.0160014
882.417	0.0160133
882.495	0.0161830
882.573	0.0159556
882.651	0.0160929
882.729	0.0160759
882.808	0.0158859
882.886	0.0160909
882.964	0.0159875
883.042	0.0159032
883.120	0.0158443
883.198	0.0157339
883.276	0.0158055
883.354	0.0158910
883.433	0.0158752
883.511	0.0158719
883.589	0.0158714
883.667	0.0158582
883.745	0.0161676
883.823	0.0159681
883.901	0.0160744
883.979	0.0161032
884.058	0.0163280
884.136	0.0163204
884.214	0.0164070
884.292	0.0163248
884.370	0.0163700
884.448	0.0164642
884.526	0.0165849
884.604	0.0166953
884.683	0.0166238
884.761	0.0165838
884.839	0.0165739
884.917	0.0165445
884.995	0.0166546
885.073	0.0164642
885.151	0.0164135
885.229	0.0163423
885.308	0.0162892
885.386	0.0160867
885.464	0.0161133
885.542	0.0160219
885.620	0.0160548
885.698	0.0157677
885.776	0.0155601
885.854	0.0154852
885.933	0.0155444
886.011	0.0153900
886.089	0.0153354
886.167	0.0154616
886.245	0.0151812
886.323	0.0151289
886.401	0.0151732
886.479	0.0151904
886.558	0.0152763
886.636	0.0151650
886.714	0.0153077
886.792	0.0151895
886.870	0.0153374
886.948	0.0151860
887.026	0.0154288
887.104	0.0154176
887.183	0.0154383
887.261	0.0155500
887.339	0.0157668
887.417	0.0157336
887.495	0.0157465
887.573	0.0157888
887.651	0.0158923
887.729	0.0159518
887.808	0.0159139
887.886	0.0160137
887.964	0.0159355
888.042	0.0158996
888.120	0.0161195
888.198	0.0161039
888.276	0.0159760
888.354	0.0160099
888.433	0.0160988
888.511	0.0161258
888.589	0.0160279
888.667	0.0161663
888.745	0.0161137
888.823	0.0161070
888.901	0.0163029
888.979	0.0160672
889.058	0.0162503
889.136	0.0163220
889.214	0.0164423
889.292	0.0164235
889.370	0.0165540
889.448	0.0166222
889.526	0.0165719
889.604	0.0164271
889.683	0.0165389
889.761	0.0166476
889.839	0.0167850
889.917	0.0166296
889.995	0.0165917
890.073	0.0166064
890.151	0.0162503
890.229	0.0163371
890.308	0.0164137
890.386	0.0161255
890.464	0.0161972
890.542	0.0161291
890.620	0.0159455
890.698	0.0158222
890.776	0.0157949
890.854	0.0156671
890.933	0.0156258
891.011	0.0155205
891.089	0.0154127
891.167	0.0151907
891.245	0.0152419
891.323	0.0151159
891.401	0.0151986
891.479	0.0151342
891.558	0.0150938
891.636	0.0150944
891.714	0.0152023
891.792	0.0151395
891.870	0.0151118
891.948	0.0152677
892.026	0.0154978
892.104	0.0154574
892.183	0.0154591
892.261	0.0156547
892.339	0.0157513
892.417	0.0158627
892.495	0.0158670
892.573	0.0158939
892.651	0.0161274
892.729	0.0160440
892.808	0.0160664
892.886	0.0161064
892.964	0.0160880
893.042	0.0160904
893.120	0.0159708
893.198	0.0161353
893.276	0.0160829
893.354	0.0160165
893.433	0.0158919
893.511	0.0159401
893.589	0.0158134
893.667	0.0158887
893.745	0.0160206
893.823	0.0159440
893.901	0.0159129
893.979	0.0159042
894.058	0.0158841
894.136	0.0159983
894.214	0.0159610
894.292	0.0159180
894.370	0.0160303
894.448	0.0160882
894.526	0.0161023
894.604	0.0161422
894.683	0.0162516
894.761	0.0163463
894.839	0.0163190
894.917	0.0162659
894.995	0.0163309
895.073	0.0163896
895.151	0.0162835
895.229	0.0163346
895.308	0.0162244
895.386	0.0163184
895.464	0.0160606
895.542	0.0160484
895.620	0.0160020
895.698	0.0158796
895.776	0.0158306
895.854	0.0158678
895.933	0.0155939
896.011	0.0156512
896.089	0.0157379
896.167	0.0155112
896.245	0.0154957
896.323	0.0156342
896.401	0.0156068
896.479	0.0154945
896.558	0.0154591
896.636	0.0156693
896.714	0.0155038
896.792	0.0154946
896.870	0.0155584
896.948	0.0156162
897.026	0.0155732
897.104	0.0154973
897.183	0.0157666
897.261	0.0156207
897.339	0.0157275
897.417	0.0156419
897.495	0.0156577
897.573	0.0157199
897.651	0.0156121
897.729	0.0158188
897.808	0.0157380
897.886	0.0156337
897.964	0.0158965
898.042	0.0157313
898.120	0.0158050
898.198	0.0159621
898.276	0.0158521
898.354	0.0157469
898.433	0.0158698
898.511	0.0158826
898.589	0.0158708
898.667	0.0158475
898.745	0.0159350
898.823	0.0159170
898.901	0.0160280
898.979	0.0160284
899.058	0.0160316
899.136	0.0157983
899.214	0.0159932
899.292	0.0162273
899.370	0.0161041
899.448	0.0160323
899.526	0.0162456
899.604	0.0161832
899.683	0.0161852
899.761	0.0162508
899.839	0.0162135
899.917	0.0161736
899.995	0.0161837
900.073	0.0163682
900.151	0.0163255
900.229	0.0164173
900.308	0.0164263
900.386	0.0161815
900.464	0.0161658
900.542	0.0160946
900.620	0.0162219
900.698	0.0161726
900.776	0.0160252
900.854	0.0160392
900.933	0.0160195
901.011	0.0159686
901.089	0.0158199
901.167	0.0157858
901.245	0.0157579
901.323	0.0156940
901.401	0.0156636
901.479	0.0156446
901.558	0.0156178
901.636	0.0154442
901.714	0.0154430
901.792	0.0153169
901.870	0.0155650
901.948	0.0155502
902.026	0.0154117
902.104	0.0154602
902.183	0.0153926
902.261	0.0154145
902.339	0.0155987
902.417	0.0155333
902.495	0.0154825
902.573	0.0154972
902.651	0.0155533
902.729	0.0154977
902.808	0.0155314
902.886	0.0156554
902.964	0.0157404
903.042	0.0156014
903.120	0.0155869
903.198	0.0157504
903.276	0.0156965
903.354	0.0159701
903.433	0.0158552
903.511	0.0158251
903.589	0.0160166
903.667	0.0159605
903.745	0.0159669
903.823	0.0158337
903.901	0.0160147
903.979	0.0160571
904.058	0.0159733
904.136	0.0160407
904.214	0.0161727
904.292	0.0161699
904.370	0.0159371
904.448	0.0160065
904.526	0.0161070
904.604	0.0161626
904.683	0.0161432
904.761	0.0161502
904.839	0.0161543
904.917	0.0160249
904.995	0.0162567
905.073	0.0162029
905.151	0.0160693
905.229	0.0161353
905.308	0.0161931
905.386	0.0161171
905.464	0.0160271
905.542	0.0159565
905.620	0.0161395
905.698	0.0161717
905.776	0.0161670
905.854	0.0160950
905.933	0.0162238
906.011	0.0161440
906.089	0.0159903
906.167	0.0161591
906.245	0.0161583
906.323	0.0160464
906.401	0.0159673
906.479	0.0159568
906.558	0.0158284
906.636	0.0157191
906.714	0.0159083
906.792	0.0158733
906.870	0.0156288
906.948	0.0157159
907.026	0.0157129
907.104	0.0156146
907.183	0.0155432
907.261	0.0154271
907.339	0.0155038
907.417	0.0153938
907.495	0.0155088
907.573	0.0153619
907.651	0.0153635
907.729	0.0154627
907.808	0.0156239
907.886	0.0155158
907.964	0.0155773
908.042	0.0157924
908.120	0.0156407
908.198	0.0156822
908.276	0.0158477
908.354	0.0158340
908.433	0.0157519
908.511	0.0157033
908.589	0.0158116
908.667	0.0158207
908.745	0.0157772
908.823	0.0157520
908.901	0.0157385
908.979	0.0158437
909.058	0.0158186
909.136	0.0158090
909.214	0.0157880
909.292	0.0157411
909.370	0.0159146
909.448	0.0159437
909.526	0.0160201
909.604	0.0158611
909.683	0.0161171
909.761	0.0158811
909.839	0.0160305
909.917	0.0160434
909.995	0.0159679
910.073	0.0162254
910.151	0.0162194
910.229	0.0160942
910.308	0.0161907
910.386	0.0163168
910.464	0.0162712
910.542	0.0162914
910.620	0.0162978
910.698	0.0161566
910.776	0.0161111
910.854	0.0163116
910.933	0.0163150
911.011	0.0162774
911.089	0.0162827
911.167	0.0163308
911.245	0.0163592
911.323	0.0162498
911.401	0.0162527
911.479	0.0163151
911.558	0.0160943
911.636	0.0159679
911.714	0.0159727
911.792	0.0159930
911.870	0.0158724
911.948	0.0158651
912.026	0.0158614
912.104	0.0157298
912.183	0.0156649
912.261	0.0156878
912.339	0.0156109
912.417	0.0156887
912.495	0.0155972
912.573	0.0157430
912.651	0.0157600
912.729	0.0157494
912.808	0.0156866
912.886	0.0157662
912.964	0.0157400
913.042	0.0156863
913.120	0.0158002
913.198	0.0157353
913.276	0.0155916
913.354	0.0157897
913.433	0.0157868
913.511	0.0158382
913.589	0.0156723
913.667	0.0158411
913.745	0.0158436
913.823	0.0157496
913.901	0.0157692
913.979	0.0157744
914.058	0.0157501
914.136	0.0156441
914.214	0.0157494
914.292	0.0159718
914.370	0.0157736
914.448	0.0156761
914.526	0.0157552
914.604	0.0158650
914.683	0.0158681
914.761	0.0159360
914.839	0.0158365
914.917	0.0158760
914.995	0.0160204
915.073	0.0160329
915.151	0.0159933
915.229	0.0160836
915.308	0.0161131
915.386	0.0160625
915.464	0.0162379
915.542	0.0161697
915.620	0.0160606
915.698	0.0161244
915.776	0.0162550
915.854	0.0162973
915.933	0.0161845
916.011	0.0163411
916.089	0.0162798
916.167	0.0160990
916.245	0.0163320
916.323	0.0160995
916.401	0.0161642
916.479	0.0163507
916.558	0.0162328
916.636	0.0161672
916.714	0.0161626
916.792	0.0161460
916.870	0.0160416
916.948	0.0160134
917.026	0.0160199
917.104	0.0158970
917.183	0.0160654
917.261	0.0158126
917.339	0.0159167
917.417	0.0159238
917.495	0.0157635
917.573	0.0157423
917.651	0.0156435
917.729	0.0156682
917.808	0.0156947
917.886	0.0157196
917.964	0.0156342
918.042	0.0156297
918.120	0.0156403
918.198	0.0158337
918.276	0.0156460
918.354	0.0157661
918.433	0.0158175
918.511	0.0156237
918.589	0.0157357
918.667	0.0157710
918.745	0.0156911
918.823	0.0158097
918.901	0.0157553
918.979	0.0158090
919.058	0.0156380
919.136	0.0157392
919.214	0.0157822
919.292	0.0156659
919.370	0.0158139
919.448	0.0159964
919.526	0.0158883
919.604	0.0158859
919.683	0.0159642
919.761	0.0160189
919.839	0.0159628
919.917	0.0159703
