06/10/2022	16:22:02	Ver.	4.1	UNKNOWN
Optical Delay	599.988409	Delta X		0.078125	Sweeps	1	Scan Rate	0/0
Coordinates	Axis 1	NaN	Axis 2	NaN	Axis 3	NaN	Axis 4	NaN	Axis 5	NaN	Axis 6	0.000000
TX Power	0.000000	RX Power	0.000000

599.988	0.0161662
600.067	0.0161301
600.145	0.0162373
600.223	0.0161156
600.301	0.0161011
600.379	0.0161804
600.457	0.0161906
600.535	0.0161575
600.613	0.0161748
600.692	0.0160506
600.770	0.0161706
600.848	0.0162324
600.926	0.0160873
601.004	0.0160709
601.082	0.0160777
601.160	0.0160251
601.238	0.0160751
601.317	0.0161515
601.395	0.0162347
601.473	0.0161375
601.551	0.0160252
601.629	0.0160635
601.707	0.0161626
601.785	0.0160390
601.863	0.0162267
601.942	0.0162297
602.020	0.0161551
602.098	0.0160506
602.176	0.0161411
602.254	0.0161971
602.332	0.0161273
602.410	0.0161530
602.488	0.0161367
602.567	0.0160676
602.645	0.0162757
602.723	0.0161037
602.801	0.0161300
602.879	0.0160727
602.957	0.0160908
603.035	0.0161883
603.113	0.0162321
603.192	0.0161167
603.270	0.0161423
603.348	0.0160301
603.426	0.0162880
603.504	0.0161770
603.582	0.0160600
603.660	0.0161321
603.738	0.0162305
603.817	0.0160732
603.895	0.0161329
603.973	0.0162013
604.051	0.0160269
604.129	0.0161432
604.207	0.0160606
604.285	0.0160701
604.363	0.0161509
604.442	0.0161740
604.520	0.0161557
604.598	0.0159856
604.676	0.0161536
604.754	0.0161382
604.832	0.0160848
604.910	0.0161308
604.988	0.0161198
605.067	0.0162414
605.145	0.0161320
605.223	0.0162114
605.301	0.0161007
605.379	0.0162270
605.457	0.0160955
605.535	0.0161008
605.613	0.0162292
605.692	0.0163273
605.770	0.0160524
605.848	0.0161491
605.926	0.0161318
606.004	0.0160964
606.082	0.0160848
606.160	0.0161760
606.238	0.0162080
606.317	0.0161185
606.395	0.0161015
606.473	0.0161301
606.551	0.0161000
606.629	0.0160980
606.707	0.0161772
606.785	0.0162321
606.863	0.0161167
606.942	0.0160745
607.020	0.0162503
607.098	0.0162352
607.176	0.0161676
607.254	0.0162191
607.332	0.0161765
607.410	0.0160740
607.488	0.0160971
607.567	0.0161464
607.645	0.0162312
607.723	0.0161363
607.801	0.0160632
607.879	0.0161274
607.957	0.0159783
608.035	0.0161883
608.113	0.0161997
608.192	0.0161458
608.270	0.0160323
608.348	0.0160680
608.426	0.0161021
608.504	0.0162648
608.582	0.0161703
608.660	0.0161083
608.738	0.0160435
608.817	0.0160744
608.895	0.0162815
608.973	0.0162682
609.051	0.0160470
609.129	0.0162260
609.207	0.0160600
609.285	0.0162490
609.363	0.0162027
609.442	0.0162348
609.520	0.0160831
609.598	0.0162215
609.676	0.0161983
609.754	0.0162064
609.832	0.0161970
609.910	0.0161214
609.988	0.0161748
610.067	0.0161017
610.145	0.0161991
610.223	0.0160765
610.301	0.0160367
610.379	0.0160832
610.457	0.0160919
610.535	0.0160836
610.613	0.0161600
610.692	0.0160547
610.770	0.0161664
610.848	0.0162701
610.926	0.0160839
611.004	0.0160544
611.082	0.0162313
611.160	0.0162259
611.238	0.0160307
611.317	0.0161982
611.395	0.0161767
611.473	0.0161758
611.551	0.0161770
611.629	0.0161600
611.707	0.0161584
611.785	0.0161770
611.863	0.0161189
611.942	0.0160846
612.020	0.0161192
612.098	0.0161163
612.176	0.0161507
612.254	0.0161819
612.332	0.0161043
612.410	0.0162328
612.488	0.0161954
612.567	0.0162033
612.645	0.0161848
612.723	0.0163091
612.801	0.0161764
612.879	0.0162740
612.957	0.0162390
613.035	0.0160894
613.113	0.0161586
613.192	0.0160197
613.270	0.0161243
613.348	0.0162851
613.426	0.0161123
613.504	0.0160498
613.582	0.0162251
613.660	0.0161835
613.738	0.0160307
613.817	0.0162963
613.895	0.0162459
613.973	0.0161893
614.051	0.0162100
614.129	0.0160957
614.207	0.0161884
614.285	0.0160622
614.363	0.0161755
614.442	0.0161288
614.520	0.0161244
614.598	0.0161840
614.676	0.0161949
614.754	0.0160783
614.832	0.0161153
614.910	0.0160745
614.988	0.0161535
615.067	0.0162514
615.145	0.0161593
615.223	0.0161856
615.301	0.0161955
615.379	0.0162254
615.457	0.0160916
615.535	0.0161796
615.613	0.0161608
615.692	0.0161543
615.770	0.0161818
615.848	0.0161514
615.926	0.0162238
616.004	0.0161680
616.082	0.0160296
616.160	0.0162927
616.238	0.0162206
616.317	0.0161427
616.395	0.0159911
616.473	0.0160706
616.551	0.0161254
616.629	0.0162290
616.707	0.0161099
616.785	0.0160336
616.863	0.0162277
616.942	0.0162701
617.020	0.0161694
617.098	0.0160982
617.176	0.0161320
617.254	0.0158973
617.332	0.0159701
617.410	0.0162190
617.488	0.0162305
617.567	0.0161724
617.645	0.0160756
617.723	0.0161646
617.801	0.0161774
617.879	0.0160724
617.957	0.0160629
618.035	0.0160950
618.113	0.0161900
618.192	0.0160510
618.270	0.0159671
618.348	0.0161132
618.426	0.0160973
618.504	0.0162000
618.582	0.0160429
618.660	0.0161449
618.738	0.0162018
618.817	0.0161701
618.895	0.0161105
618.973	0.0160777
619.051	0.0162332
619.129	0.0162473
619.207	0.0162894
619.285	0.0161458
619.363	0.0162408
619.442	0.0161555
619.520	0.0162342
619.598	0.0162444
619.676	0.0161029
619.754	0.0161198
619.832	0.0161740
619.910	0.0161815
619.988	0.0161763
620.067	0.0160972
620.145	0.0160827
620.223	0.0161746
620.301	0.0160559
620.379	0.0160484
620.457	0.0162534
620.535	0.0160839
620.613	0.0160978
620.692	0.0161515
620.770	0.0162499
620.848	0.0160841
620.926	0.0159549
621.004	0.0160255
621.082	0.0162174
621.160	0.0161263
621.238	0.0161600
621.317	0.0162440
621.395	0.0160422
621.473	0.0161189
621.551	0.0161556
621.629	0.0160275
621.707	0.0161088
621.785	0.0162230
621.863	0.0160225
621.942	0.0162551
622.020	0.0162013
622.098	0.0161137
622.176	0.0161440
622.254	0.0161088
622.332	0.0160526
622.410	0.0160655
622.488	0.0163034
622.567	0.0160266
622.645	0.0161792
622.723	0.0161497
622.801	0.0163010
622.879	0.0162182
622.957	0.0161607
623.035	0.0161427
623.113	0.0161303
623.192	0.0160892
623.270	0.0159312
623.348	0.0159290
623.426	0.0161125
623.504	0.0162206
623.582	0.0160450
623.660	0.0159887
623.738	0.0161734
623.817	0.0161050
623.895	0.0160778
623.973	0.0161211
624.051	0.0162851
624.129	0.0161805
624.207	0.0160829
624.285	0.0160984
624.363	0.0161516
624.442	0.0161062
624.520	0.0162105
624.598	0.0160891
624.676	0.0160891
624.754	0.0161132
624.832	0.0159974
624.910	0.0160916
624.988	0.0160631
625.067	0.0159900
625.145	0.0161020
625.223	0.0162136
625.301	0.0161984
625.379	0.0161659
625.457	0.0161269
625.535	0.0160954
625.613	0.0161506
625.692	0.0161395
625.770	0.0162273
625.848	0.0161552
625.926	0.0160297
626.004	0.0161260
626.082	0.0160955
626.160	0.0160787
626.238	0.0161194
626.317	0.0162383
626.395	0.0161025
626.473	0.0160844
626.551	0.0161929
626.629	0.0160716
626.707	0.0162203
626.785	0.0161384
626.863	0.0160065
626.942	0.0161752
627.020	0.0160427
627.098	0.0161587
627.176	0.0161640
627.254	0.0162651
627.332	0.0161912
627.410	0.0161844
627.488	0.0161528
627.567	0.0162112
627.645	0.0160225
627.723	0.0162779
627.801	0.0162964
627.879	0.0159849
627.957	0.0160061
628.035	0.0161566
628.113	0.0161766
628.192	0.0161056
628.270	0.0160517
628.348	0.0160625
628.426	0.0161236
628.504	0.0160471
628.582	0.0161074
628.660	0.0161934
628.738	0.0161368
628.817	0.0160687
628.895	0.0161757
628.973	0.0161248
629.051	0.0162378
629.129	0.0160229
629.207	0.0161691
629.285	0.0160067
629.363	0.0160740
629.442	0.0162042
629.520	0.0161797
629.598	0.0161381
629.676	0.0161384
629.754	0.0162141
629.832	0.0162393
629.910	0.0161211
629.988	0.0160374
630.067	0.0161433
630.145	0.0161995
630.223	0.0160870
630.301	0.0160162
630.379	0.0161825
630.457	0.0160104
630.535	0.0162060
630.613	0.0161662
630.692	0.0161819
630.770	0.0161539
630.848	0.0159978
630.926	0.0161471
631.004	0.0160999
631.082	0.0161718
631.160	0.0161565
631.238	0.0161394
631.317	0.0161235
631.395	0.0161250
631.473	0.0160181
631.551	0.0162074
631.629	0.0161504
631.707	0.0161992
631.785	0.0162161
631.863	0.0162093
631.942	0.0162140
632.020	0.0161772
632.098	0.0159322
632.176	0.0161339
632.254	0.0161427
632.332	0.0160523
632.410	0.0160926
632.488	0.0160871
632.567	0.0161086
632.645	0.0161302
632.723	0.0160356
632.801	0.0160839
632.879	0.0161335
632.957	0.0162673
633.035	0.0162019
633.113	0.0160013
633.192	0.0160687
633.270	0.0161645
633.348	0.0162384
633.426	0.0162254
633.504	0.0162354
633.582	0.0161691
633.660	0.0161067
633.738	0.0162856
633.817	0.0160754
633.895	0.0161871
633.973	0.0160205
634.051	0.0162871
634.129	0.0162529
634.207	0.0161519
634.285	0.0161340
634.363	0.0160526
634.442	0.0160578
634.520	0.0160677
634.598	0.0161818
634.676	0.0160851
634.754	0.0160234
634.832	0.0160671
634.910	0.0160314
634.988	0.0160258
635.067	0.0162584
635.145	0.0162093
635.223	0.0161827
635.301	0.0159956
635.379	0.0160511
635.457	0.0161508
635.535	0.0163249
635.613	0.0160898
635.692	0.0161208
635.770	0.0162238
635.848	0.0160541
635.926	0.0161038
636.004	0.0162003
636.082	0.0161732
636.160	0.0161899
636.238	0.0161123
636.317	0.0162180
636.395	0.0160984
636.473	0.0161151
636.551	0.0161790
636.629	0.0162640
636.707	0.0160114
636.785	0.0160687
636.863	0.0159822
636.942	0.0161320
637.020	0.0162933
637.098	0.0161401
637.176	0.0161292
637.254	0.0160735
637.332	0.0161040
637.410	0.0161631
637.488	0.0161242
637.567	0.0161231
637.645	0.0160915
637.723	0.0161131
637.801	0.0160654
637.879	0.0160394
637.957	0.0161945
638.035	0.0161784
638.113	0.0161683
638.192	0.0160635
638.270	0.0160292
638.348	0.0161538
638.426	0.0161572
638.504	0.0160908
638.582	0.0160342
638.660	0.0161935
638.738	0.0160706
638.817	0.0161624
638.895	0.0161461
638.973	0.0159482
639.051	0.0161504
639.129	0.0161236
639.207	0.0162292
639.285	0.0161644
639.363	0.0161549
639.442	0.0161541
639.520	0.0161765
639.598	0.0160310
639.676	0.0160871
639.754	0.0162289
639.832	0.0160237
639.910	0.0162200
639.988	0.0161945
640.067	0.0160612
640.145	0.0162237
640.223	0.0162118
640.301	0.0161089
640.379	0.0160788
640.457	0.0160664
640.535	0.0162238
640.613	0.0161852
640.692	0.0163510
640.770	0.0160485
640.848	0.0161517
640.926	0.0161225
641.004	0.0161181
641.082	0.0163390
641.160	0.0161974
641.238	0.0160551
641.317	0.0160855
641.395	0.0161266
641.473	0.0162005
641.551	0.0162238
641.629	0.0161552
641.707	0.0162518
641.785	0.0160323
641.863	0.0159274
641.942	0.0161718
642.020	0.0162255
642.098	0.0161776
642.176	0.0162192
642.254	0.0161304
642.332	0.0160784
642.410	0.0161463
642.488	0.0161509
642.567	0.0162625
642.645	0.0161221
642.723	0.0161579
642.801	0.0160919
642.879	0.0160859
642.957	0.0162417
643.035	0.0162563
643.113	0.0160631
643.192	0.0161687
643.270	0.0161466
643.348	0.0161983
643.426	0.0161143
643.504	0.0160446
643.582	0.0160637
643.660	0.0162010
643.738	0.0161781
643.817	0.0161684
643.895	0.0162818
643.973	0.0161714
644.051	0.0161724
644.129	0.0161961
644.207	0.0162148
644.285	0.0162028
644.363	0.0160263
644.442	0.0161214
644.520	0.0162159
644.598	0.0161633
644.676	0.0162492
644.754	0.0160799
644.832	0.0161049
644.910	0.0162021
644.988	0.0162119
645.067	0.0161264
645.145	0.0161674
645.223	0.0162191
645.301	0.0161002
645.379	0.0160930
645.457	0.0160648
645.535	0.0161426
645.613	0.0161441
645.692	0.0160199
645.770	0.0161067
645.848	0.0161761
645.926	0.0160361
646.004	0.0160865
646.082	0.0161457
646.160	0.0162010
646.238	0.0161565
646.317	0.0162147
646.395	0.0161597
646.473	0.0161622
646.551	0.0162077
646.629	0.0160979
646.707	0.0161951
646.785	0.0160600
646.863	0.0160690
646.942	0.0160271
647.020	0.0159448
647.098	0.0160932
647.176	0.0161475
647.254	0.0162164
647.332	0.0162630
647.410	0.0161836
647.488	0.0161332
647.567	0.0162074
647.645	0.0161458
647.723	0.0160976
647.801	0.0161312
647.879	0.0161340
647.957	0.0161790
648.035	0.0161137
648.113	0.0159865
648.192	0.0161400
648.270	0.0161012
648.348	0.0162064
648.426	0.0161721
648.504	0.0160703
648.582	0.0162626
648.660	0.0161380
648.738	0.0161283
648.817	0.0162061
648.895	0.0162042
648.973	0.0161967
649.051	0.0161633
649.129	0.0160426
649.207	0.0160784
649.285	0.0159984
649.363	0.0159586
649.442	0.0162271
649.520	0.0160533
649.598	0.0160933
649.676	0.0161600
649.754	0.0160912
649.832	0.0161657
649.910	0.0160822
649.988	0.0161145
650.067	0.0161150
650.145	0.0161681
650.223	0.0161639
650.301	0.0162820
650.379	0.0161288
650.457	0.0161212
650.535	0.0160696
650.613	0.0160263
650.692	0.0161779
650.770	0.0162329
650.848	0.0161073
650.926	0.0161378
651.004	0.0160345
651.082	0.0162353
651.160	0.0162222
651.238	0.0161381
651.317	0.0162050
651.395	0.0162654
651.473	0.0160625
651.551	0.0162193
651.629	0.0160622
651.707	0.0160889
651.785	0.0161390
651.863	0.0160287
651.942	0.0161127
652.020	0.0161295
652.098	0.0161961
652.176	0.0162193
652.254	0.0159013
652.332	0.0161809
652.410	0.0162420
652.488	0.0161573
652.567	0.0161045
652.645	0.0162222
652.723	0.0161258
652.801	0.0158414
652.879	0.0162288
652.957	0.0162269
653.035	0.0161794
653.113	0.0161451
653.192	0.0162181
653.270	0.0161605
653.348	0.0161471
653.426	0.0161109
653.504	0.0162652
653.582	0.0162617
653.660	0.0162474
653.738	0.0161274
653.817	0.0161176
653.895	0.0162051
653.973	0.0162177
654.051	0.0160983
654.129	0.0161612
654.207	0.0162729
654.285	0.0162362
654.363	0.0160460
654.442	0.0162000
654.520	0.0162371
654.598	0.0161844
654.676	0.0161411
654.754	0.0161868
654.832	0.0161372
654.910	0.0161413
654.988	0.0162005
655.067	0.0162650
655.145	0.0162042
655.223	0.0162173
655.301	0.0162936
655.379	0.0161685
655.457	0.0161653
655.535	0.0161800
655.613	0.0161296
655.692	0.0161687
655.770	0.0162039
655.848	0.0162003
655.926	0.0162595
656.004	0.0163226
656.082	0.0161312
656.160	0.0160462
656.238	0.0160447
656.317	0.0161404
656.395	0.0161620
656.473	0.0161018
656.551	0.0161507
656.629	0.0161842
656.707	0.0161469
656.785	0.0161105
656.863	0.0161787
656.942	0.0160652
657.020	0.0161500
657.098	0.0161532
657.176	0.0160197
657.254	0.0161251
657.332	0.0163020
657.410	0.0161301
657.488	0.0161263
657.567	0.0161198
657.645	0.0160795
657.723	0.0162299
657.801	0.0161486
657.879	0.0161519
657.957	0.0160685
658.035	0.0160346
658.113	0.0161697
658.192	0.0161911
658.270	0.0161290
658.348	0.0161024
658.426	0.0161915
658.504	0.0160770
658.582	0.0161945
658.660	0.0160522
658.738	0.0161893
658.817	0.0161584
658.895	0.0160931
658.973	0.0160885
659.051	0.0161227
659.129	0.0161019
659.207	0.0160472
659.285	0.0161697
659.363	0.0160921
659.442	0.0161187
659.520	0.0161459
659.598	0.0161650
659.676	0.0162267
659.754	0.0161668
659.832	0.0159554
659.910	0.0160388
659.988	0.0162753
660.067	0.0160947
660.145	0.0160713
660.223	0.0160557
660.301	0.0161336
660.379	0.0159887
660.457	0.0162110
660.535	0.0162022
660.613	0.0160969
660.692	0.0160368
660.770	0.0160614
660.848	0.0159816
660.926	0.0160917
661.004	0.0161968
661.082	0.0161606
661.160	0.0162211
661.238	0.0162258
661.317	0.0162799
661.395	0.0160557
661.473	0.0162732
661.551	0.0160538
661.629	0.0161020
661.707	0.0160345
661.785	0.0160635
661.863	0.0161766
661.942	0.0163429
662.020	0.0160455
662.098	0.0160973
662.176	0.0160781
662.254	0.0161252
662.332	0.0161832
662.410	0.0162591
662.488	0.0161018
662.567	0.0161904
662.645	0.0161189
662.723	0.0161272
662.801	0.0161719
662.879	0.0161279
662.957	0.0161572
663.035	0.0161285
663.113	0.0160632
663.192	0.0161787
663.270	0.0161831
663.348	0.0161885
663.426	0.0160886
663.504	0.0161360
663.582	0.0160405
663.660	0.0160722
663.738	0.0161539
663.817	0.0161318
663.895	0.0161740
663.973	0.0161636
664.051	0.0159935
664.129	0.0161295
664.207	0.0162106
664.285	0.0160501
664.363	0.0162386
664.442	0.0160938
664.520	0.0161816
664.598	0.0161424
664.676	0.0161758
664.754	0.0161749
664.832	0.0161171
664.910	0.0158899
664.988	0.0161108
665.067	0.0162774
665.145	0.0161701
665.223	0.0161103
665.301	0.0160590
665.379	0.0160786
665.457	0.0161602
665.535	0.0160989
665.613	0.0161466
665.692	0.0161557
665.770	0.0162843
665.848	0.0162460
665.926	0.0161764
666.004	0.0161575
666.082	0.0161942
666.160	0.0160794
666.238	0.0160989
666.317	0.0162406
666.395	0.0161342
666.473	0.0160893
666.551	0.0160825
666.629	0.0160992
666.707	0.0160464
666.785	0.0161834
666.863	0.0161889
666.942	0.0161649
667.020	0.0159214
667.098	0.0161783
667.176	0.0162245
667.254	0.0162177
667.332	0.0160857
667.410	0.0160442
667.488	0.0161425
667.567	0.0161850
667.645	0.0162592
667.723	0.0160716
667.801	0.0160435
667.879	0.0161061
667.957	0.0160786
668.035	0.0161375
668.113	0.0161785
668.192	0.0162019
668.270	0.0161298
668.348	0.0160786
668.426	0.0161292
668.504	0.0162244
668.582	0.0160448
668.660	0.0160802
668.738	0.0161179
668.817	0.0161785
668.895	0.0161514
668.973	0.0161267
669.051	0.0162010
669.129	0.0161965
669.207	0.0160841
669.285	0.0160783
669.363	0.0161460
669.442	0.0161319
669.520	0.0161377
669.598	0.0161193
669.676	0.0161169
669.754	0.0161779
669.832	0.0162240
669.910	0.0160929
669.988	0.0161777
670.067	0.0162452
670.145	0.0162595
670.223	0.0161781
670.301	0.0162295
670.379	0.0162457
670.457	0.0162395
670.535	0.0161684
670.613	0.0161947
670.692	0.0161254
670.770	0.0161510
670.848	0.0160043
670.926	0.0161162
671.004	0.0161172
671.082	0.0161890
671.160	0.0161781
671.238	0.0161201
671.317	0.0160989
671.395	0.0161140
671.473	0.0161133
671.551	0.0161884
671.629	0.0162655
671.707	0.0161507
671.785	0.0161501
671.863	0.0161707
671.942	0.0162698
672.020	0.0162183
672.098	0.0161636
672.176	0.0161221
672.254	0.0161948
672.332	0.0161599
672.410	0.0162048
672.488	0.0161077
672.567	0.0161592
672.645	0.0161903
672.723	0.0162157
672.801	0.0161702
672.879	0.0161945
672.957	0.0161602
673.035	0.0162207
673.113	0.0162489
673.192	0.0163446
673.270	0.0161536
673.348	0.0161062
673.426	0.0161501
673.504	0.0163601
673.582	0.0162270
673.660	0.0162740
673.738	0.0161237
673.817	0.0161212
673.895	0.0161037
673.973	0.0161053
674.051	0.0160779
674.129	0.0162372
674.207	0.0161063
674.285	0.0161133
674.363	0.0161503
674.442	0.0160365
674.520	0.0161558
674.598	0.0160915
674.676	0.0160938
674.754	0.0161668
674.832	0.0161077
674.910	0.0161388
674.988	0.0160738
675.067	0.0160860
675.145	0.0161332
675.223	0.0161310
675.301	0.0161445
675.379	0.0160535
675.457	0.0162552
675.535	0.0162479
675.613	0.0159981
675.692	0.0160889
675.770	0.0162160
675.848	0.0160535
675.926	0.0162005
676.004	0.0161558
676.082	0.0160876
676.160	0.0161678
676.238	0.0161525
676.317	0.0160131
676.395	0.0160375
676.473	0.0161208
676.551	0.0160626
676.629	0.0159713
676.707	0.0161647
676.785	0.0162225
676.863	0.0160749
676.942	0.0160991
677.020	0.0162977
677.098	0.0161377
677.176	0.0161913
677.254	0.0161089
677.332	0.0161647
677.410	0.0161810
677.488	0.0161042
677.567	0.0161736
677.645	0.0161702
677.723	0.0160128
677.801	0.0160571
677.879	0.0162089
677.957	0.0162106
678.035	0.0161391
678.113	0.0161726
678.192	0.0161895
678.270	0.0161269
678.348	0.0161022
678.426	0.0161358
678.504	0.0160467
678.582	0.0162240
678.660	0.0161320
678.738	0.0162005
678.817	0.0161741
678.895	0.0159792
678.973	0.0160305
679.051	0.0161438
679.129	0.0161596
679.207	0.0161395
679.285	0.0160717
679.363	0.0162257
679.442	0.0161918
679.520	0.0160345
679.598	0.0160367
679.676	0.0161515
679.754	0.0161742
679.832	0.0161321
679.910	0.0161363
679.988	0.0161428
680.067	0.0162026
680.145	0.0162263
680.223	0.0161096
680.301	0.0161392
680.379	0.0160118
680.457	0.0161143
680.535	0.0162010
680.613	0.0160581
680.692	0.0160029
680.770	0.0162693
680.848	0.0161429
680.926	0.0159349
681.004	0.0159737
681.082	0.0160635
681.160	0.0160821
681.238	0.0161499
681.317	0.0161153
681.395	0.0161129
681.473	0.0161614
681.551	0.0162064
681.629	0.0162255
681.707	0.0161391
681.785	0.0162243
681.863	0.0161916
681.942	0.0161034
682.020	0.0161424
682.098	0.0161373
682.176	0.0161290
682.254	0.0161375
682.332	0.0162216
682.410	0.0161562
682.488	0.0160199
682.567	0.0161826
682.645	0.0161324
682.723	0.0161275
682.801	0.0161082
682.879	0.0160906
682.957	0.0160820
683.035	0.0161530
683.113	0.0160557
683.192	0.0161437
683.270	0.0161867
683.348	0.0161213
683.426	0.0161341
683.504	0.0162075
683.582	0.0160812
683.660	0.0161431
683.738	0.0161104
683.817	0.0160233
683.895	0.0161823
683.973	0.0161049
684.051	0.0160916
684.129	0.0160711
684.207	0.0161786
684.285	0.0161957
684.363	0.0160706
684.442	0.0161337
684.520	0.0161144
684.598	0.0159635
684.676	0.0161604
684.754	0.0160686
684.832	0.0160124
684.910	0.0162685
684.988	0.0161942
685.067	0.0162070
685.145	0.0162083
685.223	0.0161697
685.301	0.0160676
685.379	0.0160749
685.457	0.0160334
685.535	0.0160587
685.613	0.0161639
685.692	0.0161311
685.770	0.0162775
685.848	0.0161173
685.926	0.0160161
686.004	0.0161597
686.082	0.0161060
686.160	0.0161367
686.238	0.0161742
686.317	0.0160336
686.395	0.0161848
686.473	0.0162129
686.551	0.0160146
686.629	0.0162061
686.707	0.0161521
686.785	0.0161448
686.863	0.0161692
686.942	0.0161463
687.020	0.0159878
687.098	0.0161150
687.176	0.0160950
687.254	0.0162744
687.332	0.0160948
687.410	0.0160801
687.488	0.0159624
687.567	0.0161144
687.645	0.0161398
687.723	0.0160416
687.801	0.0161209
687.879	0.0160580
687.957	0.0161609
688.035	0.0160303
688.113	0.0159459
688.192	0.0161577
688.270	0.0160921
688.348	0.0161665
688.426	0.0161211
688.504	0.0161299
688.582	0.0162071
688.660	0.0162302
688.738	0.0162402
688.817	0.0161396
688.895	0.0160768
688.973	0.0161855
689.051	0.0161739
689.129	0.0160040
689.207	0.0161376
689.285	0.0161141
689.363	0.0162558
689.442	0.0162592
689.520	0.0160445
689.598	0.0161874
689.676	0.0160826
689.754	0.0162197
689.832	0.0161485
689.910	0.0161068
689.988	0.0161603
690.067	0.0162528
690.145	0.0161290
690.223	0.0161594
690.301	0.0161394
690.379	0.0161421
690.457	0.0162782
690.535	0.0161612
690.613	0.0161394
690.692	0.0162264
690.770	0.0161813
690.848	0.0161939
690.926	0.0161192
691.004	0.0161976
691.082	0.0161126
691.160	0.0162499
691.238	0.0162215
691.317	0.0161446
691.395	0.0161349
691.473	0.0162276
691.551	0.0162548
691.629	0.0161964
691.707	0.0160320
691.785	0.0161177
691.863	0.0161752
691.942	0.0161916
692.020	0.0161545
692.098	0.0161347
692.176	0.0161628
692.254	0.0161540
692.332	0.0161617
692.410	0.0160905
692.488	0.0160169
692.567	0.0161023
692.645	0.0162516
692.723	0.0161380
692.801	0.0161694
692.879	0.0161527
692.957	0.0161774
693.035	0.0160046
693.113	0.0162532
693.192	0.0161452
693.270	0.0160881
693.348	0.0162074
693.426	0.0161845
693.504	0.0162333
693.582	0.0161498
693.660	0.0161069
693.738	0.0161261
693.817	0.0161684
693.895	0.0161237
693.973	0.0161657
694.051	0.0161131
694.129	0.0161187
694.207	0.0162211
694.285	0.0161200
694.363	0.0160278
694.442	0.0162686
694.520	0.0161892
694.598	0.0161046
694.676	0.0160982
694.754	0.0162753
694.832	0.0160602
694.910	0.0160397
694.988	0.0161763
695.067	0.0161346
695.145	0.0160953
695.223	0.0162335
695.301	0.0161128
695.379	0.0161361
695.457	0.0162112
695.535	0.0162288
695.613	0.0161166
695.692	0.0162295
695.770	0.0163071
695.848	0.0161756
695.926	0.0160951
696.004	0.0160823
696.082	0.0161810
696.160	0.0162439
696.238	0.0159819
696.317	0.0161141
696.395	0.0161129
696.473	0.0162216
696.551	0.0161949
696.629	0.0162729
696.707	0.0161283
696.785	0.0160674
696.863	0.0161637
696.942	0.0161366
697.020	0.0161764
697.098	0.0161683
697.176	0.0160863
697.254	0.0160630
697.332	0.0161861
697.410	0.0161279
697.488	0.0161160
697.567	0.0161976
697.645	0.0160994
697.723	0.0160500
697.801	0.0163297
697.879	0.0162080
697.957	0.0159933
698.035	0.0160214
698.113	0.0162943
698.192	0.0161000
698.270	0.0160604
698.348	0.0162771
698.426	0.0161486
698.504	0.0160778
698.582	0.0160367
698.660	0.0161886
698.738	0.0161245
698.817	0.0162100
698.895	0.0161323
698.973	0.0160207
699.051	0.0161298
699.129	0.0160237
699.207	0.0161109
699.285	0.0161120
699.363	0.0161990
699.442	0.0160725
699.520	0.0160979
699.598	0.0160495
699.676	0.0162578
699.754	0.0160329
699.832	0.0160310
699.910	0.0162410
699.988	0.0160950
700.067	0.0161358
700.145	0.0161935
700.223	0.0161642
700.301	0.0160830
700.379	0.0161134
700.457	0.0160941
700.535	0.0161376
700.613	0.0161244
700.692	0.0160480
700.770	0.0160424
700.848	0.0160445
700.926	0.0160600
701.004	0.0161381
701.082	0.0159891
701.160	0.0161266
701.238	0.0160742
701.317	0.0161250
701.395	0.0161505
701.473	0.0161015
701.551	0.0160312
701.629	0.0161337
701.707	0.0161182
701.785	0.0161697
701.863	0.0161754
701.942	0.0160513
702.020	0.0160548
702.098	0.0161181
702.176	0.0162170
702.254	0.0161057
702.332	0.0160818
702.410	0.0161758
702.488	0.0161646
702.567	0.0161756
702.645	0.0161573
702.723	0.0161349
702.801	0.0161475
702.879	0.0161607
702.957	0.0160433
703.035	0.0161255
703.113	0.0160930
703.192	0.0162141
703.270	0.0161406
703.348	0.0160475
703.426	0.0161810
703.504	0.0161930
703.582	0.0160169
703.660	0.0161250
703.738	0.0163058
703.817	0.0160567
703.895	0.0160571
703.973	0.0160544
704.051	0.0162446
704.129	0.0162411
704.207	0.0160447
704.285	0.0160966
704.363	0.0162671
704.442	0.0162617
704.520	0.0161681
704.598	0.0161192
704.676	0.0162557
704.754	0.0161859
704.832	0.0162081
704.910	0.0162006
704.988	0.0161906
705.067	0.0160104
705.145	0.0161785
705.223	0.0161059
705.301	0.0160628
705.379	0.0161498
705.457	0.0160509
705.535	0.0161840
705.613	0.0161648
705.692	0.0161594
705.770	0.0161572
705.848	0.0160372
705.926	0.0160061
706.004	0.0160819
706.082	0.0163284
706.160	0.0161374
706.238	0.0162025
706.317	0.0161684
706.395	0.0162528
706.473	0.0161284
706.551	0.0161739
706.629	0.0160957
706.707	0.0162454
706.785	0.0162102
706.863	0.0160959
706.942	0.0161354
707.020	0.0161144
707.098	0.0160706
707.176	0.0161503
707.254	0.0160925
707.332	0.0160908
707.410	0.0160783
707.488	0.0163087
707.567	0.0161475
707.645	0.0163431
707.723	0.0161406
707.801	0.0161459
707.879	0.0161250
707.957	0.0161642
708.035	0.0163245
708.113	0.0161346
708.192	0.0162040
708.270	0.0162571
708.348	0.0161281
708.426	0.0161453
708.504	0.0161218
708.582	0.0160278
708.660	0.0161897
708.738	0.0162550
708.817	0.0161966
708.895	0.0161651
708.973	0.0161279
709.051	0.0160397
709.129	0.0161584
709.207	0.0162127
709.285	0.0161132
709.363	0.0161042
709.442	0.0162348
709.520	0.0160954
709.598	0.0162788
709.676	0.0162193
709.754	0.0160564
709.832	0.0162033
709.910	0.0162657
709.988	0.0161217
710.067	0.0162521
710.145	0.0161614
710.223	0.0161499
710.301	0.0163185
710.379	0.0162635
710.457	0.0160618
710.535	0.0161758
710.613	0.0161071
710.692	0.0161246
710.770	0.0160039
710.848	0.0162030
710.926	0.0161037
711.004	0.0161919
711.082	0.0160818
711.160	0.0161162
711.238	0.0160734
711.317	0.0161593
711.395	0.0161954
711.473	0.0161502
711.551	0.0161420
711.629	0.0162517
711.707	0.0160397
711.785	0.0161208
711.863	0.0161556
711.942	0.0160725
712.020	0.0161192
712.098	0.0160218
712.176	0.0162240
712.254	0.0161394
712.332	0.0161442
712.410	0.0162128
712.488	0.0160794
712.567	0.0160904
712.645	0.0160905
712.723	0.0160895
712.801	0.0162502
712.879	0.0159589
712.957	0.0160527
713.035	0.0162843
713.113	0.0161115
713.192	0.0160098
713.270	0.0160486
713.348	0.0161097
713.426	0.0160776
713.504	0.0160413
713.582	0.0160744
713.660	0.0160214
713.738	0.0161051
713.817	0.0161504
713.895	0.0161386
713.973	0.0161277
714.051	0.0160207
714.129	0.0160437
714.207	0.0161300
714.285	0.0162248
714.363	0.0162218
714.442	0.0160358
714.520	0.0161584
714.598	0.0161895
714.676	0.0161745
714.754	0.0159555
714.832	0.0160614
714.910	0.0161490
714.988	0.0160791
715.067	0.0161518
715.145	0.0161264
715.223	0.0160603
715.301	0.0159924
715.379	0.0161301
715.457	0.0161026
715.535	0.0160589
715.613	0.0159371
715.692	0.0158858
715.770	0.0160597
715.848	0.0159650
715.926	0.0159599
716.004	0.0163612
716.082	0.0160902
716.160	0.0160144
716.238	0.0160832
716.317	0.0160654
716.395	0.0161091
716.473	0.0160706
716.551	0.0159186
716.629	0.0161644
716.707	0.0160513
716.785	0.0160973
716.863	0.0160818
716.942	0.0160569
717.020	0.0160012
717.098	0.0161407
717.176	0.0160641
717.254	0.0161129
717.332	0.0161198
717.410	0.0160976
717.488	0.0162923
717.567	0.0161933
717.645	0.0160581
717.723	0.0160411
717.801	0.0159774
717.879	0.0161259
717.957	0.0161186
718.035	0.0160532
718.113	0.0160816
718.192	0.0161040
718.270	0.0160357
718.348	0.0159412
718.426	0.0159726
718.504	0.0160954
718.582	0.0161053
718.660	0.0159831
718.738	0.0159714
718.817	0.0160255
718.895	0.0160020
718.973	0.0160297
719.051	0.0161665
719.129	0.0160495
719.207	0.0161154
719.285	0.0159302
719.363	0.0160852
719.442	0.0160986
719.520	0.0160087
719.598	0.0159875
719.676	0.0160991
719.754	0.0161414
719.832	0.0160831
719.910	0.0160375
719.988	0.0161766
720.067	0.0160994
720.145	0.0161513
720.223	0.0161572
720.301	0.0160812
720.379	0.0161478
720.457	0.0161011
720.535	0.0159892
720.613	0.0159691
720.692	0.0160799
720.770	0.0160260
720.848	0.0160653
720.926	0.0159699
721.004	0.0160273
721.082	0.0160803
721.160	0.0161008
721.238	0.0161238
721.317	0.0160828
721.395	0.0161169
721.473	0.0160946
721.551	0.0160727
721.629	0.0160645
721.707	0.0161771
721.785	0.0162075
721.863	0.0161480
721.942	0.0160886
722.020	0.0160590
722.098	0.0161360
722.176	0.0162439
722.254	0.0160973
722.332	0.0161414
722.410	0.0162309
722.488	0.0161442
722.567	0.0161112
722.645	0.0161242
722.723	0.0160998
722.801	0.0160777
722.879	0.0161723
722.957	0.0161165
723.035	0.0161852
723.113	0.0162061
723.192	0.0161256
723.270	0.0162769
723.348	0.0162681
723.426	0.0160178
723.504	0.0162125
723.582	0.0162108
723.660	0.0160325
723.738	0.0160728
723.817	0.0162058
723.895	0.0162283
723.973	0.0161987
724.051	0.0160972
724.129	0.0160716
724.207	0.0160130
724.285	0.0161717
724.363	0.0161415
724.442	0.0162491
724.520	0.0162116
724.598	0.0161419
724.676	0.0162183
724.754	0.0162360
724.832	0.0161123
724.910	0.0162062
724.988	0.0161549
725.067	0.0160731
725.145	0.0161859
725.223	0.0161733
725.301	0.0161646
725.379	0.0161772
725.457	0.0163274
725.535	0.0163943
725.613	0.0163743
725.692	0.0162836
725.770	0.0162514
725.848	0.0163060
725.926	0.0160931
726.004	0.0161317
726.082	0.0163125
726.160	0.0163376
726.238	0.0161809
726.317	0.0160891
726.395	0.0162389
726.473	0.0163401
726.551	0.0161407
726.629	0.0161550
726.707	0.0162072
726.785	0.0162312
726.863	0.0161802
726.942	0.0161790
727.020	0.0162827
727.098	0.0162736
727.176	0.0162630
727.254	0.0162495
727.332	0.0162679
727.410	0.0162144
727.488	0.0162028
727.567	0.0162561
727.645	0.0161200
727.723	0.0163012
727.801	0.0160705
727.879	0.0161874
727.957	0.0161469
728.035	0.0162017
728.113	0.0162481
728.192	0.0162623
728.270	0.0161782
728.348	0.0162166
728.426	0.0161206
728.504	0.0161076
728.582	0.0161493
728.660	0.0161681
728.738	0.0161504
728.817	0.0162978
728.895	0.0161432
728.973	0.0162415
729.051	0.0162720
729.129	0.0161749
729.207	0.0161674
729.285	0.0161758
729.363	0.0162886
729.442	0.0161189
729.520	0.0160632
729.598	0.0160969
729.676	0.0161087
729.754	0.0162015
729.832	0.0160222
729.910	0.0161447
729.988	0.0161315
730.067	0.0162357
730.145	0.0161908
730.223	0.0162757
730.301	0.0160896
730.379	0.0161095
730.457	0.0160949
730.535	0.0164017
730.613	0.0163082
730.692	0.0161720
730.770	0.0162463
730.848	0.0161180
730.926	0.0161519
731.004	0.0161915
731.082	0.0162665
731.160	0.0162666
731.238	0.0162204
731.317	0.0161552
731.395	0.0161514
731.473	0.0161529
731.551	0.0162023
731.629	0.0160706
731.707	0.0162048
731.785	0.0161426
731.863	0.0161482
731.942	0.0162091
732.020	0.0160852
732.098	0.0162479
732.176	0.0163163
732.254	0.0159767
732.332	0.0160968
732.410	0.0162280
732.488	0.0162153
732.567	0.0161107
732.645	0.0160616
732.723	0.0160609
732.801	0.0159902
732.879	0.0162060
732.957	0.0161196
733.035	0.0160677
733.113	0.0161455
733.192	0.0160807
733.270	0.0162710
733.348	0.0160226
733.426	0.0161852
733.504	0.0161840
733.582	0.0160558
733.660	0.0161208
733.738	0.0162601
733.817	0.0160291
733.895	0.0161143
733.973	0.0160165
734.051	0.0160829
734.129	0.0160822
734.207	0.0161300
734.285	0.0161513
734.363	0.0161320
734.442	0.0162158
734.520	0.0161560
734.598	0.0161488
734.676	0.0161804
734.754	0.0160049
734.832	0.0159999
734.910	0.0160718
734.988	0.0160412
735.067	0.0160780
735.145	0.0162047
735.223	0.0160490
735.301	0.0160751
735.379	0.0160448
735.457	0.0160624
735.535	0.0161198
735.613	0.0161547
735.692	0.0161036
735.770	0.0160332
735.848	0.0160442
735.926	0.0160727
736.004	0.0161217
736.082	0.0161106
736.160	0.0160270
736.238	0.0160696
736.317	0.0161188
736.395	0.0161372
736.473	0.0161062
736.551	0.0160168
736.629	0.0162296
736.707	0.0161662
736.785	0.0160618
736.863	0.0161969
736.942	0.0160165
737.020	0.0159641
737.098	0.0161768
737.176	0.0160810
737.254	0.0160328
737.332	0.0157695
737.410	0.0158391
737.488	0.0156748
737.567	0.0157880
737.645	0.0156749
737.723	0.0156306
737.801	0.0158292
737.879	0.0158260
737.957	0.0160057
738.035	0.0160722
738.113	0.0163364
738.192	0.0164493
738.270	0.0165160
738.348	0.0166113
738.426	0.0167540
738.504	0.0168182
738.582	0.0168711
738.660	0.0167521
738.738	0.0166451
738.817	0.0165040
738.895	0.0164407
738.973	0.0161589
739.051	0.0160217
739.129	0.0157603
739.207	0.0155876
739.285	0.0152661
739.363	0.0148646
739.442	0.0148145
739.520	0.0147294
739.598	0.0145440
739.676	0.0146198
739.754	0.0148849
739.832	0.0151083
739.910	0.0156416
739.988	0.0162257
740.067	0.0169645
740.145	0.0173475
740.223	0.0178535
740.301	0.0181174
740.379	0.0181580
740.457	0.0181474
740.535	0.0176601
740.613	0.0174340
740.692	0.0166865
740.770	0.0165325
740.848	0.0158995
740.926	0.0155997
741.004	0.0155917
741.082	0.0154022
741.160	0.0152503
741.238	0.0153362
741.317	0.0154934
741.395	0.0154541
741.473	0.0154980
741.551	0.0154869
741.629	0.0154826
741.707	0.0152686
741.785	0.0150498
741.863	0.0151550
741.942	0.0148148
742.020	0.0148153
742.098	0.0148809
742.176	0.0151598
742.254	0.0154581
742.332	0.0159532
742.410	0.0165921
742.488	0.0171754
742.567	0.0176905
742.645	0.0179875
742.723	0.0181864
742.801	0.0182264
742.879	0.0179643
742.957	0.0178080
743.035	0.0175266
743.113	0.0169640
743.192	0.0167863
743.270	0.0163019
743.348	0.0160119
743.426	0.0156419
743.504	0.0154017
743.582	0.0150697
743.660	0.0149503
743.738	0.0145921
743.817	0.0144910
743.895	0.0143508
743.973	0.0142633
744.051	0.0142619
744.129	0.0144566
744.207	0.0145148
744.285	0.0148517
744.363	0.0152003
744.442	0.0154857
744.520	0.0159795
744.598	0.0164388
744.676	0.0169937
744.754	0.0173006
744.832	0.0176762
744.910	0.0179610
744.988	0.0183014
745.067	0.0184072
745.145	0.0185413
745.223	0.0183395
745.301	0.0182056
745.379	0.0177094
745.457	0.0172360
745.535	0.0165840
745.613	0.0160754
745.692	0.0154324
745.770	0.0150057
745.848	0.0147450
745.926	0.0145552
746.004	0.0145380
746.082	0.0145135
746.160	0.0145354
746.238	0.0147884
746.317	0.0150025
746.395	0.0150657
746.473	0.0153281
746.551	0.0155933
746.629	0.0156815
746.707	0.0159445
746.785	0.0160970
746.863	0.0161918
746.942	0.0161111
747.020	0.0162965
747.098	0.0163300
747.176	0.0164570
747.254	0.0166634
747.332	0.0169877
747.410	0.0170145
747.488	0.0171996
747.567	0.0172851
747.645	0.0173038
747.723	0.0173833
747.801	0.0173388
747.879	0.0172944
747.957	0.0171025
748.035	0.0169319
748.113	0.0166381
748.192	0.0162186
748.270	0.0160413
748.348	0.0156593
748.426	0.0153510
748.504	0.0152761
748.582	0.0151556
748.660	0.0150223
748.738	0.0149648
748.817	0.0151270
748.895	0.0151142
748.973	0.0153194
749.051	0.0153619
749.129	0.0154231
749.207	0.0156112
749.285	0.0158011
749.363	0.0158850
749.442	0.0162064
749.520	0.0161943
749.598	0.0164950
749.676	0.0166058
749.754	0.0167907
749.832	0.0168291
749.910	0.0169841
749.988	0.0171407
750.067	0.0170232
750.145	0.0169125
750.223	0.0168782
750.301	0.0167233
750.379	0.0164967
750.457	0.0164845
750.535	0.0163588
750.613	0.0163377
750.692	0.0164061
750.770	0.0162464
750.848	0.0159251
750.926	0.0159824
751.004	0.0159941
751.082	0.0158075
751.160	0.0160350
751.238	0.0160577
751.317	0.0158524
751.395	0.0159643
751.473	0.0158802
751.551	0.0159842
751.629	0.0158104
751.707	0.0159013
751.785	0.0159016
751.863	0.0159743
751.942	0.0159798
752.020	0.0159032
752.098	0.0159514
752.176	0.0159564
752.254	0.0160235
752.332	0.0159183
752.410	0.0158859
752.488	0.0160555
752.567	0.0160559
752.645	0.0161373
752.723	0.0162853
752.801	0.0163740
752.879	0.0162805
752.957	0.0165775
753.035	0.0166605
753.113	0.0163101
753.192	0.0164889
753.270	0.0165328
753.348	0.0165343
753.426	0.0164741
753.504	0.0162887
753.582	0.0162711
753.660	0.0162714
753.738	0.0161459
753.817	0.0160992
753.895	0.0162479
753.973	0.0161193
754.051	0.0160197
754.129	0.0158974
754.207	0.0159093
754.285	0.0159892
754.363	0.0159137
754.442	0.0157048
754.520	0.0156664
754.598	0.0158012
754.676	0.0158543
754.754	0.0157700
754.832	0.0156308
754.910	0.0158784
754.988	0.0157700
755.067	0.0159832
755.145	0.0158723
755.223	0.0161534
755.301	0.0160824
755.379	0.0160834
755.457	0.0162215
755.535	0.0163106
755.613	0.0163084
755.692	0.0162778
755.770	0.0163544
755.848	0.0164116
755.926	0.0165160
756.004	0.0166433
756.082	0.0166984
756.160	0.0166759
756.238	0.0167139
756.317	0.0166390
756.395	0.0166827
756.473	0.0166586
756.551	0.0166251
756.629	0.0163906
756.707	0.0162196
756.785	0.0162398
756.863	0.0160608
756.942	0.0157706
757.020	0.0155933
757.098	0.0155256
757.176	0.0154095
757.254	0.0152723
757.332	0.0153097
757.410	0.0153082
757.488	0.0154902
757.567	0.0155193
757.645	0.0156459
757.723	0.0157903
757.801	0.0159200
757.879	0.0161506
757.957	0.0163017
758.035	0.0164591
758.113	0.0163942
758.192	0.0165508
758.270	0.0165803
758.348	0.0165078
758.426	0.0164790
758.504	0.0166773
758.582	0.0163999
758.660	0.0163663
758.738	0.0163060
758.817	0.0161932
758.895	0.0163199
758.973	0.0163730
759.051	0.0161931
759.129	0.0164832
759.207	0.0166893
759.285	0.0167015
759.363	0.0167239
759.442	0.0166230
759.520	0.0166772
759.598	0.0163028
759.676	0.0162096
759.754	0.0160017
759.832	0.0157108
759.910	0.0156470
759.988	0.0154000
760.067	0.0153148
760.145	0.0152367
760.223	0.0152066
760.301	0.0151753
760.379	0.0152702
760.457	0.0155256
760.535	0.0157234
760.613	0.0157897
760.692	0.0158784
760.770	0.0161311
760.848	0.0162269
760.926	0.0163311
761.004	0.0164034
761.082	0.0166790
761.160	0.0167343
761.238	0.0167125
761.317	0.0167226
761.395	0.0165387
761.473	0.0162411
761.551	0.0161866
761.629	0.0160040
761.707	0.0160656
761.785	0.0160591
761.863	0.0159680
761.942	0.0159520
762.020	0.0159579
762.098	0.0160590
762.176	0.0160088
762.254	0.0160519
762.332	0.0160226
762.410	0.0161288
762.488	0.0161172
762.567	0.0162582
762.645	0.0163268
762.723	0.0164793
762.801	0.0164828
762.879	0.0165972
762.957	0.0164787
763.035	0.0165046
763.113	0.0163511
763.192	0.0163182
763.270	0.0163464
763.348	0.0162395
763.426	0.0161828
763.504	0.0161066
763.582	0.0161402
763.660	0.0158951
763.738	0.0157249
763.817	0.0158146
763.895	0.0157153
763.973	0.0156583
764.051	0.0156238
764.129	0.0156346
764.207	0.0155003
764.285	0.0156004
764.363	0.0152616
764.442	0.0152312
764.520	0.0153783
764.598	0.0154097
764.676	0.0154461
764.754	0.0155346
764.832	0.0158024
764.910	0.0160535
764.988	0.0161616
765.067	0.0163902
765.145	0.0165275
765.223	0.0166972
765.301	0.0169473
765.379	0.0171371
765.457	0.0168815
765.535	0.0169720
765.613	0.0170080
765.692	0.0170705
765.770	0.0170268
765.848	0.0169803
765.926	0.0169481
766.004	0.0170272
766.082	0.0169553
766.160	0.0169415
766.238	0.0168752
766.317	0.0168976
766.395	0.0167744
766.473	0.0167158
766.551	0.0165914
766.629	0.0166689
766.707	0.0164455
766.785	0.0163242
766.863	0.0159776
766.942	0.0157923
767.020	0.0154575
767.098	0.0153741
767.176	0.0150652
767.254	0.0147785
767.332	0.0144841
767.410	0.0142396
767.488	0.0139928
767.567	0.0139224
767.645	0.0137969
767.723	0.0138222
767.801	0.0138853
767.879	0.0139912
767.957	0.0142381
768.035	0.0144675
768.113	0.0147354
768.192	0.0150719
768.270	0.0153939
768.348	0.0158824
768.426	0.0162154
768.504	0.0166617
768.582	0.0171210
768.660	0.0175207
768.738	0.0178605
768.817	0.0180951
768.895	0.0182626
768.973	0.0183675
769.051	0.0187685
769.129	0.0186829
769.207	0.0184706
769.285	0.0186386
769.363	0.0184354
769.442	0.0181261
769.520	0.0177957
769.598	0.0175513
769.676	0.0173233
769.754	0.0168782
769.832	0.0166026
769.910	0.0161354
769.988	0.0157922
770.067	0.0155389
770.145	0.0153197
770.223	0.0149225
770.301	0.0147910
770.379	0.0147387
770.457	0.0146018
770.535	0.0147062
770.613	0.0148707
770.692	0.0149500
770.770	0.0149885
770.848	0.0151885
770.926	0.0154342
771.004	0.0156237
771.082	0.0157674
771.160	0.0159248
771.238	0.0159575
771.317	0.0159506
771.395	0.0160564
771.473	0.0160801
771.551	0.0158792
771.629	0.0157950
771.707	0.0157093
771.785	0.0155144
771.863	0.0156039
771.942	0.0155155
772.020	0.0153419
772.098	0.0153767
772.176	0.0153540
772.254	0.0151010
772.332	0.0151009
772.410	0.0152441
772.488	0.0151163
772.567	0.0150881
772.645	0.0151835
772.723	0.0153092
772.801	0.0154237
772.879	0.0157207
772.957	0.0160100
773.035	0.0161731
773.113	0.0165830
773.192	0.0169277
773.270	0.0172676
773.348	0.0175390
773.426	0.0179071
773.504	0.0181208
773.582	0.0180894
773.660	0.0181824
773.738	0.0181547
773.817	0.0183036
773.895	0.0181269
773.973	0.0179852
774.051	0.0178508
774.129	0.0175051
774.207	0.0172229
774.285	0.0170496
774.363	0.0170404
774.442	0.0166199
774.520	0.0164293
774.598	0.0163927
774.676	0.0162038
774.754	0.0160455
774.832	0.0160812
774.910	0.0157677
774.988	0.0157448
775.067	0.0158344
775.145	0.0156520
775.223	0.0156187
775.301	0.0155804
775.379	0.0155874
775.457	0.0155135
775.535	0.0155744
775.613	0.0153126
775.692	0.0153439
775.770	0.0153144
775.848	0.0151854
775.926	0.0150645
776.004	0.0149947
776.082	0.0149828
776.160	0.0147778
776.238	0.0146114
776.317	0.0148106
776.395	0.0145373
776.473	0.0145103
776.551	0.0144338
776.629	0.0144929
776.707	0.0143785
776.785	0.0143028
776.863	0.0146577
776.942	0.0145802
777.020	0.0147839
777.098	0.0150199
777.176	0.0150575
777.254	0.0153371
777.332	0.0157639
777.410	0.0160802
777.488	0.0163828
777.567	0.0166853
777.645	0.0170741
777.723	0.0173157
777.801	0.0177599
777.879	0.0182275
777.957	0.0186318
778.035	0.0189336
778.113	0.0193072
778.192	0.0196542
778.270	0.0198727
778.348	0.0199546
778.426	0.0199234
778.504	0.0197189
778.582	0.0193904
778.660	0.0191663
778.738	0.0187260
778.817	0.0182513
778.895	0.0177284
778.973	0.0171002
779.051	0.0167368
779.129	0.0160417
779.207	0.0155473
779.285	0.0148605
779.363	0.0147509
779.442	0.0142960
779.520	0.0138449
779.598	0.0137126
779.676	0.0133539
779.754	0.0132965
779.832	0.0132360
779.910	0.0132606
779.988	0.0132621
780.067	0.0135030
780.145	0.0136693
780.223	0.0139379
780.301	0.0141082
780.379	0.0145181
780.457	0.0147047
780.535	0.0150595
780.613	0.0153292
780.692	0.0156999
780.770	0.0158021
780.848	0.0160554
780.926	0.0162510
781.004	0.0165509
781.082	0.0167139
781.160	0.0167970
781.238	0.0171732
781.317	0.0172706
781.395	0.0172643
781.473	0.0171760
781.551	0.0171220
781.629	0.0168175
781.707	0.0166729
781.785	0.0164857
781.863	0.0160368
781.942	0.0157566
782.020	0.0153542
782.098	0.0150078
782.176	0.0149060
782.254	0.0146301
782.332	0.0143228
782.410	0.0142904
782.488	0.0141389
782.567	0.0146180
782.645	0.0146823
782.723	0.0151056
782.801	0.0156470
782.879	0.0162769
782.957	0.0168875
783.035	0.0175906
783.113	0.0183001
783.192	0.0188481
783.270	0.0194820
783.348	0.0201839
783.426	0.0205710
783.504	0.0205343
783.582	0.0207898
783.660	0.0206469
783.738	0.0203184
783.817	0.0198166
783.895	0.0191470
783.973	0.0186246
784.051	0.0178355
784.129	0.0170129
784.207	0.0162684
784.285	0.0154275
784.363	0.0145908
784.442	0.0139569
784.520	0.0132161
784.598	0.0129819
784.676	0.0126272
784.754	0.0124484
784.832	0.0125332
784.910	0.0127939
784.988	0.0128501
785.067	0.0132677
785.145	0.0135744
785.223	0.0142155
785.301	0.0147025
785.379	0.0150115
785.457	0.0155805
785.535	0.0157320
785.613	0.0160028
785.692	0.0164027
785.770	0.0165619
785.848	0.0165265
785.926	0.0165366
786.004	0.0164566
786.082	0.0162753
786.160	0.0163454
786.238	0.0162233
786.317	0.0161819
786.395	0.0161427
786.473	0.0160649
786.551	0.0160923
786.629	0.0160980
786.707	0.0161958
786.785	0.0160602
786.863	0.0160110
786.942	0.0159205
787.020	0.0158180
787.098	0.0157388
787.176	0.0155582
787.254	0.0154010
787.332	0.0151267
787.410	0.0149796
787.488	0.0148063
787.567	0.0148244
787.645	0.0149043
787.723	0.0150155
787.801	0.0152305
787.879	0.0156037
787.957	0.0161024
788.035	0.0167117
788.113	0.0172652
788.192	0.0178580
788.270	0.0185155
788.348	0.0192518
788.426	0.0198952
788.504	0.0204408
788.582	0.0209403
788.660	0.0212174
788.738	0.0213070
788.817	0.0211340
788.895	0.0210422
788.973	0.0207411
789.051	0.0199272
789.129	0.0193059
789.207	0.0185609
789.285	0.0175620
789.363	0.0165873
789.442	0.0156482
789.520	0.0147247
789.598	0.0139054
789.676	0.0132059
789.754	0.0125018
789.832	0.0122309
789.910	0.0118427
789.988	0.0116843
790.067	0.0116389
790.145	0.0118966
790.223	0.0119993
790.301	0.0123104
790.379	0.0126785
790.457	0.0130408
790.535	0.0136165
790.613	0.0139597
790.692	0.0143655
790.770	0.0146649
790.848	0.0149200
790.926	0.0152580
791.004	0.0153806
791.082	0.0155689
791.160	0.0157227
791.238	0.0160288
791.317	0.0160092
791.395	0.0161285
791.473	0.0161550
791.551	0.0163432
791.629	0.0165855
791.707	0.0168275
791.785	0.0167162
791.863	0.0167926
791.942	0.0168881
792.020	0.0168956
792.098	0.0169295
792.176	0.0168660
792.254	0.0164788
792.332	0.0166709
792.410	0.0164883
792.488	0.0162503
792.567	0.0160835
792.645	0.0160726
792.723	0.0162368
792.801	0.0159406
792.879	0.0159945
792.957	0.0162553
793.035	0.0164120
793.113	0.0167725
793.192	0.0171823
793.270	0.0175964
793.348	0.0180973
793.426	0.0186272
793.504	0.0191094
793.582	0.0197379
793.660	0.0200745
793.738	0.0205935
793.817	0.0208552
793.895	0.0208910
793.973	0.0208045
794.051	0.0205422
794.129	0.0204230
794.207	0.0198737
794.285	0.0191446
794.363	0.0183646
794.442	0.0173582
794.520	0.0163918
794.598	0.0152588
794.676	0.0143110
794.754	0.0132607
794.832	0.0125574
794.910	0.0116504
794.988	0.0111453
795.067	0.0108143
795.145	0.0105351
795.223	0.0105466
795.301	0.0105108
795.379	0.0109166
795.457	0.0113728
795.535	0.0118334
795.613	0.0124644
795.692	0.0132153
795.770	0.0137386
795.848	0.0144440
795.926	0.0149281
796.004	0.0155757
796.082	0.0160074
796.160	0.0163783
796.238	0.0166525
796.317	0.0168011
796.395	0.0170464
796.473	0.0171602
796.551	0.0172006
796.629	0.0172298
796.707	0.0172001
796.785	0.0172671
796.863	0.0170799
796.942	0.0170293
797.020	0.0170793
797.098	0.0170011
797.176	0.0171146
797.254	0.0172021
797.332	0.0171964
797.410	0.0169897
797.488	0.0168912
797.567	0.0168242
797.645	0.0165678
797.723	0.0164474
797.801	0.0164613
797.879	0.0162567
797.957	0.0161803
798.035	0.0162109
798.113	0.0160811
798.192	0.0159863
798.270	0.0161221
798.348	0.0162928
798.426	0.0164951
798.504	0.0167733
798.582	0.0170999
798.660	0.0173023
798.738	0.0178637
798.817	0.0182583
798.895	0.0185954
798.973	0.0188469
799.051	0.0192757
799.129	0.0193413
799.207	0.0192247
799.285	0.0192647
799.363	0.0192696
799.442	0.0188181
799.520	0.0184325
799.598	0.0180020
799.676	0.0174788
799.754	0.0169411
799.832	0.0162920
799.910	0.0155662
799.988	0.0150767
800.067	0.0144505
800.145	0.0138992
800.223	0.0133533
800.301	0.0129556
800.379	0.0127017
800.457	0.0124849
800.535	0.0124427
800.613	0.0125428
800.692	0.0126382
800.770	0.0128969
800.848	0.0131824
800.926	0.0135425
801.004	0.0139591
801.082	0.0142635
801.160	0.0145393
801.238	0.0148802
801.317	0.0150963
801.395	0.0154871
801.473	0.0156435
801.551	0.0158023
801.629	0.0157937
801.707	0.0160637
801.785	0.0162016
801.863	0.0160918
801.942	0.0162296
802.020	0.0162645
802.098	0.0163352
802.176	0.0162040
802.254	0.0162325
802.332	0.0163418
802.410	0.0164719
802.488	0.0163380
802.567	0.0165009
802.645	0.0165735
802.723	0.0167147
802.801	0.0165830
802.879	0.0166521
802.957	0.0166521
803.035	0.0165359
803.113	0.0166814
803.192	0.0167719
803.270	0.0168081
803.348	0.0166280
803.426	0.0166997
803.504	0.0168395
803.582	0.0169880
803.660	0.0171385
803.738	0.0172569
803.817	0.0174357
803.895	0.0176212
803.973	0.0179381
804.051	0.0181681
804.129	0.0182569
804.207	0.0185970
804.285	0.0187792
804.363	0.0187143
804.442	0.0188233
804.520	0.0186906
804.598	0.0186090
804.676	0.0182870
804.754	0.0179459
804.832	0.0176059
804.910	0.0171699
804.988	0.0167216
805.067	0.0160704
805.145	0.0157736
805.223	0.0153115
805.301	0.0148190
805.379	0.0144894
805.457	0.0140185
805.535	0.0137674
805.613	0.0135398
805.692	0.0133772
805.770	0.0132285
805.848	0.0132798
805.926	0.0133511
806.004	0.0134824
806.082	0.0136751
806.160	0.0138790
806.238	0.0139227
806.317	0.0142371
806.395	0.0146748
806.473	0.0148215
806.551	0.0151086
806.629	0.0153909
806.707	0.0155703
806.785	0.0157928
806.863	0.0158689
806.942	0.0160595
807.020	0.0162180
807.098	0.0162252
807.176	0.0163107
807.254	0.0161806
807.332	0.0163186
807.410	0.0162486
807.488	0.0163195
807.567	0.0165061
807.645	0.0165437
807.723	0.0166473
807.801	0.0166294
807.879	0.0167915
807.957	0.0167415
808.035	0.0167559
808.113	0.0168471
808.192	0.0167354
808.270	0.0166488
808.348	0.0165536
808.426	0.0165359
808.504	0.0166411
808.582	0.0164285
808.660	0.0163514
808.738	0.0161634
808.817	0.0162993
808.895	0.0163648
808.973	0.0164309
809.051	0.0164069
809.129	0.0165765
809.207	0.0168176
809.285	0.0169488
809.363	0.0172214
809.442	0.0174113
809.520	0.0176448
809.598	0.0179152
809.676	0.0180442
809.754	0.0181841
809.832	0.0181194
809.910	0.0180394
809.988	0.0180192
810.067	0.0177452
810.145	0.0177492
810.223	0.0173616
810.301	0.0168778
810.379	0.0166306
810.457	0.0162005
810.535	0.0159624
810.613	0.0156052
810.692	0.0152147
810.770	0.0151579
810.848	0.0147450
810.926	0.0145316
811.004	0.0146030
811.082	0.0145203
811.160	0.0145294
811.238	0.0147210
811.317	0.0146440
811.395	0.0148318
811.473	0.0149622
811.551	0.0150815
811.629	0.0151117
811.707	0.0152623
811.785	0.0152864
811.863	0.0152435
811.942	0.0155901
812.020	0.0156185
812.098	0.0155264
812.176	0.0156236
812.254	0.0156657
812.332	0.0157571
812.410	0.0157596
812.488	0.0158747
812.567	0.0159126
812.645	0.0158386
812.723	0.0159109
812.801	0.0160931
812.879	0.0160099
812.957	0.0160724
813.035	0.0160592
813.113	0.0161752
813.192	0.0159972
813.270	0.0158604
813.348	0.0159421
813.426	0.0158839
813.504	0.0158322
813.582	0.0157880
813.660	0.0155402
813.738	0.0156233
813.817	0.0155861
813.895	0.0154672
813.973	0.0154058
814.051	0.0155487
814.129	0.0155103
814.207	0.0156173
814.285	0.0157271
814.363	0.0159479
814.442	0.0160191
814.520	0.0162682
814.598	0.0166149
814.676	0.0168786
814.754	0.0170728
814.832	0.0173898
814.910	0.0176883
814.988	0.0180737
815.067	0.0182910
815.145	0.0184711
815.223	0.0185369
815.301	0.0185666
815.379	0.0185165
815.457	0.0183939
815.535	0.0183477
815.613	0.0181517
815.692	0.0176678
815.770	0.0174989
815.848	0.0170214
815.926	0.0168792
816.004	0.0165716
816.082	0.0162776
816.160	0.0159186
816.238	0.0156399
816.317	0.0153801
816.395	0.0151262
816.473	0.0148978
816.551	0.0147713
816.629	0.0146946
816.707	0.0146603
816.785	0.0147471
816.863	0.0147598
816.942	0.0146383
817.020	0.0146721
817.098	0.0147360
817.176	0.0148162
817.254	0.0147766
817.332	0.0148154
817.410	0.0148889
817.488	0.0149777
817.567	0.0152720
817.645	0.0153064
817.723	0.0153493
817.801	0.0156130
817.879	0.0156689
817.957	0.0156817
818.035	0.0157332
818.113	0.0160056
818.192	0.0160117
818.270	0.0161221
818.348	0.0160647
818.426	0.0162259
818.504	0.0161957
818.582	0.0161590
818.660	0.0160838
818.738	0.0160573
818.817	0.0159735
818.895	0.0159381
818.973	0.0159317
819.051	0.0156371
819.129	0.0156295
819.207	0.0156844
819.285	0.0155970
819.363	0.0154927
819.442	0.0156673
819.520	0.0156212
819.598	0.0157097
819.676	0.0155833
819.754	0.0156007
819.832	0.0157986
819.910	0.0160343
819.988	0.0163213
820.067	0.0163680
820.145	0.0165057
820.223	0.0165709
820.301	0.0167765
820.379	0.0168931
820.457	0.0171465
820.535	0.0173727
820.613	0.0174266
820.692	0.0174916
820.770	0.0176826
820.848	0.0176243
820.926	0.0178298
821.004	0.0176612
821.082	0.0175413
821.160	0.0174805
821.238	0.0174604
821.317	0.0172342
821.395	0.0171477
821.473	0.0170515
821.551	0.0167448
821.629	0.0165106
821.707	0.0163791
821.785	0.0162514
821.863	0.0159928
821.942	0.0157836
822.020	0.0156953
822.098	0.0154068
822.176	0.0152286
822.254	0.0150847
822.332	0.0150108
822.410	0.0148516
822.488	0.0147535
822.567	0.0147913
822.645	0.0148311
822.723	0.0149393
822.801	0.0150631
822.879	0.0152778
822.957	0.0154153
823.035	0.0155791
823.113	0.0157986
823.192	0.0158895
823.270	0.0160662
823.348	0.0161895
823.426	0.0161895
823.504	0.0162457
823.582	0.0163775
823.660	0.0165526
823.738	0.0165117
823.817	0.0164838
823.895	0.0164804
823.973	0.0164297
824.051	0.0162529
824.129	0.0161914
824.207	0.0161652
824.285	0.0158810
824.363	0.0158710
824.442	0.0156657
824.520	0.0155463
824.598	0.0155599
824.676	0.0154513
824.754	0.0152203
824.832	0.0153662
824.910	0.0152636
824.988	0.0153775
825.067	0.0155350
825.145	0.0154261
825.223	0.0154356
825.301	0.0156261
825.379	0.0157350
825.457	0.0157113
825.535	0.0157428
825.613	0.0159888
825.692	0.0160543
825.770	0.0161008
825.848	0.0163183
825.926	0.0165486
826.004	0.0166357
826.082	0.0167205
826.160	0.0167418
826.238	0.0168256
826.317	0.0169917
826.395	0.0170326
826.473	0.0172162
826.551	0.0170255
826.629	0.0172018
826.707	0.0172937
826.785	0.0171780
826.863	0.0173486
826.942	0.0173735
827.020	0.0173113
827.098	0.0172846
827.176	0.0171562
827.254	0.0170377
827.332	0.0169154
827.410	0.0165810
827.488	0.0166092
827.567	0.0163811
827.645	0.0163187
827.723	0.0160521
827.801	0.0158991
827.879	0.0156882
827.957	0.0157567
828.035	0.0155924
828.113	0.0153408
828.192	0.0152850
828.270	0.0153966
828.348	0.0151342
828.426	0.0151670
828.504	0.0153053
828.582	0.0153836
828.660	0.0155827
828.738	0.0154566
828.817	0.0156122
828.895	0.0158334
828.973	0.0159499
829.051	0.0158325
829.129	0.0158737
829.207	0.0160300
829.285	0.0159325
829.363	0.0157759
829.442	0.0158661
829.520	0.0158660
829.598	0.0157561
829.676	0.0155723
829.754	0.0156343
829.832	0.0155920
829.910	0.0155486
829.988	0.0154614
830.067	0.0155209
830.145	0.0155650
830.223	0.0155453
830.301	0.0155610
830.379	0.0155731
830.457	0.0155952
830.535	0.0158530
830.613	0.0157986
830.692	0.0158292
830.770	0.0159953
830.848	0.0161744
830.926	0.0161920
831.004	0.0163219
831.082	0.0162759
831.160	0.0165706
831.238	0.0165813
831.317	0.0165285
831.395	0.0164667
831.473	0.0165402
831.551	0.0167281
831.629	0.0166231
831.707	0.0166462
831.785	0.0167339
831.863	0.0167870
831.942	0.0167134
832.020	0.0167470
832.098	0.0166279
832.176	0.0166706
832.254	0.0167582
832.332	0.0166322
832.410	0.0166994
832.488	0.0165187
832.567	0.0165862
832.645	0.0165926
832.723	0.0164218
832.801	0.0164050
832.879	0.0164262
832.957	0.0162883
833.035	0.0161610
833.113	0.0162220
833.192	0.0160792
833.270	0.0161287
833.348	0.0161493
833.426	0.0161007
833.504	0.0160394
833.582	0.0159904
833.660	0.0159978
833.738	0.0160108
833.817	0.0160970
833.895	0.0160882
833.973	0.0160564
834.051	0.0161139
834.129	0.0161763
834.207	0.0160530
834.285	0.0160347
834.363	0.0160072
834.442	0.0160331
834.520	0.0159325
834.598	0.0158479
834.676	0.0157479
834.754	0.0156171
834.832	0.0158177
834.910	0.0157613
834.988	0.0156565
835.067	0.0155301
835.145	0.0156535
835.223	0.0156757
835.301	0.0156197
835.379	0.0155603
835.457	0.0156777
835.535	0.0158835
835.613	0.0160147
835.692	0.0160239
835.770	0.0161134
835.848	0.0162002
835.926	0.0162399
836.004	0.0162730
836.082	0.0163409
836.160	0.0164178
836.238	0.0162830
836.317	0.0161555
836.395	0.0163520
836.473	0.0161106
836.551	0.0159863
836.629	0.0159962
836.707	0.0158340
836.785	0.0157950
836.863	0.0158562
836.942	0.0157441
837.020	0.0158227
837.098	0.0158327
837.176	0.0158421
837.254	0.0159953
837.332	0.0160610
837.410	0.0160724
837.488	0.0163329
837.567	0.0161783
837.645	0.0164331
837.723	0.0164835
837.801	0.0165086
837.879	0.0165183
837.957	0.0164139
838.035	0.0166885
838.113	0.0165511
838.192	0.0166064
838.270	0.0165032
838.348	0.0164777
838.426	0.0164413
838.504	0.0163810
838.582	0.0163305
838.660	0.0162748
838.738	0.0161650
838.817	0.0162813
838.895	0.0161002
838.973	0.0160611
839.051	0.0160860
839.129	0.0162858
839.207	0.0162381
839.285	0.0164230
839.363	0.0162972
839.442	0.0162322
839.520	0.0163811
839.598	0.0164635
839.676	0.0165414
839.754	0.0164391
839.832	0.0164587
839.910	0.0164413
839.988	0.0163633
840.067	0.0161965
840.145	0.0160701
840.223	0.0161700
840.301	0.0159171
840.379	0.0157561
840.457	0.0156590
840.535	0.0156381
840.613	0.0156399
840.692	0.0154751
840.770	0.0155338
840.848	0.0155355
840.926	0.0155031
841.004	0.0155807
841.082	0.0156339
841.160	0.0156579
841.238	0.0157503
841.317	0.0158414
841.395	0.0158562
841.473	0.0159821
841.551	0.0159363
841.629	0.0160963
841.707	0.0162234
841.785	0.0160482
841.863	0.0161154
841.942	0.0163243
842.020	0.0163577
842.098	0.0161282
842.176	0.0162222
842.254	0.0161864
842.332	0.0163165
842.410	0.0161794
842.488	0.0160807
842.567	0.0161943
842.645	0.0162321
842.723	0.0160304
842.801	0.0160835
842.879	0.0161626
842.957	0.0161285
843.035	0.0162436
843.113	0.0161662
843.192	0.0162460
843.270	0.0163679
843.348	0.0163243
843.426	0.0162235
843.504	0.0162698
843.582	0.0161846
843.660	0.0162533
843.738	0.0162492
843.817	0.0162968
843.895	0.0162993
843.973	0.0161814
844.051	0.0160037
844.129	0.0160351
844.207	0.0160786
844.285	0.0161927
844.363	0.0161584
844.442	0.0160728
844.520	0.0160583
844.598	0.0161411
844.676	0.0162057
844.754	0.0162666
844.832	0.0163615
844.910	0.0163464
844.988	0.0164043
845.067	0.0163240
845.145	0.0163799
845.223	0.0162678
845.301	0.0162547
845.379	0.0161983
845.457	0.0160699
845.535	0.0160685
845.613	0.0160895
845.692	0.0157887
845.770	0.0157614
845.848	0.0160216
845.926	0.0158938
846.004	0.0158320
846.082	0.0159441
846.160	0.0158952
846.238	0.0157902
846.317	0.0158733
846.395	0.0158558
846.473	0.0159074
846.551	0.0160479
846.629	0.0160978
846.707	0.0161065
846.785	0.0163313
846.863	0.0162007
846.942	0.0162844
847.020	0.0162646
847.098	0.0161716
847.176	0.0161304
847.254	0.0161093
847.332	0.0160258
847.410	0.0160100
847.488	0.0159510
847.567	0.0158253
847.645	0.0158644
847.723	0.0157619
847.801	0.0158043
847.879	0.0158218
847.957	0.0158698
848.035	0.0159573
848.113	0.0159695
848.192	0.0160388
848.270	0.0163367
848.348	0.0161541
848.426	0.0162615
848.504	0.0164056
848.582	0.0164879
848.660	0.0164337
848.738	0.0164112
848.817	0.0164492
848.895	0.0163464
848.973	0.0161849
849.051	0.0161520
849.129	0.0160922
849.207	0.0159335
849.285	0.0158966
849.363	0.0158440
849.442	0.0158215
849.520	0.0159696
849.598	0.0158042
849.676	0.0159198
849.754	0.0159940
849.832	0.0158755
849.910	0.0159901
849.988	0.0160099
850.067	0.0161646
850.145	0.0162688
850.223	0.0164053
850.301	0.0163542
850.379	0.0164703
850.457	0.0166145
850.535	0.0164628
850.613	0.0166681
850.692	0.0166824
850.770	0.0165717
850.848	0.0166100
850.926	0.0165041
851.004	0.0164781
851.082	0.0163125
851.160	0.0161732
851.238	0.0162173
851.317	0.0160672
851.395	0.0160290
851.473	0.0159664
851.551	0.0160023
851.629	0.0159574
851.707	0.0159640
851.785	0.0160368
851.863	0.0160600
851.942	0.0159039
852.020	0.0159771
852.098	0.0161451
852.176	0.0161546
852.254	0.0161115
852.332	0.0162663
852.410	0.0163495
852.488	0.0163309
852.567	0.0164820
852.645	0.0162852
852.723	0.0162077
852.801	0.0163660
852.879	0.0161551
852.957	0.0160040
853.035	0.0161789
853.113	0.0159551
853.192	0.0159257
853.270	0.0158174
853.348	0.0159212
853.426	0.0158212
853.504	0.0157626
853.582	0.0158064
853.660	0.0158179
853.738	0.0160279
853.817	0.0160257
853.895	0.0159199
853.973	0.0161204
854.051	0.0160869
854.129	0.0161430
854.207	0.0162216
854.285	0.0163374
854.363	0.0165685
854.442	0.0164809
854.520	0.0165205
854.598	0.0164084
854.676	0.0164487
854.754	0.0164249
854.832	0.0163992
854.910	0.0162258
854.988	0.0162091
855.067	0.0160670
855.145	0.0159710
855.223	0.0159579
855.301	0.0158639
855.379	0.0158099
855.457	0.0158327
855.535	0.0158237
855.613	0.0160338
855.692	0.0159531
855.770	0.0160044
855.848	0.0160269
855.926	0.0160680
856.004	0.0160642
856.082	0.0160315
856.160	0.0161004
856.238	0.0162152
856.317	0.0163108
856.395	0.0161823
856.473	0.0162580
856.551	0.0162659
856.629	0.0162078
856.707	0.0163580
856.785	0.0163711
856.863	0.0161633
856.942	0.0161878
857.020	0.0162019
857.098	0.0162511
857.176	0.0162595
857.254	0.0163802
857.332	0.0161931
857.410	0.0161663
857.488	0.0162011
857.567	0.0162082
857.645	0.0162901
857.723	0.0161797
857.801	0.0161628
857.879	0.0161484
857.957	0.0160403
858.035	0.0159878
858.113	0.0159917
858.192	0.0159312
858.270	0.0158450
858.348	0.0158504
858.426	0.0158242
858.504	0.0157544
858.582	0.0158621
858.660	0.0157090
858.738	0.0159705
858.817	0.0159748
858.895	0.0161425
858.973	0.0160161
859.051	0.0161353
859.129	0.0162876
859.207	0.0162376
859.285	0.0163305
859.363	0.0164242
859.442	0.0164642
859.520	0.0165704
859.598	0.0166435
859.676	0.0165620
859.754	0.0163813
859.832	0.0164135
859.910	0.0162968
859.988	0.0162316
860.067	0.0162849
860.145	0.0162185
860.223	0.0160015
860.301	0.0160092
860.379	0.0159252
860.457	0.0157857
860.535	0.0159093
860.613	0.0158435
860.692	0.0158365
860.770	0.0157416
860.848	0.0159142
860.926	0.0160317
861.004	0.0159614
861.082	0.0159443
861.160	0.0160542
861.238	0.0162799
861.317	0.0162349
861.395	0.0161231
861.473	0.0161214
861.551	0.0162214
861.629	0.0163174
861.707	0.0161045
861.785	0.0162128
861.863	0.0161380
861.942	0.0161720
862.020	0.0163665
862.098	0.0162162
862.176	0.0161668
862.254	0.0162596
862.332	0.0163002
862.410	0.0163177
862.488	0.0163028
862.567	0.0164648
862.645	0.0162794
862.723	0.0163788
862.801	0.0165348
862.879	0.0163122
862.957	0.0163963
863.035	0.0163553
863.113	0.0163884
863.192	0.0162661
863.270	0.0161710
863.348	0.0161995
863.426	0.0160619
863.504	0.0159921
863.582	0.0159781
863.660	0.0157675
863.738	0.0156850
863.817	0.0157205
863.895	0.0156977
863.973	0.0154858
864.051	0.0155485
864.129	0.0154501
864.207	0.0156091
864.285	0.0157050
864.363	0.0157279
864.442	0.0157343
864.520	0.0157628
864.598	0.0160676
864.676	0.0158752
864.754	0.0160517
864.832	0.0161639
864.910	0.0160702
864.988	0.0164904
865.067	0.0163881
865.145	0.0163243
865.223	0.0164486
865.301	0.0164637
865.379	0.0163214
865.457	0.0163901
865.535	0.0163599
865.613	0.0163139
865.692	0.0164323
865.770	0.0164191
865.848	0.0164698
865.926	0.0162748
866.004	0.0164411
866.082	0.0165250
866.160	0.0164456
866.238	0.0163636
866.317	0.0164361
866.395	0.0164300
866.473	0.0163197
866.551	0.0163462
866.629	0.0164100
866.707	0.0162995
866.785	0.0163750
866.863	0.0163000
866.942	0.0163072
867.020	0.0161768
867.098	0.0162025
867.176	0.0160928
867.254	0.0161241
867.332	0.0160419
867.410	0.0159580
867.488	0.0159637
867.567	0.0157529
867.645	0.0158445
867.723	0.0159196
867.801	0.0157982
867.879	0.0157623
867.957	0.0158848
868.035	0.0157848
868.113	0.0158845
868.192	0.0158332
868.270	0.0157551
868.348	0.0157964
868.426	0.0158092
868.504	0.0159505
868.582	0.0159113
868.660	0.0158293
868.738	0.0160099
868.817	0.0160255
868.895	0.0159988
868.973	0.0160031
869.051	0.0158893
869.129	0.0160804
869.207	0.0161208
869.285	0.0161202
869.363	0.0160347
869.442	0.0159885
869.520	0.0159811
869.598	0.0160696
869.676	0.0161031
869.754	0.0161140
869.832	0.0161470
869.910	0.0161052
869.988	0.0163084
870.067	0.0163297
870.145	0.0163352
870.223	0.0164017
870.301	0.0164281
870.379	0.0163250
870.457	0.0165284
870.535	0.0165587
870.613	0.0164954
870.692	0.0163885
870.770	0.0163065
870.848	0.0162369
870.926	0.0163853
871.004	0.0163445
871.082	0.0162415
871.160	0.0161477
871.238	0.0161950
871.317	0.0159229
871.395	0.0160464
871.473	0.0160992
871.551	0.0160629
871.629	0.0161140
871.707	0.0160896
871.785	0.0162005
871.863	0.0161825
871.942	0.0160249
872.020	0.0161217
872.098	0.0160827
872.176	0.0159277
872.254	0.0160307
872.332	0.0160106
872.410	0.0159821
872.488	0.0159001
872.567	0.0158827
872.645	0.0158090
872.723	0.0158305
872.801	0.0157658
872.879	0.0157390
872.957	0.0157413
873.035	0.0159115
873.113	0.0160195
873.192	0.0159038
873.270	0.0159583
873.348	0.0159490
873.426	0.0159802
873.504	0.0160800
873.582	0.0161377
873.660	0.0160955
873.738	0.0160158
873.817	0.0162688
873.895	0.0161896
873.973	0.0163107
874.051	0.0162025
874.129	0.0161375
874.207	0.0162556
874.285	0.0162066
874.363	0.0162560
874.442	0.0162496
874.520	0.0162809
874.598	0.0163229
874.676	0.0161930
874.754	0.0162730
874.832	0.0162161
874.910	0.0160532
874.988	0.0161888
875.067	0.0162549
875.145	0.0163350
875.223	0.0163268
875.301	0.0164225
875.379	0.0162386
875.457	0.0163486
875.535	0.0163405
875.613	0.0162532
875.692	0.0164090
875.770	0.0163753
875.848	0.0162297
875.926	0.0163078
876.004	0.0160979
876.082	0.0161929
876.160	0.0161343
876.238	0.0159802
876.317	0.0158515
876.395	0.0158213
876.473	0.0157907
876.551	0.0157454
876.629	0.0156706
876.707	0.0157195
876.785	0.0155199
876.863	0.0155501
876.942	0.0155739
877.020	0.0156940
877.098	0.0156114
877.176	0.0157896
877.254	0.0158257
877.332	0.0158213
877.410	0.0159133
877.488	0.0160326
877.567	0.0159383
877.645	0.0161223
877.723	0.0162563
877.801	0.0164279
877.879	0.0164415
877.957	0.0165647
878.035	0.0165533
878.113	0.0165922
878.192	0.0164520
878.270	0.0165395
878.348	0.0166132
878.426	0.0165289
878.504	0.0163866
878.582	0.0164027
878.660	0.0163827
878.738	0.0162733
878.817	0.0161972
878.895	0.0161954
878.973	0.0162382
879.051	0.0162837
879.129	0.0161501
879.207	0.0161747
879.285	0.0162125
879.363	0.0161578
879.442	0.0162540
879.520	0.0163383
879.598	0.0161253
879.676	0.0162720
879.754	0.0161813
879.832	0.0163289
879.910	0.0161271
879.988	0.0165393
880.067	0.0163657
880.145	0.0163252
880.223	0.0163017
880.301	0.0165485
880.379	0.0164445
880.457	0.0165115
880.535	0.0162233
880.613	0.0163168
880.692	0.0163172
880.770	0.0161566
880.848	0.0160992
880.926	0.0161269
881.004	0.0159428
881.082	0.0157756
881.160	0.0156794
881.238	0.0157751
881.317	0.0156189
881.395	0.0156088
881.473	0.0154606
881.551	0.0154792
881.629	0.0154810
881.707	0.0153992
881.785	0.0154003
881.863	0.0154971
881.942	0.0156434
882.020	0.0155812
882.098	0.0156067
882.176	0.0156953
882.254	0.0158431
882.332	0.0159407
882.410	0.0160414
882.488	0.0159209
882.567	0.0161086
882.645	0.0162253
882.723	0.0162366
882.801	0.0164406
882.879	0.0162995
882.957	0.0163607
883.035	0.0164832
883.113	0.0163970
883.192	0.0164540
883.270	0.0163127
883.348	0.0161750
883.426	0.0161842
883.504	0.0161777
883.582	0.0161130
883.660	0.0160168
883.738	0.0159974
883.817	0.0160503
883.895	0.0158821
883.973	0.0160825
884.051	0.0160330
884.129	0.0160989
884.207	0.0160931
884.285	0.0162294
884.363	0.0163783
884.442	0.0163819
884.520	0.0163306
884.598	0.0165119
884.676	0.0166589
884.754	0.0165764
884.832	0.0167616
884.910	0.0167004
884.988	0.0167455
885.067	0.0167459
885.145	0.0168887
885.223	0.0167287
885.301	0.0169008
885.379	0.0167525
885.457	0.0166969
885.535	0.0165858
885.613	0.0165595
885.692	0.0165833
885.770	0.0165086
885.848	0.0163774
885.926	0.0162103
886.004	0.0162605
886.082	0.0161510
886.160	0.0160942
886.238	0.0159692
886.317	0.0159720
886.395	0.0159344
886.473	0.0157453
886.551	0.0157883
886.629	0.0156879
886.707	0.0156330
886.785	0.0155995
886.863	0.0155324
886.942	0.0157630
887.020	0.0156823
887.098	0.0155571
887.176	0.0155552
887.254	0.0154820
887.332	0.0156686
887.410	0.0157115
887.488	0.0155370
887.567	0.0156121
887.645	0.0156322
887.723	0.0158422
887.801	0.0158849
887.879	0.0160317
887.957	0.0159734
888.035	0.0159061
888.113	0.0162546
888.192	0.0160537
888.270	0.0160924
888.348	0.0161917
888.426	0.0161879
888.504	0.0161941
888.582	0.0162933
888.660	0.0163169
888.738	0.0163161
888.817	0.0161006
888.895	0.0162650
888.973	0.0162146
889.051	0.0162756
889.129	0.0163355
889.207	0.0162617
889.285	0.0162490
889.363	0.0163602
889.442	0.0164964
889.520	0.0164826
889.598	0.0165357
889.676	0.0166766
889.754	0.0167100
889.832	0.0165967
889.910	0.0166470
889.988	0.0168303
890.067	0.0167458
890.145	0.0168365
890.223	0.0166590
890.301	0.0167346
890.379	0.0169019
890.457	0.0168536
890.535	0.0166314
890.613	0.0166064
890.692	0.0166135
890.770	0.0165798
890.848	0.0163367
890.926	0.0164020
891.004	0.0163467
891.082	0.0161388
891.160	0.0160503
891.238	0.0158808
891.317	0.0158728
891.395	0.0157748
891.473	0.0157498
891.551	0.0155805
891.629	0.0155761
891.707	0.0154723
891.785	0.0154610
891.863	0.0153686
891.942	0.0154137
892.020	0.0152499
892.098	0.0154736
892.176	0.0152463
892.254	0.0153738
892.332	0.0155140
892.410	0.0154748
892.488	0.0155469
892.567	0.0157516
892.645	0.0157809
892.723	0.0158212
892.801	0.0159550
892.879	0.0160043
892.957	0.0160507
893.035	0.0161951
893.113	0.0163075
893.192	0.0162861
893.270	0.0162830
893.348	0.0164427
893.426	0.0161378
893.504	0.0163261
893.582	0.0164557
893.660	0.0163998
893.738	0.0162593
893.817	0.0164076
893.895	0.0164054
893.973	0.0162988
894.051	0.0163638
894.129	0.0163206
894.207	0.0162093
894.285	0.0160736
894.363	0.0161975
894.442	0.0161638
894.520	0.0161230
894.598	0.0160062
894.676	0.0161565
894.754	0.0162764
894.832	0.0162259
894.910	0.0160820
894.988	0.0162341
895.067	0.0162197
895.145	0.0163413
895.223	0.0164237
895.301	0.0164505
895.379	0.0163667
895.457	0.0164274
895.535	0.0166348
895.613	0.0165012
895.692	0.0166373
895.770	0.0165050
895.848	0.0163453
895.926	0.0164191
896.004	0.0162856
896.082	0.0162734
896.160	0.0162498
896.238	0.0162153
896.317	0.0160202
896.395	0.0158819
896.473	0.0159417
896.551	0.0158395
896.629	0.0157524
896.707	0.0158260
896.785	0.0156673
896.863	0.0158595
896.942	0.0157552
897.020	0.0156641
897.098	0.0157648
897.176	0.0155083
897.254	0.0157264
897.332	0.0157350
897.410	0.0157068
897.488	0.0157615
897.567	0.0158860
897.645	0.0159338
897.723	0.0157990
897.801	0.0158878
897.879	0.0159389
897.957	0.0158631
898.035	0.0159514
898.113	0.0159316
898.192	0.0160117
898.270	0.0158920
898.348	0.0160621
898.426	0.0161021
898.504	0.0159596
898.582	0.0160587
898.660	0.0160098
898.738	0.0161787
898.817	0.0160461
898.895	0.0160224
898.973	0.0159842
899.051	0.0161066
899.129	0.0160616
899.207	0.0161278
899.285	0.0164001
899.363	0.0162650
899.442	0.0163313
899.520	0.0164161
899.598	0.0162511
899.676	0.0163881
899.754	0.0164929
899.832	0.0164758
899.910	0.0165170
899.988	0.0164421
900.067	0.0165540
900.145	0.0165178
900.223	0.0164863
900.301	0.0164703
900.379	0.0164126
900.457	0.0165797
900.535	0.0163607
900.613	0.0163858
900.692	0.0164206
900.770	0.0164814
900.848	0.0162164
900.926	0.0164389
901.004	0.0163502
901.082	0.0164106
901.160	0.0162640
901.238	0.0163892
901.317	0.0162768
901.395	0.0162801
901.473	0.0161507
901.551	0.0160669
901.629	0.0161237
901.707	0.0160592
901.785	0.0161688
901.863	0.0159907
901.942	0.0159411
902.020	0.0159149
902.098	0.0158369
902.176	0.0158775
902.254	0.0157368
902.332	0.0158719
902.410	0.0156957
902.488	0.0156939
902.567	0.0156165
902.645	0.0155482
902.723	0.0154961
902.801	0.0154822
902.879	0.0156272
902.957	0.0156748
903.035	0.0155058
903.113	0.0154657
903.192	0.0156717
903.270	0.0156100
903.348	0.0158092
903.426	0.0156439
903.504	0.0156815
903.582	0.0158151
903.660	0.0158704
903.738	0.0159322
903.817	0.0158756
903.895	0.0161799
903.973	0.0160703
904.051	0.0162309
904.129	0.0162409
904.207	0.0161102
904.285	0.0163118
904.363	0.0162706
904.442	0.0164827
904.520	0.0163551
904.598	0.0161978
904.676	0.0163632
904.754	0.0162937
904.832	0.0161768
904.910	0.0162099
904.988	0.0162336
905.067	0.0162244
905.145	0.0162639
905.223	0.0161832
905.301	0.0164241
905.379	0.0162361
905.457	0.0162457
905.535	0.0165009
905.613	0.0164450
905.692	0.0165720
905.770	0.0164563
905.848	0.0165536
905.926	0.0165525
906.004	0.0164527
906.082	0.0164622
906.160	0.0165173
906.238	0.0164366
906.317	0.0164812
906.395	0.0164851
906.473	0.0164579
906.551	0.0163799
906.629	0.0165109
906.707	0.0163203
906.785	0.0162151
906.863	0.0161977
906.942	0.0160968
907.020	0.0161320
907.098	0.0160133
907.176	0.0159412
907.254	0.0158919
907.332	0.0158143
907.410	0.0159084
907.488	0.0157867
907.567	0.0157643
907.645	0.0157000
907.723	0.0159113
907.801	0.0157658
907.879	0.0156421
907.957	0.0158232
908.035	0.0158558
908.113	0.0158561
908.192	0.0159074
908.270	0.0158767
908.348	0.0160491
908.426	0.0159782
908.504	0.0157683
908.582	0.0158205
908.660	0.0158300
908.738	0.0160151
908.817	0.0159344
908.895	0.0159671
908.973	0.0159059
909.051	0.0159396
909.129	0.0158850
909.207	0.0159462
909.285	0.0159036
909.363	0.0158472
909.442	0.0158621
909.520	0.0159357
909.598	0.0158984
909.676	0.0159538
909.754	0.0159592
909.832	0.0158877
909.910	0.0160622
909.988	0.0160588
910.067	0.0160786
910.145	0.0162970
910.223	0.0162380
910.301	0.0160850
910.379	0.0162260
910.457	0.0163325
910.535	0.0163397
910.613	0.0164711
910.692	0.0164610
910.770	0.0163600
910.848	0.0163946
910.926	0.0164446
911.004	0.0165340
911.082	0.0165475
911.160	0.0165679
911.238	0.0166377
911.317	0.0164622
911.395	0.0163403
911.473	0.0164664
911.551	0.0163372
911.629	0.0164671
911.707	0.0164967
911.785	0.0164551
911.863	0.0162849
911.942	0.0164266
912.020	0.0161969
912.098	0.0162654
912.176	0.0163531
912.254	0.0164449
912.332	0.0162384
912.410	0.0163426
912.488	0.0163553
912.567	0.0162471
912.645	0.0163291
912.723	0.0162489
912.801	0.0161067
912.879	0.0162241
912.957	0.0160703
913.035	0.0158894
913.113	0.0159964
913.192	0.0159697
913.270	0.0158699
913.348	0.0159169
913.426	0.0159071
913.504	0.0158308
913.582	0.0157304
913.660	0.0157367
913.738	0.0157792
913.817	0.0158841
913.895	0.0156796
913.973	0.0158245
914.051	0.0157769
914.129	0.0157333
914.207	0.0159283
914.285	0.0158382
914.363	0.0157818
914.442	0.0159964
914.520	0.0157834
914.598	0.0157998
914.676	0.0159560
914.754	0.0160041
914.832	0.0159361
914.910	0.0162166
914.988	0.0162289
915.067	0.0161104
915.145	0.0160986
915.223	0.0161069
915.301	0.0162109
915.379	0.0161562
915.457	0.0160951
915.535	0.0162099
915.613	0.0161855
915.692	0.0161766
915.770	0.0162103
915.848	0.0162853
915.926	0.0162132
916.004	0.0162350
916.082	0.0163673
916.160	0.0163372
916.238	0.0164529
916.317	0.0164583
916.395	0.0164239
916.473	0.0164033
916.551	0.0164156
916.629	0.0163953
916.707	0.0165211
916.785	0.0163715
916.863	0.0164542
916.942	0.0164473
917.020	0.0164422
917.098	0.0163324
917.176	0.0162967
917.254	0.0162186
917.332	0.0163920
917.410	0.0163579
917.488	0.0162675
917.567	0.0161565
917.645	0.0161340
917.723	0.0161241
917.801	0.0161253
917.879	0.0161090
917.957	0.0162500
918.035	0.0160461
918.113	0.0160059
918.192	0.0158998
918.270	0.0159509
918.348	0.0159068
918.426	0.0158815
918.504	0.0160195
918.582	0.0159829
918.660	0.0158530
918.738	0.0158861
918.817	0.0158817
918.895	0.0159437
918.973	0.0156987
919.051	0.0158468
919.129	0.0158412
919.207	0.0158331
919.285	0.0159572
919.363	0.0158638
919.442	0.0157952
919.520	0.0158308
919.598	0.0158384
919.676	0.0159360
919.754	0.0158581
919.832	0.0159892
919.910	0.0158705
