06/10/2022	16:22:27	Ver.	4.1	UNKNOWN
Optical Delay	599.995081	Delta X		0.078125	Sweeps	1	Scan Rate	0/0
Coordinates	Axis 1	NaN	Axis 2	NaN	Axis 3	NaN	Axis 4	NaN	Axis 5	NaN	Axis 6	0.000000
TX Power	0.000000	RX Power	0.000000

599.995	0.0165778
600.073	0.0165260
600.151	0.0165852
600.229	0.0165205
600.308	0.0166949
600.386	0.0165021
600.464	0.0166148
600.542	0.0165447
600.620	0.0165312
600.698	0.0166742
600.776	0.0166819
600.854	0.0164845
600.933	0.0163406
601.011	0.0166018
601.089	0.0165777
601.167	0.0165765
601.245	0.0166547
601.323	0.0165792
601.401	0.0164447
601.479	0.0166356
601.558	0.0166772
601.636	0.0165718
601.714	0.0165626
601.792	0.0165645
601.870	0.0166706
601.948	0.0167033
602.026	0.0165417
602.104	0.0165726
602.183	0.0163799
602.261	0.0166380
602.339	0.0166685
602.417	0.0166157
602.495	0.0165650
602.573	0.0164973
602.651	0.0166367
602.729	0.0166426
602.808	0.0165631
602.886	0.0165011
602.964	0.0164725
603.042	0.0166397
603.120	0.0167557
603.198	0.0166585
603.276	0.0164810
603.354	0.0164149
603.433	0.0165401
603.511	0.0165555
603.589	0.0165805
603.667	0.0166019
603.745	0.0166308
603.823	0.0165997
603.901	0.0165163
603.979	0.0164630
604.058	0.0165226
604.136	0.0165494
604.214	0.0165186
604.292	0.0167137
604.370	0.0165529
604.448	0.0165746
604.526	0.0165287
604.604	0.0165181
604.683	0.0164800
604.761	0.0166164
604.839	0.0164648
604.917	0.0164954
604.995	0.0166562
605.073	0.0165859
605.151	0.0165646
605.229	0.0166320
605.308	0.0165311
605.386	0.0166362
605.464	0.0165499
605.542	0.0165667
605.620	0.0166032
605.698	0.0165864
605.776	0.0165964
605.854	0.0164149
605.933	0.0166016
606.011	0.0164375
606.089	0.0165275
606.167	0.0165408
606.245	0.0166420
606.323	0.0164035
606.401	0.0164056
606.479	0.0166020
606.558	0.0165132
606.636	0.0166026
606.714	0.0165604
606.792	0.0165743
606.870	0.0165225
606.948	0.0164014
607.026	0.0163776
607.104	0.0165535
607.183	0.0166260
607.261	0.0164169
607.339	0.0164830
607.417	0.0167133
607.495	0.0164794
607.573	0.0166069
607.651	0.0167342
607.729	0.0165179
607.808	0.0164838
607.886	0.0164391
607.964	0.0165484
608.042	0.0165569
608.120	0.0165762
608.198	0.0164577
608.276	0.0164857
608.354	0.0167131
608.433	0.0166006
608.511	0.0166010
608.589	0.0165498
608.667	0.0166335
608.745	0.0164490
608.823	0.0167087
608.901	0.0164378
608.979	0.0165205
609.058	0.0166195
609.136	0.0166697
609.214	0.0166122
609.292	0.0164926
609.370	0.0165020
609.448	0.0166080
609.526	0.0165102
609.604	0.0165190
609.683	0.0166709
609.761	0.0165617
609.839	0.0166516
609.917	0.0165942
609.995	0.0165223
610.073	0.0166016
610.151	0.0165791
610.229	0.0165237
610.308	0.0165509
610.386	0.0165749
610.464	0.0165727
610.542	0.0165855
610.620	0.0165304
610.698	0.0165804
610.776	0.0166801
610.854	0.0166022
610.933	0.0164753
611.011	0.0165044
611.089	0.0165263
611.167	0.0165749
611.245	0.0165798
611.323	0.0164337
611.401	0.0165208
611.479	0.0165582
611.558	0.0165070
611.636	0.0166271
611.714	0.0165746
611.792	0.0166118
611.870	0.0164961
611.948	0.0164335
612.026	0.0165105
612.104	0.0166898
612.183	0.0165002
612.261	0.0164826
612.339	0.0164942
612.417	0.0166113
612.495	0.0165995
612.573	0.0165337
612.651	0.0165804
612.729	0.0164659
612.808	0.0165686
612.886	0.0166460
612.964	0.0165948
613.042	0.0165408
613.120	0.0165473
613.198	0.0166669
613.276	0.0166077
613.354	0.0166369
613.433	0.0165236
613.511	0.0165349
613.589	0.0164502
613.667	0.0165189
613.745	0.0166399
613.823	0.0165178
613.901	0.0165969
613.979	0.0165438
614.058	0.0166525
614.136	0.0164883
614.214	0.0165414
614.292	0.0166813
614.370	0.0167130
614.448	0.0165801
614.526	0.0165102
614.604	0.0166641
614.683	0.0165684
614.761	0.0166634
614.839	0.0165221
614.917	0.0165612
614.995	0.0166407
615.073	0.0166525
615.151	0.0165826
615.229	0.0165491
615.308	0.0165340
615.386	0.0166442
615.464	0.0166246
615.542	0.0167147
615.620	0.0164965
615.698	0.0165397
615.776	0.0165142
615.854	0.0165860
615.933	0.0166065
616.011	0.0166930
616.089	0.0164670
616.167	0.0165356
616.245	0.0166685
616.323	0.0165623
616.401	0.0166735
616.479	0.0165113
616.558	0.0165867
616.636	0.0165807
616.714	0.0165399
616.792	0.0165931
616.870	0.0165292
616.948	0.0164937
617.026	0.0165278
617.104	0.0166164
617.183	0.0166130
617.261	0.0166431
617.339	0.0166267
617.417	0.0164881
617.495	0.0166358
617.573	0.0165449
617.651	0.0165125
617.729	0.0165099
617.808	0.0166256
617.886	0.0165659
617.964	0.0166074
618.042	0.0167722
618.120	0.0167918
618.198	0.0167014
618.276	0.0167403
618.354	0.0166087
618.433	0.0165696
618.511	0.0166219
618.589	0.0164993
618.667	0.0165783
618.745	0.0166564
618.823	0.0168542
618.901	0.0165382
618.979	0.0164757
619.058	0.0165052
619.136	0.0164558
619.214	0.0165542
619.292	0.0165591
619.370	0.0166611
619.448	0.0165755
619.526	0.0166132
619.604	0.0165932
619.683	0.0164903
619.761	0.0165060
619.839	0.0164933
619.917	0.0166532
619.995	0.0166852
620.073	0.0165603
620.151	0.0165680
620.229	0.0166438
620.308	0.0166069
620.386	0.0165294
620.464	0.0166808
620.542	0.0167814
620.620	0.0165868
620.698	0.0164495
620.776	0.0165105
620.854	0.0166481
620.933	0.0165601
621.011	0.0166254
621.089	0.0166199
621.167	0.0166738
621.245	0.0165804
621.323	0.0165562
621.401	0.0165048
621.479	0.0166299
621.558	0.0166280
621.636	0.0165419
621.714	0.0164731
621.792	0.0165693
621.870	0.0165258
621.948	0.0166176
622.026	0.0167033
622.104	0.0166171
622.183	0.0165221
622.261	0.0166365
622.339	0.0164131
622.417	0.0165802
622.495	0.0165630
622.573	0.0165284
622.651	0.0165318
622.729	0.0164849
622.808	0.0165607
622.886	0.0166012
622.964	0.0164352
623.042	0.0166126
623.120	0.0166756
623.198	0.0166239
623.276	0.0165416
623.354	0.0165342
623.433	0.0164625
623.511	0.0165639
623.589	0.0166901
623.667	0.0165530
623.745	0.0165163
623.823	0.0164986
623.901	0.0164773
623.979	0.0165182
624.058	0.0166152
624.136	0.0165427
624.214	0.0165079
624.292	0.0165682
624.370	0.0165905
624.448	0.0165525
624.526	0.0165257
624.604	0.0164674
624.683	0.0165547
624.761	0.0165607
624.839	0.0166624
624.917	0.0167125
624.995	0.0165745
625.073	0.0165562
625.151	0.0164570
625.229	0.0165271
625.308	0.0165948
625.386	0.0164717
625.464	0.0166725
625.542	0.0164278
625.620	0.0165522
625.698	0.0165754
625.776	0.0166364
625.854	0.0166328
625.933	0.0165856
626.011	0.0166288
626.089	0.0166817
626.167	0.0165748
626.245	0.0165649
626.323	0.0166473
626.401	0.0165437
626.479	0.0166019
626.558	0.0165457
626.636	0.0164516
626.714	0.0167155
626.792	0.0166090
626.870	0.0165132
626.948	0.0165834
627.026	0.0165350
627.104	0.0164573
627.183	0.0166405
627.261	0.0166150
627.339	0.0165749
627.417	0.0165118
627.495	0.0166950
627.573	0.0166241
627.651	0.0164964
627.729	0.0167003
627.808	0.0165693
627.886	0.0166344
627.964	0.0165892
628.042	0.0166996
628.120	0.0167206
628.198	0.0167236
628.276	0.0166187
628.354	0.0166330
628.433	0.0165557
628.511	0.0165659
628.589	0.0164516
628.667	0.0165370
628.745	0.0165938
628.823	0.0166267
628.901	0.0165768
628.979	0.0167339
629.058	0.0166838
629.136	0.0166579
629.214	0.0165596
629.292	0.0166591
629.370	0.0166750
629.448	0.0164180
629.526	0.0165882
629.604	0.0166354
629.683	0.0166070
629.761	0.0165652
629.839	0.0165746
629.917	0.0164888
629.995	0.0165047
630.073	0.0166466
630.151	0.0166576
630.229	0.0165484
630.308	0.0165946
630.386	0.0166967
630.464	0.0166495
630.542	0.0165903
630.620	0.0164771
630.698	0.0165886
630.776	0.0166588
630.854	0.0166647
630.933	0.0165942
631.011	0.0166111
631.089	0.0164507
631.167	0.0165707
631.245	0.0165916
631.323	0.0165645
631.401	0.0166965
631.479	0.0167165
631.558	0.0166124
631.636	0.0166206
631.714	0.0166067
631.792	0.0165040
631.870	0.0165901
631.948	0.0166293
632.026	0.0165556
632.104	0.0164924
632.183	0.0165665
632.261	0.0166882
632.339	0.0165478
632.417	0.0167512
632.495	0.0166893
632.573	0.0166490
632.651	0.0165632
632.729	0.0165919
632.808	0.0163705
632.886	0.0166305
632.964	0.0166574
633.042	0.0166829
633.120	0.0166177
633.198	0.0165025
633.276	0.0166356
633.354	0.0166523
633.433	0.0165847
633.511	0.0165717
633.589	0.0166499
633.667	0.0163744
633.745	0.0164707
633.823	0.0167226
633.901	0.0164424
633.979	0.0165454
634.058	0.0165166
634.136	0.0164874
634.214	0.0165282
634.292	0.0165558
634.370	0.0166239
634.448	0.0165692
634.526	0.0165432
634.604	0.0166203
634.683	0.0165405
634.761	0.0166100
634.839	0.0166409
634.917	0.0165791
634.995	0.0166369
635.073	0.0166096
635.151	0.0165775
635.229	0.0165218
635.308	0.0164956
635.386	0.0167091
635.464	0.0166557
635.542	0.0165834
635.620	0.0165699
635.698	0.0166543
635.776	0.0165157
635.854	0.0164048
635.933	0.0166623
636.011	0.0166467
636.089	0.0165242
636.167	0.0165531
636.245	0.0166824
636.323	0.0167555
636.401	0.0165801
636.479	0.0165981
636.558	0.0165300
636.636	0.0166165
636.714	0.0166595
636.792	0.0166159
636.870	0.0166370
636.948	0.0166610
637.026	0.0165568
637.104	0.0166617
637.183	0.0165756
637.261	0.0166781
637.339	0.0166914
637.417	0.0166312
637.495	0.0165507
637.573	0.0165772
637.651	0.0166137
637.729	0.0166541
637.808	0.0166222
637.886	0.0166146
637.964	0.0166411
638.042	0.0166995
638.120	0.0166670
638.198	0.0164829
638.276	0.0165721
638.354	0.0165646
638.433	0.0167184
638.511	0.0166274
638.589	0.0166050
638.667	0.0164655
638.745	0.0166309
638.823	0.0166539
638.901	0.0165897
638.979	0.0166431
639.058	0.0165643
639.136	0.0165678
639.214	0.0165913
639.292	0.0166177
639.370	0.0166040
639.448	0.0166306
639.526	0.0166890
639.604	0.0166533
639.683	0.0165826
639.761	0.0165348
639.839	0.0166467
639.917	0.0166218
639.995	0.0165873
640.073	0.0166405
640.151	0.0166424
640.229	0.0164848
640.308	0.0164929
640.386	0.0165985
640.464	0.0164631
640.542	0.0166757
640.620	0.0166431
640.698	0.0166281
640.776	0.0165444
640.854	0.0165594
640.933	0.0166913
641.011	0.0165087
641.089	0.0166665
641.167	0.0165156
641.245	0.0165947
641.323	0.0165763
641.401	0.0165769
641.479	0.0166523
641.558	0.0165864
641.636	0.0165374
641.714	0.0166454
641.792	0.0166631
641.870	0.0166820
641.948	0.0166396
642.026	0.0165919
642.104	0.0164865
642.183	0.0164904
642.261	0.0166087
642.339	0.0166044
642.417	0.0166707
642.495	0.0166067
642.573	0.0166290
642.651	0.0164996
642.729	0.0166073
642.808	0.0164983
642.886	0.0165372
642.964	0.0166013
643.042	0.0164883
643.120	0.0166106
643.198	0.0166020
643.276	0.0165888
643.354	0.0165828
643.433	0.0164384
643.511	0.0164801
643.589	0.0165358
643.667	0.0165370
643.745	0.0166772
643.823	0.0166518
643.901	0.0166008
643.979	0.0165358
644.058	0.0166629
644.136	0.0166541
644.214	0.0165366
644.292	0.0165382
644.370	0.0164893
644.448	0.0166026
644.526	0.0167754
644.604	0.0164954
644.683	0.0166296
644.761	0.0166475
644.839	0.0165619
644.917	0.0166093
644.995	0.0166282
645.073	0.0166934
645.151	0.0166312
645.229	0.0165620
645.308	0.0164408
645.386	0.0164716
645.464	0.0165447
645.542	0.0165314
645.620	0.0166151
645.698	0.0164822
645.776	0.0166331
645.854	0.0164983
645.933	0.0164964
646.011	0.0166281
646.089	0.0165759
646.167	0.0166478
646.245	0.0164201
646.323	0.0165927
646.401	0.0166426
646.479	0.0166207
646.558	0.0166140
646.636	0.0166004
646.714	0.0165516
646.792	0.0166402
646.870	0.0166380
646.948	0.0166180
647.026	0.0166671
647.104	0.0165892
647.183	0.0165338
647.261	0.0165599
647.339	0.0166045
647.417	0.0166010
647.495	0.0165548
647.573	0.0165810
647.651	0.0165551
647.729	0.0164848
647.808	0.0166856
647.886	0.0165216
647.964	0.0166270
648.042	0.0164622
648.120	0.0164928
648.198	0.0165929
648.276	0.0166281
648.354	0.0165799
648.433	0.0166565
648.511	0.0164346
648.589	0.0165583
648.667	0.0167161
648.745	0.0164783
648.823	0.0165427
648.901	0.0165024
648.979	0.0166930
649.058	0.0166433
649.136	0.0166699
649.214	0.0165544
649.292	0.0166648
649.370	0.0167362
649.448	0.0165508
649.526	0.0165845
649.604	0.0164892
649.683	0.0164957
649.761	0.0166149
649.839	0.0166742
649.917	0.0166479
649.995	0.0166316
650.073	0.0164571
650.151	0.0163512
650.229	0.0164885
650.308	0.0165821
650.386	0.0166572
650.464	0.0165089
650.542	0.0167015
650.620	0.0164882
650.698	0.0164872
650.776	0.0165543
650.854	0.0166615
650.933	0.0166438
651.011	0.0165980
651.089	0.0165880
651.167	0.0165416
651.245	0.0165856
651.323	0.0166259
651.401	0.0166230
651.479	0.0165775
651.558	0.0165342
651.636	0.0165691
651.714	0.0166112
651.792	0.0165772
651.870	0.0166946
651.948	0.0165520
652.026	0.0165047
652.104	0.0164672
652.183	0.0166182
652.261	0.0165541
652.339	0.0166564
652.417	0.0166373
652.495	0.0164633
652.573	0.0166343
652.651	0.0166518
652.729	0.0165295
652.808	0.0164692
652.886	0.0165614
652.964	0.0166481
653.042	0.0165726
653.120	0.0165179
653.198	0.0166262
653.276	0.0166100
653.354	0.0166278
653.433	0.0165934
653.511	0.0165519
653.589	0.0165538
653.667	0.0165048
653.745	0.0164928
653.823	0.0166917
653.901	0.0166163
653.979	0.0166367
654.058	0.0164668
654.136	0.0164504
654.214	0.0167596
654.292	0.0166116
654.370	0.0165800
654.448	0.0165858
654.526	0.0164815
654.604	0.0165699
654.683	0.0165954
654.761	0.0165662
654.839	0.0163972
654.917	0.0164296
654.995	0.0165044
655.073	0.0165314
655.151	0.0166311
655.229	0.0165211
655.308	0.0165228
655.386	0.0165151
655.464	0.0164726
655.542	0.0166112
655.620	0.0165634
655.698	0.0165004
655.776	0.0164698
655.854	0.0164874
655.933	0.0166521
656.011	0.0165194
656.089	0.0163905
656.167	0.0165179
656.245	0.0167013
656.323	0.0166676
656.401	0.0164376
656.479	0.0164317
656.558	0.0165698
656.636	0.0165551
656.714	0.0165544
656.792	0.0165811
656.870	0.0166444
656.948	0.0164435
657.026	0.0164356
657.104	0.0167417
657.183	0.0164976
657.261	0.0165033
657.339	0.0167086
657.417	0.0165678
657.495	0.0165552
657.573	0.0166116
657.651	0.0165965
657.729	0.0164519
657.808	0.0165221
657.886	0.0167346
657.964	0.0165883
658.042	0.0165288
658.120	0.0165115
658.198	0.0165795
658.276	0.0164391
658.354	0.0164571
658.433	0.0164118
658.511	0.0165643
658.589	0.0164825
658.667	0.0164632
658.745	0.0165498
658.823	0.0165021
658.901	0.0165953
658.979	0.0163943
659.058	0.0166463
659.136	0.0165180
659.214	0.0164709
659.292	0.0165378
659.370	0.0166606
659.448	0.0165231
659.526	0.0165106
659.604	0.0165568
659.683	0.0166339
659.761	0.0165586
659.839	0.0164862
659.917	0.0164439
659.995	0.0165119
660.073	0.0165804
660.151	0.0165936
660.229	0.0165656
660.308	0.0165010
660.386	0.0165630
660.464	0.0165530
660.542	0.0165327
660.620	0.0165175
660.698	0.0164368
660.776	0.0166567
660.854	0.0166513
660.933	0.0164132
661.011	0.0165275
661.089	0.0165346
661.167	0.0165387
661.245	0.0164324
661.323	0.0164370
661.401	0.0164700
661.479	0.0165779
661.558	0.0164646
661.636	0.0164386
661.714	0.0164422
661.792	0.0165086
661.870	0.0164856
661.948	0.0165915
662.026	0.0165639
662.104	0.0165170
662.183	0.0164229
662.261	0.0165822
662.339	0.0166006
662.417	0.0165118
662.495	0.0165299
662.573	0.0165134
662.651	0.0165258
662.729	0.0165425
662.808	0.0166300
662.886	0.0165508
662.964	0.0166214
663.042	0.0166406
663.120	0.0165774
663.198	0.0165487
663.276	0.0165039
663.354	0.0166279
663.433	0.0165652
663.511	0.0165264
663.589	0.0165102
663.667	0.0165227
663.745	0.0166116
663.823	0.0166047
663.901	0.0164540
663.979	0.0166248
664.058	0.0164770
664.136	0.0166173
664.214	0.0165302
664.292	0.0166280
664.370	0.0164782
664.448	0.0164447
664.526	0.0166123
664.604	0.0164407
664.683	0.0164391
664.761	0.0164837
664.839	0.0166339
664.917	0.0166220
664.995	0.0166072
665.073	0.0166010
665.151	0.0165802
665.229	0.0167063
665.308	0.0165678
665.386	0.0166409
665.464	0.0166498
665.542	0.0165990
665.620	0.0165730
665.698	0.0165899
665.776	0.0166263
665.854	0.0165302
665.933	0.0165977
666.011	0.0165356
666.089	0.0164762
666.167	0.0165720
666.245	0.0166002
666.323	0.0165742
666.401	0.0166019
666.479	0.0165825
666.558	0.0165530
666.636	0.0165816
666.714	0.0165536
666.792	0.0165474
666.870	0.0165646
666.948	0.0166343
667.026	0.0164484
667.104	0.0166457
667.183	0.0166323
667.261	0.0165240
667.339	0.0165501
667.417	0.0165755
667.495	0.0166261
667.573	0.0166351
667.651	0.0165614
667.729	0.0165511
667.808	0.0164420
667.886	0.0165926
667.964	0.0167212
668.042	0.0166946
668.120	0.0164657
668.198	0.0165773
668.276	0.0164487
668.354	0.0164886
668.433	0.0164843
668.511	0.0166541
668.589	0.0165429
668.667	0.0166145
668.745	0.0166604
668.823	0.0164540
668.901	0.0165558
668.979	0.0164083
669.058	0.0165930
669.136	0.0165179
669.214	0.0165763
669.292	0.0165834
669.370	0.0166300
669.448	0.0166988
669.526	0.0166042
669.604	0.0165837
669.683	0.0165471
669.761	0.0165382
669.839	0.0166238
669.917	0.0164906
669.995	0.0167114
670.073	0.0164977
670.151	0.0166695
670.229	0.0165430
670.308	0.0165466
670.386	0.0166692
670.464	0.0165190
670.542	0.0165487
670.620	0.0166570
670.698	0.0164362
670.776	0.0167118
670.854	0.0165604
670.933	0.0164726
671.011	0.0165240
671.089	0.0165227
671.167	0.0165383
671.245	0.0167212
671.323	0.0165575
671.401	0.0165729
671.479	0.0165664
671.558	0.0165237
671.636	0.0166410
671.714	0.0165267
671.792	0.0166326
671.870	0.0166758
671.948	0.0165345
672.026	0.0165221
672.104	0.0164639
672.183	0.0165392
672.261	0.0166547
672.339	0.0164830
672.417	0.0164675
672.495	0.0165964
672.573	0.0165839
672.651	0.0165433
672.729	0.0165725
672.808	0.0165385
672.886	0.0164924
672.964	0.0165086
673.042	0.0166138
673.120	0.0165703
673.198	0.0165158
673.276	0.0165283
673.354	0.0165741
673.433	0.0166339
673.511	0.0165771
673.589	0.0166266
673.667	0.0166811
673.745	0.0166235
673.823	0.0165684
673.901	0.0165378
673.979	0.0166021
674.058	0.0166533
674.136	0.0165192
674.214	0.0165005
674.292	0.0165585
674.370	0.0165335
674.448	0.0164465
674.526	0.0166006
674.604	0.0165403
674.683	0.0165377
674.761	0.0164919
674.839	0.0166319
674.917	0.0165869
674.995	0.0164803
675.073	0.0165826
675.151	0.0166102
675.229	0.0164989
675.308	0.0164899
675.386	0.0164631
675.464	0.0165444
675.542	0.0166540
675.620	0.0164330
675.698	0.0165338
675.776	0.0166486
675.854	0.0164765
675.933	0.0165395
676.011	0.0165981
676.089	0.0165790
676.167	0.0165425
676.245	0.0167155
676.323	0.0165380
676.401	0.0163712
676.479	0.0165124
676.558	0.0165503
676.636	0.0165169
676.714	0.0165454
676.792	0.0164751
676.870	0.0164448
676.948	0.0165483
677.026	0.0165149
677.104	0.0165849
677.183	0.0165646
677.261	0.0163969
677.339	0.0166611
677.417	0.0166225
677.495	0.0164482
677.573	0.0165884
677.651	0.0164216
677.729	0.0165767
677.808	0.0166338
677.886	0.0165742
677.964	0.0163607
678.042	0.0165745
678.120	0.0164832
678.198	0.0166996
678.276	0.0165544
678.354	0.0166220
678.433	0.0165740
678.511	0.0164707
678.589	0.0165392
678.667	0.0164883
678.745	0.0165800
678.823	0.0167382
678.901	0.0165120
678.979	0.0164689
679.058	0.0164967
679.136	0.0165115
679.214	0.0165833
679.292	0.0165111
679.370	0.0164659
679.448	0.0164581
679.526	0.0165814
679.604	0.0165638
679.683	0.0163223
679.761	0.0164945
679.839	0.0165320
679.917	0.0164913
679.995	0.0164579
680.073	0.0164841
680.151	0.0164700
680.229	0.0164108
680.308	0.0165598
680.386	0.0166991
680.464	0.0165698
680.542	0.0165014
680.620	0.0164635
680.698	0.0166467
680.776	0.0164520
680.854	0.0165029
680.933	0.0165044
681.011	0.0164434
681.089	0.0164263
681.167	0.0165944
681.245	0.0164414
681.323	0.0165020
681.401	0.0166273
681.479	0.0165135
681.558	0.0165680
681.636	0.0164874
681.714	0.0165948
681.792	0.0165667
681.870	0.0164988
681.948	0.0166106
682.026	0.0166165
682.104	0.0164858
682.183	0.0165110
682.261	0.0164995
682.339	0.0166113
682.417	0.0166153
682.495	0.0165534
682.573	0.0166012
682.651	0.0166641
682.729	0.0164774
682.808	0.0166669
682.886	0.0165607
682.964	0.0165172
683.042	0.0165495
683.120	0.0164423
683.198	0.0163995
683.276	0.0166553
683.354	0.0166288
683.433	0.0166214
683.511	0.0164539
683.589	0.0165771
683.667	0.0165142
683.745	0.0165633
683.823	0.0165276
683.901	0.0166415
683.979	0.0165225
684.058	0.0166324
684.136	0.0166944
684.214	0.0164418
684.292	0.0164732
684.370	0.0165862
684.448	0.0167316
684.526	0.0164564
684.604	0.0165696
684.683	0.0164868
684.761	0.0165125
684.839	0.0167211
684.917	0.0166052
684.995	0.0165263
685.073	0.0166344
685.151	0.0165297
685.229	0.0165424
685.308	0.0166400
685.386	0.0165190
685.464	0.0165565
685.542	0.0165357
685.620	0.0165696
685.698	0.0166599
685.776	0.0166778
685.854	0.0164372
685.933	0.0162997
686.011	0.0166135
686.089	0.0164711
686.167	0.0165051
686.245	0.0165326
686.323	0.0164973
686.401	0.0165457
686.479	0.0165847
686.558	0.0164790
686.636	0.0165221
686.714	0.0166946
686.792	0.0165552
686.870	0.0166121
686.948	0.0166008
687.026	0.0166059
687.104	0.0166049
687.183	0.0165023
687.261	0.0166530
687.339	0.0166312
687.417	0.0164254
687.495	0.0165376
687.573	0.0165579
687.651	0.0165631
687.729	0.0165922
687.808	0.0163737
687.886	0.0165659
687.964	0.0164671
688.042	0.0166089
688.120	0.0164492
688.198	0.0165640
688.276	0.0166433
688.354	0.0167183
688.433	0.0166128
688.511	0.0165317
688.589	0.0165370
688.667	0.0165649
688.745	0.0165833
688.823	0.0164699
688.901	0.0164941
688.979	0.0165822
689.058	0.0165638
689.136	0.0166500
689.214	0.0165076
689.292	0.0167130
689.370	0.0166539
689.448	0.0165369
689.526	0.0167200
689.604	0.0164999
689.683	0.0166658
689.761	0.0165130
689.839	0.0165779
689.917	0.0166393
689.995	0.0166049
690.073	0.0165865
690.151	0.0167236
690.229	0.0165912
690.308	0.0167288
690.386	0.0165256
690.464	0.0165663
690.542	0.0165503
690.620	0.0166007
690.698	0.0165391
690.776	0.0166281
690.854	0.0165118
690.933	0.0165954
691.011	0.0165868
691.089	0.0165853
691.167	0.0164602
691.245	0.0165505
691.323	0.0166700
691.401	0.0166469
691.479	0.0166112
691.558	0.0166601
691.636	0.0165289
691.714	0.0164882
691.792	0.0165025
691.870	0.0166430
691.948	0.0165298
692.026	0.0164857
692.104	0.0166250
692.183	0.0167099
692.261	0.0166752
692.339	0.0164744
692.417	0.0165942
692.495	0.0166572
692.573	0.0166039
692.651	0.0165971
692.729	0.0166307
692.808	0.0164786
692.886	0.0166629
692.964	0.0164215
693.042	0.0165566
693.120	0.0166204
693.198	0.0166724
693.276	0.0165749
693.354	0.0166313
693.433	0.0166367
693.511	0.0165695
693.589	0.0164118
693.667	0.0165775
693.745	0.0166644
693.823	0.0166470
693.901	0.0166273
693.979	0.0166271
694.058	0.0164967
694.136	0.0165706
694.214	0.0166673
694.292	0.0166280
694.370	0.0165729
694.448	0.0166174
694.526	0.0166501
694.604	0.0165034
694.683	0.0165565
694.761	0.0165912
694.839	0.0165171
694.917	0.0165118
694.995	0.0164973
695.073	0.0165539
695.151	0.0167129
695.229	0.0167381
695.308	0.0165397
695.386	0.0164311
695.464	0.0165440
695.542	0.0164674
695.620	0.0165285
695.698	0.0165149
695.776	0.0166043
695.854	0.0165310
695.933	0.0163437
696.011	0.0165382
696.089	0.0165726
696.167	0.0164861
696.245	0.0165965
696.323	0.0165052
696.401	0.0165247
696.479	0.0164812
696.558	0.0164507
696.636	0.0165353
696.714	0.0165182
696.792	0.0165816
696.870	0.0166578
696.948	0.0165005
697.026	0.0165997
697.104	0.0166560
697.183	0.0164831
697.261	0.0163397
697.339	0.0165491
697.417	0.0166007
697.495	0.0163824
697.573	0.0163618
697.651	0.0166465
697.729	0.0165337
697.808	0.0164464
697.886	0.0164851
697.964	0.0165993
698.042	0.0165419
698.120	0.0165368
698.198	0.0166864
698.276	0.0164128
698.354	0.0165479
698.433	0.0165810
698.511	0.0164830
698.589	0.0165405
698.667	0.0164693
698.745	0.0165662
698.823	0.0165152
698.901	0.0165062
698.979	0.0166415
699.058	0.0165652
699.136	0.0166323
699.214	0.0166138
699.292	0.0165841
699.370	0.0166366
699.448	0.0167249
699.526	0.0165924
699.604	0.0166747
699.683	0.0166399
699.761	0.0166280
699.839	0.0166502
699.917	0.0166216
699.995	0.0166164
700.073	0.0164938
700.151	0.0165363
700.229	0.0166036
700.308	0.0165893
700.386	0.0165941
700.464	0.0167336
700.542	0.0166139
700.620	0.0165125
700.698	0.0165445
700.776	0.0165845
700.854	0.0166247
700.933	0.0165589
701.011	0.0165237
701.089	0.0165977
701.167	0.0166542
701.245	0.0165608
701.323	0.0165486
701.401	0.0166586
701.479	0.0164606
701.558	0.0165587
701.636	0.0165546
701.714	0.0165518
701.792	0.0165808
701.870	0.0166066
701.948	0.0163590
702.026	0.0165726
702.104	0.0165831
702.183	0.0165417
702.261	0.0166656
702.339	0.0165649
702.417	0.0166101
702.495	0.0165816
702.573	0.0164729
702.651	0.0165495
702.729	0.0164694
702.808	0.0166029
702.886	0.0166682
702.964	0.0167589
703.042	0.0167147
703.120	0.0164322
703.198	0.0166967
703.276	0.0165456
703.354	0.0166262
703.433	0.0166843
703.511	0.0166059
703.589	0.0165430
703.667	0.0165796
703.745	0.0165471
703.823	0.0165962
703.901	0.0165894
703.979	0.0166227
704.058	0.0165818
704.136	0.0166328
704.214	0.0166579
704.292	0.0165502
704.370	0.0165863
704.448	0.0165467
704.526	0.0167368
704.604	0.0165985
704.683	0.0166978
704.761	0.0166610
704.839	0.0166933
704.917	0.0167308
704.995	0.0166730
705.073	0.0165346
705.151	0.0166409
705.229	0.0166795
705.308	0.0166877
705.386	0.0165983
705.464	0.0166596
705.542	0.0166089
705.620	0.0165159
705.698	0.0165880
705.776	0.0166738
705.854	0.0166507
705.933	0.0165977
706.011	0.0166097
706.089	0.0167159
706.167	0.0166077
706.245	0.0166183
706.323	0.0166452
706.401	0.0166964
706.479	0.0166343
706.558	0.0167007
706.636	0.0166579
706.714	0.0166633
706.792	0.0166316
706.870	0.0167511
706.948	0.0165783
707.026	0.0166053
707.104	0.0165223
707.183	0.0166226
707.261	0.0165835
707.339	0.0165276
707.417	0.0165035
707.495	0.0166174
707.573	0.0166093
707.651	0.0167072
707.729	0.0166364
707.808	0.0165038
707.886	0.0165202
707.964	0.0164655
708.042	0.0166711
708.120	0.0166274
708.198	0.0164942
708.276	0.0165504
708.354	0.0165997
708.433	0.0165711
708.511	0.0165994
708.589	0.0166499
708.667	0.0165176
708.745	0.0165798
708.823	0.0166283
708.901	0.0166961
708.979	0.0165874
709.058	0.0166116
709.136	0.0165205
709.214	0.0165679
709.292	0.0166422
709.370	0.0165591
709.448	0.0166500
709.526	0.0166696
709.604	0.0165928
709.683	0.0166627
709.761	0.0166242
709.839	0.0167170
709.917	0.0165997
709.995	0.0166261
710.073	0.0166009
710.151	0.0164423
710.229	0.0166954
710.308	0.0165457
710.386	0.0164042
710.464	0.0165475
710.542	0.0166140
710.620	0.0165562
710.698	0.0164385
710.776	0.0165606
710.854	0.0166584
710.933	0.0166872
711.011	0.0164409
711.089	0.0164970
711.167	0.0165397
711.245	0.0165327
711.323	0.0165843
711.401	0.0165401
711.479	0.0165946
711.558	0.0166100
711.636	0.0165205
711.714	0.0164626
711.792	0.0165796
711.870	0.0165524
711.948	0.0165531
712.026	0.0165383
712.104	0.0165460
712.183	0.0164915
712.261	0.0165812
712.339	0.0164455
712.417	0.0165432
712.495	0.0165713
712.573	0.0165449
712.651	0.0165728
712.729	0.0164725
712.808	0.0165715
712.886	0.0166211
712.964	0.0164791
713.042	0.0165334
713.120	0.0166487
713.198	0.0166572
713.276	0.0165646
713.354	0.0164355
713.433	0.0164629
713.511	0.0165235
713.589	0.0166627
713.667	0.0165349
713.745	0.0166463
713.823	0.0164891
713.901	0.0165505
713.979	0.0163685
714.058	0.0164753
714.136	0.0165417
714.214	0.0165359
714.292	0.0164889
714.370	0.0165247
714.448	0.0165198
714.526	0.0165586
714.604	0.0165559
714.683	0.0165725
714.761	0.0164914
714.839	0.0165223
714.917	0.0165466
714.995	0.0165654
715.073	0.0166821
715.151	0.0164869
715.229	0.0165849
715.308	0.0165086
715.386	0.0165803
715.464	0.0165520
715.542	0.0165105
715.620	0.0165228
715.698	0.0164423
715.776	0.0163835
715.854	0.0165826
715.933	0.0165005
716.011	0.0165450
716.089	0.0163816
716.167	0.0164028
716.245	0.0166024
716.323	0.0165685
716.401	0.0164897
716.479	0.0165087
716.558	0.0164886
716.636	0.0164750
716.714	0.0165969
716.792	0.0166081
716.870	0.0165331
716.948	0.0164706
717.026	0.0165567
717.104	0.0165479
717.183	0.0164647
717.261	0.0164234
717.339	0.0166043
717.417	0.0165814
717.495	0.0164323
717.573	0.0165444
717.651	0.0166504
717.729	0.0164636
717.808	0.0164183
717.886	0.0166077
717.964	0.0166354
718.042	0.0166389
718.120	0.0164551
718.198	0.0167260
718.276	0.0164747
718.354	0.0166039
718.433	0.0165053
718.511	0.0165797
718.589	0.0166880
718.667	0.0165652
718.745	0.0165643
718.823	0.0164758
718.901	0.0165376
718.979	0.0165543
719.058	0.0165213
719.136	0.0164579
719.214	0.0165988
719.292	0.0166576
719.370	0.0166966
719.448	0.0166022
719.526	0.0164929
719.604	0.0166136
719.683	0.0166598
719.761	0.0165290
719.839	0.0165934
719.917	0.0166455
719.995	0.0165535
720.073	0.0166132
720.151	0.0166035
720.229	0.0165828
720.308	0.0166381
720.386	0.0165194
720.464	0.0166785
720.542	0.0165988
720.620	0.0166528
720.698	0.0165440
720.776	0.0166711
720.854	0.0166015
720.933	0.0166776
721.011	0.0167022
721.089	0.0166312
721.167	0.0165808
721.245	0.0165365
721.323	0.0166090
721.401	0.0166080
721.479	0.0166867
721.558	0.0165536
721.636	0.0166962
721.714	0.0166555
721.792	0.0167400
721.870	0.0166469
721.948	0.0166396
722.026	0.0166034
722.104	0.0165973
722.183	0.0164732
722.261	0.0167030
722.339	0.0166697
722.417	0.0165966
722.495	0.0168140
722.573	0.0165575
722.651	0.0165585
722.729	0.0166722
722.808	0.0167085
722.886	0.0166171
722.964	0.0167554
723.042	0.0166362
723.120	0.0165404
723.198	0.0167400
723.276	0.0165869
723.354	0.0165437
723.433	0.0166312
723.511	0.0168532
723.589	0.0167671
723.667	0.0166443
723.745	0.0166360
723.823	0.0166657
723.901	0.0168370
723.979	0.0165783
724.058	0.0168954
724.136	0.0168937
724.214	0.0166956
724.292	0.0166986
724.370	0.0168117
724.448	0.0166824
724.526	0.0167271
724.604	0.0167934
724.683	0.0165913
724.761	0.0166318
724.839	0.0166899
724.917	0.0165987
724.995	0.0166859
725.073	0.0168169
725.151	0.0165247
725.229	0.0167004
725.308	0.0166261
725.386	0.0164710
725.464	0.0167741
725.542	0.0168023
725.620	0.0165816
725.698	0.0166357
725.776	0.0167301
725.854	0.0167101
725.933	0.0168066
726.011	0.0166659
726.089	0.0166877
726.167	0.0166664
726.245	0.0167230
726.323	0.0166088
726.401	0.0166987
726.479	0.0166270
726.558	0.0166601
726.636	0.0166498
726.714	0.0167650
726.792	0.0167182
726.870	0.0165889
726.948	0.0165470
727.026	0.0166143
727.104	0.0166501
727.183	0.0165137
727.261	0.0165916
727.339	0.0165974
727.417	0.0166093
727.495	0.0167205
727.573	0.0166042
727.651	0.0167466
727.729	0.0166953
727.808	0.0166516
727.886	0.0166351
727.964	0.0165742
728.042	0.0166283
728.120	0.0167097
728.198	0.0166108
728.276	0.0165779
728.354	0.0165086
728.433	0.0165524
728.511	0.0167284
728.589	0.0165845
728.667	0.0165378
728.745	0.0166174
728.823	0.0165319
728.901	0.0166782
728.979	0.0166615
729.058	0.0167014
729.136	0.0165804
729.214	0.0165681
729.292	0.0165820
729.370	0.0165458
729.448	0.0166272
729.526	0.0167219
729.604	0.0165692
729.683	0.0165189
729.761	0.0166386
729.839	0.0166625
729.917	0.0167065
729.995	0.0164622
730.073	0.0166329
730.151	0.0165568
730.229	0.0165520
730.308	0.0164748
730.386	0.0166139
730.464	0.0165609
730.542	0.0166790
730.620	0.0165940
730.698	0.0166196
730.776	0.0165116
730.854	0.0166039
730.933	0.0165420
731.011	0.0164745
731.089	0.0164863
731.167	0.0165545
731.245	0.0166537
731.323	0.0166547
731.401	0.0165968
731.479	0.0165119
731.558	0.0166390
731.636	0.0165269
731.714	0.0165077
731.792	0.0165639
731.870	0.0166265
731.948	0.0165380
732.026	0.0165003
732.104	0.0165983
732.183	0.0165337
732.261	0.0165009
732.339	0.0164717
732.417	0.0163367
732.495	0.0163493
732.573	0.0164275
732.651	0.0164648
732.729	0.0164692
732.808	0.0165166
732.886	0.0164724
732.964	0.0164892
733.042	0.0164064
733.120	0.0165894
733.198	0.0164957
733.276	0.0163234
733.354	0.0165008
733.433	0.0164694
733.511	0.0165488
733.589	0.0165790
733.667	0.0164017
733.745	0.0164225
733.823	0.0164409
733.901	0.0165418
733.979	0.0165241
734.058	0.0163464
734.136	0.0163561
734.214	0.0165273
734.292	0.0165423
734.370	0.0163953
734.448	0.0164612
734.526	0.0164560
734.604	0.0164625
734.683	0.0164328
734.761	0.0164407
734.839	0.0164987
734.917	0.0165082
734.995	0.0164762
735.073	0.0164382
735.151	0.0164503
735.229	0.0165089
735.308	0.0164825
735.386	0.0163660
735.464	0.0166053
735.542	0.0165564
735.620	0.0165965
735.698	0.0165864
735.776	0.0165285
735.854	0.0165233
735.933	0.0166774
736.011	0.0164616
736.089	0.0166123
736.167	0.0165331
736.245	0.0165462
736.323	0.0165723
736.401	0.0165618
736.479	0.0165042
736.558	0.0165513
736.636	0.0164542
736.714	0.0163949
736.792	0.0163808
736.870	0.0161996
736.948	0.0163061
737.026	0.0161876
737.104	0.0162246
737.183	0.0161047
737.261	0.0161862
737.339	0.0161764
737.417	0.0164689
737.495	0.0164864
737.573	0.0166927
737.651	0.0169521
737.729	0.0169232
737.808	0.0170291
737.886	0.0172242
737.964	0.0172708
738.042	0.0171882
738.120	0.0171003
738.198	0.0171103
738.276	0.0169147
738.354	0.0168044
738.433	0.0167491
738.511	0.0164925
738.589	0.0162399
738.667	0.0160396
738.745	0.0158604
738.823	0.0156393
738.901	0.0152419
738.979	0.0151683
739.058	0.0149396
739.136	0.0151608
739.214	0.0153300
739.292	0.0155698
739.370	0.0160104
739.448	0.0164832
739.526	0.0170403
739.604	0.0175391
739.683	0.0179677
739.761	0.0184747
739.839	0.0185568
739.917	0.0184912
739.995	0.0183169
740.073	0.0178785
740.151	0.0173889
740.229	0.0170090
740.308	0.0165955
740.386	0.0163176
740.464	0.0160522
740.542	0.0159653
740.620	0.0157575
740.698	0.0158071
740.776	0.0157751
740.854	0.0159068
740.933	0.0160342
741.011	0.0159702
741.089	0.0160089
741.167	0.0159047
741.245	0.0157352
741.323	0.0155555
741.401	0.0154390
741.479	0.0154528
741.558	0.0153595
741.636	0.0156112
741.714	0.0160338
741.792	0.0163217
741.870	0.0168571
741.948	0.0175684
742.026	0.0179784
742.104	0.0184217
742.183	0.0186555
742.261	0.0187007
742.339	0.0184663
742.417	0.0182705
742.495	0.0178895
742.573	0.0176878
742.651	0.0173655
742.729	0.0170359
742.808	0.0164977
742.886	0.0162221
742.964	0.0159603
743.042	0.0155052
743.120	0.0152759
743.198	0.0151914
743.276	0.0149256
743.354	0.0149767
743.433	0.0148521
743.511	0.0148333
743.589	0.0148695
743.667	0.0148827
743.745	0.0152714
743.823	0.0156221
743.901	0.0160645
743.979	0.0162701
744.058	0.0168201
744.136	0.0173147
744.214	0.0175936
744.292	0.0180347
744.370	0.0184741
744.448	0.0186925
744.526	0.0189054
744.604	0.0188359
744.683	0.0188133
744.761	0.0185823
744.839	0.0181879
744.917	0.0176389
744.995	0.0172503
745.073	0.0165564
745.151	0.0162041
745.229	0.0156075
745.308	0.0153108
745.386	0.0150313
745.464	0.0150167
745.542	0.0150921
745.620	0.0150450
745.698	0.0152757
745.776	0.0152171
745.854	0.0154914
745.933	0.0157272
746.011	0.0158698
746.089	0.0161644
746.167	0.0162038
746.245	0.0165015
746.323	0.0165812
746.401	0.0166161
746.479	0.0165826
746.558	0.0168692
746.636	0.0170579
746.714	0.0171291
746.792	0.0173801
746.870	0.0175417
746.948	0.0176792
747.026	0.0177924
747.104	0.0178162
747.183	0.0178386
747.261	0.0177245
747.339	0.0176738
747.417	0.0173267
747.495	0.0171709
747.573	0.0170614
747.651	0.0167820
747.729	0.0164034
747.808	0.0163203
747.886	0.0159605
747.964	0.0159308
748.042	0.0157304
748.120	0.0155486
748.198	0.0154828
748.276	0.0155723
748.354	0.0156602
748.433	0.0156647
748.511	0.0156899
748.589	0.0159493
748.667	0.0160832
748.745	0.0161647
748.823	0.0163069
748.901	0.0164944
748.979	0.0166010
749.058	0.0166158
749.136	0.0168092
749.214	0.0170583
749.292	0.0173495
749.370	0.0173739
749.448	0.0174565
749.526	0.0175795
749.604	0.0173793
749.683	0.0173401
749.761	0.0172134
749.839	0.0172373
749.917	0.0169469
749.995	0.0168774
750.073	0.0167670
750.151	0.0167420
750.229	0.0165915
750.308	0.0164551
750.386	0.0163161
750.464	0.0163791
750.542	0.0162802
750.620	0.0163449
750.698	0.0162845
750.776	0.0162200
750.854	0.0162925
750.933	0.0162462
751.011	0.0162451
751.089	0.0163561
751.167	0.0163574
751.245	0.0161671
751.323	0.0163108
751.401	0.0163705
751.479	0.0165167
751.558	0.0164827
751.636	0.0163937
751.714	0.0165173
751.792	0.0165694
751.870	0.0163831
751.948	0.0166092
752.026	0.0166611
752.104	0.0167130
752.183	0.0167828
752.261	0.0169357
752.339	0.0168198
752.417	0.0168983
752.495	0.0169976
752.573	0.0169482
752.651	0.0169933
752.729	0.0169017
752.808	0.0167544
752.886	0.0168313
752.964	0.0165974
753.042	0.0167273
753.120	0.0165185
753.198	0.0165143
753.276	0.0165132
753.354	0.0164327
753.433	0.0164227
753.511	0.0165051
753.589	0.0164125
753.667	0.0164085
753.745	0.0164436
753.823	0.0163950
753.901	0.0163338
753.979	0.0164158
754.058	0.0162508
754.136	0.0161404
754.214	0.0161283
754.292	0.0162767
754.370	0.0163426
754.448	0.0162769
754.526	0.0163780
754.604	0.0164745
754.683	0.0164620
754.761	0.0166681
754.839	0.0165964
754.917	0.0166086
754.995	0.0166264
755.073	0.0166879
755.151	0.0167252
755.229	0.0166726
755.308	0.0167917
755.386	0.0167478
755.464	0.0168388
755.542	0.0167840
755.620	0.0169035
755.698	0.0168143
755.776	0.0168269
755.854	0.0167513
755.933	0.0168948
756.011	0.0169036
756.089	0.0167420
756.167	0.0167924
756.245	0.0168085
756.323	0.0167020
756.401	0.0166885
756.479	0.0166488
756.558	0.0164870
756.636	0.0163983
756.714	0.0162981
756.792	0.0161418
756.870	0.0161903
756.948	0.0159968
757.026	0.0157871
757.104	0.0159583
757.183	0.0160927
757.261	0.0160388
757.339	0.0161246
757.417	0.0161440
757.495	0.0163731
757.573	0.0164803
757.651	0.0165533
757.729	0.0167818
757.808	0.0167675
757.886	0.0168588
757.964	0.0169843
758.042	0.0169781
758.120	0.0170031
758.198	0.0170272
758.276	0.0170661
758.354	0.0169418
758.433	0.0169720
758.511	0.0169308
758.589	0.0167360
758.667	0.0167386
758.745	0.0166628
758.823	0.0166415
758.901	0.0166061
758.979	0.0164188
759.058	0.0162463
759.136	0.0162201
759.214	0.0161949
759.292	0.0161704
759.370	0.0161933
759.448	0.0162402
759.526	0.0164298
759.604	0.0163980
759.683	0.0164928
759.761	0.0167492
759.839	0.0167529
759.917	0.0167820
759.995	0.0168865
760.073	0.0166476
760.151	0.0165124
760.229	0.0166398
760.308	0.0164512
760.386	0.0161455
760.464	0.0162266
760.542	0.0161940
760.620	0.0161851
760.698	0.0162509
760.776	0.0161447
760.854	0.0163448
760.933	0.0162383
761.011	0.0163931
761.089	0.0164889
761.167	0.0165331
761.245	0.0166548
761.323	0.0165049
761.401	0.0167596
761.479	0.0166456
761.558	0.0167155
761.636	0.0166369
761.714	0.0166958
761.792	0.0165197
761.870	0.0163705
761.948	0.0163142
762.026	0.0162649
762.104	0.0163483
762.183	0.0162740
762.261	0.0164365
762.339	0.0164072
762.417	0.0164833
762.495	0.0165680
762.573	0.0167204
762.651	0.0168018
762.729	0.0168101
762.808	0.0169106
762.886	0.0170869
762.964	0.0170373
763.042	0.0170443
763.120	0.0169251
763.198	0.0169014
763.276	0.0168423
763.354	0.0166972
763.433	0.0167225
763.511	0.0165131
763.589	0.0165358
763.667	0.0163994
763.745	0.0164307
763.823	0.0163106
763.901	0.0161424
763.979	0.0162285
764.058	0.0162068
764.136	0.0160767
764.214	0.0161960
764.292	0.0163087
764.370	0.0162105
764.448	0.0163902
764.526	0.0162602
764.604	0.0162068
764.683	0.0162329
764.761	0.0162016
764.839	0.0162709
764.917	0.0162202
764.995	0.0161422
765.073	0.0162292
765.151	0.0162569
765.229	0.0163842
765.308	0.0164283
765.386	0.0166445
765.464	0.0169676
765.542	0.0169979
765.620	0.0169827
765.698	0.0171084
765.776	0.0172652
765.854	0.0173266
765.933	0.0172753
766.011	0.0173100
766.089	0.0171659
766.167	0.0170910
766.245	0.0171624
766.323	0.0169569
766.401	0.0170619
766.479	0.0170291
766.558	0.0171458
766.636	0.0171348
766.714	0.0170580
766.792	0.0169836
766.870	0.0170563
766.948	0.0169625
767.026	0.0168609
767.104	0.0167247
767.183	0.0167283
767.261	0.0164436
767.339	0.0163353
767.417	0.0161236
767.495	0.0158913
767.573	0.0155692
767.651	0.0153297
767.729	0.0154213
767.808	0.0151006
767.886	0.0147011
767.964	0.0146479
768.042	0.0144756
768.120	0.0143715
768.198	0.0145262
768.276	0.0146765
768.354	0.0146527
768.433	0.0148560
768.511	0.0153276
768.589	0.0155462
768.667	0.0159193
768.745	0.0164865
768.823	0.0169273
768.901	0.0172728
768.979	0.0177614
769.058	0.0182024
769.136	0.0184949
769.214	0.0189240
769.292	0.0189886
769.370	0.0190768
769.448	0.0192852
769.526	0.0192877
769.604	0.0190056
769.683	0.0189075
769.761	0.0186723
769.839	0.0185501
769.917	0.0182386
769.995	0.0178599
770.073	0.0174482
770.151	0.0170943
770.229	0.0166931
770.308	0.0164027
770.386	0.0161426
770.464	0.0157739
770.542	0.0155367
770.620	0.0154768
770.698	0.0153848
770.776	0.0151328
770.854	0.0148834
770.933	0.0150353
771.011	0.0150031
771.089	0.0150560
771.167	0.0151553
771.245	0.0153932
771.323	0.0156206
771.401	0.0157785
771.479	0.0159444
771.558	0.0161195
771.636	0.0162017
771.714	0.0163600
771.792	0.0164593
771.870	0.0164613
771.948	0.0165453
772.026	0.0163911
772.104	0.0162653
772.183	0.0163599
772.261	0.0162692
772.339	0.0159966
772.417	0.0159670
772.495	0.0159132
772.573	0.0158174
772.651	0.0157703
772.729	0.0158661
772.808	0.0158751
772.886	0.0157816
772.964	0.0158884
773.042	0.0160466
773.120	0.0161079
773.198	0.0164869
773.276	0.0166702
773.354	0.0170440
773.433	0.0174421
773.511	0.0177172
773.589	0.0180523
773.667	0.0181939
773.745	0.0185135
773.823	0.0184657
773.901	0.0184983
773.979	0.0184525
774.058	0.0184412
774.136	0.0183273
774.214	0.0179903
774.292	0.0179680
774.370	0.0177997
774.448	0.0175483
774.526	0.0173788
774.604	0.0173714
774.683	0.0170033
774.761	0.0167906
774.839	0.0166716
774.917	0.0166086
774.995	0.0165680
775.073	0.0164175
775.151	0.0162103
775.229	0.0162228
775.308	0.0161589
775.386	0.0160146
775.464	0.0160891
775.542	0.0161089
775.620	0.0159761
775.698	0.0158614
775.776	0.0159848
775.854	0.0158193
775.933	0.0158158
776.011	0.0156969
776.089	0.0158161
776.167	0.0157375
776.245	0.0158150
776.323	0.0156956
776.401	0.0156316
776.479	0.0157002
776.558	0.0154357
776.636	0.0154132
776.714	0.0153903
776.792	0.0151463
776.870	0.0149693
776.948	0.0149439
777.026	0.0149176
777.104	0.0148084
777.183	0.0146885
777.261	0.0148736
777.339	0.0147908
777.417	0.0150288
777.495	0.0153578
777.573	0.0156248
777.651	0.0159671
777.729	0.0162918
777.808	0.0166658
777.886	0.0171628
777.964	0.0176278
778.042	0.0179562
778.120	0.0183925
778.198	0.0189143
778.276	0.0192434
778.354	0.0195930
778.433	0.0199416
778.511	0.0203689
778.589	0.0203792
778.667	0.0206520
778.745	0.0205020
778.823	0.0203077
778.901	0.0200162
778.979	0.0197128
779.058	0.0193910
779.136	0.0189201
779.214	0.0184695
779.292	0.0178088
779.370	0.0170838
779.448	0.0164314
779.526	0.0158147
779.604	0.0153461
779.683	0.0146901
779.761	0.0143700
779.839	0.0139822
779.917	0.0136802
779.995	0.0135605
780.073	0.0135545
780.151	0.0134074
780.229	0.0134069
780.308	0.0135378
780.386	0.0136936
780.464	0.0139240
780.542	0.0141088
780.620	0.0143528
780.698	0.0147865
780.776	0.0148857
780.854	0.0150902
780.933	0.0154416
781.011	0.0157166
781.089	0.0161169
781.167	0.0161765
781.245	0.0165201
781.323	0.0169068
781.401	0.0172351
781.479	0.0173534
781.558	0.0176273
781.636	0.0177699
781.714	0.0178429
781.792	0.0179113
781.870	0.0179841
781.948	0.0178236
782.026	0.0175781
782.104	0.0175134
782.183	0.0173819
782.261	0.0171391
782.339	0.0166715
782.417	0.0163745
782.495	0.0160994
782.573	0.0157728
782.651	0.0156084
782.729	0.0156403
782.808	0.0153889
782.886	0.0153996
782.964	0.0155118
783.042	0.0156495
783.120	0.0162119
783.198	0.0165654
783.276	0.0171418
783.354	0.0177055
783.433	0.0183655
783.511	0.0188534
783.589	0.0192930
783.667	0.0197289
783.745	0.0200546
783.823	0.0200172
783.901	0.0200120
783.979	0.0199625
784.058	0.0197088
784.136	0.0192118
784.214	0.0187128
784.292	0.0179900
784.370	0.0175407
784.448	0.0167490
784.526	0.0161652
784.604	0.0156303
784.683	0.0151202
784.761	0.0145721
784.839	0.0140232
784.917	0.0139867
784.995	0.0137593
785.073	0.0136434
785.151	0.0137955
785.229	0.0139948
785.308	0.0142210
785.386	0.0144701
785.464	0.0148820
785.542	0.0152361
785.620	0.0155791
785.698	0.0158550
785.776	0.0160512
785.854	0.0164995
785.933	0.0166054
786.011	0.0167415
786.089	0.0169099
786.167	0.0169072
786.245	0.0169897
786.323	0.0170958
786.401	0.0170780
786.479	0.0168597
786.558	0.0167673
786.636	0.0168381
786.714	0.0166756
786.792	0.0165888
786.870	0.0165375
786.948	0.0163120
787.026	0.0163661
787.104	0.0163146
787.183	0.0161217
787.261	0.0160544
787.339	0.0161110
787.417	0.0160165
787.495	0.0158142
787.573	0.0157720
787.651	0.0155184
787.729	0.0156871
787.808	0.0156961
787.886	0.0156445
787.964	0.0157989
788.042	0.0160590
788.120	0.0161725
788.198	0.0165387
788.276	0.0168835
788.354	0.0174202
788.433	0.0178395
788.511	0.0183491
788.589	0.0189400
788.667	0.0196716
788.745	0.0201181
788.823	0.0203185
788.901	0.0207625
788.979	0.0207861
789.058	0.0209286
789.136	0.0208509
789.214	0.0205562
789.292	0.0202058
789.370	0.0196126
789.448	0.0189836
789.526	0.0184069
789.604	0.0174461
789.683	0.0165158
789.761	0.0156960
789.839	0.0151379
789.917	0.0143165
789.995	0.0138425
790.073	0.0134563
790.151	0.0132154
790.229	0.0130063
790.308	0.0130521
790.386	0.0128869
790.464	0.0131419
790.542	0.0132801
790.620	0.0136169
790.698	0.0139322
790.776	0.0141613
790.854	0.0145179
790.933	0.0148445
791.011	0.0152487
791.089	0.0153900
791.167	0.0157564
791.245	0.0158479
791.323	0.0160684
791.401	0.0160923
791.479	0.0160932
791.558	0.0160516
791.636	0.0161341
791.714	0.0161939
791.792	0.0163966
791.870	0.0163680
791.948	0.0165177
792.026	0.0167101
792.104	0.0167563
792.183	0.0170452
792.261	0.0170548
792.339	0.0172308
792.417	0.0172402
792.495	0.0172024
792.573	0.0170530
792.651	0.0169091
792.729	0.0169062
792.808	0.0170147
792.886	0.0166616
792.964	0.0165513
793.042	0.0164776
793.120	0.0163605
793.198	0.0163421
793.276	0.0164176
793.354	0.0163697
793.433	0.0167715
793.511	0.0169615
793.589	0.0173141
793.667	0.0178436
793.745	0.0182817
793.823	0.0188023
793.901	0.0193286
793.979	0.0199150
794.058	0.0203910
794.136	0.0208195
794.214	0.0210564
794.292	0.0210918
794.370	0.0212104
794.448	0.0210554
794.526	0.0206605
794.604	0.0201732
794.683	0.0195548
794.761	0.0188831
794.839	0.0178259
794.917	0.0169560
794.995	0.0160164
795.073	0.0150967
795.151	0.0141447
795.229	0.0133686
795.308	0.0127575
795.386	0.0121062
795.464	0.0116483
795.542	0.0115491
795.620	0.0114878
795.698	0.0115813
795.776	0.0119229
795.854	0.0120383
795.933	0.0125948
796.011	0.0131245
796.089	0.0136492
796.167	0.0140973
796.245	0.0146178
796.323	0.0151529
796.401	0.0154865
796.479	0.0159762
796.558	0.0162123
796.636	0.0166394
796.714	0.0168730
796.792	0.0169620
796.870	0.0173892
796.948	0.0173708
797.026	0.0173515
797.104	0.0175986
797.183	0.0176450
797.261	0.0177039
797.339	0.0178132
797.417	0.0178595
797.495	0.0178847
797.573	0.0179641
797.651	0.0179284
797.729	0.0179921
797.808	0.0178858
797.886	0.0178389
797.964	0.0175562
798.042	0.0173188
798.120	0.0171376
798.198	0.0170658
798.276	0.0167217
798.354	0.0165850
798.433	0.0165064
798.511	0.0163193
798.589	0.0162607
798.667	0.0161806
798.745	0.0162897
798.823	0.0164843
798.901	0.0166409
798.979	0.0169202
799.058	0.0172871
799.136	0.0175961
799.214	0.0180135
799.292	0.0185760
799.370	0.0189838
799.448	0.0193031
799.526	0.0196318
799.604	0.0199200
799.683	0.0200285
799.761	0.0200153
799.839	0.0198965
799.917	0.0197614
799.995	0.0193139
800.073	0.0187689
800.151	0.0180690
800.229	0.0175556
800.308	0.0168677
800.386	0.0160977
800.464	0.0153564
800.542	0.0147409
800.620	0.0140711
800.698	0.0133246
800.776	0.0129456
800.854	0.0125936
800.933	0.0124655
801.011	0.0124243
801.089	0.0122578
801.167	0.0125872
801.245	0.0127984
801.323	0.0132695
801.401	0.0138235
801.479	0.0141270
801.558	0.0143909
801.636	0.0149615
801.714	0.0154581
801.792	0.0156772
801.870	0.0159526
801.948	0.0162050
802.026	0.0164086
802.104	0.0165149
802.183	0.0167535
802.261	0.0167309
802.339	0.0170139
802.417	0.0170685
802.495	0.0171539
802.573	0.0172843
802.651	0.0173025
802.729	0.0172008
802.808	0.0172952
802.886	0.0175648
802.964	0.0173708
803.042	0.0175929
803.120	0.0175866
803.198	0.0174193
803.276	0.0172728
803.354	0.0172395
803.433	0.0172621
803.511	0.0171387
803.589	0.0169963
803.667	0.0170364
803.745	0.0168546
803.823	0.0168874
803.901	0.0169649
803.979	0.0168626
804.058	0.0167891
804.136	0.0170234
804.214	0.0170715
804.292	0.0174618
804.370	0.0176151
804.448	0.0178127
804.526	0.0179709
804.604	0.0182298
804.683	0.0184973
804.761	0.0187218
804.839	0.0187401
804.917	0.0188338
804.995	0.0190456
805.073	0.0189302
805.151	0.0188985
805.229	0.0187211
805.308	0.0184032
805.386	0.0181319
805.464	0.0177523
805.542	0.0173993
805.620	0.0167541
805.698	0.0165718
805.776	0.0159264
805.854	0.0155512
805.933	0.0150887
806.011	0.0146999
806.089	0.0143038
806.167	0.0140313
806.245	0.0137574
806.323	0.0135406
806.401	0.0136050
806.479	0.0135720
806.558	0.0135426
806.636	0.0137594
806.714	0.0140250
806.792	0.0141020
806.870	0.0144104
806.948	0.0147846
807.026	0.0150127
807.104	0.0152960
807.183	0.0155050
807.261	0.0158039
807.339	0.0159624
807.417	0.0163142
807.495	0.0164935
807.573	0.0165446
807.651	0.0167368
807.729	0.0169869
807.808	0.0171996
807.886	0.0171560
807.964	0.0172083
808.042	0.0172468
808.120	0.0172516
808.198	0.0172578
808.276	0.0172774
808.354	0.0173408
808.433	0.0174928
808.511	0.0175800
808.589	0.0175106
808.667	0.0175549
808.745	0.0175848
808.823	0.0175091
808.901	0.0176089
808.979	0.0173776
809.058	0.0173457
809.136	0.0171138
809.214	0.0169129
809.292	0.0168491
809.370	0.0166457
809.448	0.0167027
809.526	0.0165173
809.604	0.0165592
809.683	0.0166909
809.761	0.0168011
809.839	0.0167446
809.917	0.0168653
809.995	0.0173446
810.073	0.0173083
810.151	0.0174818
810.229	0.0177517
810.308	0.0179593
810.386	0.0180971
810.464	0.0181034
810.542	0.0183270
810.620	0.0182917
810.698	0.0181537
810.776	0.0181988
810.854	0.0179752
810.933	0.0176743
811.011	0.0172791
811.089	0.0171080
811.167	0.0168669
811.245	0.0163951
811.323	0.0160429
811.401	0.0155781
811.479	0.0154011
811.558	0.0151096
811.636	0.0148296
811.714	0.0145895
811.792	0.0145788
811.870	0.0146030
811.948	0.0145294
812.026	0.0145338
812.104	0.0147469
812.183	0.0148369
812.261	0.0151005
812.339	0.0152772
812.417	0.0154919
812.495	0.0157960
812.573	0.0159655
812.651	0.0163198
812.729	0.0164622
812.808	0.0164271
812.886	0.0166561
812.964	0.0166174
813.042	0.0167850
813.120	0.0167490
813.198	0.0167245
813.276	0.0166511
813.354	0.0166222
813.433	0.0164478
813.511	0.0164948
813.589	0.0164947
813.667	0.0163761
813.745	0.0164399
813.823	0.0163270
813.901	0.0162318
813.979	0.0162788
814.058	0.0162038
814.136	0.0163128
814.214	0.0163726
814.292	0.0162666
814.370	0.0162975
814.448	0.0162780
814.526	0.0162654
814.604	0.0164042
814.683	0.0164265
814.761	0.0165369
814.839	0.0164494
814.917	0.0165291
814.995	0.0168747
815.073	0.0168032
815.151	0.0169411
815.229	0.0172720
815.308	0.0173998
815.386	0.0175919
815.464	0.0178053
815.542	0.0178550
815.620	0.0181357
815.698	0.0183939
815.776	0.0186121
815.854	0.0186179
815.933	0.0188018
816.011	0.0186930
816.089	0.0186533
816.167	0.0187132
816.245	0.0185181
816.323	0.0182639
816.401	0.0179775
816.479	0.0177509
816.558	0.0173895
816.636	0.0171593
816.714	0.0166051
816.792	0.0162915
816.870	0.0160479
816.948	0.0155650
817.026	0.0154667
817.104	0.0152069
817.183	0.0149862
817.261	0.0148911
817.339	0.0146565
817.417	0.0147395
817.495	0.0146018
817.573	0.0146387
817.651	0.0147370
817.729	0.0148106
817.808	0.0148932
817.886	0.0150658
817.964	0.0152003
818.042	0.0153843
818.120	0.0155980
818.198	0.0159679
818.276	0.0160896
818.354	0.0161229
818.433	0.0162857
818.511	0.0165500
818.589	0.0164620
818.667	0.0166660
818.745	0.0164839
818.823	0.0165651
818.901	0.0165575
818.979	0.0166895
819.058	0.0167802
819.136	0.0166620
819.214	0.0166637
819.292	0.0166479
819.370	0.0166502
819.448	0.0165139
819.526	0.0164966
819.604	0.0165266
819.683	0.0164359
819.761	0.0164761
819.839	0.0163728
819.917	0.0163955
819.995	0.0165598
820.073	0.0164173
820.151	0.0163731
820.229	0.0162243
820.308	0.0163840
820.386	0.0163893
820.464	0.0164995
820.542	0.0165625
820.620	0.0166274
820.698	0.0166808
820.776	0.0168867
820.854	0.0169377
820.933	0.0171343
821.011	0.0173026
821.089	0.0176558
821.167	0.0177184
821.245	0.0177647
821.323	0.0179824
821.401	0.0181382
821.479	0.0181972
821.558	0.0182443
821.636	0.0185515
821.714	0.0183531
821.792	0.0184029
821.870	0.0181976
821.948	0.0179131
822.026	0.0178206
822.104	0.0174381
822.183	0.0173312
822.261	0.0170193
822.339	0.0167730
822.417	0.0166045
822.495	0.0161908
822.573	0.0159303
822.651	0.0157432
822.729	0.0156406
822.808	0.0154424
822.886	0.0153710
822.964	0.0152032
823.042	0.0151456
823.120	0.0151526
823.198	0.0153162
823.276	0.0153893
823.354	0.0154630
823.433	0.0156538
823.511	0.0158507
823.589	0.0160826
823.667	0.0161970
823.745	0.0162830
823.823	0.0164977
823.901	0.0166490
823.979	0.0165469
824.058	0.0166716
824.136	0.0167165
824.214	0.0166566
824.292	0.0166911
824.370	0.0165675
824.448	0.0165266
824.526	0.0164348
824.604	0.0165403
824.683	0.0163980
824.761	0.0163014
824.839	0.0162743
824.917	0.0161977
824.995	0.0160658
825.073	0.0161122
825.151	0.0160506
825.229	0.0159423
825.308	0.0159444
825.386	0.0161429
825.464	0.0161213
825.542	0.0160818
825.620	0.0161124
825.698	0.0161725
825.776	0.0161365
825.854	0.0161368
825.933	0.0161705
826.011	0.0162669
826.089	0.0162219
826.167	0.0162541
826.245	0.0164855
826.323	0.0165277
826.401	0.0163823
826.479	0.0165910
826.558	0.0167249
826.636	0.0167801
826.714	0.0168768
826.792	0.0170606
826.870	0.0173977
826.948	0.0174722
827.026	0.0177451
827.104	0.0179092
827.183	0.0179930
827.261	0.0181516
827.339	0.0182838
827.417	0.0182420
827.495	0.0183160
827.573	0.0182537
827.651	0.0181224
827.729	0.0181039
827.808	0.0178589
827.886	0.0177323
827.964	0.0175674
828.042	0.0172089
828.120	0.0170145
828.198	0.0166710
828.276	0.0165038
828.354	0.0162516
828.433	0.0160444
828.511	0.0158777
828.589	0.0156046
828.667	0.0155624
828.745	0.0154561
828.823	0.0154454
828.901	0.0155730
828.979	0.0156613
829.058	0.0155217
829.136	0.0157305
829.214	0.0158417
829.292	0.0158234
829.370	0.0158897
829.448	0.0160375
829.526	0.0161390
829.604	0.0161782
829.683	0.0162019
829.761	0.0160573
829.839	0.0161993
829.917	0.0161653
829.995	0.0162223
830.073	0.0160548
830.151	0.0159337
830.229	0.0158437
830.308	0.0159808
830.386	0.0159700
830.464	0.0158636
830.542	0.0159063
830.620	0.0159994
830.698	0.0161536
830.776	0.0161432
830.854	0.0162906
830.933	0.0162217
831.011	0.0164051
831.089	0.0166307
831.167	0.0166216
831.245	0.0165810
831.323	0.0165199
831.401	0.0166764
831.479	0.0166928
831.558	0.0166428
831.636	0.0165308
831.714	0.0164691
831.792	0.0165730
831.870	0.0167192
831.948	0.0165359
832.026	0.0166464
832.104	0.0166979
832.183	0.0166492
832.261	0.0168159
832.339	0.0168205
832.417	0.0170146
832.495	0.0171215
832.573	0.0171698
832.651	0.0172285
832.729	0.0173808
832.808	0.0175485
832.886	0.0174467
832.964	0.0174537
833.042	0.0174403
833.120	0.0174294
833.198	0.0173801
833.276	0.0174184
833.354	0.0171345
833.433	0.0169814
833.511	0.0170965
833.589	0.0169539
833.667	0.0167442
833.745	0.0165289
833.823	0.0164732
833.901	0.0165025
833.979	0.0161942
834.058	0.0164072
834.136	0.0162566
834.214	0.0162838
834.292	0.0162125
834.370	0.0162287
834.448	0.0162281
834.526	0.0163467
834.604	0.0163800
834.683	0.0163399
834.761	0.0162263
834.839	0.0163424
834.917	0.0163806
834.995	0.0164391
835.073	0.0164745
835.151	0.0165178
835.229	0.0162445
835.308	0.0162302
835.386	0.0161738
835.464	0.0162505
835.542	0.0161824
835.620	0.0160677
835.698	0.0161691
835.776	0.0160998
835.854	0.0161556
835.933	0.0161536
836.011	0.0161140
836.089	0.0162482
836.167	0.0163057
836.245	0.0162379
836.323	0.0164622
836.401	0.0165720
836.479	0.0165203
836.558	0.0165712
836.636	0.0165871
836.714	0.0166930
836.792	0.0165745
836.870	0.0164389
836.948	0.0164400
837.026	0.0164486
837.104	0.0163229
837.183	0.0162868
837.261	0.0161735
837.339	0.0160500
837.417	0.0160212
837.495	0.0161719
837.573	0.0162566
837.651	0.0162694
837.729	0.0163768
837.808	0.0164821
837.886	0.0165759
837.964	0.0167311
838.042	0.0167977
838.120	0.0169696
838.198	0.0170605
838.276	0.0172906
838.354	0.0171342
838.433	0.0172495
838.511	0.0173253
838.589	0.0172517
838.667	0.0171637
838.745	0.0172650
838.823	0.0169636
838.901	0.0168679
838.979	0.0167802
839.058	0.0166884
839.136	0.0165821
839.214	0.0165225
839.292	0.0167211
839.370	0.0165403
839.448	0.0164928
839.526	0.0166472
839.604	0.0168200
839.683	0.0166907
839.761	0.0170198
839.839	0.0169604
839.917	0.0171621
839.995	0.0173273
840.073	0.0172540
840.151	0.0172739
840.229	0.0173512
840.308	0.0171578
840.386	0.0171042
840.464	0.0170210
840.542	0.0167017
840.620	0.0165174
840.698	0.0164159
840.776	0.0162406
840.854	0.0160695
840.933	0.0157111
841.011	0.0156998
841.089	0.0155264
841.167	0.0156196
841.245	0.0153496
841.323	0.0153975
841.401	0.0154801
841.479	0.0155325
841.558	0.0156407
841.636	0.0158330
841.714	0.0159474
841.792	0.0161061
841.870	0.0161569
841.948	0.0163787
842.026	0.0165717
842.104	0.0167139
842.183	0.0167560
842.261	0.0165724
842.339	0.0167316
842.417	0.0167931
842.495	0.0166346
842.573	0.0166298
842.651	0.0166538
842.729	0.0163627
842.808	0.0164237
842.886	0.0166056
842.964	0.0165023
843.042	0.0164966
843.120	0.0161779
843.198	0.0161710
843.276	0.0164317
843.354	0.0164568
843.433	0.0164205
843.511	0.0166680
843.589	0.0166859
843.667	0.0166716
843.745	0.0168002
843.823	0.0168169
843.901	0.0170578
843.979	0.0170171
844.058	0.0170281
844.136	0.0170570
844.214	0.0170254
844.292	0.0168992
844.370	0.0168272
844.448	0.0169608
844.526	0.0168613
844.604	0.0168365
844.683	0.0166672
844.761	0.0168189
844.839	0.0167006
844.917	0.0165511
844.995	0.0166302
845.073	0.0164936
845.151	0.0164574
845.229	0.0166338
845.308	0.0165249
845.386	0.0163980
845.464	0.0165756
845.542	0.0166656
845.620	0.0166318
845.698	0.0165811
845.776	0.0165775
845.854	0.0165775
845.933	0.0165562
846.011	0.0167588
846.089	0.0166659
846.167	0.0166251
846.245	0.0166219
846.323	0.0165434
846.401	0.0163425
846.479	0.0165306
846.558	0.0164473
846.636	0.0165607
846.714	0.0165202
846.792	0.0164713
846.870	0.0164587
846.948	0.0164642
847.026	0.0165379
847.104	0.0165550
847.183	0.0166451
847.261	0.0165852
847.339	0.0164828
847.417	0.0167382
847.495	0.0166022
847.573	0.0165051
847.651	0.0166489
847.729	0.0165318
847.808	0.0165086
847.886	0.0164990
847.964	0.0164066
848.042	0.0163231
848.120	0.0163804
848.198	0.0161418
848.276	0.0162547
848.354	0.0162877
848.433	0.0162908
848.511	0.0164000
848.589	0.0163345
848.667	0.0164491
848.745	0.0164587
848.823	0.0165622
848.901	0.0164766
848.979	0.0165745
849.058	0.0167495
849.136	0.0167262
849.214	0.0167175
849.292	0.0167353
849.370	0.0167347
849.448	0.0167809
849.526	0.0164903
849.604	0.0165185
849.683	0.0164149
849.761	0.0164623
849.839	0.0163955
849.917	0.0163741
849.995	0.0163569
850.073	0.0163317
850.151	0.0163577
850.229	0.0164542
850.308	0.0165949
850.386	0.0167542
850.464	0.0166062
850.542	0.0166933
850.620	0.0167483
850.698	0.0168726
850.776	0.0167226
850.854	0.0170203
850.933	0.0168537
851.011	0.0168520
851.089	0.0170763
851.167	0.0168293
851.245	0.0168302
851.323	0.0168611
851.401	0.0168501
851.479	0.0166943
851.558	0.0166437
851.636	0.0167970
851.714	0.0165884
851.792	0.0165473
851.870	0.0164723
851.948	0.0165408
852.026	0.0163911
852.104	0.0165193
852.183	0.0164642
852.261	0.0165403
852.339	0.0165702
852.417	0.0165668
852.495	0.0166232
852.573	0.0166671
852.651	0.0166898
852.729	0.0166980
852.808	0.0166668
852.886	0.0167451
852.964	0.0166800
853.042	0.0165668
853.120	0.0165155
853.198	0.0165849
853.276	0.0164108
853.354	0.0164249
853.433	0.0163119
853.511	0.0161570
853.589	0.0161365
853.667	0.0160828
853.745	0.0160442
853.823	0.0159399
853.901	0.0160185
853.979	0.0161172
854.058	0.0161942
854.136	0.0161584
854.214	0.0162518
854.292	0.0161820
854.370	0.0163733
854.448	0.0165636
854.526	0.0164954
854.604	0.0167497
854.683	0.0167812
854.761	0.0169319
854.839	0.0170139
854.917	0.0169810
854.995	0.0171302
855.073	0.0168195
855.151	0.0169063
855.229	0.0168375
855.308	0.0168887
855.386	0.0167784
855.464	0.0165334
855.542	0.0166057
855.620	0.0165433
855.698	0.0164391
855.776	0.0164494
855.854	0.0164175
855.933	0.0164484
856.011	0.0162978
856.089	0.0163436
856.167	0.0164628
856.245	0.0164462
856.323	0.0164482
856.401	0.0166630
856.479	0.0166619
856.558	0.0167233
856.636	0.0166280
856.714	0.0168321
856.792	0.0168372
856.870	0.0165800
856.948	0.0167374
857.026	0.0168403
857.104	0.0166914
857.183	0.0165434
857.261	0.0166920
857.339	0.0167323
857.417	0.0167761
857.495	0.0166706
857.573	0.0167181
857.651	0.0166029
857.729	0.0167760
857.808	0.0167504
857.886	0.0165981
857.964	0.0166638
858.042	0.0166571
858.120	0.0167236
858.198	0.0166605
858.276	0.0166375
858.354	0.0164019
858.433	0.0162849
858.511	0.0163866
858.589	0.0164062
858.667	0.0163104
858.745	0.0163080
858.823	0.0163395
858.901	0.0163502
858.979	0.0162551
859.058	0.0163427
859.136	0.0163284
859.214	0.0164272
859.292	0.0164808
859.370	0.0163676
859.448	0.0166503
859.526	0.0166889
859.604	0.0165893
859.683	0.0165722
859.761	0.0165836
859.839	0.0166537
859.917	0.0165224
859.995	0.0165185
860.073	0.0165543
860.151	0.0166391
860.229	0.0165483
860.308	0.0164690
860.386	0.0164831
860.464	0.0163443
860.542	0.0165023
860.620	0.0164784
860.698	0.0165236
860.776	0.0165335
860.854	0.0164404
860.933	0.0164798
861.011	0.0165030
861.089	0.0166298
861.167	0.0165686
861.245	0.0166485
861.323	0.0166748
861.401	0.0166983
861.479	0.0168880
861.558	0.0168206
861.636	0.0167883
861.714	0.0168446
861.792	0.0167611
861.870	0.0167966
861.948	0.0167136
862.026	0.0166943
862.104	0.0166113
862.183	0.0165760
862.261	0.0164158
862.339	0.0163922
862.417	0.0163903
862.495	0.0163712
862.573	0.0164560
862.651	0.0164299
862.729	0.0164975
862.808	0.0163679
862.886	0.0166137
862.964	0.0165977
863.042	0.0166997
863.120	0.0167949
863.198	0.0168215
863.276	0.0169393
863.354	0.0171201
863.433	0.0170583
863.511	0.0171908
863.589	0.0171312
863.667	0.0170963
863.745	0.0171854
863.823	0.0169765
863.901	0.0167835
863.979	0.0167382
864.058	0.0167724
864.136	0.0166176
864.214	0.0164538
864.292	0.0162290
864.370	0.0159453
864.448	0.0159395
864.526	0.0158721
864.604	0.0158861
864.683	0.0158639
864.761	0.0158105
864.839	0.0158207
864.917	0.0158988
864.995	0.0158321
865.073	0.0160923
865.151	0.0160564
865.229	0.0162203
865.308	0.0162976
865.386	0.0164274
865.464	0.0166962
865.542	0.0165820
865.620	0.0168011
865.698	0.0168689
865.776	0.0169401
865.854	0.0171584
865.933	0.0172293
866.011	0.0172605
866.089	0.0172750
866.167	0.0171946
866.245	0.0174524
866.323	0.0170556
866.401	0.0170496
866.479	0.0169598
866.558	0.0168858
866.636	0.0167943
866.714	0.0166842
866.792	0.0166658
866.870	0.0166405
866.948	0.0165520
867.026	0.0164739
867.104	0.0164333
867.183	0.0163714
867.261	0.0164243
867.339	0.0164073
867.417	0.0163284
867.495	0.0163816
867.573	0.0163629
867.651	0.0163390
867.729	0.0162518
867.808	0.0162467
867.886	0.0163354
867.964	0.0163136
868.042	0.0164561
868.120	0.0161411
868.198	0.0163521
868.276	0.0164570
868.354	0.0163309
868.433	0.0165696
868.511	0.0164557
868.589	0.0165950
868.667	0.0166241
868.745	0.0166289
868.823	0.0165366
868.901	0.0166880
868.979	0.0165763
869.058	0.0166166
869.136	0.0165762
869.214	0.0166275
869.292	0.0165798
869.370	0.0165665
869.448	0.0165179
869.526	0.0164157
869.604	0.0165156
869.683	0.0165131
869.761	0.0163583
869.839	0.0162829
869.917	0.0163586
869.995	0.0164614
870.073	0.0166064
870.151	0.0164271
870.229	0.0166299
870.308	0.0165543
870.386	0.0167993
870.464	0.0168822
870.542	0.0168654
870.620	0.0168690
870.698	0.0170734
870.776	0.0168719
870.854	0.0167817
870.933	0.0169527
871.011	0.0168742
871.089	0.0167802
871.167	0.0168186
871.245	0.0167973
871.323	0.0166792
871.401	0.0165576
871.479	0.0165151
871.558	0.0166142
871.636	0.0164277
871.714	0.0164507
871.792	0.0163438
871.870	0.0163328
871.948	0.0165401
872.026	0.0164919
872.104	0.0163004
872.183	0.0163482
872.261	0.0163421
872.339	0.0163003
872.417	0.0164073
872.495	0.0165302
872.573	0.0164544
872.651	0.0162932
872.729	0.0164373
872.808	0.0164348
872.886	0.0163367
872.964	0.0163106
873.042	0.0161800
873.120	0.0162005
873.198	0.0162556
873.276	0.0163114
873.354	0.0161899
873.433	0.0162896
873.511	0.0163738
873.589	0.0163167
873.667	0.0163686
873.745	0.0163835
873.823	0.0164771
873.901	0.0164875
873.979	0.0165714
874.058	0.0167539
874.136	0.0165689
874.214	0.0165933
874.292	0.0167702
874.370	0.0168685
874.448	0.0167500
874.526	0.0169652
874.604	0.0169099
874.683	0.0168765
874.761	0.0168426
874.839	0.0169095
874.917	0.0168618
874.995	0.0168644
875.073	0.0168291
875.151	0.0169375
875.229	0.0168723
875.308	0.0169574
875.386	0.0167400
875.464	0.0168299
875.542	0.0169260
875.620	0.0168102
875.698	0.0167384
875.776	0.0167640
875.854	0.0167263
875.933	0.0166216
876.011	0.0166457
876.089	0.0167896
876.167	0.0165241
876.245	0.0163623
876.323	0.0163418
876.401	0.0164555
876.479	0.0163342
876.558	0.0163020
876.636	0.0161389
876.714	0.0160490
876.792	0.0160558
876.870	0.0161338
876.948	0.0161871
877.026	0.0160884
877.104	0.0159197
877.183	0.0160686
877.261	0.0161113
877.339	0.0161176
877.417	0.0160998
877.495	0.0163007
877.573	0.0162446
877.651	0.0162049
877.729	0.0162255
877.808	0.0163203
877.886	0.0164472
877.964	0.0165780
878.042	0.0165655
878.120	0.0166137
878.198	0.0166861
878.276	0.0167080
878.354	0.0169122
878.433	0.0169297
878.511	0.0168610
878.589	0.0169363
878.667	0.0169876
878.745	0.0168857
878.823	0.0167769
878.901	0.0168511
878.979	0.0167511
879.058	0.0167426
879.136	0.0168383
879.214	0.0169102
879.292	0.0166507
879.370	0.0165753
879.448	0.0166647
879.526	0.0167221
879.604	0.0166241
879.683	0.0167328
879.761	0.0167394
879.839	0.0167745
879.917	0.0166095
879.995	0.0168099
880.073	0.0167685
880.151	0.0167699
880.229	0.0168075
880.308	0.0167896
880.386	0.0166908
880.464	0.0167380
880.542	0.0168516
880.620	0.0168500
880.698	0.0166697
880.776	0.0168784
880.854	0.0167845
880.933	0.0167862
881.011	0.0164893
881.089	0.0165488
881.167	0.0165726
881.245	0.0165549
881.323	0.0165311
881.401	0.0164311
881.479	0.0163032
881.558	0.0164088
881.636	0.0161881
881.714	0.0161264
881.792	0.0161229
881.870	0.0161662
881.948	0.0159245
882.026	0.0159804
882.104	0.0159987
882.183	0.0159177
882.261	0.0160207
882.339	0.0160416
882.417	0.0161045
882.495	0.0161094
882.573	0.0160105
882.651	0.0162304
882.729	0.0164270
882.808	0.0163123
882.886	0.0164646
882.964	0.0165309
883.042	0.0165927
883.120	0.0164797
883.198	0.0167215
883.276	0.0168612
883.354	0.0168315
883.433	0.0168828
883.511	0.0168327
883.589	0.0167621
883.667	0.0167912
883.745	0.0167823
883.823	0.0167773
883.901	0.0167204
883.979	0.0167509
884.058	0.0166438
884.136	0.0164854
884.214	0.0164372
884.292	0.0164072
884.370	0.0163925
884.448	0.0164310
884.526	0.0165337
884.604	0.0164277
884.683	0.0165846
884.761	0.0166890
884.839	0.0167408
884.917	0.0167952
884.995	0.0167575
885.073	0.0168575
885.151	0.0169805
885.229	0.0170541
885.308	0.0171912
885.386	0.0172546
885.464	0.0172478
885.542	0.0173132
885.620	0.0173893
885.698	0.0173436
885.776	0.0173552
885.854	0.0173473
885.933	0.0173214
886.011	0.0171099
886.089	0.0171056
886.167	0.0169222
886.245	0.0169843
886.323	0.0168516
886.401	0.0167886
886.479	0.0166375
886.558	0.0164378
886.636	0.0162537
886.714	0.0162289
886.792	0.0162984
886.870	0.0161880
886.948	0.0160999
887.026	0.0160283
887.104	0.0160251
887.183	0.0159778
887.261	0.0159612
887.339	0.0160480
887.417	0.0160114
887.495	0.0159850
887.573	0.0160393
887.651	0.0160872
887.729	0.0161160
887.808	0.0162374
887.886	0.0164279
887.964	0.0163519
888.042	0.0164288
888.120	0.0163791
888.198	0.0164289
888.276	0.0165545
888.354	0.0163953
888.433	0.0164835
888.511	0.0166368
888.589	0.0165601
888.667	0.0164182
888.745	0.0164217
888.823	0.0164503
888.901	0.0166171
888.979	0.0165086
889.058	0.0166238
889.136	0.0164139
889.214	0.0165405
889.292	0.0164162
889.370	0.0164723
889.448	0.0164524
889.526	0.0166703
889.604	0.0166117
889.683	0.0167386
889.761	0.0166654
889.839	0.0168453
889.917	0.0169540
889.995	0.0169472
890.073	0.0171458
890.151	0.0171503
890.229	0.0171372
890.308	0.0172958
890.386	0.0173254
890.464	0.0172613
890.542	0.0173167
890.620	0.0173460
890.698	0.0172327
890.776	0.0172626
890.854	0.0172645
890.933	0.0171517
891.011	0.0170559
891.089	0.0171107
891.167	0.0168356
891.245	0.0167467
891.323	0.0167648
891.401	0.0166679
891.479	0.0165044
891.558	0.0164666
891.636	0.0162418
891.714	0.0162301
891.792	0.0161314
891.870	0.0160969
891.948	0.0162070
892.026	0.0160193
892.104	0.0158140
892.183	0.0158411
892.261	0.0158400
892.339	0.0156962
892.417	0.0160163
892.495	0.0159114
892.573	0.0158216
892.651	0.0156947
892.729	0.0158027
892.808	0.0160123
892.886	0.0160678
892.964	0.0161811
893.042	0.0161238
893.120	0.0162422
893.198	0.0162636
893.276	0.0163367
893.354	0.0163301
893.433	0.0162709
893.511	0.0163519
893.589	0.0167155
893.667	0.0166074
893.745	0.0165408
893.823	0.0166605
893.901	0.0165961
893.979	0.0169133
894.058	0.0166608
894.136	0.0167799
894.214	0.0168368
894.292	0.0168089
894.370	0.0168205
894.448	0.0167353
894.526	0.0167059
894.604	0.0167288
894.683	0.0166209
894.761	0.0165085
894.839	0.0165018
894.917	0.0164661
894.995	0.0166019
895.073	0.0164404
895.151	0.0163924
895.229	0.0167007
895.308	0.0165504
895.386	0.0166442
895.464	0.0167536
895.542	0.0167233
895.620	0.0167814
895.698	0.0168763
895.776	0.0168769
895.854	0.0168816
895.933	0.0169779
896.011	0.0170885
896.089	0.0170403
896.167	0.0170232
896.245	0.0168998
896.323	0.0168931
896.401	0.0169037
896.479	0.0167479
896.558	0.0168476
896.636	0.0167950
896.714	0.0165681
896.792	0.0165668
896.870	0.0165594
896.948	0.0164819
897.026	0.0163186
897.104	0.0162768
897.183	0.0162110
897.261	0.0160658
897.339	0.0159882
897.417	0.0159629
897.495	0.0159494
897.573	0.0160889
897.651	0.0160218
897.729	0.0161110
897.808	0.0159396
897.886	0.0159435
897.964	0.0161420
898.042	0.0160431
898.120	0.0160079
898.198	0.0161487
898.276	0.0162471
898.354	0.0162136
898.433	0.0162046
898.511	0.0161628
898.589	0.0162618
898.667	0.0163694
898.745	0.0163682
898.823	0.0164299
898.901	0.0163964
898.979	0.0165798
899.058	0.0165150
899.136	0.0165433
899.214	0.0167336
899.292	0.0167310
899.370	0.0167236
899.448	0.0167612
899.526	0.0167535
899.604	0.0168273
899.683	0.0167624
899.761	0.0166900
899.839	0.0167451
899.917	0.0166805
899.995	0.0167049
900.073	0.0167771
900.151	0.0167458
900.229	0.0167366
900.308	0.0167517
900.386	0.0167570
900.464	0.0167629
900.542	0.0167066
900.620	0.0167814
900.698	0.0167435
900.776	0.0171316
900.854	0.0169846
900.933	0.0169801
901.011	0.0170261
901.089	0.0169816
901.167	0.0170149
901.245	0.0168633
901.323	0.0169287
901.401	0.0169690
901.479	0.0170555
901.558	0.0170433
901.636	0.0169181
901.714	0.0168037
901.792	0.0168853
901.870	0.0167219
901.948	0.0166563
902.026	0.0164924
902.104	0.0165161
902.183	0.0163468
902.261	0.0163159
902.339	0.0163348
902.417	0.0162316
902.495	0.0160462
902.573	0.0161353
902.651	0.0162119
902.729	0.0160651
902.808	0.0161204
902.886	0.0160812
902.964	0.0160016
903.042	0.0161451
903.120	0.0160887
903.198	0.0161507
903.276	0.0162337
903.354	0.0163058
903.433	0.0160426
903.511	0.0160149
903.589	0.0161794
903.667	0.0160207
903.745	0.0160676
903.823	0.0162510
903.901	0.0161891
903.979	0.0160841
904.058	0.0161978
904.136	0.0161437
904.214	0.0162318
904.292	0.0162555
904.370	0.0163979
904.448	0.0164576
904.526	0.0165171
904.604	0.0164866
904.683	0.0165202
904.761	0.0166508
904.839	0.0167447
904.917	0.0167847
904.995	0.0167294
905.073	0.0168517
905.151	0.0169626
905.229	0.0169603
905.308	0.0170177
905.386	0.0168129
905.464	0.0170432
905.542	0.0169016
905.620	0.0169193
905.698	0.0169179
905.776	0.0168248
905.854	0.0167960
905.933	0.0169258
906.011	0.0167674
906.089	0.0168054
906.167	0.0167728
906.245	0.0167946
906.323	0.0168134
906.401	0.0166971
906.479	0.0166859
906.558	0.0168504
906.636	0.0167434
906.714	0.0168984
906.792	0.0168389
906.870	0.0167929
906.948	0.0167063
907.026	0.0168843
907.104	0.0169115
907.183	0.0169848
907.261	0.0169598
907.339	0.0169135
907.417	0.0168851
907.495	0.0167400
907.573	0.0166582
907.651	0.0167334
907.729	0.0166227
907.808	0.0167791
907.886	0.0165736
907.964	0.0163944
908.042	0.0164513
908.120	0.0163809
908.198	0.0163083
908.276	0.0162033
908.354	0.0161461
908.433	0.0161777
908.511	0.0161457
908.589	0.0161108
908.667	0.0161606
908.745	0.0161079
908.823	0.0161923
908.901	0.0159615
908.979	0.0160709
909.058	0.0160387
909.136	0.0161250
909.214	0.0161481
909.292	0.0162017
909.370	0.0160625
909.448	0.0163469
909.526	0.0163097
909.604	0.0163542
909.683	0.0163543
909.761	0.0165992
909.839	0.0166234
909.917	0.0167395
909.995	0.0166985
910.073	0.0166266
910.151	0.0165242
910.229	0.0167263
910.308	0.0166319
910.386	0.0166272
910.464	0.0166354
910.542	0.0166419
910.620	0.0166842
910.698	0.0166788
910.776	0.0166377
910.854	0.0167561
910.933	0.0166312
911.011	0.0167065
911.089	0.0167516
911.167	0.0166731
911.245	0.0167344
911.323	0.0166397
911.401	0.0168038
911.479	0.0169167
911.558	0.0167404
911.636	0.0169198
911.714	0.0168408
911.792	0.0168848
911.870	0.0169014
911.948	0.0170173
912.026	0.0169720
912.104	0.0169524
912.183	0.0170475
912.261	0.0169247
912.339	0.0168633
912.417	0.0168469
912.495	0.0168587
912.573	0.0169604
912.651	0.0168382
912.729	0.0167360
912.808	0.0167731
912.886	0.0167666
912.964	0.0165897
913.042	0.0166850
913.120	0.0167148
913.198	0.0165771
913.276	0.0165137
913.354	0.0164034
913.433	0.0165791
913.511	0.0164639
913.589	0.0162855
913.667	0.0162256
913.745	0.0162849
913.823	0.0162054
913.901	0.0161919
913.979	0.0163409
914.058	0.0161758
914.136	0.0161160
914.214	0.0162457
914.292	0.0161486
914.370	0.0161060
914.448	0.0162154
914.526	0.0162028
914.604	0.0162347
914.683	0.0160931
914.761	0.0161976
914.839	0.0162193
914.917	0.0161943
914.995	0.0162081
915.073	0.0163536
915.151	0.0163728
915.229	0.0164373
915.308	0.0163905
915.386	0.0164541
915.464	0.0165628
915.542	0.0164803
915.620	0.0166483
915.698	0.0165723
915.776	0.0167236
915.854	0.0167223
915.933	0.0166656
916.011	0.0167182
916.089	0.0165953
916.167	0.0166060
916.245	0.0166157
916.323	0.0167408
916.401	0.0167945
916.479	0.0166376
916.558	0.0164701
916.636	0.0165180
916.714	0.0166134
916.792	0.0167199
916.870	0.0168055
916.948	0.0167250
917.026	0.0167344
917.104	0.0165753
917.183	0.0167895
917.261	0.0167776
917.339	0.0167521
917.417	0.0167558
917.495	0.0166864
917.573	0.0167069
917.651	0.0167526
917.729	0.0165871
917.808	0.0166230
917.886	0.0166274
917.964	0.0167497
918.042	0.0166056
918.120	0.0165647
918.198	0.0166133
918.276	0.0166363
918.354	0.0165302
918.433	0.0166682
918.511	0.0165559
918.589	0.0165821
918.667	0.0164952
918.745	0.0165144
918.823	0.0164235
918.901	0.0164270
918.979	0.0163990
919.058	0.0164172
919.136	0.0164147
919.214	0.0163008
919.292	0.0162994
919.370	0.0163148
919.448	0.0162663
919.526	0.0163290
919.604	0.0163010
919.683	0.0163205
919.761	0.0162572
919.839	0.0163017
919.917	0.0162396
