06/10/2022	16:24:07	Ver.	4.1	UNKNOWN
Optical Delay	599.995081	Delta X		0.078125	Sweeps	1	Scan Rate	0/0
Coordinates	Axis 1	NaN	Axis 2	NaN	Axis 3	NaN	Axis 4	NaN	Axis 5	NaN	Axis 6	0.000000
TX Power	0.000000	RX Power	0.000000

599.995	0.0164339
600.073	0.0165104
600.151	0.0163701
600.229	0.0163857
600.308	0.0164569
600.386	0.0164285
600.464	0.0164526
600.542	0.0164045
600.620	0.0164494
600.698	0.0163883
600.776	0.0164384
600.854	0.0165029
600.933	0.0162990
601.011	0.0164059
601.089	0.0163498
601.167	0.0165112
601.245	0.0162857
601.323	0.0164640
601.401	0.0164918
601.479	0.0164922
601.558	0.0163716
601.636	0.0163520
601.714	0.0163044
601.792	0.0165485
601.870	0.0163782
601.948	0.0163929
602.026	0.0165040
602.104	0.0163995
602.183	0.0163091
602.261	0.0162984
602.339	0.0163853
602.417	0.0164328
602.495	0.0163824
602.573	0.0165553
602.651	0.0164676
602.729	0.0166016
602.808	0.0165395
602.886	0.0165144
602.964	0.0163561
603.042	0.0163351
603.120	0.0163493
603.198	0.0163410
603.276	0.0164243
603.354	0.0163747
603.433	0.0163491
603.511	0.0163621
603.589	0.0163774
603.667	0.0164716
603.745	0.0163252
603.823	0.0163947
603.901	0.0164685
603.979	0.0165552
604.058	0.0163926
604.136	0.0164120
604.214	0.0163667
604.292	0.0163401
604.370	0.0165477
604.448	0.0165031
604.526	0.0163912
604.604	0.0163506
604.683	0.0163187
604.761	0.0162359
604.839	0.0165003
604.917	0.0165137
604.995	0.0164111
605.073	0.0163364
605.151	0.0163569
605.229	0.0164387
605.308	0.0165610
605.386	0.0162962
605.464	0.0163715
605.542	0.0163645
605.620	0.0164371
605.698	0.0165432
605.776	0.0165320
605.854	0.0163508
605.933	0.0164939
606.011	0.0165288
606.089	0.0163916
606.167	0.0164414
606.245	0.0164291
606.323	0.0163397
606.401	0.0164083
606.479	0.0165448
606.558	0.0165543
606.636	0.0165331
606.714	0.0163239
606.792	0.0162895
606.870	0.0165300
606.948	0.0165075
607.026	0.0164900
607.104	0.0164519
607.183	0.0165047
607.261	0.0164547
607.339	0.0164465
607.417	0.0163808
607.495	0.0163607
607.573	0.0164251
607.651	0.0165350
607.729	0.0164761
607.808	0.0164101
607.886	0.0164481
607.964	0.0165049
608.042	0.0163807
608.120	0.0164735
608.198	0.0163496
608.276	0.0165314
608.354	0.0163837
608.433	0.0163769
608.511	0.0163647
608.589	0.0163821
608.667	0.0164776
608.745	0.0165186
608.823	0.0164850
608.901	0.0163564
608.979	0.0164300
609.058	0.0165108
609.136	0.0163657
609.214	0.0164372
609.292	0.0163641
609.370	0.0164342
609.448	0.0164582
609.526	0.0165697
609.604	0.0164190
609.683	0.0165079
609.761	0.0164162
609.839	0.0164464
609.917	0.0163409
609.995	0.0165575
610.073	0.0164587
610.151	0.0163232
610.229	0.0163745
610.308	0.0165262
610.386	0.0165030
610.464	0.0163510
610.542	0.0163711
610.620	0.0163402
610.698	0.0165135
610.776	0.0163312
610.854	0.0162659
610.933	0.0163457
611.011	0.0163703
611.089	0.0163303
611.167	0.0164340
611.245	0.0163319
611.323	0.0165349
611.401	0.0164910
611.479	0.0164240
611.558	0.0163439
611.636	0.0164661
611.714	0.0165255
611.792	0.0164454
611.870	0.0162508
611.948	0.0164657
612.026	0.0163009
612.104	0.0163888
612.183	0.0164802
612.261	0.0163899
612.339	0.0163985
612.417	0.0163857
612.495	0.0163031
612.573	0.0164948
612.651	0.0163808
612.729	0.0163795
612.808	0.0164246
612.886	0.0162875
612.964	0.0164917
613.042	0.0164217
613.120	0.0164164
613.198	0.0164627
613.276	0.0164238
613.354	0.0165807
613.433	0.0164905
613.511	0.0165097
613.589	0.0164884
613.667	0.0163401
613.745	0.0164569
613.823	0.0165093
613.901	0.0164945
613.979	0.0165186
614.058	0.0164075
614.136	0.0164227
614.214	0.0163643
614.292	0.0164174
614.370	0.0165047
614.448	0.0164182
614.526	0.0164349
614.604	0.0164325
614.683	0.0164739
614.761	0.0164185
614.839	0.0164790
614.917	0.0163950
614.995	0.0164779
615.073	0.0164359
615.151	0.0164288
615.229	0.0164712
615.308	0.0164779
615.386	0.0163747
615.464	0.0164460
615.542	0.0164954
615.620	0.0164667
615.698	0.0163789
615.776	0.0164766
615.854	0.0164173
615.933	0.0164162
616.011	0.0163901
616.089	0.0163767
616.167	0.0163511
616.245	0.0164649
616.323	0.0164987
616.401	0.0164594
616.479	0.0163812
616.558	0.0163755
616.636	0.0164719
616.714	0.0163469
616.792	0.0164686
616.870	0.0163535
616.948	0.0163062
617.026	0.0165431
617.104	0.0164321
617.183	0.0163316
617.261	0.0163734
617.339	0.0163834
617.417	0.0164816
617.495	0.0165347
617.573	0.0163836
617.651	0.0164102
617.729	0.0164555
617.808	0.0165359
617.886	0.0164324
617.964	0.0165090
618.042	0.0163630
618.120	0.0163681
618.198	0.0165868
618.276	0.0164488
618.354	0.0163566
618.433	0.0164352
618.511	0.0164356
618.589	0.0164410
618.667	0.0163821
618.745	0.0163020
618.823	0.0163461
618.901	0.0163762
618.979	0.0165108
619.058	0.0164005
619.136	0.0163434
619.214	0.0163398
619.292	0.0162275
619.370	0.0164038
619.448	0.0162669
619.526	0.0163301
619.604	0.0164877
619.683	0.0165076
619.761	0.0164445
619.839	0.0163179
619.917	0.0164787
619.995	0.0164575
620.073	0.0164677
620.151	0.0165026
620.229	0.0163850
620.308	0.0164453
620.386	0.0164841
620.464	0.0164445
620.542	0.0163628
620.620	0.0164905
620.698	0.0164242
620.776	0.0164723
620.854	0.0163952
620.933	0.0164427
621.011	0.0165115
621.089	0.0164377
621.167	0.0164297
621.245	0.0164832
621.323	0.0163673
621.401	0.0164798
621.479	0.0165302
621.558	0.0164828
621.636	0.0165447
621.714	0.0162604
621.792	0.0163838
621.870	0.0163614
621.948	0.0165807
622.026	0.0163772
622.104	0.0164441
622.183	0.0163053
622.261	0.0165272
622.339	0.0164285
622.417	0.0163455
622.495	0.0163496
622.573	0.0164836
622.651	0.0163559
622.729	0.0162896
622.808	0.0165247
622.886	0.0164128
622.964	0.0164063
623.042	0.0164103
623.120	0.0163416
623.198	0.0164368
623.276	0.0164381
623.354	0.0165711
623.433	0.0165031
623.511	0.0163813
623.589	0.0163786
623.667	0.0164650
623.745	0.0165511
623.823	0.0164979
623.901	0.0164727
623.979	0.0164522
624.058	0.0164533
624.136	0.0162941
624.214	0.0164489
624.292	0.0165133
624.370	0.0163698
624.448	0.0165466
624.526	0.0165141
624.604	0.0163564
624.683	0.0163021
624.761	0.0165332
624.839	0.0164270
624.917	0.0164086
624.995	0.0164244
625.073	0.0164081
625.151	0.0163905
625.229	0.0163545
625.308	0.0162807
625.386	0.0164364
625.464	0.0164079
625.542	0.0164218
625.620	0.0165713
625.698	0.0163834
625.776	0.0164484
625.854	0.0164332
625.933	0.0163017
626.011	0.0163935
626.089	0.0164897
626.167	0.0164830
626.245	0.0163798
626.323	0.0163931
626.401	0.0163332
626.479	0.0164202
626.558	0.0165258
626.636	0.0162834
626.714	0.0163196
626.792	0.0164199
626.870	0.0163693
626.948	0.0163887
627.026	0.0163349
627.104	0.0165067
627.183	0.0164644
627.261	0.0163524
627.339	0.0164697
627.417	0.0163647
627.495	0.0163571
627.573	0.0164613
627.651	0.0163937
627.729	0.0164932
627.808	0.0164056
627.886	0.0163732
627.964	0.0164137
628.042	0.0164590
628.120	0.0164819
628.198	0.0164439
628.276	0.0164719
628.354	0.0163696
628.433	0.0164137
628.511	0.0164360
628.589	0.0163929
628.667	0.0164709
628.745	0.0164861
628.823	0.0165807
628.901	0.0163453
628.979	0.0162103
629.058	0.0163441
629.136	0.0163967
629.214	0.0164708
629.292	0.0163481
629.370	0.0165444
629.448	0.0164784
629.526	0.0163496
629.604	0.0163393
629.683	0.0164957
629.761	0.0165215
629.839	0.0165855
629.917	0.0164250
629.995	0.0163876
630.073	0.0164025
630.151	0.0163727
630.229	0.0163651
630.308	0.0164131
630.386	0.0164971
630.464	0.0163939
630.542	0.0163280
630.620	0.0165441
630.698	0.0165381
630.776	0.0163585
630.854	0.0163844
630.933	0.0164668
631.011	0.0164763
631.089	0.0164143
631.167	0.0163454
631.245	0.0165060
631.323	0.0164399
631.401	0.0163412
631.479	0.0163580
631.558	0.0163561
631.636	0.0164882
631.714	0.0165199
631.792	0.0164454
631.870	0.0163682
631.948	0.0164262
632.026	0.0165063
632.104	0.0164952
632.183	0.0163388
632.261	0.0163922
632.339	0.0165216
632.417	0.0163634
632.495	0.0163615
632.573	0.0163762
632.651	0.0163985
632.729	0.0165108
632.808	0.0164977
632.886	0.0163815
632.964	0.0165548
633.042	0.0164466
633.120	0.0164468
633.198	0.0164359
633.276	0.0165231
633.354	0.0165005
633.433	0.0163338
633.511	0.0163176
633.589	0.0164749
633.667	0.0164498
633.745	0.0164390
633.823	0.0165801
633.901	0.0163575
633.979	0.0164846
634.058	0.0164321
634.136	0.0164237
634.214	0.0164629
634.292	0.0165458
634.370	0.0164626
634.448	0.0164682
634.526	0.0163999
634.604	0.0163163
634.683	0.0164298
634.761	0.0163223
634.839	0.0164732
634.917	0.0164874
634.995	0.0162946
635.073	0.0163760
635.151	0.0162411
635.229	0.0165103
635.308	0.0164136
635.386	0.0162574
635.464	0.0164433
635.542	0.0164543
635.620	0.0163145
635.698	0.0163950
635.776	0.0163908
635.854	0.0164665
635.933	0.0163905
636.011	0.0163991
636.089	0.0164468
636.167	0.0162881
636.245	0.0164120
636.323	0.0164500
636.401	0.0163893
636.479	0.0164645
636.558	0.0164600
636.636	0.0164438
636.714	0.0164332
636.792	0.0164064
636.870	0.0163271
636.948	0.0164724
637.026	0.0164358
637.104	0.0164992
637.183	0.0163489
637.261	0.0164022
637.339	0.0163896
637.417	0.0162617
637.495	0.0163290
637.573	0.0164001
637.651	0.0163889
637.729	0.0163156
637.808	0.0163476
637.886	0.0164090
637.964	0.0163794
638.042	0.0163242
638.120	0.0164171
638.198	0.0164325
638.276	0.0164808
638.354	0.0163553
638.433	0.0163293
638.511	0.0163598
638.589	0.0165224
638.667	0.0164357
638.745	0.0164611
638.823	0.0163866
638.901	0.0163794
638.979	0.0163403
639.058	0.0162522
639.136	0.0164056
639.214	0.0163455
639.292	0.0163451
639.370	0.0164386
639.448	0.0164006
639.526	0.0162977
639.604	0.0164360
639.683	0.0164746
639.761	0.0164240
639.839	0.0163614
639.917	0.0163700
639.995	0.0163871
640.073	0.0164275
640.151	0.0164195
640.229	0.0163040
640.308	0.0162382
640.386	0.0163515
640.464	0.0164807
640.542	0.0164816
640.620	0.0164295
640.698	0.0163873
640.776	0.0164706
640.854	0.0164943
640.933	0.0162655
641.011	0.0164510
641.089	0.0164845
641.167	0.0162865
641.245	0.0163683
641.323	0.0164133
641.401	0.0162458
641.479	0.0163980
641.558	0.0163943
641.636	0.0163916
641.714	0.0164442
641.792	0.0163337
641.870	0.0162169
641.948	0.0161813
642.026	0.0164008
642.104	0.0164162
642.183	0.0163173
642.261	0.0163103
642.339	0.0164309
642.417	0.0163757
642.495	0.0163676
642.573	0.0163696
642.651	0.0162168
642.729	0.0164074
642.808	0.0163319
642.886	0.0163328
642.964	0.0163636
643.042	0.0163428
643.120	0.0164542
643.198	0.0165213
643.276	0.0164265
643.354	0.0163602
643.433	0.0161936
643.511	0.0163567
643.589	0.0163236
643.667	0.0163622
643.745	0.0164338
643.823	0.0163917
643.901	0.0163748
643.979	0.0164191
644.058	0.0163792
644.136	0.0163142
644.214	0.0165279
644.292	0.0164671
644.370	0.0164467
644.448	0.0162277
644.526	0.0164420
644.604	0.0164301
644.683	0.0163409
644.761	0.0165688
644.839	0.0164388
644.917	0.0164018
644.995	0.0165224
645.073	0.0163860
645.151	0.0163547
645.229	0.0163577
645.308	0.0163273
645.386	0.0164278
645.464	0.0164841
645.542	0.0163754
645.620	0.0163328
645.698	0.0164907
645.776	0.0164844
645.854	0.0163181
645.933	0.0164523
646.011	0.0165065
646.089	0.0164542
646.167	0.0163401
646.245	0.0164965
646.323	0.0165083
646.401	0.0164045
646.479	0.0164667
646.558	0.0164754
646.636	0.0163434
646.714	0.0163684
646.792	0.0163708
646.870	0.0165086
646.948	0.0164644
647.026	0.0164583
647.104	0.0163835
647.183	0.0164182
647.261	0.0164130
647.339	0.0164561
647.417	0.0164290
647.495	0.0165415
647.573	0.0164445
647.651	0.0163669
647.729	0.0165277
647.808	0.0165034
647.886	0.0164407
647.964	0.0164918
648.042	0.0164724
648.120	0.0164849
648.198	0.0163490
648.276	0.0164021
648.354	0.0163942
648.433	0.0163357
648.511	0.0164888
648.589	0.0164397
648.667	0.0164032
648.745	0.0163633
648.823	0.0165298
648.901	0.0163401
648.979	0.0163271
649.058	0.0164622
649.136	0.0164490
649.214	0.0164085
649.292	0.0164641
649.370	0.0163188
649.448	0.0164071
649.526	0.0165469
649.604	0.0164489
649.683	0.0163243
649.761	0.0163262
649.839	0.0162977
649.917	0.0165309
649.995	0.0165208
650.073	0.0164675
650.151	0.0162359
650.229	0.0163496
650.308	0.0163844
650.386	0.0163797
650.464	0.0164433
650.542	0.0164501
650.620	0.0164442
650.698	0.0163943
650.776	0.0163919
650.854	0.0164342
650.933	0.0165314
651.011	0.0164501
651.089	0.0163499
651.167	0.0163403
651.245	0.0165720
651.323	0.0165425
651.401	0.0164484
651.479	0.0163390
651.558	0.0163940
651.636	0.0164857
651.714	0.0164338
651.792	0.0164342
651.870	0.0163834
651.948	0.0164027
652.026	0.0164165
652.104	0.0164532
652.183	0.0163965
652.261	0.0164007
652.339	0.0164686
652.417	0.0164659
652.495	0.0163090
652.573	0.0163367
652.651	0.0162356
652.729	0.0163351
652.808	0.0165097
652.886	0.0163744
652.964	0.0162780
653.042	0.0163425
653.120	0.0164465
653.198	0.0163898
653.276	0.0164264
653.354	0.0164065
653.433	0.0164143
653.511	0.0163673
653.589	0.0163417
653.667	0.0164075
653.745	0.0164021
653.823	0.0164433
653.901	0.0164723
653.979	0.0163036
654.058	0.0163567
654.136	0.0163371
654.214	0.0163790
654.292	0.0164686
654.370	0.0165108
654.448	0.0163477
654.526	0.0163434
654.604	0.0163226
654.683	0.0164545
654.761	0.0163409
654.839	0.0163773
654.917	0.0165479
654.995	0.0163771
655.073	0.0162752
655.151	0.0165644
655.229	0.0165432
655.308	0.0163670
655.386	0.0162743
655.464	0.0164366
655.542	0.0165144
655.620	0.0163857
655.698	0.0164030
655.776	0.0163271
655.854	0.0163111
655.933	0.0164635
656.011	0.0165423
656.089	0.0164610
656.167	0.0164297
656.245	0.0164486
656.323	0.0163066
656.401	0.0162930
656.479	0.0164508
656.558	0.0163952
656.636	0.0162658
656.714	0.0163934
656.792	0.0165138
656.870	0.0163294
656.948	0.0163551
657.026	0.0163718
657.104	0.0163447
657.183	0.0163533
657.261	0.0164388
657.339	0.0163145
657.417	0.0164236
657.495	0.0164535
657.573	0.0165100
657.651	0.0165160
657.729	0.0163406
657.808	0.0164001
657.886	0.0164560
657.964	0.0163355
658.042	0.0162572
658.120	0.0163113
658.198	0.0165012
658.276	0.0163701
658.354	0.0163760
658.433	0.0164487
658.511	0.0163781
658.589	0.0163536
658.667	0.0164338
658.745	0.0164655
658.823	0.0163898
658.901	0.0165299
658.979	0.0164273
659.058	0.0164186
659.136	0.0164094
659.214	0.0164715
659.292	0.0165736
659.370	0.0163366
659.448	0.0163846
659.526	0.0165294
659.604	0.0165659
659.683	0.0164378
659.761	0.0164655
659.839	0.0165042
659.917	0.0164074
659.995	0.0163479
660.073	0.0164205
660.151	0.0165337
660.229	0.0164663
660.308	0.0164263
660.386	0.0164665
660.464	0.0163240
660.542	0.0163795
660.620	0.0164549
660.698	0.0163900
660.776	0.0164110
660.854	0.0163892
660.933	0.0165842
661.011	0.0163941
661.089	0.0164922
661.167	0.0164902
661.245	0.0164568
661.323	0.0164520
661.401	0.0164603
661.479	0.0163510
661.558	0.0163807
661.636	0.0163317
661.714	0.0163668
661.792	0.0165549
661.870	0.0164485
661.948	0.0162289
662.026	0.0164084
662.104	0.0163947
662.183	0.0163958
662.261	0.0164349
662.339	0.0164321
662.417	0.0163663
662.495	0.0164028
662.573	0.0162959
662.651	0.0164445
662.729	0.0165366
662.808	0.0165289
662.886	0.0165171
662.964	0.0165018
663.042	0.0163640
663.120	0.0163170
663.198	0.0164577
663.276	0.0164806
663.354	0.0163966
663.433	0.0164315
663.511	0.0164659
663.589	0.0164787
663.667	0.0164678
663.745	0.0164221
663.823	0.0164092
663.901	0.0165768
663.979	0.0163969
664.058	0.0165667
664.136	0.0164774
664.214	0.0163951
664.292	0.0163787
664.370	0.0163137
664.448	0.0164646
664.526	0.0165675
664.604	0.0164088
664.683	0.0164468
664.761	0.0163989
664.839	0.0164460
664.917	0.0164912
664.995	0.0164352
665.073	0.0163891
665.151	0.0163917
665.229	0.0163525
665.308	0.0163818
665.386	0.0165417
665.464	0.0164658
665.542	0.0164262
665.620	0.0163512
665.698	0.0164713
665.776	0.0164216
665.854	0.0162991
665.933	0.0164907
666.011	0.0164729
666.089	0.0164797
666.167	0.0163319
666.245	0.0163725
666.323	0.0164217
666.401	0.0163170
666.479	0.0164071
666.558	0.0163544
666.636	0.0164570
666.714	0.0164077
666.792	0.0165067
666.870	0.0163497
666.948	0.0164345
667.026	0.0163986
667.104	0.0164594
667.183	0.0164783
667.261	0.0163506
667.339	0.0164378
667.417	0.0163844
667.495	0.0163657
667.573	0.0164039
667.651	0.0163567
667.729	0.0164201
667.808	0.0162914
667.886	0.0164938
667.964	0.0165256
668.042	0.0165163
668.120	0.0164963
668.198	0.0164484
668.276	0.0164592
668.354	0.0164008
668.433	0.0163936
668.511	0.0164185
668.589	0.0163696
668.667	0.0164890
668.745	0.0165565
668.823	0.0164585
668.901	0.0164837
668.979	0.0164325
669.058	0.0164561
669.136	0.0164700
669.214	0.0164311
669.292	0.0164169
669.370	0.0165347
669.448	0.0163813
669.526	0.0165170
669.604	0.0163561
669.683	0.0164544
669.761	0.0162775
669.839	0.0164792
669.917	0.0164725
669.995	0.0164078
670.073	0.0164999
670.151	0.0164198
670.229	0.0165344
670.308	0.0162849
670.386	0.0164273
670.464	0.0164741
670.542	0.0164598
670.620	0.0165099
670.698	0.0165203
670.776	0.0164543
670.854	0.0163741
670.933	0.0163242
671.011	0.0164410
671.089	0.0163912
671.167	0.0164165
671.245	0.0164204
671.323	0.0163783
671.401	0.0163483
671.479	0.0165295
671.558	0.0165393
671.636	0.0164124
671.714	0.0164520
671.792	0.0164355
671.870	0.0163487
671.948	0.0164285
672.026	0.0162601
672.104	0.0162537
672.183	0.0164902
672.261	0.0164819
672.339	0.0163969
672.417	0.0164179
672.495	0.0164677
672.573	0.0163712
672.651	0.0165269
672.729	0.0163879
672.808	0.0162663
672.886	0.0164025
672.964	0.0164445
673.042	0.0164815
673.120	0.0164188
673.198	0.0164075
673.276	0.0164169
673.354	0.0163494
673.433	0.0164541
673.511	0.0163973
673.589	0.0164520
673.667	0.0163829
673.745	0.0163302
673.823	0.0164227
673.901	0.0163535
673.979	0.0164584
674.058	0.0165723
674.136	0.0164636
674.214	0.0164038
674.292	0.0164251
674.370	0.0164691
674.448	0.0163933
674.526	0.0164671
674.604	0.0164239
674.683	0.0164031
674.761	0.0164490
674.839	0.0164727
674.917	0.0164085
674.995	0.0164795
675.073	0.0164017
675.151	0.0162535
675.229	0.0164581
675.308	0.0163408
675.386	0.0164075
675.464	0.0164104
675.542	0.0163210
675.620	0.0163273
675.698	0.0164586
675.776	0.0164066
675.854	0.0164893
675.933	0.0163966
676.011	0.0164095
676.089	0.0164934
676.167	0.0165496
676.245	0.0164738
676.323	0.0163242
676.401	0.0164606
676.479	0.0164852
676.558	0.0164306
676.636	0.0165501
676.714	0.0164335
676.792	0.0163541
676.870	0.0164471
676.948	0.0165096
677.026	0.0163725
677.104	0.0164426
677.183	0.0163834
677.261	0.0162871
677.339	0.0163549
677.417	0.0165166
677.495	0.0164310
677.573	0.0164409
677.651	0.0164017
677.729	0.0164503
677.808	0.0164742
677.886	0.0164627
677.964	0.0163490
678.042	0.0163549
678.120	0.0164615
678.198	0.0164281
678.276	0.0164999
678.354	0.0164919
678.433	0.0163783
678.511	0.0164621
678.589	0.0163786
678.667	0.0164233
678.745	0.0163853
678.823	0.0163650
678.901	0.0164447
678.979	0.0164342
679.058	0.0164408
679.136	0.0165663
679.214	0.0165057
679.292	0.0164014
679.370	0.0162403
679.448	0.0165094
679.526	0.0163562
679.604	0.0163616
679.683	0.0163965
679.761	0.0165276
679.839	0.0163995
679.917	0.0163884
679.995	0.0165382
680.073	0.0164020
680.151	0.0164662
680.229	0.0165216
680.308	0.0165199
680.386	0.0165226
680.464	0.0164802
680.542	0.0164578
680.620	0.0163949
680.698	0.0163390
680.776	0.0164587
680.854	0.0165316
680.933	0.0165297
681.011	0.0165588
681.089	0.0164855
681.167	0.0164019
681.245	0.0164667
681.323	0.0164371
681.401	0.0164813
681.479	0.0163845
681.558	0.0164953
681.636	0.0164520
681.714	0.0165408
681.792	0.0165614
681.870	0.0166547
681.948	0.0164246
682.026	0.0164044
682.104	0.0165871
682.183	0.0164864
682.261	0.0166262
682.339	0.0165486
682.417	0.0162594
682.495	0.0164253
682.573	0.0165924
682.651	0.0164430
682.729	0.0163985
682.808	0.0163890
682.886	0.0166514
682.964	0.0164671
683.042	0.0164259
683.120	0.0164488
683.198	0.0163504
683.276	0.0162469
683.354	0.0164198
683.433	0.0163963
683.511	0.0164977
683.589	0.0163822
683.667	0.0164512
683.745	0.0163766
683.823	0.0164244
683.901	0.0165248
683.979	0.0164033
684.058	0.0164185
684.136	0.0164230
684.214	0.0163153
684.292	0.0164748
684.370	0.0164719
684.448	0.0164369
684.526	0.0163884
684.604	0.0164491
684.683	0.0164720
684.761	0.0163777
684.839	0.0164511
684.917	0.0164359
684.995	0.0164887
685.073	0.0165364
685.151	0.0163899
685.229	0.0163472
685.308	0.0164928
685.386	0.0165542
685.464	0.0165115
685.542	0.0165147
685.620	0.0164764
685.698	0.0164858
685.776	0.0163915
685.854	0.0164046
685.933	0.0163828
686.011	0.0165292
686.089	0.0166319
686.167	0.0165457
686.245	0.0163699
686.323	0.0164635
686.401	0.0164155
686.479	0.0164952
686.558	0.0164606
686.636	0.0165010
686.714	0.0164507
686.792	0.0165569
686.870	0.0164194
686.948	0.0165117
687.026	0.0165793
687.104	0.0166306
687.183	0.0165672
687.261	0.0164217
687.339	0.0164857
687.417	0.0164657
687.495	0.0164954
687.573	0.0164414
687.651	0.0164509
687.729	0.0164314
687.808	0.0165059
687.886	0.0165518
687.964	0.0166152
688.042	0.0165031
688.120	0.0164903
688.198	0.0164112
688.276	0.0165025
688.354	0.0164891
688.433	0.0164187
688.511	0.0164589
688.589	0.0165785
688.667	0.0165213
688.745	0.0165938
688.823	0.0165329
688.901	0.0164652
688.979	0.0165243
689.058	0.0163592
689.136	0.0163880
689.214	0.0164839
689.292	0.0166119
689.370	0.0164584
689.448	0.0164259
689.526	0.0164111
689.604	0.0164804
689.683	0.0164520
689.761	0.0164548
689.839	0.0163873
689.917	0.0164138
689.995	0.0164181
690.073	0.0163485
690.151	0.0163689
690.229	0.0165496
690.308	0.0164820
690.386	0.0164481
690.464	0.0164179
690.542	0.0163603
690.620	0.0163988
690.698	0.0164563
690.776	0.0163696
690.854	0.0163817
690.933	0.0164805
691.011	0.0164483
691.089	0.0165149
691.167	0.0165808
691.245	0.0164446
691.323	0.0164986
691.401	0.0164765
691.479	0.0164027
691.558	0.0163837
691.636	0.0165015
691.714	0.0163055
691.792	0.0163161
691.870	0.0164249
691.948	0.0163403
692.026	0.0164306
692.104	0.0163623
692.183	0.0164317
692.261	0.0163358
692.339	0.0162776
692.417	0.0164160
692.495	0.0164319
692.573	0.0163439
692.651	0.0164117
692.729	0.0163909
692.808	0.0163123
692.886	0.0164272
692.964	0.0163297
693.042	0.0162634
693.120	0.0162122
693.198	0.0162864
693.276	0.0164549
693.354	0.0163499
693.433	0.0162885
693.511	0.0163847
693.589	0.0163142
693.667	0.0163448
693.745	0.0165154
693.823	0.0164220
693.901	0.0163501
693.979	0.0163781
694.058	0.0164694
694.136	0.0163696
694.214	0.0162037
694.292	0.0163370
694.370	0.0164764
694.448	0.0163019
694.526	0.0164062
694.604	0.0162098
694.683	0.0163993
694.761	0.0163391
694.839	0.0163006
694.917	0.0162481
694.995	0.0163586
695.073	0.0162485
695.151	0.0162072
695.229	0.0163000
695.308	0.0163724
695.386	0.0163578
695.464	0.0163238
695.542	0.0164143
695.620	0.0162115
695.698	0.0162682
695.776	0.0162501
695.854	0.0164214
695.933	0.0163169
696.011	0.0162085
696.089	0.0163647
696.167	0.0164288
696.245	0.0163113
696.323	0.0163327
696.401	0.0163882
696.479	0.0164288
696.558	0.0163943
696.636	0.0163030
696.714	0.0163743
696.792	0.0163503
696.870	0.0164043
696.948	0.0163651
697.026	0.0164081
697.104	0.0163622
697.183	0.0162900
697.261	0.0163437
697.339	0.0165180
697.417	0.0163535
697.495	0.0164151
697.573	0.0164423
697.651	0.0162994
697.729	0.0165455
697.808	0.0162825
697.886	0.0162644
697.964	0.0163150
698.042	0.0163809
698.120	0.0163741
698.198	0.0162801
698.276	0.0163205
698.354	0.0162851
698.433	0.0165298
698.511	0.0163501
698.589	0.0164030
698.667	0.0163036
698.745	0.0163807
698.823	0.0163258
698.901	0.0163496
698.979	0.0164683
699.058	0.0164091
699.136	0.0163401
699.214	0.0164572
699.292	0.0164831
699.370	0.0162624
699.448	0.0165108
699.526	0.0164491
699.604	0.0164188
699.683	0.0163411
699.761	0.0163902
699.839	0.0164519
699.917	0.0162957
699.995	0.0164145
700.073	0.0164328
700.151	0.0163759
700.229	0.0164227
700.308	0.0163756
700.386	0.0163909
700.464	0.0164947
700.542	0.0165491
700.620	0.0164215
700.698	0.0163442
700.776	0.0163407
700.854	0.0164088
700.933	0.0164944
701.011	0.0164906
701.089	0.0163934
701.167	0.0162901
701.245	0.0164847
701.323	0.0164709
701.401	0.0163817
701.479	0.0163992
701.558	0.0163185
701.636	0.0164999
701.714	0.0164484
701.792	0.0165019
701.870	0.0164030
701.948	0.0164624
702.026	0.0165588
702.104	0.0164592
702.183	0.0164852
702.261	0.0164742
702.339	0.0164240
702.417	0.0164583
702.495	0.0164378
702.573	0.0165164
702.651	0.0164175
702.729	0.0166087
702.808	0.0165913
702.886	0.0164138
702.964	0.0165059
703.042	0.0165463
703.120	0.0164003
703.198	0.0164530
703.276	0.0165285
703.354	0.0165671
703.433	0.0164571
703.511	0.0166374
703.589	0.0164505
703.667	0.0165284
703.745	0.0164121
703.823	0.0164185
703.901	0.0166167
703.979	0.0165122
704.058	0.0165456
704.136	0.0165331
704.214	0.0166914
704.292	0.0165723
704.370	0.0165276
704.448	0.0165147
704.526	0.0165231
704.604	0.0165764
704.683	0.0164774
704.761	0.0165073
704.839	0.0165257
704.917	0.0164845
704.995	0.0164876
705.073	0.0165459
705.151	0.0164439
705.229	0.0165412
705.308	0.0165858
705.386	0.0166054
705.464	0.0165004
705.542	0.0165511
705.620	0.0166220
705.698	0.0164859
705.776	0.0166680
705.854	0.0166939
705.933	0.0165969
706.011	0.0165666
706.089	0.0165813
706.167	0.0165986
706.245	0.0164935
706.323	0.0164458
706.401	0.0164807
706.479	0.0165018
706.558	0.0165210
706.636	0.0166193
706.714	0.0165512
706.792	0.0167155
706.870	0.0166080
706.948	0.0165818
707.026	0.0165138
707.104	0.0164505
707.183	0.0165802
707.261	0.0164185
707.339	0.0165480
707.417	0.0164645
707.495	0.0164610
707.573	0.0165168
707.651	0.0164474
707.729	0.0166126
707.808	0.0165108
707.886	0.0164440
707.964	0.0165712
708.042	0.0165060
708.120	0.0165591
708.198	0.0165492
708.276	0.0165327
708.354	0.0165045
708.433	0.0165579
708.511	0.0164539
708.589	0.0165424
708.667	0.0165347
708.745	0.0164758
708.823	0.0164619
708.901	0.0164375
708.979	0.0165274
709.058	0.0164134
709.136	0.0165145
709.214	0.0165067
709.292	0.0164992
709.370	0.0164289
709.448	0.0166123
709.526	0.0165775
709.604	0.0164572
709.683	0.0164804
709.761	0.0165074
709.839	0.0166099
709.917	0.0166325
709.995	0.0164875
710.073	0.0165108
710.151	0.0165858
710.229	0.0163482
710.308	0.0165171
710.386	0.0165796
710.464	0.0164523
710.542	0.0164739
710.620	0.0164700
710.698	0.0164558
710.776	0.0164238
710.854	0.0163150
710.933	0.0165849
711.011	0.0164465
711.089	0.0163142
711.167	0.0164592
711.245	0.0164608
711.323	0.0163615
711.401	0.0164909
711.479	0.0165401
711.558	0.0164132
711.636	0.0163309
711.714	0.0164214
711.792	0.0164447
711.870	0.0163761
711.948	0.0164151
712.026	0.0165224
712.104	0.0162854
712.183	0.0162636
712.261	0.0163364
712.339	0.0164159
712.417	0.0163754
712.495	0.0162923
712.573	0.0163333
712.651	0.0163685
712.729	0.0164463
712.808	0.0163225
712.886	0.0163859
712.964	0.0162264
713.042	0.0162336
713.120	0.0162917
713.198	0.0163226
713.276	0.0164114
713.354	0.0162656
713.433	0.0162254
713.511	0.0162799
713.589	0.0163905
713.667	0.0163261
713.745	0.0162554
713.823	0.0163330
713.901	0.0162968
713.979	0.0164660
714.058	0.0164120
714.136	0.0163287
714.214	0.0162815
714.292	0.0162911
714.370	0.0161131
714.448	0.0163029
714.526	0.0164455
714.604	0.0163644
714.683	0.0162757
714.761	0.0163047
714.839	0.0163287
714.917	0.0163784
714.995	0.0162930
715.073	0.0162894
715.151	0.0162634
715.229	0.0162555
715.308	0.0163680
715.386	0.0161974
715.464	0.0162334
715.542	0.0163493
715.620	0.0163659
715.698	0.0162946
715.776	0.0162832
715.854	0.0162722
715.933	0.0163885
716.011	0.0162315
716.089	0.0163377
716.167	0.0164069
716.245	0.0163203
716.323	0.0162057
716.401	0.0163686
716.479	0.0163460
716.558	0.0164184
716.636	0.0163555
716.714	0.0162541
716.792	0.0162997
716.870	0.0162355
716.948	0.0163480
717.026	0.0162191
717.104	0.0163101
717.183	0.0164164
717.261	0.0163152
717.339	0.0162940
717.417	0.0162733
717.495	0.0163042
717.573	0.0163852
717.651	0.0162756
717.729	0.0162225
717.808	0.0162186
717.886	0.0162594
717.964	0.0164153
718.042	0.0163393
718.120	0.0163680
718.198	0.0164040
718.276	0.0163297
718.354	0.0162978
718.433	0.0163376
718.511	0.0163371
718.589	0.0163385
718.667	0.0162673
718.745	0.0162768
718.823	0.0163258
718.901	0.0162701
718.979	0.0165143
719.058	0.0164184
719.136	0.0162768
719.214	0.0162563
719.292	0.0163863
719.370	0.0163918
719.448	0.0163800
719.526	0.0163274
719.604	0.0163607
719.683	0.0162251
719.761	0.0163985
719.839	0.0164684
719.917	0.0164589
719.995	0.0164339
720.073	0.0162434
720.151	0.0163321
720.229	0.0163347
720.308	0.0162315
720.386	0.0163350
720.464	0.0163604
720.542	0.0164042
720.620	0.0163458
720.698	0.0163290
720.776	0.0162680
720.854	0.0162213
720.933	0.0163919
721.011	0.0163863
721.089	0.0163876
721.167	0.0164462
721.245	0.0163826
721.323	0.0164962
721.401	0.0163167
721.479	0.0163918
721.558	0.0164663
721.636	0.0163966
721.714	0.0163229
721.792	0.0163402
721.870	0.0165124
721.948	0.0163966
722.026	0.0163042
722.104	0.0164643
722.183	0.0162804
722.261	0.0163848
722.339	0.0164436
722.417	0.0164194
722.495	0.0164336
722.573	0.0163711
722.651	0.0165186
722.729	0.0165611
722.808	0.0164039
722.886	0.0163802
722.964	0.0164738
723.042	0.0163947
723.120	0.0165094
723.198	0.0165784
723.276	0.0165520
723.354	0.0164248
723.433	0.0163683
723.511	0.0165494
723.589	0.0164700
723.667	0.0163466
723.745	0.0163720
723.823	0.0165454
723.901	0.0163962
723.979	0.0162152
724.058	0.0164074
724.136	0.0164236
724.214	0.0165461
724.292	0.0164821
724.370	0.0164823
724.448	0.0164132
724.526	0.0165094
724.604	0.0164850
724.683	0.0165070
724.761	0.0164577
724.839	0.0163884
724.917	0.0164303
724.995	0.0166833
725.073	0.0165439
725.151	0.0164512
725.229	0.0164854
725.308	0.0165298
725.386	0.0164319
725.464	0.0164542
725.542	0.0165215
725.620	0.0165484
725.698	0.0165582
725.776	0.0164639
725.854	0.0165121
725.933	0.0165250
726.011	0.0165408
726.089	0.0164151
726.167	0.0165166
726.245	0.0165420
726.323	0.0165125
726.401	0.0164965
726.479	0.0165492
726.558	0.0165181
726.636	0.0166191
726.714	0.0163879
726.792	0.0163774
726.870	0.0165343
726.948	0.0164648
727.026	0.0164740
727.104	0.0165364
727.183	0.0165794
727.261	0.0164287
727.339	0.0163638
727.417	0.0164249
727.495	0.0164825
727.573	0.0164863
727.651	0.0165099
727.729	0.0164941
727.808	0.0164771
727.886	0.0163916
727.964	0.0165866
728.042	0.0163985
728.120	0.0165276
728.198	0.0164530
728.276	0.0164925
728.354	0.0164850
728.433	0.0164988
728.511	0.0165588
728.589	0.0164794
728.667	0.0165115
728.745	0.0165198
728.823	0.0165565
728.901	0.0165147
728.979	0.0164787
729.058	0.0164933
729.136	0.0164790
729.214	0.0164967
729.292	0.0164108
729.370	0.0164818
729.448	0.0163258
729.526	0.0164711
729.604	0.0164547
729.683	0.0163464
729.761	0.0165544
729.839	0.0164428
729.917	0.0164029
729.995	0.0163151
730.073	0.0164621
730.151	0.0164527
730.229	0.0163975
730.308	0.0163725
730.386	0.0163557
730.464	0.0163335
730.542	0.0164070
730.620	0.0164993
730.698	0.0165011
730.776	0.0163621
730.854	0.0163815
730.933	0.0164355
731.011	0.0163616
731.089	0.0164124
731.167	0.0164121
731.245	0.0163752
731.323	0.0163164
731.401	0.0163938
731.479	0.0164134
731.558	0.0164213
731.636	0.0163495
731.714	0.0163351
731.792	0.0163546
731.870	0.0164616
731.948	0.0164330
732.026	0.0163730
732.104	0.0163574
732.183	0.0164099
732.261	0.0165022
732.339	0.0163382
732.417	0.0163725
732.495	0.0164156
732.573	0.0165076
732.651	0.0163527
732.729	0.0163783
732.808	0.0162978
732.886	0.0163796
732.964	0.0163723
733.042	0.0163599
733.120	0.0163472
733.198	0.0162840
733.276	0.0163501
733.354	0.0164235
733.433	0.0163519
733.511	0.0164221
733.589	0.0164192
733.667	0.0164649
733.745	0.0163344
733.823	0.0163515
733.901	0.0163914
733.979	0.0163898
734.058	0.0164674
734.136	0.0164916
734.214	0.0164613
734.292	0.0165691
734.370	0.0164414
734.448	0.0165306
734.526	0.0166068
734.604	0.0164986
734.683	0.0163503
734.761	0.0162636
734.839	0.0162787
734.917	0.0162875
734.995	0.0160468
735.073	0.0162043
735.151	0.0161029
735.229	0.0162383
735.308	0.0163461
735.386	0.0162304
735.464	0.0163116
735.542	0.0166124
735.620	0.0167073
735.698	0.0167687
735.776	0.0169028
735.854	0.0170369
735.933	0.0170405
736.011	0.0170802
736.089	0.0169296
736.167	0.0170573
736.245	0.0169976
736.323	0.0167622
736.401	0.0165842
736.479	0.0163493
736.558	0.0160503
736.636	0.0159357
736.714	0.0157172
736.792	0.0154368
736.870	0.0152737
736.948	0.0151896
737.026	0.0151583
737.104	0.0152310
737.183	0.0153576
737.261	0.0156760
737.339	0.0162225
737.417	0.0165187
737.495	0.0168555
737.573	0.0172728
737.651	0.0177530
737.729	0.0179563
737.808	0.0180183
737.886	0.0180454
737.964	0.0178996
738.042	0.0175173
738.120	0.0172881
738.198	0.0168554
738.276	0.0166563
738.354	0.0161145
738.433	0.0161790
738.511	0.0157725
738.589	0.0158517
738.667	0.0160329
738.745	0.0159517
738.823	0.0157330
738.901	0.0157658
738.979	0.0156551
739.058	0.0155654
739.136	0.0156150
739.214	0.0155083
739.292	0.0153332
739.370	0.0152707
739.448	0.0153793
739.526	0.0155148
739.604	0.0159446
739.683	0.0160069
739.761	0.0163718
739.839	0.0168079
739.917	0.0171972
739.995	0.0175398
740.073	0.0179018
740.151	0.0180127
740.229	0.0180171
740.308	0.0180782
740.386	0.0178852
740.464	0.0173790
740.542	0.0171883
740.620	0.0169305
740.698	0.0166298
740.776	0.0163026
740.854	0.0160936
740.933	0.0158444
741.011	0.0154921
741.089	0.0151120
741.167	0.0150491
741.245	0.0148483
741.323	0.0148499
741.401	0.0148643
741.479	0.0148793
741.558	0.0150218
741.636	0.0151364
741.714	0.0152209
741.792	0.0155188
741.870	0.0159603
741.948	0.0163374
742.026	0.0166793
742.104	0.0170406
742.183	0.0173701
742.261	0.0177892
742.339	0.0179156
742.417	0.0181519
742.495	0.0181922
742.573	0.0182008
742.651	0.0180700
742.729	0.0177957
742.808	0.0174400
742.886	0.0169562
742.964	0.0164447
743.042	0.0161929
743.120	0.0158437
743.198	0.0154620
743.276	0.0153175
743.354	0.0152167
743.433	0.0152115
743.511	0.0150429
743.589	0.0151569
743.667	0.0152225
743.745	0.0153963
743.823	0.0156327
743.901	0.0157579
743.979	0.0159650
744.058	0.0161312
744.136	0.0162582
744.214	0.0163129
744.292	0.0165998
744.370	0.0165770
744.448	0.0166693
744.526	0.0167944
744.604	0.0169028
744.683	0.0169531
744.761	0.0168365
744.839	0.0169651
744.917	0.0170377
744.995	0.0170773
745.073	0.0170358
745.151	0.0168999
745.229	0.0168853
745.308	0.0168420
745.386	0.0166724
745.464	0.0167135
745.542	0.0165614
745.620	0.0163593
745.698	0.0162150
745.776	0.0160310
745.854	0.0160659
745.933	0.0161098
746.011	0.0159403
746.089	0.0158916
746.167	0.0159901
746.245	0.0159985
746.323	0.0159902
746.401	0.0160107
746.479	0.0160636
746.558	0.0161825
746.636	0.0162274
746.714	0.0162034
746.792	0.0161931
746.870	0.0160419
746.948	0.0161962
747.026	0.0161675
747.104	0.0163014
747.183	0.0164178
747.261	0.0164571
747.339	0.0165233
747.417	0.0165326
747.495	0.0165564
747.573	0.0166610
747.651	0.0166000
747.729	0.0167453
747.808	0.0167216
747.886	0.0167974
747.964	0.0170251
748.042	0.0169749
748.120	0.0169192
748.198	0.0168685
748.276	0.0169904
748.354	0.0168768
748.433	0.0168066
748.511	0.0166706
748.589	0.0167250
748.667	0.0166734
748.745	0.0164578
748.823	0.0162882
748.901	0.0162079
748.979	0.0160286
749.058	0.0157510
749.136	0.0158073
749.214	0.0157891
749.292	0.0156509
749.370	0.0156608
749.448	0.0157276
749.526	0.0158764
749.604	0.0157519
749.683	0.0159166
749.761	0.0160430
749.839	0.0162199
749.917	0.0164461
749.995	0.0164892
750.073	0.0166877
750.151	0.0169199
750.229	0.0171140
750.308	0.0170981
750.386	0.0170959
750.464	0.0173159
750.542	0.0172832
750.620	0.0171325
750.698	0.0171552
750.776	0.0170171
750.854	0.0170963
750.933	0.0169795
751.011	0.0167913
751.089	0.0164946
751.167	0.0164501
751.245	0.0162690
751.323	0.0160773
751.401	0.0159836
751.479	0.0159354
751.558	0.0158983
751.636	0.0159256
751.714	0.0157711
751.792	0.0157347
751.870	0.0158087
751.948	0.0159231
752.026	0.0159186
752.104	0.0161687
752.183	0.0162345
752.261	0.0164026
752.339	0.0166477
752.417	0.0167492
752.495	0.0169508
752.573	0.0168569
752.651	0.0170509
752.729	0.0172408
752.808	0.0170968
752.886	0.0170389
752.964	0.0168043
753.042	0.0168720
753.120	0.0167842
753.198	0.0167547
753.276	0.0166081
753.354	0.0166639
753.433	0.0163617
753.511	0.0163177
753.589	0.0163330
753.667	0.0164603
753.745	0.0163609
753.823	0.0163336
753.901	0.0162326
753.979	0.0161704
754.058	0.0162421
754.136	0.0163135
754.214	0.0163210
754.292	0.0163274
754.370	0.0163389
754.448	0.0163766
754.526	0.0164989
754.604	0.0165326
754.683	0.0163541
754.761	0.0164431
754.839	0.0164209
754.917	0.0164844
754.995	0.0166623
755.073	0.0166245
755.151	0.0166176
755.229	0.0165711
755.308	0.0164419
755.386	0.0165216
755.464	0.0164949
755.542	0.0163448
755.620	0.0163528
755.698	0.0163697
755.776	0.0163450
755.854	0.0164922
755.933	0.0163734
756.011	0.0163812
756.089	0.0164321
756.167	0.0162767
756.245	0.0163445
756.323	0.0166461
756.401	0.0165231
756.479	0.0166336
756.558	0.0165150
756.636	0.0166534
756.714	0.0166917
756.792	0.0165771
756.870	0.0164994
756.948	0.0166723
757.026	0.0165659
757.104	0.0163834
757.183	0.0164330
757.261	0.0164165
757.339	0.0164202
757.417	0.0161672
757.495	0.0161344
757.573	0.0161620
757.651	0.0163345
757.729	0.0161527
757.808	0.0161481
757.886	0.0162796
757.964	0.0162302
758.042	0.0161855
758.120	0.0162546
758.198	0.0164153
758.276	0.0163739
758.354	0.0164162
758.433	0.0165954
758.511	0.0166203
758.589	0.0166018
758.667	0.0165891
758.745	0.0167906
758.823	0.0165741
758.901	0.0167086
758.979	0.0165564
759.058	0.0166405
759.136	0.0166469
759.214	0.0166187
759.292	0.0165826
759.370	0.0166275
759.448	0.0163291
759.526	0.0163490
759.604	0.0162920
759.683	0.0161315
759.761	0.0159220
759.839	0.0161483
759.917	0.0161440
759.995	0.0161362
760.073	0.0162742
760.151	0.0162829
760.229	0.0163882
760.308	0.0165631
760.386	0.0164973
760.464	0.0166250
760.542	0.0165827
760.620	0.0165316
760.698	0.0163592
760.776	0.0165778
760.854	0.0165346
760.933	0.0165237
761.011	0.0165007
761.089	0.0165213
761.167	0.0164388
761.245	0.0165351
761.323	0.0165786
761.401	0.0164054
761.479	0.0162578
761.558	0.0163339
761.636	0.0162737
761.714	0.0161415
761.792	0.0161091
761.870	0.0160246
761.948	0.0160181
762.026	0.0160720
762.104	0.0161951
762.183	0.0163557
762.261	0.0162797
762.339	0.0164916
762.417	0.0164480
762.495	0.0164110
762.573	0.0165479
762.651	0.0165028
762.729	0.0164726
762.808	0.0164149
762.886	0.0162529
762.964	0.0164039
763.042	0.0163760
763.120	0.0162884
763.198	0.0163432
763.276	0.0163731
763.354	0.0163808
763.433	0.0164292
763.511	0.0162588
763.589	0.0162728
763.667	0.0161781
763.745	0.0162564
763.823	0.0162357
763.901	0.0162279
763.979	0.0163559
764.058	0.0165874
764.136	0.0166033
764.214	0.0166727
764.292	0.0168290
764.370	0.0169526
764.448	0.0168946
764.526	0.0171037
764.604	0.0169001
764.683	0.0167802
764.761	0.0167322
764.839	0.0165923
764.917	0.0165791
764.995	0.0165686
765.073	0.0164543
765.151	0.0161990
765.229	0.0162566
765.308	0.0160974
765.386	0.0161588
765.464	0.0159299
765.542	0.0158415
765.620	0.0158989
765.698	0.0159122
765.776	0.0158398
765.854	0.0159367
765.933	0.0161076
766.011	0.0162089
766.089	0.0161053
766.167	0.0163574
766.245	0.0164648
766.323	0.0162976
766.401	0.0163512
766.479	0.0164715
766.558	0.0165461
766.636	0.0164286
766.714	0.0164053
766.792	0.0162559
766.870	0.0163228
766.948	0.0163837
767.026	0.0163107
767.104	0.0162488
767.183	0.0163125
767.261	0.0164404
767.339	0.0166599
767.417	0.0164572
767.495	0.0167302
767.573	0.0168113
767.651	0.0168945
767.729	0.0172404
767.808	0.0171822
767.886	0.0172169
767.964	0.0172356
768.042	0.0170177
768.120	0.0168420
768.198	0.0167351
768.276	0.0164664
768.354	0.0164941
768.433	0.0161166
768.511	0.0160003
768.589	0.0160536
768.667	0.0157752
768.745	0.0158240
768.823	0.0157646
768.901	0.0157632
768.979	0.0158369
769.058	0.0161046
769.136	0.0161538
769.214	0.0161074
769.292	0.0163694
769.370	0.0165353
769.448	0.0165903
769.526	0.0167889
769.604	0.0168896
769.683	0.0169517
769.761	0.0168227
769.839	0.0166509
769.917	0.0166588
769.995	0.0165228
770.073	0.0164411
770.151	0.0163203
770.229	0.0161377
770.308	0.0159422
770.386	0.0160489
770.464	0.0160098
770.542	0.0160210
770.620	0.0160557
770.698	0.0159986
770.776	0.0161855
770.854	0.0163570
770.933	0.0163929
771.011	0.0163776
771.089	0.0165060
771.167	0.0165907
771.245	0.0167860
771.323	0.0167110
771.401	0.0166297
771.479	0.0165795
771.558	0.0166198
771.636	0.0166091
771.714	0.0165347
771.792	0.0164339
771.870	0.0163319
771.948	0.0163165
772.026	0.0163102
772.104	0.0163513
772.183	0.0162895
772.261	0.0164910
772.339	0.0164570
772.417	0.0167542
772.495	0.0168562
772.573	0.0170642
772.651	0.0172663
772.729	0.0173215
772.808	0.0173954
772.886	0.0173528
772.964	0.0175874
773.042	0.0174103
773.120	0.0174372
773.198	0.0171597
773.276	0.0170631
773.354	0.0168478
773.433	0.0166290
773.511	0.0164436
773.589	0.0161871
773.667	0.0159792
773.745	0.0157389
773.823	0.0156435
773.901	0.0154996
773.979	0.0152625
774.058	0.0150796
774.136	0.0150607
774.214	0.0148968
774.292	0.0149066
774.370	0.0148401
774.448	0.0150278
774.526	0.0149438
774.604	0.0148396
774.683	0.0149698
774.761	0.0150179
774.839	0.0152663
774.917	0.0154368
774.995	0.0154967
775.073	0.0157576
775.151	0.0160861
775.229	0.0163309
775.308	0.0165674
775.386	0.0168713
775.464	0.0171406
775.542	0.0174317
775.620	0.0177380
775.698	0.0181324
775.776	0.0183685
775.854	0.0185301
775.933	0.0185876
776.011	0.0188795
776.089	0.0187895
776.167	0.0186884
776.245	0.0186459
776.323	0.0184747
776.401	0.0182771
776.479	0.0178564
776.558	0.0176207
776.636	0.0173975
776.714	0.0168617
776.792	0.0166462
776.870	0.0163708
776.948	0.0160285
777.026	0.0160388
777.104	0.0158237
777.183	0.0155966
777.261	0.0154343
777.339	0.0152407
777.417	0.0153451
777.495	0.0150671
777.573	0.0151012
777.651	0.0150352
777.729	0.0150648
777.808	0.0150433
777.886	0.0152221
777.964	0.0149923
778.042	0.0149706
778.120	0.0152510
778.198	0.0152496
778.276	0.0154239
778.354	0.0154380
778.433	0.0155762
778.511	0.0159566
778.589	0.0158338
778.667	0.0160688
778.745	0.0160395
778.823	0.0163625
778.901	0.0163298
778.979	0.0162386
779.058	0.0162531
779.136	0.0161451
779.214	0.0163836
779.292	0.0162438
779.370	0.0161610
779.448	0.0161370
779.526	0.0161744
779.604	0.0162152
779.683	0.0164280
779.761	0.0164870
779.839	0.0165957
779.917	0.0167418
779.995	0.0168827
780.073	0.0171524
780.151	0.0175034
780.229	0.0175713
780.308	0.0177515
780.386	0.0180694
780.464	0.0180818
780.542	0.0182252
780.620	0.0182207
780.698	0.0182472
780.776	0.0181028
780.854	0.0179684
780.933	0.0179034
781.011	0.0177959
781.089	0.0176202
781.167	0.0175138
781.245	0.0173716
781.323	0.0172379
781.401	0.0170358
781.479	0.0167910
781.558	0.0163588
781.636	0.0163906
781.714	0.0162819
781.792	0.0159756
781.870	0.0158640
781.948	0.0156834
782.026	0.0155936
782.104	0.0153492
782.183	0.0152937
782.261	0.0151720
782.339	0.0149613
782.417	0.0150428
782.495	0.0149961
782.573	0.0149540
782.651	0.0150974
782.729	0.0149899
782.808	0.0151134
782.886	0.0151894
782.964	0.0153319
783.042	0.0152468
783.120	0.0154916
783.198	0.0156239
783.276	0.0158151
783.354	0.0159024
783.433	0.0161116
783.511	0.0162077
783.589	0.0164275
783.667	0.0164670
783.745	0.0164616
783.823	0.0163682
783.901	0.0164646
783.979	0.0165611
784.058	0.0163599
784.136	0.0163087
784.214	0.0163399
784.292	0.0162489
784.370	0.0163275
784.448	0.0161894
784.526	0.0162530
784.604	0.0161372
784.683	0.0161744
784.761	0.0162981
784.839	0.0163974
784.917	0.0166238
784.995	0.0167480
785.073	0.0170939
785.151	0.0175142
785.229	0.0176337
785.308	0.0179859
785.386	0.0182285
785.464	0.0185326
785.542	0.0189779
785.620	0.0190722
785.698	0.0190911
785.776	0.0192103
785.854	0.0191998
785.933	0.0190485
786.011	0.0187625
786.089	0.0186063
786.167	0.0183930
786.245	0.0179630
786.323	0.0175809
786.401	0.0171992
786.479	0.0166434
786.558	0.0162340
786.636	0.0157464
786.714	0.0152549
786.792	0.0149591
786.870	0.0145444
786.948	0.0142477
787.026	0.0138493
787.104	0.0136754
787.183	0.0137395
787.261	0.0135114
787.339	0.0136205
787.417	0.0138746
787.495	0.0138123
787.573	0.0140334
787.651	0.0141918
787.729	0.0144884
787.808	0.0148421
787.886	0.0150728
787.964	0.0155456
788.042	0.0159398
788.120	0.0162087
788.198	0.0165191
788.276	0.0166063
788.354	0.0169082
788.433	0.0170058
788.511	0.0171795
788.589	0.0173982
788.667	0.0173833
788.745	0.0171902
788.823	0.0173063
788.901	0.0171809
788.979	0.0171449
789.058	0.0171838
789.136	0.0171265
789.214	0.0170245
789.292	0.0168877
789.370	0.0167532
789.448	0.0168193
789.526	0.0166694
789.604	0.0166183
789.683	0.0165019
789.761	0.0162630
789.839	0.0163039
789.917	0.0162751
789.995	0.0162739
790.073	0.0162333
790.151	0.0164851
790.229	0.0163905
790.308	0.0164492
790.386	0.0165906
790.464	0.0168214
790.542	0.0169901
790.620	0.0171272
790.698	0.0176051
790.776	0.0179214
790.854	0.0181941
790.933	0.0184238
791.011	0.0185597
791.089	0.0187180
791.167	0.0188292
791.245	0.0187707
791.323	0.0186085
791.401	0.0182503
791.479	0.0178854
791.558	0.0175360
791.636	0.0170816
791.714	0.0165193
791.792	0.0159143
791.870	0.0153982
791.948	0.0148737
792.026	0.0143896
792.104	0.0141412
792.183	0.0138924
792.261	0.0134512
792.339	0.0136462
792.417	0.0136485
792.495	0.0136427
792.573	0.0139880
792.651	0.0142362
792.729	0.0145416
792.808	0.0149355
792.886	0.0151892
792.964	0.0155978
793.042	0.0158964
793.120	0.0160951
793.198	0.0163493
793.276	0.0166910
793.354	0.0167714
793.433	0.0165836
793.511	0.0167185
793.589	0.0164623
793.667	0.0164562
793.745	0.0164282
793.823	0.0161898
793.901	0.0160833
793.979	0.0158823
794.058	0.0158045
794.136	0.0159355
794.214	0.0161061
794.292	0.0160803
794.370	0.0162075
794.448	0.0165082
794.526	0.0169799
794.604	0.0171324
794.683	0.0170478
794.761	0.0172460
794.839	0.0174529
794.917	0.0174663
794.995	0.0175266
795.073	0.0175602
795.151	0.0174393
795.229	0.0173845
795.308	0.0173283
795.386	0.0170773
795.464	0.0169234
795.542	0.0168324
795.620	0.0167941
795.698	0.0165610
795.776	0.0164947
795.854	0.0165950
795.933	0.0166145
796.011	0.0167197
796.089	0.0169920
796.167	0.0171152
796.245	0.0172684
796.323	0.0175694
796.401	0.0177471
796.479	0.0178562
796.558	0.0180333
796.636	0.0181387
796.714	0.0180303
796.792	0.0177919
796.870	0.0174477
796.948	0.0171976
797.026	0.0166468
797.104	0.0163629
797.183	0.0158915
797.261	0.0154834
797.339	0.0151857
797.417	0.0147035
797.495	0.0144008
797.573	0.0142583
797.651	0.0142814
797.729	0.0140543
797.808	0.0142097
797.886	0.0142652
797.964	0.0144775
798.042	0.0145943
798.120	0.0146851
798.198	0.0150096
798.276	0.0153192
798.354	0.0157436
798.433	0.0159956
798.511	0.0161426
798.589	0.0163484
798.667	0.0166463
798.745	0.0166991
798.823	0.0166372
798.901	0.0166296
798.979	0.0167114
799.058	0.0165873
799.136	0.0165744
799.214	0.0164542
799.292	0.0164180
799.370	0.0163548
799.448	0.0163218
799.526	0.0162758
799.604	0.0163400
799.683	0.0162073
799.761	0.0163073
799.839	0.0164103
799.917	0.0163262
799.995	0.0164107
800.073	0.0168079
800.151	0.0167592
800.229	0.0168257
800.308	0.0169965
800.386	0.0169580
800.464	0.0171289
800.542	0.0170056
800.620	0.0170313
800.698	0.0168987
800.776	0.0166973
800.854	0.0165760
800.933	0.0162455
801.011	0.0162340
801.089	0.0160050
801.167	0.0159074
801.245	0.0157770
801.323	0.0157152
801.401	0.0156360
801.479	0.0158978
801.558	0.0160550
801.636	0.0161742
801.714	0.0164828
801.792	0.0168427
801.870	0.0172868
801.948	0.0177448
802.026	0.0181485
802.104	0.0184549
802.183	0.0185934
802.261	0.0190512
802.339	0.0191045
802.417	0.0189827
802.495	0.0190070
802.573	0.0189312
802.651	0.0186356
802.729	0.0182275
802.808	0.0176950
802.886	0.0172760
802.964	0.0166852
803.042	0.0161380
803.120	0.0156608
803.198	0.0151590
803.276	0.0147705
803.354	0.0142734
803.433	0.0139967
803.511	0.0137180
803.589	0.0136163
803.667	0.0136065
803.745	0.0135704
803.823	0.0135493
803.901	0.0137154
803.979	0.0138445
804.058	0.0141317
804.136	0.0144675
804.214	0.0146131
804.292	0.0150745
804.370	0.0152562
804.448	0.0156371
804.526	0.0157643
804.604	0.0158858
804.683	0.0162768
804.761	0.0163675
804.839	0.0164652
804.917	0.0167628
804.995	0.0167032
805.073	0.0168448
805.151	0.0168840
805.229	0.0169695
805.308	0.0170177
805.386	0.0170878
805.464	0.0170554
805.542	0.0171790
805.620	0.0172718
805.698	0.0172279
805.776	0.0173368
805.854	0.0173740
805.933	0.0174049
806.011	0.0175792
806.089	0.0175638
806.167	0.0175818
806.245	0.0176299
806.323	0.0175262
806.401	0.0175173
806.479	0.0173779
806.558	0.0170699
806.636	0.0171145
806.714	0.0168544
806.792	0.0167201
806.870	0.0165947
806.948	0.0164413
807.026	0.0162627
807.104	0.0163614
807.183	0.0162196
807.261	0.0164135
807.339	0.0164844
807.417	0.0165674
807.495	0.0168301
807.573	0.0171976
807.651	0.0174774
807.729	0.0176414
807.808	0.0179413
807.886	0.0180661
807.964	0.0181203
808.042	0.0181365
808.120	0.0183137
808.198	0.0180122
808.276	0.0178040
808.354	0.0175081
808.433	0.0174755
808.511	0.0168272
808.589	0.0164056
808.667	0.0160976
808.745	0.0157564
808.823	0.0151801
808.901	0.0148980
808.979	0.0142898
809.058	0.0141039
809.136	0.0139358
809.214	0.0137645
809.292	0.0136575
809.370	0.0134719
809.448	0.0137311
809.526	0.0139182
809.604	0.0140327
809.683	0.0144276
809.761	0.0147554
809.839	0.0152177
809.917	0.0153976
809.995	0.0156601
810.073	0.0158537
810.151	0.0161590
810.229	0.0165118
810.308	0.0165994
810.386	0.0167371
810.464	0.0169124
810.542	0.0169000
810.620	0.0170724
810.698	0.0171275
810.776	0.0172361
810.854	0.0170795
810.933	0.0171657
811.011	0.0171561
811.089	0.0171653
811.167	0.0173730
811.245	0.0172677
811.323	0.0171690
811.401	0.0172975
811.479	0.0172868
811.558	0.0172720
811.636	0.0171557
811.714	0.0172008
811.792	0.0173359
811.870	0.0172060
811.948	0.0172680
812.026	0.0172639
812.104	0.0173080
812.183	0.0171785
812.261	0.0170724
812.339	0.0168871
812.417	0.0166685
812.495	0.0167824
812.573	0.0166688
812.651	0.0164543
812.729	0.0163956
812.808	0.0161035
812.886	0.0160365
812.964	0.0160844
813.042	0.0160297
813.120	0.0160284
813.198	0.0160165
813.276	0.0162869
813.354	0.0164799
813.433	0.0167682
813.511	0.0170358
813.589	0.0171535
813.667	0.0173810
813.745	0.0176133
813.823	0.0176102
813.901	0.0178468
813.979	0.0178049
814.058	0.0177840
814.136	0.0176738
814.214	0.0174471
814.292	0.0171210
814.370	0.0166846
814.448	0.0164940
814.526	0.0161689
814.604	0.0157529
814.683	0.0152982
814.761	0.0149431
814.839	0.0146406
814.917	0.0143391
814.995	0.0139664
815.073	0.0137527
815.151	0.0139746
815.229	0.0139330
815.308	0.0138308
815.386	0.0140003
815.464	0.0142680
815.542	0.0141531
815.620	0.0146892
815.698	0.0148926
815.776	0.0152327
815.854	0.0155163
815.933	0.0158025
816.011	0.0159389
816.089	0.0162405
816.167	0.0164642
816.245	0.0166921
816.323	0.0169258
816.401	0.0169544
816.479	0.0171736
816.558	0.0172473
816.636	0.0174222
816.714	0.0174585
816.792	0.0173849
816.870	0.0174968
816.948	0.0173135
817.026	0.0172547
817.104	0.0174089
817.183	0.0174094
817.261	0.0171916
817.339	0.0170803
817.417	0.0171098
817.495	0.0171696
817.573	0.0171816
817.651	0.0170882
817.729	0.0171822
817.808	0.0171999
817.886	0.0171848
817.964	0.0171008
818.042	0.0170844
818.120	0.0171382
818.198	0.0169450
818.276	0.0170097
818.354	0.0167505
818.433	0.0166926
818.511	0.0166055
818.589	0.0165003
818.667	0.0165513
818.745	0.0164577
818.823	0.0164487
818.901	0.0163532
818.979	0.0163721
819.058	0.0164493
819.136	0.0164085
819.214	0.0164934
819.292	0.0165024
819.370	0.0167365
819.448	0.0167714
819.526	0.0168507
819.604	0.0169180
819.683	0.0169824
819.761	0.0169083
819.839	0.0168858
819.917	0.0168610
819.995	0.0166179
820.073	0.0165108
820.151	0.0162828
820.229	0.0161117
820.308	0.0159580
820.386	0.0156108
820.464	0.0154424
820.542	0.0152529
820.620	0.0149287
820.698	0.0148256
820.776	0.0147115
820.854	0.0146176
820.933	0.0146831
821.011	0.0146608
821.089	0.0147264
821.167	0.0148080
821.245	0.0149199
821.323	0.0150361
821.401	0.0152155
821.479	0.0154605
821.558	0.0156892
821.636	0.0158582
821.714	0.0160146
821.792	0.0162803
821.870	0.0164022
821.948	0.0166161
822.026	0.0167037
822.104	0.0168571
822.183	0.0169696
822.261	0.0169410
822.339	0.0168863
822.417	0.0170139
822.495	0.0170120
822.573	0.0168967
822.651	0.0169363
822.729	0.0169607
822.808	0.0168623
822.886	0.0168622
822.964	0.0167278
823.042	0.0167830
823.120	0.0168852
823.198	0.0167832
823.276	0.0167265
823.354	0.0167252
823.433	0.0168248
823.511	0.0168018
823.589	0.0166630
823.667	0.0168047
823.745	0.0168214
823.823	0.0169154
823.901	0.0168948
823.979	0.0168858
824.058	0.0168134
824.136	0.0168173
824.214	0.0166565
824.292	0.0167317
824.370	0.0166167
824.448	0.0166219
824.526	0.0164706
824.604	0.0163793
824.683	0.0163813
824.761	0.0163518
824.839	0.0163472
824.917	0.0163882
824.995	0.0163354
825.073	0.0163190
825.151	0.0164760
825.229	0.0168252
825.308	0.0168602
825.386	0.0169971
825.464	0.0169432
825.542	0.0170547
825.620	0.0172020
825.698	0.0172526
825.776	0.0172420
825.854	0.0171875
825.933	0.0169616
826.011	0.0168635
826.089	0.0166938
826.167	0.0165106
826.245	0.0161730
826.323	0.0161914
826.401	0.0157378
826.479	0.0155246
826.558	0.0154114
826.636	0.0152524
826.714	0.0150453
826.792	0.0150055
826.870	0.0149153
826.948	0.0147187
827.026	0.0148150
827.104	0.0149766
827.183	0.0148668
827.261	0.0150378
827.339	0.0151698
827.417	0.0153207
827.495	0.0153225
827.573	0.0155531
827.651	0.0157859
827.729	0.0159427
827.808	0.0161167
827.886	0.0164651
827.964	0.0163687
828.042	0.0165482
828.120	0.0165925
828.198	0.0166628
828.276	0.0167165
828.354	0.0167216
828.433	0.0166816
828.511	0.0165649
828.589	0.0167282
828.667	0.0166003
828.745	0.0165468
828.823	0.0167896
828.901	0.0167548
828.979	0.0166511
829.058	0.0168840
829.136	0.0169865
829.214	0.0168239
829.292	0.0169707
829.370	0.0172038
829.448	0.0170096
829.526	0.0173599
829.604	0.0174035
829.683	0.0173042
829.761	0.0174538
829.839	0.0174532
829.917	0.0173129
829.995	0.0172370
830.073	0.0170844
830.151	0.0169688
830.229	0.0168074
830.308	0.0166458
830.386	0.0163890
830.464	0.0164260
830.542	0.0163530
830.620	0.0162610
830.698	0.0162006
830.776	0.0161596
830.854	0.0163493
830.933	0.0163912
831.011	0.0164885
831.089	0.0167677
831.167	0.0167979
831.245	0.0168175
831.323	0.0169730
831.401	0.0169713
831.479	0.0172570
831.558	0.0171650
831.636	0.0171175
831.714	0.0172332
831.792	0.0171749
831.870	0.0169585
831.948	0.0167764
832.026	0.0165997
832.104	0.0163094
832.183	0.0159564
832.261	0.0156867
832.339	0.0156870
832.417	0.0153802
832.495	0.0152025
832.573	0.0151055
832.651	0.0149970
832.729	0.0150140
832.808	0.0149537
832.886	0.0150945
832.964	0.0151678
833.042	0.0153693
833.120	0.0156126
833.198	0.0156438
833.276	0.0159956
833.354	0.0161294
833.433	0.0164168
833.511	0.0162920
833.589	0.0164605
833.667	0.0165409
833.745	0.0166512
833.823	0.0166371
833.901	0.0166331
833.979	0.0165685
834.058	0.0163715
834.136	0.0164023
834.214	0.0162321
834.292	0.0161816
834.370	0.0161252
834.448	0.0161166
834.526	0.0161125
834.604	0.0162375
834.683	0.0164060
834.761	0.0163429
834.839	0.0163007
834.917	0.0165979
834.995	0.0168343
835.073	0.0169955
835.151	0.0171525
835.229	0.0172417
835.308	0.0173312
835.386	0.0174619
835.464	0.0174438
835.542	0.0176072
835.620	0.0176936
835.698	0.0176992
835.776	0.0173061
835.854	0.0174128
835.933	0.0170637
836.011	0.0168629
836.089	0.0168208
836.167	0.0165948
836.245	0.0163823
836.323	0.0161517
836.401	0.0161688
836.479	0.0161427
836.558	0.0161234
836.636	0.0163113
836.714	0.0160846
836.792	0.0163383
836.870	0.0164602
836.948	0.0164215
837.026	0.0165799
837.104	0.0166686
837.183	0.0167987
837.261	0.0169794
837.339	0.0170712
837.417	0.0172506
837.495	0.0172941
837.573	0.0172297
837.651	0.0171686
837.729	0.0170187
837.808	0.0169357
837.886	0.0167628
837.964	0.0165714
838.042	0.0164506
838.120	0.0162279
838.198	0.0160516
838.276	0.0157981
838.354	0.0155560
838.433	0.0153895
838.511	0.0153178
838.589	0.0152095
838.667	0.0150430
838.745	0.0151582
838.823	0.0150618
838.901	0.0152087
838.979	0.0151865
839.058	0.0154493
839.136	0.0155368
839.214	0.0156533
839.292	0.0157025
839.370	0.0157624
839.448	0.0159301
839.526	0.0160971
839.604	0.0161249
839.683	0.0161597
839.761	0.0162786
839.839	0.0162125
839.917	0.0161775
839.995	0.0162404
840.073	0.0163691
840.151	0.0164392
840.229	0.0164105
840.308	0.0164281
840.386	0.0164747
840.464	0.0164774
840.542	0.0166579
840.620	0.0165354
840.698	0.0167122
840.776	0.0167773
840.854	0.0168420
840.933	0.0167898
841.011	0.0168133
841.089	0.0170300
841.167	0.0170445
841.245	0.0171090
841.323	0.0171302
841.401	0.0171093
841.479	0.0171592
841.558	0.0172049
841.636	0.0171247
841.714	0.0170425
841.792	0.0168544
841.870	0.0168300
841.948	0.0166507
842.026	0.0166025
842.104	0.0166167
842.183	0.0165657
842.261	0.0162874
842.339	0.0162862
842.417	0.0162817
842.495	0.0163918
842.573	0.0164252
842.651	0.0164050
842.729	0.0163597
842.808	0.0164291
842.886	0.0166022
842.964	0.0166129
843.042	0.0166956
843.120	0.0168092
843.198	0.0167635
843.276	0.0168835
843.354	0.0169462
843.433	0.0169520
843.511	0.0169202
843.589	0.0169012
843.667	0.0169376
843.745	0.0168706
843.823	0.0168020
843.901	0.0165128
843.979	0.0163683
844.058	0.0163615
844.136	0.0161495
844.214	0.0159798
844.292	0.0159496
844.370	0.0156921
844.448	0.0157479
844.526	0.0155189
844.604	0.0154787
844.683	0.0154230
844.761	0.0153778
844.839	0.0154213
844.917	0.0154934
844.995	0.0155258
845.073	0.0154675
845.151	0.0156847
845.229	0.0157272
845.308	0.0156841
845.386	0.0159641
845.464	0.0159491
845.542	0.0159029
845.620	0.0160069
845.698	0.0161661
845.776	0.0163600
845.854	0.0163662
845.933	0.0163113
846.011	0.0164061
846.089	0.0163708
846.167	0.0163251
846.245	0.0164719
846.323	0.0164568
846.401	0.0164249
846.479	0.0163966
846.558	0.0164253
846.636	0.0164815
846.714	0.0165382
846.792	0.0166370
846.870	0.0166642
846.948	0.0166869
847.026	0.0166827
847.104	0.0167805
847.183	0.0169365
847.261	0.0169238
847.339	0.0169520
847.417	0.0170027
847.495	0.0168983
847.573	0.0168672
847.651	0.0168545
847.729	0.0169749
847.808	0.0167867
847.886	0.0166876
847.964	0.0166835
848.042	0.0166419
848.120	0.0165364
848.198	0.0164544
848.276	0.0165390
848.354	0.0164346
848.433	0.0164100
848.511	0.0164339
848.589	0.0164616
848.667	0.0165356
848.745	0.0165108
848.823	0.0167289
848.901	0.0167065
848.979	0.0168184
849.058	0.0168229
849.136	0.0169463
849.214	0.0169996
849.292	0.0170988
849.370	0.0170412
849.448	0.0170717
849.526	0.0171165
849.604	0.0170381
849.683	0.0171496
849.761	0.0168636
849.839	0.0168893
849.917	0.0167581
849.995	0.0165924
850.073	0.0164820
850.151	0.0161820
850.229	0.0162188
850.308	0.0160878
850.386	0.0158583
850.464	0.0158710
850.542	0.0156752
850.620	0.0157207
850.698	0.0157279
850.776	0.0156304
850.854	0.0156662
850.933	0.0156554
851.011	0.0156118
851.089	0.0157795
851.167	0.0156293
851.245	0.0156945
851.323	0.0157639
851.401	0.0158308
851.479	0.0159098
851.558	0.0159570
851.636	0.0161546
851.714	0.0162155
851.792	0.0162106
851.870	0.0162943
851.948	0.0162094
852.026	0.0163049
852.104	0.0163674
852.183	0.0164658
852.261	0.0163956
852.339	0.0163223
852.417	0.0164571
852.495	0.0164388
852.573	0.0164825
852.651	0.0165842
852.729	0.0165481
852.808	0.0164037
852.886	0.0167172
852.964	0.0165103
853.042	0.0166606
853.120	0.0165546
853.198	0.0166212
853.276	0.0168853
853.354	0.0166888
853.433	0.0167590
853.511	0.0167107
853.589	0.0167486
853.667	0.0165738
853.745	0.0166965
853.823	0.0166527
853.901	0.0166375
853.979	0.0163492
854.058	0.0164236
854.136	0.0164896
854.214	0.0165280
854.292	0.0165623
854.370	0.0166492
854.448	0.0165932
854.526	0.0166406
854.604	0.0167484
854.683	0.0168649
854.761	0.0168556
854.839	0.0169396
854.917	0.0169323
854.995	0.0169766
855.073	0.0170135
855.151	0.0170778
855.229	0.0169802
855.308	0.0169555
855.386	0.0169976
855.464	0.0169373
855.542	0.0170145
855.620	0.0170859
855.698	0.0169102
855.776	0.0168224
855.854	0.0166869
855.933	0.0165916
856.011	0.0164351
856.089	0.0164384
856.167	0.0164184
856.245	0.0161800
856.323	0.0160933
856.401	0.0159842
856.479	0.0160849
856.558	0.0160764
856.636	0.0159672
856.714	0.0160193
856.792	0.0158738
856.870	0.0159546
856.948	0.0157526
857.026	0.0157722
857.104	0.0157893
857.183	0.0157421
857.261	0.0157703
857.339	0.0157282
857.417	0.0156181
857.495	0.0155668
857.573	0.0156091
857.651	0.0156156
857.729	0.0157842
857.808	0.0157483
857.886	0.0158809
857.964	0.0158970
858.042	0.0158683
858.120	0.0160612
858.198	0.0161216
858.276	0.0161047
858.354	0.0163665
858.433	0.0164017
858.511	0.0164002
858.589	0.0167297
858.667	0.0166551
858.745	0.0168389
858.823	0.0169117
858.901	0.0169588
858.979	0.0169176
859.058	0.0169280
859.136	0.0169301
859.214	0.0169479
859.292	0.0167900
859.370	0.0167165
859.448	0.0166779
859.526	0.0165970
859.604	0.0166047
859.683	0.0165485
859.761	0.0165134
859.839	0.0163554
859.917	0.0163937
859.995	0.0164890
860.073	0.0163817
860.151	0.0164113
860.229	0.0164747
860.308	0.0163481
860.386	0.0166061
860.464	0.0165417
860.542	0.0166681
860.620	0.0166596
860.698	0.0166673
860.776	0.0165641
860.854	0.0167894
860.933	0.0167009
861.011	0.0167050
861.089	0.0167318
861.167	0.0167247
861.245	0.0167473
861.323	0.0166840
861.401	0.0167416
861.479	0.0167977
861.558	0.0167885
861.636	0.0168613
861.714	0.0168474
861.792	0.0167257
861.870	0.0166929
861.948	0.0166213
862.026	0.0166921
862.104	0.0166650
862.183	0.0164478
862.261	0.0162820
862.339	0.0162124
862.417	0.0163035
862.495	0.0163029
862.573	0.0161648
862.651	0.0160087
862.729	0.0159389
862.808	0.0159070
862.886	0.0157890
862.964	0.0157050
863.042	0.0156866
863.120	0.0155472
863.198	0.0156333
863.276	0.0155930
863.354	0.0156490
863.433	0.0157627
863.511	0.0158200
863.589	0.0158706
863.667	0.0159625
863.745	0.0162389
863.823	0.0161421
863.901	0.0161592
863.979	0.0164430
864.058	0.0166311
864.136	0.0166236
864.214	0.0164928
864.292	0.0166245
864.370	0.0166924
864.448	0.0166651
864.526	0.0165762
864.604	0.0168009
864.683	0.0167004
864.761	0.0167939
864.839	0.0166663
864.917	0.0165999
864.995	0.0164738
865.073	0.0164982
865.151	0.0165842
865.229	0.0163989
865.308	0.0163301
865.386	0.0164512
865.464	0.0164872
865.542	0.0163490
865.620	0.0163018
865.698	0.0164574
865.776	0.0163846
865.854	0.0163090
865.933	0.0164585
866.011	0.0164598
866.089	0.0164287
866.167	0.0167060
866.245	0.0166363
866.323	0.0166666
866.401	0.0167999
866.479	0.0168921
866.558	0.0169280
866.636	0.0169859
866.714	0.0168052
866.792	0.0168228
866.870	0.0169600
866.948	0.0168444
867.026	0.0168264
867.104	0.0166558
867.183	0.0167878
867.261	0.0167692
867.339	0.0165633
867.417	0.0166646
867.495	0.0165685
867.573	0.0166599
867.651	0.0165869
867.729	0.0164404
867.808	0.0164152
867.886	0.0163728
867.964	0.0162813
868.042	0.0163023
868.120	0.0161733
868.198	0.0161231
868.276	0.0161646
868.354	0.0163981
868.433	0.0162347
868.511	0.0162511
868.589	0.0163361
868.667	0.0163477
868.745	0.0163711
868.823	0.0162754
868.901	0.0164417
868.979	0.0165646
869.058	0.0165707
869.136	0.0164518
869.214	0.0163661
869.292	0.0165531
869.370	0.0164444
869.448	0.0164004
869.526	0.0164724
869.604	0.0163303
869.683	0.0162527
869.761	0.0163748
869.839	0.0164381
869.917	0.0161659
869.995	0.0161572
870.073	0.0162109
870.151	0.0162724
870.229	0.0161449
870.308	0.0161089
870.386	0.0162067
870.464	0.0161829
870.542	0.0160921
870.620	0.0161948
870.698	0.0160871
870.776	0.0162354
870.854	0.0161687
870.933	0.0160618
871.011	0.0163237
871.089	0.0161483
871.167	0.0161150
871.245	0.0161654
871.323	0.0160966
871.401	0.0162294
871.479	0.0163073
871.558	0.0162527
871.636	0.0163012
871.714	0.0162449
871.792	0.0162638
871.870	0.0161906
871.948	0.0163158
872.026	0.0163976
872.104	0.0166167
872.183	0.0165412
872.261	0.0166676
872.339	0.0165783
872.417	0.0168470
872.495	0.0168535
872.573	0.0169762
872.651	0.0168968
872.729	0.0170605
872.808	0.0169749
872.886	0.0170570
872.964	0.0170950
873.042	0.0171117
873.120	0.0171172
873.198	0.0170113
873.276	0.0170031
873.354	0.0169234
873.433	0.0169202
873.511	0.0168926
873.589	0.0167238
873.667	0.0165642
873.745	0.0165086
873.823	0.0165538
873.901	0.0164390
873.979	0.0163549
874.058	0.0163613
874.136	0.0162348
874.214	0.0162334
874.292	0.0160869
874.370	0.0160841
874.448	0.0159568
874.526	0.0160304
874.604	0.0159948
874.683	0.0160470
874.761	0.0160699
874.839	0.0160569
874.917	0.0160068
874.995	0.0161024
875.073	0.0161311
875.151	0.0160655
875.229	0.0160813
875.308	0.0160580
875.386	0.0161848
875.464	0.0160870
875.542	0.0162456
875.620	0.0161240
875.698	0.0162136
875.776	0.0162731
875.854	0.0162252
875.933	0.0163222
876.011	0.0163036
876.089	0.0162247
876.167	0.0163196
876.245	0.0161794
876.323	0.0163335
876.401	0.0162614
876.479	0.0162026
876.558	0.0162948
876.636	0.0163802
876.714	0.0164285
876.792	0.0163685
876.870	0.0163712
876.948	0.0164817
877.026	0.0165818
877.104	0.0165836
877.183	0.0166612
877.261	0.0165068
877.339	0.0165996
877.417	0.0165136
877.495	0.0166103
877.573	0.0167110
877.651	0.0165924
877.729	0.0166750
877.808	0.0166492
877.886	0.0167328
877.964	0.0167181
878.042	0.0166789
878.120	0.0166698
878.198	0.0166349
878.276	0.0164980
878.354	0.0166497
878.433	0.0167169
878.511	0.0165926
878.589	0.0165924
878.667	0.0166901
878.745	0.0164704
878.823	0.0165376
878.901	0.0165685
878.979	0.0165649
879.058	0.0164492
879.136	0.0164311
879.214	0.0165060
879.292	0.0163114
879.370	0.0164383
879.448	0.0164155
879.526	0.0163495
879.604	0.0163160
879.683	0.0164036
879.761	0.0162629
879.839	0.0162283
879.917	0.0163991
879.995	0.0164536
880.073	0.0162518
880.151	0.0162016
880.229	0.0164186
880.308	0.0160976
880.386	0.0161132
880.464	0.0160896
880.542	0.0161987
880.620	0.0162334
880.698	0.0161709
880.776	0.0160140
880.854	0.0161888
880.933	0.0163519
881.011	0.0163187
881.089	0.0163563
881.167	0.0163387
881.245	0.0163969
881.323	0.0164803
881.401	0.0163899
881.479	0.0163807
881.558	0.0166645
881.636	0.0165823
881.714	0.0166375
881.792	0.0167444
881.870	0.0167616
881.948	0.0166798
882.026	0.0166319
882.104	0.0167859
882.183	0.0166418
882.261	0.0166559
882.339	0.0166297
882.417	0.0166060
882.495	0.0165202
882.573	0.0165045
882.651	0.0164948
882.729	0.0165226
882.808	0.0165108
882.886	0.0164868
882.964	0.0163128
883.042	0.0162416
883.120	0.0162412
883.198	0.0161909
883.276	0.0162296
883.354	0.0162174
883.433	0.0159845
883.511	0.0161021
883.589	0.0161439
883.667	0.0159647
883.745	0.0160538
883.823	0.0159521
883.901	0.0158064
883.979	0.0159411
884.058	0.0159856
884.136	0.0160267
884.214	0.0160508
884.292	0.0162045
884.370	0.0161372
884.448	0.0161468
884.526	0.0162089
884.604	0.0162862
884.683	0.0163792
884.761	0.0162183
884.839	0.0164609
884.917	0.0163873
884.995	0.0164362
885.073	0.0165192
885.151	0.0165294
885.229	0.0166968
885.308	0.0165496
885.386	0.0166367
885.464	0.0167292
885.542	0.0166137
885.620	0.0167455
885.698	0.0168492
885.776	0.0167630
885.854	0.0168072
885.933	0.0168370
886.011	0.0166734
886.089	0.0166332
886.167	0.0166930
886.245	0.0166389
886.323	0.0166253
886.401	0.0164864
886.479	0.0165273
886.558	0.0164836
886.636	0.0164646
886.714	0.0164690
886.792	0.0163669
886.870	0.0164893
886.948	0.0165415
887.026	0.0164644
887.104	0.0163644
887.183	0.0165369
887.261	0.0165544
887.339	0.0165711
887.417	0.0166302
887.495	0.0165321
887.573	0.0165701
887.651	0.0166862
887.729	0.0167030
887.808	0.0168798
887.886	0.0167876
887.964	0.0167050
888.042	0.0166949
888.120	0.0166827
888.198	0.0167924
888.276	0.0168257
888.354	0.0165893
888.433	0.0165437
888.511	0.0164864
888.589	0.0164803
888.667	0.0163475
888.745	0.0161526
888.823	0.0161578
888.901	0.0162072
888.979	0.0161440
889.058	0.0160876
889.136	0.0159913
889.214	0.0158436
889.292	0.0159736
889.370	0.0160408
889.448	0.0160676
889.526	0.0159805
889.604	0.0159792
889.683	0.0161423
889.761	0.0160895
889.839	0.0160797
889.917	0.0160467
889.995	0.0160036
890.073	0.0161182
890.151	0.0162809
890.229	0.0162074
890.308	0.0164027
890.386	0.0164691
890.464	0.0163732
890.542	0.0164974
890.620	0.0164847
890.698	0.0165260
890.776	0.0166498
890.854	0.0164992
890.933	0.0167277
891.011	0.0165077
891.089	0.0166550
891.167	0.0165839
891.245	0.0165269
891.323	0.0165727
891.401	0.0165447
891.479	0.0164809
891.558	0.0165395
891.636	0.0166521
891.714	0.0165347
891.792	0.0164589
891.870	0.0163602
891.948	0.0165228
892.026	0.0165846
892.104	0.0164481
892.183	0.0166629
892.261	0.0166518
892.339	0.0165736
892.417	0.0164986
892.495	0.0166764
892.573	0.0167783
892.651	0.0166938
892.729	0.0165581
892.808	0.0165916
892.886	0.0165658
892.964	0.0166555
893.042	0.0166878
893.120	0.0164119
893.198	0.0164648
893.276	0.0165063
893.354	0.0165511
893.433	0.0164116
893.511	0.0162649
893.589	0.0163521
893.667	0.0162447
893.745	0.0163247
893.823	0.0161511
893.901	0.0160786
893.979	0.0159901
894.058	0.0161701
894.136	0.0161618
894.214	0.0161208
894.292	0.0160382
894.370	0.0160047
894.448	0.0159587
894.526	0.0160432
894.604	0.0161072
894.683	0.0160191
894.761	0.0160415
894.839	0.0161674
894.917	0.0163622
894.995	0.0160745
895.073	0.0161012
895.151	0.0162217
895.229	0.0161143
895.308	0.0161088
895.386	0.0162165
895.464	0.0162339
895.542	0.0161560
895.620	0.0163678
895.698	0.0163140
895.776	0.0162089
895.854	0.0161851
895.933	0.0162356
896.011	0.0163634
896.089	0.0163203
896.167	0.0162802
896.245	0.0164973
896.323	0.0165414
896.401	0.0163969
896.479	0.0165246
896.558	0.0165166
896.636	0.0163066
896.714	0.0165807
896.792	0.0166404
896.870	0.0164431
896.948	0.0164731
897.026	0.0165253
897.104	0.0164857
897.183	0.0165861
897.261	0.0165169
897.339	0.0165253
897.417	0.0165209
897.495	0.0165891
897.573	0.0165799
897.651	0.0165710
897.729	0.0164296
897.808	0.0164980
897.886	0.0166490
897.964	0.0164437
898.042	0.0165395
898.120	0.0163898
898.198	0.0165330
898.276	0.0165256
898.354	0.0165862
898.433	0.0166629
898.511	0.0166733
898.589	0.0165460
898.667	0.0166984
898.745	0.0165874
898.823	0.0166765
898.901	0.0166660
898.979	0.0166397
899.058	0.0165697
899.136	0.0166113
899.214	0.0166493
899.292	0.0166947
899.370	0.0164084
899.448	0.0164952
899.526	0.0165190
899.604	0.0163251
899.683	0.0162943
899.761	0.0163322
899.839	0.0161766
899.917	0.0161664
899.995	0.0159437
900.073	0.0159718
900.151	0.0160041
900.229	0.0158299
900.308	0.0158485
900.386	0.0157456
900.464	0.0157288
900.542	0.0158604
900.620	0.0157960
900.698	0.0157574
900.776	0.0158199
900.854	0.0158002
900.933	0.0159236
901.011	0.0158677
901.089	0.0160387
901.167	0.0160065
901.245	0.0160536
901.323	0.0161153
901.401	0.0163094
901.479	0.0163129
901.558	0.0164167
901.636	0.0165740
901.714	0.0165405
901.792	0.0164809
901.870	0.0165179
901.948	0.0166061
902.026	0.0165559
902.104	0.0166512
902.183	0.0166965
902.261	0.0165167
902.339	0.0164817
902.417	0.0165630
902.495	0.0165254
902.573	0.0166211
902.651	0.0165158
902.729	0.0165150
902.808	0.0166194
902.886	0.0167382
902.964	0.0166509
903.042	0.0166984
903.120	0.0167950
903.198	0.0167539
903.276	0.0167999
903.354	0.0168239
903.433	0.0168564
903.511	0.0169398
903.589	0.0166706
903.667	0.0167954
903.745	0.0169471
903.823	0.0167760
903.901	0.0167970
903.979	0.0168893
904.058	0.0166395
904.136	0.0168117
904.214	0.0167220
904.292	0.0167334
904.370	0.0165430
904.448	0.0165245
904.526	0.0165073
904.604	0.0164845
904.683	0.0165618
904.761	0.0162776
904.839	0.0161998
904.917	0.0163692
904.995	0.0162031
905.073	0.0161665
905.151	0.0161316
905.229	0.0161182
905.308	0.0160611
905.386	0.0160340
905.464	0.0161762
905.542	0.0161829
905.620	0.0160723
905.698	0.0158764
905.776	0.0159815
905.854	0.0159401
905.933	0.0159818
906.011	0.0159336
906.089	0.0159151
906.167	0.0158508
906.245	0.0159758
906.323	0.0159055
906.401	0.0159868
906.479	0.0159521
906.558	0.0160213
906.636	0.0161372
906.714	0.0159641
906.792	0.0160476
906.870	0.0160072
906.948	0.0160739
907.026	0.0160913
907.104	0.0161702
907.183	0.0162569
907.261	0.0162382
907.339	0.0162865
907.417	0.0163547
907.495	0.0164583
907.573	0.0165759
907.651	0.0166040
907.729	0.0166709
907.808	0.0167597
907.886	0.0167546
907.964	0.0167183
908.042	0.0169548
908.120	0.0169312
908.198	0.0169145
908.276	0.0168445
908.354	0.0167761
908.433	0.0166579
908.511	0.0167746
908.589	0.0168606
908.667	0.0168339
908.745	0.0167522
908.823	0.0167811
908.901	0.0167609
908.979	0.0166257
909.058	0.0167018
909.136	0.0167497
909.214	0.0166106
909.292	0.0165642
909.370	0.0165286
909.448	0.0164629
909.526	0.0163436
909.604	0.0164842
909.683	0.0165173
909.761	0.0164013
909.839	0.0164315
909.917	0.0165372
909.995	0.0164593
910.073	0.0165747
910.151	0.0163724
910.229	0.0164610
910.308	0.0165654
910.386	0.0165388
910.464	0.0164880
910.542	0.0164313
910.620	0.0164529
910.698	0.0164619
910.776	0.0164899
910.854	0.0163612
910.933	0.0163392
911.011	0.0163021
911.089	0.0163524
911.167	0.0163126
911.245	0.0162208
911.323	0.0161793
911.401	0.0159800
911.479	0.0161059
911.558	0.0160743
911.636	0.0159811
911.714	0.0160130
911.792	0.0160597
911.870	0.0161319
911.948	0.0159517
912.026	0.0160216
912.104	0.0159408
912.183	0.0161144
912.261	0.0160989
912.339	0.0162818
912.417	0.0161739
912.495	0.0161136
912.573	0.0163460
912.651	0.0163441
912.729	0.0163673
912.808	0.0163797
912.886	0.0164064
912.964	0.0163344
913.042	0.0165993
913.120	0.0164841
913.198	0.0165178
913.276	0.0165238
913.354	0.0165318
913.433	0.0166071
913.511	0.0164986
913.589	0.0164359
913.667	0.0165718
913.745	0.0167300
913.823	0.0166808
913.901	0.0165765
913.979	0.0166419
914.058	0.0165974
914.136	0.0167283
914.214	0.0167067
914.292	0.0166071
914.370	0.0166375
914.448	0.0166035
914.526	0.0166497
914.604	0.0165502
914.683	0.0164462
914.761	0.0164118
914.839	0.0165470
914.917	0.0165489
914.995	0.0164806
915.073	0.0164984
915.151	0.0165510
915.229	0.0163988
915.308	0.0164243
915.386	0.0164860
915.464	0.0163877
915.542	0.0164323
915.620	0.0163775
915.698	0.0165317
915.776	0.0163676
915.854	0.0162680
915.933	0.0162753
916.011	0.0163619
916.089	0.0163143
916.167	0.0164105
916.245	0.0163186
916.323	0.0161624
916.401	0.0161727
916.479	0.0162864
916.558	0.0163896
916.636	0.0162672
916.714	0.0163454
916.792	0.0162605
916.870	0.0163285
916.948	0.0162981
917.026	0.0163187
917.104	0.0162023
917.183	0.0162428
917.261	0.0161483
917.339	0.0161953
917.417	0.0162247
917.495	0.0162114
917.573	0.0160943
917.651	0.0163061
917.729	0.0160801
917.808	0.0162371
917.886	0.0160527
917.964	0.0162064
918.042	0.0162370
918.120	0.0162891
918.198	0.0163174
918.276	0.0163499
918.354	0.0163061
918.433	0.0162748
918.511	0.0163559
918.589	0.0162726
918.667	0.0164721
918.745	0.0164446
918.823	0.0165096
918.901	0.0165018
918.979	0.0164373
919.058	0.0164526
919.136	0.0166492
919.214	0.0164940
919.292	0.0165613
919.370	0.0163687
919.448	0.0165269
919.526	0.0163557
919.604	0.0164993
919.683	0.0163688
919.761	0.0164563
919.839	0.0163144
919.917	0.0163786
