06/10/2022	16:24:42	Ver.	4.1	UNKNOWN
Optical Delay	599.988409	Delta X		0.078125	Sweeps	1	Scan Rate	0/0
Coordinates	Axis 1	NaN	Axis 2	NaN	Axis 3	NaN	Axis 4	NaN	Axis 5	NaN	Axis 6	0.000000
TX Power	0.000000	RX Power	0.000000

599.988	0.0169023
600.067	0.0169324
600.145	0.0168988
600.223	0.0168405
600.301	0.0169762
600.379	0.0168399
600.457	0.0168904
600.535	0.0170821
600.613	0.0168884
600.692	0.0168941
600.770	0.0169879
600.848	0.0168086
600.926	0.0168599
601.004	0.0169651
601.082	0.0168325
601.160	0.0167689
601.238	0.0168693
601.317	0.0168124
601.395	0.0169259
601.473	0.0168462
601.551	0.0168317
601.629	0.0168523
601.707	0.0168675
601.785	0.0168764
601.863	0.0169214
601.942	0.0168896
602.020	0.0168301
602.098	0.0168578
602.176	0.0170000
602.254	0.0168812
602.332	0.0169435
602.410	0.0168932
602.488	0.0169911
602.567	0.0168765
602.645	0.0167815
602.723	0.0168391
602.801	0.0169336
602.879	0.0169094
602.957	0.0168358
603.035	0.0168109
603.113	0.0169179
603.192	0.0170853
603.270	0.0169643
603.348	0.0167718
603.426	0.0168327
603.504	0.0167961
603.582	0.0167322
603.660	0.0168238
603.738	0.0169659
603.817	0.0169811
603.895	0.0169894
603.973	0.0168777
604.051	0.0168789
604.129	0.0169825
604.207	0.0169125
604.285	0.0166716
604.363	0.0169832
604.442	0.0169389
604.520	0.0167937
604.598	0.0168570
604.676	0.0168736
604.754	0.0170266
604.832	0.0169899
604.910	0.0169376
604.988	0.0169604
605.067	0.0169134
605.145	0.0168648
605.223	0.0168856
605.301	0.0168815
605.379	0.0168186
605.457	0.0169733
605.535	0.0169861
605.613	0.0168587
605.692	0.0168152
605.770	0.0169724
605.848	0.0170136
605.926	0.0168307
606.004	0.0168154
606.082	0.0168658
606.160	0.0169218
606.238	0.0167632
606.317	0.0167605
606.395	0.0169254
606.473	0.0167861
606.551	0.0169105
606.629	0.0170102
606.707	0.0168398
606.785	0.0168606
606.863	0.0169611
606.942	0.0169354
607.020	0.0169387
607.098	0.0168295
607.176	0.0166985
607.254	0.0168433
607.332	0.0167256
607.410	0.0168353
607.488	0.0169357
607.567	0.0169495
607.645	0.0169350
607.723	0.0168045
607.801	0.0168810
607.879	0.0169940
607.957	0.0168266
608.035	0.0167981
608.113	0.0168127
608.192	0.0168060
608.270	0.0170110
608.348	0.0167461
608.426	0.0169068
608.504	0.0169083
608.582	0.0168266
608.660	0.0168545
608.738	0.0169353
608.817	0.0168839
608.895	0.0169159
608.973	0.0168652
609.051	0.0168004
609.129	0.0168390
609.207	0.0168521
609.285	0.0167372
609.363	0.0169292
609.442	0.0168224
609.520	0.0167559
609.598	0.0167384
609.676	0.0169236
609.754	0.0169568
609.832	0.0169293
609.910	0.0167902
609.988	0.0168505
610.067	0.0168112
610.145	0.0169711
610.223	0.0168830
610.301	0.0168856
610.379	0.0168068
610.457	0.0168846
610.535	0.0168315
610.613	0.0170065
610.692	0.0168631
610.770	0.0168074
610.848	0.0169115
610.926	0.0169701
611.004	0.0169086
611.082	0.0168421
611.160	0.0167719
611.238	0.0169428
611.317	0.0169134
611.395	0.0170534
611.473	0.0168798
611.551	0.0169696
611.629	0.0169704
611.707	0.0169072
611.785	0.0168935
611.863	0.0168162
611.942	0.0169505
612.020	0.0168263
612.098	0.0168559
612.176	0.0169036
612.254	0.0167698
612.332	0.0168753
612.410	0.0169629
612.488	0.0169156
612.567	0.0168333
612.645	0.0167755
612.723	0.0168160
612.801	0.0167373
612.879	0.0169679
612.957	0.0169813
613.035	0.0169305
613.113	0.0168797
613.192	0.0168900
613.270	0.0169495
613.348	0.0169052
613.426	0.0169154
613.504	0.0168414
613.582	0.0169402
613.660	0.0170535
613.738	0.0167662
613.817	0.0168184
613.895	0.0169080
613.973	0.0168709
614.051	0.0167698
614.129	0.0168827
614.207	0.0170158
614.285	0.0168729
614.363	0.0169228
614.442	0.0169470
614.520	0.0168861
614.598	0.0169973
614.676	0.0168101
614.754	0.0168501
614.832	0.0167240
614.910	0.0168987
614.988	0.0169235
615.067	0.0168200
615.145	0.0168763
615.223	0.0168793
615.301	0.0169296
615.379	0.0170512
615.457	0.0169012
615.535	0.0169437
615.613	0.0169353
615.692	0.0170230
615.770	0.0168457
615.848	0.0169617
615.926	0.0168179
616.004	0.0169127
616.082	0.0169658
616.160	0.0169012
616.238	0.0169476
616.317	0.0168564
616.395	0.0168620
616.473	0.0169576
616.551	0.0169145
616.629	0.0168343
616.707	0.0169010
616.785	0.0169967
616.863	0.0169817
616.942	0.0168935
617.020	0.0169740
617.098	0.0169102
617.176	0.0168923
617.254	0.0169224
617.332	0.0169597
617.410	0.0169609
617.488	0.0169546
617.567	0.0168479
617.645	0.0169347
617.723	0.0168090
617.801	0.0169241
617.879	0.0168097
617.957	0.0169102
618.035	0.0168241
618.113	0.0169150
618.192	0.0170399
618.270	0.0168932
618.348	0.0169626
618.426	0.0168546
618.504	0.0169199
618.582	0.0169028
618.660	0.0168520
618.738	0.0168397
618.817	0.0169419
618.895	0.0168423
618.973	0.0167922
619.051	0.0168538
619.129	0.0168035
619.207	0.0168877
619.285	0.0169604
619.363	0.0167660
619.442	0.0167887
619.520	0.0168627
619.598	0.0169216
619.676	0.0168410
619.754	0.0169921
619.832	0.0168545
619.910	0.0168527
619.988	0.0168379
620.067	0.0169106
620.145	0.0169492
620.223	0.0168784
620.301	0.0169431
620.379	0.0168103
620.457	0.0169560
620.535	0.0169221
620.613	0.0168993
620.692	0.0169323
620.770	0.0168200
620.848	0.0168127
620.926	0.0169257
621.004	0.0169672
621.082	0.0169022
621.160	0.0168377
621.238	0.0168875
621.317	0.0167345
621.395	0.0168174
621.473	0.0169378
621.551	0.0169018
621.629	0.0168645
621.707	0.0167483
621.785	0.0167784
621.863	0.0168751
621.942	0.0168280
622.020	0.0166875
622.098	0.0168461
622.176	0.0169281
622.254	0.0168750
622.332	0.0169382
622.410	0.0168972
622.488	0.0168793
622.567	0.0169934
622.645	0.0168450
622.723	0.0168122
622.801	0.0168352
622.879	0.0168081
622.957	0.0168856
623.035	0.0168896
623.113	0.0169980
623.192	0.0168398
623.270	0.0168624
623.348	0.0168323
623.426	0.0168666
623.504	0.0168397
623.582	0.0168803
623.660	0.0167895
623.738	0.0168640
623.817	0.0169859
623.895	0.0168248
623.973	0.0168521
624.051	0.0169328
624.129	0.0168801
624.207	0.0168740
624.285	0.0169191
624.363	0.0169363
624.442	0.0169386
624.520	0.0169074
624.598	0.0168797
624.676	0.0168379
624.754	0.0168955
624.832	0.0167987
624.910	0.0168515
624.988	0.0169040
625.067	0.0168214
625.145	0.0168676
625.223	0.0168789
625.301	0.0169614
625.379	0.0167591
625.457	0.0168149
625.535	0.0170367
625.613	0.0168660
625.692	0.0168659
625.770	0.0169619
625.848	0.0170385
625.926	0.0167476
626.004	0.0169421
626.082	0.0170161
626.160	0.0168519
626.238	0.0168633
626.317	0.0168600
626.395	0.0169009
626.473	0.0167722
626.551	0.0169059
626.629	0.0168419
626.707	0.0169569
626.785	0.0169074
626.863	0.0168832
626.942	0.0168521
627.020	0.0169794
627.098	0.0168602
627.176	0.0168041
627.254	0.0169448
627.332	0.0169560
627.410	0.0169118
627.488	0.0169740
627.567	0.0169802
627.645	0.0169127
627.723	0.0168978
627.801	0.0169865
627.879	0.0169272
627.957	0.0169027
628.035	0.0168439
628.113	0.0168401
628.192	0.0169411
628.270	0.0169548
628.348	0.0168374
628.426	0.0168646
628.504	0.0169672
628.582	0.0169225
628.660	0.0168636
628.738	0.0167882
628.817	0.0168997
628.895	0.0169008
628.973	0.0168110
629.051	0.0168519
629.129	0.0168118
629.207	0.0168357
629.285	0.0168211
629.363	0.0168462
629.442	0.0168858
629.520	0.0167916
629.598	0.0169968
629.676	0.0169086
629.754	0.0168500
629.832	0.0168754
629.910	0.0169334
629.988	0.0169247
630.067	0.0168773
630.145	0.0168819
630.223	0.0169582
630.301	0.0169747
630.379	0.0169992
630.457	0.0168659
630.535	0.0168975
630.613	0.0168311
630.692	0.0168293
630.770	0.0169833
630.848	0.0168047
630.926	0.0169263
631.004	0.0169786
631.082	0.0169167
631.160	0.0170132
631.238	0.0168674
631.317	0.0168507
631.395	0.0168407
631.473	0.0168571
631.551	0.0169493
631.629	0.0169078
631.707	0.0169973
631.785	0.0169176
631.863	0.0169308
631.942	0.0169376
632.020	0.0169134
632.098	0.0168742
632.176	0.0167799
632.254	0.0167660
632.332	0.0168424
632.410	0.0168123
632.488	0.0168504
632.567	0.0168788
632.645	0.0167543
632.723	0.0169370
632.801	0.0168868
632.879	0.0169212
632.957	0.0168915
633.035	0.0169240
633.113	0.0168484
633.192	0.0169323
633.270	0.0169640
633.348	0.0168357
633.426	0.0169413
633.504	0.0169167
633.582	0.0168323
633.660	0.0167558
633.738	0.0168211
633.817	0.0168997
633.895	0.0167472
633.973	0.0167164
634.051	0.0169310
634.129	0.0169186
634.207	0.0168528
634.285	0.0168575
634.363	0.0169020
634.442	0.0168502
634.520	0.0169217
634.598	0.0168445
634.676	0.0167664
634.754	0.0168314
634.832	0.0169456
634.910	0.0167667
634.988	0.0167834
635.067	0.0169193
635.145	0.0169656
635.223	0.0168737
635.301	0.0169201
635.379	0.0167535
635.457	0.0168118
635.535	0.0168286
635.613	0.0169412
635.692	0.0168292
635.770	0.0169242
635.848	0.0168734
635.926	0.0168301
636.004	0.0169227
636.082	0.0168445
636.160	0.0168036
636.238	0.0168613
636.317	0.0169260
636.395	0.0168509
636.473	0.0169669
636.551	0.0168436
636.629	0.0168802
636.707	0.0169013
636.785	0.0169556
636.863	0.0168588
636.942	0.0167757
637.020	0.0167966
637.098	0.0169054
637.176	0.0169148
637.254	0.0169517
637.332	0.0169141
637.410	0.0169524
637.488	0.0168674
637.567	0.0169810
637.645	0.0168500
637.723	0.0168071
637.801	0.0168849
637.879	0.0169069
637.957	0.0168324
638.035	0.0168729
638.113	0.0167909
638.192	0.0168851
638.270	0.0168484
638.348	0.0168615
638.426	0.0169039
638.504	0.0167906
638.582	0.0168678
638.660	0.0168069
638.738	0.0169945
638.817	0.0168647
638.895	0.0170283
638.973	0.0168604
639.051	0.0168276
639.129	0.0168777
639.207	0.0169416
639.285	0.0167864
639.363	0.0169854
639.442	0.0169642
639.520	0.0168012
639.598	0.0169231
639.676	0.0168940
639.754	0.0169644
639.832	0.0168845
639.910	0.0169437
639.988	0.0168174
640.067	0.0168832
640.145	0.0168217
640.223	0.0168265
640.301	0.0168924
640.379	0.0169356
640.457	0.0169736
640.535	0.0169901
640.613	0.0169282
640.692	0.0169110
640.770	0.0168781
640.848	0.0168150
640.926	0.0168925
641.004	0.0169816
641.082	0.0169894
641.160	0.0169094
641.238	0.0169276
641.317	0.0168697
641.395	0.0168319
641.473	0.0168993
641.551	0.0169322
641.629	0.0168402
641.707	0.0170212
641.785	0.0169188
641.863	0.0168186
641.942	0.0170787
642.020	0.0169598
642.098	0.0167668
642.176	0.0169375
642.254	0.0170608
642.332	0.0168894
642.410	0.0168285
642.488	0.0169771
642.567	0.0169764
642.645	0.0168996
642.723	0.0168952
642.801	0.0169079
642.879	0.0169610
642.957	0.0169601
643.035	0.0169910
643.113	0.0168512
643.192	0.0168633
643.270	0.0169548
643.348	0.0169524
643.426	0.0169511
643.504	0.0168789
643.582	0.0168823
643.660	0.0170351
643.738	0.0170366
643.817	0.0168804
643.895	0.0167729
643.973	0.0168791
644.051	0.0170978
644.129	0.0171622
644.207	0.0170590
644.285	0.0167982
644.363	0.0168311
644.442	0.0168530
644.520	0.0168438
644.598	0.0169285
644.676	0.0170193
644.754	0.0168369
644.832	0.0167657
644.910	0.0169670
644.988	0.0169893
645.067	0.0168205
645.145	0.0170087
645.223	0.0168804
645.301	0.0168708
645.379	0.0169741
645.457	0.0170199
645.535	0.0170151
645.613	0.0169671
645.692	0.0169649
645.770	0.0168483
645.848	0.0168882
645.926	0.0168085
646.004	0.0169072
646.082	0.0170560
646.160	0.0170000
646.238	0.0169656
646.317	0.0170341
646.395	0.0168832
646.473	0.0169249
646.551	0.0169660
646.629	0.0169142
646.707	0.0169830
646.785	0.0168968
646.863	0.0168358
646.942	0.0169789
647.020	0.0170202
647.098	0.0169163
647.176	0.0169545
647.254	0.0169162
647.332	0.0169984
647.410	0.0169120
647.488	0.0168806
647.567	0.0168751
647.645	0.0169096
647.723	0.0170460
647.801	0.0169595
647.879	0.0168215
647.957	0.0168537
648.035	0.0169894
648.113	0.0168303
648.192	0.0168765
648.270	0.0167935
648.348	0.0167972
648.426	0.0169351
648.504	0.0169398
648.582	0.0168436
648.660	0.0168240
648.738	0.0167689
648.817	0.0168671
648.895	0.0168282
648.973	0.0168951
649.051	0.0168401
649.129	0.0168659
649.207	0.0168415
649.285	0.0168587
649.363	0.0169595
649.442	0.0168880
649.520	0.0169419
649.598	0.0168183
649.676	0.0169350
649.754	0.0170354
649.832	0.0168699
649.910	0.0168154
649.988	0.0167932
650.067	0.0168513
650.145	0.0169180
650.223	0.0169342
650.301	0.0170150
650.379	0.0170190
650.457	0.0169732
650.535	0.0169583
650.613	0.0169189
650.692	0.0169537
650.770	0.0169086
650.848	0.0168856
650.926	0.0169189
651.004	0.0169373
651.082	0.0168447
651.160	0.0168750
651.238	0.0169258
651.317	0.0169641
651.395	0.0168333
651.473	0.0168678
651.551	0.0170110
651.629	0.0168666
651.707	0.0168352
651.785	0.0169212
651.863	0.0169374
651.942	0.0167688
652.020	0.0168802
652.098	0.0168723
652.176	0.0168207
652.254	0.0168353
652.332	0.0168037
652.410	0.0170258
652.488	0.0168034
652.567	0.0168777
652.645	0.0168645
652.723	0.0168240
652.801	0.0169824
652.879	0.0167144
652.957	0.0168271
653.035	0.0170214
653.113	0.0168203
653.192	0.0168657
653.270	0.0169868
653.348	0.0169137
653.426	0.0169293
653.504	0.0169405
653.582	0.0167675
653.660	0.0167843
653.738	0.0167953
653.817	0.0168845
653.895	0.0168535
653.973	0.0169381
654.051	0.0167703
654.129	0.0168260
654.207	0.0168610
654.285	0.0168246
654.363	0.0169209
654.442	0.0168790
654.520	0.0168463
654.598	0.0168366
654.676	0.0168626
654.754	0.0167932
654.832	0.0168937
654.910	0.0169256
654.988	0.0167836
655.067	0.0168538
655.145	0.0168616
655.223	0.0169948
655.301	0.0167661
655.379	0.0169118
655.457	0.0168767
655.535	0.0168182
655.613	0.0168158
655.692	0.0168053
655.770	0.0170117
655.848	0.0169330
655.926	0.0168404
656.004	0.0168952
656.082	0.0168546
656.160	0.0168736
656.238	0.0168608
656.317	0.0169683
656.395	0.0169033
656.473	0.0168446
656.551	0.0169663
656.629	0.0168553
656.707	0.0167980
656.785	0.0169551
656.863	0.0169050
656.942	0.0170101
657.020	0.0169642
657.098	0.0169875
657.176	0.0168990
657.254	0.0169189
657.332	0.0168539
657.410	0.0169132
657.488	0.0168017
657.567	0.0168288
657.645	0.0169946
657.723	0.0170017
657.801	0.0168260
657.879	0.0168977
657.957	0.0167564
658.035	0.0169038
658.113	0.0168914
658.192	0.0169511
658.270	0.0169537
658.348	0.0168690
658.426	0.0168580
658.504	0.0169199
658.582	0.0168730
658.660	0.0169423
658.738	0.0168407
658.817	0.0168961
658.895	0.0168616
658.973	0.0169025
659.051	0.0168200
659.129	0.0168780
659.207	0.0169068
659.285	0.0169117
659.363	0.0168763
659.442	0.0169807
659.520	0.0167710
659.598	0.0168849
659.676	0.0169294
659.754	0.0170135
659.832	0.0169851
659.910	0.0168682
659.988	0.0169257
660.067	0.0168752
660.145	0.0170009
660.223	0.0167950
660.301	0.0167164
660.379	0.0168320
660.457	0.0168817
660.535	0.0168037
660.613	0.0168130
660.692	0.0168607
660.770	0.0168344
660.848	0.0169022
660.926	0.0169639
661.004	0.0169736
661.082	0.0169360
661.160	0.0169215
661.238	0.0168517
661.317	0.0168872
661.395	0.0168750
661.473	0.0168841
661.551	0.0170039
661.629	0.0168813
661.707	0.0168963
661.785	0.0169156
661.863	0.0168787
661.942	0.0168258
662.020	0.0169353
662.098	0.0168513
662.176	0.0168864
662.254	0.0169000
662.332	0.0168387
662.410	0.0169205
662.488	0.0169582
662.567	0.0169827
662.645	0.0168229
662.723	0.0169068
662.801	0.0166850
662.879	0.0168689
662.957	0.0169135
663.035	0.0168884
663.113	0.0167876
663.192	0.0169027
663.270	0.0169446
663.348	0.0169341
663.426	0.0168376
663.504	0.0169712
663.582	0.0169586
663.660	0.0168803
663.738	0.0169633
663.817	0.0169473
663.895	0.0169113
663.973	0.0168951
664.051	0.0168815
664.129	0.0170075
664.207	0.0167869
664.285	0.0168905
664.363	0.0170247
664.442	0.0169714
664.520	0.0169434
664.598	0.0169185
664.676	0.0169184
664.754	0.0169051
664.832	0.0169288
664.910	0.0169133
664.988	0.0169424
665.067	0.0168879
665.145	0.0168288
665.223	0.0170074
665.301	0.0169051
665.379	0.0169906
665.457	0.0168833
665.535	0.0168990
665.613	0.0169434
665.692	0.0168158
665.770	0.0168293
665.848	0.0168790
665.926	0.0169630
666.004	0.0169227
666.082	0.0168766
666.160	0.0168103
666.238	0.0168031
666.317	0.0167676
666.395	0.0170278
666.473	0.0169007
666.551	0.0168136
666.629	0.0168772
666.707	0.0169087
666.785	0.0168359
666.863	0.0169677
666.942	0.0169675
667.020	0.0168990
667.098	0.0168881
667.176	0.0168788
667.254	0.0169807
667.332	0.0170399
667.410	0.0166735
667.488	0.0168979
667.567	0.0169708
667.645	0.0169112
667.723	0.0170485
667.801	0.0169431
667.879	0.0168140
667.957	0.0168130
668.035	0.0169509
668.113	0.0169234
668.192	0.0170479
668.270	0.0169394
668.348	0.0169102
668.426	0.0169045
668.504	0.0168713
668.582	0.0168944
668.660	0.0170262
668.738	0.0169111
668.817	0.0169984
668.895	0.0168448
668.973	0.0168640
669.051	0.0167628
669.129	0.0170173
669.207	0.0168465
669.285	0.0169251
669.363	0.0168692
669.442	0.0168387
669.520	0.0169527
669.598	0.0168613
669.676	0.0168585
669.754	0.0169822
669.832	0.0169514
669.910	0.0169244
669.988	0.0168131
670.067	0.0168403
670.145	0.0169543
670.223	0.0169682
670.301	0.0169070
670.379	0.0168880
670.457	0.0169984
670.535	0.0168938
670.613	0.0168386
670.692	0.0169073
670.770	0.0168496
670.848	0.0169299
670.926	0.0169070
671.004	0.0169679
671.082	0.0168736
671.160	0.0169518
671.238	0.0169398
671.317	0.0168144
671.395	0.0169588
671.473	0.0168309
671.551	0.0169330
671.629	0.0169537
671.707	0.0169382
671.785	0.0168459
671.863	0.0167988
671.942	0.0169520
672.020	0.0167714
672.098	0.0169354
672.176	0.0169155
672.254	0.0167519
672.332	0.0168481
672.410	0.0168902
672.488	0.0169203
672.567	0.0169320
672.645	0.0168749
672.723	0.0168861
672.801	0.0167797
672.879	0.0168024
672.957	0.0167944
673.035	0.0168669
673.113	0.0167232
673.192	0.0169769
673.270	0.0170467
673.348	0.0168469
673.426	0.0167902
673.504	0.0168620
673.582	0.0169523
673.660	0.0169855
673.738	0.0168797
673.817	0.0169355
673.895	0.0169480
673.973	0.0169762
674.051	0.0170715
674.129	0.0169068
674.207	0.0167795
674.285	0.0169453
674.363	0.0169059
674.442	0.0169499
674.520	0.0170841
674.598	0.0169605
674.676	0.0167603
674.754	0.0169413
674.832	0.0169736
674.910	0.0169195
674.988	0.0170536
675.067	0.0170765
675.145	0.0170075
675.223	0.0168414
675.301	0.0169711
675.379	0.0168685
675.457	0.0169113
675.535	0.0171297
675.613	0.0170752
675.692	0.0169250
675.770	0.0168769
675.848	0.0168926
675.926	0.0169043
676.004	0.0169733
676.082	0.0169772
676.160	0.0170366
676.238	0.0168878
676.317	0.0168015
676.395	0.0170596
676.473	0.0170921
676.551	0.0168414
676.629	0.0168177
676.707	0.0169729
676.785	0.0168842
676.863	0.0169305
676.942	0.0168900
677.020	0.0169421
677.098	0.0169474
677.176	0.0168346
677.254	0.0170381
677.332	0.0168358
677.410	0.0168668
677.488	0.0168951
677.567	0.0169806
677.645	0.0169653
677.723	0.0168688
677.801	0.0168941
677.879	0.0168539
677.957	0.0168247
678.035	0.0169508
678.113	0.0169109
678.192	0.0169662
678.270	0.0168416
678.348	0.0168257
678.426	0.0168812
678.504	0.0170246
678.582	0.0170287
678.660	0.0168913
678.738	0.0167610
678.817	0.0169848
678.895	0.0169241
678.973	0.0168781
679.051	0.0168243
679.129	0.0168507
679.207	0.0169077
679.285	0.0168031
679.363	0.0168488
679.442	0.0169052
679.520	0.0170477
679.598	0.0168896
679.676	0.0169234
679.754	0.0169133
679.832	0.0169290
679.910	0.0169122
679.988	0.0168742
680.067	0.0170135
680.145	0.0169498
680.223	0.0169791
680.301	0.0170169
680.379	0.0170730
680.457	0.0171610
680.535	0.0169252
680.613	0.0169192
680.692	0.0170752
680.770	0.0169753
680.848	0.0169693
680.926	0.0170150
681.004	0.0170047
681.082	0.0170589
681.160	0.0170161
681.238	0.0169286
681.317	0.0169655
681.395	0.0169838
681.473	0.0170045
681.551	0.0169388
681.629	0.0170682
681.707	0.0169112
681.785	0.0169574
681.863	0.0169688
681.942	0.0169823
682.020	0.0169461
682.098	0.0171246
682.176	0.0169878
682.254	0.0169580
682.332	0.0168578
682.410	0.0169431
682.488	0.0169438
682.567	0.0169308
682.645	0.0170997
682.723	0.0168874
682.801	0.0168932
682.879	0.0170672
682.957	0.0170348
683.035	0.0170415
683.113	0.0169006
683.192	0.0168292
683.270	0.0169733
683.348	0.0168987
683.426	0.0169193
683.504	0.0169086
683.582	0.0168812
683.660	0.0168149
683.738	0.0168950
683.817	0.0168642
683.895	0.0168671
683.973	0.0169477
684.051	0.0169577
684.129	0.0171471
684.207	0.0169294
684.285	0.0169087
684.363	0.0168999
684.442	0.0169334
684.520	0.0169177
684.598	0.0168958
684.676	0.0168835
684.754	0.0168834
684.832	0.0167931
684.910	0.0167358
684.988	0.0167773
685.067	0.0169788
685.145	0.0169551
685.223	0.0170036
685.301	0.0169866
685.379	0.0167397
685.457	0.0167863
685.535	0.0168114
685.613	0.0168552
685.692	0.0168851
685.770	0.0170036
685.848	0.0167712
685.926	0.0167204
686.004	0.0171107
686.082	0.0169173
686.160	0.0167642
686.238	0.0168481
686.317	0.0167928
686.395	0.0168678
686.473	0.0170683
686.551	0.0168924
686.629	0.0167003
686.707	0.0168691
686.785	0.0169041
686.863	0.0168848
686.942	0.0169073
687.020	0.0168223
687.098	0.0168572
687.176	0.0169373
687.254	0.0168527
687.332	0.0168242
687.410	0.0168298
687.488	0.0168643
687.567	0.0168975
687.645	0.0168221
687.723	0.0168554
687.801	0.0167647
687.879	0.0169280
687.957	0.0168347
688.035	0.0168711
688.113	0.0168120
688.192	0.0167952
688.270	0.0167017
688.348	0.0167698
688.426	0.0168622
688.504	0.0169180
688.582	0.0169300
688.660	0.0167591
688.738	0.0169325
688.817	0.0168945
688.895	0.0167558
688.973	0.0168417
689.051	0.0169009
689.129	0.0167490
689.207	0.0167953
689.285	0.0167252
689.363	0.0168410
689.442	0.0169435
689.520	0.0166810
689.598	0.0168254
689.676	0.0166530
689.754	0.0168095
689.832	0.0168877
689.910	0.0168827
689.988	0.0168263
690.067	0.0166852
690.145	0.0168233
690.223	0.0167132
690.301	0.0168918
690.379	0.0168314
690.457	0.0167819
690.535	0.0168797
690.613	0.0168623
690.692	0.0168083
690.770	0.0167214
690.848	0.0167472
690.926	0.0168489
691.004	0.0167912
691.082	0.0167246
691.160	0.0169170
691.238	0.0168393
691.317	0.0170211
691.395	0.0168374
691.473	0.0168063
691.551	0.0169149
691.629	0.0168720
691.707	0.0169265
691.785	0.0170767
691.863	0.0167013
691.942	0.0168150
692.020	0.0169386
692.098	0.0167822
692.176	0.0167270
692.254	0.0167481
692.332	0.0169617
692.410	0.0167406
692.488	0.0167970
692.567	0.0167919
692.645	0.0168649
692.723	0.0168026
692.801	0.0168823
692.879	0.0167999
692.957	0.0167991
693.035	0.0169118
693.113	0.0169212
693.192	0.0167970
693.270	0.0169398
693.348	0.0168571
693.426	0.0168775
693.504	0.0167810
693.582	0.0168066
693.660	0.0169843
693.738	0.0170183
693.817	0.0169194
693.895	0.0168547
693.973	0.0168777
694.051	0.0169360
694.129	0.0170202
694.207	0.0169138
694.285	0.0168272
694.363	0.0168745
694.442	0.0170066
694.520	0.0168339
694.598	0.0168625
694.676	0.0170152
694.754	0.0168738
694.832	0.0168037
694.910	0.0169237
694.988	0.0169567
695.067	0.0170098
695.145	0.0170518
695.223	0.0168728
695.301	0.0169139
695.379	0.0169480
695.457	0.0168206
695.535	0.0168281
695.613	0.0168719
695.692	0.0168023
695.770	0.0169236
695.848	0.0169251
695.926	0.0168471
696.004	0.0170538
696.082	0.0169738
696.160	0.0169542
696.238	0.0168948
696.317	0.0167931
696.395	0.0170460
696.473	0.0168583
696.551	0.0169388
696.629	0.0169138
696.707	0.0168564
696.785	0.0170094
696.863	0.0169387
696.942	0.0167191
697.020	0.0170650
697.098	0.0171307
697.176	0.0169852
697.254	0.0168748
697.332	0.0170284
697.410	0.0170258
697.488	0.0171282
697.567	0.0171076
697.645	0.0169476
697.723	0.0169885
697.801	0.0171708
697.879	0.0169762
697.957	0.0170160
698.035	0.0171040
698.113	0.0170052
698.192	0.0170359
698.270	0.0170129
698.348	0.0169105
698.426	0.0170197
698.504	0.0171861
698.582	0.0171740
698.660	0.0170401
698.738	0.0169431
698.817	0.0170882
698.895	0.0170190
698.973	0.0170020
699.051	0.0171146
699.129	0.0169869
699.207	0.0170410
699.285	0.0169788
699.363	0.0171126
699.442	0.0170611
699.520	0.0170597
699.598	0.0169710
699.676	0.0169186
699.754	0.0169616
699.832	0.0169816
699.910	0.0170919
699.988	0.0169522
700.067	0.0169772
700.145	0.0171144
700.223	0.0171273
700.301	0.0169892
700.379	0.0169610
700.457	0.0169596
700.535	0.0170377
700.613	0.0171730
700.692	0.0170654
700.770	0.0170300
700.848	0.0170861
700.926	0.0168232
701.004	0.0170221
701.082	0.0171651
701.160	0.0170112
701.238	0.0171275
701.317	0.0170212
701.395	0.0169215
701.473	0.0170253
701.551	0.0170678
701.629	0.0170046
701.707	0.0169971
701.785	0.0169228
701.863	0.0170497
701.942	0.0169383
702.020	0.0170036
702.098	0.0168827
702.176	0.0169479
702.254	0.0169624
702.332	0.0170153
702.410	0.0170338
702.488	0.0169608
702.567	0.0170126
702.645	0.0170697
702.723	0.0169805
702.801	0.0169852
702.879	0.0169991
702.957	0.0169006
703.035	0.0170408
703.113	0.0169423
703.192	0.0169244
703.270	0.0170478
703.348	0.0170279
703.426	0.0169466
703.504	0.0170100
703.582	0.0170236
703.660	0.0169318
703.738	0.0167881
703.817	0.0169411
703.895	0.0169440
703.973	0.0169477
704.051	0.0168956
704.129	0.0170418
704.207	0.0169675
704.285	0.0170284
704.363	0.0169600
704.442	0.0169953
704.520	0.0169153
704.598	0.0169458
704.676	0.0169096
704.754	0.0169185
704.832	0.0169402
704.910	0.0169695
704.988	0.0170009
705.067	0.0169018
705.145	0.0168247
705.223	0.0168566
705.301	0.0169290
705.379	0.0169573
705.457	0.0168719
705.535	0.0168063
705.613	0.0168674
705.692	0.0170214
705.770	0.0168645
705.848	0.0167549
705.926	0.0168468
706.004	0.0169025
706.082	0.0168970
706.160	0.0169115
706.238	0.0168802
706.317	0.0168509
706.395	0.0167667
706.473	0.0169292
706.551	0.0167656
706.629	0.0167846
706.707	0.0167970
706.785	0.0167766
706.863	0.0167094
706.942	0.0167083
707.020	0.0167661
707.098	0.0168937
707.176	0.0168591
707.254	0.0168517
707.332	0.0166951
707.410	0.0168507
707.488	0.0168224
707.567	0.0167385
707.645	0.0166906
707.723	0.0168686
707.801	0.0166998
707.879	0.0167747
707.957	0.0167509
708.035	0.0166051
708.113	0.0167208
708.192	0.0168040
708.270	0.0167552
708.348	0.0168275
708.426	0.0167840
708.504	0.0166666
708.582	0.0167517
708.660	0.0168168
708.738	0.0167653
708.817	0.0167699
708.895	0.0168216
708.973	0.0168111
709.051	0.0168008
709.129	0.0166967
709.207	0.0167083
709.285	0.0167251
709.363	0.0167533
709.442	0.0166837
709.520	0.0167863
709.598	0.0167996
709.676	0.0167918
709.754	0.0168134
709.832	0.0167883
709.910	0.0168375
709.988	0.0167560
710.067	0.0167959
710.145	0.0168228
710.223	0.0166525
710.301	0.0167945
710.379	0.0166938
710.457	0.0166902
710.535	0.0167464
710.613	0.0167836
710.692	0.0168162
710.770	0.0166917
710.848	0.0166895
710.926	0.0167507
711.004	0.0167549
711.082	0.0167995
711.160	0.0167294
711.238	0.0166401
711.317	0.0168420
711.395	0.0167844
711.473	0.0167290
711.551	0.0168234
711.629	0.0168742
711.707	0.0168722
711.785	0.0167828
711.863	0.0168509
711.942	0.0167850
712.020	0.0167862
712.098	0.0166709
712.176	0.0167791
712.254	0.0168942
712.332	0.0169066
712.410	0.0167492
712.488	0.0168555
712.567	0.0168562
712.645	0.0169608
712.723	0.0168729
712.801	0.0167366
712.879	0.0168298
712.957	0.0167581
713.035	0.0168293
713.113	0.0168918
713.192	0.0167313
713.270	0.0167363
713.348	0.0168463
713.426	0.0167746
713.504	0.0167771
713.582	0.0168979
713.660	0.0168022
713.738	0.0168150
713.817	0.0168548
713.895	0.0168591
713.973	0.0167496
714.051	0.0169205
714.129	0.0167690
714.207	0.0168562
714.285	0.0167776
714.363	0.0168390
714.442	0.0168967
714.520	0.0169543
714.598	0.0169131
714.676	0.0168731
714.754	0.0168449
714.832	0.0168970
714.910	0.0168082
714.988	0.0168681
715.067	0.0168876
715.145	0.0169904
715.223	0.0167919
715.301	0.0167418
715.379	0.0168768
715.457	0.0169493
715.535	0.0169341
715.613	0.0168927
715.692	0.0168980
715.770	0.0168250
715.848	0.0169331
715.926	0.0168496
716.004	0.0167735
716.082	0.0168932
716.160	0.0168895
716.238	0.0169193
716.317	0.0168543
716.395	0.0168810
716.473	0.0169720
716.551	0.0168332
716.629	0.0168546
716.707	0.0167998
716.785	0.0169224
716.863	0.0168773
716.942	0.0168722
717.020	0.0169271
717.098	0.0168195
717.176	0.0168954
717.254	0.0169721
717.332	0.0168763
717.410	0.0168642
717.488	0.0170155
717.567	0.0169595
717.645	0.0169939
717.723	0.0168748
717.801	0.0169475
717.879	0.0170027
717.957	0.0168802
718.035	0.0168513
718.113	0.0169858
718.192	0.0168850
718.270	0.0168089
718.348	0.0168021
718.426	0.0169554
718.504	0.0170033
718.582	0.0171075
718.660	0.0169212
718.738	0.0168138
718.817	0.0169831
718.895	0.0169592
718.973	0.0169193
719.051	0.0170354
719.129	0.0168945
719.207	0.0170309
719.285	0.0168938
719.363	0.0169378
719.442	0.0169439
719.520	0.0168791
719.598	0.0169411
719.676	0.0170643
719.754	0.0168885
719.832	0.0169158
719.910	0.0169062
719.988	0.0170589
720.067	0.0170875
720.145	0.0170488
720.223	0.0169736
720.301	0.0169553
720.379	0.0170350
720.457	0.0169023
720.535	0.0170215
720.613	0.0168377
720.692	0.0169828
720.770	0.0169473
720.848	0.0169766
720.926	0.0170046
721.004	0.0170995
721.082	0.0167770
721.160	0.0169523
721.238	0.0169324
721.317	0.0168665
721.395	0.0169262
721.473	0.0169811
721.551	0.0169985
721.629	0.0169546
721.707	0.0169357
721.785	0.0169324
721.863	0.0170303
721.942	0.0168211
722.020	0.0169808
722.098	0.0169051
722.176	0.0170110
722.254	0.0169376
722.332	0.0170743
722.410	0.0169307
722.488	0.0169590
722.567	0.0170612
722.645	0.0168417
722.723	0.0169662
722.801	0.0169715
722.879	0.0169347
722.957	0.0169269
723.035	0.0168893
723.113	0.0168918
723.192	0.0169808
723.270	0.0168767
723.348	0.0170006
723.426	0.0171352
723.504	0.0168860
723.582	0.0169679
723.660	0.0169884
723.738	0.0168305
723.817	0.0170404
723.895	0.0168739
723.973	0.0169553
724.051	0.0168947
724.129	0.0169344
724.207	0.0169442
724.285	0.0169113
724.363	0.0167471
724.442	0.0169002
724.520	0.0169192
724.598	0.0167808
724.676	0.0168246
724.754	0.0168858
724.832	0.0169236
724.910	0.0168764
724.988	0.0168566
725.067	0.0169251
725.145	0.0169981
725.223	0.0168022
725.301	0.0170750
725.379	0.0168348
725.457	0.0168490
725.535	0.0167854
725.613	0.0169087
725.692	0.0170074
725.770	0.0168998
725.848	0.0169597
725.926	0.0169464
726.004	0.0170829
726.082	0.0169809
726.160	0.0167808
726.238	0.0170569
726.317	0.0168678
726.395	0.0168297
726.473	0.0169169
726.551	0.0169681
726.629	0.0169092
726.707	0.0168562
726.785	0.0169514
726.863	0.0169716
726.942	0.0167450
727.020	0.0169311
727.098	0.0168951
727.176	0.0168837
727.254	0.0169254
727.332	0.0169047
727.410	0.0168965
727.488	0.0168041
727.567	0.0168468
727.645	0.0169510
727.723	0.0169048
727.801	0.0168230
727.879	0.0167686
727.957	0.0169414
728.035	0.0167764
728.113	0.0169807
728.192	0.0169977
728.270	0.0166643
728.348	0.0168211
728.426	0.0168762
728.504	0.0167366
728.582	0.0168717
728.660	0.0169528
728.738	0.0169901
728.817	0.0167083
728.895	0.0168404
728.973	0.0169398
729.051	0.0169795
729.129	0.0169955
729.207	0.0166551
729.285	0.0167648
729.363	0.0169131
729.442	0.0168397
729.520	0.0169248
729.598	0.0169370
729.676	0.0169205
729.754	0.0167876
729.832	0.0168329
729.910	0.0168980
729.988	0.0167441
730.067	0.0167059
730.145	0.0168501
730.223	0.0168362
730.301	0.0168884
730.379	0.0167663
730.457	0.0168180
730.535	0.0168297
730.613	0.0168584
730.692	0.0167956
730.770	0.0168372
730.848	0.0168010
730.926	0.0167863
731.004	0.0168447
731.082	0.0167702
731.160	0.0167381
731.238	0.0169112
731.317	0.0169474
731.395	0.0166624
731.473	0.0167838
731.551	0.0167371
731.629	0.0168586
731.707	0.0168147
731.785	0.0168716
731.863	0.0168389
731.942	0.0169014
732.020	0.0169424
732.098	0.0167891
732.176	0.0167010
732.254	0.0170076
732.332	0.0169264
732.410	0.0168799
732.488	0.0167931
732.567	0.0169198
732.645	0.0169231
732.723	0.0168085
732.801	0.0169798
732.879	0.0168385
732.957	0.0169147
733.035	0.0170565
733.113	0.0170013
733.192	0.0169064
733.270	0.0168956
733.348	0.0169045
733.426	0.0168842
733.504	0.0169279
733.582	0.0169479
733.660	0.0166969
733.738	0.0168393
733.817	0.0166431
733.895	0.0165370
733.973	0.0166528
734.051	0.0166001
734.129	0.0165517
734.207	0.0165943
734.285	0.0167194
734.363	0.0166799
734.442	0.0169313
734.520	0.0171707
734.598	0.0169271
734.676	0.0172607
734.754	0.0174577
734.832	0.0174024
734.910	0.0174448
734.988	0.0174719
735.067	0.0173707
735.145	0.0173128
735.223	0.0172977
735.301	0.0171452
735.379	0.0170593
735.457	0.0167435
735.535	0.0164443
735.613	0.0162717
735.692	0.0159396
735.770	0.0159063
735.848	0.0156921
735.926	0.0156260
736.004	0.0156119
736.082	0.0158160
736.160	0.0160721
736.238	0.0163856
736.317	0.0167068
736.395	0.0169643
736.473	0.0174206
736.551	0.0179008
736.629	0.0180905
736.707	0.0182565
736.785	0.0183544
736.863	0.0181016
736.942	0.0180282
737.020	0.0176158
737.098	0.0173567
737.176	0.0170728
737.254	0.0168176
737.332	0.0166692
737.410	0.0165179
737.488	0.0164372
737.567	0.0164541
737.645	0.0164029
737.723	0.0164126
737.801	0.0163414
737.879	0.0162461
737.957	0.0162492
738.035	0.0161682
738.113	0.0161152
738.192	0.0159285
738.270	0.0159127
738.348	0.0158059
738.426	0.0159234
738.504	0.0160663
738.582	0.0162223
738.660	0.0165528
738.738	0.0170218
738.817	0.0173051
738.895	0.0176846
738.973	0.0180742
739.051	0.0181824
739.129	0.0184141
739.207	0.0183360
739.285	0.0182235
739.363	0.0181284
739.442	0.0178190
739.520	0.0175015
739.598	0.0172914
739.676	0.0172120
739.754	0.0168118
739.832	0.0165557
739.910	0.0161159
739.988	0.0158925
740.067	0.0157636
740.145	0.0155353
740.223	0.0153093
740.301	0.0154128
740.379	0.0154034
740.457	0.0153711
740.535	0.0155129
740.613	0.0156342
740.692	0.0158935
740.770	0.0163380
740.848	0.0167168
740.926	0.0170013
741.004	0.0173688
741.082	0.0178522
741.160	0.0179623
741.238	0.0182102
741.317	0.0184941
741.395	0.0185680
741.473	0.0185110
741.551	0.0184772
741.629	0.0181750
741.707	0.0178321
741.785	0.0175746
741.863	0.0172395
741.942	0.0169241
742.020	0.0165332
742.098	0.0163134
742.176	0.0160934
742.254	0.0158259
742.332	0.0159182
742.410	0.0158585
742.488	0.0159213
742.567	0.0159372
742.645	0.0160313
742.723	0.0161531
742.801	0.0162289
742.879	0.0164086
742.957	0.0164552
743.035	0.0166553
743.113	0.0168787
743.192	0.0169561
743.270	0.0170558
743.348	0.0170802
743.426	0.0173347
743.504	0.0173675
743.582	0.0174087
743.660	0.0175000
743.738	0.0175961
743.817	0.0177037
743.895	0.0176375
743.973	0.0175475
744.051	0.0175988
744.129	0.0175729
744.207	0.0174192
744.285	0.0173466
744.363	0.0171678
744.442	0.0170946
744.520	0.0169772
744.598	0.0168081
744.676	0.0167040
744.754	0.0168340
744.832	0.0166073
744.910	0.0167442
744.988	0.0164443
745.067	0.0166054
745.145	0.0165308
745.223	0.0166328
745.301	0.0167950
745.379	0.0167633
745.457	0.0167810
745.535	0.0168846
745.613	0.0167803
745.692	0.0169765
745.770	0.0168657
745.848	0.0166936
745.926	0.0169274
746.004	0.0169038
746.082	0.0169353
746.160	0.0170117
746.238	0.0170217
746.317	0.0170374
746.395	0.0170140
746.473	0.0170705
746.551	0.0170847
746.629	0.0171879
746.707	0.0170844
746.785	0.0170956
746.863	0.0171469
746.942	0.0172491
747.020	0.0173053
747.098	0.0173448
747.176	0.0172881
747.254	0.0172852
747.332	0.0174651
747.410	0.0174917
747.488	0.0173692
747.567	0.0172302
747.645	0.0172771
747.723	0.0171414
747.801	0.0170186
747.879	0.0171144
747.957	0.0168166
748.035	0.0167240
748.113	0.0166174
748.192	0.0163625
748.270	0.0163911
748.348	0.0162727
748.426	0.0161909
748.504	0.0162334
748.582	0.0163133
748.660	0.0162583
748.738	0.0161669
748.817	0.0166565
748.895	0.0164675
748.973	0.0167604
749.051	0.0168839
749.129	0.0172619
749.207	0.0172424
749.285	0.0173291
749.363	0.0175472
749.442	0.0175421
749.520	0.0176494
749.598	0.0176921
749.676	0.0176109
749.754	0.0175954
749.832	0.0176608
749.910	0.0174644
749.988	0.0171965
750.067	0.0171813
750.145	0.0170261
750.223	0.0170528
750.301	0.0166895
750.379	0.0166656
750.457	0.0166589
750.535	0.0164242
750.613	0.0164371
750.692	0.0164081
750.770	0.0163098
750.848	0.0163277
750.926	0.0163265
751.004	0.0163571
751.082	0.0163277
751.160	0.0165092
751.238	0.0165908
751.317	0.0165177
751.395	0.0169392
751.473	0.0168774
751.551	0.0170305
751.629	0.0172168
751.707	0.0173149
751.785	0.0174161
751.863	0.0173787
751.942	0.0173898
752.020	0.0173490
752.098	0.0173507
752.176	0.0173805
752.254	0.0172480
752.332	0.0173382
752.410	0.0171622
752.488	0.0169623
752.567	0.0172034
752.645	0.0168423
752.723	0.0168368
752.801	0.0168447
752.879	0.0168587
752.957	0.0167059
753.035	0.0166851
753.113	0.0166288
753.192	0.0167071
753.270	0.0166000
753.348	0.0167510
753.426	0.0166663
753.504	0.0165772
753.582	0.0166779
753.660	0.0166617
753.738	0.0167529
753.817	0.0166981
753.895	0.0167807
753.973	0.0168876
754.051	0.0168991
754.129	0.0169557
754.207	0.0169412
754.285	0.0169944
754.363	0.0169337
754.442	0.0168441
754.520	0.0168287
754.598	0.0169899
754.676	0.0168667
754.754	0.0168936
754.832	0.0167828
754.910	0.0167633
754.988	0.0168456
755.067	0.0168427
755.145	0.0167609
755.223	0.0168009
755.301	0.0169760
755.379	0.0170835
755.457	0.0170948
755.535	0.0171525
755.613	0.0172169
755.692	0.0172353
755.770	0.0172257
755.848	0.0170511
755.926	0.0169300
756.004	0.0168630
756.082	0.0167131
756.160	0.0166982
756.238	0.0167246
756.317	0.0166769
756.395	0.0163902
756.473	0.0165957
756.551	0.0165682
756.629	0.0163290
756.707	0.0164091
756.785	0.0167067
756.863	0.0166854
756.942	0.0167494
757.020	0.0168885
757.098	0.0167692
757.176	0.0169389
757.254	0.0169920
757.332	0.0172211
757.410	0.0169872
757.488	0.0172477
757.567	0.0171444
757.645	0.0172481
757.723	0.0172487
757.801	0.0172384
757.879	0.0171465
757.957	0.0171423
758.035	0.0169230
758.113	0.0168591
758.192	0.0169257
758.270	0.0167263
758.348	0.0167806
758.426	0.0167312
758.504	0.0167918
758.582	0.0166877
758.660	0.0166830
758.738	0.0167406
758.817	0.0168145
758.895	0.0168505
758.973	0.0167501
759.051	0.0167989
759.129	0.0167793
759.207	0.0168732
759.285	0.0168153
759.363	0.0168486
759.442	0.0170119
759.520	0.0168861
759.598	0.0168005
759.676	0.0170767
759.754	0.0170856
759.832	0.0171191
759.910	0.0169322
759.988	0.0170161
760.067	0.0172430
760.145	0.0172150
760.223	0.0171741
760.301	0.0171320
760.379	0.0170753
760.457	0.0171377
760.535	0.0172292
760.613	0.0170926
760.692	0.0170561
760.770	0.0170667
760.848	0.0169692
760.926	0.0168345
761.004	0.0166647
761.082	0.0167348
761.160	0.0167069
761.238	0.0167456
761.317	0.0166280
761.395	0.0167367
761.473	0.0166951
761.551	0.0167529
761.629	0.0167618
761.707	0.0167959
761.785	0.0168436
761.863	0.0169755
761.942	0.0169774
762.020	0.0169587
762.098	0.0170522
762.176	0.0170585
762.254	0.0170789
762.332	0.0170172
762.410	0.0168985
762.488	0.0169917
762.567	0.0169918
762.645	0.0170399
762.723	0.0170560
762.801	0.0169968
762.879	0.0170104
762.957	0.0170429
763.035	0.0170821
763.113	0.0170198
763.192	0.0171453
763.270	0.0170792
763.348	0.0170171
763.426	0.0169893
763.504	0.0168807
763.582	0.0167506
763.660	0.0168422
763.738	0.0168221
763.817	0.0166731
763.895	0.0167838
763.973	0.0165931
764.051	0.0165474
764.129	0.0166653
764.207	0.0167335
764.285	0.0166638
764.363	0.0167552
764.442	0.0168095
764.520	0.0169118
764.598	0.0170437
764.676	0.0169987
764.754	0.0171635
764.832	0.0173266
764.910	0.0174549
764.988	0.0175708
765.067	0.0176157
765.145	0.0174393
765.223	0.0175456
765.301	0.0174570
765.379	0.0173860
765.457	0.0172678
765.535	0.0169342
765.613	0.0169433
765.692	0.0167059
765.770	0.0166670
765.848	0.0165539
765.926	0.0163470
766.004	0.0162279
766.082	0.0162931
766.160	0.0160312
766.238	0.0160782
766.317	0.0161684
766.395	0.0162767
766.473	0.0162668
766.551	0.0165002
766.629	0.0167119
766.707	0.0167950
766.785	0.0169775
766.863	0.0171877
766.942	0.0172451
767.020	0.0171763
767.098	0.0171382
767.176	0.0171039
767.254	0.0170692
767.332	0.0169800
767.410	0.0169545
767.488	0.0166408
767.567	0.0166814
767.645	0.0166855
767.723	0.0166270
767.801	0.0167361
767.879	0.0168199
767.957	0.0168697
768.035	0.0171124
768.113	0.0172856
768.192	0.0173850
768.270	0.0175734
768.348	0.0176375
768.426	0.0178155
768.504	0.0177869
768.582	0.0177866
768.660	0.0176085
768.738	0.0176608
768.817	0.0174100
768.895	0.0173925
768.973	0.0170871
769.051	0.0168892
769.129	0.0166319
769.207	0.0164484
769.285	0.0163125
769.363	0.0160975
769.442	0.0159106
769.520	0.0158552
769.598	0.0157998
769.676	0.0158069
769.754	0.0160961
769.832	0.0162286
769.910	0.0163906
769.988	0.0164861
770.067	0.0167707
770.145	0.0169779
770.223	0.0171630
770.301	0.0172513
770.379	0.0173375
770.457	0.0174649
770.535	0.0175463
770.613	0.0174583
770.692	0.0174809
770.770	0.0174296
770.848	0.0174399
770.926	0.0172810
771.004	0.0170869
771.082	0.0171606
771.160	0.0170148
771.238	0.0168854
771.317	0.0167739
771.395	0.0170079
771.473	0.0169257
771.551	0.0170657
771.629	0.0169202
771.707	0.0171101
771.785	0.0170361
771.863	0.0172034
771.942	0.0170351
772.020	0.0169277
772.098	0.0170535
772.176	0.0167921
772.254	0.0165796
772.332	0.0163468
772.410	0.0163396
772.488	0.0163367
772.567	0.0162463
772.645	0.0161775
772.723	0.0163747
772.801	0.0162868
772.879	0.0165704
772.957	0.0167658
773.035	0.0168943
773.113	0.0171560
773.192	0.0174222
773.270	0.0176815
773.348	0.0179122
773.426	0.0179182
773.504	0.0181754
773.582	0.0181105
773.660	0.0181448
773.738	0.0181048
773.817	0.0179347
773.895	0.0177064
773.973	0.0174170
774.051	0.0172816
774.129	0.0170482
774.207	0.0168496
774.285	0.0165521
774.363	0.0164732
774.442	0.0162228
774.520	0.0163278
774.598	0.0159602
774.676	0.0161048
774.754	0.0159548
774.832	0.0159132
774.910	0.0158421
774.988	0.0158282
775.067	0.0158376
775.145	0.0159598
775.223	0.0160484
775.301	0.0160036
775.379	0.0159402
775.457	0.0162313
775.535	0.0162816
775.613	0.0165472
775.692	0.0164151
775.770	0.0164005
775.848	0.0166297
775.926	0.0168295
776.004	0.0168983
776.082	0.0171498
776.160	0.0172967
776.238	0.0174928
776.317	0.0175920
776.395	0.0178419
776.473	0.0181301
776.551	0.0181971
776.629	0.0184444
776.707	0.0185912
776.785	0.0185712
776.863	0.0186207
776.942	0.0187354
777.020	0.0185498
777.098	0.0184699
777.176	0.0184082
777.254	0.0182098
777.332	0.0178574
777.410	0.0179044
777.488	0.0177605
777.567	0.0172501
777.645	0.0170468
777.723	0.0168974
777.801	0.0166932
777.879	0.0163734
777.957	0.0162716
778.035	0.0160278
778.113	0.0157597
778.192	0.0156260
778.270	0.0155678
778.348	0.0153799
778.426	0.0154694
778.504	0.0153513
778.582	0.0153639
778.660	0.0153938
778.738	0.0154155
778.817	0.0156056
778.895	0.0155646
778.973	0.0156392
779.051	0.0158200
779.129	0.0158462
779.207	0.0160160
779.285	0.0162061
779.363	0.0161562
779.442	0.0162492
779.520	0.0163040
779.598	0.0163106
779.676	0.0164363
779.754	0.0166046
779.832	0.0166206
779.910	0.0168581
779.988	0.0170284
780.067	0.0172455
780.145	0.0175047
780.223	0.0176369
780.301	0.0177457
780.379	0.0179961
780.457	0.0183198
780.535	0.0184498
780.613	0.0185033
780.692	0.0186507
780.770	0.0187487
780.848	0.0188567
780.926	0.0188350
781.004	0.0188184
781.082	0.0186071
781.160	0.0184934
781.238	0.0185671
781.317	0.0183955
781.395	0.0180441
781.473	0.0177884
781.551	0.0175505
781.629	0.0176228
781.707	0.0172451
781.785	0.0168365
781.863	0.0167090
781.942	0.0165311
782.020	0.0163599
782.098	0.0161476
782.176	0.0160614
782.254	0.0160591
782.332	0.0159349
782.410	0.0158722
782.488	0.0158652
782.567	0.0157970
782.645	0.0158385
782.723	0.0157672
782.801	0.0158611
782.879	0.0158678
782.957	0.0158636
783.035	0.0158646
783.113	0.0158827
783.192	0.0160876
783.270	0.0161722
783.348	0.0162823
783.426	0.0164912
783.504	0.0163377
783.582	0.0164863
783.660	0.0165794
783.738	0.0165269
783.817	0.0166657
783.895	0.0165311
783.973	0.0165515
784.051	0.0167414
784.129	0.0165774
784.207	0.0165512
784.285	0.0165252
784.363	0.0165228
784.442	0.0165791
784.520	0.0166077
784.598	0.0166989
784.676	0.0166033
784.754	0.0166239
784.832	0.0166383
784.910	0.0167003
784.988	0.0168922
785.067	0.0169275
785.145	0.0171267
785.223	0.0171893
785.301	0.0174604
785.379	0.0176686
785.457	0.0179046
785.535	0.0180722
785.613	0.0183028
785.692	0.0184295
785.770	0.0187154
785.848	0.0187682
785.926	0.0189153
786.004	0.0189467
786.082	0.0190616
786.160	0.0189898
786.238	0.0189484
786.317	0.0187424
786.395	0.0186700
786.473	0.0185956
786.551	0.0180893
786.629	0.0178572
786.707	0.0177985
786.785	0.0173724
786.863	0.0171418
786.942	0.0167914
787.020	0.0164427
787.098	0.0162489
787.176	0.0159666
787.254	0.0156464
787.332	0.0155086
787.410	0.0152203
787.488	0.0150100
787.567	0.0148196
787.645	0.0147134
787.723	0.0147106
787.801	0.0147864
787.879	0.0146743
787.957	0.0146557
788.035	0.0147652
788.113	0.0149954
788.192	0.0152337
788.270	0.0153551
788.348	0.0155416
788.426	0.0158932
788.504	0.0161147
788.582	0.0164349
788.660	0.0165569
788.738	0.0169005
788.817	0.0171408
788.895	0.0173109
788.973	0.0174572
789.051	0.0176725
789.129	0.0178452
789.207	0.0177789
789.285	0.0178054
789.363	0.0179606
789.442	0.0176758
789.520	0.0176357
789.598	0.0174644
789.676	0.0173460
789.754	0.0171667
789.832	0.0171158
789.910	0.0170003
789.988	0.0168851
790.067	0.0167357
790.145	0.0166595
790.223	0.0167929
790.301	0.0166972
790.379	0.0166187
790.457	0.0166524
790.535	0.0168965
790.613	0.0168329
790.692	0.0169423
790.770	0.0172611
790.848	0.0172832
790.926	0.0175629
791.004	0.0178651
791.082	0.0180838
791.160	0.0182970
791.238	0.0187424
791.317	0.0187141
791.395	0.0189977
791.473	0.0192731
791.551	0.0191487
791.629	0.0190218
791.707	0.0188708
791.785	0.0187737
791.863	0.0183797
791.942	0.0180924
792.020	0.0178042
792.098	0.0174207
792.176	0.0167814
792.254	0.0162206
792.332	0.0158310
792.410	0.0153377
792.488	0.0149271
792.567	0.0143029
792.645	0.0140777
792.723	0.0140391
792.801	0.0141607
792.879	0.0139022
792.957	0.0139225
793.035	0.0142176
793.113	0.0145452
793.192	0.0148996
793.270	0.0153541
793.348	0.0157317
793.426	0.0159019
793.504	0.0165037
793.582	0.0169147
793.660	0.0172192
793.738	0.0174849
793.817	0.0176512
793.895	0.0177634
793.973	0.0178527
794.051	0.0177884
794.129	0.0178876
794.207	0.0176622
794.285	0.0174607
794.363	0.0172878
794.442	0.0171303
794.520	0.0170981
794.598	0.0167728
794.676	0.0166869
794.754	0.0165553
794.832	0.0164667
794.910	0.0166589
794.988	0.0166509
795.067	0.0166516
795.145	0.0166985
795.223	0.0167644
795.301	0.0169679
795.379	0.0171111
795.457	0.0172105
795.535	0.0172975
795.613	0.0174072
795.692	0.0175507
795.770	0.0176358
795.848	0.0177238
795.926	0.0177015
796.004	0.0179714
796.082	0.0178782
796.160	0.0177897
796.238	0.0179995
796.317	0.0181661
796.395	0.0183114
796.473	0.0183528
796.551	0.0184830
796.629	0.0186337
796.707	0.0186708
796.785	0.0187353
796.863	0.0187099
796.942	0.0187967
797.020	0.0186237
797.098	0.0184079
797.176	0.0180968
797.254	0.0178595
797.332	0.0176234
797.410	0.0170731
797.488	0.0165566
797.567	0.0160253
797.645	0.0156475
797.723	0.0153458
797.801	0.0149006
797.879	0.0144576
797.957	0.0142818
798.035	0.0142367
798.113	0.0140932
798.192	0.0141154
798.270	0.0143159
798.348	0.0143366
798.426	0.0145761
798.504	0.0150137
798.582	0.0153860
798.660	0.0157505
798.738	0.0159589
798.817	0.0163165
798.895	0.0166673
798.973	0.0170578
799.051	0.0173604
799.129	0.0174864
799.207	0.0175789
799.285	0.0175009
799.363	0.0175775
799.442	0.0172704
799.520	0.0172662
799.598	0.0172193
799.676	0.0170219
799.754	0.0168432
799.832	0.0168895
799.910	0.0168013
799.988	0.0168054
800.067	0.0168958
800.145	0.0170250
800.223	0.0169766
800.301	0.0170884
800.379	0.0173730
800.457	0.0174752
800.535	0.0177341
800.613	0.0179045
800.692	0.0180305
800.770	0.0181615
800.848	0.0181512
800.926	0.0180538
801.004	0.0181201
801.082	0.0180394
801.160	0.0177596
801.238	0.0175702
801.317	0.0173286
801.395	0.0169325
801.473	0.0166835
801.551	0.0164373
801.629	0.0161385
801.707	0.0160937
801.785	0.0159825
801.863	0.0159091
801.942	0.0161268
802.020	0.0163318
802.098	0.0163017
802.176	0.0165076
802.254	0.0167459
802.332	0.0170435
802.410	0.0175317
802.488	0.0178340
802.567	0.0178442
802.645	0.0181205
802.723	0.0182929
802.801	0.0183792
802.879	0.0183125
802.957	0.0181310
803.035	0.0181776
803.113	0.0180518
803.192	0.0177827
803.270	0.0177573
803.348	0.0173804
803.426	0.0170100
803.504	0.0169921
803.582	0.0167185
803.660	0.0163977
803.738	0.0162132
803.817	0.0160373
803.895	0.0157771
803.973	0.0157901
804.051	0.0155670
804.129	0.0154356
804.207	0.0153383
804.285	0.0152753
804.363	0.0154561
804.442	0.0153909
804.520	0.0154100
804.598	0.0153738
804.676	0.0156169
804.754	0.0156501
804.832	0.0157542
804.910	0.0159623
804.988	0.0160703
805.067	0.0161881
805.145	0.0163641
805.223	0.0164173
805.301	0.0164500
805.379	0.0166116
805.457	0.0168240
805.535	0.0170989
805.613	0.0169663
805.692	0.0172034
805.770	0.0173423
805.848	0.0174641
805.926	0.0174028
806.004	0.0174873
806.082	0.0177332
806.160	0.0176000
806.238	0.0178802
806.317	0.0179526
806.395	0.0178932
806.473	0.0179292
806.551	0.0179356
806.629	0.0180393
806.707	0.0179458
806.785	0.0177586
806.863	0.0175723
806.942	0.0173409
807.020	0.0171987
807.098	0.0171743
807.176	0.0169256
807.254	0.0167129
807.332	0.0166116
807.410	0.0164175
807.488	0.0162646
807.567	0.0163245
807.645	0.0164609
807.723	0.0166614
807.801	0.0167838
807.879	0.0169453
807.957	0.0172511
808.035	0.0174976
808.113	0.0177847
808.192	0.0180270
808.270	0.0182558
808.348	0.0185762
808.426	0.0188458
808.504	0.0187128
808.582	0.0188728
808.660	0.0187436
808.738	0.0185604
808.817	0.0182419
808.895	0.0180740
808.973	0.0177591
809.051	0.0172469
809.129	0.0168206
809.207	0.0163667
809.285	0.0159537
809.363	0.0154562
809.442	0.0151058
809.520	0.0148186
809.598	0.0145955
809.676	0.0142425
809.754	0.0142686
809.832	0.0140757
809.910	0.0141666
809.988	0.0144456
810.067	0.0146444
810.145	0.0148851
810.223	0.0150632
810.301	0.0156385
810.379	0.0159437
810.457	0.0161513
810.535	0.0165514
810.613	0.0169219
810.692	0.0172788
810.770	0.0172891
810.848	0.0175452
810.926	0.0176973
811.004	0.0178172
811.082	0.0178506
811.160	0.0178848
811.238	0.0177705
811.317	0.0176361
811.395	0.0175185
811.473	0.0174329
811.551	0.0174267
811.629	0.0173598
811.707	0.0170956
811.785	0.0170511
811.863	0.0171201
811.942	0.0171942
812.020	0.0171411
812.098	0.0171484
812.176	0.0172758
812.254	0.0173693
812.332	0.0173712
812.410	0.0176094
812.488	0.0175155
812.567	0.0178304
812.645	0.0178134
812.723	0.0177587
812.801	0.0176883
812.879	0.0175801
812.957	0.0174372
813.035	0.0172415
813.113	0.0171244
813.192	0.0166682
813.270	0.0167095
813.348	0.0165011
813.426	0.0164385
813.504	0.0163123
813.582	0.0162283
813.660	0.0162498
813.738	0.0163154
813.817	0.0163048
813.895	0.0166374
813.973	0.0168710
814.051	0.0170018
814.129	0.0172338
814.207	0.0174821
814.285	0.0177184
814.363	0.0177357
814.442	0.0178729
814.520	0.0179201
814.598	0.0180782
814.676	0.0179254
814.754	0.0178567
814.832	0.0176829
814.910	0.0174468
814.988	0.0171458
815.067	0.0169437
815.145	0.0165869
815.223	0.0162029
815.301	0.0160737
815.379	0.0158193
815.457	0.0156641
815.535	0.0153498
815.613	0.0152421
815.692	0.0153596
815.770	0.0152570
815.848	0.0151745
815.926	0.0151369
816.004	0.0151531
816.082	0.0153764
816.160	0.0153509
816.238	0.0154146
816.317	0.0156832
816.395	0.0157382
816.473	0.0158788
816.551	0.0158519
816.629	0.0160928
816.707	0.0164050
816.785	0.0165880
816.863	0.0165771
816.942	0.0168520
817.020	0.0168827
817.098	0.0169958
817.176	0.0171967
817.254	0.0172029
817.332	0.0174266
817.410	0.0175220
817.488	0.0175002
817.567	0.0177306
817.645	0.0176559
817.723	0.0178798
817.801	0.0181077
817.879	0.0180016
817.957	0.0179103
818.035	0.0179090
818.113	0.0177953
818.192	0.0178087
818.270	0.0178873
818.348	0.0178979
818.426	0.0179230
818.504	0.0179459
818.582	0.0178708
818.660	0.0178939
818.738	0.0178735
818.817	0.0178786
818.895	0.0175968
818.973	0.0174306
819.051	0.0173812
819.129	0.0172932
819.207	0.0170031
819.285	0.0168945
819.363	0.0166341
819.442	0.0166283
819.520	0.0165411
819.598	0.0164599
819.676	0.0164027
819.754	0.0163378
819.832	0.0164528
819.910	0.0164551
819.988	0.0167121
820.067	0.0167888
820.145	0.0169039
820.223	0.0170520
820.301	0.0170794
820.379	0.0173485
820.457	0.0173957
820.535	0.0174569
820.613	0.0176102
820.692	0.0174900
820.770	0.0174438
820.848	0.0174255
820.926	0.0171796
821.004	0.0170042
821.082	0.0166081
821.160	0.0163441
821.238	0.0163761
821.317	0.0158683
821.395	0.0156280
821.473	0.0154479
821.551	0.0151889
821.629	0.0151241
821.707	0.0150045
821.785	0.0147797
821.863	0.0148776
821.942	0.0150078
822.020	0.0151798
822.098	0.0153910
822.176	0.0155776
822.254	0.0157198
822.332	0.0160273
822.410	0.0165208
822.488	0.0166313
822.567	0.0170430
822.645	0.0172153
822.723	0.0175934
822.801	0.0178079
822.879	0.0179876
822.957	0.0181868
823.035	0.0180817
823.113	0.0181773
823.192	0.0183610
823.270	0.0181835
823.348	0.0180563
823.426	0.0179422
823.504	0.0178883
823.582	0.0176270
823.660	0.0174216
823.738	0.0174523
823.817	0.0171973
823.895	0.0170676
823.973	0.0170493
824.051	0.0169971
824.129	0.0170870
824.207	0.0170609
824.285	0.0171410
824.363	0.0173705
824.442	0.0173732
824.520	0.0174569
824.598	0.0174203
824.676	0.0174646
824.754	0.0175171
824.832	0.0173985
824.910	0.0173617
824.988	0.0173501
825.067	0.0171191
825.145	0.0169318
825.223	0.0168280
825.301	0.0167053
825.379	0.0165706
825.457	0.0165469
825.535	0.0164597
825.613	0.0164884
825.692	0.0163924
825.770	0.0164159
825.848	0.0164986
825.926	0.0165934
826.004	0.0168703
826.082	0.0170758
826.160	0.0172557
826.238	0.0174433
826.317	0.0175864
826.395	0.0178326
826.473	0.0179056
826.551	0.0179369
826.629	0.0179370
826.707	0.0178512
826.785	0.0178014
826.863	0.0175835
826.942	0.0173708
827.020	0.0171617
827.098	0.0168134
827.176	0.0165369
827.254	0.0162758
827.332	0.0161141
827.410	0.0157450
827.488	0.0155888
827.567	0.0152290
827.645	0.0152630
827.723	0.0151860
827.801	0.0150613
827.879	0.0152058
827.957	0.0152711
828.035	0.0154270
828.113	0.0154960
828.192	0.0156271
828.270	0.0159892
828.348	0.0161623
828.426	0.0163335
828.504	0.0165176
828.582	0.0166227
828.660	0.0166973
828.738	0.0169289
828.817	0.0171115
828.895	0.0172261
828.973	0.0174405
829.051	0.0172952
829.129	0.0174382
829.207	0.0174422
829.285	0.0174760
829.363	0.0174062
829.442	0.0174174
829.520	0.0173535
829.598	0.0175275
829.676	0.0174162
829.754	0.0173731
829.832	0.0174771
829.910	0.0176199
829.988	0.0175102
830.067	0.0175553
830.145	0.0176580
830.223	0.0176480
830.301	0.0176758
830.379	0.0177511
830.457	0.0177462
830.535	0.0176077
830.613	0.0175120
830.692	0.0175623
830.770	0.0173116
830.848	0.0172318
830.926	0.0171227
831.004	0.0169946
831.082	0.0169218
831.160	0.0166552
831.238	0.0165208
831.317	0.0165749
831.395	0.0164685
831.473	0.0164230
831.551	0.0162820
831.629	0.0164653
831.707	0.0165367
831.785	0.0165611
831.863	0.0167017
831.942	0.0167963
832.020	0.0169621
832.098	0.0172799
832.176	0.0173289
832.254	0.0174191
832.332	0.0176224
832.410	0.0175842
832.488	0.0175207
832.567	0.0174617
832.645	0.0174191
832.723	0.0171608
832.801	0.0170748
832.879	0.0168822
832.957	0.0167184
833.035	0.0165809
833.113	0.0163744
833.192	0.0160862
833.270	0.0160174
833.348	0.0159081
833.426	0.0158356
833.504	0.0157304
833.582	0.0158057
833.660	0.0155904
833.738	0.0156638
833.817	0.0156708
833.895	0.0157104
833.973	0.0159255
834.051	0.0160293
834.129	0.0159529
834.207	0.0160626
834.285	0.0162543
834.363	0.0163232
834.442	0.0164754
834.520	0.0166080
834.598	0.0166035
834.676	0.0168638
834.754	0.0169777
834.832	0.0169649
834.910	0.0171630
834.988	0.0170895
835.067	0.0171178
835.145	0.0171831
835.223	0.0172865
835.301	0.0171771
835.379	0.0174192
835.457	0.0174899
835.535	0.0175049
835.613	0.0172885
835.692	0.0173251
835.770	0.0174781
835.848	0.0173713
835.926	0.0172280
836.004	0.0173050
836.082	0.0172615
836.160	0.0173376
836.238	0.0172682
836.317	0.0171101
836.395	0.0172755
836.473	0.0171819
836.551	0.0171120
836.629	0.0172176
836.707	0.0171107
836.785	0.0170802
836.863	0.0171764
836.942	0.0171799
837.020	0.0169971
837.098	0.0170164
837.176	0.0171437
837.254	0.0169517
837.332	0.0169376
837.410	0.0168185
837.488	0.0168613
837.567	0.0168889
837.645	0.0168256
837.723	0.0169558
837.801	0.0169719
837.879	0.0170972
837.957	0.0171586
838.035	0.0172824
838.113	0.0172264
838.192	0.0173840
838.270	0.0172876
838.348	0.0173880
838.426	0.0172784
838.504	0.0172392
838.582	0.0171142
838.660	0.0171730
838.738	0.0171666
838.817	0.0170206
838.895	0.0169843
838.973	0.0169260
839.051	0.0168816
839.129	0.0165848
839.207	0.0166656
839.285	0.0164908
839.363	0.0163210
839.442	0.0162447
839.520	0.0162052
839.598	0.0161816
839.676	0.0159893
839.754	0.0159499
839.832	0.0158488
839.910	0.0159599
839.988	0.0160072
840.067	0.0158921
840.145	0.0159624
840.223	0.0160397
840.301	0.0159523
840.379	0.0160673
840.457	0.0162778
840.535	0.0162868
840.613	0.0163822
840.692	0.0165637
840.770	0.0166217
840.848	0.0168362
840.926	0.0169148
841.004	0.0169625
841.082	0.0170631
841.160	0.0171751
841.238	0.0173171
841.317	0.0173801
841.395	0.0174499
841.473	0.0174951
841.551	0.0176727
841.629	0.0176209
841.707	0.0176801
841.785	0.0177376
841.863	0.0177512
841.942	0.0176346
842.020	0.0176810
842.098	0.0176273
842.176	0.0176038
842.254	0.0173900
842.332	0.0173999
842.410	0.0174061
842.488	0.0172731
842.567	0.0172826
842.645	0.0170910
842.723	0.0171102
842.801	0.0171627
842.879	0.0168702
842.957	0.0170325
843.035	0.0170021
843.113	0.0169049
843.192	0.0168768
843.270	0.0168391
843.348	0.0166021
843.426	0.0168628
843.504	0.0168199
843.582	0.0169821
843.660	0.0169865
843.738	0.0170031
843.817	0.0171391
843.895	0.0171512
843.973	0.0170356
844.051	0.0171475
844.129	0.0171404
844.207	0.0172191
844.285	0.0172855
844.363	0.0173985
844.442	0.0174939
844.520	0.0175891
844.598	0.0173594
844.676	0.0173774
844.754	0.0173796
844.832	0.0173099
844.910	0.0171220
844.988	0.0170143
845.067	0.0167773
845.145	0.0166148
845.223	0.0165450
845.301	0.0163165
845.379	0.0163311
845.457	0.0161398
845.535	0.0160363
845.613	0.0160159
845.692	0.0158609
845.770	0.0158729
845.848	0.0159509
845.926	0.0159258
846.004	0.0159111
846.082	0.0159989
846.160	0.0160704
846.238	0.0161597
846.317	0.0162648
846.395	0.0164567
846.473	0.0165297
846.551	0.0166772
846.629	0.0166747
846.707	0.0167725
846.785	0.0169524
846.863	0.0170406
846.942	0.0171803
847.020	0.0172462
847.098	0.0172215
847.176	0.0172160
847.254	0.0171608
847.332	0.0172546
847.410	0.0172899
847.488	0.0171573
847.567	0.0173219
847.645	0.0172572
847.723	0.0170193
847.801	0.0170631
847.879	0.0172584
847.957	0.0172545
848.035	0.0170539
848.113	0.0172149
848.192	0.0172206
848.270	0.0171008
848.348	0.0171431
848.426	0.0172280
848.504	0.0170905
848.582	0.0171823
848.660	0.0172763
848.738	0.0173735
848.817	0.0172287
848.895	0.0171355
848.973	0.0172050
849.051	0.0171324
849.129	0.0170751
849.207	0.0170744
849.285	0.0171549
849.363	0.0170294
849.442	0.0169929
849.520	0.0169867
849.598	0.0170513
849.676	0.0170721
849.754	0.0171400
849.832	0.0172117
849.910	0.0172183
849.988	0.0173180
850.067	0.0172893
850.145	0.0172108
850.223	0.0172703
850.301	0.0172395
850.379	0.0172947
850.457	0.0172152
850.535	0.0172955
850.613	0.0172409
850.692	0.0172207
850.770	0.0171757
850.848	0.0169149
850.926	0.0170210
851.004	0.0167997
851.082	0.0168618
851.160	0.0166188
851.238	0.0166447
851.317	0.0165617
851.395	0.0163273
851.473	0.0163028
851.551	0.0161884
851.629	0.0161167
851.707	0.0160423
851.785	0.0158930
851.863	0.0159930
851.942	0.0159285
852.020	0.0159572
852.098	0.0160163
852.176	0.0160143
852.254	0.0161362
852.332	0.0162091
852.410	0.0161559
852.488	0.0161691
852.567	0.0162885
852.645	0.0164868
852.723	0.0165472
852.801	0.0167702
852.879	0.0166991
852.957	0.0169038
853.035	0.0167899
853.113	0.0169181
853.192	0.0171064
853.270	0.0170990
853.348	0.0172832
853.426	0.0172240
853.504	0.0171761
853.582	0.0171865
853.660	0.0172941
853.738	0.0173199
853.817	0.0172514
853.895	0.0173106
853.973	0.0172727
854.051	0.0172792
854.129	0.0170255
854.207	0.0170954
854.285	0.0169494
854.363	0.0168584
854.442	0.0170135
854.520	0.0168360
854.598	0.0168886
854.676	0.0169830
854.754	0.0168455
854.832	0.0169350
854.910	0.0171089
854.988	0.0171108
855.067	0.0170656
855.145	0.0171079
855.223	0.0172255
855.301	0.0171766
855.379	0.0172366
855.457	0.0173560
855.535	0.0173389
855.613	0.0173921
855.692	0.0173540
855.770	0.0174081
855.848	0.0174026
855.926	0.0174762
856.004	0.0174348
856.082	0.0173421
856.160	0.0174455
856.238	0.0171767
856.317	0.0171717
856.395	0.0172920
856.473	0.0171385
856.551	0.0172128
856.629	0.0172393
856.707	0.0171558
856.785	0.0170300
856.863	0.0169538
856.942	0.0171594
857.020	0.0170351
857.098	0.0168441
857.176	0.0169415
857.254	0.0167640
857.332	0.0167612
857.410	0.0164618
857.488	0.0164745
857.567	0.0164629
857.645	0.0163171
857.723	0.0162228
857.801	0.0160544
857.879	0.0158729
857.957	0.0159382
858.035	0.0159722
858.113	0.0159280
858.192	0.0158921
858.270	0.0159527
858.348	0.0160182
858.426	0.0160322
858.504	0.0161848
858.582	0.0161913
858.660	0.0163375
858.738	0.0164411
858.817	0.0166421
858.895	0.0167731
858.973	0.0169978
859.051	0.0169923
859.129	0.0171880
859.207	0.0170962
859.285	0.0173959
859.363	0.0174172
859.442	0.0173351
859.520	0.0174196
859.598	0.0173818
859.676	0.0173600
859.754	0.0173536
859.832	0.0174049
859.910	0.0171378
859.988	0.0171689
860.067	0.0171976
860.145	0.0170328
860.223	0.0169928
860.301	0.0170290
860.379	0.0170477
860.457	0.0167810
860.535	0.0168546
860.613	0.0168468
860.692	0.0168414
860.770	0.0169189
860.848	0.0169348
860.926	0.0170922
861.004	0.0170811
861.082	0.0171808
861.160	0.0171181
861.238	0.0172346
861.317	0.0173552
861.395	0.0173932
861.473	0.0175163
861.551	0.0174167
861.629	0.0173739
861.707	0.0174741
861.785	0.0173012
861.863	0.0171814
861.942	0.0172266
862.020	0.0172766
862.098	0.0170849
862.176	0.0169077
862.254	0.0170676
862.332	0.0169279
862.410	0.0169952
862.488	0.0170232
862.567	0.0169069
862.645	0.0168958
862.723	0.0171537
862.801	0.0170147
862.879	0.0171597
862.957	0.0171407
863.035	0.0171404
863.113	0.0172359
863.192	0.0170708
863.270	0.0171715
863.348	0.0171555
863.426	0.0170607
863.504	0.0170798
863.582	0.0169688
863.660	0.0168443
863.738	0.0166815
863.817	0.0166589
863.895	0.0165035
863.973	0.0164587
864.051	0.0163251
864.129	0.0162510
864.207	0.0161836
864.285	0.0161713
864.363	0.0160064
864.442	0.0161195
864.520	0.0162559
864.598	0.0162007
864.676	0.0161950
864.754	0.0163410
864.832	0.0165633
864.910	0.0165493
864.988	0.0165128
865.067	0.0166914
865.145	0.0168894
865.223	0.0170566
865.301	0.0171806
865.379	0.0172424
865.457	0.0173115
865.535	0.0173732
865.613	0.0173751
865.692	0.0173209
865.770	0.0174151
865.848	0.0175626
865.926	0.0172125
866.004	0.0172312
866.082	0.0172317
866.160	0.0170724
866.238	0.0169774
866.317	0.0169543
866.395	0.0166710
866.473	0.0168634
866.551	0.0167410
866.629	0.0168348
866.707	0.0167104
866.785	0.0166407
866.863	0.0166436
866.942	0.0167377
867.020	0.0167866
867.098	0.0167676
867.176	0.0168555
867.254	0.0171230
867.332	0.0170238
867.410	0.0171506
867.488	0.0173425
867.567	0.0173078
867.645	0.0173457
867.723	0.0174175
867.801	0.0174837
867.879	0.0174844
867.957	0.0174266
868.035	0.0172370
868.113	0.0173397
868.192	0.0173360
868.270	0.0171643
868.348	0.0171406
868.426	0.0170399
868.504	0.0169362
868.582	0.0169392
868.660	0.0167164
868.738	0.0165913
868.817	0.0166296
868.895	0.0166550
868.973	0.0167881
869.051	0.0166210
869.129	0.0167207
869.207	0.0167642
869.285	0.0168643
869.363	0.0169006
869.442	0.0167886
869.520	0.0169248
869.598	0.0168607
869.676	0.0169035
869.754	0.0168571
869.832	0.0170354
869.910	0.0169548
869.988	0.0168156
870.067	0.0167306
870.145	0.0168410
870.223	0.0167404
870.301	0.0167001
870.379	0.0167062
870.457	0.0166215
870.535	0.0165805
870.613	0.0164408
870.692	0.0164035
870.770	0.0163784
870.848	0.0163890
870.926	0.0163674
871.004	0.0162603
871.082	0.0163869
871.160	0.0165074
871.238	0.0163746
871.317	0.0166089
871.395	0.0166570
871.473	0.0165842
871.551	0.0166621
871.629	0.0167750
871.707	0.0167917
871.785	0.0169854
871.863	0.0169823
871.942	0.0168357
872.020	0.0169782
872.098	0.0169820
872.176	0.0170692
872.254	0.0170444
872.332	0.0169448
872.410	0.0169366
872.488	0.0168810
872.567	0.0169894
872.645	0.0170611
872.723	0.0168922
872.801	0.0170866
872.879	0.0169392
872.957	0.0170252
873.035	0.0169283
873.113	0.0170308
873.192	0.0170318
873.270	0.0172805
873.348	0.0170900
873.426	0.0172227
873.504	0.0173055
873.582	0.0172729
873.660	0.0173708
873.738	0.0174255
873.817	0.0174417
873.895	0.0175365
873.973	0.0175973
874.051	0.0174576
874.129	0.0174271
874.207	0.0174286
874.285	0.0174194
874.363	0.0173869
874.442	0.0171861
874.520	0.0171165
874.598	0.0170322
874.676	0.0170422
874.754	0.0168534
874.832	0.0166284
874.910	0.0166686
874.988	0.0166930
875.067	0.0164632
875.145	0.0165578
875.223	0.0165509
875.301	0.0164328
875.379	0.0164075
875.457	0.0164082
875.535	0.0165739
875.613	0.0165744
875.692	0.0165281
875.770	0.0167095
875.848	0.0167307
875.926	0.0168256
876.004	0.0167983
876.082	0.0166644
876.160	0.0167474
876.238	0.0168758
876.317	0.0167728
876.395	0.0168057
876.473	0.0167957
876.551	0.0166270
876.629	0.0168174
876.707	0.0169090
876.785	0.0166326
876.863	0.0167467
876.942	0.0166337
877.020	0.0167612
877.098	0.0167244
877.176	0.0166974
877.254	0.0166074
877.332	0.0167934
877.410	0.0169254
877.488	0.0168839
877.567	0.0168962
877.645	0.0168357
877.723	0.0169086
877.801	0.0169983
877.879	0.0171478
877.957	0.0170625
878.035	0.0170411
878.113	0.0170827
878.192	0.0170931
878.270	0.0171464
878.348	0.0171449
878.426	0.0171858
878.504	0.0170090
878.582	0.0170884
878.660	0.0170243
878.738	0.0170531
878.817	0.0169305
878.895	0.0170518
878.973	0.0170329
879.051	0.0170484
879.129	0.0167496
879.207	0.0167674
879.285	0.0168986
879.363	0.0168262
879.442	0.0168227
879.520	0.0169001
879.598	0.0167647
879.676	0.0167824
879.754	0.0169637
879.832	0.0169328
879.910	0.0169398
879.988	0.0169259
880.067	0.0169981
880.145	0.0169057
880.223	0.0169324
880.301	0.0170174
880.379	0.0171655
880.457	0.0170558
880.535	0.0169734
880.613	0.0170102
880.692	0.0169620
880.770	0.0168407
880.848	0.0168804
880.926	0.0167290
881.004	0.0168324
881.082	0.0168522
881.160	0.0168087
881.238	0.0167842
881.317	0.0167294
881.395	0.0168544
881.473	0.0167979
881.551	0.0169512
881.629	0.0169342
881.707	0.0169575
881.785	0.0170179
881.863	0.0171161
881.942	0.0170574
882.020	0.0171926
882.098	0.0172325
882.176	0.0172652
882.254	0.0173430
882.332	0.0173521
882.410	0.0172902
882.488	0.0172637
882.567	0.0174502
882.645	0.0174730
882.723	0.0172555
882.801	0.0172105
882.879	0.0171011
882.957	0.0170548
883.035	0.0170930
883.113	0.0170072
883.192	0.0169936
883.270	0.0168496
883.348	0.0168753
883.426	0.0167351
883.504	0.0167692
883.582	0.0167412
883.660	0.0167155
883.738	0.0166396
883.817	0.0168451
883.895	0.0166885
883.973	0.0165190
884.051	0.0166555
884.129	0.0165147
884.207	0.0165711
884.285	0.0166639
884.363	0.0164758
884.442	0.0165844
884.520	0.0164938
884.598	0.0167154
884.676	0.0165361
884.754	0.0166604
884.832	0.0166364
884.910	0.0167372
884.988	0.0167502
885.067	0.0165397
885.145	0.0166404
885.223	0.0168074
885.301	0.0167554
885.379	0.0167722
885.457	0.0166524
885.535	0.0167551
885.613	0.0168877
885.692	0.0168966
885.770	0.0169340
885.848	0.0170435
885.926	0.0169070
886.004	0.0169778
886.082	0.0173753
886.160	0.0172972
886.238	0.0171902
886.317	0.0172983
886.395	0.0174087
886.473	0.0173043
886.551	0.0172097
886.629	0.0173560
886.707	0.0173594
886.785	0.0173447
886.863	0.0173082
886.942	0.0172880
887.020	0.0171741
887.098	0.0171838
887.176	0.0171797
887.254	0.0170492
887.332	0.0170637
887.410	0.0169394
887.488	0.0168493
887.567	0.0170268
887.645	0.0170058
887.723	0.0169951
887.801	0.0169975
887.879	0.0169183
887.957	0.0169778
888.035	0.0170570
888.113	0.0170862
888.192	0.0170853
888.270	0.0170453
888.348	0.0171112
888.426	0.0171967
888.504	0.0171886
888.582	0.0171243
888.660	0.0171098
888.738	0.0171345
888.817	0.0171390
888.895	0.0170209
888.973	0.0171249
889.051	0.0168006
889.129	0.0166061
889.207	0.0167554
889.285	0.0165751
889.363	0.0167640
889.442	0.0165770
889.520	0.0165385
889.598	0.0165934
889.676	0.0165174
889.754	0.0164294
889.832	0.0164184
889.910	0.0164355
889.988	0.0162827
890.067	0.0164284
890.145	0.0163702
890.223	0.0164259
890.301	0.0163354
890.379	0.0165037
890.457	0.0165718
890.535	0.0164474
890.613	0.0165112
890.692	0.0166429
890.770	0.0167210
890.848	0.0165145
890.926	0.0166296
891.004	0.0167612
891.082	0.0168674
891.160	0.0167424
891.238	0.0168417
891.317	0.0168997
891.395	0.0169200
891.473	0.0168723
891.551	0.0167807
891.629	0.0169331
891.707	0.0169318
891.785	0.0169906
891.863	0.0169739
891.942	0.0171435
892.020	0.0169904
892.098	0.0170053
892.176	0.0169830
892.254	0.0170206
892.332	0.0171663
892.410	0.0171352
892.488	0.0169688
892.567	0.0171428
892.645	0.0171100
892.723	0.0170979
892.801	0.0170591
892.879	0.0171026
892.957	0.0170901
893.035	0.0171636
893.113	0.0172372
893.192	0.0171306
893.270	0.0171333
893.348	0.0171720
893.426	0.0172105
893.504	0.0171224
893.582	0.0171446
893.660	0.0169637
893.738	0.0169415
893.817	0.0170842
893.895	0.0170511
893.973	0.0170190
894.051	0.0170209
894.129	0.0168264
894.207	0.0168020
894.285	0.0167808
894.363	0.0166479
894.442	0.0165780
894.520	0.0166099
894.598	0.0165584
894.676	0.0165473
894.754	0.0165649
894.832	0.0163885
894.910	0.0165274
894.988	0.0165685
895.067	0.0165639
895.145	0.0166473
895.223	0.0165429
895.301	0.0165703
895.379	0.0167274
895.457	0.0166657
895.535	0.0165604
895.613	0.0165256
895.692	0.0166367
895.770	0.0166534
895.848	0.0167522
895.926	0.0166771
896.004	0.0168806
896.082	0.0168362
896.160	0.0168059
896.238	0.0169180
896.317	0.0167672
896.395	0.0169366
896.473	0.0169941
896.551	0.0168857
896.629	0.0169746
896.707	0.0170410
896.785	0.0169502
896.863	0.0169645
896.942	0.0170416
897.020	0.0169706
897.098	0.0169904
897.176	0.0168437
897.254	0.0167966
897.332	0.0169347
897.410	0.0169215
897.488	0.0168014
897.567	0.0167735
897.645	0.0169352
897.723	0.0168309
897.801	0.0168717
897.879	0.0167351
897.957	0.0169057
898.035	0.0169434
898.113	0.0168886
898.192	0.0168946
898.270	0.0170212
898.348	0.0169873
898.426	0.0170584
898.504	0.0170961
898.582	0.0170493
898.660	0.0170818
898.738	0.0171605
898.817	0.0171667
898.895	0.0171590
898.973	0.0171255
899.051	0.0170741
899.129	0.0171088
899.207	0.0170970
899.285	0.0171375
899.363	0.0169067
899.442	0.0169096
899.520	0.0167699
899.598	0.0169536
899.676	0.0168830
899.754	0.0168989
899.832	0.0167326
899.910	0.0168996
899.988	0.0168610
900.067	0.0168089
900.145	0.0165795
900.223	0.0165150
900.301	0.0166755
900.379	0.0166930
900.457	0.0165883
900.535	0.0166096
900.613	0.0168763
900.692	0.0167535
900.770	0.0167802
900.848	0.0166695
900.926	0.0167729
901.004	0.0167638
901.082	0.0168106
901.160	0.0165952
901.238	0.0165076
901.317	0.0165160
901.395	0.0165404
901.473	0.0165405
901.551	0.0165202
901.629	0.0164227
901.707	0.0164387
901.785	0.0164527
901.863	0.0165211
901.942	0.0166509
902.020	0.0167058
902.098	0.0167243
902.176	0.0166160
902.254	0.0166364
902.332	0.0168903
902.410	0.0168781
902.488	0.0170957
902.567	0.0170821
902.645	0.0171732
902.723	0.0171497
902.801	0.0170640
902.879	0.0171227
902.957	0.0172293
903.035	0.0172630
903.113	0.0172818
903.192	0.0171008
903.270	0.0171307
903.348	0.0170425
903.426	0.0171714
903.504	0.0170135
903.582	0.0170134
903.660	0.0169019
903.738	0.0169125
903.817	0.0168790
903.895	0.0170113
903.973	0.0168970
904.051	0.0169060
904.129	0.0170806
904.207	0.0170142
904.285	0.0169722
904.363	0.0169901
904.442	0.0171673
904.520	0.0170838
904.598	0.0170387
904.676	0.0170420
904.754	0.0169961
904.832	0.0171032
904.910	0.0171623
904.988	0.0172237
905.067	0.0172485
905.145	0.0172172
905.223	0.0171356
905.301	0.0171252
905.379	0.0170737
905.457	0.0171571
905.535	0.0171465
905.613	0.0170246
905.692	0.0169622
905.770	0.0168976
905.848	0.0166687
905.926	0.0168188
906.004	0.0165292
906.082	0.0165712
906.160	0.0164454
906.238	0.0163490
906.317	0.0164346
906.395	0.0163509
906.473	0.0164297
906.551	0.0166158
906.629	0.0164713
906.707	0.0165948
906.785	0.0165558
906.863	0.0167471
906.942	0.0167274
907.020	0.0166846
907.098	0.0167178
907.176	0.0168276
907.254	0.0168163
907.332	0.0167692
907.410	0.0169516
907.488	0.0169068
907.567	0.0169109
907.645	0.0170779
907.723	0.0168897
907.801	0.0169983
907.879	0.0170609
907.957	0.0169656
908.035	0.0169547
908.113	0.0168717
908.192	0.0170786
908.270	0.0170190
908.348	0.0169299
908.426	0.0170692
908.504	0.0170120
908.582	0.0170956
908.660	0.0170885
908.738	0.0169644
908.817	0.0169701
908.895	0.0170765
908.973	0.0170757
909.051	0.0171909
909.129	0.0171645
909.207	0.0172086
909.285	0.0172266
909.363	0.0170982
909.442	0.0172549
909.520	0.0170392
909.598	0.0171803
909.676	0.0170601
909.754	0.0171253
909.832	0.0169598
909.910	0.0168920
909.988	0.0168789
910.067	0.0168739
910.145	0.0167950
910.223	0.0167178
910.301	0.0167587
910.379	0.0167159
910.457	0.0168990
910.535	0.0167770
910.613	0.0167107
910.692	0.0168029
910.770	0.0168189
910.848	0.0167656
910.926	0.0168066
911.004	0.0168606
911.082	0.0167915
911.160	0.0168925
911.238	0.0169669
911.317	0.0170484
911.395	0.0169543
911.473	0.0168836
911.551	0.0169994
911.629	0.0169939
911.707	0.0168948
911.785	0.0168628
911.863	0.0168581
911.942	0.0167708
912.020	0.0167587
912.098	0.0168598
912.176	0.0167138
912.254	0.0166759
912.332	0.0166696
912.410	0.0166865
912.488	0.0165306
912.567	0.0167141
912.645	0.0165449
912.723	0.0166498
912.801	0.0167044
912.879	0.0167729
912.957	0.0167183
913.035	0.0169035
913.113	0.0167384
913.192	0.0166956
913.270	0.0169474
913.348	0.0169288
913.426	0.0169137
913.504	0.0169552
913.582	0.0170231
913.660	0.0168526
913.738	0.0170384
913.817	0.0169266
913.895	0.0168336
913.973	0.0169131
914.051	0.0167591
914.129	0.0169471
914.207	0.0168527
914.285	0.0168847
914.363	0.0168150
914.442	0.0167660
914.520	0.0168398
914.598	0.0167300
914.676	0.0169556
914.754	0.0168873
914.832	0.0169199
914.910	0.0169170
914.988	0.0169366
915.067	0.0169794
915.145	0.0171040
915.223	0.0170081
915.301	0.0170557
915.379	0.0170034
915.457	0.0169903
915.535	0.0169753
915.613	0.0169461
915.692	0.0170422
915.770	0.0170384
915.848	0.0168973
915.926	0.0169878
916.004	0.0169346
916.082	0.0169525
916.160	0.0167661
916.238	0.0167632
916.317	0.0167827
916.395	0.0167797
916.473	0.0166249
916.551	0.0166160
916.629	0.0167385
916.707	0.0166902
916.785	0.0167578
916.863	0.0167001
916.942	0.0168505
917.020	0.0167555
917.098	0.0166151
917.176	0.0168367
917.254	0.0166843
917.332	0.0168400
917.410	0.0168855
917.488	0.0168189
917.567	0.0167898
917.645	0.0168024
917.723	0.0168369
917.801	0.0167847
917.879	0.0169339
917.957	0.0169485
918.035	0.0168174
918.113	0.0168206
918.192	0.0168999
918.270	0.0169215
918.348	0.0167935
918.426	0.0167607
918.504	0.0167387
918.582	0.0168021
918.660	0.0168491
918.738	0.0167639
918.817	0.0168127
918.895	0.0168422
918.973	0.0167822
919.051	0.0167466
919.129	0.0170144
919.207	0.0170337
919.285	0.0169971
919.363	0.0169424
919.442	0.0169334
919.520	0.0171668
919.598	0.0170504
919.676	0.0169922
919.754	0.0171099
919.832	0.0170524
919.910	0.0171676
