06/10/2022	16:25:12	Ver.	4.1	UNKNOWN
Optical Delay	599.988409	Delta X		0.078125	Sweeps	1	Scan Rate	0/0
Coordinates	Axis 1	NaN	Axis 2	NaN	Axis 3	NaN	Axis 4	NaN	Axis 5	NaN	Axis 6	0.000000
TX Power	0.000000	RX Power	0.000000

599.988	0.0168586
600.067	0.0168140
600.145	0.0167957
600.223	0.0168401
600.301	0.0168875
600.379	0.0168970
600.457	0.0168443
600.535	0.0168298
600.613	0.0169734
600.692	0.0168356
600.770	0.0167402
600.848	0.0168137
600.926	0.0169285
601.004	0.0169483
601.082	0.0167464
601.160	0.0169286
601.238	0.0168551
601.317	0.0167535
601.395	0.0168024
601.473	0.0167704
601.551	0.0168827
601.629	0.0168430
601.707	0.0167787
601.785	0.0168349
601.863	0.0169221
601.942	0.0168804
602.020	0.0169270
602.098	0.0169970
602.176	0.0168892
602.254	0.0168691
602.332	0.0167538
602.410	0.0168345
602.488	0.0167733
602.567	0.0169380
602.645	0.0170365
602.723	0.0168802
602.801	0.0167592
602.879	0.0169018
602.957	0.0168633
603.035	0.0168831
603.113	0.0167120
603.192	0.0169247
603.270	0.0169098
603.348	0.0168820
603.426	0.0167529
603.504	0.0168172
603.582	0.0167484
603.660	0.0169043
603.738	0.0169736
603.817	0.0169808
603.895	0.0167568
603.973	0.0167709
604.051	0.0167673
604.129	0.0167915
604.207	0.0168585
604.285	0.0168744
604.363	0.0169184
604.442	0.0168990
604.520	0.0169589
604.598	0.0168153
604.676	0.0168889
604.754	0.0168267
604.832	0.0168315
604.910	0.0168754
604.988	0.0167464
605.067	0.0168546
605.145	0.0168640
605.223	0.0167921
605.301	0.0168429
605.379	0.0169066
605.457	0.0169174
605.535	0.0169332
605.613	0.0168006
605.692	0.0169698
605.770	0.0168498
605.848	0.0168115
605.926	0.0167818
606.004	0.0168761
606.082	0.0168310
606.160	0.0167936
606.238	0.0169001
606.317	0.0168212
606.395	0.0168493
606.473	0.0168401
606.551	0.0169284
606.629	0.0168945
606.707	0.0169430
606.785	0.0167166
606.863	0.0168800
606.942	0.0169319
607.020	0.0168921
607.098	0.0166904
607.176	0.0167747
607.254	0.0167786
607.332	0.0167674
607.410	0.0168708
607.488	0.0168841
607.567	0.0168210
607.645	0.0169176
607.723	0.0168165
607.801	0.0167521
607.879	0.0167632
607.957	0.0169514
608.035	0.0168583
608.113	0.0168783
608.192	0.0168309
608.270	0.0168313
608.348	0.0168326
608.426	0.0169289
608.504	0.0168109
608.582	0.0167976
608.660	0.0168717
608.738	0.0169044
608.817	0.0168225
608.895	0.0168269
608.973	0.0168600
609.051	0.0168551
609.129	0.0170181
609.207	0.0168208
609.285	0.0169002
609.363	0.0167918
609.442	0.0168816
609.520	0.0167325
609.598	0.0168788
609.676	0.0170270
609.754	0.0168636
609.832	0.0168482
609.910	0.0168354
609.988	0.0169923
610.067	0.0170125
610.145	0.0168982
610.223	0.0169043
610.301	0.0167603
610.379	0.0166528
610.457	0.0168045
610.535	0.0169387
610.613	0.0168898
610.692	0.0168612
610.770	0.0168729
610.848	0.0168724
610.926	0.0168146
611.004	0.0168871
611.082	0.0169114
611.160	0.0167600
611.238	0.0168554
611.317	0.0168636
611.395	0.0169753
611.473	0.0169408
611.551	0.0168122
611.629	0.0167386
611.707	0.0169527
611.785	0.0168088
611.863	0.0167376
611.942	0.0168230
612.020	0.0169330
612.098	0.0168504
612.176	0.0167654
612.254	0.0168363
612.332	0.0168168
612.410	0.0167183
612.488	0.0166568
612.567	0.0168011
612.645	0.0168427
612.723	0.0169566
612.801	0.0167747
612.879	0.0167810
612.957	0.0167458
613.035	0.0167160
613.113	0.0168122
613.192	0.0168852
613.270	0.0169602
613.348	0.0169554
613.426	0.0168536
613.504	0.0169479
613.582	0.0168595
613.660	0.0170145
613.738	0.0169534
613.817	0.0168447
613.895	0.0168707
613.973	0.0170553
614.051	0.0168014
614.129	0.0167754
614.207	0.0168811
614.285	0.0168951
614.363	0.0168204
614.442	0.0167290
614.520	0.0168452
614.598	0.0170242
614.676	0.0168037
614.754	0.0170153
614.832	0.0169033
614.910	0.0168321
614.988	0.0169153
615.067	0.0167282
615.145	0.0169622
615.223	0.0168664
615.301	0.0168922
615.379	0.0167522
615.457	0.0168951
615.535	0.0170182
615.613	0.0167929
615.692	0.0167161
615.770	0.0168391
615.848	0.0168778
615.926	0.0167079
616.004	0.0168217
616.082	0.0168661
616.160	0.0169759
616.238	0.0168410
616.317	0.0168015
616.395	0.0168127
616.473	0.0168198
616.551	0.0168204
616.629	0.0168797
616.707	0.0169075
616.785	0.0168275
616.863	0.0169279
616.942	0.0167947
617.020	0.0168727
617.098	0.0169486
617.176	0.0167373
617.254	0.0168447
617.332	0.0168220
617.410	0.0169059
617.488	0.0168551
617.567	0.0168649
617.645	0.0168751
617.723	0.0170695
617.801	0.0168079
617.879	0.0168116
617.957	0.0168987
618.035	0.0167885
618.113	0.0168737
618.192	0.0169772
618.270	0.0168642
618.348	0.0169218
618.426	0.0167816
618.504	0.0169350
618.582	0.0169215
618.660	0.0168404
618.738	0.0168773
618.817	0.0169369
618.895	0.0168053
618.973	0.0169591
619.051	0.0169216
619.129	0.0169134
619.207	0.0168323
619.285	0.0169857
619.363	0.0168243
619.442	0.0168842
619.520	0.0168546
619.598	0.0167732
619.676	0.0169191
619.754	0.0169045
619.832	0.0167382
619.910	0.0169317
619.988	0.0167762
620.067	0.0167532
620.145	0.0169065
620.223	0.0168396
620.301	0.0168612
620.379	0.0169520
620.457	0.0168696
620.535	0.0169057
620.613	0.0169714
620.692	0.0168559
620.770	0.0168137
620.848	0.0168353
620.926	0.0168446
621.004	0.0168224
621.082	0.0169158
621.160	0.0168226
621.238	0.0167458
621.317	0.0168086
621.395	0.0169009
621.473	0.0169135
621.551	0.0169151
621.629	0.0169376
621.707	0.0168609
621.785	0.0168796
621.863	0.0168958
621.942	0.0167924
622.020	0.0168189
622.098	0.0170291
622.176	0.0169507
622.254	0.0168541
622.332	0.0168238
622.410	0.0168497
622.488	0.0168079
622.567	0.0168655
622.645	0.0168187
622.723	0.0168013
622.801	0.0167401
622.879	0.0168822
622.957	0.0168152
623.035	0.0166986
623.113	0.0167159
623.192	0.0168648
623.270	0.0168774
623.348	0.0168132
623.426	0.0167996
623.504	0.0168333
623.582	0.0166917
623.660	0.0167905
623.738	0.0169357
623.817	0.0168244
623.895	0.0167532
623.973	0.0169820
624.051	0.0170217
624.129	0.0168034
624.207	0.0168108
624.285	0.0168677
624.363	0.0168391
624.442	0.0168100
624.520	0.0169050
624.598	0.0167112
624.676	0.0167947
624.754	0.0168488
624.832	0.0168716
624.910	0.0168510
624.988	0.0169840
625.067	0.0167404
625.145	0.0167489
625.223	0.0168300
625.301	0.0167728
625.379	0.0168861
625.457	0.0168182
625.535	0.0167377
625.613	0.0167316
625.692	0.0169297
625.770	0.0168224
625.848	0.0167597
625.926	0.0168076
626.004	0.0168036
626.082	0.0167963
626.160	0.0167846
626.238	0.0169166
626.317	0.0168733
626.395	0.0167673
626.473	0.0169318
626.551	0.0167609
626.629	0.0168274
626.707	0.0167335
626.785	0.0167924
626.863	0.0168534
626.942	0.0167244
627.020	0.0167831
627.098	0.0169413
627.176	0.0167535
627.254	0.0168497
627.332	0.0167485
627.410	0.0166589
627.488	0.0166843
627.567	0.0168542
627.645	0.0167788
627.723	0.0167719
627.801	0.0168777
627.879	0.0169051
627.957	0.0168349
628.035	0.0169086
628.113	0.0167881
628.192	0.0168007
628.270	0.0167854
628.348	0.0167240
628.426	0.0169095
628.504	0.0169013
628.582	0.0168044
628.660	0.0168324
628.738	0.0167825
628.817	0.0167938
628.895	0.0168585
628.973	0.0168228
629.051	0.0168510
629.129	0.0169640
629.207	0.0168856
629.285	0.0168029
629.363	0.0167901
629.442	0.0168310
629.520	0.0168090
629.598	0.0167329
629.676	0.0167702
629.754	0.0168705
629.832	0.0169117
629.910	0.0168359
629.988	0.0168797
630.067	0.0168361
630.145	0.0169821
630.223	0.0168344
630.301	0.0168910
630.379	0.0168495
630.457	0.0168867
630.535	0.0168040
630.613	0.0168023
630.692	0.0169815
630.770	0.0168916
630.848	0.0169363
630.926	0.0169088
631.004	0.0168615
631.082	0.0169553
631.160	0.0169014
631.238	0.0169386
631.317	0.0169416
631.395	0.0169886
631.473	0.0168825
631.551	0.0168439
631.629	0.0168684
631.707	0.0166467
631.785	0.0169946
631.863	0.0169253
631.942	0.0168755
632.020	0.0168698
632.098	0.0169163
632.176	0.0168317
632.254	0.0169064
632.332	0.0169074
632.410	0.0169625
632.488	0.0169600
632.567	0.0168613
632.645	0.0169100
632.723	0.0169353
632.801	0.0169328
632.879	0.0167909
632.957	0.0170157
633.035	0.0167816
633.113	0.0169283
633.192	0.0169542
633.270	0.0168937
633.348	0.0169651
633.426	0.0168918
633.504	0.0169287
633.582	0.0169243
633.660	0.0168388
633.738	0.0167900
633.817	0.0169254
633.895	0.0170634
633.973	0.0169119
634.051	0.0169485
634.129	0.0169718
634.207	0.0167717
634.285	0.0169066
634.363	0.0169614
634.442	0.0168690
634.520	0.0170381
634.598	0.0168303
634.676	0.0168213
634.754	0.0169522
634.832	0.0168663
634.910	0.0168874
634.988	0.0168405
635.067	0.0170006
635.145	0.0168714
635.223	0.0169393
635.301	0.0167528
635.379	0.0169258
635.457	0.0169360
635.535	0.0168437
635.613	0.0168600
635.692	0.0169116
635.770	0.0169304
635.848	0.0166550
635.926	0.0169079
636.004	0.0170380
636.082	0.0168998
636.160	0.0168384
636.238	0.0169122
636.317	0.0168262
636.395	0.0169357
636.473	0.0169080
636.551	0.0169061
636.629	0.0166872
636.707	0.0168330
636.785	0.0168021
636.863	0.0169080
636.942	0.0169096
637.020	0.0168418
637.098	0.0168776
637.176	0.0168527
637.254	0.0167176
637.332	0.0168559
637.410	0.0168422
637.488	0.0168716
637.567	0.0166650
637.645	0.0168533
637.723	0.0169514
637.801	0.0168468
637.879	0.0168700
637.957	0.0169643
638.035	0.0169313
638.113	0.0169021
638.192	0.0167607
638.270	0.0168063
638.348	0.0169303
638.426	0.0167815
638.504	0.0169577
638.582	0.0167940
638.660	0.0168132
638.738	0.0169964
638.817	0.0169437
638.895	0.0168947
638.973	0.0167586
639.051	0.0169446
639.129	0.0169951
639.207	0.0169539
639.285	0.0168290
639.363	0.0167612
639.442	0.0167915
639.520	0.0168755
639.598	0.0168937
639.676	0.0167662
639.754	0.0168279
639.832	0.0167917
639.910	0.0168736
639.988	0.0169288
640.067	0.0169611
640.145	0.0168366
640.223	0.0169042
640.301	0.0167815
640.379	0.0168142
640.457	0.0168862
640.535	0.0168832
640.613	0.0167228
640.692	0.0168078
640.770	0.0168731
640.848	0.0168222
640.926	0.0169655
641.004	0.0167930
641.082	0.0169161
641.160	0.0168023
641.238	0.0169348
641.317	0.0167824
641.395	0.0168640
641.473	0.0169141
641.551	0.0168240
641.629	0.0169218
641.707	0.0168610
641.785	0.0170153
641.863	0.0168850
641.942	0.0168516
642.020	0.0168594
642.098	0.0168499
642.176	0.0168822
642.254	0.0168462
642.332	0.0168521
642.410	0.0169727
642.488	0.0169211
642.567	0.0169135
642.645	0.0167558
642.723	0.0169695
642.801	0.0169598
642.879	0.0168963
642.957	0.0168903
643.035	0.0168292
643.113	0.0168443
643.192	0.0169576
643.270	0.0168136
643.348	0.0166931
643.426	0.0168209
643.504	0.0168896
643.582	0.0168288
643.660	0.0168294
643.738	0.0167216
643.817	0.0167165
643.895	0.0168987
643.973	0.0168505
644.051	0.0167054
644.129	0.0168167
644.207	0.0169165
644.285	0.0168272
644.363	0.0169547
644.442	0.0168752
644.520	0.0167242
644.598	0.0167862
644.676	0.0167443
644.754	0.0168016
644.832	0.0168713
644.910	0.0169947
644.988	0.0169585
645.067	0.0168699
645.145	0.0168890
645.223	0.0168849
645.301	0.0169387
645.379	0.0168366
645.457	0.0169058
645.535	0.0168589
645.613	0.0168965
645.692	0.0168566
645.770	0.0168153
645.848	0.0168575
645.926	0.0167632
646.004	0.0168104
646.082	0.0168139
646.160	0.0169911
646.238	0.0168172
646.317	0.0169554
646.395	0.0168286
646.473	0.0168179
646.551	0.0170420
646.629	0.0169039
646.707	0.0169273
646.785	0.0168404
646.863	0.0168784
646.942	0.0167969
647.020	0.0168761
647.098	0.0169036
647.176	0.0169820
647.254	0.0169516
647.332	0.0168343
647.410	0.0168237
647.488	0.0167876
647.567	0.0168491
647.645	0.0169174
647.723	0.0168285
647.801	0.0167712
647.879	0.0168572
647.957	0.0168372
648.035	0.0168410
648.113	0.0167236
648.192	0.0169978
648.270	0.0169585
648.348	0.0169336
648.426	0.0168996
648.504	0.0168568
648.582	0.0168597
648.660	0.0168697
648.738	0.0168559
648.817	0.0169112
648.895	0.0168736
648.973	0.0167686
649.051	0.0168755
649.129	0.0168552
649.207	0.0168508
649.285	0.0168896
649.363	0.0167805
649.442	0.0168111
649.520	0.0168604
649.598	0.0169122
649.676	0.0168442
649.754	0.0168207
649.832	0.0169096
649.910	0.0169350
649.988	0.0168327
650.067	0.0168176
650.145	0.0169153
650.223	0.0167842
650.301	0.0168780
650.379	0.0168317
650.457	0.0168488
650.535	0.0168402
650.613	0.0168594
650.692	0.0167777
650.770	0.0167236
650.848	0.0169997
650.926	0.0168448
651.004	0.0168771
651.082	0.0168376
651.160	0.0167934
651.238	0.0168855
651.317	0.0169228
651.395	0.0168983
651.473	0.0168629
651.551	0.0168074
651.629	0.0168392
651.707	0.0168317
651.785	0.0168681
651.863	0.0167796
651.942	0.0168590
652.020	0.0168134
652.098	0.0169294
652.176	0.0168674
652.254	0.0169229
652.332	0.0168266
652.410	0.0167225
652.488	0.0169001
652.567	0.0169067
652.645	0.0168085
652.723	0.0169254
652.801	0.0168446
652.879	0.0170175
652.957	0.0169131
653.035	0.0168706
653.113	0.0168192
653.192	0.0168571
653.270	0.0167679
653.348	0.0168225
653.426	0.0167842
653.504	0.0169367
653.582	0.0168849
653.660	0.0167910
653.738	0.0168806
653.817	0.0168131
653.895	0.0168352
653.973	0.0168378
654.051	0.0168268
654.129	0.0168848
654.207	0.0168038
654.285	0.0168526
654.363	0.0168633
654.442	0.0168047
654.520	0.0169459
654.598	0.0169653
654.676	0.0168549
654.754	0.0169246
654.832	0.0169041
654.910	0.0168858
654.988	0.0167289
655.067	0.0167843
655.145	0.0168442
655.223	0.0168307
655.301	0.0169321
655.379	0.0169691
655.457	0.0167726
655.535	0.0170109
655.613	0.0169911
655.692	0.0167823
655.770	0.0168326
655.848	0.0168246
655.926	0.0167615
656.004	0.0168946
656.082	0.0168740
656.160	0.0169496
656.238	0.0167999
656.317	0.0168445
656.395	0.0169160
656.473	0.0169240
656.551	0.0168868
656.629	0.0168113
656.707	0.0167380
656.785	0.0170564
656.863	0.0168551
656.942	0.0167708
657.020	0.0167606
657.098	0.0167529
657.176	0.0169186
657.254	0.0169347
657.332	0.0168815
657.410	0.0168853
657.488	0.0169402
657.567	0.0169981
657.645	0.0168955
657.723	0.0168486
657.801	0.0168719
657.879	0.0167998
657.957	0.0168970
658.035	0.0169309
658.113	0.0167532
658.192	0.0167817
658.270	0.0169502
658.348	0.0170416
658.426	0.0169415
658.504	0.0169178
658.582	0.0168983
658.660	0.0169075
658.738	0.0168396
658.817	0.0169652
658.895	0.0169069
658.973	0.0168565
659.051	0.0168877
659.129	0.0169618
659.207	0.0167485
659.285	0.0167870
659.363	0.0169661
659.442	0.0169279
659.520	0.0168989
659.598	0.0168182
659.676	0.0168362
659.754	0.0168581
659.832	0.0168896
659.910	0.0168341
659.988	0.0169200
660.067	0.0168521
660.145	0.0169109
660.223	0.0167523
660.301	0.0168546
660.379	0.0169817
660.457	0.0169524
660.535	0.0167130
660.613	0.0168201
660.692	0.0169173
660.770	0.0166404
660.848	0.0167923
660.926	0.0168034
661.004	0.0168320
661.082	0.0168502
661.160	0.0170302
661.238	0.0168398
661.317	0.0170121
661.395	0.0168191
661.473	0.0168752
661.551	0.0168959
661.629	0.0168797
661.707	0.0168255
661.785	0.0167746
661.863	0.0168255
661.942	0.0168307
662.020	0.0167908
662.098	0.0169062
662.176	0.0170454
662.254	0.0169738
662.332	0.0169324
662.410	0.0168571
662.488	0.0167775
662.567	0.0168914
662.645	0.0168549
662.723	0.0169353
662.801	0.0168246
662.879	0.0169824
662.957	0.0169820
663.035	0.0169070
663.113	0.0168373
663.192	0.0169524
663.270	0.0167925
663.348	0.0169360
663.426	0.0169699
663.504	0.0168559
663.582	0.0168386
663.660	0.0168190
663.738	0.0168380
663.817	0.0168525
663.895	0.0168842
663.973	0.0168303
664.051	0.0168460
664.129	0.0168522
664.207	0.0168285
664.285	0.0168801
664.363	0.0168494
664.442	0.0169005
664.520	0.0168260
664.598	0.0169209
664.676	0.0167720
664.754	0.0169063
664.832	0.0170052
664.910	0.0168624
664.988	0.0169059
665.067	0.0167760
665.145	0.0169442
665.223	0.0167562
665.301	0.0168186
665.379	0.0169630
665.457	0.0168603
665.535	0.0167397
665.613	0.0168331
665.692	0.0169306
665.770	0.0168922
665.848	0.0168799
665.926	0.0169566
666.004	0.0168108
666.082	0.0166566
666.160	0.0170636
666.238	0.0168542
666.317	0.0167242
666.395	0.0169209
666.473	0.0170853
666.551	0.0169060
666.629	0.0169457
666.707	0.0168430
666.785	0.0167721
666.863	0.0169798
666.942	0.0169417
667.020	0.0170705
667.098	0.0168735
667.176	0.0167006
667.254	0.0168476
667.332	0.0169405
667.410	0.0168564
667.488	0.0169401
667.567	0.0169463
667.645	0.0169610
667.723	0.0168248
667.801	0.0170780
667.879	0.0169018
667.957	0.0169196
668.035	0.0169461
668.113	0.0170768
668.192	0.0170192
668.270	0.0169392
668.348	0.0170248
668.426	0.0169705
668.504	0.0169012
668.582	0.0168990
668.660	0.0169994
668.738	0.0167860
668.817	0.0167996
668.895	0.0168459
668.973	0.0170324
669.051	0.0168980
669.129	0.0168678
669.207	0.0169967
669.285	0.0168413
669.363	0.0168180
669.442	0.0170558
669.520	0.0169418
669.598	0.0169508
669.676	0.0170244
669.754	0.0169669
669.832	0.0167941
669.910	0.0169946
669.988	0.0168330
670.067	0.0168430
670.145	0.0169673
670.223	0.0169393
670.301	0.0168089
670.379	0.0169194
670.457	0.0169480
670.535	0.0168729
670.613	0.0167852
670.692	0.0168764
670.770	0.0168433
670.848	0.0168596
670.926	0.0170011
671.004	0.0169302
671.082	0.0169930
671.160	0.0170496
671.238	0.0168906
671.317	0.0169341
671.395	0.0170435
671.473	0.0168951
671.551	0.0171114
671.629	0.0169096
671.707	0.0169778
671.785	0.0170249
671.863	0.0170308
671.942	0.0168797
672.020	0.0168854
672.098	0.0170390
672.176	0.0169396
672.254	0.0169067
672.332	0.0169588
672.410	0.0168835
672.488	0.0169896
672.567	0.0170155
672.645	0.0168715
672.723	0.0169757
672.801	0.0169027
672.879	0.0169350
672.957	0.0167789
673.035	0.0169492
673.113	0.0170605
673.192	0.0171311
673.270	0.0169981
673.348	0.0169836
673.426	0.0170074
673.504	0.0169015
673.582	0.0170092
673.660	0.0169305
673.738	0.0170465
673.817	0.0169696
673.895	0.0169754
673.973	0.0169393
674.051	0.0169908
674.129	0.0168436
674.207	0.0169900
674.285	0.0169170
674.363	0.0169306
674.442	0.0168905
674.520	0.0168807
674.598	0.0169380
674.676	0.0171397
674.754	0.0170541
674.832	0.0169368
674.910	0.0170044
674.988	0.0170207
675.067	0.0169933
675.145	0.0169377
675.223	0.0169884
675.301	0.0169306
675.379	0.0169166
675.457	0.0169218
675.535	0.0169854
675.613	0.0168635
675.692	0.0169527
675.770	0.0168478
675.848	0.0168257
675.926	0.0169343
676.004	0.0169236
676.082	0.0167246
676.160	0.0168078
676.238	0.0167858
676.317	0.0168164
676.395	0.0169527
676.473	0.0168561
676.551	0.0168725
676.629	0.0167211
676.707	0.0168863
676.785	0.0169398
676.863	0.0167233
676.942	0.0167650
677.020	0.0168392
677.098	0.0167426
677.176	0.0168392
677.254	0.0169004
677.332	0.0167695
677.410	0.0167268
677.488	0.0168821
677.567	0.0167485
677.645	0.0166880
677.723	0.0167724
677.801	0.0167126
677.879	0.0167445
677.957	0.0166238
678.035	0.0168018
678.113	0.0167443
678.192	0.0168279
678.270	0.0167929
678.348	0.0166360
678.426	0.0168298
678.504	0.0167387
678.582	0.0168588
678.660	0.0167810
678.738	0.0166838
678.817	0.0166886
678.895	0.0167938
678.973	0.0166979
679.051	0.0166053
679.129	0.0166475
679.207	0.0167740
679.285	0.0165544
679.363	0.0167909
679.442	0.0167693
679.520	0.0167661
679.598	0.0168414
679.676	0.0167994
679.754	0.0168627
679.832	0.0168513
679.910	0.0168069
679.988	0.0167122
680.067	0.0167731
680.145	0.0167408
680.223	0.0168141
680.301	0.0167471
680.379	0.0168434
680.457	0.0167456
680.535	0.0167184
680.613	0.0167326
680.692	0.0168497
680.770	0.0169271
680.848	0.0167117
680.926	0.0166595
681.004	0.0168184
681.082	0.0168382
681.160	0.0167414
681.238	0.0169286
681.317	0.0168697
681.395	0.0167315
681.473	0.0166397
681.551	0.0167537
681.629	0.0169656
681.707	0.0168237
681.785	0.0168221
681.863	0.0167999
681.942	0.0168152
682.020	0.0168069
682.098	0.0168803
682.176	0.0169748
682.254	0.0166606
682.332	0.0167857
682.410	0.0169433
682.488	0.0166861
682.567	0.0167903
682.645	0.0168526
682.723	0.0167235
682.801	0.0168243
682.879	0.0168870
682.957	0.0168402
683.035	0.0168505
683.113	0.0167477
683.192	0.0167884
683.270	0.0168525
683.348	0.0166742
683.426	0.0168311
683.504	0.0167307
683.582	0.0169913
683.660	0.0168477
683.738	0.0167884
683.817	0.0167822
683.895	0.0166126
683.973	0.0168180
684.051	0.0167246
684.129	0.0168121
684.207	0.0166944
684.285	0.0168224
684.363	0.0167950
684.442	0.0168390
684.520	0.0168582
684.598	0.0166826
684.676	0.0167128
684.754	0.0168237
684.832	0.0168387
684.910	0.0167255
684.988	0.0169118
685.067	0.0169259
685.145	0.0166986
685.223	0.0168118
685.301	0.0168604
685.379	0.0167635
685.457	0.0168549
685.535	0.0169038
685.613	0.0169875
685.692	0.0168317
685.770	0.0167292
685.848	0.0168810
685.926	0.0169143
686.004	0.0167747
686.082	0.0167805
686.160	0.0169052
686.238	0.0168259
686.317	0.0167605
686.395	0.0168334
686.473	0.0167793
686.551	0.0169298
686.629	0.0168541
686.707	0.0169211
686.785	0.0169253
686.863	0.0167574
686.942	0.0169708
687.020	0.0168600
687.098	0.0168518
687.176	0.0168511
687.254	0.0168487
687.332	0.0168665
687.410	0.0168272
687.488	0.0168880
687.567	0.0169840
687.645	0.0169007
687.723	0.0168359
687.801	0.0168891
687.879	0.0169804
687.957	0.0168055
688.035	0.0168555
688.113	0.0169612
688.192	0.0169803
688.270	0.0169021
688.348	0.0169753
688.426	0.0170659
688.504	0.0168419
688.582	0.0170351
688.660	0.0168401
688.738	0.0168961
688.817	0.0170330
688.895	0.0168584
688.973	0.0169615
689.051	0.0168804
689.129	0.0170774
689.207	0.0169076
689.285	0.0170811
689.363	0.0169165
689.442	0.0169353
689.520	0.0169949
689.598	0.0169573
689.676	0.0170432
689.754	0.0170257
689.832	0.0170200
689.910	0.0169685
689.988	0.0169217
690.067	0.0170649
690.145	0.0169669
690.223	0.0169744
690.301	0.0170229
690.379	0.0171786
690.457	0.0170333
690.535	0.0169498
690.613	0.0169897
690.692	0.0169871
690.770	0.0169607
690.848	0.0168960
690.926	0.0170208
691.004	0.0170200
691.082	0.0170537
691.160	0.0170258
691.238	0.0169818
691.317	0.0169878
691.395	0.0170368
691.473	0.0169730
691.551	0.0170558
691.629	0.0171156
691.707	0.0170821
691.785	0.0171745
691.863	0.0170126
691.942	0.0168845
692.020	0.0169668
692.098	0.0168983
692.176	0.0170018
692.254	0.0170351
692.332	0.0169837
692.410	0.0169968
692.488	0.0169125
692.567	0.0170909
692.645	0.0169830
692.723	0.0168848
692.801	0.0170279
692.879	0.0170312
692.957	0.0168457
693.035	0.0170012
693.113	0.0169015
693.192	0.0168938
693.270	0.0170575
693.348	0.0168960
693.426	0.0168716
693.504	0.0169814
693.582	0.0169434
693.660	0.0168697
693.738	0.0169331
693.817	0.0169380
693.895	0.0169262
693.973	0.0170265
694.051	0.0170023
694.129	0.0169936
694.207	0.0169154
694.285	0.0168742
694.363	0.0169817
694.442	0.0170166
694.520	0.0168572
694.598	0.0168591
694.676	0.0169793
694.754	0.0168439
694.832	0.0167412
694.910	0.0168246
694.988	0.0170039
695.067	0.0167939
695.145	0.0168876
695.223	0.0169255
695.301	0.0168820
695.379	0.0169238
695.457	0.0169083
695.535	0.0170514
695.613	0.0170259
695.692	0.0170640
695.770	0.0169209
695.848	0.0168983
695.926	0.0169168
696.004	0.0170203
696.082	0.0168929
696.160	0.0169118
696.238	0.0170002
696.317	0.0168487
696.395	0.0167746
696.473	0.0168525
696.551	0.0169106
696.629	0.0168210
696.707	0.0168044
696.785	0.0169726
696.863	0.0170214
696.942	0.0166537
697.020	0.0168069
697.098	0.0169356
697.176	0.0168300
697.254	0.0170223
697.332	0.0168380
697.410	0.0168789
697.488	0.0168996
697.567	0.0168432
697.645	0.0168043
697.723	0.0167554
697.801	0.0168633
697.879	0.0167669
697.957	0.0166959
698.035	0.0168520
698.113	0.0167921
698.192	0.0168815
698.270	0.0167407
698.348	0.0168778
698.426	0.0168134
698.504	0.0168620
698.582	0.0168581
698.660	0.0168182
698.738	0.0168717
698.817	0.0167562
698.895	0.0168577
698.973	0.0167851
699.051	0.0168299
699.129	0.0167198
699.207	0.0167376
699.285	0.0168955
699.363	0.0168085
699.442	0.0167864
699.520	0.0168283
699.598	0.0167399
699.676	0.0166155
699.754	0.0168365
699.832	0.0168573
699.910	0.0168111
699.988	0.0167251
700.067	0.0167622
700.145	0.0168745
700.223	0.0168885
700.301	0.0166444
700.379	0.0167267
700.457	0.0168085
700.535	0.0167962
700.613	0.0167505
700.692	0.0166728
700.770	0.0166837
700.848	0.0166859
700.926	0.0166473
701.004	0.0167308
701.082	0.0167438
701.160	0.0167878
701.238	0.0167220
701.317	0.0167914
701.395	0.0168094
701.473	0.0167807
701.551	0.0167305
701.629	0.0167978
701.707	0.0167203
701.785	0.0169162
701.863	0.0167861
701.942	0.0167614
702.020	0.0166917
702.098	0.0167104
702.176	0.0168214
702.254	0.0167572
702.332	0.0167415
702.410	0.0167770
702.488	0.0168347
702.567	0.0167823
702.645	0.0168175
702.723	0.0168220
702.801	0.0168810
702.879	0.0169504
702.957	0.0167349
703.035	0.0166867
703.113	0.0167670
703.192	0.0167708
703.270	0.0166595
703.348	0.0166353
703.426	0.0166640
703.504	0.0167491
703.582	0.0167473
703.660	0.0166958
703.738	0.0168996
703.817	0.0167700
703.895	0.0166735
703.973	0.0166519
704.051	0.0167836
704.129	0.0168591
704.207	0.0167336
704.285	0.0167690
704.363	0.0168636
704.442	0.0168670
704.520	0.0168423
704.598	0.0167576
704.676	0.0168993
704.754	0.0167960
704.832	0.0167103
704.910	0.0167162
704.988	0.0168623
705.067	0.0167368
705.145	0.0166984
705.223	0.0168444
705.301	0.0167773
705.379	0.0168584
705.457	0.0165955
705.535	0.0167286
705.613	0.0167836
705.692	0.0168193
705.770	0.0167802
705.848	0.0167829
705.926	0.0167390
706.004	0.0169405
706.082	0.0167035
706.160	0.0168987
706.238	0.0169820
706.317	0.0166902
706.395	0.0168239
706.473	0.0168852
706.551	0.0167964
706.629	0.0167821
706.707	0.0168169
706.785	0.0169331
706.863	0.0168847
706.942	0.0168550
707.020	0.0167953
707.098	0.0168328
707.176	0.0168576
707.254	0.0169532
707.332	0.0168261
707.410	0.0168566
707.488	0.0167982
707.567	0.0167824
707.645	0.0169704
707.723	0.0168633
707.801	0.0167936
707.879	0.0168063
707.957	0.0168938
708.035	0.0169071
708.113	0.0168966
708.192	0.0169111
708.270	0.0169243
708.348	0.0168221
708.426	0.0167700
708.504	0.0168230
708.582	0.0168218
708.660	0.0169954
708.738	0.0168591
708.817	0.0169067
708.895	0.0168764
708.973	0.0168809
709.051	0.0169363
709.129	0.0167585
709.207	0.0168076
709.285	0.0168694
709.363	0.0168052
709.442	0.0169625
709.520	0.0169554
709.598	0.0168859
709.676	0.0169463
709.754	0.0169503
709.832	0.0168146
709.910	0.0169084
709.988	0.0168563
710.067	0.0167993
710.145	0.0169331
710.223	0.0169377
710.301	0.0168124
710.379	0.0169258
710.457	0.0170663
710.535	0.0168823
710.613	0.0169314
710.692	0.0171461
710.770	0.0168798
710.848	0.0169216
710.926	0.0170074
711.004	0.0169088
711.082	0.0169620
711.160	0.0168877
711.238	0.0170609
711.317	0.0169222
711.395	0.0168973
711.473	0.0170367
711.551	0.0170234
711.629	0.0169926
711.707	0.0169894
711.785	0.0170148
711.863	0.0169402
711.942	0.0170019
712.020	0.0169806
712.098	0.0170130
712.176	0.0170435
712.254	0.0169681
712.332	0.0168584
712.410	0.0168220
712.488	0.0170043
712.567	0.0169229
712.645	0.0170551
712.723	0.0170539
712.801	0.0168527
712.879	0.0168786
712.957	0.0169737
713.035	0.0169156
713.113	0.0170355
713.192	0.0169769
713.270	0.0168695
713.348	0.0170135
713.426	0.0169592
713.504	0.0168542
713.582	0.0169619
713.660	0.0169428
713.738	0.0168591
713.817	0.0170502
713.895	0.0169333
713.973	0.0170844
714.051	0.0169508
714.129	0.0168102
714.207	0.0169331
714.285	0.0169907
714.363	0.0170843
714.442	0.0169332
714.520	0.0170034
714.598	0.0169415
714.676	0.0168230
714.754	0.0170601
714.832	0.0168769
714.910	0.0169189
714.988	0.0169926
715.067	0.0170092
715.145	0.0169753
715.223	0.0168591
715.301	0.0169141
715.379	0.0169263
715.457	0.0170338
715.535	0.0168917
715.613	0.0170309
715.692	0.0168922
715.770	0.0169680
715.848	0.0169787
715.926	0.0167875
716.004	0.0170054
716.082	0.0169625
716.160	0.0168761
716.238	0.0170091
716.317	0.0169121
716.395	0.0167919
716.473	0.0169401
716.551	0.0169933
716.629	0.0168262
716.707	0.0169625
716.785	0.0169485
716.863	0.0170525
716.942	0.0169643
717.020	0.0169667
717.098	0.0169756
717.176	0.0169213
717.254	0.0168375
717.332	0.0169763
717.410	0.0169453
717.488	0.0169270
717.567	0.0168118
717.645	0.0169808
717.723	0.0169216
717.801	0.0168653
717.879	0.0167849
717.957	0.0169094
718.035	0.0170525
718.113	0.0169185
718.192	0.0169486
718.270	0.0169582
718.348	0.0169023
718.426	0.0167950
718.504	0.0168661
718.582	0.0169942
718.660	0.0169948
718.738	0.0169412
718.817	0.0168790
718.895	0.0168539
718.973	0.0169173
719.051	0.0167583
719.129	0.0168240
719.207	0.0168358
719.285	0.0168713
719.363	0.0169541
719.442	0.0168298
719.520	0.0167963
719.598	0.0167706
719.676	0.0170067
719.754	0.0169931
719.832	0.0168803
719.910	0.0168855
719.988	0.0169283
720.067	0.0168668
720.145	0.0169252
720.223	0.0169121
720.301	0.0170364
720.379	0.0169330
720.457	0.0168206
720.535	0.0169272
720.613	0.0169693
720.692	0.0167466
720.770	0.0169044
720.848	0.0168378
720.926	0.0168888
721.004	0.0168040
721.082	0.0169754
721.160	0.0168407
721.238	0.0170183
721.317	0.0170575
721.395	0.0168426
721.473	0.0167525
721.551	0.0169684
721.629	0.0169130
721.707	0.0168716
721.785	0.0169466
721.863	0.0167975
721.942	0.0168133
722.020	0.0169250
722.098	0.0169882
722.176	0.0168616
722.254	0.0169371
722.332	0.0169582
722.410	0.0169191
722.488	0.0168523
722.567	0.0168391
722.645	0.0169774
722.723	0.0169210
722.801	0.0168593
722.879	0.0168775
722.957	0.0169288
723.035	0.0169072
723.113	0.0168800
723.192	0.0168972
723.270	0.0169376
723.348	0.0169400
723.426	0.0167908
723.504	0.0168284
723.582	0.0168916
723.660	0.0168793
723.738	0.0168539
723.817	0.0168204
723.895	0.0167712
723.973	0.0169258
724.051	0.0167826
724.129	0.0168027
724.207	0.0168215
724.285	0.0168494
724.363	0.0168534
724.442	0.0167429
724.520	0.0168594
724.598	0.0168109
724.676	0.0168912
724.754	0.0169324
724.832	0.0168138
724.910	0.0169286
724.988	0.0167935
725.067	0.0166726
725.145	0.0167966
725.223	0.0169273
725.301	0.0167374
725.379	0.0167876
725.457	0.0167023
725.535	0.0169003
725.613	0.0169254
725.692	0.0167789
725.770	0.0169003
725.848	0.0168617
725.926	0.0168376
726.004	0.0168733
726.082	0.0168109
726.160	0.0168621
726.238	0.0167417
726.317	0.0167719
726.395	0.0169010
726.473	0.0167652
726.551	0.0167976
726.629	0.0169047
726.707	0.0168988
726.785	0.0168075
726.863	0.0168744
726.942	0.0168001
727.020	0.0167642
727.098	0.0169362
727.176	0.0168690
727.254	0.0166599
727.332	0.0168952
727.410	0.0168633
727.488	0.0167475
727.567	0.0168394
727.645	0.0168380
727.723	0.0168169
727.801	0.0167503
727.879	0.0167677
727.957	0.0168666
728.035	0.0168285
728.113	0.0168290
728.192	0.0170298
728.270	0.0168633
728.348	0.0168640
728.426	0.0167547
728.504	0.0169204
728.582	0.0167834
728.660	0.0167916
728.738	0.0167146
728.817	0.0169037
728.895	0.0168619
728.973	0.0168278
729.051	0.0166954
729.129	0.0168201
729.207	0.0169115
729.285	0.0168101
729.363	0.0168245
729.442	0.0168284
729.520	0.0167908
729.598	0.0167676
729.676	0.0167296
729.754	0.0168063
729.832	0.0168238
729.910	0.0168785
729.988	0.0167368
730.067	0.0168299
730.145	0.0168457
730.223	0.0168362
730.301	0.0168645
730.379	0.0167873
730.457	0.0166881
730.535	0.0168320
730.613	0.0168616
730.692	0.0167664
730.770	0.0167347
730.848	0.0167590
730.926	0.0166431
731.004	0.0167037
731.082	0.0168824
731.160	0.0168950
731.238	0.0168863
731.317	0.0166775
731.395	0.0168606
731.473	0.0168626
731.551	0.0169327
731.629	0.0169183
731.707	0.0168137
731.785	0.0169080
731.863	0.0168603
731.942	0.0168835
732.020	0.0168308
732.098	0.0168581
732.176	0.0168493
732.254	0.0167159
732.332	0.0167206
732.410	0.0166513
732.488	0.0165841
732.567	0.0166029
732.645	0.0165580
732.723	0.0166662
732.801	0.0167083
732.879	0.0167310
732.957	0.0166927
733.035	0.0168564
733.113	0.0168794
733.192	0.0171518
733.270	0.0172162
733.348	0.0171478
733.426	0.0173905
733.504	0.0174630
733.582	0.0174091
733.660	0.0174383
733.738	0.0173797
733.817	0.0173470
733.895	0.0172911
733.973	0.0170193
734.051	0.0168777
734.129	0.0165765
734.207	0.0163640
734.285	0.0162158
734.363	0.0160482
734.442	0.0159317
734.520	0.0158143
734.598	0.0160188
734.676	0.0160254
734.754	0.0162733
734.832	0.0164809
734.910	0.0167369
734.988	0.0171071
735.067	0.0175066
735.145	0.0178162
735.223	0.0180210
735.301	0.0181306
735.379	0.0182487
735.457	0.0180888
735.535	0.0178085
735.613	0.0176880
735.692	0.0173424
735.770	0.0171836
735.848	0.0170966
735.926	0.0168424
736.004	0.0167731
736.082	0.0168391
736.160	0.0166953
736.238	0.0166666
736.317	0.0165198
736.395	0.0165823
736.473	0.0165797
736.551	0.0165005
736.629	0.0164228
736.707	0.0162333
736.785	0.0160036
736.863	0.0160388
736.942	0.0160917
737.020	0.0160785
737.098	0.0162059
737.176	0.0164788
737.254	0.0165865
737.332	0.0169051
737.410	0.0173469
737.488	0.0176900
737.567	0.0179385
737.645	0.0182518
737.723	0.0182401
737.801	0.0183102
737.879	0.0184189
737.957	0.0180722
738.035	0.0179712
738.113	0.0177744
738.192	0.0174766
738.270	0.0172775
738.348	0.0170757
738.426	0.0167340
738.504	0.0164571
738.582	0.0162119
738.660	0.0159088
738.738	0.0156944
738.817	0.0155720
738.895	0.0154582
738.973	0.0155798
739.051	0.0156574
739.129	0.0156966
739.207	0.0158231
739.285	0.0162067
739.363	0.0165543
739.442	0.0166637
739.520	0.0171889
739.598	0.0175215
739.676	0.0177789
739.754	0.0180241
739.832	0.0180821
739.910	0.0182526
739.988	0.0183506
740.067	0.0183864
740.145	0.0181839
740.223	0.0180535
740.301	0.0178295
740.379	0.0175982
740.457	0.0172002
740.535	0.0169500
740.613	0.0166888
740.692	0.0164749
740.770	0.0162713
740.848	0.0160783
740.926	0.0161492
741.004	0.0159808
741.082	0.0160970
741.160	0.0161350
741.238	0.0162489
741.317	0.0162710
741.395	0.0163367
741.473	0.0164224
741.551	0.0165548
741.629	0.0165425
741.707	0.0166306
741.785	0.0168221
741.863	0.0169456
741.942	0.0170181
742.020	0.0172548
742.098	0.0171413
742.176	0.0174068
742.254	0.0174525
742.332	0.0176101
742.410	0.0175188
742.488	0.0174490
742.567	0.0175140
742.645	0.0175108
742.723	0.0174293
742.801	0.0171408
742.879	0.0170555
742.957	0.0170298
743.035	0.0169316
743.113	0.0168695
743.192	0.0166860
743.270	0.0166672
743.348	0.0167011
743.426	0.0164229
743.504	0.0164152
743.582	0.0166492
743.660	0.0165933
743.738	0.0165611
743.817	0.0167126
743.895	0.0167952
743.973	0.0167400
744.051	0.0167619
744.129	0.0167643
744.207	0.0169755
744.285	0.0168091
744.363	0.0168919
744.442	0.0167179
744.520	0.0168812
744.598	0.0168805
744.676	0.0169389
744.754	0.0169402
744.832	0.0169331
744.910	0.0169069
744.988	0.0169044
745.067	0.0170512
745.145	0.0169167
745.223	0.0168510
745.301	0.0169216
745.379	0.0169524
745.457	0.0171296
745.535	0.0170314
745.613	0.0170520
745.692	0.0170559
745.770	0.0171721
745.848	0.0171838
745.926	0.0169750
746.004	0.0170309
746.082	0.0170635
746.160	0.0169659
746.238	0.0169596
746.317	0.0170430
746.395	0.0169408
746.473	0.0168905
746.551	0.0166671
746.629	0.0168395
746.707	0.0166871
746.785	0.0166915
746.863	0.0167155
746.942	0.0166098
747.020	0.0164171
747.098	0.0162958
747.176	0.0164161
747.254	0.0163783
747.332	0.0163238
747.410	0.0163564
747.488	0.0163160
747.567	0.0166537
747.645	0.0166705
747.723	0.0167830
747.801	0.0166227
747.879	0.0169268
747.957	0.0169831
748.035	0.0170020
748.113	0.0170972
748.192	0.0171640
748.270	0.0171784
748.348	0.0173897
748.426	0.0172395
748.504	0.0173503
748.582	0.0173524
748.660	0.0172235
748.738	0.0171917
748.817	0.0170151
748.895	0.0169917
748.973	0.0169844
749.051	0.0168321
749.129	0.0166959
749.207	0.0167113
749.285	0.0166068
749.363	0.0164571
749.442	0.0164264
749.520	0.0164442
749.598	0.0164731
749.676	0.0163582
749.754	0.0165384
749.832	0.0165833
749.910	0.0166402
749.988	0.0167625
750.067	0.0167406
750.145	0.0166898
750.223	0.0166806
750.301	0.0168330
750.379	0.0168172
750.457	0.0169262
750.535	0.0169356
750.613	0.0169533
750.692	0.0169967
750.770	0.0172015
750.848	0.0172037
750.926	0.0171001
751.004	0.0174623
751.082	0.0173236
751.160	0.0172447
751.238	0.0172433
751.317	0.0174092
751.395	0.0171481
751.473	0.0171154
751.551	0.0171146
751.629	0.0171945
751.707	0.0170428
751.785	0.0169078
751.863	0.0169086
751.942	0.0168220
752.020	0.0166925
752.098	0.0167557
752.176	0.0166596
752.254	0.0165858
752.332	0.0164264
752.410	0.0166165
752.488	0.0165379
752.567	0.0166027
752.645	0.0166109
752.723	0.0166759
752.801	0.0168394
752.879	0.0168572
752.957	0.0167927
753.035	0.0169108
753.113	0.0169563
753.192	0.0169805
753.270	0.0170645
753.348	0.0169903
753.426	0.0170300
753.504	0.0171226
753.582	0.0172204
753.660	0.0170590
753.738	0.0171658
753.817	0.0172729
753.895	0.0170469
753.973	0.0169708
754.051	0.0169330
754.129	0.0169744
754.207	0.0170300
754.285	0.0170827
754.363	0.0170796
754.442	0.0169443
754.520	0.0170148
754.598	0.0170818
754.676	0.0169646
754.754	0.0169051
754.832	0.0167502
754.910	0.0166685
754.988	0.0167579
755.067	0.0166555
755.145	0.0167149
755.223	0.0165981
755.301	0.0165940
755.379	0.0166431
755.457	0.0167057
755.535	0.0167313
755.613	0.0167818
755.692	0.0168374
755.770	0.0168060
755.848	0.0169360
755.926	0.0169608
756.004	0.0171396
756.082	0.0170377
756.160	0.0169965
756.238	0.0171107
756.317	0.0171481
756.395	0.0171062
756.473	0.0171000
756.551	0.0170653
756.629	0.0169556
756.707	0.0169962
756.785	0.0169167
756.863	0.0168554
756.942	0.0169045
757.020	0.0169775
757.098	0.0168082
757.176	0.0168205
757.254	0.0166875
757.332	0.0167053
757.410	0.0168687
757.488	0.0168232
757.567	0.0169267
757.645	0.0167564
757.723	0.0168660
757.801	0.0167845
757.879	0.0169775
757.957	0.0170061
758.035	0.0169987
758.113	0.0169559
758.192	0.0169804
758.270	0.0170439
758.348	0.0168069
758.426	0.0168571
758.504	0.0168333
758.582	0.0167455
758.660	0.0168384
758.738	0.0167926
758.817	0.0167056
758.895	0.0168655
758.973	0.0169629
759.051	0.0169785
759.129	0.0168734
759.207	0.0171175
759.285	0.0170425
759.363	0.0169552
759.442	0.0169446
759.520	0.0170326
759.598	0.0170008
759.676	0.0169184
759.754	0.0168000
759.832	0.0169134
759.910	0.0169929
759.988	0.0167919
760.067	0.0169236
760.145	0.0168854
760.223	0.0169640
760.301	0.0169783
760.379	0.0169863
760.457	0.0169442
760.535	0.0169881
760.613	0.0171082
760.692	0.0171495
760.770	0.0170399
760.848	0.0169669
760.926	0.0169123
761.004	0.0168662
761.082	0.0168493
761.160	0.0168839
761.238	0.0168768
761.317	0.0168993
761.395	0.0168798
761.473	0.0166682
761.551	0.0166045
761.629	0.0167956
761.707	0.0166103
761.785	0.0167291
761.863	0.0167405
761.942	0.0167416
762.020	0.0167773
762.098	0.0167863
762.176	0.0168604
762.254	0.0171030
762.332	0.0169662
762.410	0.0170374
762.488	0.0168897
762.567	0.0170979
762.645	0.0172292
762.723	0.0171446
762.801	0.0171199
762.879	0.0169307
762.957	0.0169867
763.035	0.0169022
763.113	0.0170509
763.192	0.0170280
763.270	0.0169521
763.348	0.0169746
763.426	0.0170851
763.504	0.0168511
763.582	0.0169264
763.660	0.0169030
763.738	0.0168086
763.817	0.0168812
763.895	0.0168031
763.973	0.0168562
764.051	0.0166908
764.129	0.0167612
764.207	0.0166607
764.285	0.0167150
764.363	0.0167756
764.442	0.0168291
764.520	0.0168875
764.598	0.0168645
764.676	0.0169109
764.754	0.0169598
764.832	0.0168880
764.910	0.0170405
764.988	0.0170245
765.067	0.0170066
765.145	0.0169891
765.223	0.0170546
765.301	0.0172815
765.379	0.0171891
765.457	0.0173264
765.535	0.0175206
765.613	0.0175262
765.692	0.0173396
765.770	0.0173528
765.848	0.0172759
765.926	0.0171461
766.004	0.0169785
766.082	0.0167306
766.160	0.0166168
766.238	0.0163874
766.317	0.0163824
766.395	0.0162070
766.473	0.0161169
766.551	0.0160855
766.629	0.0160662
766.707	0.0160539
766.785	0.0160899
766.863	0.0162413
766.942	0.0163972
767.020	0.0165949
767.098	0.0168053
767.176	0.0169672
767.254	0.0169589
767.332	0.0171436
767.410	0.0173190
767.488	0.0174122
767.567	0.0175237
767.645	0.0176203
767.723	0.0175638
767.801	0.0173872
767.879	0.0173920
767.957	0.0172797
768.035	0.0172222
768.113	0.0170802
768.192	0.0169030
768.270	0.0167056
768.348	0.0168245
768.426	0.0167883
768.504	0.0168166
768.582	0.0167436
768.660	0.0170008
768.738	0.0171106
768.817	0.0169756
768.895	0.0172188
768.973	0.0172250
769.051	0.0172451
769.129	0.0172746
769.207	0.0172375
769.285	0.0171866
769.363	0.0173466
769.442	0.0171777
769.520	0.0170942
769.598	0.0171730
769.676	0.0169608
769.754	0.0166510
769.832	0.0165794
769.910	0.0165975
769.988	0.0163033
770.067	0.0162058
770.145	0.0159899
770.223	0.0161710
770.301	0.0158025
770.379	0.0159338
770.457	0.0157506
770.535	0.0159411
770.613	0.0161314
770.692	0.0161528
770.770	0.0164488
770.848	0.0167765
770.926	0.0169794
771.004	0.0170847
771.082	0.0172430
771.160	0.0173492
771.238	0.0174463
771.317	0.0176409
771.395	0.0177303
771.473	0.0176146
771.551	0.0177042
771.629	0.0175813
771.707	0.0174564
771.785	0.0174722
771.863	0.0174033
771.942	0.0173351
772.020	0.0172799
772.098	0.0169988
772.176	0.0170174
772.254	0.0168015
772.332	0.0168958
772.410	0.0167545
772.488	0.0166710
772.567	0.0167072
772.645	0.0165742
772.723	0.0166609
772.801	0.0163921
772.879	0.0164159
772.957	0.0164584
773.035	0.0164272
773.113	0.0163070
773.192	0.0164807
773.270	0.0164886
773.348	0.0164532
773.426	0.0166321
773.504	0.0167036
773.582	0.0167050
773.660	0.0167144
773.738	0.0169766
773.817	0.0170020
773.895	0.0170762
773.973	0.0172248
774.051	0.0171807
774.129	0.0174241
774.207	0.0174914
774.285	0.0174287
774.363	0.0172502
774.442	0.0173283
774.520	0.0172555
774.598	0.0171426
774.676	0.0168987
774.754	0.0169376
774.832	0.0168544
774.910	0.0166499
774.988	0.0165095
775.067	0.0163613
775.145	0.0162662
775.223	0.0162755
775.301	0.0162692
775.379	0.0164658
775.457	0.0164015
775.535	0.0164328
775.613	0.0167660
775.692	0.0168130
775.770	0.0168805
775.848	0.0169102
775.926	0.0169518
776.004	0.0170945
776.082	0.0170906
776.160	0.0169202
776.238	0.0170245
776.317	0.0170103
776.395	0.0167465
776.473	0.0166744
776.551	0.0167113
776.629	0.0165492
776.707	0.0163956
776.785	0.0163844
776.863	0.0164193
776.942	0.0165708
777.020	0.0165532
777.098	0.0167731
777.176	0.0168414
777.254	0.0170599
777.332	0.0172948
777.410	0.0176176
777.488	0.0178170
777.567	0.0179572
777.645	0.0182296
777.723	0.0182899
777.801	0.0182657
777.879	0.0182607
777.957	0.0181831
778.035	0.0180611
778.113	0.0179986
778.192	0.0177157
778.270	0.0176189
778.348	0.0172092
778.426	0.0169484
778.504	0.0168537
778.582	0.0165780
778.660	0.0163602
778.738	0.0161714
778.817	0.0161307
778.895	0.0161324
778.973	0.0160360
779.051	0.0158591
779.129	0.0158437
779.207	0.0158967
779.285	0.0158016
779.363	0.0158736
779.442	0.0156162
779.520	0.0158466
779.598	0.0158038
779.676	0.0158872
779.754	0.0157716
779.832	0.0156559
779.910	0.0157520
779.988	0.0157700
780.067	0.0158968
780.145	0.0159941
780.223	0.0160493
780.301	0.0161852
780.379	0.0163703
780.457	0.0165681
780.535	0.0166959
780.613	0.0168669
780.692	0.0172099
780.770	0.0174435
780.848	0.0176473
780.926	0.0180080
781.004	0.0180972
781.082	0.0183125
781.160	0.0183811
781.238	0.0186408
781.317	0.0188243
781.395	0.0189265
781.473	0.0188444
781.551	0.0187107
781.629	0.0187002
781.707	0.0185321
781.785	0.0181732
781.863	0.0179937
781.942	0.0179205
782.020	0.0177374
782.098	0.0173087
782.176	0.0171958
782.254	0.0170177
782.332	0.0169220
782.410	0.0167233
782.488	0.0168113
782.567	0.0164719
782.645	0.0166365
782.723	0.0165215
782.801	0.0165862
782.879	0.0163903
782.957	0.0160898
783.035	0.0161274
783.113	0.0159466
783.192	0.0158829
783.270	0.0157677
783.348	0.0156576
783.426	0.0156068
783.504	0.0155173
783.582	0.0154787
783.660	0.0155773
783.738	0.0155201
783.817	0.0156049
783.895	0.0157060
783.973	0.0156755
784.051	0.0158890
784.129	0.0160516
784.207	0.0163153
784.285	0.0165211
784.363	0.0168175
784.442	0.0166360
784.520	0.0168826
784.598	0.0168140
784.676	0.0168863
784.754	0.0170293
784.832	0.0171097
784.910	0.0170612
784.988	0.0169905
785.067	0.0170114
785.145	0.0168542
785.223	0.0168987
785.301	0.0169948
785.379	0.0169499
785.457	0.0170817
785.535	0.0172578
785.613	0.0173563
785.692	0.0175962
785.770	0.0176820
785.848	0.0177600
785.926	0.0180634
786.004	0.0181483
786.082	0.0182464
786.160	0.0182511
786.238	0.0182754
786.317	0.0183424
786.395	0.0183602
786.473	0.0182889
786.551	0.0183597
786.629	0.0181639
786.707	0.0180305
786.785	0.0179638
786.863	0.0176642
786.942	0.0176424
787.020	0.0175269
787.098	0.0174036
787.176	0.0171800
787.254	0.0171456
787.332	0.0170460
787.410	0.0169019
787.488	0.0167699
787.567	0.0165798
787.645	0.0165352
787.723	0.0166135
787.801	0.0164475
787.879	0.0163335
787.957	0.0161807
788.035	0.0160603
788.113	0.0160242
788.192	0.0157649
788.270	0.0156758
788.348	0.0157391
788.426	0.0154462
788.504	0.0155230
788.582	0.0152350
788.660	0.0152320
788.738	0.0152387
788.817	0.0153601
788.895	0.0152740
788.973	0.0153548
789.051	0.0155808
789.129	0.0156933
789.207	0.0159982
789.285	0.0159809
789.363	0.0161843
789.442	0.0164462
789.520	0.0165805
789.598	0.0168201
789.676	0.0170607
789.754	0.0171429
789.832	0.0174185
789.910	0.0175869
789.988	0.0176035
790.067	0.0177183
790.145	0.0177857
790.223	0.0177847
790.301	0.0179482
790.379	0.0178602
790.457	0.0179469
790.535	0.0178435
790.613	0.0177098
790.692	0.0177219
790.770	0.0177198
790.848	0.0178188
790.926	0.0177652
791.004	0.0178629
791.082	0.0179124
791.160	0.0178121
791.238	0.0178667
791.317	0.0178558
791.395	0.0178735
791.473	0.0179505
791.551	0.0179103
791.629	0.0179517
791.707	0.0179989
791.785	0.0178600
791.863	0.0177267
791.942	0.0176218
792.020	0.0176252
792.098	0.0175079
792.176	0.0173899
792.254	0.0173154
792.332	0.0171734
792.410	0.0169321
792.488	0.0166803
792.567	0.0165450
792.645	0.0164417
792.723	0.0163196
792.801	0.0161754
792.879	0.0160188
792.957	0.0157723
793.035	0.0157434
793.113	0.0155201
793.192	0.0154299
793.270	0.0153747
793.348	0.0152187
793.426	0.0150003
793.504	0.0149521
793.582	0.0152055
793.660	0.0152844
793.738	0.0154086
793.817	0.0154532
793.895	0.0156904
793.973	0.0159083
794.051	0.0160971
794.129	0.0164336
794.207	0.0168019
794.285	0.0168758
794.363	0.0171445
794.442	0.0174786
794.520	0.0175816
794.598	0.0177428
794.676	0.0178545
794.754	0.0178742
794.832	0.0180312
794.910	0.0178157
794.988	0.0179155
795.067	0.0179786
795.145	0.0177596
795.223	0.0177449
795.301	0.0175058
795.379	0.0173151
795.457	0.0171568
795.535	0.0170526
795.613	0.0167000
795.692	0.0167621
795.770	0.0165866
795.848	0.0162859
795.926	0.0162023
796.004	0.0161707
796.082	0.0161562
796.160	0.0161729
796.238	0.0164313
796.317	0.0165176
796.395	0.0167171
796.473	0.0169138
796.551	0.0172633
796.629	0.0176431
796.707	0.0178703
796.785	0.0179663
796.863	0.0183267
796.942	0.0186385
797.020	0.0189017
797.098	0.0190382
797.176	0.0192317
797.254	0.0193797
797.332	0.0193613
797.410	0.0193351
797.488	0.0192342
797.567	0.0189286
797.645	0.0185759
797.723	0.0182441
797.801	0.0177289
797.879	0.0173333
797.957	0.0167290
798.035	0.0161176
798.113	0.0156398
798.192	0.0149570
798.270	0.0145199
798.348	0.0141949
798.426	0.0137891
798.504	0.0136493
798.582	0.0134892
798.660	0.0135589
798.738	0.0136050
798.817	0.0136831
798.895	0.0139138
798.973	0.0143438
799.051	0.0145831
799.129	0.0151586
799.207	0.0156182
799.285	0.0162727
799.363	0.0165436
799.442	0.0169753
799.520	0.0174957
799.598	0.0179143
799.676	0.0180513
799.754	0.0182426
799.832	0.0181849
799.910	0.0183656
799.988	0.0181671
800.067	0.0179014
800.145	0.0175510
800.223	0.0173551
800.301	0.0170329
800.379	0.0167893
800.457	0.0164734
800.535	0.0161954
800.613	0.0162446
800.692	0.0161897
800.770	0.0162236
800.848	0.0164714
800.926	0.0166093
801.004	0.0167740
801.082	0.0171251
801.160	0.0172586
801.238	0.0175211
801.317	0.0177275
801.395	0.0180629
801.473	0.0181152
801.551	0.0182303
801.629	0.0183549
801.707	0.0181556
801.785	0.0182418
801.863	0.0180740
801.942	0.0178773
802.020	0.0178016
802.098	0.0175546
802.176	0.0173096
802.254	0.0172388
802.332	0.0170776
802.410	0.0169893
802.488	0.0169355
802.567	0.0169254
802.645	0.0169386
802.723	0.0169440
802.801	0.0170727
802.879	0.0171006
802.957	0.0171575
803.035	0.0173627
803.113	0.0173322
803.192	0.0173007
803.270	0.0172744
803.348	0.0171205
803.426	0.0170511
803.504	0.0166218
803.582	0.0165646
803.660	0.0164855
803.738	0.0159689
803.817	0.0157735
803.895	0.0155801
803.973	0.0154801
804.051	0.0152499
804.129	0.0153467
804.207	0.0154659
804.285	0.0153597
804.363	0.0153992
804.442	0.0156359
804.520	0.0158707
804.598	0.0161574
804.676	0.0164140
804.754	0.0166066
804.832	0.0168642
804.910	0.0170109
804.988	0.0171917
805.067	0.0172450
805.145	0.0172603
805.223	0.0172495
805.301	0.0170780
805.379	0.0170030
805.457	0.0168333
805.535	0.0168904
805.613	0.0167928
805.692	0.0165151
805.770	0.0164484
805.848	0.0161544
805.926	0.0161662
806.004	0.0162446
806.082	0.0162555
806.160	0.0162498
806.238	0.0164438
806.317	0.0166194
806.395	0.0169102
806.473	0.0171745
806.551	0.0175451
806.629	0.0178040
806.707	0.0181155
806.785	0.0182557
806.863	0.0184153
806.942	0.0184969
807.020	0.0184622
807.098	0.0184595
807.176	0.0183028
807.254	0.0180132
807.332	0.0178270
807.410	0.0177752
807.488	0.0173878
807.567	0.0169705
807.645	0.0168155
807.723	0.0164990
807.801	0.0162955
807.879	0.0161868
807.957	0.0159616
808.035	0.0160364
808.113	0.0160522
808.192	0.0162160
808.270	0.0162012
808.348	0.0164404
808.426	0.0165715
808.504	0.0171504
808.582	0.0172684
808.660	0.0174941
808.738	0.0176521
808.817	0.0180838
808.895	0.0182217
808.973	0.0181623
809.051	0.0181651
809.129	0.0180708
809.207	0.0181428
809.285	0.0180776
809.363	0.0177880
809.442	0.0175265
809.520	0.0174187
809.598	0.0169432
809.676	0.0167272
809.754	0.0166058
809.832	0.0161526
809.910	0.0157660
809.988	0.0155401
810.067	0.0153542
810.145	0.0150536
810.223	0.0149978
810.301	0.0148698
810.379	0.0147786
810.457	0.0148296
810.535	0.0148089
810.613	0.0150735
810.692	0.0151168
810.770	0.0155000
810.848	0.0155737
810.926	0.0156414
811.004	0.0158627
811.082	0.0163686
811.160	0.0165754
811.238	0.0169912
811.317	0.0172447
811.395	0.0175049
811.473	0.0177853
811.551	0.0180290
811.629	0.0181748
811.707	0.0182072
811.785	0.0182932
811.863	0.0181271
811.942	0.0180886
812.020	0.0180867
812.098	0.0180930
812.176	0.0178661
812.254	0.0177227
812.332	0.0174957
812.410	0.0173640
812.488	0.0173608
812.567	0.0174486
812.645	0.0171673
812.723	0.0172175
812.801	0.0171701
812.879	0.0171436
812.957	0.0171513
813.035	0.0172189
813.113	0.0172601
813.192	0.0171337
813.270	0.0172404
813.348	0.0172589
813.426	0.0170543
813.504	0.0170471
813.582	0.0171533
813.660	0.0168136
813.738	0.0166969
813.817	0.0166016
813.895	0.0167525
813.973	0.0167054
814.051	0.0166934
814.129	0.0166290
814.207	0.0165341
814.285	0.0167902
814.363	0.0168669
814.442	0.0168381
814.520	0.0170117
814.598	0.0170955
814.676	0.0171432
814.754	0.0172301
814.832	0.0173170
814.910	0.0175882
814.988	0.0175358
815.067	0.0175767
815.145	0.0175981
815.223	0.0174793
815.301	0.0173761
815.379	0.0172691
815.457	0.0172140
815.535	0.0171040
815.613	0.0168845
815.692	0.0165179
815.770	0.0163348
815.848	0.0160679
815.926	0.0158994
816.004	0.0157714
816.082	0.0155629
816.160	0.0155576
816.238	0.0155431
816.317	0.0155407
816.395	0.0156243
816.473	0.0156659
816.551	0.0158752
816.629	0.0160951
816.707	0.0161677
816.785	0.0164364
816.863	0.0164873
816.942	0.0169073
817.020	0.0169509
817.098	0.0170176
817.176	0.0172349
817.254	0.0172509
817.332	0.0174523
817.410	0.0173841
817.488	0.0173999
817.567	0.0173722
817.645	0.0172791
817.723	0.0171636
817.801	0.0171062
817.879	0.0167606
817.957	0.0168509
818.035	0.0167818
818.113	0.0167054
818.192	0.0167560
818.270	0.0167283
818.348	0.0167099
818.426	0.0168848
818.504	0.0170475
818.582	0.0171046
818.660	0.0173423
818.738	0.0173895
818.817	0.0176804
818.895	0.0177969
818.973	0.0178780
819.051	0.0179833
819.129	0.0180536
819.207	0.0179890
819.285	0.0179588
819.363	0.0179317
819.442	0.0177560
819.520	0.0177473
819.598	0.0176749
819.676	0.0173426
819.754	0.0171000
819.832	0.0170319
819.910	0.0167682
819.988	0.0166895
820.067	0.0166223
820.145	0.0165405
820.223	0.0163948
820.301	0.0164722
820.379	0.0164965
820.457	0.0164827
820.535	0.0166232
820.613	0.0165948
820.692	0.0168643
820.770	0.0170148
820.848	0.0171421
820.926	0.0170805
821.004	0.0172884
821.082	0.0174505
821.160	0.0174023
821.238	0.0173682
821.317	0.0173270
821.395	0.0173126
821.473	0.0170660
821.551	0.0169119
821.629	0.0166100
821.707	0.0164853
821.785	0.0162138
821.863	0.0160472
821.942	0.0157973
822.020	0.0155618
822.098	0.0153408
822.176	0.0153664
822.254	0.0152660
822.332	0.0151138
822.410	0.0153371
822.488	0.0154821
822.567	0.0154316
822.645	0.0155558
822.723	0.0156586
822.801	0.0158286
822.879	0.0160543
822.957	0.0162259
823.035	0.0164708
823.113	0.0167027
823.192	0.0170838
823.270	0.0171220
823.348	0.0173471
823.426	0.0174800
823.504	0.0175663
823.582	0.0175586
823.660	0.0177676
823.738	0.0176810
823.817	0.0178426
823.895	0.0178410
823.973	0.0175832
824.051	0.0176881
824.129	0.0175519
824.207	0.0174044
824.285	0.0174307
824.363	0.0174499
824.442	0.0172674
824.520	0.0171902
824.598	0.0172620
824.676	0.0172179
824.754	0.0172313
824.832	0.0171761
824.910	0.0173751
824.988	0.0171690
825.067	0.0171999
825.145	0.0171479
825.223	0.0171330
825.301	0.0171133
825.379	0.0170786
825.457	0.0170047
825.535	0.0169296
825.613	0.0168824
825.692	0.0166573
825.770	0.0167043
825.848	0.0168112
825.926	0.0164066
826.004	0.0162791
826.082	0.0162042
826.160	0.0161736
826.238	0.0161540
826.317	0.0160164
826.395	0.0160257
826.473	0.0160164
826.551	0.0159785
826.629	0.0161925
826.707	0.0163448
826.785	0.0167525
826.863	0.0167885
826.942	0.0169522
827.020	0.0172906
827.098	0.0174287
827.176	0.0175906
827.254	0.0176562
827.332	0.0176492
827.410	0.0176582
827.488	0.0175697
827.567	0.0174792
827.645	0.0174089
827.723	0.0172540
827.801	0.0171160
827.879	0.0169045
827.957	0.0165979
828.035	0.0163325
828.113	0.0161430
828.192	0.0158501
828.270	0.0157330
828.348	0.0155790
828.426	0.0153968
828.504	0.0152721
828.582	0.0152887
828.660	0.0153786
828.738	0.0154372
828.817	0.0155106
828.895	0.0158031
828.973	0.0159256
829.051	0.0158943
829.129	0.0163466
829.207	0.0164812
829.285	0.0166306
829.363	0.0169128
829.442	0.0170567
829.520	0.0171122
829.598	0.0172871
829.676	0.0173811
829.754	0.0174752
829.832	0.0176295
829.910	0.0175574
829.988	0.0174837
830.067	0.0173976
830.145	0.0175045
830.223	0.0174747
830.301	0.0173933
830.379	0.0173241
830.457	0.0175642
830.535	0.0174021
830.613	0.0172816
830.692	0.0173858
830.770	0.0173450
830.848	0.0173574
830.926	0.0174660
831.004	0.0174678
831.082	0.0175713
831.160	0.0175318
831.238	0.0175041
831.317	0.0174802
831.395	0.0175130
831.473	0.0174270
831.551	0.0173495
831.629	0.0172588
831.707	0.0172115
831.785	0.0171288
831.863	0.0169556
831.942	0.0169051
832.020	0.0167899
832.098	0.0164666
832.176	0.0163937
832.254	0.0163304
832.332	0.0163640
832.410	0.0163158
832.488	0.0162645
832.567	0.0163721
832.645	0.0163448
832.723	0.0164476
832.801	0.0166307
832.879	0.0167001
832.957	0.0168760
833.035	0.0169636
833.113	0.0172229
833.192	0.0172833
833.270	0.0174141
833.348	0.0174215
833.426	0.0176366
833.504	0.0175973
833.582	0.0176022
833.660	0.0173941
833.738	0.0173286
833.817	0.0171416
833.895	0.0169164
833.973	0.0167570
834.051	0.0166080
834.129	0.0163181
834.207	0.0161996
834.285	0.0161128
834.363	0.0158980
834.442	0.0155639
834.520	0.0155410
834.598	0.0155360
834.676	0.0155485
834.754	0.0155032
834.832	0.0155453
834.910	0.0154922
834.988	0.0156970
835.067	0.0158884
835.145	0.0160061
835.223	0.0163633
835.301	0.0165453
835.379	0.0168320
835.457	0.0170366
835.535	0.0175101
835.613	0.0175375
835.692	0.0176525
835.770	0.0177050
835.848	0.0179778
835.926	0.0179420
836.004	0.0181569
836.082	0.0180423
836.160	0.0179483
836.238	0.0178967
836.317	0.0177851
836.395	0.0175423
836.473	0.0174837
836.551	0.0174680
836.629	0.0173391
836.707	0.0170507
836.785	0.0169090
836.863	0.0169553
836.942	0.0168804
837.020	0.0167326
837.098	0.0168299
837.176	0.0168208
837.254	0.0168103
837.332	0.0170406
837.410	0.0171997
837.488	0.0171165
837.567	0.0171250
837.645	0.0170820
837.723	0.0171983
837.801	0.0173907
837.879	0.0172704
837.957	0.0172640
838.035	0.0171342
838.113	0.0172025
838.192	0.0170626
838.270	0.0170309
838.348	0.0169820
838.426	0.0170211
838.504	0.0168492
838.582	0.0167010
838.660	0.0165853
838.738	0.0167151
838.817	0.0166702
838.895	0.0165994
838.973	0.0166569
839.051	0.0166961
839.129	0.0166288
839.207	0.0168523
839.285	0.0168221
839.363	0.0169260
839.442	0.0171654
839.520	0.0172407
839.598	0.0171995
839.676	0.0173987
839.754	0.0173536
839.832	0.0173363
839.910	0.0172847
839.988	0.0172337
840.067	0.0169645
840.145	0.0168422
840.223	0.0168937
840.301	0.0166990
840.379	0.0164432
840.457	0.0162969
840.535	0.0161477
840.613	0.0159809
840.692	0.0159316
840.770	0.0156235
840.848	0.0154461
840.926	0.0155113
841.004	0.0155016
841.082	0.0156081
841.160	0.0158617
841.238	0.0158511
841.317	0.0160630
841.395	0.0162566
841.473	0.0165149
841.551	0.0167315
841.629	0.0167963
841.707	0.0171789
841.785	0.0172424
841.863	0.0173811
841.942	0.0175844
842.020	0.0175298
842.098	0.0176239
842.176	0.0178014
842.254	0.0179234
842.332	0.0179415
842.410	0.0177334
842.488	0.0176450
842.567	0.0177266
842.645	0.0176476
842.723	0.0175264
842.801	0.0172425
842.879	0.0171551
842.957	0.0172202
843.035	0.0171066
843.113	0.0171061
843.192	0.0170898
843.270	0.0170079
843.348	0.0169829
843.426	0.0172050
843.504	0.0170188
843.582	0.0169707
843.660	0.0170463
843.738	0.0170918
843.817	0.0169935
843.895	0.0170641
843.973	0.0169830
844.051	0.0169569
844.129	0.0168617
844.207	0.0167740
844.285	0.0170084
844.363	0.0167945
844.442	0.0166505
844.520	0.0167757
844.598	0.0167545
844.676	0.0166367
844.754	0.0166728
844.832	0.0166573
844.910	0.0166371
844.988	0.0164577
845.067	0.0166470
845.145	0.0166859
845.223	0.0166106
845.301	0.0165758
845.379	0.0166348
845.457	0.0167383
845.535	0.0167579
845.613	0.0168317
845.692	0.0168024
845.770	0.0167270
845.848	0.0170409
845.926	0.0169105
846.004	0.0168840
846.082	0.0169095
846.160	0.0168900
846.238	0.0168187
846.317	0.0167357
846.395	0.0167116
846.473	0.0166766
846.551	0.0165075
846.629	0.0163608
846.707	0.0162263
846.785	0.0160931
846.863	0.0160902
846.942	0.0159841
847.020	0.0160553
847.098	0.0160626
847.176	0.0160143
847.254	0.0161926
847.332	0.0161649
847.410	0.0163667
847.488	0.0162892
847.567	0.0165179
847.645	0.0167497
847.723	0.0168587
847.801	0.0168517
847.879	0.0171993
847.957	0.0173978
848.035	0.0173997
848.113	0.0175372
848.192	0.0175028
848.270	0.0174754
848.348	0.0174535
848.426	0.0174591
848.504	0.0174365
848.582	0.0175137
848.660	0.0172943
848.738	0.0171428
848.817	0.0171290
848.895	0.0170431
848.973	0.0168492
849.051	0.0168108
849.129	0.0166685
849.207	0.0166334
849.285	0.0166492
849.363	0.0165784
849.442	0.0166049
849.520	0.0167490
849.598	0.0169270
849.676	0.0168889
849.754	0.0170188
849.832	0.0171780
849.910	0.0172987
849.988	0.0172594
850.067	0.0174252
850.145	0.0174483
850.223	0.0175232
850.301	0.0175532
850.379	0.0175705
850.457	0.0175242
850.535	0.0174191
850.613	0.0173724
850.692	0.0173602
850.770	0.0173416
850.848	0.0171314
850.926	0.0170634
851.004	0.0168981
851.082	0.0167377
851.160	0.0167384
851.238	0.0166190
851.317	0.0167271
851.395	0.0165654
851.473	0.0164919
851.551	0.0165183
851.629	0.0166360
851.707	0.0166942
851.785	0.0167828
851.863	0.0169398
851.942	0.0169855
852.020	0.0170734
852.098	0.0169215
852.176	0.0169711
852.254	0.0171227
852.332	0.0170776
852.410	0.0172012
852.488	0.0172013
852.567	0.0169672
852.645	0.0169624
852.723	0.0168028
852.801	0.0165865
852.879	0.0165850
852.957	0.0164236
853.035	0.0162930
853.113	0.0160706
853.192	0.0160455
853.270	0.0158907
853.348	0.0158069
853.426	0.0158787
853.504	0.0160263
853.582	0.0160664
853.660	0.0162007
853.738	0.0163649
853.817	0.0165790
853.895	0.0168215
853.973	0.0169739
854.051	0.0172240
854.129	0.0173318
854.207	0.0174020
854.285	0.0176292
854.363	0.0176006
854.442	0.0176112
854.520	0.0177440
854.598	0.0175458
854.676	0.0176204
854.754	0.0176448
854.832	0.0175563
854.910	0.0173742
854.988	0.0172083
855.067	0.0171564
855.145	0.0170601
855.223	0.0169477
855.301	0.0169363
855.379	0.0169011
855.457	0.0167280
855.535	0.0166887
855.613	0.0168021
855.692	0.0168591
855.770	0.0169089
855.848	0.0169257
855.926	0.0169193
856.004	0.0171892
856.082	0.0172091
856.160	0.0172759
856.238	0.0173011
856.317	0.0172790
856.395	0.0174291
856.473	0.0174873
856.551	0.0173830
856.629	0.0175366
856.707	0.0176287
856.785	0.0175197
856.863	0.0174958
856.942	0.0173091
857.020	0.0172285
857.098	0.0172156
857.176	0.0171849
857.254	0.0170177
857.332	0.0169320
857.410	0.0167654
857.488	0.0168282
857.567	0.0166238
857.645	0.0167269
857.723	0.0166811
857.801	0.0166620
857.879	0.0166854
857.957	0.0167154
858.035	0.0166791
858.113	0.0166027
858.192	0.0165536
858.270	0.0166505
858.348	0.0166765
858.426	0.0167208
858.504	0.0166054
858.582	0.0165451
858.660	0.0165350
858.738	0.0165665
858.817	0.0165602
858.895	0.0165022
858.973	0.0165388
859.051	0.0163525
859.129	0.0163132
859.207	0.0162895
859.285	0.0164505
859.363	0.0164635
859.442	0.0162592
859.520	0.0163976
859.598	0.0162998
859.676	0.0162915
859.754	0.0164549
859.832	0.0165130
859.910	0.0166388
859.988	0.0166701
860.067	0.0168587
860.145	0.0168201
860.223	0.0170307
860.301	0.0171086
860.379	0.0171542
860.457	0.0172255
860.535	0.0172508
860.613	0.0172285
860.692	0.0172729
860.770	0.0172735
860.848	0.0171368
860.926	0.0170599
861.004	0.0170582
861.082	0.0170812
861.160	0.0168967
861.238	0.0169215
861.317	0.0169637
861.395	0.0167642
861.473	0.0169704
861.551	0.0169206
861.629	0.0167869
861.707	0.0167986
861.785	0.0170018
861.863	0.0170120
861.942	0.0169682
862.020	0.0170226
862.098	0.0170795
862.176	0.0170775
862.254	0.0171501
862.332	0.0171329
862.410	0.0171938
862.488	0.0171369
862.567	0.0173119
862.645	0.0174390
862.723	0.0174070
862.801	0.0175330
862.879	0.0175256
862.957	0.0175270
863.035	0.0173340
863.113	0.0173101
863.192	0.0171590
863.270	0.0170614
863.348	0.0169115
863.426	0.0168999
863.504	0.0167252
863.582	0.0166961
863.660	0.0165705
863.738	0.0165382
863.817	0.0165351
863.895	0.0165978
863.973	0.0165419
864.051	0.0165662
864.129	0.0166000
864.207	0.0165571
864.285	0.0167900
864.363	0.0168951
864.442	0.0168720
864.520	0.0168794
864.598	0.0170552
864.676	0.0171556
864.754	0.0169600
864.832	0.0170227
864.910	0.0170672
864.988	0.0169706
865.067	0.0168990
865.145	0.0166653
865.223	0.0166762
865.301	0.0165599
865.379	0.0164591
865.457	0.0165190
865.535	0.0163110
865.613	0.0161375
865.692	0.0161720
865.770	0.0161089
865.848	0.0161634
865.926	0.0161262
866.004	0.0164226
866.082	0.0163486
866.160	0.0165591
866.238	0.0167329
866.317	0.0167828
866.395	0.0169037
866.473	0.0170704
866.551	0.0172167
866.629	0.0172378
866.707	0.0174088
866.785	0.0174259
866.863	0.0174722
866.942	0.0174883
867.020	0.0174060
867.098	0.0173673
867.176	0.0173068
867.254	0.0171361
867.332	0.0170709
867.410	0.0168435
867.488	0.0168369
867.567	0.0167826
867.645	0.0165998
867.723	0.0164941
867.801	0.0166669
867.879	0.0166191
867.957	0.0166320
868.035	0.0165794
868.113	0.0166673
868.192	0.0167599
868.270	0.0169752
868.348	0.0170535
868.426	0.0170602
868.504	0.0171226
868.582	0.0173656
868.660	0.0174268
868.738	0.0173795
868.817	0.0175089
868.895	0.0174485
868.973	0.0174059
869.051	0.0175620
869.129	0.0173502
869.207	0.0173388
869.285	0.0173155
869.363	0.0172592
869.442	0.0170863
869.520	0.0169818
869.598	0.0168756
869.676	0.0168490
869.754	0.0165689
869.832	0.0165399
869.910	0.0164085
869.988	0.0166393
870.067	0.0163892
870.145	0.0163467
870.223	0.0164621
870.301	0.0164497
870.379	0.0164594
870.457	0.0164969
870.535	0.0165844
870.613	0.0167930
870.692	0.0167696
870.770	0.0167960
870.848	0.0169152
870.926	0.0169543
871.004	0.0168599
871.082	0.0169205
871.160	0.0169431
871.238	0.0167780
871.317	0.0168037
871.395	0.0167300
871.473	0.0166113
871.551	0.0164896
871.629	0.0164621
871.707	0.0164379
871.785	0.0164700
871.863	0.0163007
871.942	0.0163987
872.020	0.0162341
872.098	0.0163905
872.176	0.0163624
872.254	0.0166095
872.332	0.0167479
872.410	0.0166393
872.488	0.0167878
872.567	0.0168683
872.645	0.0169557
872.723	0.0170469
872.801	0.0172530
872.879	0.0172520
872.957	0.0173347
873.035	0.0174946
873.113	0.0173813
873.192	0.0173681
873.270	0.0173534
873.348	0.0173225
873.426	0.0173686
873.504	0.0171819
873.582	0.0174187
873.660	0.0172781
873.738	0.0171412
873.817	0.0169623
873.895	0.0169413
873.973	0.0169199
874.051	0.0170867
874.129	0.0169859
874.207	0.0169770
874.285	0.0169803
874.363	0.0170142
874.442	0.0170117
874.520	0.0170131
874.598	0.0170777
874.676	0.0171214
874.754	0.0171942
874.832	0.0173274
874.910	0.0173340
874.988	0.0173433
875.067	0.0173804
875.145	0.0175411
875.223	0.0174358
875.301	0.0173582
875.379	0.0172810
875.457	0.0173329
875.535	0.0171721
875.613	0.0171200
875.692	0.0169957
875.770	0.0169669
875.848	0.0167888
875.926	0.0168305
876.004	0.0167014
876.082	0.0165234
876.160	0.0164243
876.238	0.0165165
876.317	0.0163139
876.395	0.0163205
876.473	0.0162720
876.551	0.0163577
876.629	0.0164372
876.707	0.0164360
876.785	0.0165270
876.863	0.0164581
876.942	0.0166582
877.020	0.0167585
877.098	0.0168187
877.176	0.0170181
877.254	0.0169257
877.332	0.0168914
877.410	0.0171838
877.488	0.0172421
877.567	0.0171757
877.645	0.0171134
877.723	0.0170608
877.801	0.0170682
877.879	0.0170333
877.957	0.0169445
878.035	0.0169784
878.113	0.0168600
878.192	0.0168158
878.270	0.0168223
878.348	0.0168131
878.426	0.0167860
878.504	0.0167554
878.582	0.0166889
878.660	0.0168665
878.738	0.0170234
878.817	0.0170168
878.895	0.0171826
878.973	0.0171582
879.051	0.0173076
879.129	0.0172916
879.207	0.0173424
879.285	0.0173937
879.363	0.0174567
879.442	0.0174203
879.520	0.0174495
879.598	0.0174201
879.676	0.0171931
879.754	0.0172787
879.832	0.0169843
879.910	0.0170670
879.988	0.0168567
880.067	0.0167859
880.145	0.0166277
880.223	0.0165843
880.301	0.0165634
880.379	0.0164449
880.457	0.0165000
880.535	0.0164005
880.613	0.0165457
880.692	0.0166772
880.770	0.0165465
880.848	0.0165915
880.926	0.0165421
881.004	0.0165728
881.082	0.0168128
881.160	0.0168976
881.238	0.0170197
881.317	0.0169695
881.395	0.0170375
881.473	0.0170937
881.551	0.0171613
881.629	0.0172078
881.707	0.0171754
881.785	0.0172548
881.863	0.0170493
881.942	0.0169117
882.020	0.0169345
882.098	0.0169107
882.176	0.0167361
882.254	0.0166779
882.332	0.0166425
882.410	0.0166003
882.488	0.0167229
882.567	0.0165538
882.645	0.0163849
882.723	0.0165308
882.801	0.0165374
882.879	0.0166001
882.957	0.0167884
883.035	0.0169038
883.113	0.0168832
883.192	0.0170316
883.270	0.0170576
883.348	0.0170753
883.426	0.0172797
883.504	0.0173701
883.582	0.0174494
883.660	0.0173886
883.738	0.0174653
883.817	0.0172441
883.895	0.0171152
883.973	0.0172338
884.051	0.0170616
884.129	0.0169823
884.207	0.0169819
884.285	0.0169045
884.363	0.0166400
884.442	0.0165597
884.520	0.0165937
884.598	0.0164287
884.676	0.0164236
884.754	0.0162900
884.832	0.0163425
884.910	0.0163835
884.988	0.0165473
885.067	0.0164614
885.145	0.0164762
885.223	0.0166277
885.301	0.0165861
885.379	0.0166985
885.457	0.0169140
885.535	0.0170427
885.613	0.0171271
885.692	0.0170445
885.770	0.0170766
885.848	0.0172395
885.926	0.0172877
886.004	0.0172768
886.082	0.0170603
886.160	0.0170573
886.238	0.0171077
886.317	0.0170518
886.395	0.0170724
886.473	0.0170073
886.551	0.0170818
886.629	0.0169771
886.707	0.0169486
886.785	0.0168118
886.863	0.0169291
886.942	0.0168560
887.020	0.0168277
887.098	0.0167820
887.176	0.0168736
887.254	0.0167945
887.332	0.0169899
887.410	0.0170737
887.488	0.0169474
887.567	0.0170433
887.645	0.0172034
887.723	0.0171097
887.801	0.0171901
887.879	0.0172583
887.957	0.0172979
888.035	0.0172068
888.113	0.0173087
888.192	0.0170067
888.270	0.0172212
888.348	0.0170564
888.426	0.0170994
888.504	0.0169028
888.582	0.0169202
888.660	0.0168475
888.738	0.0168423
888.817	0.0167159
888.895	0.0165656
888.973	0.0166142
889.051	0.0165645
889.129	0.0166076
889.207	0.0165717
889.285	0.0167014
889.363	0.0166756
889.442	0.0166299
889.520	0.0166275
889.598	0.0168232
889.676	0.0168342
889.754	0.0168121
889.832	0.0168327
889.910	0.0168020
889.988	0.0170251
890.067	0.0169417
890.145	0.0169401
890.223	0.0169082
890.301	0.0170934
890.379	0.0170155
890.457	0.0168555
890.535	0.0168383
890.613	0.0167828
890.692	0.0167610
890.770	0.0165401
890.848	0.0166641
890.926	0.0165368
891.004	0.0164835
891.082	0.0166219
891.160	0.0165326
891.238	0.0165990
891.317	0.0165758
891.395	0.0166898
891.473	0.0166702
891.551	0.0167993
891.629	0.0166891
891.707	0.0168101
891.785	0.0168263
891.863	0.0169009
891.942	0.0170768
892.020	0.0171754
892.098	0.0170391
892.176	0.0170724
892.254	0.0170469
892.332	0.0170706
892.410	0.0170506
892.488	0.0169479
892.567	0.0169667
892.645	0.0168897
892.723	0.0168639
892.801	0.0166611
892.879	0.0165664
892.957	0.0167549
893.035	0.0167887
893.113	0.0166904
893.192	0.0165688
893.270	0.0166010
893.348	0.0167599
893.426	0.0166825
893.504	0.0167405
893.582	0.0167192
893.660	0.0168751
893.738	0.0170327
893.817	0.0170436
893.895	0.0169781
893.973	0.0169732
894.051	0.0172312
894.129	0.0170683
894.207	0.0171581
894.285	0.0171569
894.363	0.0172266
894.442	0.0172023
894.520	0.0171689
894.598	0.0169717
894.676	0.0169606
894.754	0.0169306
894.832	0.0168303
894.910	0.0167989
894.988	0.0165774
895.067	0.0166515
895.145	0.0166251
895.223	0.0164994
895.301	0.0164558
895.379	0.0164920
895.457	0.0164706
895.535	0.0164223
895.613	0.0163580
895.692	0.0164785
895.770	0.0165082
895.848	0.0166034
895.926	0.0166837
896.004	0.0166998
896.082	0.0168446
896.160	0.0169892
896.238	0.0169382
896.317	0.0170201
896.395	0.0171522
896.473	0.0172598
896.551	0.0171984
896.629	0.0170660
896.707	0.0170757
896.785	0.0172921
896.863	0.0170615
896.942	0.0171938
897.020	0.0171253
897.098	0.0170329
897.176	0.0169174
897.254	0.0168985
897.332	0.0169746
897.410	0.0169315
897.488	0.0166776
897.567	0.0168124
897.645	0.0166955
897.723	0.0168449
897.801	0.0167876
897.879	0.0167225
897.957	0.0168766
898.035	0.0167165
898.113	0.0168240
898.192	0.0170332
898.270	0.0169906
898.348	0.0169299
898.426	0.0171070
898.504	0.0170048
898.582	0.0169205
898.660	0.0169395
898.738	0.0168552
898.817	0.0168775
898.895	0.0168582
898.973	0.0169173
899.051	0.0168885
899.129	0.0167903
899.207	0.0168683
899.285	0.0169157
899.363	0.0167876
899.442	0.0169510
899.520	0.0169026
899.598	0.0168939
899.676	0.0167735
899.754	0.0167059
899.832	0.0167155
899.910	0.0167361
899.988	0.0165255
900.067	0.0165495
900.145	0.0166985
900.223	0.0166493
900.301	0.0166352
900.379	0.0165931
900.457	0.0165096
900.535	0.0167229
900.613	0.0166710
900.692	0.0166999
900.770	0.0166856
900.848	0.0168340
900.926	0.0167811
901.004	0.0170006
901.082	0.0168930
901.160	0.0169125
901.238	0.0169585
901.317	0.0167778
901.395	0.0168558
901.473	0.0170431
901.551	0.0169160
901.629	0.0168185
901.707	0.0168104
901.785	0.0168562
901.863	0.0169513
901.942	0.0167439
902.020	0.0167807
902.098	0.0168484
902.176	0.0168278
902.254	0.0167756
902.332	0.0167588
902.410	0.0168044
902.488	0.0167346
902.567	0.0169584
902.645	0.0170739
902.723	0.0169607
902.801	0.0169127
902.879	0.0170641
902.957	0.0169715
903.035	0.0170508
903.113	0.0170493
903.192	0.0171481
903.270	0.0171235
903.348	0.0172181
903.426	0.0170090
903.504	0.0170833
903.582	0.0170454
903.660	0.0170547
903.738	0.0169843
903.817	0.0167573
903.895	0.0169270
903.973	0.0170437
904.051	0.0169022
904.129	0.0168614
904.207	0.0168520
904.285	0.0168769
904.363	0.0167451
904.442	0.0166444
904.520	0.0168207
904.598	0.0167384
904.676	0.0167238
904.754	0.0166510
904.832	0.0166682
904.910	0.0166124
904.988	0.0166305
905.067	0.0167455
905.145	0.0167729
905.223	0.0166943
905.301	0.0168141
905.379	0.0166195
905.457	0.0168661
905.535	0.0168742
905.613	0.0168507
905.692	0.0167847
905.770	0.0167271
905.848	0.0168674
905.926	0.0168399
906.004	0.0168667
906.082	0.0168780
906.160	0.0168072
906.238	0.0167166
906.317	0.0168346
906.395	0.0167967
906.473	0.0167573
906.551	0.0166023
906.629	0.0167255
906.707	0.0167426
906.785	0.0166955
906.863	0.0166326
906.942	0.0167401
907.020	0.0165832
907.098	0.0166589
907.176	0.0167502
907.254	0.0166352
907.332	0.0167262
907.410	0.0166170
907.488	0.0167946
907.567	0.0168110
907.645	0.0167428
907.723	0.0168047
907.801	0.0169373
907.879	0.0169452
907.957	0.0170084
908.035	0.0169087
908.113	0.0169826
908.192	0.0170292
908.270	0.0169816
908.348	0.0170544
908.426	0.0170337
908.504	0.0169488
908.582	0.0170306
908.660	0.0171300
908.738	0.0172274
908.817	0.0171587
908.895	0.0171951
908.973	0.0171978
909.051	0.0171959
909.129	0.0172153
909.207	0.0172150
909.285	0.0171659
909.363	0.0173034
909.442	0.0171697
909.520	0.0171419
909.598	0.0171592
909.676	0.0171528
909.754	0.0170837
909.832	0.0169386
909.910	0.0169814
909.988	0.0168252
910.067	0.0169371
910.145	0.0168365
910.223	0.0167870
910.301	0.0168027
910.379	0.0168774
910.457	0.0167072
910.535	0.0167690
910.613	0.0166261
910.692	0.0167200
910.770	0.0166083
910.848	0.0165504
910.926	0.0166188
911.004	0.0167631
911.082	0.0166455
911.160	0.0167191
911.238	0.0167706
911.317	0.0167161
911.395	0.0168712
911.473	0.0167500
911.551	0.0168304
911.629	0.0168729
911.707	0.0169814
911.785	0.0169411
911.863	0.0167445
911.942	0.0169122
912.020	0.0168905
912.098	0.0167803
912.176	0.0166869
912.254	0.0166638
912.332	0.0168552
912.410	0.0168230
912.488	0.0168091
912.567	0.0167283
912.645	0.0167738
912.723	0.0166879
912.801	0.0168675
912.879	0.0167469
912.957	0.0168663
913.035	0.0168999
913.113	0.0168703
913.192	0.0169411
913.270	0.0170129
913.348	0.0168019
913.426	0.0169114
913.504	0.0169164
913.582	0.0169425
913.660	0.0170377
913.738	0.0170255
913.817	0.0171357
913.895	0.0171592
913.973	0.0171401
914.051	0.0170969
914.129	0.0171217
914.207	0.0171236
914.285	0.0169792
914.363	0.0171436
914.442	0.0169508
914.520	0.0169806
914.598	0.0168550
914.676	0.0169935
914.754	0.0169009
914.832	0.0169975
914.910	0.0168462
914.988	0.0169173
915.067	0.0169947
915.145	0.0169083
915.223	0.0169762
915.301	0.0171098
915.379	0.0170390
915.457	0.0169942
915.535	0.0169261
915.613	0.0170490
915.692	0.0170815
915.770	0.0169988
915.848	0.0171014
915.926	0.0171182
916.004	0.0170696
916.082	0.0170452
916.160	0.0170384
916.238	0.0168378
916.317	0.0168734
916.395	0.0170258
916.473	0.0169158
916.551	0.0169196
916.629	0.0168005
916.707	0.0169106
916.785	0.0168835
916.863	0.0167852
916.942	0.0166517
917.020	0.0167200
917.098	0.0167381
917.176	0.0166883
917.254	0.0166122
917.332	0.0167400
917.410	0.0168068
917.488	0.0167043
917.567	0.0166311
917.645	0.0167679
917.723	0.0168894
917.801	0.0168706
917.879	0.0167368
917.957	0.0168145
918.035	0.0169430
918.113	0.0169168
918.192	0.0167668
918.270	0.0168970
918.348	0.0167407
918.426	0.0169334
918.504	0.0168881
918.582	0.0168423
918.660	0.0168591
918.738	0.0168607
918.817	0.0167963
918.895	0.0167957
918.973	0.0167708
919.051	0.0167063
919.129	0.0167421
919.207	0.0166915
919.285	0.0167837
919.363	0.0168767
919.442	0.0167643
919.520	0.0168584
919.598	0.0169640
919.676	0.0169759
919.754	0.0169515
919.832	0.0170597
919.910	0.0169263
