06/10/2022	16:28:38	Ver.	4.1	UNKNOWN
Optical Delay	650.009681	Delta X		0.078125	Sweeps	1	Scan Rate	0/0
Coordinates	Axis 1	NaN	Axis 2	NaN	Axis 3	NaN	Axis 4	NaN	Axis 5	NaN	Axis 6	0.000000
TX Power	0.000000	RX Power	0.000000

650.010	0.0170188
650.088	0.0170460
650.166	0.0168949
650.244	0.0168949
650.322	0.0168636
650.400	0.0169492
650.478	0.0169209
650.557	0.0171121
650.635	0.0168953
650.713	0.0168845
650.791	0.0170150
650.869	0.0168746
650.947	0.0169736
651.025	0.0169566
651.103	0.0169812
651.182	0.0168520
651.260	0.0168495
651.338	0.0169746
651.416	0.0168797
651.494	0.0169290
651.572	0.0168171
651.650	0.0169630
651.728	0.0168075
651.807	0.0168603
651.885	0.0169274
651.963	0.0167766
652.041	0.0169716
652.119	0.0168544
652.197	0.0167842
652.275	0.0169927
652.353	0.0169293
652.432	0.0168356
652.510	0.0168084
652.588	0.0169634
652.666	0.0168742
652.744	0.0168061
652.822	0.0167863
652.900	0.0169260
652.978	0.0167600
653.057	0.0167789
653.135	0.0168729
653.213	0.0169170
653.291	0.0167227
653.369	0.0167489
653.447	0.0169465
653.525	0.0170219
653.603	0.0167987
653.682	0.0167492
653.760	0.0168941
653.838	0.0168533
653.916	0.0167148
653.994	0.0167791
654.072	0.0168999
654.150	0.0167979
654.228	0.0168702
654.307	0.0168406
654.385	0.0169309
654.463	0.0169016
654.541	0.0167797
654.619	0.0168784
654.697	0.0168630
654.775	0.0167786
654.853	0.0168330
654.932	0.0167898
655.010	0.0168350
655.088	0.0168481
655.166	0.0168866
655.244	0.0167709
655.322	0.0168121
655.400	0.0169577
655.478	0.0168580
655.557	0.0168541
655.635	0.0168453
655.713	0.0167128
655.791	0.0167320
655.869	0.0168985
655.947	0.0167641
656.025	0.0168588
656.103	0.0169523
656.182	0.0169392
656.260	0.0169020
656.338	0.0168626
656.416	0.0168382
656.494	0.0168993
656.572	0.0168537
656.650	0.0169254
656.728	0.0169130
656.807	0.0167832
656.885	0.0167030
656.963	0.0169220
657.041	0.0169952
657.119	0.0169772
657.197	0.0169177
657.275	0.0167738
657.353	0.0169788
657.432	0.0169903
657.510	0.0168340
657.588	0.0169270
657.666	0.0169016
657.744	0.0169171
657.822	0.0168205
657.900	0.0168542
657.978	0.0168887
658.057	0.0168999
658.135	0.0168625
658.213	0.0168101
658.291	0.0169629
658.369	0.0169810
658.447	0.0169247
658.525	0.0169180
658.603	0.0170624
658.682	0.0168388
658.760	0.0168590
658.838	0.0168369
658.916	0.0169459
658.994	0.0168771
659.072	0.0168959
659.150	0.0168617
659.228	0.0169202
659.307	0.0170044
659.385	0.0168777
659.463	0.0168063
659.541	0.0169109
659.619	0.0169103
659.697	0.0168985
659.775	0.0170023
659.853	0.0168575
659.932	0.0170530
660.010	0.0169290
660.088	0.0169736
660.166	0.0169727
660.244	0.0169277
660.322	0.0169323
660.400	0.0168934
660.478	0.0169254
660.557	0.0170650
660.635	0.0170438
660.713	0.0171243
660.791	0.0169148
660.869	0.0169327
660.947	0.0169689
661.025	0.0171021
661.103	0.0171347
661.182	0.0170534
661.260	0.0169721
661.338	0.0170451
661.416	0.0170473
661.494	0.0169899
661.572	0.0169923
661.650	0.0170779
661.728	0.0170178
661.807	0.0169997
661.885	0.0171156
661.963	0.0170637
662.041	0.0170601
662.119	0.0171206
662.197	0.0171477
662.275	0.0170665
662.353	0.0171649
662.432	0.0171009
662.510	0.0169968
662.588	0.0171725
662.666	0.0170012
662.744	0.0171349
662.822	0.0173125
662.900	0.0171590
662.978	0.0170583
663.057	0.0171243
663.135	0.0171264
663.213	0.0171204
663.291	0.0172604
663.369	0.0171806
663.447	0.0170549
663.525	0.0171957
663.603	0.0171796
663.682	0.0171912
663.760	0.0172187
663.838	0.0170026
663.916	0.0172036
663.994	0.0170174
664.072	0.0170660
664.150	0.0171845
664.228	0.0171027
664.307	0.0170148
664.385	0.0171428
664.463	0.0169514
664.541	0.0171017
664.619	0.0170788
664.697	0.0169907
664.775	0.0169938
664.853	0.0170844
664.932	0.0171899
665.010	0.0170338
665.088	0.0171698
665.166	0.0170621
665.244	0.0170449
665.322	0.0170325
665.400	0.0169456
665.478	0.0170979
665.557	0.0170017
665.635	0.0169710
665.713	0.0170319
665.791	0.0170782
665.869	0.0170393
665.947	0.0169516
666.025	0.0170840
666.103	0.0169241
666.182	0.0170052
666.260	0.0169595
666.338	0.0169271
666.416	0.0169205
666.494	0.0169495
666.572	0.0170033
666.650	0.0170373
666.728	0.0170190
666.807	0.0169289
666.885	0.0168531
666.963	0.0170418
667.041	0.0169950
667.119	0.0169332
667.197	0.0170505
667.275	0.0169983
667.353	0.0167840
667.432	0.0170670
667.510	0.0170246
667.588	0.0169717
667.666	0.0170286
667.744	0.0168205
667.822	0.0168620
667.900	0.0170026
667.978	0.0171548
668.057	0.0170683
668.135	0.0169933
668.213	0.0169217
668.291	0.0169401
668.369	0.0169992
668.447	0.0169228
668.525	0.0170380
668.603	0.0169043
668.682	0.0169957
668.760	0.0169739
668.838	0.0170499
668.916	0.0170269
668.994	0.0169766
669.072	0.0170873
669.150	0.0169573
669.228	0.0170974
669.307	0.0168514
669.385	0.0171367
669.463	0.0169250
669.541	0.0169448
669.619	0.0170741
669.697	0.0169570
669.775	0.0169724
669.853	0.0169703
669.932	0.0169893
670.010	0.0170347
670.088	0.0170313
670.166	0.0170812
670.244	0.0169781
670.322	0.0169270
670.400	0.0170343
670.478	0.0169875
670.557	0.0169526
670.635	0.0170575
670.713	0.0170330
670.791	0.0169881
670.869	0.0169347
670.947	0.0169353
671.025	0.0170866
671.103	0.0169737
671.182	0.0169765
671.260	0.0169331
671.338	0.0168795
671.416	0.0169547
671.494	0.0169977
671.572	0.0170295
671.650	0.0169131
671.728	0.0170914
671.807	0.0169378
671.885	0.0169618
671.963	0.0170448
672.041	0.0171423
672.119	0.0169952
672.197	0.0169476
672.275	0.0168973
672.353	0.0169755
672.432	0.0169179
672.510	0.0168857
672.588	0.0170316
672.666	0.0169324
672.744	0.0169361
672.822	0.0168742
672.900	0.0169801
672.978	0.0169698
673.057	0.0169612
673.135	0.0168452
673.213	0.0169218
673.291	0.0169684
673.369	0.0169958
673.447	0.0169037
673.525	0.0169981
673.603	0.0169877
673.682	0.0169901
673.760	0.0169743
673.838	0.0170148
673.916	0.0168375
673.994	0.0170306
674.072	0.0169722
674.150	0.0169581
674.228	0.0169493
674.307	0.0169366
674.385	0.0168003
674.463	0.0169917
674.541	0.0169511
674.619	0.0170542
674.697	0.0170876
674.775	0.0168038
674.853	0.0168544
674.932	0.0169878
675.010	0.0168633
675.088	0.0168991
675.166	0.0168690
675.244	0.0168243
675.322	0.0170393
675.400	0.0168941
675.478	0.0168896
675.557	0.0169811
675.635	0.0169650
675.713	0.0168394
675.791	0.0168652
675.869	0.0169753
675.947	0.0169106
676.025	0.0169652
676.103	0.0168082
676.182	0.0169254
676.260	0.0170163
676.338	0.0168760
676.416	0.0169130
676.494	0.0168984
676.572	0.0169437
676.650	0.0170246
676.728	0.0168887
676.807	0.0170267
676.885	0.0168111
676.963	0.0168868
677.041	0.0170223
677.119	0.0169655
677.197	0.0168789
677.275	0.0169274
677.353	0.0169669
677.432	0.0169733
677.510	0.0168927
677.588	0.0168565
677.666	0.0169548
677.744	0.0169672
677.822	0.0170265
677.900	0.0168346
677.978	0.0169009
678.057	0.0169510
678.135	0.0167929
678.213	0.0168259
678.291	0.0169451
678.369	0.0169556
678.447	0.0168439
678.525	0.0168616
678.603	0.0167698
678.682	0.0168736
678.760	0.0168704
678.838	0.0168595
678.916	0.0170265
678.994	0.0170669
679.072	0.0169060
679.150	0.0167348
679.228	0.0168088
679.307	0.0169237
679.385	0.0167690
679.463	0.0168810
679.541	0.0168722
679.619	0.0169071
679.697	0.0168654
679.775	0.0170037
679.853	0.0168797
679.932	0.0167889
680.010	0.0169021
680.088	0.0169100
680.166	0.0169297
680.244	0.0167513
680.322	0.0168340
680.400	0.0168282
680.478	0.0168603
680.557	0.0168274
680.635	0.0168909
680.713	0.0168258
680.791	0.0169843
680.869	0.0167838
680.947	0.0168658
681.025	0.0170090
681.103	0.0169087
681.182	0.0167362
681.260	0.0168594
681.338	0.0169123
681.416	0.0169526
681.494	0.0168385
681.572	0.0167817
681.650	0.0168694
681.728	0.0168726
681.807	0.0168866
681.885	0.0168706
681.963	0.0168874
682.041	0.0168176
682.119	0.0170360
682.197	0.0169379
682.275	0.0168309
682.353	0.0170063
682.432	0.0169167
682.510	0.0169571
682.588	0.0169430
682.666	0.0168312
682.744	0.0167590
682.822	0.0170280
682.900	0.0168529
682.978	0.0168731
683.057	0.0169476
683.135	0.0168775
683.213	0.0170647
683.291	0.0169064
683.369	0.0167249
683.447	0.0168658
683.525	0.0169567
683.603	0.0169490
683.682	0.0170364
683.760	0.0169955
683.838	0.0169230
683.916	0.0170580
683.994	0.0169939
684.072	0.0168689
684.150	0.0170568
684.228	0.0169195
684.307	0.0169499
684.385	0.0168098
684.463	0.0167525
684.541	0.0170216
684.619	0.0169327
684.697	0.0169535
684.775	0.0170488
684.853	0.0169366
684.932	0.0169671
685.010	0.0168668
685.088	0.0169540
685.166	0.0168542
685.244	0.0169511
685.322	0.0168745
685.400	0.0169765
685.478	0.0169492
685.557	0.0169360
685.635	0.0169978
685.713	0.0169157
685.791	0.0169643
685.869	0.0169350
685.947	0.0170354
686.025	0.0169861
686.103	0.0169971
686.182	0.0167879
686.260	0.0169541
686.338	0.0169342
686.416	0.0169976
686.494	0.0170476
686.572	0.0169910
686.650	0.0168414
686.728	0.0169308
686.807	0.0168964
686.885	0.0170612
686.963	0.0170422
687.041	0.0170313
687.119	0.0170184
687.197	0.0170104
687.275	0.0169666
687.353	0.0170567
687.432	0.0168990
687.510	0.0169225
687.588	0.0170391
687.666	0.0169835
687.744	0.0170676
687.822	0.0170970
687.900	0.0170210
687.978	0.0169410
688.057	0.0170231
688.135	0.0171260
688.213	0.0170225
688.291	0.0170766
688.369	0.0169325
688.447	0.0170499
688.525	0.0171966
688.603	0.0170480
688.682	0.0170158
688.760	0.0171135
688.838	0.0170745
688.916	0.0170759
688.994	0.0172055
689.072	0.0171564
689.150	0.0170624
689.228	0.0171056
689.307	0.0168938
689.385	0.0170390
689.463	0.0170026
689.541	0.0170822
689.619	0.0170715
689.697	0.0170431
689.775	0.0170200
689.853	0.0171098
689.932	0.0170853
690.010	0.0171095
690.088	0.0170266
690.166	0.0169337
690.244	0.0170911
690.322	0.0169835
690.400	0.0169338
690.478	0.0170975
690.557	0.0170873
690.635	0.0170918
690.713	0.0169182
690.791	0.0170647
690.869	0.0170055
690.947	0.0170467
691.025	0.0171093
691.103	0.0169296
691.182	0.0169584
691.260	0.0170042
691.338	0.0168754
691.416	0.0170839
691.494	0.0167693
691.572	0.0168103
691.650	0.0171127
691.728	0.0168783
691.807	0.0170638
691.885	0.0170026
691.963	0.0169403
692.041	0.0170451
692.119	0.0170329
692.197	0.0169226
692.275	0.0168784
692.353	0.0169569
692.432	0.0169527
692.510	0.0169352
692.588	0.0169318
692.666	0.0168768
692.744	0.0169033
692.822	0.0168529
692.900	0.0168835
692.978	0.0169569
693.057	0.0170388
693.135	0.0170495
693.213	0.0169733
693.291	0.0168478
693.369	0.0170367
693.447	0.0169633
693.525	0.0169358
693.603	0.0169590
693.682	0.0169379
693.760	0.0171377
693.838	0.0169025
693.916	0.0169746
693.994	0.0170323
694.072	0.0169778
694.150	0.0169393
694.228	0.0169482
694.307	0.0169727
694.385	0.0169704
694.463	0.0170504
694.541	0.0169740
694.619	0.0168845
694.697	0.0169081
694.775	0.0170594
694.853	0.0168684
694.932	0.0170624
695.010	0.0170480
695.088	0.0169562
695.166	0.0168795
695.244	0.0168068
695.322	0.0169106
695.400	0.0170412
695.478	0.0170505
695.557	0.0168946
695.635	0.0169193
695.713	0.0169676
695.791	0.0170353
695.869	0.0170873
695.947	0.0169293
696.025	0.0169845
696.103	0.0169348
696.182	0.0169147
696.260	0.0169655
696.338	0.0167461
696.416	0.0168823
696.494	0.0170212
696.572	0.0170022
696.650	0.0169331
696.728	0.0169424
696.807	0.0168418
696.885	0.0168565
696.963	0.0168201
697.041	0.0169214
697.119	0.0169804
697.197	0.0169759
697.275	0.0169215
697.353	0.0168397
697.432	0.0168951
697.510	0.0168892
697.588	0.0168607
697.666	0.0167873
697.744	0.0168735
697.822	0.0170589
697.900	0.0169308
697.978	0.0168131
698.057	0.0169086
698.135	0.0169814
698.213	0.0168556
698.291	0.0168504
698.369	0.0169140
698.447	0.0169088
698.525	0.0169329
698.603	0.0169637
698.682	0.0169269
698.760	0.0169489
698.838	0.0168716
698.916	0.0168744
698.994	0.0169539
699.072	0.0168898
699.150	0.0168680
699.228	0.0169048
699.307	0.0169327
699.385	0.0168643
699.463	0.0169231
699.541	0.0169213
699.619	0.0169783
699.697	0.0167999
699.775	0.0170355
699.853	0.0169077
699.932	0.0168608
700.010	0.0168584
700.088	0.0170329
700.166	0.0169386
700.244	0.0169620
700.322	0.0169250
700.400	0.0169456
700.478	0.0169359
700.557	0.0170277
700.635	0.0168761
700.713	0.0168905
700.791	0.0170068
700.869	0.0169761
700.947	0.0168940
701.025	0.0169833
701.103	0.0170535
701.182	0.0168985
701.260	0.0169389
701.338	0.0169565
701.416	0.0169868
701.494	0.0169551
701.572	0.0170614
701.650	0.0169705
701.728	0.0170140
701.807	0.0170484
701.885	0.0168700
701.963	0.0170799
702.041	0.0171882
702.119	0.0169906
702.197	0.0170282
702.275	0.0171151
702.353	0.0170428
702.432	0.0168552
702.510	0.0171318
702.588	0.0170663
702.666	0.0169843
702.744	0.0170362
702.822	0.0169159
702.900	0.0169230
702.978	0.0170338
703.057	0.0170325
703.135	0.0170496
703.213	0.0170447
703.291	0.0169948
703.369	0.0169520
703.447	0.0170431
703.525	0.0170084
703.603	0.0170014
703.682	0.0171954
703.760	0.0170775
703.838	0.0169717
703.916	0.0170473
703.994	0.0170206
704.072	0.0170738
704.150	0.0171083
704.228	0.0170172
704.307	0.0170234
704.385	0.0170741
704.463	0.0171152
704.541	0.0170089
704.619	0.0169471
704.697	0.0170483
704.775	0.0169946
704.853	0.0170737
704.932	0.0171213
705.010	0.0171706
705.088	0.0170294
705.166	0.0171448
705.244	0.0171041
705.322	0.0170850
705.400	0.0170443
705.478	0.0170313
705.557	0.0171233
705.635	0.0170766
705.713	0.0169686
705.791	0.0171166
705.869	0.0168596
705.947	0.0170071
706.025	0.0170780
706.103	0.0170858
706.182	0.0170596
706.260	0.0170435
706.338	0.0169054
706.416	0.0168137
706.494	0.0170099
706.572	0.0169887
706.650	0.0170555
706.728	0.0171072
706.807	0.0169556
706.885	0.0169546
706.963	0.0169295
707.041	0.0170918
707.119	0.0168829
707.197	0.0169971
707.275	0.0169806
707.353	0.0169638
707.432	0.0170239
707.510	0.0170236
707.588	0.0169715
707.666	0.0169231
707.744	0.0170605
707.822	0.0171396
707.900	0.0169751
707.978	0.0170155
708.057	0.0170155
708.135	0.0170296
708.213	0.0169282
708.291	0.0170638
708.369	0.0170718
708.447	0.0168591
708.525	0.0170802
708.603	0.0169060
708.682	0.0170042
708.760	0.0169374
708.838	0.0171588
708.916	0.0170129
708.994	0.0169029
709.072	0.0169872
709.150	0.0169776
709.228	0.0169856
709.307	0.0171107
709.385	0.0169864
709.463	0.0169530
709.541	0.0169475
709.619	0.0170490
709.697	0.0171133
709.775	0.0169040
709.853	0.0168565
709.932	0.0169406
710.010	0.0170563
710.088	0.0170052
710.166	0.0171369
710.244	0.0169946
710.322	0.0170921
710.400	0.0170647
710.478	0.0169878
710.557	0.0169785
710.635	0.0170600
710.713	0.0169732
710.791	0.0170251
710.869	0.0169649
710.947	0.0170412
711.025	0.0172243
711.103	0.0169769
711.182	0.0170093
711.260	0.0168332
711.338	0.0170306
711.416	0.0168914
711.494	0.0170646
711.572	0.0170132
711.650	0.0170767
711.728	0.0170628
711.807	0.0169498
711.885	0.0169341
711.963	0.0169720
712.041	0.0169545
712.119	0.0167867
712.197	0.0168726
712.275	0.0169475
712.353	0.0168985
712.432	0.0169775
712.510	0.0169028
712.588	0.0169413
712.666	0.0170741
712.744	0.0167665
712.822	0.0171092
712.900	0.0169596
712.978	0.0169707
713.057	0.0168245
713.135	0.0168538
713.213	0.0168666
713.291	0.0168934
713.369	0.0168929
713.447	0.0169012
713.525	0.0170197
713.603	0.0168914
713.682	0.0168887
713.760	0.0168848
713.838	0.0169163
713.916	0.0170776
713.994	0.0169916
714.072	0.0170667
714.150	0.0169809
714.228	0.0169050
714.307	0.0170824
714.385	0.0168691
714.463	0.0169013
714.541	0.0169997
714.619	0.0170295
714.697	0.0168861
714.775	0.0167958
714.853	0.0169878
714.932	0.0169122
715.010	0.0169495
715.088	0.0170767
715.166	0.0170660
715.244	0.0169968
715.322	0.0169149
715.400	0.0169460
715.478	0.0170445
715.557	0.0170222
715.635	0.0169751
715.713	0.0168736
715.791	0.0170312
715.869	0.0170015
715.947	0.0169383
716.025	0.0169542
716.103	0.0171147
716.182	0.0169672
716.260	0.0169648
716.338	0.0170280
716.416	0.0169498
716.494	0.0170099
716.572	0.0170839
716.650	0.0170988
716.728	0.0171020
716.807	0.0169888
716.885	0.0170856
716.963	0.0170497
717.041	0.0169981
717.119	0.0169752
717.197	0.0170259
717.275	0.0170260
717.353	0.0170524
717.432	0.0169958
717.510	0.0168778
717.588	0.0171035
717.666	0.0170310
717.744	0.0168166
717.822	0.0169994
717.900	0.0169937
717.978	0.0169010
718.057	0.0168380
718.135	0.0169469
718.213	0.0171136
718.291	0.0170158
718.369	0.0168767
718.447	0.0169698
718.525	0.0170695
718.603	0.0169095
718.682	0.0170114
718.760	0.0170274
718.838	0.0169357
718.916	0.0169181
718.994	0.0170461
719.072	0.0170060
719.150	0.0172323
719.228	0.0170374
719.307	0.0170218
719.385	0.0170054
719.463	0.0170262
719.541	0.0169514
719.619	0.0169569
719.697	0.0170150
719.775	0.0169312
719.853	0.0169839
719.932	0.0170918
720.010	0.0170071
720.088	0.0169673
720.166	0.0170534
720.244	0.0171121
720.322	0.0170519
720.400	0.0171313
720.478	0.0171430
720.557	0.0170953
720.635	0.0170827
720.713	0.0170245
720.791	0.0169264
720.869	0.0170854
720.947	0.0170535
721.025	0.0170130
721.103	0.0170296
721.182	0.0170779
721.260	0.0170898
721.338	0.0169456
721.416	0.0169627
721.494	0.0170540
721.572	0.0170649
721.650	0.0169524
721.728	0.0169947
721.807	0.0168554
721.885	0.0168766
721.963	0.0169910
722.041	0.0170412
722.119	0.0170099
722.197	0.0168819
722.275	0.0169218
722.353	0.0170403
722.432	0.0168970
722.510	0.0170180
722.588	0.0169445
722.666	0.0171204
722.744	0.0169870
722.822	0.0169016
722.900	0.0170016
722.978	0.0168880
723.057	0.0169276
723.135	0.0169300
723.213	0.0169713
723.291	0.0169769
723.369	0.0169929
723.447	0.0170737
723.525	0.0169643
723.603	0.0167566
723.682	0.0170314
723.760	0.0170255
723.838	0.0171097
723.916	0.0171999
723.994	0.0170106
724.072	0.0169300
724.150	0.0169815
724.228	0.0170626
724.307	0.0169631
724.385	0.0169784
724.463	0.0167513
724.541	0.0168941
724.619	0.0168391
724.697	0.0168720
724.775	0.0168202
724.853	0.0166308
724.932	0.0168308
725.010	0.0168673
725.088	0.0169409
725.166	0.0170427
725.244	0.0170451
725.322	0.0170463
725.400	0.0172038
725.478	0.0172890
725.557	0.0172068
725.635	0.0175305
725.713	0.0174598
725.791	0.0175322
725.869	0.0174975
725.947	0.0173538
726.025	0.0172273
726.103	0.0172466
726.182	0.0170851
726.260	0.0168902
726.338	0.0167656
726.416	0.0166358
726.494	0.0164660
726.572	0.0164764
726.650	0.0162423
726.728	0.0163002
726.807	0.0165065
726.885	0.0165288
726.963	0.0165887
727.041	0.0168307
727.119	0.0171787
727.197	0.0172796
727.275	0.0174787
727.353	0.0175415
727.432	0.0177152
727.510	0.0177148
727.588	0.0175645
727.666	0.0176945
727.744	0.0174298
727.822	0.0173538
727.900	0.0172514
727.978	0.0169757
728.057	0.0171983
728.135	0.0170944
728.213	0.0169167
728.291	0.0169015
728.369	0.0169781
728.447	0.0167988
728.525	0.0168082
728.603	0.0167940
728.682	0.0167443
728.760	0.0165295
728.838	0.0164812
728.916	0.0164830
728.994	0.0165012
729.072	0.0164201
729.150	0.0164496
729.228	0.0165816
729.307	0.0166373
729.385	0.0165869
729.463	0.0168327
729.541	0.0168758
729.619	0.0169806
729.697	0.0173888
729.775	0.0175986
729.853	0.0175878
729.932	0.0177480
730.010	0.0178381
730.088	0.0179198
730.166	0.0178510
730.244	0.0179118
730.322	0.0178931
730.400	0.0177404
730.478	0.0174918
730.557	0.0172519
730.635	0.0169946
730.713	0.0168963
730.791	0.0164867
730.869	0.0161553
730.947	0.0160806
731.025	0.0158248
731.103	0.0158670
731.182	0.0159730
731.260	0.0158642
731.338	0.0159763
731.416	0.0160924
731.494	0.0164371
731.572	0.0166143
731.650	0.0168260
731.728	0.0171062
731.807	0.0174364
731.885	0.0176942
731.963	0.0177168
732.041	0.0179680
732.119	0.0179417
732.197	0.0179470
732.275	0.0180837
732.353	0.0181020
732.432	0.0179047
732.510	0.0177547
732.588	0.0176189
732.666	0.0173038
732.744	0.0172830
732.822	0.0168258
732.900	0.0166171
732.978	0.0164965
733.057	0.0163921
733.135	0.0162315
733.213	0.0159602
733.291	0.0159968
733.369	0.0160003
733.447	0.0161141
733.525	0.0161143
733.603	0.0162702
733.682	0.0163599
733.760	0.0165129
733.838	0.0167063
733.916	0.0165882
733.994	0.0167445
734.072	0.0170412
734.150	0.0169878
734.228	0.0171767
734.307	0.0172673
734.385	0.0174099
734.463	0.0174361
734.541	0.0176035
734.619	0.0176247
734.697	0.0175607
734.775	0.0175764
734.853	0.0174574
734.932	0.0175163
735.010	0.0173277
735.088	0.0172456
735.166	0.0171162
735.244	0.0169878
735.322	0.0168046
735.400	0.0166708
735.478	0.0165377
735.557	0.0164505
735.635	0.0163679
735.713	0.0162431
735.791	0.0163232
735.869	0.0163103
735.947	0.0163510
736.025	0.0164230
736.103	0.0167016
736.182	0.0166991
736.260	0.0169521
736.338	0.0170161
736.416	0.0170679
736.494	0.0172161
736.572	0.0172430
736.650	0.0173447
736.728	0.0173497
736.807	0.0173669
736.885	0.0175020
736.963	0.0174577
737.041	0.0173360
737.119	0.0173165
737.197	0.0172511
737.275	0.0171030
737.353	0.0169897
737.432	0.0169291
737.510	0.0168286
737.588	0.0167281
737.666	0.0168178
737.744	0.0168191
737.822	0.0167400
737.900	0.0168118
737.978	0.0168610
738.057	0.0169340
738.135	0.0169208
738.213	0.0168964
738.291	0.0170701
738.369	0.0171085
738.447	0.0172128
738.525	0.0171692
738.603	0.0172706
738.682	0.0172343
738.760	0.0172492
738.838	0.0171953
738.916	0.0172587
738.994	0.0170599
739.072	0.0171445
739.150	0.0171329
739.228	0.0169590
739.307	0.0168884
739.385	0.0169957
739.463	0.0170219
739.541	0.0167735
739.619	0.0168866
739.697	0.0169296
739.775	0.0168777
739.853	0.0171082
739.932	0.0170956
740.010	0.0170559
740.088	0.0171281
740.166	0.0169431
740.244	0.0170464
740.322	0.0171236
740.400	0.0169781
740.478	0.0170231
740.557	0.0168846
740.635	0.0170315
740.713	0.0168231
740.791	0.0170362
740.869	0.0170156
740.947	0.0171794
741.025	0.0172212
741.103	0.0173537
741.182	0.0172894
741.260	0.0173145
741.338	0.0172154
741.416	0.0172546
741.494	0.0171960
741.572	0.0173576
741.650	0.0172593
741.728	0.0171981
741.807	0.0170203
741.885	0.0169283
741.963	0.0167558
742.041	0.0168279
742.119	0.0168642
742.197	0.0167275
742.275	0.0166592
742.353	0.0168019
742.432	0.0168466
742.510	0.0167424
742.588	0.0168954
742.666	0.0168528
742.744	0.0169371
742.822	0.0168872
742.900	0.0171941
742.978	0.0171768
743.057	0.0173629
743.135	0.0172668
743.213	0.0172554
743.291	0.0172166
743.369	0.0173190
743.447	0.0172390
743.525	0.0172195
743.603	0.0172764
743.682	0.0171059
743.760	0.0171323
743.838	0.0170432
743.916	0.0169808
743.994	0.0170058
744.072	0.0170201
744.150	0.0168549
744.228	0.0169261
744.307	0.0168999
744.385	0.0167308
744.463	0.0169167
744.541	0.0168836
744.619	0.0166976
744.697	0.0168651
744.775	0.0168982
744.853	0.0168781
744.932	0.0167390
745.010	0.0167838
745.088	0.0168436
745.166	0.0169474
745.244	0.0167209
745.322	0.0170925
745.400	0.0170309
745.478	0.0171046
745.557	0.0170880
745.635	0.0171825
745.713	0.0172193
745.791	0.0173779
745.869	0.0174450
745.947	0.0173479
746.025	0.0173084
746.103	0.0173399
746.182	0.0172504
746.260	0.0172808
746.338	0.0170438
746.416	0.0170495
746.494	0.0168633
746.572	0.0168936
746.650	0.0169678
746.728	0.0168604
746.807	0.0167228
746.885	0.0166313
746.963	0.0165159
747.041	0.0167611
747.119	0.0167673
747.197	0.0168085
747.275	0.0168690
747.353	0.0168494
747.432	0.0170390
747.510	0.0170194
747.588	0.0171946
747.666	0.0172612
747.744	0.0172504
747.822	0.0172789
747.900	0.0172915
747.978	0.0172993
748.057	0.0174211
748.135	0.0172065
748.213	0.0171635
748.291	0.0171569
748.369	0.0171049
748.447	0.0170939
748.525	0.0170628
748.603	0.0168361
748.682	0.0168896
748.760	0.0169624
748.838	0.0168431
748.916	0.0169315
748.994	0.0169135
749.072	0.0168687
749.150	0.0169660
749.228	0.0169910
749.307	0.0168165
749.385	0.0169808
749.463	0.0169588
749.541	0.0168768
749.619	0.0166828
749.697	0.0167718
749.775	0.0168806
749.853	0.0168174
749.932	0.0167920
750.010	0.0168014
750.088	0.0168050
750.166	0.0167453
750.244	0.0168233
750.322	0.0167888
750.400	0.0167793
750.478	0.0169321
750.557	0.0169788
750.635	0.0170376
750.713	0.0170296
750.791	0.0171048
750.869	0.0170550
750.947	0.0169615
751.025	0.0170302
751.103	0.0170558
751.182	0.0170569
751.260	0.0169530
751.338	0.0169811
751.416	0.0169434
751.494	0.0168720
751.572	0.0168463
751.650	0.0169122
751.728	0.0169027
751.807	0.0167408
751.885	0.0167664
751.963	0.0167837
752.041	0.0167622
752.119	0.0168845
752.197	0.0168922
752.275	0.0169239
752.353	0.0169820
752.432	0.0169607
752.510	0.0169179
752.588	0.0169331
752.666	0.0170322
752.744	0.0170867
752.822	0.0170063
752.900	0.0169246
752.978	0.0171104
753.057	0.0170972
753.135	0.0171352
753.213	0.0170623
753.291	0.0170918
753.369	0.0171744
753.447	0.0170876
753.525	0.0172574
753.603	0.0171758
753.682	0.0171180
753.760	0.0171026
753.838	0.0170663
753.916	0.0170695
753.994	0.0170694
754.072	0.0170090
754.150	0.0171021
754.228	0.0169307
754.307	0.0169551
754.385	0.0167772
754.463	0.0169077
754.541	0.0169540
754.619	0.0166946
754.697	0.0167043
754.775	0.0168426
754.853	0.0168103
754.932	0.0167376
755.010	0.0168508
755.088	0.0167403
755.166	0.0168385
755.244	0.0168443
755.322	0.0168396
755.400	0.0168466
755.478	0.0168787
755.557	0.0169963
755.635	0.0170750
755.713	0.0169972
755.791	0.0169991
755.869	0.0170120
755.947	0.0171146
756.025	0.0170490
756.103	0.0170338
756.182	0.0170771
756.260	0.0170351
756.338	0.0170145
756.416	0.0167631
756.494	0.0167783
756.572	0.0167245
756.650	0.0167739
756.728	0.0169199
756.807	0.0167200
756.885	0.0166306
756.963	0.0168047
757.041	0.0167273
757.119	0.0167799
757.197	0.0168668
757.275	0.0169840
757.353	0.0169955
757.432	0.0169937
757.510	0.0170626
757.588	0.0170737
757.666	0.0169459
757.744	0.0168606
757.822	0.0170188
757.900	0.0167737
757.978	0.0169618
758.057	0.0168842
758.135	0.0168852
758.213	0.0169112
758.291	0.0168598
758.369	0.0168399
758.447	0.0167406
758.525	0.0169056
758.603	0.0168573
758.682	0.0169280
758.760	0.0168908
758.838	0.0169814
758.916	0.0170310
758.994	0.0170468
759.072	0.0169340
759.150	0.0169316
759.228	0.0170382
759.307	0.0169487
759.385	0.0168566
759.463	0.0170625
759.541	0.0169271
759.619	0.0170010
759.697	0.0168472
759.775	0.0169674
759.853	0.0169533
759.932	0.0169398
760.010	0.0168902
760.088	0.0168504
760.166	0.0168201
760.244	0.0167272
760.322	0.0169073
760.400	0.0168033
760.478	0.0169386
760.557	0.0169043
760.635	0.0169882
760.713	0.0168270
760.791	0.0170152
760.869	0.0170615
760.947	0.0169263
761.025	0.0170048
761.103	0.0170330
761.182	0.0169396
761.260	0.0169269
761.338	0.0168788
761.416	0.0169596
761.494	0.0170129
761.572	0.0170814
761.650	0.0170325
761.728	0.0171226
761.807	0.0171862
761.885	0.0172730
761.963	0.0174252
762.041	0.0173727
762.119	0.0173302
762.197	0.0173055
762.275	0.0173667
762.353	0.0174072
762.432	0.0172468
762.510	0.0172517
762.588	0.0170132
762.666	0.0169925
762.744	0.0169968
762.822	0.0168574
762.900	0.0169222
762.978	0.0168971
763.057	0.0166344
763.135	0.0165523
763.213	0.0165952
763.291	0.0165039
763.369	0.0165913
763.447	0.0166006
763.525	0.0165752
763.603	0.0166342
763.682	0.0167687
763.760	0.0168114
763.838	0.0168874
763.916	0.0169899
763.994	0.0170356
764.072	0.0170116
764.150	0.0171735
764.228	0.0171765
764.307	0.0172887
764.385	0.0172459
764.463	0.0172117
764.541	0.0174125
764.619	0.0173331
764.697	0.0173733
764.775	0.0172292
764.853	0.0174065
764.932	0.0173174
765.010	0.0174335
765.088	0.0174634
765.166	0.0173313
765.244	0.0173431
765.322	0.0173035
765.400	0.0170846
765.478	0.0170829
765.557	0.0170916
765.635	0.0168842
765.713	0.0168053
765.791	0.0167570
765.869	0.0166518
765.947	0.0164666
766.025	0.0164111
766.103	0.0163708
766.182	0.0163597
766.260	0.0164381
766.338	0.0164719
766.416	0.0164208
766.494	0.0164320
766.572	0.0165549
766.650	0.0166681
766.728	0.0165741
766.807	0.0166897
766.885	0.0167476
766.963	0.0167838
767.041	0.0169113
767.119	0.0171368
767.197	0.0171616
767.275	0.0172132
767.353	0.0171015
767.432	0.0173044
767.510	0.0173693
767.588	0.0174593
767.666	0.0176073
767.744	0.0175590
767.822	0.0177077
767.900	0.0178074
767.978	0.0179705
768.057	0.0180493
768.135	0.0179504
768.213	0.0179754
768.291	0.0178320
768.369	0.0177312
768.447	0.0176830
768.525	0.0176511
768.603	0.0173376
768.682	0.0170924
768.760	0.0169055
768.838	0.0168797
768.916	0.0165180
768.994	0.0162106
769.072	0.0161332
769.150	0.0159899
769.228	0.0158957
769.307	0.0158068
769.385	0.0156216
769.463	0.0158182
769.541	0.0157841
769.619	0.0158331
769.697	0.0161679
769.775	0.0162846
769.853	0.0165757
769.932	0.0167445
770.010	0.0167799
770.088	0.0172137
770.166	0.0172802
770.244	0.0175880
770.322	0.0176446
770.400	0.0178667
770.478	0.0179106
770.557	0.0179372
770.635	0.0180174
770.713	0.0179733
770.791	0.0180307
770.869	0.0178777
770.947	0.0179198
771.025	0.0180202
771.103	0.0179647
771.182	0.0177615
771.260	0.0176785
771.338	0.0176328
771.416	0.0175266
771.494	0.0173225
771.572	0.0171259
771.650	0.0169524
771.728	0.0165993
771.807	0.0164400
771.885	0.0163751
771.963	0.0162777
772.041	0.0161549
772.119	0.0159803
772.197	0.0158659
772.275	0.0158576
772.353	0.0159875
772.432	0.0160831
772.510	0.0162158
772.588	0.0161687
772.666	0.0163561
772.744	0.0165457
772.822	0.0166345
772.900	0.0168576
772.978	0.0168349
773.057	0.0170516
773.135	0.0171115
773.213	0.0172328
773.291	0.0174104
773.369	0.0174529
773.447	0.0175761
773.525	0.0176060
773.603	0.0177320
773.682	0.0178879
773.760	0.0178975
773.838	0.0178786
773.916	0.0179966
773.994	0.0179082
774.072	0.0178131
774.150	0.0178040
774.228	0.0178059
774.307	0.0176855
774.385	0.0174684
774.463	0.0173444
774.541	0.0171236
774.619	0.0170124
774.697	0.0167918
774.775	0.0164775
774.853	0.0164306
774.932	0.0162227
775.010	0.0161877
775.088	0.0159689
775.166	0.0158591
775.244	0.0158702
775.322	0.0159789
775.400	0.0159411
775.478	0.0158575
775.557	0.0161761
775.635	0.0160001
775.713	0.0160026
775.791	0.0161095
775.869	0.0162943
775.947	0.0164430
776.025	0.0165694
776.103	0.0168539
776.182	0.0170043
776.260	0.0171877
776.338	0.0174136
776.416	0.0174482
776.494	0.0177045
776.572	0.0177242
776.650	0.0178734
776.728	0.0179470
776.807	0.0179771
776.885	0.0179292
776.963	0.0178386
777.041	0.0178925
777.119	0.0177077
777.197	0.0177383
777.275	0.0174828
777.353	0.0173782
777.432	0.0171355
777.510	0.0169785
777.588	0.0167432
777.666	0.0164668
777.744	0.0162553
777.822	0.0161892
777.900	0.0160371
777.978	0.0159321
778.057	0.0158291
778.135	0.0158517
778.213	0.0159544
778.291	0.0160672
778.369	0.0160301
778.447	0.0163576
778.525	0.0164549
778.603	0.0165517
778.682	0.0167351
778.760	0.0169824
778.838	0.0171404
778.916	0.0173145
778.994	0.0174721
779.072	0.0175130
779.150	0.0176700
779.228	0.0178142
779.307	0.0178175
779.385	0.0178877
779.463	0.0180557
779.541	0.0180888
779.619	0.0178742
779.697	0.0178564
779.775	0.0178023
779.853	0.0177726
779.932	0.0175140
780.010	0.0173335
780.088	0.0172099
780.166	0.0170376
780.244	0.0167361
780.322	0.0165361
780.400	0.0163161
780.478	0.0161306
780.557	0.0157575
780.635	0.0156968
780.713	0.0158154
780.791	0.0158939
780.869	0.0158762
780.947	0.0158244
781.025	0.0159296
781.103	0.0162307
781.182	0.0161978
781.260	0.0163457
781.338	0.0165696
781.416	0.0168317
781.494	0.0169135
781.572	0.0172288
781.650	0.0173846
781.728	0.0174368
781.807	0.0175826
781.885	0.0177008
781.963	0.0177714
782.041	0.0176872
782.119	0.0178947
782.197	0.0177687
782.275	0.0176965
782.353	0.0176040
782.432	0.0174532
782.510	0.0173229
782.588	0.0171109
782.666	0.0171553
782.744	0.0170467
782.822	0.0169955
782.900	0.0169741
782.978	0.0168552
783.057	0.0169937
783.135	0.0169153
783.213	0.0170528
783.291	0.0169665
783.369	0.0171327
783.447	0.0171751
783.525	0.0172439
783.603	0.0173387
783.682	0.0171776
783.760	0.0173842
783.838	0.0175912
783.916	0.0173675
783.994	0.0174934
784.072	0.0174387
784.150	0.0174244
784.228	0.0173373
784.307	0.0173383
784.385	0.0171478
784.463	0.0170233
784.541	0.0169817
784.619	0.0166908
784.697	0.0167376
784.775	0.0166788
784.853	0.0165847
784.932	0.0165835
785.010	0.0164294
785.088	0.0165398
785.166	0.0166127
785.244	0.0166577
785.322	0.0167530
785.400	0.0168788
785.478	0.0169924
785.557	0.0170945
785.635	0.0171943
785.713	0.0170415
785.791	0.0173502
785.869	0.0172804
785.947	0.0171119
786.025	0.0170828
786.103	0.0171245
786.182	0.0169656
786.260	0.0169211
786.338	0.0169363
786.416	0.0167390
786.494	0.0168657
786.572	0.0168627
786.650	0.0168512
786.728	0.0167493
786.807	0.0168146
786.885	0.0168880
786.963	0.0168727
787.041	0.0168114
787.119	0.0168313
787.197	0.0168250
787.275	0.0170381
787.353	0.0169846
787.432	0.0170511
787.510	0.0171669
787.588	0.0172517
787.666	0.0171846
787.744	0.0172485
787.822	0.0175514
787.900	0.0174529
787.978	0.0174821
788.057	0.0177025
788.135	0.0176213
788.213	0.0177228
788.291	0.0175034
788.369	0.0175690
788.447	0.0174047
788.525	0.0172770
788.603	0.0173479
788.682	0.0170763
788.760	0.0169106
788.838	0.0167699
788.916	0.0166384
788.994	0.0164480
789.072	0.0164062
789.150	0.0162769
789.228	0.0162144
789.307	0.0162737
789.385	0.0161896
789.463	0.0159882
789.541	0.0163012
789.619	0.0163824
789.697	0.0165022
789.775	0.0166566
789.853	0.0168923
789.932	0.0170464
790.010	0.0171833
790.088	0.0174476
790.166	0.0176035
790.244	0.0177021
790.322	0.0178226
790.400	0.0179701
790.478	0.0177959
790.557	0.0178380
790.635	0.0178304
790.713	0.0177259
790.791	0.0174976
790.869	0.0174516
790.947	0.0172404
791.025	0.0170349
791.103	0.0168097
791.182	0.0167487
791.260	0.0166058
791.338	0.0163531
791.416	0.0163313
791.494	0.0161373
791.572	0.0161556
791.650	0.0160757
791.728	0.0161812
791.807	0.0161458
791.885	0.0161531
791.963	0.0164078
792.041	0.0164735
792.119	0.0166647
792.197	0.0168839
792.275	0.0170783
792.353	0.0171364
792.432	0.0173100
792.510	0.0175627
792.588	0.0175681
792.666	0.0177341
792.744	0.0178536
792.822	0.0177238
792.900	0.0177834
792.978	0.0178625
793.057	0.0178019
793.135	0.0178090
793.213	0.0176006
793.291	0.0177207
793.369	0.0175882
793.447	0.0174242
793.525	0.0173650
793.603	0.0172073
793.682	0.0171269
793.760	0.0170702
793.838	0.0169577
793.916	0.0168520
793.994	0.0166779
794.072	0.0164906
794.150	0.0163895
794.228	0.0162891
794.307	0.0160952
794.385	0.0160085
794.463	0.0159728
794.541	0.0158627
794.619	0.0159262
794.697	0.0159358
794.775	0.0161043
794.853	0.0160726
794.932	0.0161309
795.010	0.0162476
795.088	0.0163000
795.166	0.0165192
795.244	0.0167400
795.322	0.0168289
795.400	0.0169450
795.478	0.0171991
795.557	0.0175536
795.635	0.0176731
795.713	0.0178340
795.791	0.0178307
795.869	0.0179760
795.947	0.0180565
796.025	0.0182628
796.103	0.0182134
796.182	0.0181316
796.260	0.0180619
796.338	0.0179502
796.416	0.0177967
796.494	0.0176192
796.572	0.0175687
796.650	0.0173864
796.728	0.0171783
796.807	0.0169208
796.885	0.0166916
796.963	0.0164512
797.041	0.0162794
797.119	0.0162091
797.197	0.0159686
797.275	0.0159629
797.353	0.0158093
797.432	0.0158096
797.510	0.0158253
797.588	0.0158818
797.666	0.0160496
797.744	0.0160026
797.822	0.0162433
797.900	0.0162827
797.978	0.0164702
798.057	0.0166653
798.135	0.0168419
798.213	0.0168790
798.291	0.0169592
798.369	0.0171658
798.447	0.0170010
798.525	0.0171756
798.603	0.0169711
798.682	0.0167742
798.760	0.0169427
798.838	0.0167848
798.916	0.0167205
798.994	0.0166693
799.072	0.0166266
799.150	0.0166451
799.228	0.0167571
799.307	0.0166142
799.385	0.0166525
799.463	0.0168457
799.541	0.0170161
799.619	0.0170530
799.697	0.0171713
799.775	0.0172205
799.853	0.0172942
799.932	0.0173598
800.010	0.0175475
800.088	0.0176727
800.166	0.0177567
800.244	0.0178522
800.322	0.0177935
800.400	0.0180001
800.478	0.0179270
800.557	0.0179189
800.635	0.0178947
800.713	0.0180042
800.791	0.0181700
800.869	0.0180645
800.947	0.0180717
801.025	0.0179448
801.103	0.0178516
801.182	0.0177920
801.260	0.0175944
801.338	0.0174677
801.416	0.0171908
801.494	0.0170457
801.572	0.0167734
801.650	0.0167828
801.728	0.0164290
801.807	0.0160426
801.885	0.0159158
801.963	0.0157653
802.041	0.0157862
802.119	0.0154817
802.197	0.0155407
802.275	0.0156203
802.353	0.0155513
802.432	0.0156707
802.510	0.0159227
802.588	0.0161232
802.666	0.0163448
802.744	0.0163835
802.822	0.0166663
802.900	0.0167023
802.978	0.0168217
803.057	0.0166766
803.135	0.0168052
803.213	0.0168465
803.291	0.0168756
803.369	0.0167426
803.447	0.0165765
803.525	0.0166344
803.603	0.0165597
803.682	0.0165464
803.760	0.0165211
803.838	0.0165428
803.916	0.0169175
803.994	0.0168661
804.072	0.0171098
804.150	0.0172014
804.228	0.0174380
804.307	0.0176492
804.385	0.0177769
804.463	0.0180341
804.541	0.0182750
804.619	0.0184883
804.697	0.0185117
804.775	0.0185905
804.853	0.0186617
804.932	0.0187402
805.010	0.0187795
805.088	0.0186572
805.166	0.0186371
805.244	0.0186086
805.322	0.0185313
805.400	0.0184451
805.478	0.0183458
805.557	0.0180925
805.635	0.0180453
805.713	0.0179106
805.791	0.0176123
805.869	0.0173454
805.947	0.0174014
806.025	0.0170243
806.103	0.0168033
806.182	0.0167277
806.260	0.0166895
806.338	0.0164120
806.416	0.0162099
806.494	0.0162289
806.572	0.0162106
806.650	0.0159673
806.728	0.0157056
806.807	0.0158923
806.885	0.0158136
806.963	0.0157918
807.041	0.0157487
807.119	0.0156685
807.197	0.0155234
807.275	0.0154973
807.353	0.0156749
807.432	0.0155275
807.510	0.0155336
807.588	0.0157077
807.666	0.0157388
807.744	0.0158475
807.822	0.0160690
807.900	0.0161684
807.978	0.0162000
808.057	0.0165562
808.135	0.0168699
808.213	0.0169638
808.291	0.0170136
808.369	0.0171678
808.447	0.0173730
808.525	0.0174413
808.603	0.0174792
808.682	0.0175887
808.760	0.0175980
808.838	0.0176876
808.916	0.0177395
808.994	0.0177017
809.072	0.0177676
809.150	0.0179510
809.228	0.0177135
809.307	0.0177317
809.385	0.0177126
809.463	0.0178767
809.541	0.0178808
809.619	0.0179079
809.697	0.0178336
809.775	0.0178242
809.853	0.0179230
809.932	0.0179523
810.010	0.0181062
810.088	0.0181169
810.166	0.0181350
810.244	0.0180982
810.322	0.0180106
810.400	0.0179851
810.478	0.0177602
810.557	0.0176506
810.635	0.0177087
810.713	0.0175587
810.791	0.0173909
810.869	0.0172405
810.947	0.0170946
811.025	0.0169073
811.103	0.0167552
811.182	0.0167181
811.260	0.0164121
811.338	0.0162468
811.416	0.0160362
811.494	0.0160629
811.572	0.0160800
811.650	0.0160375
811.728	0.0159339
811.807	0.0158975
811.885	0.0159833
811.963	0.0159093
812.041	0.0160039
812.119	0.0162245
812.197	0.0162556
812.275	0.0163387
812.353	0.0162365
812.432	0.0164758
812.510	0.0165417
812.588	0.0165607
812.666	0.0166702
812.744	0.0165221
812.822	0.0164756
812.900	0.0164676
812.978	0.0165751
813.057	0.0165287
813.135	0.0164381
813.213	0.0165356
813.291	0.0165388
813.369	0.0166537
813.447	0.0166319
813.525	0.0165971
813.603	0.0166216
813.682	0.0167004
813.760	0.0166954
813.838	0.0168832
813.916	0.0168092
813.994	0.0168443
814.072	0.0170102
814.150	0.0168821
814.228	0.0170317
814.307	0.0169157
814.385	0.0170671
814.463	0.0172111
814.541	0.0171783
814.619	0.0170936
814.697	0.0172168
814.775	0.0172717
814.853	0.0175523
814.932	0.0174918
815.010	0.0175519
815.088	0.0175152
815.166	0.0175935
815.244	0.0175979
815.322	0.0178136
815.400	0.0176353
815.478	0.0177905
815.557	0.0176771
815.635	0.0175182
815.713	0.0175127
815.791	0.0174699
815.869	0.0174038
815.947	0.0173311
816.025	0.0173923
816.103	0.0172084
816.182	0.0171754
816.260	0.0172177
816.338	0.0172498
816.416	0.0170534
816.494	0.0172859
816.572	0.0173400
816.650	0.0171934
816.728	0.0171516
816.807	0.0172360
816.885	0.0172829
816.963	0.0172809
817.041	0.0172608
817.119	0.0171911
817.197	0.0170494
817.275	0.0168263
817.353	0.0167653
817.432	0.0166788
817.510	0.0165724
817.588	0.0164098
817.666	0.0161227
817.744	0.0160635
817.822	0.0158395
817.900	0.0157436
817.978	0.0157664
818.057	0.0157897
818.135	0.0157718
818.213	0.0155827
818.291	0.0154732
818.369	0.0157906
818.447	0.0158035
818.525	0.0160715
818.603	0.0162082
818.682	0.0162307
818.760	0.0165450
818.838	0.0167323
818.916	0.0167057
818.994	0.0170606
819.072	0.0171668
819.150	0.0173363
819.228	0.0174267
819.307	0.0175961
819.385	0.0176887
819.463	0.0176147
819.541	0.0175201
819.619	0.0176157
819.697	0.0174352
819.775	0.0173448
819.853	0.0172852
819.932	0.0172938
820.010	0.0172818
820.088	0.0170621
820.166	0.0169780
820.244	0.0169215
820.322	0.0167804
820.400	0.0168858
820.478	0.0169353
820.557	0.0169937
820.635	0.0171222
820.713	0.0171698
820.791	0.0170928
820.869	0.0171518
820.947	0.0173052
821.025	0.0174781
821.103	0.0173737
821.182	0.0174987
821.260	0.0175333
821.338	0.0174802
821.416	0.0173679
821.494	0.0174057
821.572	0.0175262
821.650	0.0174607
821.728	0.0173492
821.807	0.0172709
821.885	0.0172097
821.963	0.0171968
822.041	0.0172998
822.119	0.0171618
822.197	0.0170462
822.275	0.0169324
822.353	0.0169135
822.432	0.0169134
822.510	0.0168784
822.588	0.0168795
822.666	0.0168512
822.744	0.0166996
822.822	0.0165995
822.900	0.0166506
822.978	0.0167194
823.057	0.0166855
823.135	0.0165444
823.213	0.0165365
823.291	0.0165660
823.369	0.0164716
823.447	0.0165569
823.525	0.0166680
823.603	0.0166769
823.682	0.0166296
823.760	0.0168752
823.838	0.0168403
823.916	0.0171091
823.994	0.0170190
824.072	0.0171135
824.150	0.0171442
824.228	0.0170207
824.307	0.0171783
824.385	0.0172047
824.463	0.0172684
824.541	0.0171265
824.619	0.0169905
824.697	0.0169694
824.775	0.0169518
824.853	0.0168972
824.932	0.0166792
825.010	0.0165675
825.088	0.0166874
825.166	0.0165308
825.244	0.0163531
825.322	0.0162360
825.400	0.0162784
825.478	0.0162228
825.557	0.0162332
825.635	0.0162833
825.713	0.0163631
825.791	0.0166310
825.869	0.0168556
825.947	0.0169266
826.025	0.0171600
826.103	0.0173167
826.182	0.0172901
826.260	0.0176680
826.338	0.0180420
826.416	0.0180321
826.494	0.0179926
826.572	0.0181622
826.650	0.0181029
826.728	0.0181500
826.807	0.0183625
826.885	0.0183725
826.963	0.0180031
827.041	0.0181047
827.119	0.0179251
827.197	0.0178394
827.275	0.0177483
827.353	0.0176215
827.432	0.0175179
827.510	0.0172784
827.588	0.0172187
827.666	0.0170861
827.744	0.0167660
827.822	0.0167703
827.900	0.0166061
827.978	0.0165582
828.057	0.0163165
828.135	0.0163836
828.213	0.0162766
828.291	0.0162309
828.369	0.0163762
828.447	0.0162935
828.525	0.0162991
828.603	0.0162763
828.682	0.0163402
828.760	0.0164986
828.838	0.0164989
828.916	0.0165454
828.994	0.0164906
829.072	0.0167823
829.150	0.0167393
829.228	0.0167839
829.307	0.0169403
829.385	0.0170521
829.463	0.0170168
829.541	0.0172109
829.619	0.0170774
829.697	0.0171564
829.775	0.0173783
829.853	0.0171340
829.932	0.0171926
830.010	0.0171612
830.088	0.0171720
830.166	0.0171152
830.244	0.0171696
830.322	0.0168922
830.400	0.0169447
830.478	0.0169640
830.557	0.0171010
830.635	0.0168477
830.713	0.0168554
830.791	0.0168262
830.869	0.0169965
830.947	0.0169353
831.025	0.0169302
831.103	0.0168176
831.182	0.0168371
831.260	0.0170963
831.338	0.0171002
831.416	0.0171908
831.494	0.0171552
831.572	0.0172681
831.650	0.0172659
831.728	0.0174627
831.807	0.0173016
831.885	0.0172679
831.963	0.0174266
832.041	0.0174772
832.119	0.0174757
832.197	0.0174488
832.275	0.0173053
832.353	0.0173762
832.432	0.0173320
832.510	0.0174460
832.588	0.0175023
832.666	0.0174654
832.744	0.0175194
832.822	0.0173470
832.900	0.0172845
832.978	0.0174231
833.057	0.0172555
833.135	0.0171372
833.213	0.0172077
833.291	0.0170411
833.369	0.0169302
833.447	0.0168998
833.525	0.0169476
833.603	0.0168060
833.682	0.0166626
833.760	0.0166970
833.838	0.0164426
833.916	0.0165208
833.994	0.0165287
834.072	0.0163894
834.150	0.0165089
834.228	0.0164649
834.307	0.0165185
834.385	0.0165681
834.463	0.0165709
834.541	0.0166779
834.619	0.0167755
834.697	0.0166426
834.775	0.0165720
834.853	0.0167269
834.932	0.0168053
835.010	0.0169350
835.088	0.0169782
835.166	0.0169640
835.244	0.0170667
835.322	0.0170695
835.400	0.0172074
835.478	0.0173044
835.557	0.0171972
835.635	0.0171863
835.713	0.0173457
835.791	0.0173357
835.869	0.0171529
835.947	0.0170157
836.025	0.0169640
836.103	0.0169564
836.182	0.0168580
836.260	0.0166443
836.338	0.0166801
836.416	0.0166425
836.494	0.0165111
836.572	0.0164719
836.650	0.0164243
836.728	0.0164043
836.807	0.0163416
836.885	0.0165689
836.963	0.0165103
837.041	0.0163681
837.119	0.0164519
837.197	0.0165577
837.275	0.0163551
837.353	0.0165069
837.432	0.0165288
837.510	0.0165536
837.588	0.0168591
837.666	0.0168028
837.744	0.0167033
837.822	0.0169115
837.900	0.0169521
837.978	0.0170409
838.057	0.0171814
838.135	0.0173547
838.213	0.0174459
838.291	0.0174179
838.369	0.0175198
838.447	0.0176006
838.525	0.0176085
838.603	0.0176353
838.682	0.0176168
838.760	0.0177373
838.838	0.0176633
838.916	0.0175899
838.994	0.0175211
839.072	0.0174829
839.150	0.0173869
839.228	0.0172404
839.307	0.0172778
839.385	0.0171067
839.463	0.0170630
839.541	0.0168635
839.619	0.0168578
839.697	0.0169579
839.775	0.0168850
839.853	0.0167478
839.932	0.0167737
840.010	0.0167336
840.088	0.0166644
840.166	0.0170388
840.244	0.0167381
840.322	0.0168948
840.400	0.0171135
840.478	0.0169336
840.557	0.0169521
840.635	0.0169945
840.713	0.0171430
840.791	0.0172638
840.869	0.0173037
840.947	0.0172290
841.025	0.0173471
841.103	0.0173169
841.182	0.0172124
841.260	0.0173319
841.338	0.0173208
841.416	0.0171690
841.494	0.0170912
841.572	0.0170498
841.650	0.0169654
841.728	0.0167930
841.807	0.0168320
841.885	0.0166592
841.963	0.0163747
842.041	0.0165550
842.119	0.0165091
842.197	0.0164100
842.275	0.0162100
842.353	0.0163236
842.432	0.0164185
842.510	0.0164880
842.588	0.0164722
842.666	0.0165665
842.744	0.0167230
842.822	0.0168147
842.900	0.0169538
842.978	0.0169045
843.057	0.0169925
843.135	0.0169970
843.213	0.0170714
843.291	0.0170311
843.369	0.0173499
843.447	0.0171298
843.525	0.0170962
843.603	0.0171140
843.682	0.0170906
843.760	0.0170363
843.838	0.0170109
843.916	0.0169130
843.994	0.0167707
844.072	0.0166016
844.150	0.0166776
844.228	0.0166424
844.307	0.0166879
844.385	0.0166291
844.463	0.0166473
844.541	0.0168858
844.619	0.0167950
844.697	0.0168993
844.775	0.0169878
844.853	0.0170188
844.932	0.0172468
845.010	0.0170448
845.088	0.0172257
845.166	0.0173580
845.244	0.0172316
845.322	0.0172703
845.400	0.0172838
845.478	0.0173641
845.557	0.0173595
845.635	0.0172650
845.713	0.0172636
845.791	0.0172095
845.869	0.0171998
845.947	0.0171989
846.025	0.0173096
846.103	0.0172279
846.182	0.0171336
846.260	0.0171040
846.338	0.0171855
846.416	0.0170552
846.494	0.0172092
846.572	0.0173206
846.650	0.0173494
846.728	0.0172059
846.807	0.0171594
846.885	0.0171608
846.963	0.0172092
847.041	0.0173650
847.119	0.0171473
847.197	0.0171591
847.275	0.0171351
847.353	0.0171944
847.432	0.0170793
847.510	0.0170695
847.588	0.0170405
847.666	0.0169411
847.744	0.0168322
847.822	0.0167278
847.900	0.0168585
847.978	0.0166895
848.057	0.0165382
848.135	0.0164269
848.213	0.0166778
848.291	0.0164309
848.369	0.0166173
848.447	0.0164731
848.525	0.0164497
848.603	0.0165366
848.682	0.0166319
848.760	0.0167385
848.838	0.0167557
848.916	0.0169194
848.994	0.0168156
849.072	0.0169695
849.150	0.0170349
849.228	0.0170570
849.307	0.0171268
849.385	0.0169642
849.463	0.0170447
849.541	0.0170051
849.619	0.0169241
849.697	0.0169750
849.775	0.0168781
849.853	0.0167450
849.932	0.0167128
850.010	0.0167260
850.088	0.0165973
850.166	0.0166521
850.244	0.0167925
850.322	0.0168759
850.400	0.0168220
850.478	0.0169606
850.557	0.0169711
850.635	0.0169537
850.713	0.0169934
850.791	0.0171335
850.869	0.0172053
850.947	0.0173047
851.025	0.0171719
851.103	0.0172999
851.182	0.0172897
851.260	0.0173420
851.338	0.0173336
851.416	0.0173540
851.494	0.0172427
851.572	0.0173394
851.650	0.0173943
851.728	0.0172109
851.807	0.0172229
851.885	0.0171789
851.963	0.0170712
852.041	0.0170383
852.119	0.0167419
852.197	0.0168994
852.275	0.0167308
852.353	0.0168826
852.432	0.0167085
852.510	0.0166895
852.588	0.0168272
852.666	0.0167617
852.744	0.0167387
852.822	0.0168611
852.900	0.0170531
852.978	0.0169780
853.057	0.0171017
853.135	0.0169914
853.213	0.0170441
853.291	0.0171946
853.369	0.0172215
853.447	0.0171465
853.525	0.0172085
853.603	0.0171043
853.682	0.0171437
853.760	0.0171666
853.838	0.0171095
853.916	0.0170203
853.994	0.0168908
854.072	0.0169210
854.150	0.0170695
854.228	0.0169707
854.307	0.0168608
854.385	0.0167159
854.463	0.0166617
854.541	0.0167091
854.619	0.0166593
854.697	0.0166833
854.775	0.0166477
854.853	0.0166706
854.932	0.0168263
855.010	0.0167529
855.088	0.0168176
855.166	0.0168627
855.244	0.0168857
855.322	0.0169776
855.400	0.0171157
855.478	0.0172606
855.557	0.0171455
855.635	0.0171713
855.713	0.0170658
855.791	0.0170343
855.869	0.0170160
855.947	0.0170333
856.025	0.0169212
856.103	0.0169169
856.182	0.0167257
856.260	0.0167856
856.338	0.0167522
856.416	0.0166604
856.494	0.0165722
856.572	0.0165919
856.650	0.0165164
856.728	0.0166246
856.807	0.0166369
856.885	0.0167473
856.963	0.0168937
857.041	0.0170232
857.119	0.0171642
857.197	0.0172665
857.275	0.0173636
857.353	0.0173808
857.432	0.0173920
857.510	0.0176249
857.588	0.0175597
857.666	0.0174712
857.744	0.0175199
857.822	0.0175403
857.900	0.0174902
857.978	0.0173415
858.057	0.0172426
858.135	0.0172057
858.213	0.0171196
858.291	0.0170261
858.369	0.0170164
858.447	0.0170126
858.525	0.0168848
858.603	0.0168658
858.682	0.0169605
858.760	0.0168319
858.838	0.0168631
858.916	0.0170274
858.994	0.0171229
859.072	0.0171683
859.150	0.0170566
859.228	0.0170959
859.307	0.0172092
859.385	0.0173191
859.463	0.0173747
859.541	0.0173625
859.619	0.0173072
859.697	0.0172514
859.775	0.0174638
859.853	0.0172480
859.932	0.0172255
860.010	0.0170651
860.088	0.0170198
860.166	0.0169514
860.244	0.0167984
860.322	0.0167345
860.400	0.0165852
860.478	0.0164938
860.557	0.0165216
860.635	0.0162897
860.713	0.0162679
860.791	0.0165723
860.869	0.0165670
860.947	0.0166169
861.025	0.0165279
861.103	0.0167068
861.182	0.0166756
861.260	0.0167275
861.338	0.0171022
861.416	0.0170659
861.494	0.0170921
861.572	0.0172014
861.650	0.0173030
861.728	0.0175008
861.807	0.0174387
861.885	0.0174474
861.963	0.0174661
862.041	0.0174466
862.119	0.0173763
862.197	0.0173491
862.275	0.0172492
862.353	0.0172083
862.432	0.0170496
862.510	0.0169897
862.588	0.0167812
862.666	0.0168466
862.744	0.0168140
862.822	0.0168721
862.900	0.0167548
862.978	0.0168172
863.057	0.0168631
863.135	0.0167513
863.213	0.0169321
863.291	0.0169408
863.369	0.0170754
863.447	0.0169784
863.525	0.0171019
863.603	0.0171359
863.682	0.0172385
863.760	0.0171296
863.838	0.0172902
863.916	0.0171342
863.994	0.0171040
864.072	0.0172246
864.150	0.0171832
864.228	0.0172054
864.307	0.0170872
864.385	0.0169999
864.463	0.0170343
864.541	0.0170690
864.619	0.0170444
864.697	0.0169269
864.775	0.0168324
864.853	0.0169717
864.932	0.0170671
865.010	0.0171137
865.088	0.0172118
865.166	0.0170617
865.244	0.0170969
865.322	0.0171040
865.400	0.0171568
865.478	0.0170260
865.557	0.0172514
865.635	0.0172136
865.713	0.0171389
865.791	0.0172724
865.869	0.0171550
865.947	0.0171815
866.025	0.0172025
866.103	0.0170591
866.182	0.0170887
866.260	0.0171903
866.338	0.0170494
866.416	0.0169501
866.494	0.0168027
866.572	0.0168305
866.650	0.0166820
866.728	0.0166130
866.807	0.0166177
866.885	0.0165755
866.963	0.0164944
867.041	0.0163963
867.119	0.0164323
867.197	0.0163997
867.275	0.0165072
867.353	0.0166186
867.432	0.0165859
867.510	0.0167262
867.588	0.0167332
867.666	0.0168973
867.744	0.0170686
867.822	0.0170650
867.900	0.0172215
867.978	0.0172220
868.057	0.0173726
868.135	0.0174639
868.213	0.0174426
868.291	0.0173524
868.369	0.0173376
868.447	0.0172771
868.525	0.0171772
868.603	0.0171964
868.682	0.0172343
868.760	0.0170757
868.838	0.0169287
868.916	0.0168556
868.994	0.0168596
869.072	0.0167374
869.150	0.0167834
869.228	0.0166236
869.307	0.0166482
869.385	0.0165352
869.463	0.0166928
869.541	0.0167422
869.619	0.0168704
869.697	0.0169144
869.775	0.0169798
869.853	0.0171683
869.932	0.0171906
870.010	0.0172176
870.088	0.0173469
870.166	0.0172521
870.244	0.0172556
870.322	0.0172717
870.400	0.0174642
870.478	0.0175044
870.557	0.0174285
870.635	0.0172673
870.713	0.0172089
870.791	0.0173785
870.869	0.0170524
870.947	0.0170158
871.025	0.0170303
871.103	0.0169289
871.182	0.0168186
871.260	0.0167916
871.338	0.0167082
871.416	0.0166411
871.494	0.0166528
871.572	0.0167247
871.650	0.0166944
871.728	0.0166287
871.807	0.0167541
871.885	0.0168553
871.963	0.0167390
872.041	0.0168649
872.119	0.0168520
872.197	0.0168684
872.275	0.0169189
872.353	0.0169249
872.432	0.0169626
872.510	0.0169218
872.588	0.0168084
872.666	0.0170060
872.744	0.0167892
872.822	0.0168097
872.900	0.0166621
872.978	0.0167325
873.057	0.0168042
873.135	0.0166882
873.213	0.0165552
873.291	0.0165639
873.369	0.0165395
873.447	0.0165242
873.525	0.0165485
873.603	0.0165992
873.682	0.0165884
873.760	0.0167132
873.838	0.0167363
873.916	0.0168214
873.994	0.0169611
874.072	0.0169621
874.150	0.0169627
874.228	0.0172079
874.307	0.0170468
874.385	0.0171460
874.463	0.0172091
874.541	0.0171195
874.619	0.0170945
874.697	0.0171773
874.775	0.0170277
874.853	0.0170447
874.932	0.0169996
875.010	0.0169592
875.088	0.0171295
875.166	0.0169775
875.244	0.0171057
875.322	0.0169968
875.400	0.0169416
875.478	0.0169414
875.557	0.0170695
875.635	0.0170702
875.713	0.0170502
875.791	0.0171124
875.869	0.0170420
875.947	0.0170667
876.025	0.0170815
876.103	0.0170402
876.182	0.0170569
876.260	0.0169925
876.338	0.0170100
876.416	0.0170393
876.494	0.0169746
876.572	0.0170724
876.650	0.0170912
876.728	0.0168631
876.807	0.0168707
876.885	0.0168982
876.963	0.0169496
877.041	0.0168859
877.119	0.0169158
877.197	0.0167892
877.275	0.0168333
877.353	0.0167091
877.432	0.0167251
877.510	0.0166685
877.588	0.0165976
877.666	0.0167230
877.744	0.0166361
877.822	0.0168075
877.900	0.0167560
877.978	0.0167513
878.057	0.0168417
878.135	0.0168819
878.213	0.0169140
878.291	0.0171006
878.369	0.0169059
878.447	0.0169052
878.525	0.0169403
878.603	0.0170804
878.682	0.0169415
878.760	0.0169921
878.838	0.0169424
878.916	0.0169289
878.994	0.0170349
879.072	0.0170117
879.150	0.0168974
879.228	0.0169844
879.307	0.0170763
879.385	0.0169171
879.463	0.0167973
879.541	0.0169123
879.619	0.0170295
879.697	0.0168793
879.775	0.0168807
879.853	0.0168575
879.932	0.0168730
880.010	0.0169101
880.088	0.0169690
880.166	0.0169126
880.244	0.0169371
880.322	0.0170303
880.400	0.0171233
880.478	0.0170565
880.557	0.0170870
880.635	0.0171461
880.713	0.0172160
880.791	0.0172411
880.869	0.0173051
880.947	0.0173366
881.025	0.0173634
881.103	0.0172908
881.182	0.0169617
881.260	0.0171948
881.338	0.0172344
881.416	0.0171741
881.494	0.0171860
881.572	0.0170398
881.650	0.0171573
881.728	0.0171995
881.807	0.0172038
881.885	0.0171500
881.963	0.0170078
882.041	0.0172628
882.119	0.0171694
882.197	0.0171304
882.275	0.0171207
882.353	0.0170661
882.432	0.0170415
882.510	0.0170795
882.588	0.0170985
882.666	0.0171583
882.744	0.0171544
882.822	0.0171698
882.900	0.0172613
882.978	0.0171473
883.057	0.0171605
883.135	0.0170210
883.213	0.0170113
883.291	0.0170052
883.369	0.0167494
883.447	0.0168376
883.525	0.0168039
883.603	0.0166834
883.682	0.0167568
883.760	0.0165151
883.838	0.0164795
883.916	0.0165002
883.994	0.0166306
884.072	0.0166834
884.150	0.0165921
884.228	0.0167377
884.307	0.0167058
884.385	0.0168510
884.463	0.0169160
884.541	0.0171030
884.619	0.0171239
884.697	0.0171378
884.775	0.0170543
884.853	0.0171931
884.932	0.0171422
885.010	0.0172649
885.088	0.0171799
885.166	0.0171886
885.244	0.0170646
885.322	0.0170291
885.400	0.0170836
885.478	0.0170246
885.557	0.0168511
885.635	0.0168932
885.713	0.0169671
885.791	0.0168642
885.869	0.0167936
885.947	0.0167614
886.025	0.0168333
886.103	0.0167091
886.182	0.0168151
886.260	0.0168478
886.338	0.0168248
886.416	0.0169055
886.494	0.0169349
886.572	0.0169524
886.650	0.0170920
886.728	0.0171289
886.807	0.0172025
886.885	0.0172272
886.963	0.0171598
887.041	0.0172122
887.119	0.0174468
887.197	0.0173485
887.275	0.0171967
887.353	0.0173305
887.432	0.0172966
887.510	0.0172353
887.588	0.0170779
887.666	0.0171734
887.744	0.0171300
887.822	0.0169777
887.900	0.0169415
887.978	0.0169328
888.057	0.0167636
888.135	0.0168498
888.213	0.0168398
888.291	0.0169519
888.369	0.0167677
888.447	0.0168274
888.525	0.0168433
888.603	0.0168756
888.682	0.0167952
888.760	0.0167471
888.838	0.0168982
888.916	0.0169799
888.994	0.0169590
889.072	0.0170071
889.150	0.0169380
889.228	0.0168874
889.307	0.0169493
889.385	0.0169101
889.463	0.0169435
889.541	0.0168771
889.619	0.0168012
889.697	0.0167316
889.775	0.0166901
889.853	0.0166541
889.932	0.0166344
890.010	0.0164276
890.088	0.0165910
890.166	0.0164228
890.244	0.0163364
890.322	0.0164041
890.400	0.0166035
890.478	0.0163756
890.557	0.0163595
890.635	0.0164732
890.713	0.0165303
890.791	0.0165282
890.869	0.0165579
890.947	0.0165877
891.025	0.0166536
891.103	0.0167953
891.182	0.0167449
891.260	0.0169069
891.338	0.0170572
891.416	0.0170460
891.494	0.0169842
891.572	0.0169949
891.650	0.0170824
891.728	0.0171906
891.807	0.0172050
891.885	0.0171664
891.963	0.0171193
892.041	0.0172975
892.119	0.0173052
892.197	0.0172730
892.275	0.0172706
892.353	0.0172659
892.432	0.0173966
892.510	0.0174471
892.588	0.0173790
892.666	0.0173668
892.744	0.0173052
892.822	0.0173042
892.900	0.0172921
892.978	0.0172247
893.057	0.0172107
893.135	0.0171850
893.213	0.0172633
893.291	0.0171111
893.369	0.0171896
893.447	0.0171768
893.525	0.0171870
893.603	0.0170383
893.682	0.0169833
893.760	0.0170731
893.838	0.0170560
893.916	0.0169853
893.994	0.0171662
894.072	0.0169604
894.150	0.0168820
894.228	0.0168688
894.307	0.0169387
894.385	0.0166422
894.463	0.0168365
894.541	0.0168997
894.619	0.0168137
894.697	0.0169026
894.775	0.0170010
894.853	0.0168810
894.932	0.0169055
895.010	0.0168832
895.088	0.0170264
895.166	0.0169854
895.244	0.0168347
895.322	0.0167343
895.400	0.0169009
895.478	0.0170186
895.557	0.0170436
895.635	0.0168183
895.713	0.0166458
895.791	0.0167387
895.869	0.0166571
895.947	0.0167057
896.025	0.0164983
896.103	0.0164832
896.182	0.0163846
896.260	0.0165223
896.338	0.0164153
896.416	0.0163919
896.494	0.0165489
896.572	0.0164816
896.650	0.0164031
896.728	0.0165387
896.807	0.0166673
896.885	0.0165906
896.963	0.0167986
897.041	0.0168824
897.119	0.0167673
897.197	0.0170244
897.275	0.0170625
897.353	0.0171743
897.432	0.0172114
897.510	0.0173016
897.588	0.0173168
897.666	0.0171473
897.744	0.0172778
897.822	0.0174083
897.900	0.0173108
897.978	0.0173956
898.057	0.0171815
898.135	0.0173039
898.213	0.0172976
898.291	0.0171825
898.369	0.0170879
898.447	0.0172046
898.525	0.0171161
898.603	0.0170778
898.682	0.0170599
898.760	0.0169910
898.838	0.0169804
898.916	0.0170441
898.994	0.0169536
899.072	0.0170135
899.150	0.0171216
899.228	0.0168707
899.307	0.0169607
899.385	0.0171140
899.463	0.0170768
899.541	0.0169616
899.619	0.0170145
899.697	0.0169947
899.775	0.0171038
899.853	0.0170799
899.932	0.0171286
900.010	0.0170126
900.088	0.0170116
900.166	0.0171022
900.244	0.0172794
900.322	0.0171542
900.400	0.0169884
900.478	0.0171048
900.557	0.0172390
900.635	0.0171914
900.713	0.0170568
900.791	0.0170468
900.869	0.0171416
900.947	0.0170921
901.025	0.0170969
901.103	0.0171424
901.182	0.0171207
901.260	0.0170233
901.338	0.0170343
901.416	0.0171503
901.494	0.0172202
901.572	0.0171158
901.650	0.0170449
901.728	0.0171095
901.807	0.0170256
901.885	0.0170030
901.963	0.0171053
902.041	0.0170495
902.119	0.0168865
902.197	0.0169597
902.275	0.0169509
902.353	0.0168213
902.432	0.0166454
902.510	0.0166730
902.588	0.0166405
902.666	0.0165337
902.744	0.0166228
902.822	0.0165635
902.900	0.0166074
902.978	0.0165085
903.057	0.0165372
903.135	0.0165649
903.213	0.0164184
903.291	0.0164658
903.369	0.0163810
903.447	0.0163680
903.525	0.0164340
903.603	0.0165833
903.682	0.0164475
903.760	0.0165463
903.838	0.0167021
903.916	0.0167360
903.994	0.0166600
904.072	0.0167551
904.150	0.0168999
904.228	0.0168528
904.307	0.0170454
904.385	0.0170232
904.463	0.0170427
904.541	0.0171677
904.619	0.0171029
904.697	0.0170984
904.775	0.0171752
904.853	0.0172699
904.932	0.0172366
905.010	0.0173082
905.088	0.0172346
905.166	0.0172480
905.244	0.0172148
905.322	0.0174282
905.400	0.0175154
905.478	0.0174837
905.557	0.0174225
905.635	0.0175375
905.713	0.0174165
905.791	0.0174889
905.869	0.0175185
905.947	0.0174785
906.025	0.0175790
906.103	0.0174487
906.182	0.0174306
906.260	0.0175568
906.338	0.0175315
906.416	0.0175813
906.494	0.0173722
906.572	0.0172705
906.650	0.0174582
906.728	0.0173439
906.807	0.0172819
906.885	0.0172848
906.963	0.0171173
907.041	0.0171365
907.119	0.0171303
907.197	0.0170181
907.275	0.0167992
907.353	0.0170300
907.432	0.0169019
907.510	0.0168846
907.588	0.0167719
907.666	0.0166856
907.744	0.0167975
907.822	0.0166776
907.900	0.0166339
907.978	0.0166626
908.057	0.0166489
908.135	0.0167365
908.213	0.0165678
908.291	0.0166633
908.369	0.0165707
908.447	0.0165762
908.525	0.0164581
908.603	0.0165171
908.682	0.0165816
908.760	0.0164490
908.838	0.0164143
908.916	0.0165691
908.994	0.0164983
909.072	0.0163873
909.150	0.0163599
909.228	0.0164291
909.307	0.0165197
909.385	0.0164980
909.463	0.0165378
909.541	0.0165909
909.619	0.0166962
909.697	0.0167549
909.775	0.0167825
909.853	0.0166649
909.932	0.0167696
910.010	0.0167447
910.088	0.0168064
910.166	0.0170473
910.244	0.0169806
910.322	0.0169933
910.400	0.0169302
910.478	0.0170831
910.557	0.0171363
910.635	0.0171581
910.713	0.0172181
910.791	0.0171378
910.869	0.0172033
910.947	0.0172986
911.025	0.0174041
911.103	0.0174895
911.182	0.0173177
911.260	0.0174529
911.338	0.0173976
911.416	0.0174552
911.494	0.0174924
911.572	0.0176213
911.650	0.0174897
911.728	0.0175183
911.807	0.0175413
911.885	0.0175851
911.963	0.0174291
912.041	0.0174436
912.119	0.0175059
912.197	0.0175186
912.275	0.0174654
912.353	0.0172359
912.432	0.0172834
912.510	0.0172252
912.588	0.0171758
912.666	0.0172152
912.744	0.0171660
912.822	0.0172092
912.900	0.0169593
912.978	0.0169527
913.057	0.0170498
913.135	0.0168629
913.213	0.0169289
913.291	0.0168389
913.369	0.0167858
913.447	0.0167523
913.525	0.0165609
913.603	0.0166780
913.682	0.0167113
913.760	0.0165701
913.838	0.0164941
913.916	0.0165500
913.994	0.0163903
914.072	0.0165635
914.150	0.0165076
914.228	0.0164500
914.307	0.0162676
914.385	0.0164880
914.463	0.0163607
914.541	0.0165140
914.619	0.0165313
914.697	0.0165334
914.775	0.0165098
914.853	0.0164777
914.932	0.0164086
915.010	0.0165745
915.088	0.0167602
915.166	0.0165923
915.244	0.0165778
915.322	0.0166637
915.400	0.0168630
915.478	0.0167192
915.557	0.0166775
915.635	0.0167487
915.713	0.0167906
915.791	0.0168187
915.869	0.0168697
915.947	0.0167844
916.025	0.0169257
916.103	0.0168993
916.182	0.0169834
916.260	0.0169912
916.338	0.0169715
916.416	0.0170033
916.494	0.0171395
916.572	0.0171114
916.650	0.0170246
916.728	0.0172053
916.807	0.0170911
916.885	0.0171493
916.963	0.0171385
917.041	0.0173813
917.119	0.0173117
917.197	0.0171375
917.275	0.0173003
917.353	0.0173463
917.432	0.0173574
917.510	0.0173602
917.588	0.0173238
917.666	0.0173403
917.744	0.0173670
917.822	0.0172609
917.900	0.0171374
917.978	0.0172996
918.057	0.0171460
918.135	0.0171753
918.213	0.0172662
918.291	0.0171456
918.369	0.0170690
918.447	0.0170088
918.525	0.0169652
918.603	0.0170197
918.682	0.0170982
918.760	0.0169937
918.838	0.0168345
918.916	0.0168699
918.994	0.0168739
919.072	0.0169078
919.150	0.0168578
919.228	0.0168375
919.307	0.0167488
919.385	0.0167368
919.463	0.0166508
919.541	0.0167345
919.619	0.0164310
919.697	0.0165657
919.775	0.0167452
919.853	0.0165894
919.932	0.0166549
920.010	0.0166908
920.088	0.0165889
920.166	0.0166198
920.244	0.0165871
920.322	0.0166782
920.400	0.0166044
920.478	0.0164679
920.557	0.0166996
920.635	0.0165827
920.713	0.0166257
920.791	0.0168217
920.869	0.0167434
920.947	0.0167082
921.025	0.0167338
921.103	0.0168925
921.182	0.0167844
921.260	0.0168597
921.338	0.0168091
921.416	0.0169050
921.494	0.0168758
921.572	0.0167792
921.650	0.0168101
921.728	0.0170535
921.807	0.0170814
921.885	0.0170567
921.963	0.0170125
922.041	0.0170495
922.119	0.0170747
922.197	0.0171125
922.275	0.0169715
922.353	0.0169620
922.432	0.0168940
922.510	0.0169228
922.588	0.0169196
922.666	0.0170076
922.744	0.0169865
922.822	0.0172064
922.900	0.0173341
922.978	0.0171976
923.057	0.0173484
923.135	0.0173425
923.213	0.0173570
923.291	0.0174765
923.369	0.0173766
923.447	0.0174783
923.525	0.0174088
923.603	0.0175122
923.682	0.0175840
923.760	0.0174736
923.838	0.0175269
923.916	0.0173923
923.994	0.0172762
924.072	0.0172762
924.150	0.0173859
924.228	0.0173717
924.307	0.0171817
924.385	0.0169514
924.463	0.0170911
924.541	0.0169934
924.619	0.0168456
924.697	0.0169131
924.775	0.0169186
924.853	0.0168564
924.932	0.0168905
925.010	0.0168665
925.088	0.0168250
925.166	0.0169820
925.244	0.0170093
925.322	0.0169944
925.400	0.0171578
925.478	0.0169176
925.557	0.0169688
925.635	0.0170289
925.713	0.0170520
925.791	0.0169517
925.869	0.0169289
925.947	0.0170863
926.025	0.0170122
926.103	0.0168892
926.182	0.0169135
926.260	0.0168400
926.338	0.0168699
926.416	0.0168781
926.494	0.0168967
926.572	0.0168169
926.650	0.0167185
926.728	0.0167039
926.807	0.0167273
926.885	0.0166500
926.963	0.0166232
927.041	0.0167310
927.119	0.0166841
927.197	0.0166241
927.275	0.0167416
927.353	0.0168719
927.432	0.0168221
927.510	0.0168812
927.588	0.0170663
927.666	0.0171736
927.744	0.0171730
927.822	0.0172352
927.900	0.0171980
927.978	0.0173402
928.057	0.0173871
928.135	0.0173589
928.213	0.0174716
928.291	0.0172456
928.369	0.0173394
928.447	0.0174261
928.525	0.0174055
928.603	0.0173283
928.682	0.0172894
928.760	0.0172186
928.838	0.0173306
928.916	0.0171990
928.994	0.0170306
929.072	0.0170931
929.150	0.0171790
929.228	0.0170679
929.307	0.0171077
929.385	0.0170360
929.463	0.0169851
929.541	0.0171130
929.619	0.0170692
929.697	0.0170020
929.775	0.0170302
929.853	0.0172758
929.932	0.0173019
930.010	0.0172031
930.088	0.0172750
930.166	0.0172644
930.244	0.0171597
930.322	0.0170818
930.400	0.0172269
930.478	0.0171448
930.557	0.0171825
930.635	0.0172752
930.713	0.0171732
930.791	0.0172118
930.869	0.0169923
930.947	0.0170963
931.025	0.0170988
931.103	0.0170499
931.182	0.0169733
931.260	0.0171602
931.338	0.0170701
931.416	0.0170646
931.494	0.0170779
931.572	0.0169168
931.650	0.0169704
931.728	0.0169830
931.807	0.0169337
931.885	0.0169591
931.963	0.0170392
932.041	0.0168698
932.119	0.0169488
932.197	0.0168794
932.275	0.0169685
932.353	0.0168723
932.432	0.0167479
932.510	0.0168247
932.588	0.0168625
932.666	0.0166783
932.744	0.0168063
932.822	0.0168008
932.900	0.0168754
932.978	0.0169059
933.057	0.0167255
933.135	0.0167757
933.213	0.0167155
933.291	0.0166898
933.369	0.0167805
933.447	0.0167013
933.525	0.0165638
933.603	0.0167117
933.682	0.0166422
933.760	0.0166060
933.838	0.0166864
933.916	0.0167263
933.994	0.0166828
934.072	0.0167776
934.150	0.0166698
934.228	0.0166460
934.307	0.0167477
934.385	0.0166713
934.463	0.0167790
934.541	0.0166698
934.619	0.0167542
934.697	0.0168507
934.775	0.0168125
934.853	0.0168103
934.932	0.0169656
935.010	0.0169594
935.088	0.0170436
935.166	0.0169638
935.244	0.0171004
935.322	0.0171133
935.400	0.0170684
935.478	0.0170364
935.557	0.0171225
935.635	0.0170894
935.713	0.0170221
935.791	0.0169801
935.869	0.0170052
935.947	0.0172014
936.025	0.0170500
936.103	0.0169150
936.182	0.0168376
936.260	0.0170081
936.338	0.0169708
936.416	0.0168956
936.494	0.0168995
936.572	0.0169523
936.650	0.0168916
936.728	0.0169600
936.807	0.0167010
936.885	0.0167572
936.963	0.0170351
937.041	0.0168884
937.119	0.0168676
937.197	0.0168138
937.275	0.0169749
937.353	0.0170225
937.432	0.0169095
937.510	0.0169435
937.588	0.0169843
937.666	0.0170266
937.744	0.0170502
937.822	0.0170325
937.900	0.0172414
937.978	0.0171088
938.057	0.0170776
938.135	0.0171216
938.213	0.0171349
938.291	0.0171446
938.369	0.0171015
938.447	0.0170425
938.525	0.0171231
938.603	0.0170654
938.682	0.0171646
938.760	0.0170530
938.838	0.0169249
938.916	0.0168880
938.994	0.0169060
939.072	0.0168613
939.150	0.0168359
939.228	0.0168246
939.307	0.0167973
939.385	0.0168384
939.463	0.0168095
939.541	0.0166709
939.619	0.0168161
939.697	0.0168317
939.775	0.0165222
939.853	0.0167049
939.932	0.0166900
940.010	0.0166296
940.088	0.0167530
940.166	0.0167587
940.244	0.0167336
940.322	0.0167886
940.400	0.0168179
940.478	0.0167094
940.557	0.0165866
940.635	0.0166919
940.713	0.0168138
940.791	0.0167776
940.869	0.0167407
940.947	0.0167859
941.025	0.0167620
941.103	0.0168020
941.182	0.0169406
941.260	0.0169111
941.338	0.0169302
941.416	0.0169578
941.494	0.0171030
941.572	0.0169122
941.650	0.0171236
941.728	0.0170791
941.807	0.0170809
941.885	0.0170091
941.963	0.0169958
942.041	0.0171378
942.119	0.0171227
942.197	0.0171053
942.275	0.0169598
942.353	0.0170475
942.432	0.0170419
942.510	0.0169169
942.588	0.0169962
942.666	0.0170007
942.744	0.0170048
942.822	0.0169019
942.900	0.0170405
942.978	0.0170078
943.057	0.0170020
943.135	0.0168661
943.213	0.0169221
943.291	0.0170057
943.369	0.0170019
943.447	0.0168637
943.525	0.0169375
943.603	0.0170390
943.682	0.0171702
943.760	0.0168999
943.838	0.0169543
943.916	0.0171019
943.994	0.0171770
944.072	0.0170683
944.150	0.0170600
944.228	0.0169458
944.307	0.0170389
944.385	0.0170995
944.463	0.0170361
944.541	0.0171013
944.619	0.0171292
944.697	0.0169345
944.775	0.0169280
944.853	0.0169737
944.932	0.0171033
945.010	0.0170477
945.088	0.0169732
945.166	0.0169199
945.244	0.0170936
945.322	0.0169279
945.400	0.0169829
945.478	0.0168922
945.557	0.0168921
945.635	0.0170438
945.713	0.0170291
945.791	0.0168954
945.869	0.0171130
945.947	0.0170083
946.025	0.0169385
946.103	0.0170092
946.182	0.0168136
946.260	0.0168379
946.338	0.0170200
946.416	0.0169286
946.494	0.0168634
946.572	0.0168600
946.650	0.0169055
946.728	0.0169808
946.807	0.0168076
946.885	0.0167670
946.963	0.0169743
947.041	0.0168900
947.119	0.0169606
947.197	0.0169090
947.275	0.0169470
947.353	0.0169441
947.432	0.0171333
947.510	0.0170892
947.588	0.0170778
947.666	0.0172005
947.744	0.0172109
947.822	0.0171834
947.900	0.0172015
947.978	0.0171401
948.057	0.0171671
948.135	0.0171548
948.213	0.0172513
948.291	0.0171707
948.369	0.0171877
948.447	0.0171584
948.525	0.0171834
948.603	0.0172018
948.682	0.0171537
948.760	0.0171115
948.838	0.0172221
948.916	0.0171981
948.994	0.0171275
949.072	0.0171853
949.150	0.0171311
949.228	0.0171987
949.307	0.0171148
949.385	0.0171090
949.463	0.0169905
949.541	0.0169585
949.619	0.0169916
949.697	0.0171525
949.775	0.0170322
949.853	0.0170209
949.932	0.0168365
950.010	0.0167874
950.088	0.0169157
950.166	0.0169182
950.244	0.0168483
950.322	0.0169669
950.400	0.0169318
950.478	0.0168253
950.557	0.0169641
950.635	0.0170397
950.713	0.0168687
950.791	0.0168468
950.869	0.0167901
950.947	0.0168523
951.025	0.0169859
951.103	0.0169221
951.182	0.0169419
951.260	0.0169541
951.338	0.0169784
951.416	0.0170435
951.494	0.0171238
951.572	0.0169407
951.650	0.0172128
951.728	0.0172623
951.807	0.0171606
951.885	0.0171645
951.963	0.0172026
952.041	0.0172671
952.119	0.0171581
952.197	0.0172351
952.275	0.0171666
952.353	0.0172229
952.432	0.0170533
952.510	0.0170311
952.588	0.0171076
952.666	0.0170049
952.744	0.0169567
952.822	0.0169872
952.900	0.0169159
952.978	0.0169173
953.057	0.0169628
953.135	0.0169523
953.213	0.0168529
953.291	0.0168024
953.369	0.0169520
953.447	0.0168926
953.525	0.0168913
953.603	0.0168306
953.682	0.0168244
953.760	0.0169225
953.838	0.0170101
953.916	0.0170529
953.994	0.0170231
954.072	0.0171069
954.150	0.0169382
954.228	0.0170267
954.307	0.0170998
954.385	0.0170887
954.463	0.0169926
954.541	0.0171846
954.619	0.0171951
954.697	0.0171058
954.775	0.0170966
954.853	0.0171061
954.932	0.0170985
955.010	0.0171194
955.088	0.0170167
955.166	0.0170592
955.244	0.0169608
955.322	0.0170013
955.400	0.0169247
955.478	0.0168896
955.557	0.0168588
955.635	0.0169598
955.713	0.0168194
955.791	0.0169279
955.869	0.0168261
955.947	0.0168071
956.025	0.0167492
956.103	0.0167784
956.182	0.0168712
956.260	0.0169114
956.338	0.0168574
956.416	0.0169220
956.494	0.0168050
956.572	0.0169312
956.650	0.0168542
956.728	0.0167637
956.807	0.0169554
956.885	0.0168249
956.963	0.0168141
957.041	0.0168994
957.119	0.0168697
957.197	0.0169157
957.275	0.0167954
957.353	0.0168713
957.432	0.0168972
957.510	0.0168211
957.588	0.0169220
957.666	0.0169537
957.744	0.0170601
957.822	0.0170346
957.900	0.0169493
957.978	0.0170043
958.057	0.0170464
958.135	0.0170502
958.213	0.0170247
958.291	0.0170152
958.369	0.0171509
958.447	0.0171755
958.525	0.0170190
958.603	0.0171698
958.682	0.0170847
958.760	0.0170784
958.838	0.0172036
958.916	0.0171784
958.994	0.0172428
959.072	0.0171574
959.150	0.0171843
959.228	0.0171691
959.307	0.0172410
959.385	0.0171780
959.463	0.0173324
959.541	0.0172767
959.619	0.0171645
959.697	0.0172525
959.775	0.0171311
959.853	0.0170603
959.932	0.0172325
960.010	0.0171217
960.088	0.0172029
960.166	0.0170290
960.244	0.0170162
960.322	0.0169711
960.400	0.0168949
960.478	0.0168616
960.557	0.0170274
960.635	0.0170119
960.713	0.0168389
960.791	0.0168076
960.869	0.0168638
960.947	0.0169296
961.025	0.0168520
961.103	0.0167489
961.182	0.0168242
961.260	0.0169776
961.338	0.0168150
961.416	0.0170201
961.494	0.0169717
961.572	0.0169964
961.650	0.0169604
961.728	0.0169797
961.807	0.0170623
961.885	0.0171567
961.963	0.0170814
962.041	0.0171912
962.119	0.0172221
962.197	0.0171922
962.275	0.0171920
962.353	0.0171892
962.432	0.0172100
962.510	0.0172910
962.588	0.0171370
962.666	0.0171355
962.744	0.0171027
962.822	0.0171424
962.900	0.0170689
962.978	0.0170582
963.057	0.0171191
963.135	0.0169469
963.213	0.0170734
963.291	0.0170206
963.369	0.0169399
963.447	0.0169045
963.525	0.0170193
963.603	0.0167793
963.682	0.0168311
963.760	0.0167627
963.838	0.0167334
963.916	0.0167513
963.994	0.0168321
964.072	0.0168501
964.150	0.0167611
964.228	0.0167459
964.307	0.0166394
964.385	0.0168251
964.463	0.0168816
964.541	0.0168529
964.619	0.0168507
964.697	0.0168312
964.775	0.0170410
964.853	0.0170966
964.932	0.0169716
965.010	0.0170541
965.088	0.0171778
965.166	0.0172888
965.244	0.0171027
965.322	0.0169861
965.400	0.0171891
965.478	0.0171301
965.557	0.0172250
965.635	0.0172591
965.713	0.0171320
965.791	0.0170791
965.869	0.0171718
965.947	0.0170020
966.025	0.0169948
966.103	0.0170033
966.182	0.0168897
966.260	0.0169064
966.338	0.0168319
966.416	0.0167432
966.494	0.0168485
966.572	0.0168439
966.650	0.0167596
966.728	0.0166947
966.807	0.0167377
966.885	0.0167802
966.963	0.0168626
967.041	0.0169318
967.119	0.0169399
967.197	0.0170557
967.275	0.0169556
967.353	0.0170624
967.432	0.0169795
967.510	0.0169430
967.588	0.0169984
967.666	0.0170126
967.744	0.0169922
967.822	0.0169907
967.900	0.0170194
967.978	0.0167446
968.057	0.0168424
968.135	0.0170042
968.213	0.0169813
968.291	0.0170535
968.369	0.0170193
968.447	0.0169695
968.525	0.0170909
968.603	0.0170845
968.682	0.0171555
968.760	0.0170039
968.838	0.0171631
968.916	0.0170926
968.994	0.0171034
969.072	0.0169250
969.150	0.0171068
969.228	0.0171973
969.307	0.0171018
969.385	0.0170245
969.463	0.0169895
969.541	0.0168985
969.619	0.0170008
969.697	0.0169861
969.775	0.0168748
969.853	0.0168961
969.932	0.0169637
