06/10/2022	16:29:28	Ver.	4.1	UNKNOWN
Optical Delay	650.009681	Delta X		0.078125	Sweeps	1	Scan Rate	0/0
Coordinates	Axis 1	NaN	Axis 2	NaN	Axis 3	NaN	Axis 4	NaN	Axis 5	NaN	Axis 6	0.000000
TX Power	0.000000	RX Power	0.000000

650.010	0.0170384
650.088	0.0171362
650.166	0.0171278
650.244	0.0172109
650.322	0.0171720
650.400	0.0171104
650.478	0.0171349
650.557	0.0172900
650.635	0.0172260
650.713	0.0171320
650.791	0.0170132
650.869	0.0171946
650.947	0.0171741
651.025	0.0172295
651.103	0.0171326
651.182	0.0171292
651.260	0.0170907
651.338	0.0171036
651.416	0.0171939
651.494	0.0173347
651.572	0.0171902
651.650	0.0170963
651.728	0.0170605
651.807	0.0171699
651.885	0.0171429
651.963	0.0170879
652.041	0.0171158
652.119	0.0170488
652.197	0.0171254
652.275	0.0171237
652.353	0.0171516
652.432	0.0171919
652.510	0.0171200
652.588	0.0170393
652.666	0.0171164
652.744	0.0170277
652.822	0.0170491
652.900	0.0169769
652.978	0.0169857
653.057	0.0170517
653.135	0.0169878
653.213	0.0172442
653.291	0.0170058
653.369	0.0169917
653.447	0.0170746
653.525	0.0169130
653.603	0.0170166
653.682	0.0170261
653.760	0.0170994
653.838	0.0170718
653.916	0.0170041
653.994	0.0171215
654.072	0.0170072
654.150	0.0169932
654.228	0.0170745
654.307	0.0170882
654.385	0.0170160
654.463	0.0170288
654.541	0.0170622
654.619	0.0171070
654.697	0.0170033
654.775	0.0170414
654.853	0.0170029
654.932	0.0170234
655.010	0.0169632
655.088	0.0170235
655.166	0.0171221
655.244	0.0170372
655.322	0.0170906
655.400	0.0169976
655.478	0.0171111
655.557	0.0170555
655.635	0.0171323
655.713	0.0171413
655.791	0.0170124
655.869	0.0171034
655.947	0.0171696
656.025	0.0171449
656.103	0.0171270
656.182	0.0170946
656.260	0.0170151
656.338	0.0169212
656.416	0.0171214
656.494	0.0170355
656.572	0.0169963
656.650	0.0170929
656.728	0.0170391
656.807	0.0170751
656.885	0.0169971
656.963	0.0170832
657.041	0.0171245
657.119	0.0170593
657.197	0.0169975
657.275	0.0170273
657.353	0.0170004
657.432	0.0171351
657.510	0.0170409
657.588	0.0169477
657.666	0.0170822
657.744	0.0170702
657.822	0.0170789
657.900	0.0169829
657.978	0.0170631
658.057	0.0170671
658.135	0.0169948
658.213	0.0169028
658.291	0.0170914
658.369	0.0170679
658.447	0.0170291
658.525	0.0170090
658.603	0.0170733
658.682	0.0170074
658.760	0.0169332
658.838	0.0170274
658.916	0.0170537
658.994	0.0170216
659.072	0.0169987
659.150	0.0169378
659.228	0.0169365
659.307	0.0170596
659.385	0.0169270
659.463	0.0169901
659.541	0.0168869
659.619	0.0169886
659.697	0.0169397
659.775	0.0170022
659.853	0.0169551
659.932	0.0171308
660.010	0.0170436
660.088	0.0169422
660.166	0.0170328
660.244	0.0169109
660.322	0.0168573
660.400	0.0169183
660.478	0.0171281
660.557	0.0170002
660.635	0.0169671
660.713	0.0170293
660.791	0.0170513
660.869	0.0168940
660.947	0.0170210
661.025	0.0170734
661.103	0.0169553
661.182	0.0169585
661.260	0.0171203
661.338	0.0169543
661.416	0.0169625
661.494	0.0170441
661.572	0.0169445
661.650	0.0169832
661.728	0.0170427
661.807	0.0169288
661.885	0.0170536
661.963	0.0170384
662.041	0.0169206
662.119	0.0169293
662.197	0.0170953
662.275	0.0169698
662.353	0.0168782
662.432	0.0171843
662.510	0.0171099
662.588	0.0170861
662.666	0.0170125
662.744	0.0170251
662.822	0.0170081
662.900	0.0169978
662.978	0.0169566
663.057	0.0168000
663.135	0.0169866
663.213	0.0170557
663.291	0.0168336
663.369	0.0169701
663.447	0.0169582
663.525	0.0169794
663.603	0.0169342
663.682	0.0171106
663.760	0.0170329
663.838	0.0168318
663.916	0.0169819
663.994	0.0169599
664.072	0.0169471
664.150	0.0170444
664.228	0.0170078
664.307	0.0169099
664.385	0.0169490
664.463	0.0169033
664.541	0.0169082
664.619	0.0169904
664.697	0.0170320
664.775	0.0169477
664.853	0.0169013
664.932	0.0169023
665.010	0.0169454
665.088	0.0169533
665.166	0.0169947
665.244	0.0168729
665.322	0.0169289
665.400	0.0169820
665.478	0.0170432
665.557	0.0169568
665.635	0.0167726
665.713	0.0170078
665.791	0.0169093
665.869	0.0169416
665.947	0.0170972
666.025	0.0168905
666.103	0.0168316
666.182	0.0169944
666.260	0.0170771
666.338	0.0170431
666.416	0.0169623
666.494	0.0169427
666.572	0.0169308
666.650	0.0169382
666.728	0.0169873
666.807	0.0170466
666.885	0.0168757
666.963	0.0169167
667.041	0.0171770
667.119	0.0169528
667.197	0.0168560
667.275	0.0170271
667.353	0.0171028
667.432	0.0170258
667.510	0.0169360
667.588	0.0169194
667.666	0.0169091
667.744	0.0170097
667.822	0.0170701
667.900	0.0170251
667.978	0.0170393
668.057	0.0170684
668.135	0.0169273
668.213	0.0168986
668.291	0.0170694
668.369	0.0169908
668.447	0.0169022
668.525	0.0169327
668.603	0.0168781
668.682	0.0168542
668.760	0.0170721
668.838	0.0170153
668.916	0.0168546
668.994	0.0170855
669.072	0.0169218
669.150	0.0169736
669.228	0.0169204
669.307	0.0170296
669.385	0.0169417
669.463	0.0170162
669.541	0.0170757
669.619	0.0169955
669.697	0.0169961
669.775	0.0170301
669.853	0.0170357
669.932	0.0168278
670.010	0.0168637
670.088	0.0170032
670.166	0.0169830
670.244	0.0170757
670.322	0.0169456
670.400	0.0170025
670.478	0.0170337
670.557	0.0170147
670.635	0.0170194
670.713	0.0170187
670.791	0.0168898
670.869	0.0171143
670.947	0.0169444
671.025	0.0170220
671.103	0.0171117
671.182	0.0171363
671.260	0.0170309
671.338	0.0169387
671.416	0.0170177
671.494	0.0170065
671.572	0.0170438
671.650	0.0170068
671.728	0.0169459
671.807	0.0170072
671.885	0.0170210
671.963	0.0168637
672.041	0.0170255
672.119	0.0170416
672.197	0.0169617
672.275	0.0170779
672.353	0.0169270
672.432	0.0169997
672.510	0.0171551
672.588	0.0170213
672.666	0.0169551
672.744	0.0169996
672.822	0.0170438
672.900	0.0169765
672.978	0.0169102
673.057	0.0169385
673.135	0.0169398
673.213	0.0168595
673.291	0.0169920
673.369	0.0168967
673.447	0.0170677
673.525	0.0171361
673.603	0.0169457
673.682	0.0170528
673.760	0.0170905
673.838	0.0169924
673.916	0.0170534
673.994	0.0171379
674.072	0.0170074
674.150	0.0171138
674.228	0.0171584
674.307	0.0170639
674.385	0.0171218
674.463	0.0171297
674.541	0.0171145
674.619	0.0170242
674.697	0.0171503
674.775	0.0170702
674.853	0.0172715
674.932	0.0172173
675.010	0.0171693
675.088	0.0171046
675.166	0.0170423
675.244	0.0170299
675.322	0.0171690
675.400	0.0171355
675.478	0.0171597
675.557	0.0172003
675.635	0.0170317
675.713	0.0171754
675.791	0.0172298
675.869	0.0170772
675.947	0.0170142
676.025	0.0170172
676.103	0.0171616
676.182	0.0173019
676.260	0.0170750
676.338	0.0171270
676.416	0.0171942
676.494	0.0171091
676.572	0.0170967
676.650	0.0173349
676.728	0.0171516
676.807	0.0170674
676.885	0.0171370
676.963	0.0171014
677.041	0.0171217
677.119	0.0171077
677.197	0.0170349
677.275	0.0171634
677.353	0.0171149
677.432	0.0170094
677.510	0.0170481
677.588	0.0171710
677.666	0.0171408
677.744	0.0171317
677.822	0.0170775
677.900	0.0170959
677.978	0.0170959
678.057	0.0170564
678.135	0.0170947
678.213	0.0171996
678.291	0.0172283
678.369	0.0170295
678.447	0.0169976
678.525	0.0171100
678.603	0.0169659
678.682	0.0169840
678.760	0.0169424
678.838	0.0170338
678.916	0.0170682
678.994	0.0171589
679.072	0.0170765
679.150	0.0170325
679.228	0.0170228
679.307	0.0169688
679.385	0.0169167
679.463	0.0170132
679.541	0.0170387
679.619	0.0169539
679.697	0.0170075
679.775	0.0170087
679.853	0.0169260
679.932	0.0171012
680.010	0.0170824
680.088	0.0170399
680.166	0.0171185
680.244	0.0170992
680.322	0.0170893
680.400	0.0170335
680.478	0.0171614
680.557	0.0171256
680.635	0.0171030
680.713	0.0169079
680.791	0.0169886
680.869	0.0170103
680.947	0.0169370
681.025	0.0169923
681.103	0.0168504
681.182	0.0168223
681.260	0.0171692
681.338	0.0169978
681.416	0.0170148
681.494	0.0169166
681.572	0.0171101
681.650	0.0171960
681.728	0.0169393
681.807	0.0169759
681.885	0.0169559
681.963	0.0170794
682.041	0.0170103
682.119	0.0170834
682.197	0.0169787
682.275	0.0170468
682.353	0.0170425
682.432	0.0171264
682.510	0.0168317
682.588	0.0170268
682.666	0.0168124
682.744	0.0170066
682.822	0.0169785
682.900	0.0169780
682.978	0.0170534
683.057	0.0169424
683.135	0.0170582
683.213	0.0170549
683.291	0.0169692
683.369	0.0169247
683.447	0.0171058
683.525	0.0169931
683.603	0.0169083
683.682	0.0171493
683.760	0.0172292
683.838	0.0170564
683.916	0.0170757
683.994	0.0169151
684.072	0.0168993
684.150	0.0170109
684.228	0.0170145
684.307	0.0170573
684.385	0.0170558
684.463	0.0169324
684.541	0.0169312
684.619	0.0168626
684.697	0.0171098
684.775	0.0171230
684.853	0.0170074
684.932	0.0170652
685.010	0.0169962
685.088	0.0168893
685.166	0.0169820
685.244	0.0170210
685.322	0.0170062
685.400	0.0169077
685.478	0.0169325
685.557	0.0169200
685.635	0.0169847
685.713	0.0170377
685.791	0.0170501
685.869	0.0169574
685.947	0.0170028
686.025	0.0170943
686.103	0.0169202
686.182	0.0169807
686.260	0.0170153
686.338	0.0169522
686.416	0.0169645
686.494	0.0170655
686.572	0.0170281
686.650	0.0170952
686.728	0.0168073
686.807	0.0168605
686.885	0.0170492
686.963	0.0169779
687.041	0.0169140
687.119	0.0170420
687.197	0.0170216
687.275	0.0169394
687.353	0.0169608
687.432	0.0169894
687.510	0.0169053
687.588	0.0170270
687.666	0.0169553
687.744	0.0169445
687.822	0.0170647
687.900	0.0170612
687.978	0.0170477
688.057	0.0170451
688.135	0.0168339
688.213	0.0171535
688.291	0.0170319
688.369	0.0170302
688.447	0.0170837
688.525	0.0170381
688.603	0.0170473
688.682	0.0169740
688.760	0.0170544
688.838	0.0171890
688.916	0.0170695
688.994	0.0170134
689.072	0.0170287
689.150	0.0170765
689.228	0.0170702
689.307	0.0170885
689.385	0.0171262
689.463	0.0171332
689.541	0.0171431
689.619	0.0170309
689.697	0.0171022
689.775	0.0170827
689.853	0.0171822
689.932	0.0170592
690.010	0.0171817
690.088	0.0172255
690.166	0.0171370
690.244	0.0170736
690.322	0.0173230
690.400	0.0171214
690.478	0.0170620
690.557	0.0171365
690.635	0.0170979
690.713	0.0170627
690.791	0.0170654
690.869	0.0171813
690.947	0.0172041
691.025	0.0171355
691.103	0.0172385
691.182	0.0171372
691.260	0.0170362
691.338	0.0171756
691.416	0.0172173
691.494	0.0170560
691.572	0.0170901
691.650	0.0172181
691.728	0.0171085
691.807	0.0169824
691.885	0.0170574
691.963	0.0171786
692.041	0.0170446
692.119	0.0170737
692.197	0.0170423
692.275	0.0171501
692.353	0.0170933
692.432	0.0170002
692.510	0.0172148
692.588	0.0170419
692.666	0.0170071
692.744	0.0170392
692.822	0.0170080
692.900	0.0171147
692.978	0.0170987
693.057	0.0170212
693.135	0.0169737
693.213	0.0170152
693.291	0.0170092
693.369	0.0170728
693.447	0.0169800
693.525	0.0170168
693.603	0.0170059
693.682	0.0170613
693.760	0.0170912
693.838	0.0172311
693.916	0.0171115
693.994	0.0170543
694.072	0.0170171
694.150	0.0170757
694.228	0.0170891
694.307	0.0169621
694.385	0.0171202
694.463	0.0170364
694.541	0.0170067
694.619	0.0169980
694.697	0.0170959
694.775	0.0170313
694.853	0.0170256
694.932	0.0170203
695.010	0.0169733
695.088	0.0170063
695.166	0.0171722
695.244	0.0170470
695.322	0.0171745
695.400	0.0171291
695.478	0.0170955
695.557	0.0170061
695.635	0.0171591
695.713	0.0170045
695.791	0.0169883
695.869	0.0170719
695.947	0.0170064
696.025	0.0170462
696.103	0.0169927
696.182	0.0168297
696.260	0.0171318
696.338	0.0170398
696.416	0.0170785
696.494	0.0169921
696.572	0.0170675
696.650	0.0171030
696.728	0.0170206
696.807	0.0169431
696.885	0.0170186
696.963	0.0169660
697.041	0.0169886
697.119	0.0170770
697.197	0.0169668
697.275	0.0170164
697.353	0.0171001
697.432	0.0170822
697.510	0.0171457
697.588	0.0170158
697.666	0.0170464
697.744	0.0171268
697.822	0.0169579
697.900	0.0170108
697.978	0.0170202
698.057	0.0170448
698.135	0.0169781
698.213	0.0169270
698.291	0.0170798
698.369	0.0170692
698.447	0.0170213
698.525	0.0170306
698.603	0.0170123
698.682	0.0169816
698.760	0.0169038
698.838	0.0171510
698.916	0.0169598
698.994	0.0169096
699.072	0.0170012
699.150	0.0170655
699.228	0.0170049
699.307	0.0169542
699.385	0.0170442
699.463	0.0169830
699.541	0.0169223
699.619	0.0170245
699.697	0.0169926
699.775	0.0170295
699.853	0.0169685
699.932	0.0169643
700.010	0.0168546
700.088	0.0168835
700.166	0.0171030
700.244	0.0170476
700.322	0.0168613
700.400	0.0167593
700.478	0.0169807
700.557	0.0169940
700.635	0.0170902
700.713	0.0168893
700.791	0.0170376
700.869	0.0169276
700.947	0.0169195
701.025	0.0168969
701.103	0.0170621
701.182	0.0170733
701.260	0.0170693
701.338	0.0169305
701.416	0.0169376
701.494	0.0170002
701.572	0.0169819
701.650	0.0170959
701.728	0.0169918
701.807	0.0169240
701.885	0.0167902
701.963	0.0168717
702.041	0.0170611
702.119	0.0170793
702.197	0.0169926
702.275	0.0169650
702.353	0.0169878
702.432	0.0170446
702.510	0.0169200
702.588	0.0170676
702.666	0.0170634
702.744	0.0171299
702.822	0.0170267
702.900	0.0169469
702.978	0.0170610
703.057	0.0168739
703.135	0.0170608
703.213	0.0170350
703.291	0.0169138
703.369	0.0169909
703.447	0.0170814
703.525	0.0170117
703.603	0.0171022
703.682	0.0169964
703.760	0.0170841
703.838	0.0170902
703.916	0.0169390
703.994	0.0169981
704.072	0.0169551
704.150	0.0170385
704.228	0.0170313
704.307	0.0171452
704.385	0.0170626
704.463	0.0170094
704.541	0.0169823
704.619	0.0169421
704.697	0.0170406
704.775	0.0170144
704.853	0.0168480
704.932	0.0170074
705.010	0.0170168
705.088	0.0171899
705.166	0.0171102
705.244	0.0168807
705.322	0.0169842
705.400	0.0171296
705.478	0.0171334
705.557	0.0170264
705.635	0.0169984
705.713	0.0170628
705.791	0.0170498
705.869	0.0168898
705.947	0.0169486
706.025	0.0170377
706.103	0.0170916
706.182	0.0169781
706.260	0.0170371
706.338	0.0170805
706.416	0.0171799
706.494	0.0170579
706.572	0.0172269
706.650	0.0170304
706.728	0.0169115
706.807	0.0172305
706.885	0.0170300
706.963	0.0170352
707.041	0.0169680
707.119	0.0170827
707.197	0.0170755
707.275	0.0170811
707.353	0.0171079
707.432	0.0169910
707.510	0.0171996
707.588	0.0169829
707.666	0.0169974
707.744	0.0169809
707.822	0.0169976
707.900	0.0170383
707.978	0.0170083
708.057	0.0169975
708.135	0.0170498
708.213	0.0169998
708.291	0.0169552
708.369	0.0169754
708.447	0.0170688
708.525	0.0169843
708.603	0.0170685
708.682	0.0170152
708.760	0.0170388
708.838	0.0171341
708.916	0.0169355
708.994	0.0170202
709.072	0.0170145
709.150	0.0170091
709.228	0.0169476
709.307	0.0171971
709.385	0.0170641
709.463	0.0170495
709.541	0.0170207
709.619	0.0172024
709.697	0.0169884
709.775	0.0168524
709.853	0.0171362
709.932	0.0171722
710.010	0.0172044
710.088	0.0171542
710.166	0.0170610
710.244	0.0169799
710.322	0.0169675
710.400	0.0170076
710.478	0.0169894
710.557	0.0171447
710.635	0.0170264
710.713	0.0170661
710.791	0.0169561
710.869	0.0168844
710.947	0.0170178
711.025	0.0169898
711.103	0.0169480
711.182	0.0170371
711.260	0.0170061
711.338	0.0170413
711.416	0.0170222
711.494	0.0170918
711.572	0.0170911
711.650	0.0170182
711.728	0.0170748
711.807	0.0170517
711.885	0.0170977
711.963	0.0170723
712.041	0.0171111
712.119	0.0171864
712.197	0.0170918
712.275	0.0170747
712.353	0.0171860
712.432	0.0172380
712.510	0.0170755
712.588	0.0171525
712.666	0.0172286
712.744	0.0171539
712.822	0.0170951
712.900	0.0169860
712.978	0.0170847
713.057	0.0169865
713.135	0.0170565
713.213	0.0170793
713.291	0.0170827
713.369	0.0170359
713.447	0.0170467
713.525	0.0170237
713.603	0.0171254
713.682	0.0170042
713.760	0.0170786
713.838	0.0171839
713.916	0.0171345
713.994	0.0170090
714.072	0.0170989
714.150	0.0169855
714.228	0.0170302
714.307	0.0172296
714.385	0.0169106
714.463	0.0171068
714.541	0.0170812
714.619	0.0170320
714.697	0.0170470
714.775	0.0170583
714.853	0.0171876
714.932	0.0170379
715.010	0.0170768
715.088	0.0168877
715.166	0.0170042
715.244	0.0171434
715.322	0.0170845
715.400	0.0170872
715.478	0.0171267
715.557	0.0170823
715.635	0.0171026
715.713	0.0171563
715.791	0.0170768
715.869	0.0170136
715.947	0.0170525
716.025	0.0171220
716.103	0.0168739
716.182	0.0169679
716.260	0.0170881
716.338	0.0170460
716.416	0.0170543
716.494	0.0170178
716.572	0.0171603
716.650	0.0171000
716.728	0.0170229
716.807	0.0171437
716.885	0.0170776
716.963	0.0169434
717.041	0.0170193
717.119	0.0170851
717.197	0.0169359
717.275	0.0169592
717.353	0.0170099
717.432	0.0170905
717.510	0.0172064
717.588	0.0170475
717.666	0.0169847
717.744	0.0170240
717.822	0.0170262
717.900	0.0169598
717.978	0.0169647
718.057	0.0170164
718.135	0.0170438
718.213	0.0170078
718.291	0.0170269
718.369	0.0168842
718.447	0.0170159
718.525	0.0169743
718.603	0.0169959
718.682	0.0171170
718.760	0.0170109
718.838	0.0168896
718.916	0.0170100
718.994	0.0170348
719.072	0.0168542
719.150	0.0169529
719.228	0.0168697
719.307	0.0169351
719.385	0.0169376
719.463	0.0170454
719.541	0.0168946
719.619	0.0168902
719.697	0.0168845
719.775	0.0170503
719.853	0.0168169
719.932	0.0169313
720.010	0.0168865
720.088	0.0168877
720.166	0.0168715
720.244	0.0169193
720.322	0.0169260
720.400	0.0169511
720.478	0.0169131
720.557	0.0169583
720.635	0.0170139
720.713	0.0168275
720.791	0.0171196
720.869	0.0169952
720.947	0.0169119
721.025	0.0169871
721.103	0.0169543
721.182	0.0169251
721.260	0.0169527
721.338	0.0169878
721.416	0.0169078
721.494	0.0168942
721.572	0.0169981
721.650	0.0171405
721.728	0.0169498
721.807	0.0169474
721.885	0.0169626
721.963	0.0170193
722.041	0.0170361
722.119	0.0170231
722.197	0.0169258
722.275	0.0167985
722.353	0.0168610
722.432	0.0168916
722.510	0.0168230
722.588	0.0168167
722.666	0.0168501
722.744	0.0168706
722.822	0.0169047
722.900	0.0169793
722.978	0.0171562
723.057	0.0171777
723.135	0.0172769
723.213	0.0173587
723.291	0.0173779
723.369	0.0174152
723.447	0.0172247
723.525	0.0172635
723.603	0.0172631
723.682	0.0172083
723.760	0.0171747
723.838	0.0168748
723.916	0.0168093
723.994	0.0167033
724.072	0.0165493
724.150	0.0165678
724.228	0.0164803
724.307	0.0163715
724.385	0.0164180
724.463	0.0165890
724.541	0.0166470
724.619	0.0168087
724.697	0.0172157
724.775	0.0173603
724.853	0.0174528
724.932	0.0175707
725.010	0.0176610
725.088	0.0176204
725.166	0.0176432
725.244	0.0175179
725.322	0.0175255
725.400	0.0174744
725.478	0.0173200
725.557	0.0172857
725.635	0.0170461
725.713	0.0169167
725.791	0.0171074
725.869	0.0170040
725.947	0.0168324
726.025	0.0169016
726.103	0.0167780
726.182	0.0168023
726.260	0.0168717
726.338	0.0168598
726.416	0.0169540
726.494	0.0167091
726.572	0.0168459
726.650	0.0167638
726.728	0.0168256
726.807	0.0166590
726.885	0.0167258
726.963	0.0168777
727.041	0.0166852
727.119	0.0169280
727.197	0.0170473
727.275	0.0171254
727.353	0.0172985
727.432	0.0173503
727.510	0.0175617
727.588	0.0177177
727.666	0.0178059
727.744	0.0179043
727.822	0.0178697
727.900	0.0178780
727.978	0.0176548
728.057	0.0176102
728.135	0.0172918
728.213	0.0172335
728.291	0.0171169
728.369	0.0167343
728.447	0.0165223
728.525	0.0162759
728.603	0.0160450
728.682	0.0159483
728.760	0.0161018
728.838	0.0161124
728.916	0.0163698
728.994	0.0164581
729.072	0.0164481
729.150	0.0165532
729.228	0.0168642
729.307	0.0171159
729.385	0.0173228
729.463	0.0174333
729.541	0.0178336
729.619	0.0177720
729.697	0.0179215
729.775	0.0179789
729.853	0.0181668
729.932	0.0180228
730.010	0.0178641
730.088	0.0178014
730.166	0.0176051
730.244	0.0174464
730.322	0.0174863
730.400	0.0173369
730.478	0.0169860
730.557	0.0169707
730.635	0.0166489
730.713	0.0164436
730.791	0.0164381
730.869	0.0164226
730.947	0.0162217
731.025	0.0162888
731.103	0.0163704
731.182	0.0164979
731.260	0.0165405
731.338	0.0165699
731.416	0.0167777
731.494	0.0167367
731.572	0.0170260
731.650	0.0171241
731.728	0.0171178
731.807	0.0173196
731.885	0.0173320
731.963	0.0174261
732.041	0.0175180
732.119	0.0174651
732.197	0.0174323
732.275	0.0176133
732.353	0.0176134
732.432	0.0176054
732.510	0.0175684
732.588	0.0173367
732.666	0.0173374
732.744	0.0173968
732.822	0.0171890
732.900	0.0171526
732.978	0.0170621
733.057	0.0167553
733.135	0.0167477
733.213	0.0166204
733.291	0.0164787
733.369	0.0164990
733.447	0.0163819
733.525	0.0164172
733.603	0.0164708
733.682	0.0166422
733.760	0.0167195
733.838	0.0168002
733.916	0.0168371
733.994	0.0171474
734.072	0.0172044
734.150	0.0173723
734.228	0.0174905
734.307	0.0174858
734.385	0.0176437
734.463	0.0177635
734.541	0.0176830
734.619	0.0174880
734.697	0.0175111
734.775	0.0173939
734.853	0.0172782
734.932	0.0172155
735.010	0.0171429
735.088	0.0169390
735.166	0.0167251
735.244	0.0166580
735.322	0.0166639
735.400	0.0166602
735.478	0.0166389
735.557	0.0166761
735.635	0.0167204
735.713	0.0168722
735.791	0.0168542
735.869	0.0168456
735.947	0.0168855
736.025	0.0170161
736.103	0.0172710
736.182	0.0170409
736.260	0.0171621
736.338	0.0173527
736.416	0.0171915
736.494	0.0171296
736.572	0.0170010
736.650	0.0170438
736.728	0.0168684
736.807	0.0170757
736.885	0.0168944
736.963	0.0169263
737.041	0.0167913
737.119	0.0167496
737.197	0.0169016
737.275	0.0169807
737.353	0.0169966
737.432	0.0168774
737.510	0.0170046
737.588	0.0171248
737.666	0.0170138
737.744	0.0169884
737.822	0.0170787
737.900	0.0170281
737.978	0.0171812
738.057	0.0170473
738.135	0.0169452
738.213	0.0168807
738.291	0.0169246
738.369	0.0168817
738.447	0.0169254
738.525	0.0170470
738.603	0.0168900
738.682	0.0168381
738.760	0.0169199
738.838	0.0169118
738.916	0.0169244
738.994	0.0170348
739.072	0.0170185
739.150	0.0170523
739.228	0.0170887
739.307	0.0173100
739.385	0.0173981
739.463	0.0173473
739.541	0.0172723
739.619	0.0173171
739.697	0.0172704
739.775	0.0172851
739.853	0.0174356
739.932	0.0172311
740.010	0.0171626
740.088	0.0169545
740.166	0.0168995
740.244	0.0169156
740.322	0.0168597
740.400	0.0167868
740.478	0.0167373
740.557	0.0165898
740.635	0.0166492
740.713	0.0166958
740.791	0.0166304
740.869	0.0168739
740.947	0.0167133
741.025	0.0167639
741.103	0.0169453
741.182	0.0170978
741.260	0.0171055
741.338	0.0171918
741.416	0.0172846
741.494	0.0173664
741.572	0.0174672
741.650	0.0173575
741.728	0.0172150
741.807	0.0171825
741.885	0.0173540
741.963	0.0172427
742.041	0.0171925
742.119	0.0171759
742.197	0.0171185
742.275	0.0169252
742.353	0.0170979
742.432	0.0170287
742.510	0.0170173
742.588	0.0168862
742.666	0.0168027
742.744	0.0168349
742.822	0.0167289
742.900	0.0166289
742.978	0.0165699
743.057	0.0165462
743.135	0.0164621
743.213	0.0165643
743.291	0.0164287
743.369	0.0165312
743.447	0.0166403
743.525	0.0166747
743.603	0.0168699
743.682	0.0169045
743.760	0.0170279
743.838	0.0172046
743.916	0.0173174
743.994	0.0172480
744.072	0.0175713
744.150	0.0175385
744.228	0.0172835
744.307	0.0174145
744.385	0.0174003
744.463	0.0171229
744.541	0.0172219
744.619	0.0172504
744.697	0.0169769
744.775	0.0168547
744.853	0.0167655
744.932	0.0167266
745.010	0.0166418
745.088	0.0165012
745.166	0.0164889
745.244	0.0165454
745.322	0.0164912
745.400	0.0165083
745.478	0.0167339
745.557	0.0167286
745.635	0.0169772
745.713	0.0169480
745.791	0.0170351
745.869	0.0171873
745.947	0.0172147
746.025	0.0172641
746.103	0.0172495
746.182	0.0172978
746.260	0.0174217
746.338	0.0173426
746.416	0.0173307
746.494	0.0171535
746.572	0.0172213
746.650	0.0172301
746.728	0.0170652
746.807	0.0169290
746.885	0.0170525
746.963	0.0168593
747.041	0.0168668
747.119	0.0169151
747.197	0.0167126
747.275	0.0168393
747.353	0.0167986
747.432	0.0169214
747.510	0.0168795
747.588	0.0168831
747.666	0.0167857
747.744	0.0167924
747.822	0.0170624
747.900	0.0167899
747.978	0.0169475
748.057	0.0169054
748.135	0.0169247
748.213	0.0169341
748.291	0.0169163
748.369	0.0171309
748.447	0.0171658
748.525	0.0171656
748.603	0.0169653
748.682	0.0171532
748.760	0.0172707
748.838	0.0172906
748.916	0.0173071
748.994	0.0173389
749.072	0.0171987
749.150	0.0171449
749.228	0.0172070
749.307	0.0171974
749.385	0.0171321
749.463	0.0169670
749.541	0.0168000
749.619	0.0169867
749.697	0.0169616
749.775	0.0168578
749.853	0.0169117
749.932	0.0169860
750.010	0.0169412
750.088	0.0169713
750.166	0.0172136
750.244	0.0169453
750.322	0.0170409
750.400	0.0171349
750.478	0.0171301
750.557	0.0170083
750.635	0.0170866
750.713	0.0171506
750.791	0.0171404
750.869	0.0172056
750.947	0.0171761
751.025	0.0170990
751.103	0.0171227
751.182	0.0171342
751.260	0.0170819
751.338	0.0169547
751.416	0.0171100
751.494	0.0169289
751.572	0.0170108
751.650	0.0169890
751.728	0.0169501
751.807	0.0170203
751.885	0.0169155
751.963	0.0170260
752.041	0.0170639
752.119	0.0171854
752.197	0.0171760
752.275	0.0170895
752.353	0.0169913
752.432	0.0170090
752.510	0.0170412
752.588	0.0170169
752.666	0.0170796
752.744	0.0169522
752.822	0.0171029
752.900	0.0170284
752.978	0.0171255
753.057	0.0170279
753.135	0.0169944
753.213	0.0169310
753.291	0.0169975
753.369	0.0169037
753.447	0.0170389
753.525	0.0170729
753.603	0.0170020
753.682	0.0168813
753.760	0.0169764
753.838	0.0170404
753.916	0.0170753
753.994	0.0170679
754.072	0.0170580
754.150	0.0169930
754.228	0.0169347
754.307	0.0170538
754.385	0.0170848
754.463	0.0171973
754.541	0.0172569
754.619	0.0170567
754.697	0.0173232
754.775	0.0171527
754.853	0.0172312
754.932	0.0172472
755.010	0.0170548
755.088	0.0171870
755.166	0.0171741
755.244	0.0173309
755.322	0.0172424
755.400	0.0171841
755.478	0.0171958
755.557	0.0172325
755.635	0.0171815
755.713	0.0170856
755.791	0.0171513
755.869	0.0170704
755.947	0.0170954
756.025	0.0169918
756.103	0.0170099
756.182	0.0171592
756.260	0.0170818
756.338	0.0170152
756.416	0.0171131
756.494	0.0172569
756.572	0.0170217
756.650	0.0171455
756.728	0.0171396
756.807	0.0171624
756.885	0.0171100
756.963	0.0172599
757.041	0.0172399
757.119	0.0174310
757.197	0.0174164
757.275	0.0172414
757.353	0.0172920
757.432	0.0171959
757.510	0.0171750
757.588	0.0172319
757.666	0.0172950
757.744	0.0172710
757.822	0.0171751
757.900	0.0172169
757.978	0.0170042
758.057	0.0170039
758.135	0.0170014
758.213	0.0169611
758.291	0.0167788
758.369	0.0168126
758.447	0.0168654
758.525	0.0168864
758.603	0.0168449
758.682	0.0169603
758.760	0.0170425
758.838	0.0168536
758.916	0.0170058
758.994	0.0171255
759.072	0.0171545
759.150	0.0172263
759.228	0.0171526
759.307	0.0171880
759.385	0.0172625
759.463	0.0172813
759.541	0.0173094
759.619	0.0173132
759.697	0.0172115
759.775	0.0171737
759.853	0.0170723
759.932	0.0169749
760.010	0.0170250
760.088	0.0170786
760.166	0.0169720
760.244	0.0169079
760.322	0.0168916
760.400	0.0168734
760.478	0.0169193
760.557	0.0169561
760.635	0.0167976
760.713	0.0167235
760.791	0.0168065
760.869	0.0168677
760.947	0.0168427
761.025	0.0167950
761.103	0.0167538
761.182	0.0168688
761.260	0.0169356
761.338	0.0169054
761.416	0.0170102
761.494	0.0169730
761.572	0.0170760
761.650	0.0170853
761.728	0.0170869
761.807	0.0171942
761.885	0.0170904
761.963	0.0171745
762.041	0.0172361
762.119	0.0172752
762.197	0.0172185
762.275	0.0172929
762.353	0.0172488
762.432	0.0172241
762.510	0.0171879
762.588	0.0171737
762.666	0.0169256
762.744	0.0169537
762.822	0.0170013
762.900	0.0169479
762.978	0.0169719
763.057	0.0167896
763.135	0.0167551
763.213	0.0166881
763.291	0.0166708
763.369	0.0167710
763.447	0.0167181
763.525	0.0166646
763.603	0.0166269
763.682	0.0166901
763.760	0.0166499
763.838	0.0167165
763.916	0.0168555
763.994	0.0167689
764.072	0.0167879
764.150	0.0169503
764.228	0.0170398
764.307	0.0168829
764.385	0.0171557
764.463	0.0169867
764.541	0.0172011
764.619	0.0170786
764.697	0.0172826
764.775	0.0172724
764.853	0.0172852
764.932	0.0173724
765.010	0.0173130
765.088	0.0174707
765.166	0.0174690
765.244	0.0175038
765.322	0.0175282
765.400	0.0173717
765.478	0.0173129
765.557	0.0171625
765.635	0.0173059
765.713	0.0171619
765.791	0.0170731
765.869	0.0170216
765.947	0.0169726
766.025	0.0168613
766.103	0.0167426
766.182	0.0166255
766.260	0.0166582
766.338	0.0166812
766.416	0.0166008
766.494	0.0164870
766.572	0.0164158
766.650	0.0164863
766.728	0.0165202
766.807	0.0165295
766.885	0.0164137
766.963	0.0165662
767.041	0.0164571
767.119	0.0166436
767.197	0.0166950
767.275	0.0167476
767.353	0.0168889
767.432	0.0169181
767.510	0.0170895
767.588	0.0170575
767.666	0.0171786
767.744	0.0172160
767.822	0.0173257
767.900	0.0174112
767.978	0.0174847
768.057	0.0176284
768.135	0.0176501
768.213	0.0177010
768.291	0.0178072
768.369	0.0177138
768.447	0.0177777
768.525	0.0177676
768.603	0.0176862
768.682	0.0176241
768.760	0.0175703
768.838	0.0175383
768.916	0.0171387
768.994	0.0172626
769.072	0.0171589
769.150	0.0167664
769.228	0.0166243
769.307	0.0167278
769.385	0.0164890
769.463	0.0163177
769.541	0.0163770
769.619	0.0163184
769.697	0.0163632
769.775	0.0164460
769.853	0.0161970
769.932	0.0161617
770.010	0.0164625
770.088	0.0163801
770.166	0.0164753
770.244	0.0166435
770.322	0.0167650
770.400	0.0167765
770.478	0.0169462
770.557	0.0172038
770.635	0.0173325
770.713	0.0175223
770.791	0.0175166
770.869	0.0177049
770.947	0.0177728
771.025	0.0179176
771.103	0.0177646
771.182	0.0180184
771.260	0.0180152
771.338	0.0179759
771.416	0.0179803
771.494	0.0179427
771.572	0.0177564
771.650	0.0178563
771.728	0.0176323
771.807	0.0176714
771.885	0.0175397
771.963	0.0175486
772.041	0.0173487
772.119	0.0171684
772.197	0.0171092
772.275	0.0171360
772.353	0.0170933
772.432	0.0170273
772.510	0.0168288
772.588	0.0166176
772.666	0.0166275
772.744	0.0166386
772.822	0.0164116
772.900	0.0163699
772.978	0.0164192
773.057	0.0162478
773.135	0.0162301
773.213	0.0160671
773.291	0.0161360
773.369	0.0162727
773.447	0.0161749
773.525	0.0162350
773.603	0.0163292
773.682	0.0165508
773.760	0.0168768
773.838	0.0168710
773.916	0.0170031
773.994	0.0173696
774.072	0.0174338
774.150	0.0176315
774.228	0.0178704
774.307	0.0178818
774.385	0.0181504
774.463	0.0181371
774.541	0.0181899
774.619	0.0182519
774.697	0.0182901
774.775	0.0182668
774.853	0.0182097
774.932	0.0180997
775.010	0.0179522
775.088	0.0176839
775.166	0.0175339
775.244	0.0172824
775.322	0.0169842
775.400	0.0168864
775.478	0.0166785
775.557	0.0166084
775.635	0.0163754
775.713	0.0159934
775.791	0.0159852
775.869	0.0160630
775.947	0.0158996
776.025	0.0159936
776.103	0.0159087
776.182	0.0161437
776.260	0.0162191
776.338	0.0162214
776.416	0.0162696
776.494	0.0165318
776.572	0.0166570
776.650	0.0168498
776.728	0.0169961
776.807	0.0171635
776.885	0.0173400
776.963	0.0174728
777.041	0.0175571
777.119	0.0178355
777.197	0.0179880
777.275	0.0180616
777.353	0.0182076
777.432	0.0181979
777.510	0.0181687
777.588	0.0181176
777.666	0.0180212
777.744	0.0178731
777.822	0.0177278
777.900	0.0175164
777.978	0.0174715
778.057	0.0171159
778.135	0.0171319
778.213	0.0169117
778.291	0.0167099
778.369	0.0165839
778.447	0.0165073
778.525	0.0163650
778.603	0.0163853
778.682	0.0163934
778.760	0.0161153
778.838	0.0161686
778.916	0.0162935
778.994	0.0163468
779.072	0.0163927
779.150	0.0163937
779.228	0.0164143
779.307	0.0165046
779.385	0.0167710
779.463	0.0166625
779.541	0.0168266
779.619	0.0169319
779.697	0.0172229
779.775	0.0173467
779.853	0.0176347
779.932	0.0176657
780.010	0.0176810
780.088	0.0177998
780.166	0.0179422
780.244	0.0179723
780.322	0.0177915
780.400	0.0178967
780.478	0.0179868
780.557	0.0178137
780.635	0.0177353
780.713	0.0177074
780.791	0.0175843
780.869	0.0174146
780.947	0.0173048
781.025	0.0171149
781.103	0.0171684
781.182	0.0170016
781.260	0.0166949
781.338	0.0166091
781.416	0.0164098
781.494	0.0164234
781.572	0.0162877
781.650	0.0160767
781.728	0.0161313
781.807	0.0160202
781.885	0.0160529
781.963	0.0162328
782.041	0.0160529
782.119	0.0161751
782.197	0.0163438
782.275	0.0161449
782.353	0.0164347
782.432	0.0167004
782.510	0.0167248
782.588	0.0167317
782.666	0.0169168
782.744	0.0169464
782.822	0.0170855
782.900	0.0172452
782.978	0.0173563
783.057	0.0174150
783.135	0.0174170
783.213	0.0174789
783.291	0.0174838
783.369	0.0175533
783.447	0.0176085
783.525	0.0176818
783.603	0.0176605
783.682	0.0175647
783.760	0.0177399
783.838	0.0175715
783.916	0.0174735
783.994	0.0175485
784.072	0.0176159
784.150	0.0176702
784.228	0.0175909
784.307	0.0174603
784.385	0.0174889
784.463	0.0172462
784.541	0.0171819
784.619	0.0172102
784.697	0.0171639
784.775	0.0169239
784.853	0.0168459
784.932	0.0166216
785.010	0.0164223
785.088	0.0163304
785.166	0.0162495
785.244	0.0161378
785.322	0.0160603
785.400	0.0160114
785.478	0.0160934
785.557	0.0160190
785.635	0.0161879
785.713	0.0161723
785.791	0.0162381
785.869	0.0165871
785.947	0.0167828
786.025	0.0167451
786.103	0.0169485
786.182	0.0173022
786.260	0.0174005
786.338	0.0175015
786.416	0.0176844
786.494	0.0178300
786.572	0.0179426
786.650	0.0179575
786.728	0.0178940
786.807	0.0179036
786.885	0.0178297
786.963	0.0178996
787.041	0.0177550
787.119	0.0177584
787.197	0.0175230
787.275	0.0172871
787.353	0.0170596
787.432	0.0168671
787.510	0.0167576
787.588	0.0165147
787.666	0.0161841
787.744	0.0160166
787.822	0.0160209
787.900	0.0160297
787.978	0.0158215
788.057	0.0159277
788.135	0.0159354
788.213	0.0159842
788.291	0.0163297
788.369	0.0165711
788.447	0.0167947
788.525	0.0169165
788.603	0.0171592
788.682	0.0174738
788.760	0.0176933
788.838	0.0178883
788.916	0.0181273
788.994	0.0183112
789.072	0.0183887
789.150	0.0184705
789.228	0.0184262
789.307	0.0184384
789.385	0.0181906
789.463	0.0182053
789.541	0.0181393
789.619	0.0177730
789.697	0.0175678
789.775	0.0172059
789.853	0.0169202
789.932	0.0167197
790.010	0.0164089
790.088	0.0162083
790.166	0.0159504
790.244	0.0157705
790.322	0.0156494
790.400	0.0157053
790.478	0.0157475
790.557	0.0159328
790.635	0.0162209
790.713	0.0164046
790.791	0.0166397
790.869	0.0168394
790.947	0.0170789
791.025	0.0171397
791.103	0.0174931
791.182	0.0177840
791.260	0.0177769
791.338	0.0177686
791.416	0.0178452
791.494	0.0179374
791.572	0.0177699
791.650	0.0174783
791.728	0.0176566
791.807	0.0174650
791.885	0.0172778
791.963	0.0171925
792.041	0.0169920
792.119	0.0167105
792.197	0.0167167
792.275	0.0165961
792.353	0.0165067
792.432	0.0164709
792.510	0.0163373
792.588	0.0164632
792.666	0.0165067
792.744	0.0164949
792.822	0.0164780
792.900	0.0166470
792.978	0.0167112
793.057	0.0167509
793.135	0.0167706
793.213	0.0167375
793.291	0.0169493
793.369	0.0170684
793.447	0.0169592
793.525	0.0172456
793.603	0.0172506
793.682	0.0173624
793.760	0.0175375
793.838	0.0176717
793.916	0.0177131
793.994	0.0178384
794.072	0.0179426
794.150	0.0179630
794.228	0.0180967
794.307	0.0180200
794.385	0.0180976
794.463	0.0181719
794.541	0.0180943
794.619	0.0180045
794.697	0.0176916
794.775	0.0176356
794.853	0.0175591
794.932	0.0172095
795.010	0.0171343
795.088	0.0166858
795.166	0.0164684
795.244	0.0162606
795.322	0.0162543
795.400	0.0161000
795.478	0.0159688
795.557	0.0158981
795.635	0.0158735
795.713	0.0158575
795.791	0.0159258
795.869	0.0161208
795.947	0.0163389
796.025	0.0164431
796.103	0.0166240
796.182	0.0166356
796.260	0.0168266
796.338	0.0171020
796.416	0.0170902
796.494	0.0171766
796.572	0.0172259
796.650	0.0175001
796.728	0.0173658
796.807	0.0174271
796.885	0.0174506
796.963	0.0173120
797.041	0.0172724
797.119	0.0172816
797.197	0.0171970
797.275	0.0171972
797.353	0.0170979
797.432	0.0172999
797.510	0.0171603
797.588	0.0171635
797.666	0.0170009
797.744	0.0171951
797.822	0.0170949
797.900	0.0171977
797.978	0.0171384
798.057	0.0173584
798.135	0.0172646
798.213	0.0172892
798.291	0.0175598
798.369	0.0174815
798.447	0.0175614
798.525	0.0176099
798.603	0.0175883
798.682	0.0175717
798.760	0.0174590
798.838	0.0173531
798.916	0.0174183
798.994	0.0171489
799.072	0.0169617
799.150	0.0169337
799.228	0.0167511
799.307	0.0165833
799.385	0.0164005
799.463	0.0162534
799.541	0.0160760
799.619	0.0158985
799.697	0.0159602
799.775	0.0159952
799.853	0.0158857
799.932	0.0158892
800.010	0.0158993
800.088	0.0159150
800.166	0.0161090
800.244	0.0162598
800.322	0.0161514
800.400	0.0164801
800.478	0.0166405
800.557	0.0166853
800.635	0.0169231
800.713	0.0169865
800.791	0.0170465
800.869	0.0171791
800.947	0.0172932
801.025	0.0174489
801.103	0.0175490
801.182	0.0176469
801.260	0.0179456
801.338	0.0180027
801.416	0.0180590
801.494	0.0180224
801.572	0.0180939
801.650	0.0182180
801.728	0.0180939
801.807	0.0178885
801.885	0.0178874
801.963	0.0177782
802.041	0.0177236
802.119	0.0176526
802.197	0.0176131
802.275	0.0173842
802.353	0.0172579
802.432	0.0170606
802.510	0.0170606
802.588	0.0168404
802.666	0.0167069
802.744	0.0165691
802.822	0.0165192
802.900	0.0165308
802.978	0.0162093
803.057	0.0161823
803.135	0.0160818
803.213	0.0162572
803.291	0.0164169
803.369	0.0165347
803.447	0.0165106
803.525	0.0166068
803.603	0.0168657
803.682	0.0169588
803.760	0.0169433
803.838	0.0172171
803.916	0.0171678
803.994	0.0172086
804.072	0.0173736
804.150	0.0173177
804.228	0.0173263
804.307	0.0171277
804.385	0.0169624
804.463	0.0169193
804.541	0.0167266
804.619	0.0166360
804.697	0.0164149
804.775	0.0162550
804.853	0.0161317
804.932	0.0162908
805.010	0.0161926
805.088	0.0161890
805.166	0.0162844
805.244	0.0163657
805.322	0.0164759
805.400	0.0166801
805.478	0.0169476
805.557	0.0171751
805.635	0.0173939
805.713	0.0174076
805.791	0.0176966
805.869	0.0177652
805.947	0.0178897
806.025	0.0181715
806.103	0.0181162
806.182	0.0182655
806.260	0.0182603
806.338	0.0180961
806.416	0.0183299
806.494	0.0182271
806.572	0.0181785
806.650	0.0181330
806.728	0.0181322
806.807	0.0180995
806.885	0.0180276
806.963	0.0179949
807.041	0.0178762
807.119	0.0176888
807.197	0.0174832
807.275	0.0173979
807.353	0.0172594
807.432	0.0170403
807.510	0.0167149
807.588	0.0164359
807.666	0.0160786
807.744	0.0161435
807.822	0.0160012
807.900	0.0159175
807.978	0.0156942
808.057	0.0156425
808.135	0.0157313
808.213	0.0157767
808.291	0.0157886
808.369	0.0156651
808.447	0.0158179
808.525	0.0158663
808.603	0.0159696
808.682	0.0161374
808.760	0.0160827
808.838	0.0162716
808.916	0.0163338
808.994	0.0163308
809.072	0.0165518
809.150	0.0166746
809.228	0.0167085
809.307	0.0166932
809.385	0.0168582
809.463	0.0168584
809.541	0.0168908
809.619	0.0169501
809.697	0.0169482
809.775	0.0170313
809.853	0.0171107
809.932	0.0172372
810.010	0.0170825
810.088	0.0173226
810.166	0.0173607
810.244	0.0173913
810.322	0.0176515
810.400	0.0176682
810.478	0.0177686
810.557	0.0178389
810.635	0.0182337
810.713	0.0182177
810.791	0.0184100
810.869	0.0183386
810.947	0.0184197
811.025	0.0183916
811.103	0.0187243
811.182	0.0184224
811.260	0.0184299
811.338	0.0183432
811.416	0.0182188
811.494	0.0180884
811.572	0.0178388
811.650	0.0178108
811.728	0.0175289
811.807	0.0173855
811.885	0.0171217
811.963	0.0168721
812.041	0.0167312
812.119	0.0167124
812.197	0.0165820
812.275	0.0164149
812.353	0.0164702
812.432	0.0162100
812.510	0.0160793
812.588	0.0161623
812.666	0.0162298
812.744	0.0162692
812.822	0.0163343
812.900	0.0164610
812.978	0.0164185
813.057	0.0164011
813.135	0.0162286
813.213	0.0164573
813.291	0.0163550
813.369	0.0163729
813.447	0.0163937
813.525	0.0164536
813.603	0.0163287
813.682	0.0162948
813.760	0.0164278
813.838	0.0164415
813.916	0.0163249
813.994	0.0164550
814.072	0.0164448
814.150	0.0165478
814.228	0.0164952
814.307	0.0165383
814.385	0.0166812
814.463	0.0167823
814.541	0.0167616
814.619	0.0168825
814.697	0.0169563
814.775	0.0169091
814.853	0.0171185
814.932	0.0172980
815.010	0.0171109
815.088	0.0171288
815.166	0.0173323
815.244	0.0172695
815.322	0.0174470
815.400	0.0175494
815.478	0.0176386
815.557	0.0176383
815.635	0.0175023
815.713	0.0176936
815.791	0.0179204
815.869	0.0178114
815.947	0.0178744
816.025	0.0178582
816.103	0.0179626
816.182	0.0179448
816.260	0.0178880
816.338	0.0179010
816.416	0.0178095
816.494	0.0176703
816.572	0.0177442
816.650	0.0177624
816.728	0.0178379
816.807	0.0175091
816.885	0.0175973
816.963	0.0174226
817.041	0.0174384
817.119	0.0172687
817.197	0.0173671
817.275	0.0170940
817.353	0.0168988
817.432	0.0170210
817.510	0.0168993
817.588	0.0168895
817.666	0.0169205
817.744	0.0167679
817.822	0.0166777
817.900	0.0168105
817.978	0.0168718
818.057	0.0169331
818.135	0.0169163
818.213	0.0168406
818.291	0.0168256
818.369	0.0169003
818.447	0.0167998
818.525	0.0167245
818.603	0.0166591
818.682	0.0167104
818.760	0.0164330
818.838	0.0164185
818.916	0.0163704
818.994	0.0163947
819.072	0.0163268
819.150	0.0161649
819.228	0.0162276
819.307	0.0160934
819.385	0.0161076
819.463	0.0161583
819.541	0.0161100
819.619	0.0161269
819.697	0.0162356
819.775	0.0163062
819.853	0.0163287
819.932	0.0164815
820.010	0.0167661
820.088	0.0167793
820.166	0.0169792
820.244	0.0171185
820.322	0.0174496
820.400	0.0175654
820.478	0.0175543
820.557	0.0176456
820.635	0.0177985
820.713	0.0178352
820.791	0.0178047
820.869	0.0179411
820.947	0.0178320
821.025	0.0179163
821.103	0.0177830
821.182	0.0176130
821.260	0.0176385
821.338	0.0174348
821.416	0.0174299
821.494	0.0174487
821.572	0.0171377
821.650	0.0169945
821.728	0.0169665
821.807	0.0167576
821.885	0.0168126
821.963	0.0168338
822.041	0.0167175
822.119	0.0167887
822.197	0.0166514
822.275	0.0166203
822.353	0.0168062
822.432	0.0168929
822.510	0.0167456
822.588	0.0168522
822.666	0.0171136
822.744	0.0171891
822.822	0.0171211
822.900	0.0171081
822.978	0.0173108
823.057	0.0171851
823.135	0.0173254
823.213	0.0172761
823.291	0.0173093
823.369	0.0172479
823.447	0.0172018
823.525	0.0172279
823.603	0.0171515
823.682	0.0170757
823.760	0.0171235
823.838	0.0170123
823.916	0.0169064
823.994	0.0167245
824.072	0.0167297
824.150	0.0166055
824.228	0.0165578
824.307	0.0165028
824.385	0.0163432
824.463	0.0162749
824.541	0.0162733
824.619	0.0163377
824.697	0.0163194
824.775	0.0164040
824.853	0.0163638
824.932	0.0165330
825.010	0.0165505
825.088	0.0166584
825.166	0.0168823
825.244	0.0169405
825.322	0.0168715
825.400	0.0170602
825.478	0.0171895
825.557	0.0172075
825.635	0.0173959
825.713	0.0173550
825.791	0.0173882
825.869	0.0173789
825.947	0.0174126
826.025	0.0173169
826.103	0.0173464
826.182	0.0172240
826.260	0.0172010
826.338	0.0171243
826.416	0.0171453
826.494	0.0169470
826.572	0.0169940
826.650	0.0170111
826.728	0.0169728
826.807	0.0170143
826.885	0.0170227
826.963	0.0170507
827.041	0.0169119
827.119	0.0171360
827.197	0.0170885
827.275	0.0172068
827.353	0.0174109
827.432	0.0174298
827.510	0.0174833
827.588	0.0175906
827.666	0.0176781
827.744	0.0177315
827.822	0.0178732
827.900	0.0178414
827.978	0.0178687
828.057	0.0179230
828.135	0.0177790
828.213	0.0177063
828.291	0.0176487
828.369	0.0175467
828.447	0.0176055
828.525	0.0174413
828.603	0.0172547
828.682	0.0171684
828.760	0.0171789
828.838	0.0171182
828.916	0.0169446
828.994	0.0167496
829.072	0.0166474
829.150	0.0165921
829.228	0.0166010
829.307	0.0166084
829.385	0.0165864
829.463	0.0163985
829.541	0.0164788
829.619	0.0164161
829.697	0.0164341
829.775	0.0164394
829.853	0.0163026
829.932	0.0162763
830.010	0.0162672
830.088	0.0163725
830.166	0.0164578
830.244	0.0163143
830.322	0.0163901
830.400	0.0162457
830.478	0.0163148
830.557	0.0165765
830.635	0.0164264
830.713	0.0165097
830.791	0.0167218
830.869	0.0166103
830.947	0.0167390
831.025	0.0168021
831.103	0.0168468
831.182	0.0167923
831.260	0.0170570
831.338	0.0170700
831.416	0.0168598
831.494	0.0170557
831.572	0.0170309
831.650	0.0170660
831.728	0.0170339
831.807	0.0169814
831.885	0.0170987
831.963	0.0170359
832.041	0.0170487
832.119	0.0170631
832.197	0.0169385
832.275	0.0170250
832.353	0.0171310
832.432	0.0171587
832.510	0.0171814
832.588	0.0173032
832.666	0.0174050
832.744	0.0175037
832.822	0.0174809
832.900	0.0175523
832.978	0.0175922
833.057	0.0177230
833.135	0.0178268
833.213	0.0176719
833.291	0.0178098
833.369	0.0177063
833.447	0.0177522
833.525	0.0177390
833.603	0.0177641
833.682	0.0177344
833.760	0.0175429
833.838	0.0177196
833.916	0.0175594
833.994	0.0172764
834.072	0.0170166
834.150	0.0171870
834.228	0.0169620
834.307	0.0167535
834.385	0.0168896
834.463	0.0166966
834.541	0.0167477
834.619	0.0166229
834.697	0.0165574
834.775	0.0166525
834.853	0.0167164
834.932	0.0167959
835.010	0.0168388
835.088	0.0166904
835.166	0.0167597
835.244	0.0168983
835.322	0.0167744
835.400	0.0168670
835.478	0.0168981
835.557	0.0167996
835.635	0.0167614
835.713	0.0166895
835.791	0.0167441
835.869	0.0166512
835.947	0.0165041
836.025	0.0165051
836.103	0.0163528
836.182	0.0164423
836.260	0.0165770
836.338	0.0164347
836.416	0.0164815
836.494	0.0166323
836.572	0.0166236
836.650	0.0167630
836.728	0.0168629
836.807	0.0168583
836.885	0.0169137
836.963	0.0169737
837.041	0.0170500
837.119	0.0171025
837.197	0.0172296
837.275	0.0171420
837.353	0.0171153
837.432	0.0171923
837.510	0.0170003
837.588	0.0171957
837.666	0.0170788
837.744	0.0170370
837.822	0.0170022
837.900	0.0170926
837.978	0.0170960
838.057	0.0168576
838.135	0.0168784
838.213	0.0170507
838.291	0.0170353
838.369	0.0170277
838.447	0.0169388
838.525	0.0170062
838.603	0.0168440
838.682	0.0169180
838.760	0.0167519
838.838	0.0167721
838.916	0.0169042
838.994	0.0170689
839.072	0.0170020
839.150	0.0169759
839.228	0.0170072
839.307	0.0171671
839.385	0.0171241
839.463	0.0173063
839.541	0.0172411
839.619	0.0172684
839.697	0.0172288
839.775	0.0173180
839.853	0.0173884
839.932	0.0173737
840.010	0.0173596
840.088	0.0173807
840.166	0.0171770
840.244	0.0172320
840.322	0.0173518
840.400	0.0171423
840.478	0.0171706
840.557	0.0170309
840.635	0.0171006
840.713	0.0169792
840.791	0.0170070
840.869	0.0168599
840.947	0.0167694
841.025	0.0168292
841.103	0.0167438
841.182	0.0167603
841.260	0.0167823
841.338	0.0167845
841.416	0.0166570
841.494	0.0166578
841.572	0.0167617
841.650	0.0165403
841.728	0.0165905
841.807	0.0166628
841.885	0.0167103
841.963	0.0166971
842.041	0.0168366
842.119	0.0168732
842.197	0.0167512
842.275	0.0168741
842.353	0.0169701
842.432	0.0170550
842.510	0.0170852
842.588	0.0171038
842.666	0.0169549
842.744	0.0170834
842.822	0.0170463
842.900	0.0170427
842.978	0.0171056
843.057	0.0169029
843.135	0.0171555
843.213	0.0170444
843.291	0.0169422
843.369	0.0168843
843.447	0.0169295
843.525	0.0169039
843.603	0.0168173
843.682	0.0168903
843.760	0.0170480
843.838	0.0170420
843.916	0.0169363
843.994	0.0169546
844.072	0.0171530
844.150	0.0171045
844.228	0.0169943
844.307	0.0170869
844.385	0.0170839
844.463	0.0170593
844.541	0.0171113
844.619	0.0169945
844.697	0.0170007
844.775	0.0169978
844.853	0.0171101
844.932	0.0170714
845.010	0.0169327
845.088	0.0169347
845.166	0.0169373
845.244	0.0170404
845.322	0.0170277
845.400	0.0170798
845.478	0.0171160
845.557	0.0172883
845.635	0.0173720
845.713	0.0173485
845.791	0.0174290
845.869	0.0174777
845.947	0.0173096
846.025	0.0172083
846.103	0.0173830
846.182	0.0174380
846.260	0.0171859
846.338	0.0174079
846.416	0.0172006
846.494	0.0172789
846.572	0.0172395
846.650	0.0171920
846.728	0.0171696
846.807	0.0170399
846.885	0.0169834
846.963	0.0170145
847.041	0.0169596
847.119	0.0169988
847.197	0.0169126
847.275	0.0169472
847.353	0.0169266
847.432	0.0167773
847.510	0.0166483
847.588	0.0167355
847.666	0.0167875
847.744	0.0169489
847.822	0.0169824
847.900	0.0170005
847.978	0.0171249
848.057	0.0169430
848.135	0.0171264
848.213	0.0173616
848.291	0.0172676
848.369	0.0171304
848.447	0.0171818
848.525	0.0171930
848.603	0.0172886
848.682	0.0173302
848.760	0.0173327
848.838	0.0172220
848.916	0.0172660
848.994	0.0172391
849.072	0.0172404
849.150	0.0171481
849.228	0.0172729
849.307	0.0171677
849.385	0.0171178
849.463	0.0171449
849.541	0.0170817
849.619	0.0170649
849.697	0.0170107
849.775	0.0170217
849.853	0.0168906
849.932	0.0170570
850.010	0.0169190
850.088	0.0170367
850.166	0.0170070
850.244	0.0168884
850.322	0.0169413
850.400	0.0170715
850.478	0.0168857
850.557	0.0167985
850.635	0.0168495
850.713	0.0168544
850.791	0.0169012
850.869	0.0169038
850.947	0.0169362
851.025	0.0168550
851.103	0.0170097
851.182	0.0170959
851.260	0.0172093
851.338	0.0170568
851.416	0.0172772
851.494	0.0173380
851.572	0.0172449
851.650	0.0173224
851.728	0.0173061
851.807	0.0173507
851.885	0.0175545
851.963	0.0174506
852.041	0.0174360
852.119	0.0174604
852.197	0.0173457
852.275	0.0173866
852.353	0.0173379
852.432	0.0172115
852.510	0.0172800
852.588	0.0173414
852.666	0.0172520
852.744	0.0172919
852.822	0.0171889
852.900	0.0172423
852.978	0.0171479
853.057	0.0171606
853.135	0.0171721
853.213	0.0171137
853.291	0.0170435
853.369	0.0169630
853.447	0.0168683
853.525	0.0168155
853.603	0.0169286
853.682	0.0166699
853.760	0.0166779
853.838	0.0167770
853.916	0.0167474
853.994	0.0169428
854.072	0.0167670
854.150	0.0167920
854.228	0.0167912
854.307	0.0169229
854.385	0.0167827
854.463	0.0169431
854.541	0.0171080
854.619	0.0171549
854.697	0.0170714
854.775	0.0170618
854.853	0.0170872
854.932	0.0172463
855.010	0.0172089
855.088	0.0171461
855.166	0.0170237
855.244	0.0171124
855.322	0.0172404
855.400	0.0171451
855.478	0.0171191
855.557	0.0171324
855.635	0.0169657
855.713	0.0168783
855.791	0.0170049
855.869	0.0168207
855.947	0.0168855
856.025	0.0169582
856.103	0.0168779
856.182	0.0168543
856.260	0.0169450
856.338	0.0170029
856.416	0.0169205
856.494	0.0169900
856.572	0.0170252
856.650	0.0169850
856.728	0.0168728
856.807	0.0169701
856.885	0.0169560
856.963	0.0169138
857.041	0.0169403
857.119	0.0169138
857.197	0.0168486
857.275	0.0168668
857.353	0.0167836
857.432	0.0167880
857.510	0.0167164
857.588	0.0168463
857.666	0.0168236
857.744	0.0169122
857.822	0.0169300
857.900	0.0169659
857.978	0.0169044
858.057	0.0171294
858.135	0.0171550
858.213	0.0170780
858.291	0.0171616
858.369	0.0173019
858.447	0.0172054
858.525	0.0172974
858.603	0.0173959
858.682	0.0172919
858.760	0.0173463
858.838	0.0172503
858.916	0.0172260
858.994	0.0172201
859.072	0.0172496
859.150	0.0171278
859.228	0.0171230
859.307	0.0168951
859.385	0.0169995
859.463	0.0170630
859.541	0.0170741
859.619	0.0170179
859.697	0.0168858
859.775	0.0170122
859.853	0.0169713
859.932	0.0168446
860.010	0.0169102
860.088	0.0168362
860.166	0.0168501
860.244	0.0168376
860.322	0.0168484
860.400	0.0168424
860.478	0.0169141
860.557	0.0169785
860.635	0.0168608
860.713	0.0169994
860.791	0.0169482
860.869	0.0169277
860.947	0.0169392
861.025	0.0170221
861.103	0.0169840
861.182	0.0171117
861.260	0.0169919
861.338	0.0170112
861.416	0.0168995
861.494	0.0170084
861.572	0.0169009
861.650	0.0169141
861.728	0.0167749
861.807	0.0168864
861.885	0.0168773
861.963	0.0168876
862.041	0.0167494
862.119	0.0168338
862.197	0.0168685
862.275	0.0167890
862.353	0.0168936
862.432	0.0169525
862.510	0.0167819
862.588	0.0167810
862.666	0.0169044
862.744	0.0167462
862.822	0.0168371
862.900	0.0168758
862.978	0.0168327
863.057	0.0169273
863.135	0.0169028
863.213	0.0168744
863.291	0.0168557
863.369	0.0167291
863.447	0.0169384
863.525	0.0169795
863.603	0.0168672
863.682	0.0168904
863.760	0.0169833
863.838	0.0168278
863.916	0.0169939
863.994	0.0171998
864.072	0.0171782
864.150	0.0169937
864.228	0.0171848
864.307	0.0172049
864.385	0.0171790
864.463	0.0171196
864.541	0.0171033
864.619	0.0170840
864.697	0.0172598
864.775	0.0172904
864.853	0.0171586
864.932	0.0172250
865.010	0.0172679
865.088	0.0172569
865.166	0.0170918
865.244	0.0170804
865.322	0.0173268
865.400	0.0172749
865.478	0.0170296
865.557	0.0170140
865.635	0.0172350
865.713	0.0171598
865.791	0.0170838
865.869	0.0171671
865.947	0.0170776
866.025	0.0170981
866.103	0.0171236
866.182	0.0171389
866.260	0.0169437
866.338	0.0169670
866.416	0.0169569
866.494	0.0170188
866.572	0.0170198
866.650	0.0170205
866.728	0.0170355
866.807	0.0169051
866.885	0.0168845
866.963	0.0171228
867.041	0.0170554
867.119	0.0169650
867.197	0.0170242
867.275	0.0169408
867.353	0.0170974
867.432	0.0171975
867.510	0.0172219
867.588	0.0171180
867.666	0.0171297
867.744	0.0170936
867.822	0.0171548
867.900	0.0171547
867.978	0.0170042
868.057	0.0171754
868.135	0.0169956
868.213	0.0169872
868.291	0.0170022
868.369	0.0169743
868.447	0.0168845
868.525	0.0169157
868.603	0.0168537
868.682	0.0169961
868.760	0.0169789
868.838	0.0171495
868.916	0.0171095
868.994	0.0170293
869.072	0.0172174
869.150	0.0171548
869.228	0.0169312
869.307	0.0171442
869.385	0.0171451
869.463	0.0172504
869.541	0.0171544
869.619	0.0169795
869.697	0.0169569
869.775	0.0170174
869.853	0.0170706
869.932	0.0170054
870.010	0.0170102
870.088	0.0169916
870.166	0.0169422
870.244	0.0169912
870.322	0.0169863
870.400	0.0170164
870.478	0.0169149
870.557	0.0169221
870.635	0.0172099
870.713	0.0170872
870.791	0.0170638
870.869	0.0172599
870.947	0.0172935
871.025	0.0172629
871.103	0.0172214
871.182	0.0173255
871.260	0.0174519
871.338	0.0175377
871.416	0.0173996
871.494	0.0173148
871.572	0.0175167
871.650	0.0174632
871.728	0.0175008
871.807	0.0174543
871.885	0.0173981
871.963	0.0172282
872.041	0.0172222
872.119	0.0171700
872.197	0.0172202
872.275	0.0171441
872.353	0.0170568
872.432	0.0169449
872.510	0.0168740
872.588	0.0169165
872.666	0.0168048
872.744	0.0168565
872.822	0.0169229
872.900	0.0170974
872.978	0.0169663
873.057	0.0170639
873.135	0.0169838
873.213	0.0169648
873.291	0.0170721
873.369	0.0171420
873.447	0.0170490
873.525	0.0171375
873.603	0.0169854
873.682	0.0171391
873.760	0.0170625
873.838	0.0170013
873.916	0.0168790
873.994	0.0168063
874.072	0.0167976
874.150	0.0166730
874.228	0.0167036
874.307	0.0166670
874.385	0.0165877
874.463	0.0166041
874.541	0.0164565
874.619	0.0166175
874.697	0.0166818
874.775	0.0165408
874.853	0.0164678
874.932	0.0166504
875.010	0.0167342
875.088	0.0168443
875.166	0.0168877
875.244	0.0169963
875.322	0.0170667
875.400	0.0171141
875.478	0.0172182
875.557	0.0173029
875.635	0.0172665
875.713	0.0173428
875.791	0.0173597
875.869	0.0173591
875.947	0.0174207
876.025	0.0174050
876.103	0.0174279
876.182	0.0172778
876.260	0.0172411
876.338	0.0172064
876.416	0.0172068
876.494	0.0170720
876.572	0.0171130
876.650	0.0170911
876.728	0.0171184
876.807	0.0170306
876.885	0.0168418
876.963	0.0167876
877.041	0.0169831
877.119	0.0169023
877.197	0.0170383
877.275	0.0170055
877.353	0.0170260
877.432	0.0171552
877.510	0.0171386
877.588	0.0171415
877.666	0.0172841
877.744	0.0172208
877.822	0.0171725
877.900	0.0174855
877.978	0.0173640
878.057	0.0173466
878.135	0.0173466
878.213	0.0173101
878.291	0.0172486
878.369	0.0172637
878.447	0.0171835
878.525	0.0169761
878.603	0.0170116
878.682	0.0169161
878.760	0.0168179
878.838	0.0167042
878.916	0.0166779
878.994	0.0167508
879.072	0.0166932
879.150	0.0166072
879.228	0.0166637
879.307	0.0166605
879.385	0.0166231
879.463	0.0168806
879.541	0.0168592
879.619	0.0167842
879.697	0.0168775
879.775	0.0169299
879.853	0.0169244
879.932	0.0169469
880.010	0.0171188
880.088	0.0171420
880.166	0.0170882
880.244	0.0170363
880.322	0.0169143
880.400	0.0170471
880.478	0.0169455
880.557	0.0170405
880.635	0.0169903
880.713	0.0168926
880.791	0.0168263
880.869	0.0167656
880.947	0.0166945
881.025	0.0167638
881.103	0.0167886
881.182	0.0168097
881.260	0.0169265
881.338	0.0167496
881.416	0.0168113
881.494	0.0170042
881.572	0.0171583
881.650	0.0169160
881.728	0.0171011
881.807	0.0172106
881.885	0.0172793
881.963	0.0172495
882.041	0.0173673
882.119	0.0175018
882.197	0.0173351
882.275	0.0174661
882.353	0.0175120
882.432	0.0172956
882.510	0.0173452
882.588	0.0173549
882.666	0.0172154
882.744	0.0171130
882.822	0.0171336
882.900	0.0170905
882.978	0.0169476
883.057	0.0170910
883.135	0.0172324
883.213	0.0170776
883.291	0.0171280
883.369	0.0169978
883.447	0.0170447
883.525	0.0170898
883.603	0.0168745
883.682	0.0171159
883.760	0.0171121
883.838	0.0171169
883.916	0.0171571
883.994	0.0172148
884.072	0.0172502
884.150	0.0170183
884.228	0.0170833
884.307	0.0171271
884.385	0.0172660
884.463	0.0170927
884.541	0.0170019
884.619	0.0168674
884.697	0.0171408
884.775	0.0170208
884.853	0.0168578
884.932	0.0169344
885.010	0.0169144
885.088	0.0167378
885.166	0.0167297
885.244	0.0166879
885.322	0.0166428
885.400	0.0167373
885.478	0.0167641
885.557	0.0166515
885.635	0.0166651
885.713	0.0166342
885.791	0.0167988
885.869	0.0169044
885.947	0.0168101
886.025	0.0168466
886.103	0.0170142
886.182	0.0169496
886.260	0.0170072
886.338	0.0170061
886.416	0.0170013
886.494	0.0170892
886.572	0.0170057
886.650	0.0170583
886.728	0.0172129
886.807	0.0169682
886.885	0.0169778
886.963	0.0169816
887.041	0.0169363
887.119	0.0169021
887.197	0.0167794
887.275	0.0168993
887.353	0.0167932
887.432	0.0169732
887.510	0.0168897
887.588	0.0169579
887.666	0.0170526
887.744	0.0170432
887.822	0.0170500
887.900	0.0172871
887.978	0.0172452
888.057	0.0172408
888.135	0.0173620
888.213	0.0172558
888.291	0.0174382
888.369	0.0174114
888.447	0.0174554
888.525	0.0173579
888.603	0.0173863
888.682	0.0174297
888.760	0.0174936
888.838	0.0174193
888.916	0.0172677
888.994	0.0172005
889.072	0.0171729
889.150	0.0172421
889.228	0.0171256
889.307	0.0170022
889.385	0.0170558
889.463	0.0169250
889.541	0.0168503
889.619	0.0169753
889.697	0.0168803
889.775	0.0170339
889.853	0.0169641
889.932	0.0171008
890.010	0.0169633
890.088	0.0167999
890.166	0.0169033
890.244	0.0170686
890.322	0.0170432
890.400	0.0169334
890.478	0.0169929
890.557	0.0170448
890.635	0.0169739
890.713	0.0169823
890.791	0.0170177
890.869	0.0168665
890.947	0.0168851
891.025	0.0168600
891.103	0.0167254
891.182	0.0168675
891.260	0.0168827
891.338	0.0167285
891.416	0.0168338
891.494	0.0167640
891.572	0.0169057
891.650	0.0168474
891.728	0.0168211
891.807	0.0166848
891.885	0.0168073
891.963	0.0169559
892.041	0.0168644
892.119	0.0168363
892.197	0.0167665
892.275	0.0168159
892.353	0.0168242
892.432	0.0167770
892.510	0.0168772
892.588	0.0169275
892.666	0.0170773
892.744	0.0170810
892.822	0.0171078
892.900	0.0170716
892.978	0.0170162
893.057	0.0171603
893.135	0.0171426
893.213	0.0170881
893.291	0.0170215
893.369	0.0171085
893.447	0.0169726
893.525	0.0170920
893.603	0.0172395
893.682	0.0171030
893.760	0.0172066
893.838	0.0171793
893.916	0.0172444
893.994	0.0171127
894.072	0.0171252
894.150	0.0171617
894.228	0.0171443
894.307	0.0171676
894.385	0.0170403
894.463	0.0171719
894.541	0.0171442
894.619	0.0172976
894.697	0.0173620
894.775	0.0173890
894.853	0.0173111
894.932	0.0172784
895.010	0.0174611
895.088	0.0172150
895.166	0.0173346
895.244	0.0173256
895.322	0.0172762
895.400	0.0172631
895.478	0.0172160
895.557	0.0171062
895.635	0.0171371
895.713	0.0171621
895.791	0.0169832
895.869	0.0169404
895.947	0.0168450
896.025	0.0167846
896.103	0.0167064
896.182	0.0167470
896.260	0.0166725
896.338	0.0166840
896.416	0.0167034
896.494	0.0165543
896.572	0.0165119
896.650	0.0167723
896.728	0.0165787
896.807	0.0165295
896.885	0.0168430
896.963	0.0167197
897.041	0.0166561
897.119	0.0167175
897.197	0.0167126
897.275	0.0167802
897.353	0.0167660
897.432	0.0168990
897.510	0.0167812
897.588	0.0169125
897.666	0.0168289
897.744	0.0168060
897.822	0.0168723
897.900	0.0168378
897.978	0.0169601
898.057	0.0170460
898.135	0.0170324
898.213	0.0170512
898.291	0.0170770
898.369	0.0171199
898.447	0.0171061
898.525	0.0170782
898.603	0.0170960
898.682	0.0171502
898.760	0.0172814
898.838	0.0172426
898.916	0.0172947
898.994	0.0171688
899.072	0.0172444
899.150	0.0173373
899.228	0.0170348
899.307	0.0171920
899.385	0.0170745
899.463	0.0170895
899.541	0.0170509
899.619	0.0171142
899.697	0.0169943
899.775	0.0169556
899.853	0.0170084
899.932	0.0170157
900.010	0.0167844
900.088	0.0167288
900.166	0.0168346
900.244	0.0170090
900.322	0.0168439
900.400	0.0169704
900.478	0.0169370
900.557	0.0168028
900.635	0.0170076
900.713	0.0170889
900.791	0.0170267
900.869	0.0170863
900.947	0.0171906
901.025	0.0170549
901.103	0.0169856
901.182	0.0172149
901.260	0.0171228
901.338	0.0171607
901.416	0.0171910
901.494	0.0171587
901.572	0.0170599
901.650	0.0172082
901.728	0.0171996
901.807	0.0170905
901.885	0.0169062
901.963	0.0170577
902.041	0.0169983
902.119	0.0169814
902.197	0.0170184
902.275	0.0171301
902.353	0.0170900
902.432	0.0171185
902.510	0.0171880
902.588	0.0171261
902.666	0.0170630
902.744	0.0169988
902.822	0.0170593
902.900	0.0170827
902.978	0.0171981
903.057	0.0172013
903.135	0.0170321
903.213	0.0170080
903.291	0.0170054
903.369	0.0170672
903.447	0.0168340
903.525	0.0169280
903.603	0.0169264
903.682	0.0167902
903.760	0.0168154
903.838	0.0167075
903.916	0.0166834
903.994	0.0167041
904.072	0.0165800
904.150	0.0165220
904.228	0.0166480
904.307	0.0165693
904.385	0.0165044
904.463	0.0163939
904.541	0.0164127
904.619	0.0163934
904.697	0.0164923
904.775	0.0165206
904.853	0.0165958
904.932	0.0165454
905.010	0.0165437
905.088	0.0166550
905.166	0.0167616
905.244	0.0165960
905.322	0.0167446
905.400	0.0168267
905.478	0.0169309
905.557	0.0168733
905.635	0.0168867
905.713	0.0169844
905.791	0.0170160
905.869	0.0170274
905.947	0.0171348
906.025	0.0169765
906.103	0.0170953
906.182	0.0171153
906.260	0.0171090
906.338	0.0171552
906.416	0.0171467
906.494	0.0170476
906.572	0.0172271
906.650	0.0170238
906.728	0.0169936
906.807	0.0170444
906.885	0.0170470
906.963	0.0171332
907.041	0.0171200
907.119	0.0171291
907.197	0.0171861
907.275	0.0172450
907.353	0.0172943
907.432	0.0173162
907.510	0.0172321
907.588	0.0175690
907.666	0.0176815
907.744	0.0175407
907.822	0.0175337
907.900	0.0174676
907.978	0.0175523
908.057	0.0174951
908.135	0.0173057
908.213	0.0174265
908.291	0.0173072
908.369	0.0173083
908.447	0.0173396
908.525	0.0170341
908.603	0.0171675
908.682	0.0171377
908.760	0.0169476
908.838	0.0168764
908.916	0.0168054
908.994	0.0169528
909.072	0.0167424
909.150	0.0168987
909.228	0.0167985
909.307	0.0166936
909.385	0.0166204
909.463	0.0165596
909.541	0.0167161
909.619	0.0166962
909.697	0.0165844
909.775	0.0166410
909.853	0.0166084
909.932	0.0166296
910.010	0.0166084
910.088	0.0165221
910.166	0.0165878
910.244	0.0165176
910.322	0.0166832
910.400	0.0166586
910.478	0.0165662
910.557	0.0165211
910.635	0.0167368
910.713	0.0167038
910.791	0.0166148
910.869	0.0167774
910.947	0.0167981
911.025	0.0167072
911.103	0.0167508
911.182	0.0169347
911.260	0.0169463
911.338	0.0170012
911.416	0.0169764
911.494	0.0169884
911.572	0.0170988
911.650	0.0171288
911.728	0.0172190
911.807	0.0171384
911.885	0.0172649
911.963	0.0173189
912.041	0.0173573
912.119	0.0174371
912.197	0.0175252
912.275	0.0173452
912.353	0.0176321
912.432	0.0176137
912.510	0.0175707
912.588	0.0175009
912.666	0.0175648
912.744	0.0176508
912.822	0.0177412
912.900	0.0176162
912.978	0.0175185
913.057	0.0174494
913.135	0.0175600
913.213	0.0176646
913.291	0.0175829
913.369	0.0174034
913.447	0.0174737
913.525	0.0175343
913.603	0.0174669
913.682	0.0173950
913.760	0.0176085
913.838	0.0174747
913.916	0.0173931
913.994	0.0172770
914.072	0.0173545
914.150	0.0173789
914.228	0.0173181
914.307	0.0171319
914.385	0.0171624
914.463	0.0171561
914.541	0.0171128
914.619	0.0170136
914.697	0.0170034
914.775	0.0170778
914.853	0.0169411
914.932	0.0169212
915.010	0.0169341
915.088	0.0169241
915.166	0.0169565
915.244	0.0169066
915.322	0.0170015
915.400	0.0169911
915.478	0.0167905
915.557	0.0169516
915.635	0.0167857
915.713	0.0167700
915.791	0.0168249
915.869	0.0167896
915.947	0.0169926
916.025	0.0167469
916.103	0.0168872
916.182	0.0168079
916.260	0.0168089
916.338	0.0167458
916.416	0.0169136
916.494	0.0168350
916.572	0.0168592
916.650	0.0169191
916.728	0.0170132
916.807	0.0168052
916.885	0.0168657
916.963	0.0169124
917.041	0.0169436
917.119	0.0171165
917.197	0.0170771
917.275	0.0169914
917.353	0.0169754
917.432	0.0171106
917.510	0.0170048
917.588	0.0171412
917.666	0.0169864
917.744	0.0169527
917.822	0.0170868
917.900	0.0170521
917.978	0.0171410
918.057	0.0170742
918.135	0.0171659
918.213	0.0171767
918.291	0.0171532
918.369	0.0172546
918.447	0.0173867
918.525	0.0173697
918.603	0.0173820
918.682	0.0174511
918.760	0.0174443
918.838	0.0174629
918.916	0.0174541
918.994	0.0175079
919.072	0.0173961
919.150	0.0173753
919.228	0.0173824
919.307	0.0171741
919.385	0.0171948
919.463	0.0171993
919.541	0.0170837
919.619	0.0170821
919.697	0.0170546
919.775	0.0171157
919.853	0.0170685
919.932	0.0169200
920.010	0.0170605
920.088	0.0168651
920.166	0.0169687
920.244	0.0169101
920.322	0.0169685
920.400	0.0168843
920.478	0.0168331
920.557	0.0167650
920.635	0.0168960
920.713	0.0168777
920.791	0.0168097
920.869	0.0168421
920.947	0.0167744
921.025	0.0167287
921.103	0.0168015
921.182	0.0168835
921.260	0.0168598
921.338	0.0169037
921.416	0.0168832
921.494	0.0166776
921.572	0.0168349
921.650	0.0168381
921.728	0.0166962
921.807	0.0168497
921.885	0.0166898
921.963	0.0166407
922.041	0.0167395
922.119	0.0167321
922.197	0.0166899
922.275	0.0164975
922.353	0.0167233
922.432	0.0167019
922.510	0.0167316
922.588	0.0166908
922.666	0.0168165
922.744	0.0168387
922.822	0.0169586
922.900	0.0168008
922.978	0.0169205
923.057	0.0169160
923.135	0.0169901
923.213	0.0169451
923.291	0.0169353
923.369	0.0170962
923.447	0.0169228
923.525	0.0170631
923.603	0.0170259
923.682	0.0169358
923.760	0.0168031
923.838	0.0169260
923.916	0.0169096
923.994	0.0170029
924.072	0.0169772
924.150	0.0169496
924.228	0.0170615
924.307	0.0171209
924.385	0.0170008
924.463	0.0170876
924.541	0.0170544
924.619	0.0170212
924.697	0.0171922
924.775	0.0173115
924.853	0.0173061
924.932	0.0173606
925.010	0.0172808
925.088	0.0173555
925.166	0.0173552
925.244	0.0174823
925.322	0.0174725
925.400	0.0174883
925.478	0.0174830
925.557	0.0174286
925.635	0.0174343
925.713	0.0173524
925.791	0.0174804
925.869	0.0173066
925.947	0.0172957
926.025	0.0172031
926.103	0.0171290
926.182	0.0169887
926.260	0.0169692
926.338	0.0167796
926.416	0.0168615
926.494	0.0167988
926.572	0.0166900
926.650	0.0167308
926.728	0.0166472
926.807	0.0166908
926.885	0.0166859
926.963	0.0167788
927.041	0.0165783
927.119	0.0168868
927.197	0.0168366
927.275	0.0168597
927.353	0.0169081
927.432	0.0168782
927.510	0.0169975
927.588	0.0171236
927.666	0.0170004
927.744	0.0170660
927.822	0.0170078
927.900	0.0171019
927.978	0.0170147
928.057	0.0169904
928.135	0.0171391
928.213	0.0169097
928.291	0.0168419
928.369	0.0169268
928.447	0.0168688
928.525	0.0167762
928.603	0.0167556
928.682	0.0167814
928.760	0.0167536
928.838	0.0168868
928.916	0.0168334
928.994	0.0167831
929.072	0.0167781
929.150	0.0168088
929.228	0.0170231
929.307	0.0168136
929.385	0.0171017
929.463	0.0169853
929.541	0.0169086
929.619	0.0169472
929.697	0.0169806
929.775	0.0170599
929.853	0.0171103
929.932	0.0169769
930.010	0.0170925
930.088	0.0172687
930.166	0.0171297
930.244	0.0170679
930.322	0.0171045
930.400	0.0172292
930.478	0.0171946
930.557	0.0171294
930.635	0.0170807
930.713	0.0171159
930.791	0.0171880
930.869	0.0171725
930.947	0.0171507
931.025	0.0170963
931.103	0.0171214
931.182	0.0171384
931.260	0.0170969
931.338	0.0170898
931.416	0.0171258
931.494	0.0171438
931.572	0.0170043
931.650	0.0171096
931.728	0.0171880
931.807	0.0171072
931.885	0.0170815
931.963	0.0170730
932.041	0.0172680
932.119	0.0173032
932.197	0.0171908
932.275	0.0171891
932.353	0.0172382
932.432	0.0171148
932.510	0.0170669
932.588	0.0171413
932.666	0.0171468
932.744	0.0171328
932.822	0.0171738
932.900	0.0170484
932.978	0.0170152
933.057	0.0170660
933.135	0.0171605
933.213	0.0172198
933.291	0.0169595
933.369	0.0171112
933.447	0.0172840
933.525	0.0172314
933.603	0.0171214
933.682	0.0171310
933.760	0.0172857
933.838	0.0171291
933.916	0.0169728
933.994	0.0170927
934.072	0.0170364
934.150	0.0167905
934.228	0.0169929
934.307	0.0169695
934.385	0.0169069
934.463	0.0169601
934.541	0.0169209
934.619	0.0168008
934.697	0.0170281
934.775	0.0168569
934.853	0.0168546
934.932	0.0168654
935.010	0.0171077
935.088	0.0170264
935.166	0.0169203
935.244	0.0170667
935.322	0.0170080
935.400	0.0171245
935.478	0.0170570
935.557	0.0170937
935.635	0.0172311
935.713	0.0173076
935.791	0.0172091
935.869	0.0172607
935.947	0.0172346
936.025	0.0171341
936.103	0.0170044
936.182	0.0171072
936.260	0.0170874
936.338	0.0171410
936.416	0.0171049
936.494	0.0171732
936.572	0.0171284
936.650	0.0171262
936.728	0.0170454
936.807	0.0170272
936.885	0.0170515
936.963	0.0170016
937.041	0.0169958
937.119	0.0171272
937.197	0.0169923
937.275	0.0169073
937.353	0.0169794
937.432	0.0169879
937.510	0.0170024
937.588	0.0170526
937.666	0.0170815
937.744	0.0170440
937.822	0.0169960
937.900	0.0169418
937.978	0.0170908
938.057	0.0171491
938.135	0.0170009
938.213	0.0170927
938.291	0.0171667
938.369	0.0172963
938.447	0.0171857
938.525	0.0171460
938.603	0.0170882
938.682	0.0173707
938.760	0.0172416
938.838	0.0171007
938.916	0.0170715
938.994	0.0172115
939.072	0.0171111
939.150	0.0172403
939.228	0.0172543
939.307	0.0172559
939.385	0.0172557
939.463	0.0172550
939.541	0.0171776
939.619	0.0170349
939.697	0.0172887
939.775	0.0170940
939.853	0.0171312
939.932	0.0171745
940.010	0.0171068
940.088	0.0170159
940.166	0.0169193
940.244	0.0169589
940.322	0.0171026
940.400	0.0168894
940.478	0.0167942
940.557	0.0169151
940.635	0.0169926
940.713	0.0170474
940.791	0.0169543
940.869	0.0168781
940.947	0.0169311
941.025	0.0168999
941.103	0.0169862
941.182	0.0170229
941.260	0.0169312
941.338	0.0168746
941.416	0.0168156
941.494	0.0168492
941.572	0.0169871
941.650	0.0169740
941.728	0.0169426
941.807	0.0169853
941.885	0.0169447
941.963	0.0169955
942.041	0.0168436
942.119	0.0170616
942.197	0.0169760
942.275	0.0169841
942.353	0.0170313
942.432	0.0170450
942.510	0.0169263
942.588	0.0170502
942.666	0.0171659
942.744	0.0169685
942.822	0.0169868
942.900	0.0171277
942.978	0.0171035
943.057	0.0171165
943.135	0.0170682
943.213	0.0169978
943.291	0.0171038
943.369	0.0171602
943.447	0.0170889
943.525	0.0171761
943.603	0.0171071
943.682	0.0172545
943.760	0.0170864
943.838	0.0171912
943.916	0.0172211
943.994	0.0172179
944.072	0.0172379
944.150	0.0171788
944.228	0.0171074
944.307	0.0170970
944.385	0.0171065
944.463	0.0170649
944.541	0.0171857
944.619	0.0170161
944.697	0.0170782
944.775	0.0171386
944.853	0.0170905
944.932	0.0170654
945.010	0.0171320
945.088	0.0171288
945.166	0.0171571
945.244	0.0172468
945.322	0.0172007
945.400	0.0171468
945.478	0.0171741
945.557	0.0171063
945.635	0.0172384
945.713	0.0171928
945.791	0.0171409
945.869	0.0171864
945.947	0.0171085
946.025	0.0171251
946.103	0.0170097
946.182	0.0170901
946.260	0.0170230
946.338	0.0171626
946.416	0.0171519
946.494	0.0169601
946.572	0.0170448
946.650	0.0168736
946.728	0.0169906
946.807	0.0169159
946.885	0.0169760
946.963	0.0170213
947.041	0.0170219
947.119	0.0170728
947.197	0.0169643
947.275	0.0170558
947.353	0.0170207
947.432	0.0170435
947.510	0.0169599
947.588	0.0169774
947.666	0.0170140
947.744	0.0169283
947.822	0.0171070
947.900	0.0171339
947.978	0.0170985
948.057	0.0171872
948.135	0.0172688
948.213	0.0172150
948.291	0.0171882
948.369	0.0173009
948.447	0.0173089
948.525	0.0172632
948.603	0.0173615
948.682	0.0172593
948.760	0.0172884
948.838	0.0172311
948.916	0.0171445
948.994	0.0173105
949.072	0.0171693
949.150	0.0170947
949.228	0.0171744
949.307	0.0173240
949.385	0.0172265
949.463	0.0171189
949.541	0.0172153
949.619	0.0172370
949.697	0.0170895
949.775	0.0171380
949.853	0.0171582
949.932	0.0171613
950.010	0.0171255
950.088	0.0169427
950.166	0.0171549
950.244	0.0170857
950.322	0.0169569
950.400	0.0168896
950.478	0.0169584
950.557	0.0170127
950.635	0.0169382
950.713	0.0169065
950.791	0.0169381
950.869	0.0169374
950.947	0.0168893
951.025	0.0169142
951.103	0.0168558
951.182	0.0168768
951.260	0.0170567
951.338	0.0169570
951.416	0.0169502
951.494	0.0169525
951.572	0.0168848
951.650	0.0170428
951.728	0.0169504
951.807	0.0169143
951.885	0.0170322
951.963	0.0171413
952.041	0.0169322
952.119	0.0169952
952.197	0.0168436
952.275	0.0169751
952.353	0.0168423
952.432	0.0168448
952.510	0.0170858
952.588	0.0171185
952.666	0.0171038
952.744	0.0171439
952.822	0.0169950
952.900	0.0170920
952.978	0.0171227
953.057	0.0169660
953.135	0.0171201
953.213	0.0170749
953.291	0.0170050
953.369	0.0169487
953.447	0.0172404
953.525	0.0169368
953.603	0.0168037
953.682	0.0170244
953.760	0.0169936
953.838	0.0169918
953.916	0.0170679
953.994	0.0171548
954.072	0.0172090
954.150	0.0171130
954.228	0.0169050
954.307	0.0170996
954.385	0.0170914
954.463	0.0170593
954.541	0.0172118
954.619	0.0171515
954.697	0.0171523
954.775	0.0170733
954.853	0.0171764
954.932	0.0170891
955.010	0.0169560
955.088	0.0172607
955.166	0.0171059
955.244	0.0170269
955.322	0.0170395
955.400	0.0170852
955.478	0.0170276
955.557	0.0170959
955.635	0.0170022
955.713	0.0170259
955.791	0.0170899
955.869	0.0169971
955.947	0.0170018
956.025	0.0170313
956.103	0.0169626
956.182	0.0169761
956.260	0.0169073
956.338	0.0168448
956.416	0.0169942
956.494	0.0167377
956.572	0.0168681
956.650	0.0169955
956.728	0.0167929
956.807	0.0167816
956.885	0.0168566
956.963	0.0168558
957.041	0.0169138
957.119	0.0169495
957.197	0.0169743
957.275	0.0170292
957.353	0.0168700
957.432	0.0170057
957.510	0.0170580
957.588	0.0170094
957.666	0.0170768
957.744	0.0169501
957.822	0.0170800
957.900	0.0170616
957.978	0.0168427
958.057	0.0169180
958.135	0.0168452
958.213	0.0168253
958.291	0.0168275
958.369	0.0169237
958.447	0.0168867
958.525	0.0167664
958.603	0.0168684
958.682	0.0167489
958.760	0.0167619
958.838	0.0169939
958.916	0.0168160
958.994	0.0168322
959.072	0.0168575
959.150	0.0169217
959.228	0.0169709
959.307	0.0169110
959.385	0.0169232
959.463	0.0170190
959.541	0.0169630
959.619	0.0170640
959.697	0.0170568
959.775	0.0169101
959.853	0.0171404
959.932	0.0169833
960.010	0.0171074
960.088	0.0171301
960.166	0.0170190
960.244	0.0171745
960.322	0.0171542
960.400	0.0169651
960.478	0.0169645
960.557	0.0170296
960.635	0.0169664
960.713	0.0170138
960.791	0.0169659
960.869	0.0170059
960.947	0.0170177
961.025	0.0171508
961.103	0.0168533
961.182	0.0168412
961.260	0.0169179
961.338	0.0169047
961.416	0.0169944
961.494	0.0169155
961.572	0.0168769
961.650	0.0168858
961.728	0.0169872
961.807	0.0170605
961.885	0.0169961
961.963	0.0169312
962.041	0.0168176
962.119	0.0170267
962.197	0.0170702
962.275	0.0170555
962.353	0.0170683
962.432	0.0171323
962.510	0.0171577
962.588	0.0171407
962.666	0.0171700
962.744	0.0170885
962.822	0.0172842
962.900	0.0172108
962.978	0.0171741
963.057	0.0172088
963.135	0.0171465
963.213	0.0171890
963.291	0.0172215
963.369	0.0172762
963.447	0.0172251
963.525	0.0171266
963.603	0.0170356
963.682	0.0170654
963.760	0.0170603
963.838	0.0169040
963.916	0.0168651
963.994	0.0169531
964.072	0.0170171
964.150	0.0169717
964.228	0.0168733
964.307	0.0169254
964.385	0.0169813
964.463	0.0169860
964.541	0.0169090
964.619	0.0169903
964.697	0.0170345
964.775	0.0171455
964.853	0.0171320
964.932	0.0171733
965.010	0.0172823
965.088	0.0173008
965.166	0.0172147
965.244	0.0173335
965.322	0.0173072
965.400	0.0170728
965.478	0.0172672
965.557	0.0172657
965.635	0.0171483
965.713	0.0171355
965.791	0.0170973
965.869	0.0170266
965.947	0.0170675
966.025	0.0172340
966.103	0.0171159
966.182	0.0172252
966.260	0.0171189
966.338	0.0172015
966.416	0.0173162
966.494	0.0171133
966.572	0.0172377
966.650	0.0171947
966.728	0.0172843
966.807	0.0172323
966.885	0.0169227
966.963	0.0170267
967.041	0.0172979
967.119	0.0170714
967.197	0.0169995
967.275	0.0170907
967.353	0.0170149
967.432	0.0169311
967.510	0.0170205
967.588	0.0170633
967.666	0.0170341
967.744	0.0169494
967.822	0.0169285
967.900	0.0170206
967.978	0.0170375
968.057	0.0171712
968.135	0.0171068
968.213	0.0170384
968.291	0.0169960
968.369	0.0169861
968.447	0.0170011
968.525	0.0170370
968.603	0.0169408
968.682	0.0169992
968.760	0.0171580
968.838	0.0170103
968.916	0.0170134
968.994	0.0169911
969.072	0.0171974
969.150	0.0172430
969.228	0.0172433
969.307	0.0172591
969.385	0.0172673
969.463	0.0173820
969.541	0.0173026
969.619	0.0172838
969.697	0.0173883
969.775	0.0172931
969.853	0.0171641
969.932	0.0172344
