06/10/2022	16:29:43	Ver.	4.1	UNKNOWN
Optical Delay	650.009681	Delta X		0.078125	Sweeps	1	Scan Rate	0/0
Coordinates	Axis 1	NaN	Axis 2	NaN	Axis 3	NaN	Axis 4	NaN	Axis 5	NaN	Axis 6	0.000000
TX Power	0.000000	RX Power	0.000000

650.010	0.0170616
650.088	0.0172533
650.166	0.0170310
650.244	0.0170210
650.322	0.0171452
650.400	0.0169920
650.478	0.0171663
650.557	0.0171631
650.635	0.0170805
650.713	0.0170897
650.791	0.0171047
650.869	0.0171428
650.947	0.0169730
651.025	0.0169441
651.103	0.0171181
651.182	0.0171107
651.260	0.0171002
651.338	0.0171913
651.416	0.0170975
651.494	0.0170590
651.572	0.0171062
651.650	0.0170576
651.728	0.0170955
651.807	0.0171976
651.885	0.0170258
651.963	0.0171678
652.041	0.0171687
652.119	0.0170792
652.197	0.0170954
652.275	0.0169387
652.353	0.0170952
652.432	0.0170390
652.510	0.0171326
652.588	0.0170688
652.666	0.0171149
652.744	0.0170596
652.822	0.0170361
652.900	0.0169592
652.978	0.0171430
653.057	0.0171491
653.135	0.0170062
653.213	0.0170839
653.291	0.0169467
653.369	0.0171090
653.447	0.0170232
653.525	0.0169953
653.603	0.0170932
653.682	0.0170272
653.760	0.0169198
653.838	0.0170943
653.916	0.0171120
653.994	0.0169597
654.072	0.0171105
654.150	0.0170485
654.228	0.0171321
654.307	0.0170171
654.385	0.0170316
654.463	0.0169947
654.541	0.0168465
654.619	0.0169413
654.697	0.0170737
654.775	0.0169322
654.853	0.0171073
654.932	0.0169595
655.010	0.0170347
655.088	0.0169395
655.166	0.0170168
655.244	0.0169881
655.322	0.0169768
655.400	0.0170268
655.478	0.0169727
655.557	0.0169799
655.635	0.0171016
655.713	0.0169332
655.791	0.0167858
655.869	0.0170100
655.947	0.0170708
656.025	0.0169929
656.103	0.0169751
656.182	0.0169429
656.260	0.0170129
656.338	0.0170566
656.416	0.0169579
656.494	0.0169653
656.572	0.0169160
656.650	0.0169885
656.728	0.0170315
656.807	0.0170508
656.885	0.0170396
656.963	0.0168346
657.041	0.0169852
657.119	0.0170789
657.197	0.0169572
657.275	0.0169534
657.353	0.0169524
657.432	0.0170022
657.510	0.0169734
657.588	0.0169722
657.666	0.0169255
657.744	0.0170341
657.822	0.0169894
657.900	0.0170190
657.978	0.0169513
658.057	0.0171660
658.135	0.0168961
658.213	0.0169357
658.291	0.0169516
658.369	0.0169907
658.447	0.0169353
658.525	0.0170354
658.603	0.0168945
658.682	0.0167979
658.760	0.0167939
658.838	0.0170153
658.916	0.0168841
658.994	0.0169999
659.072	0.0170638
659.150	0.0169780
659.228	0.0169110
659.307	0.0168924
659.385	0.0169635
659.463	0.0169083
659.541	0.0169713
659.619	0.0169641
659.697	0.0168387
659.775	0.0169605
659.853	0.0169251
659.932	0.0169723
660.010	0.0168845
660.088	0.0168111
660.166	0.0168774
660.244	0.0169323
660.322	0.0169073
660.400	0.0167739
660.478	0.0168464
660.557	0.0168901
660.635	0.0170180
660.713	0.0170750
660.791	0.0169186
660.869	0.0169756
660.947	0.0168780
661.025	0.0169785
661.103	0.0168667
661.182	0.0169657
661.260	0.0169233
661.338	0.0170743
661.416	0.0169447
661.494	0.0168983
661.572	0.0169512
661.650	0.0168066
661.728	0.0169627
661.807	0.0170637
661.885	0.0169660
661.963	0.0168864
662.041	0.0168341
662.119	0.0169335
662.197	0.0169935
662.275	0.0170479
662.353	0.0168457
662.432	0.0170537
662.510	0.0169561
662.588	0.0169573
662.666	0.0169732
662.744	0.0170007
662.822	0.0166744
662.900	0.0168328
662.978	0.0170223
663.057	0.0169874
663.135	0.0169211
663.213	0.0169546
663.291	0.0168940
663.369	0.0170486
663.447	0.0168390
663.525	0.0169112
663.603	0.0168700
663.682	0.0169061
663.760	0.0169199
663.838	0.0169072
663.916	0.0171087
663.994	0.0170441
664.072	0.0170167
664.150	0.0169686
664.228	0.0170686
664.307	0.0168401
664.385	0.0169147
664.463	0.0171552
664.541	0.0170399
664.619	0.0169820
664.697	0.0169182
664.775	0.0169497
664.853	0.0170033
664.932	0.0170343
665.010	0.0169847
665.088	0.0171211
665.166	0.0170074
665.244	0.0169373
665.322	0.0170653
665.400	0.0170789
665.478	0.0169371
665.557	0.0169369
665.635	0.0169454
665.713	0.0169894
665.791	0.0169904
665.869	0.0168892
665.947	0.0170109
666.025	0.0170638
666.103	0.0169090
666.182	0.0169960
666.260	0.0169705
666.338	0.0171568
666.416	0.0170693
666.494	0.0170145
666.572	0.0170077
666.650	0.0169547
666.728	0.0169913
666.807	0.0170872
666.885	0.0171466
666.963	0.0169483
667.041	0.0168474
667.119	0.0170895
667.197	0.0170179
667.275	0.0170927
667.353	0.0169168
667.432	0.0169888
667.510	0.0169460
667.588	0.0168880
667.666	0.0169374
667.744	0.0169032
667.822	0.0170314
667.900	0.0170736
667.978	0.0169680
668.057	0.0170218
668.135	0.0169123
668.213	0.0168538
668.291	0.0169670
668.369	0.0169633
668.447	0.0168919
668.525	0.0170394
668.603	0.0169704
668.682	0.0169654
668.760	0.0168610
668.838	0.0168790
668.916	0.0168278
668.994	0.0170515
669.072	0.0170234
669.150	0.0170670
669.228	0.0168114
669.307	0.0170461
669.385	0.0169962
669.463	0.0169622
669.541	0.0170181
669.619	0.0170203
669.697	0.0169218
669.775	0.0170509
669.853	0.0171566
669.932	0.0169404
670.010	0.0170592
670.088	0.0170378
670.166	0.0171453
670.244	0.0169999
670.322	0.0170361
670.400	0.0168922
670.478	0.0171581
670.557	0.0171351
670.635	0.0169592
670.713	0.0170293
670.791	0.0170670
670.869	0.0169852
670.947	0.0169590
671.025	0.0171722
671.103	0.0170246
671.182	0.0171478
671.260	0.0170197
671.338	0.0170952
671.416	0.0170395
671.494	0.0171252
671.572	0.0170514
671.650	0.0171013
671.728	0.0170590
671.807	0.0170570
671.885	0.0169783
671.963	0.0171285
672.041	0.0170985
672.119	0.0172383
672.197	0.0168420
672.275	0.0171671
672.353	0.0171571
672.432	0.0170397
672.510	0.0170909
672.588	0.0171835
672.666	0.0171740
672.744	0.0171265
672.822	0.0171104
672.900	0.0170578
672.978	0.0170725
673.057	0.0171579
673.135	0.0169746
673.213	0.0170385
673.291	0.0170855
673.369	0.0170603
673.447	0.0170007
673.525	0.0170121
673.603	0.0170837
673.682	0.0171036
673.760	0.0170409
673.838	0.0170342
673.916	0.0171375
673.994	0.0170486
674.072	0.0170011
674.150	0.0169905
674.228	0.0169201
674.307	0.0170682
674.385	0.0169946
674.463	0.0170627
674.541	0.0168769
674.619	0.0170438
674.697	0.0168223
674.775	0.0169135
674.853	0.0170747
674.932	0.0169505
675.010	0.0169145
675.088	0.0170331
675.166	0.0169353
675.244	0.0169302
675.322	0.0170035
675.400	0.0169827
675.478	0.0169414
675.557	0.0170583
675.635	0.0169283
675.713	0.0168776
675.791	0.0170419
675.869	0.0169799
675.947	0.0169402
676.025	0.0169489
676.103	0.0168176
676.182	0.0171317
676.260	0.0169945
676.338	0.0170068
676.416	0.0169331
676.494	0.0169987
676.572	0.0169444
676.650	0.0169684
676.728	0.0168928
676.807	0.0168878
676.885	0.0168542
676.963	0.0169256
677.041	0.0168961
677.119	0.0168797
677.197	0.0168700
677.275	0.0168726
677.353	0.0169293
677.432	0.0168887
677.510	0.0168517
677.588	0.0169966
677.666	0.0169533
677.744	0.0169960
677.822	0.0170712
677.900	0.0170679
677.978	0.0168773
678.057	0.0169492
678.135	0.0170058
678.213	0.0170124
678.291	0.0169020
678.369	0.0170306
678.447	0.0169849
678.525	0.0169168
678.603	0.0170141
678.682	0.0169527
678.760	0.0168767
678.838	0.0170300
678.916	0.0169081
678.994	0.0170113
679.072	0.0169974
679.150	0.0169296
679.228	0.0169612
679.307	0.0169789
679.385	0.0169400
679.463	0.0170996
679.541	0.0170892
679.619	0.0169701
679.697	0.0170415
679.775	0.0169426
679.853	0.0169519
679.932	0.0170226
680.010	0.0169788
680.088	0.0169526
680.166	0.0169454
680.244	0.0169540
680.322	0.0169791
680.400	0.0169506
680.478	0.0170284
680.557	0.0169173
680.635	0.0169768
680.713	0.0170181
680.791	0.0169673
680.869	0.0168893
680.947	0.0168781
681.025	0.0169483
681.103	0.0169025
681.182	0.0169147
681.260	0.0169603
681.338	0.0169749
681.416	0.0170152
681.494	0.0169656
681.572	0.0169143
681.650	0.0168864
681.728	0.0169580
681.807	0.0170280
681.885	0.0167944
681.963	0.0169469
682.041	0.0169453
682.119	0.0169306
682.197	0.0168523
682.275	0.0168600
682.353	0.0169734
682.432	0.0168774
682.510	0.0169221
682.588	0.0169994
682.666	0.0169038
682.744	0.0168790
682.822	0.0169695
682.900	0.0169404
682.978	0.0169687
683.057	0.0168649
683.135	0.0168671
683.213	0.0168565
683.291	0.0169425
683.369	0.0170295
683.447	0.0169657
683.525	0.0169920
683.603	0.0169377
683.682	0.0168328
683.760	0.0170714
683.838	0.0169788
683.916	0.0169550
683.994	0.0168429
684.072	0.0169709
684.150	0.0169012
684.228	0.0169112
684.307	0.0170093
684.385	0.0171952
684.463	0.0170905
684.541	0.0170277
684.619	0.0168967
684.697	0.0168668
684.775	0.0169621
684.853	0.0169565
684.932	0.0170721
685.010	0.0167913
685.088	0.0170488
685.166	0.0171883
685.244	0.0170330
685.322	0.0171440
685.400	0.0171297
685.478	0.0170313
685.557	0.0171215
685.635	0.0171221
685.713	0.0169402
685.791	0.0170007
685.869	0.0170116
685.947	0.0170216
686.025	0.0170837
686.103	0.0171487
686.182	0.0171156
686.260	0.0171953
686.338	0.0171168
686.416	0.0170629
686.494	0.0170243
686.572	0.0171215
686.650	0.0171371
686.728	0.0170515
686.807	0.0170273
686.885	0.0171092
686.963	0.0169600
687.041	0.0171017
687.119	0.0169333
687.197	0.0171720
687.275	0.0171760
687.353	0.0170689
687.432	0.0170594
687.510	0.0171372
687.588	0.0172021
687.666	0.0170496
687.744	0.0170136
687.822	0.0171469
687.900	0.0170111
687.978	0.0169643
688.057	0.0170774
688.135	0.0168925
688.213	0.0171505
688.291	0.0170058
688.369	0.0169777
688.447	0.0170213
688.525	0.0170400
688.603	0.0171065
688.682	0.0170133
688.760	0.0170302
688.838	0.0169944
688.916	0.0170734
688.994	0.0170379
689.072	0.0170941
689.150	0.0170167
689.228	0.0170239
689.307	0.0170953
689.385	0.0169582
689.463	0.0170374
689.541	0.0170309
689.619	0.0171761
689.697	0.0169697
689.775	0.0169549
689.853	0.0170669
689.932	0.0171986
690.010	0.0170525
690.088	0.0169534
690.166	0.0168824
690.244	0.0169274
690.322	0.0170274
690.400	0.0170692
690.478	0.0170071
690.557	0.0170190
690.635	0.0170111
690.713	0.0170296
690.791	0.0168931
690.869	0.0170107
690.947	0.0169893
691.025	0.0170084
691.103	0.0171194
691.182	0.0171327
691.260	0.0170546
691.338	0.0170914
691.416	0.0171487
691.494	0.0171394
691.572	0.0169788
691.650	0.0169646
691.728	0.0170967
691.807	0.0170172
691.885	0.0169358
691.963	0.0169509
692.041	0.0168896
692.119	0.0169488
692.197	0.0170731
692.275	0.0170184
692.353	0.0170224
692.432	0.0169196
692.510	0.0170493
692.588	0.0170069
692.666	0.0170370
692.744	0.0169611
692.822	0.0169727
692.900	0.0170245
692.978	0.0171220
693.057	0.0169327
693.135	0.0170734
693.213	0.0170551
693.291	0.0170408
693.369	0.0170502
693.447	0.0168226
693.525	0.0169667
693.603	0.0170704
693.682	0.0169904
693.760	0.0170434
693.838	0.0170674
693.916	0.0169895
693.994	0.0169646
694.072	0.0168972
694.150	0.0171439
694.228	0.0169723
694.307	0.0169314
694.385	0.0170956
694.463	0.0169833
694.541	0.0169983
694.619	0.0170712
694.697	0.0170190
694.775	0.0169196
694.853	0.0169741
694.932	0.0169588
695.010	0.0169228
695.088	0.0169620
695.166	0.0169989
695.244	0.0170219
695.322	0.0168850
695.400	0.0168547
695.478	0.0168980
695.557	0.0170490
695.635	0.0169511
695.713	0.0169482
695.791	0.0169000
695.869	0.0169397
695.947	0.0168437
696.025	0.0170321
696.103	0.0169830
696.182	0.0169115
696.260	0.0169467
696.338	0.0169693
696.416	0.0169363
696.494	0.0169848
696.572	0.0170289
696.650	0.0169971
696.728	0.0169380
696.807	0.0170399
696.885	0.0168516
696.963	0.0168336
697.041	0.0168825
697.119	0.0169969
697.197	0.0169418
697.275	0.0168970
697.353	0.0168701
697.432	0.0170645
697.510	0.0168693
697.588	0.0169155
697.666	0.0170975
697.744	0.0169388
697.822	0.0169105
697.900	0.0169219
697.978	0.0169472
698.057	0.0171800
698.135	0.0169612
698.213	0.0170381
698.291	0.0169367
698.369	0.0170084
698.447	0.0169861
698.525	0.0167866
698.603	0.0168480
698.682	0.0170326
698.760	0.0170470
698.838	0.0169756
698.916	0.0168557
698.994	0.0168552
699.072	0.0168696
699.150	0.0168925
699.228	0.0169086
699.307	0.0170853
699.385	0.0170504
699.463	0.0168764
699.541	0.0168191
699.619	0.0168640
699.697	0.0168108
699.775	0.0170267
699.853	0.0169724
699.932	0.0168918
700.010	0.0169193
700.088	0.0169476
700.166	0.0170080
700.244	0.0170100
700.322	0.0169563
700.400	0.0169743
700.478	0.0168913
700.557	0.0169011
700.635	0.0169635
700.713	0.0169617
700.791	0.0169785
700.869	0.0169715
700.947	0.0170531
701.025	0.0169139
701.103	0.0169505
701.182	0.0170749
701.260	0.0170852
701.338	0.0170767
701.416	0.0169827
701.494	0.0169360
701.572	0.0169968
701.650	0.0169795
701.728	0.0168074
701.807	0.0168841
701.885	0.0169724
701.963	0.0169444
702.041	0.0170183
702.119	0.0169844
702.197	0.0170903
702.275	0.0169383
702.353	0.0168784
702.432	0.0169156
702.510	0.0170618
702.588	0.0169386
702.666	0.0169566
702.744	0.0169051
702.822	0.0170950
702.900	0.0169113
702.978	0.0169983
703.057	0.0169798
703.135	0.0170110
703.213	0.0170947
703.291	0.0170771
703.369	0.0170464
703.447	0.0169320
703.525	0.0170337
703.603	0.0169524
703.682	0.0170103
703.760	0.0170515
703.838	0.0170166
703.916	0.0170988
703.994	0.0169995
704.072	0.0169907
704.150	0.0170550
704.228	0.0170093
704.307	0.0170316
704.385	0.0171680
704.463	0.0169515
704.541	0.0170830
704.619	0.0168831
704.697	0.0171130
704.775	0.0170426
704.853	0.0170098
704.932	0.0168525
705.010	0.0170985
705.088	0.0170376
705.166	0.0170130
705.244	0.0170018
705.322	0.0171062
705.400	0.0169276
705.478	0.0168484
705.557	0.0169746
705.635	0.0170921
705.713	0.0170467
705.791	0.0169451
705.869	0.0169832
705.947	0.0170359
706.025	0.0169708
706.103	0.0170277
706.182	0.0171062
706.260	0.0169801
706.338	0.0169220
706.416	0.0169968
706.494	0.0169395
706.572	0.0170359
706.650	0.0168913
706.728	0.0169998
706.807	0.0171352
706.885	0.0170885
706.963	0.0169500
707.041	0.0170254
707.119	0.0170941
707.197	0.0171320
707.275	0.0170009
707.353	0.0170863
707.432	0.0170608
707.510	0.0170432
707.588	0.0170892
707.666	0.0169680
707.744	0.0170202
707.822	0.0171347
707.900	0.0170328
707.978	0.0172067
708.057	0.0171590
708.135	0.0171487
708.213	0.0170142
708.291	0.0171307
708.369	0.0169572
708.447	0.0170227
708.525	0.0171214
708.603	0.0170573
708.682	0.0169669
708.760	0.0170390
708.838	0.0170059
708.916	0.0170943
708.994	0.0171349
709.072	0.0169923
709.150	0.0170600
709.228	0.0170911
709.307	0.0169892
709.385	0.0169967
709.463	0.0168420
709.541	0.0170974
709.619	0.0171320
709.697	0.0169079
709.775	0.0170151
709.853	0.0170088
709.932	0.0170960
710.010	0.0169993
710.088	0.0170080
710.166	0.0170049
710.244	0.0169940
710.322	0.0170721
710.400	0.0170075
710.478	0.0170715
710.557	0.0171176
710.635	0.0170534
710.713	0.0171082
710.791	0.0169650
710.869	0.0171046
710.947	0.0170491
711.025	0.0171039
711.103	0.0171168
711.182	0.0168794
711.260	0.0169359
711.338	0.0171367
711.416	0.0168397
711.494	0.0168905
711.572	0.0168965
711.650	0.0169991
711.728	0.0170341
711.807	0.0169910
711.885	0.0170644
711.963	0.0170557
712.041	0.0170490
712.119	0.0171481
712.197	0.0171490
712.275	0.0169522
712.353	0.0169671
712.432	0.0169509
712.510	0.0170065
712.588	0.0171208
712.666	0.0171152
712.744	0.0169541
712.822	0.0170683
712.900	0.0170156
712.978	0.0169794
713.057	0.0170486
713.135	0.0169656
713.213	0.0170428
713.291	0.0170642
713.369	0.0170431
713.447	0.0170397
713.525	0.0169434
713.603	0.0170412
713.682	0.0170120
713.760	0.0169746
713.838	0.0169061
713.916	0.0170241
713.994	0.0169630
714.072	0.0169831
714.150	0.0168674
714.228	0.0170238
714.307	0.0169534
714.385	0.0170053
714.463	0.0170172
714.541	0.0169619
714.619	0.0169158
714.697	0.0169776
714.775	0.0169781
714.853	0.0169956
714.932	0.0168433
715.010	0.0170381
715.088	0.0167885
715.166	0.0169436
715.244	0.0169781
715.322	0.0169699
715.400	0.0169989
715.478	0.0169328
715.557	0.0170009
715.635	0.0170112
715.713	0.0168813
715.791	0.0168546
715.869	0.0170261
715.947	0.0169530
716.025	0.0168278
716.103	0.0170005
716.182	0.0168887
716.260	0.0168063
716.338	0.0168959
716.416	0.0169364
716.494	0.0169254
716.572	0.0169588
716.650	0.0168833
716.728	0.0168252
716.807	0.0167822
716.885	0.0170374
716.963	0.0169304
717.041	0.0169080
717.119	0.0168518
717.197	0.0169781
717.275	0.0169295
717.353	0.0168370
717.432	0.0169408
717.510	0.0168727
717.588	0.0168353
717.666	0.0169375
717.744	0.0169242
717.822	0.0168497
717.900	0.0168722
717.978	0.0168936
718.057	0.0167571
718.135	0.0169329
718.213	0.0171086
718.291	0.0168787
718.369	0.0168014
718.447	0.0170160
718.525	0.0169572
718.603	0.0169321
718.682	0.0169592
718.760	0.0170193
718.838	0.0169677
718.916	0.0171362
718.994	0.0171081
719.072	0.0169299
719.150	0.0168152
719.228	0.0168945
719.307	0.0169129
719.385	0.0171860
719.463	0.0169538
719.541	0.0169597
719.619	0.0169518
719.697	0.0169104
719.775	0.0170223
719.853	0.0169508
719.932	0.0170160
720.010	0.0170263
720.088	0.0170146
720.166	0.0169321
720.244	0.0170119
720.322	0.0170854
720.400	0.0172301
720.478	0.0169848
720.557	0.0168665
720.635	0.0169974
720.713	0.0170360
720.791	0.0171070
720.869	0.0170438
720.947	0.0170216
721.025	0.0170556
721.103	0.0170973
721.182	0.0169273
721.260	0.0168853
721.338	0.0169331
721.416	0.0168264
721.494	0.0169227
721.572	0.0169070
721.650	0.0168586
721.728	0.0169003
721.807	0.0168855
721.885	0.0169856
721.963	0.0169533
722.041	0.0171161
722.119	0.0172050
722.197	0.0174115
722.275	0.0174001
722.353	0.0172729
722.432	0.0175883
722.510	0.0174605
722.588	0.0173878
722.666	0.0173503
722.744	0.0172314
722.822	0.0172141
722.900	0.0169745
722.978	0.0168827
723.057	0.0166888
723.135	0.0166297
723.213	0.0165237
723.291	0.0164433
723.369	0.0164751
723.447	0.0165313
723.525	0.0165295
723.603	0.0166825
723.682	0.0168253
723.760	0.0169268
723.838	0.0172082
723.916	0.0173154
723.994	0.0174080
724.072	0.0174313
724.150	0.0174809
724.228	0.0174152
724.307	0.0175798
724.385	0.0175784
724.463	0.0174284
724.541	0.0173217
724.619	0.0173817
724.697	0.0171545
724.775	0.0170126
724.853	0.0170935
724.932	0.0169699
725.010	0.0168681
725.088	0.0169606
725.166	0.0169360
725.244	0.0168964
725.322	0.0169851
725.400	0.0167198
725.478	0.0167001
725.557	0.0168233
725.635	0.0167712
725.713	0.0167616
725.791	0.0167847
725.869	0.0167684
725.947	0.0167715
726.025	0.0167755
726.103	0.0167426
726.182	0.0167868
726.260	0.0169017
726.338	0.0170459
726.416	0.0171078
726.494	0.0173477
726.572	0.0174747
726.650	0.0174987
726.728	0.0176940
726.807	0.0176580
726.885	0.0177463
726.963	0.0177185
727.041	0.0176743
727.119	0.0175690
727.197	0.0175568
727.275	0.0171757
727.353	0.0169358
727.432	0.0168413
727.510	0.0165872
727.588	0.0164053
727.666	0.0161836
727.744	0.0161514
727.822	0.0160333
727.900	0.0161002
727.978	0.0160851
728.057	0.0162718
728.135	0.0165603
728.213	0.0165639
728.291	0.0168427
728.369	0.0170340
728.447	0.0170867
728.525	0.0173405
728.603	0.0175835
728.682	0.0176015
728.760	0.0176295
728.838	0.0178204
728.916	0.0178664
728.994	0.0178608
729.072	0.0178104
729.150	0.0177701
729.228	0.0175978
729.307	0.0176025
729.385	0.0174500
729.463	0.0171873
729.541	0.0171947
729.619	0.0170261
729.697	0.0167085
729.775	0.0166045
729.853	0.0163737
729.932	0.0163784
730.010	0.0163749
730.088	0.0163187
730.166	0.0164594
730.244	0.0163449
730.322	0.0164408
730.400	0.0165507
730.478	0.0167844
730.557	0.0167112
730.635	0.0168705
730.713	0.0169283
730.791	0.0171713
730.869	0.0172571
730.947	0.0171817
731.025	0.0171863
731.103	0.0174493
731.182	0.0174681
731.260	0.0174334
731.338	0.0175479
731.416	0.0174883
731.494	0.0173510
731.572	0.0175130
731.650	0.0174352
731.728	0.0173978
731.807	0.0172065
731.885	0.0172603
731.963	0.0170427
732.041	0.0167847
732.119	0.0168569
732.197	0.0167683
732.275	0.0164845
732.353	0.0164912
732.432	0.0163728
732.510	0.0162858
732.588	0.0163810
732.666	0.0163991
732.744	0.0164668
732.822	0.0164127
732.900	0.0166618
732.978	0.0167458
733.057	0.0167947
733.135	0.0168626
733.213	0.0170273
733.291	0.0172163
733.369	0.0173366
733.447	0.0174793
733.525	0.0173367
733.603	0.0174492
733.682	0.0175116
733.760	0.0174323
733.838	0.0173445
733.916	0.0172491
733.994	0.0170930
734.072	0.0170679
734.150	0.0170094
734.228	0.0168256
734.307	0.0167138
734.385	0.0167808
734.463	0.0165626
734.541	0.0165752
734.619	0.0166991
734.697	0.0166399
734.775	0.0167072
734.853	0.0167281
734.932	0.0168961
735.010	0.0169325
735.088	0.0170131
735.166	0.0169876
735.244	0.0171212
735.322	0.0172129
735.400	0.0172133
735.478	0.0171117
735.557	0.0171590
735.635	0.0171453
735.713	0.0170801
735.791	0.0170584
735.869	0.0170286
735.947	0.0171146
736.025	0.0170541
736.103	0.0169089
736.182	0.0168993
736.260	0.0168490
736.338	0.0169642
736.416	0.0168597
736.494	0.0169440
736.572	0.0170641
736.650	0.0170228
736.728	0.0170515
736.807	0.0170934
736.885	0.0169112
736.963	0.0170422
737.041	0.0170212
737.119	0.0170713
737.197	0.0171020
737.275	0.0169884
737.353	0.0169590
737.432	0.0169094
737.510	0.0168214
737.588	0.0170392
737.666	0.0169629
737.744	0.0168024
737.822	0.0166973
737.900	0.0168717
737.978	0.0168913
738.057	0.0167545
738.135	0.0167985
738.213	0.0168141
738.291	0.0168973
738.369	0.0168298
738.447	0.0168748
738.525	0.0170235
738.603	0.0171368
738.682	0.0171284
738.760	0.0169939
738.838	0.0171955
738.916	0.0172697
738.994	0.0171012
739.072	0.0172607
739.150	0.0171201
739.228	0.0172271
739.307	0.0171516
739.385	0.0169734
739.463	0.0168388
739.541	0.0167348
739.619	0.0166941
739.697	0.0165723
739.775	0.0165492
739.853	0.0165206
739.932	0.0165612
740.010	0.0165400
740.088	0.0165521
740.166	0.0165865
740.244	0.0167690
740.322	0.0168003
740.400	0.0168058
740.478	0.0169741
740.557	0.0170253
740.635	0.0172524
740.713	0.0171714
740.791	0.0173895
740.869	0.0172618
740.947	0.0173235
741.025	0.0174277
741.103	0.0174120
741.182	0.0173890
741.260	0.0172809
741.338	0.0173962
741.416	0.0170882
741.494	0.0169962
741.572	0.0169809
741.650	0.0170988
741.728	0.0168875
741.807	0.0170155
741.885	0.0168958
741.963	0.0167223
742.041	0.0167353
742.119	0.0167624
742.197	0.0166203
742.275	0.0164410
742.353	0.0166165
742.432	0.0163857
742.510	0.0165007
742.588	0.0166224
742.666	0.0166650
742.744	0.0167120
742.822	0.0168793
742.900	0.0169501
742.978	0.0172157
743.057	0.0171519
743.135	0.0173178
743.213	0.0176227
743.291	0.0175126
743.369	0.0174867
743.447	0.0175910
743.525	0.0175227
743.603	0.0175214
743.682	0.0173245
743.760	0.0172314
743.838	0.0171696
743.916	0.0171929
743.994	0.0170835
744.072	0.0169041
744.150	0.0167947
744.228	0.0167200
744.307	0.0164326
744.385	0.0164764
744.463	0.0164862
744.541	0.0164690
744.619	0.0165508
744.697	0.0166896
744.775	0.0167312
744.853	0.0168264
744.932	0.0169596
745.010	0.0168760
745.088	0.0172092
745.166	0.0173155
745.244	0.0172964
745.322	0.0174063
745.400	0.0174464
745.478	0.0174596
745.557	0.0174001
745.635	0.0173434
745.713	0.0174992
745.791	0.0174432
745.869	0.0173309
745.947	0.0172977
746.025	0.0172031
746.103	0.0171414
746.182	0.0170356
746.260	0.0169541
746.338	0.0168105
746.416	0.0169368
746.494	0.0169255
746.572	0.0166964
746.650	0.0168514
746.728	0.0167908
746.807	0.0168672
746.885	0.0168568
746.963	0.0168774
747.041	0.0169260
747.119	0.0167986
747.197	0.0169362
747.275	0.0169569
747.353	0.0169617
747.432	0.0170322
747.510	0.0169514
747.588	0.0169724
747.666	0.0171362
747.744	0.0171748
747.822	0.0171072
747.900	0.0170317
747.978	0.0172125
748.057	0.0171513
748.135	0.0170969
748.213	0.0171578
748.291	0.0172665
748.369	0.0171803
748.447	0.0171333
748.525	0.0171291
748.603	0.0170393
748.682	0.0170227
748.760	0.0171001
748.838	0.0170423
748.916	0.0169228
748.994	0.0168288
749.072	0.0168377
749.150	0.0168839
749.228	0.0169379
749.307	0.0169699
749.385	0.0168047
749.463	0.0170649
749.541	0.0168903
749.619	0.0170374
749.697	0.0170157
749.775	0.0170409
749.853	0.0171416
749.932	0.0171775
750.010	0.0170777
750.088	0.0170303
750.166	0.0169952
750.244	0.0170128
750.322	0.0170177
750.400	0.0170229
750.478	0.0168719
750.557	0.0170370
750.635	0.0169605
750.713	0.0168961
750.791	0.0170265
750.869	0.0169939
750.947	0.0170173
751.025	0.0169727
751.103	0.0171224
751.182	0.0170093
751.260	0.0169961
751.338	0.0171212
751.416	0.0170764
751.494	0.0170342
751.572	0.0171481
751.650	0.0171247
751.728	0.0172916
751.807	0.0172910
751.885	0.0171993
751.963	0.0172549
752.041	0.0171278
752.119	0.0171597
752.197	0.0170796
752.275	0.0171763
752.353	0.0170975
752.432	0.0170181
752.510	0.0171061
752.588	0.0170261
752.666	0.0171059
752.744	0.0169788
752.822	0.0170467
752.900	0.0169389
752.978	0.0169370
753.057	0.0169380
753.135	0.0171201
753.213	0.0169259
753.291	0.0170492
753.369	0.0170032
753.447	0.0170634
753.525	0.0169417
753.603	0.0170998
753.682	0.0171250
753.760	0.0170052
753.838	0.0171488
753.916	0.0170380
753.994	0.0171514
754.072	0.0173441
754.150	0.0171115
754.228	0.0171046
754.307	0.0171481
754.385	0.0169894
754.463	0.0171492
754.541	0.0172270
754.619	0.0171884
754.697	0.0170577
754.775	0.0169221
754.853	0.0168346
754.932	0.0169727
755.010	0.0168008
755.088	0.0168575
755.166	0.0168247
755.244	0.0167371
755.322	0.0168982
755.400	0.0168999
755.478	0.0168472
755.557	0.0169566
755.635	0.0168010
755.713	0.0168300
755.791	0.0170144
755.869	0.0168563
755.947	0.0168800
756.025	0.0169127
756.103	0.0168829
756.182	0.0169959
756.260	0.0168555
756.338	0.0169107
756.416	0.0171458
756.494	0.0170998
756.572	0.0169347
756.650	0.0169115
756.728	0.0169410
756.807	0.0169334
756.885	0.0170841
756.963	0.0169392
757.041	0.0169948
757.119	0.0170409
757.197	0.0169979
757.275	0.0170959
757.353	0.0170090
757.432	0.0168726
757.510	0.0169277
757.588	0.0170097
757.666	0.0169857
757.744	0.0167363
757.822	0.0168997
757.900	0.0166545
757.978	0.0168433
758.057	0.0167563
758.135	0.0168172
758.213	0.0167678
758.291	0.0168516
758.369	0.0167239
758.447	0.0167412
758.525	0.0168611
758.603	0.0168279
758.682	0.0169455
758.760	0.0169953
758.838	0.0169987
758.916	0.0170953
758.994	0.0170721
759.072	0.0171088
759.150	0.0171780
759.228	0.0170847
759.307	0.0172481
759.385	0.0172622
759.463	0.0169743
759.541	0.0171909
759.619	0.0169891
759.697	0.0168689
759.775	0.0168735
759.853	0.0168085
759.932	0.0167957
760.010	0.0168067
760.088	0.0168160
760.166	0.0165807
760.244	0.0166996
760.322	0.0168674
760.400	0.0168119
760.478	0.0168689
760.557	0.0169930
760.635	0.0169639
760.713	0.0169924
760.791	0.0171527
760.869	0.0171965
760.947	0.0171365
761.025	0.0171319
761.103	0.0170740
761.182	0.0171127
761.260	0.0171119
761.338	0.0171095
761.416	0.0169952
761.494	0.0169162
761.572	0.0170762
761.650	0.0171387
761.728	0.0169244
761.807	0.0170252
761.885	0.0170602
761.963	0.0169325
762.041	0.0170926
762.119	0.0171053
762.197	0.0171242
762.275	0.0171954
762.353	0.0170734
762.432	0.0171774
762.510	0.0172115
762.588	0.0170555
762.666	0.0169165
762.744	0.0170595
762.822	0.0170084
762.900	0.0168214
762.978	0.0167987
763.057	0.0168638
763.135	0.0167721
763.213	0.0166466
763.291	0.0167314
763.369	0.0168501
763.447	0.0168177
763.525	0.0167445
763.603	0.0166188
763.682	0.0166536
763.760	0.0166204
763.838	0.0167027
763.916	0.0167789
763.994	0.0168224
764.072	0.0167578
764.150	0.0169827
764.228	0.0169740
764.307	0.0169913
764.385	0.0171323
764.463	0.0171767
764.541	0.0172726
764.619	0.0173167
764.697	0.0173411
764.775	0.0173978
764.853	0.0177296
764.932	0.0175205
765.010	0.0175433
765.088	0.0176035
765.166	0.0175954
765.244	0.0175257
765.322	0.0175330
765.400	0.0175276
765.478	0.0174470
765.557	0.0172131
765.635	0.0171144
765.713	0.0171173
765.791	0.0169678
765.869	0.0168185
765.947	0.0167049
766.025	0.0167149
766.103	0.0166799
766.182	0.0166187
766.260	0.0165747
766.338	0.0165314
766.416	0.0165499
766.494	0.0166057
766.572	0.0166138
766.650	0.0164957
766.728	0.0167053
766.807	0.0165270
766.885	0.0168295
766.963	0.0167419
767.041	0.0170055
767.119	0.0169393
767.197	0.0170978
767.275	0.0171024
767.353	0.0171655
767.432	0.0173263
767.510	0.0171857
767.588	0.0172803
767.666	0.0174017
767.744	0.0171919
767.822	0.0172633
767.900	0.0172940
767.978	0.0174068
768.057	0.0174966
768.135	0.0173876
768.213	0.0174910
768.291	0.0174955
768.369	0.0175560
768.447	0.0176096
768.525	0.0174872
768.603	0.0174570
768.682	0.0174688
768.760	0.0174928
768.838	0.0172205
768.916	0.0170947
768.994	0.0169555
769.072	0.0170024
769.150	0.0169563
769.228	0.0167862
769.307	0.0166658
769.385	0.0165463
769.463	0.0164529
769.541	0.0165588
769.619	0.0164761
769.697	0.0164513
769.775	0.0163706
769.853	0.0165006
769.932	0.0163830
770.010	0.0164545
770.088	0.0165560
770.166	0.0165287
770.244	0.0164590
770.322	0.0166696
770.400	0.0166674
770.478	0.0166558
770.557	0.0168182
770.635	0.0169347
770.713	0.0168996
770.791	0.0170329
770.869	0.0171716
770.947	0.0171466
771.025	0.0173428
771.103	0.0176069
771.182	0.0175721
771.260	0.0176575
771.338	0.0176995
771.416	0.0177650
771.494	0.0178166
771.572	0.0178470
771.650	0.0178471
771.728	0.0178721
771.807	0.0177638
771.885	0.0176864
771.963	0.0177176
772.041	0.0175729
772.119	0.0174104
772.197	0.0171326
772.275	0.0173147
772.353	0.0173461
772.432	0.0170033
772.510	0.0167760
772.588	0.0167860
772.666	0.0168105
772.744	0.0166203
772.822	0.0165008
772.900	0.0163598
772.978	0.0162757
773.057	0.0161102
773.135	0.0159093
773.213	0.0160507
773.291	0.0160126
773.369	0.0158864
773.447	0.0160838
773.525	0.0160750
773.603	0.0162094
773.682	0.0163672
773.760	0.0163637
773.838	0.0166688
773.916	0.0167374
773.994	0.0169664
774.072	0.0172987
774.150	0.0173925
774.228	0.0175271
774.307	0.0178656
774.385	0.0177849
774.463	0.0178636
774.541	0.0180379
774.619	0.0181990
774.697	0.0182022
774.775	0.0181773
774.853	0.0180947
774.932	0.0181503
775.010	0.0180500
775.088	0.0179591
775.166	0.0177778
775.244	0.0176365
775.322	0.0174107
775.400	0.0172467
775.478	0.0170271
775.557	0.0166428
775.635	0.0165164
775.713	0.0162647
775.791	0.0161480
775.869	0.0160336
775.947	0.0159087
776.025	0.0158709
776.103	0.0158414
776.182	0.0159275
776.260	0.0158749
776.338	0.0159573
776.416	0.0160931
776.494	0.0161554
776.572	0.0163757
776.650	0.0165601
776.728	0.0166634
776.807	0.0167059
776.885	0.0168391
776.963	0.0172486
777.041	0.0173547
777.119	0.0174228
777.197	0.0176633
777.275	0.0177985
777.353	0.0177607
777.432	0.0178267
777.510	0.0177749
777.588	0.0178101
777.666	0.0178651
777.744	0.0176854
777.822	0.0178490
777.900	0.0176720
777.978	0.0173915
778.057	0.0174372
778.135	0.0173141
778.213	0.0172028
778.291	0.0170620
778.369	0.0170593
778.447	0.0169122
778.525	0.0167089
778.603	0.0165629
778.682	0.0165738
778.760	0.0165060
778.838	0.0163026
778.916	0.0163679
778.994	0.0162723
779.072	0.0163071
779.150	0.0161374
779.228	0.0161541
779.307	0.0164837
779.385	0.0164137
779.463	0.0165418
779.541	0.0167515
779.619	0.0168933
779.697	0.0169840
779.775	0.0170743
779.853	0.0172392
779.932	0.0173810
780.010	0.0176115
780.088	0.0176408
780.166	0.0176958
780.244	0.0176961
780.322	0.0178041
780.400	0.0178853
780.478	0.0177608
780.557	0.0178059
780.635	0.0177631
780.713	0.0175494
780.791	0.0175023
780.869	0.0175290
780.947	0.0174900
781.025	0.0173710
781.103	0.0174017
781.182	0.0171264
781.260	0.0171178
781.338	0.0171011
781.416	0.0170270
781.494	0.0170007
781.572	0.0167571
781.650	0.0166336
781.728	0.0165842
781.807	0.0165368
781.885	0.0165777
781.963	0.0164943
782.041	0.0164934
782.119	0.0163666
782.197	0.0162922
782.275	0.0163332
782.353	0.0163372
782.432	0.0163087
782.510	0.0164809
782.588	0.0164021
782.666	0.0165182
782.744	0.0166775
782.822	0.0167824
782.900	0.0169473
782.978	0.0168790
783.057	0.0169562
783.135	0.0171838
783.213	0.0174229
783.291	0.0172803
783.369	0.0173914
783.447	0.0175367
783.525	0.0177411
783.603	0.0177257
783.682	0.0177327
783.760	0.0176654
783.838	0.0177877
783.916	0.0177724
783.994	0.0177983
784.072	0.0179472
784.150	0.0178542
784.228	0.0178468
784.307	0.0178127
784.385	0.0178473
784.463	0.0179959
784.541	0.0176771
784.619	0.0175105
784.697	0.0175061
784.775	0.0174657
784.853	0.0172127
784.932	0.0170409
785.010	0.0168800
785.088	0.0167057
785.166	0.0165609
785.244	0.0163098
785.322	0.0160537
785.400	0.0159384
785.478	0.0156872
785.557	0.0158051
785.635	0.0155324
785.713	0.0157499
785.791	0.0158858
785.869	0.0159277
785.947	0.0159806
786.025	0.0158738
786.103	0.0163049
786.182	0.0163425
786.260	0.0166316
786.338	0.0169491
786.416	0.0171902
786.494	0.0175227
786.572	0.0177205
786.650	0.0179001
786.728	0.0180650
786.807	0.0184166
786.885	0.0182879
786.963	0.0185425
787.041	0.0185166
787.119	0.0183343
787.197	0.0182955
787.275	0.0182066
787.353	0.0180582
787.432	0.0177760
787.510	0.0175923
787.588	0.0172459
787.666	0.0168696
787.744	0.0166469
787.822	0.0163736
787.900	0.0160062
787.978	0.0157545
788.057	0.0156563
788.135	0.0156934
788.213	0.0155392
788.291	0.0156298
788.369	0.0159205
788.447	0.0159803
788.525	0.0160770
788.603	0.0162748
788.682	0.0167250
788.760	0.0170255
788.838	0.0172391
788.916	0.0175957
788.994	0.0176713
789.072	0.0178970
789.150	0.0179717
789.228	0.0181551
789.307	0.0182219
789.385	0.0182607
789.463	0.0182462
789.541	0.0182100
789.619	0.0180788
789.697	0.0179366
789.775	0.0179567
789.853	0.0178565
789.932	0.0175674
790.010	0.0171021
790.088	0.0170021
790.166	0.0168582
790.244	0.0165877
790.322	0.0164452
790.400	0.0164714
790.478	0.0163560
790.557	0.0160835
790.635	0.0159927
790.713	0.0161257
790.791	0.0161108
790.869	0.0162338
790.947	0.0162969
791.025	0.0164965
791.103	0.0164433
791.182	0.0166848
791.260	0.0168610
791.338	0.0171404
791.416	0.0172086
791.494	0.0174139
791.572	0.0175732
791.650	0.0176665
791.728	0.0176196
791.807	0.0175433
791.885	0.0176118
791.963	0.0176248
792.041	0.0173365
792.119	0.0173735
792.197	0.0170538
792.275	0.0170461
792.353	0.0168500
792.432	0.0165696
792.510	0.0164839
792.588	0.0165398
792.666	0.0163192
792.744	0.0162917
792.822	0.0162439
792.900	0.0161683
792.978	0.0162151
793.057	0.0163886
793.135	0.0164265
793.213	0.0164875
793.291	0.0166869
793.369	0.0168871
793.447	0.0170116
793.525	0.0171675
793.603	0.0171252
793.682	0.0174249
793.760	0.0175779
793.838	0.0176311
793.916	0.0177281
793.994	0.0176872
794.072	0.0177470
794.150	0.0178880
794.228	0.0177515
794.307	0.0177835
794.385	0.0178053
794.463	0.0177827
794.541	0.0174976
794.619	0.0175957
794.697	0.0173248
794.775	0.0172639
794.853	0.0171199
794.932	0.0169632
795.010	0.0169242
795.088	0.0168282
795.166	0.0164386
795.244	0.0163925
795.322	0.0162946
795.400	0.0161890
795.478	0.0162082
795.557	0.0160382
795.635	0.0160869
795.713	0.0161769
795.791	0.0162154
795.869	0.0161192
795.947	0.0162683
796.025	0.0165540
796.103	0.0166441
796.182	0.0166341
796.260	0.0168739
796.338	0.0170014
796.416	0.0169171
796.494	0.0171588
796.572	0.0172334
796.650	0.0172755
796.728	0.0173423
796.807	0.0171615
796.885	0.0171217
796.963	0.0171381
797.041	0.0169056
797.119	0.0168613
797.197	0.0166193
797.275	0.0166087
797.353	0.0165488
797.432	0.0164316
797.510	0.0164196
797.588	0.0162722
797.666	0.0163486
797.744	0.0164983
797.822	0.0166558
797.900	0.0168133
797.978	0.0168685
798.057	0.0170107
798.135	0.0172462
798.213	0.0175645
798.291	0.0177289
798.369	0.0179134
798.447	0.0180806
798.525	0.0180814
798.603	0.0182433
798.682	0.0182398
798.760	0.0181950
798.838	0.0180602
798.916	0.0180973
798.994	0.0180578
799.072	0.0179446
799.150	0.0176031
799.228	0.0175633
799.307	0.0172253
799.385	0.0170625
799.463	0.0168073
799.541	0.0166591
799.619	0.0165613
799.697	0.0163779
799.775	0.0160683
799.853	0.0158611
799.932	0.0156800
800.010	0.0158219
800.088	0.0156182
800.166	0.0155974
800.244	0.0156316
800.322	0.0157943
800.400	0.0156724
800.478	0.0157554
800.557	0.0158255
800.635	0.0159564
800.713	0.0161576
800.791	0.0164000
800.869	0.0165979
800.947	0.0167207
801.025	0.0169877
801.103	0.0171870
801.182	0.0173355
801.260	0.0176411
801.338	0.0179006
801.416	0.0182241
801.494	0.0180735
801.572	0.0182149
801.650	0.0182981
801.728	0.0182478
801.807	0.0183109
801.885	0.0182471
801.963	0.0181921
802.041	0.0181436
802.119	0.0179752
802.197	0.0177413
802.275	0.0178185
802.353	0.0173915
802.432	0.0171874
802.510	0.0170440
802.588	0.0169897
802.666	0.0166947
802.744	0.0165173
802.822	0.0165106
802.900	0.0165731
802.978	0.0163043
803.057	0.0161987
803.135	0.0163595
803.213	0.0164640
803.291	0.0163755
803.369	0.0163881
803.447	0.0164877
803.525	0.0164470
803.603	0.0167888
803.682	0.0169063
803.760	0.0168153
803.838	0.0169257
803.916	0.0170112
803.994	0.0170811
804.072	0.0170711
804.150	0.0170950
804.228	0.0171431
804.307	0.0170108
804.385	0.0171109
804.463	0.0170660
804.541	0.0169084
804.619	0.0170320
804.697	0.0168763
804.775	0.0168806
804.853	0.0169225
804.932	0.0166113
805.010	0.0167204
805.088	0.0167293
805.166	0.0167354
805.244	0.0167125
805.322	0.0166534
805.400	0.0165255
805.478	0.0166477
805.557	0.0167421
805.635	0.0165952
805.713	0.0166513
805.791	0.0167181
805.869	0.0168117
805.947	0.0168806
806.025	0.0170520
806.103	0.0172248
806.182	0.0174078
806.260	0.0173399
806.338	0.0175124
806.416	0.0176514
806.494	0.0177007
806.572	0.0179045
806.650	0.0179604
806.728	0.0179771
806.807	0.0181183
806.885	0.0181937
806.963	0.0181738
807.041	0.0182236
807.119	0.0182375
807.197	0.0182058
807.275	0.0181201
807.353	0.0180270
807.432	0.0178122
807.510	0.0176795
807.588	0.0175077
807.666	0.0173309
807.744	0.0170554
807.822	0.0168934
807.900	0.0166708
807.978	0.0165254
808.057	0.0164001
808.135	0.0162131
808.213	0.0162264
808.291	0.0159328
808.369	0.0159227
808.447	0.0158583
808.525	0.0157424
808.603	0.0158593
808.682	0.0158923
808.760	0.0160025
808.838	0.0160580
808.916	0.0161559
808.994	0.0163232
809.072	0.0164267
809.150	0.0163862
809.228	0.0165164
809.307	0.0166407
809.385	0.0166764
809.463	0.0166241
809.541	0.0166436
809.619	0.0166389
809.697	0.0165682
809.775	0.0166354
809.853	0.0165645
809.932	0.0164257
810.010	0.0164257
810.088	0.0165236
810.166	0.0164552
810.244	0.0165749
810.322	0.0166208
810.400	0.0167992
810.478	0.0169308
810.557	0.0170708
810.635	0.0173636
810.713	0.0174938
810.791	0.0176865
810.869	0.0177434
810.947	0.0179054
811.025	0.0182137
811.103	0.0183225
811.182	0.0183666
811.260	0.0182855
811.338	0.0183819
811.416	0.0183517
811.494	0.0182944
811.572	0.0183264
811.650	0.0181010
811.728	0.0180455
811.807	0.0179704
811.885	0.0177975
811.963	0.0175316
812.041	0.0175996
812.119	0.0174005
812.197	0.0171967
812.275	0.0168896
812.353	0.0169785
812.432	0.0166563
812.510	0.0166382
812.588	0.0166965
812.666	0.0165434
812.744	0.0165399
812.822	0.0165885
812.900	0.0165933
812.978	0.0166193
813.057	0.0166277
813.135	0.0166109
813.213	0.0164431
813.291	0.0165548
813.369	0.0164260
813.447	0.0166242
813.525	0.0166238
813.603	0.0162489
813.682	0.0163448
813.760	0.0163354
813.838	0.0163336
813.916	0.0163364
813.994	0.0163267
814.072	0.0162605
814.150	0.0162176
814.228	0.0162952
814.307	0.0163608
814.385	0.0164045
814.463	0.0166086
814.541	0.0165459
814.619	0.0166106
814.697	0.0166714
814.775	0.0168937
814.853	0.0169171
814.932	0.0168111
815.010	0.0170869
815.088	0.0171563
815.166	0.0171133
815.244	0.0170244
815.322	0.0172372
815.400	0.0172886
815.478	0.0172300
815.557	0.0173727
815.635	0.0172277
815.713	0.0171204
815.791	0.0172380
815.869	0.0173822
815.947	0.0171856
816.025	0.0171867
816.103	0.0175615
816.182	0.0174191
816.260	0.0175198
816.338	0.0176437
816.416	0.0177150
816.494	0.0177591
816.572	0.0178003
816.650	0.0179993
816.728	0.0178923
816.807	0.0178837
816.885	0.0178824
816.963	0.0178304
817.041	0.0177395
817.119	0.0177087
817.197	0.0177187
817.275	0.0173096
817.353	0.0171475
817.432	0.0170195
817.510	0.0170800
817.588	0.0166215
817.666	0.0165967
817.744	0.0163718
817.822	0.0162671
817.900	0.0161043
817.978	0.0162080
818.057	0.0160917
818.135	0.0162402
818.213	0.0162243
818.291	0.0163676
818.369	0.0163625
818.447	0.0163456
818.525	0.0163706
818.603	0.0164960
818.682	0.0164697
818.760	0.0165501
818.838	0.0164801
818.916	0.0165038
818.994	0.0165560
819.072	0.0165382
819.150	0.0163866
819.228	0.0162934
819.307	0.0163792
819.385	0.0162325
819.463	0.0161008
819.541	0.0161539
819.619	0.0161828
819.697	0.0161036
819.775	0.0161808
819.853	0.0161320
819.932	0.0162544
820.010	0.0163939
820.088	0.0164808
820.166	0.0166534
820.244	0.0166992
820.322	0.0169684
820.400	0.0171929
820.478	0.0172498
820.557	0.0173995
820.635	0.0175758
820.713	0.0177718
820.791	0.0179143
820.869	0.0179559
820.947	0.0178886
821.025	0.0180527
821.103	0.0180698
821.182	0.0180750
821.260	0.0179550
821.338	0.0180216
821.416	0.0177486
821.494	0.0178439
821.572	0.0179004
821.650	0.0176106
821.728	0.0173219
821.807	0.0174659
821.885	0.0173253
821.963	0.0173012
822.041	0.0173090
822.119	0.0171470
822.197	0.0169818
822.275	0.0170384
822.353	0.0168688
822.432	0.0168270
822.510	0.0167847
822.588	0.0169652
822.666	0.0167890
822.744	0.0168002
822.822	0.0168214
822.900	0.0167503
822.978	0.0168136
823.057	0.0168067
823.135	0.0168084
823.213	0.0168652
823.291	0.0169834
823.369	0.0168428
823.447	0.0169332
823.525	0.0169826
823.603	0.0169067
823.682	0.0170727
823.760	0.0172538
823.838	0.0171664
823.916	0.0171051
823.994	0.0171918
824.072	0.0171017
824.150	0.0170506
824.228	0.0168938
824.307	0.0168459
824.385	0.0168187
824.463	0.0167192
824.541	0.0165372
824.619	0.0164746
824.697	0.0163799
824.775	0.0163219
824.853	0.0161716
824.932	0.0162425
825.010	0.0162274
825.088	0.0164119
825.166	0.0162126
825.244	0.0162141
825.322	0.0162838
825.400	0.0164626
825.478	0.0164311
825.557	0.0165204
825.635	0.0166612
825.713	0.0166366
825.791	0.0168651
825.869	0.0168451
825.947	0.0169415
826.025	0.0172272
826.103	0.0171442
826.182	0.0170362
826.260	0.0173112
826.338	0.0172740
826.416	0.0173148
826.494	0.0172065
826.572	0.0171641
826.650	0.0171539
826.728	0.0171384
826.807	0.0170088
826.885	0.0170539
826.963	0.0170859
827.041	0.0169948
827.119	0.0168912
827.197	0.0169636
827.275	0.0170303
827.353	0.0170953
827.432	0.0172845
827.510	0.0172606
827.588	0.0172486
827.666	0.0173042
827.744	0.0173972
827.822	0.0174720
827.900	0.0175095
827.978	0.0175315
828.057	0.0176964
828.135	0.0173631
828.213	0.0174947
828.291	0.0175671
828.369	0.0174324
828.447	0.0175317
828.525	0.0174853
828.603	0.0173278
828.682	0.0173698
828.760	0.0174867
828.838	0.0173254
828.916	0.0173788
828.994	0.0172623
829.072	0.0171847
829.150	0.0172903
829.228	0.0171957
829.307	0.0170243
829.385	0.0170692
829.463	0.0169387
829.541	0.0168619
829.619	0.0168653
829.697	0.0168964
829.775	0.0168116
829.853	0.0166771
829.932	0.0166736
830.010	0.0166042
830.088	0.0164189
830.166	0.0163891
830.244	0.0161897
830.322	0.0162690
830.400	0.0163380
830.478	0.0162145
830.557	0.0161939
830.635	0.0161553
830.713	0.0162081
830.791	0.0162291
830.869	0.0162029
830.947	0.0163766
831.025	0.0163508
831.103	0.0166062
831.182	0.0166639
831.260	0.0167638
831.338	0.0167348
831.416	0.0168237
831.494	0.0170286
831.572	0.0169680
831.650	0.0171086
831.728	0.0171057
831.807	0.0170437
831.885	0.0172610
831.963	0.0173452
832.041	0.0173405
832.119	0.0171659
832.197	0.0172250
832.275	0.0173002
832.353	0.0172257
832.432	0.0171316
832.510	0.0170525
832.588	0.0170782
832.666	0.0170731
832.744	0.0170444
832.822	0.0171171
832.900	0.0169962
832.978	0.0169817
833.057	0.0170608
833.135	0.0170084
833.213	0.0170264
833.291	0.0172398
833.369	0.0172658
833.447	0.0173949
833.525	0.0173583
833.603	0.0174560
833.682	0.0174739
833.760	0.0175716
833.838	0.0175102
833.916	0.0174603
833.994	0.0174879
834.072	0.0173957
834.150	0.0173090
834.228	0.0173085
834.307	0.0171491
834.385	0.0172083
834.463	0.0171052
834.541	0.0169662
834.619	0.0168531
834.697	0.0166792
834.775	0.0168241
834.853	0.0166579
834.932	0.0165669
835.010	0.0166733
835.088	0.0164439
835.166	0.0165820
835.244	0.0165040
835.322	0.0165162
835.400	0.0167390
835.478	0.0165679
835.557	0.0166463
835.635	0.0167854
835.713	0.0166950
835.791	0.0168388
835.869	0.0167868
835.947	0.0168411
836.025	0.0167938
836.103	0.0167886
836.182	0.0167390
836.260	0.0167371
836.338	0.0164805
836.416	0.0165712
836.494	0.0167054
836.572	0.0165403
836.650	0.0166147
836.728	0.0165446
836.807	0.0165093
836.885	0.0164589
836.963	0.0165366
837.041	0.0167701
837.119	0.0165871
837.197	0.0166534
837.275	0.0167211
837.353	0.0168994
837.432	0.0168761
837.510	0.0169090
837.588	0.0167857
837.666	0.0170613
837.744	0.0170073
837.822	0.0170656
837.900	0.0171698
837.978	0.0170673
838.057	0.0172316
838.135	0.0172606
838.213	0.0172291
838.291	0.0173290
838.369	0.0172766
838.447	0.0171421
838.525	0.0173100
838.603	0.0173150
838.682	0.0174244
838.760	0.0173625
838.838	0.0173329
838.916	0.0172494
838.994	0.0172185
839.072	0.0171509
839.150	0.0171959
839.228	0.0172718
839.307	0.0171674
839.385	0.0169765
839.463	0.0169772
839.541	0.0170113
839.619	0.0170544
839.697	0.0170144
839.775	0.0169456
839.853	0.0168921
839.932	0.0170496
840.010	0.0170576
840.088	0.0169086
840.166	0.0172343
840.244	0.0172825
840.322	0.0171519
840.400	0.0171840
840.478	0.0172356
840.557	0.0172491
840.635	0.0172195
840.713	0.0173675
840.791	0.0172545
840.869	0.0172295
840.947	0.0171355
841.025	0.0171652
841.103	0.0171855
841.182	0.0170506
841.260	0.0169577
841.338	0.0168782
841.416	0.0169269
841.494	0.0168696
841.572	0.0169587
841.650	0.0168253
841.728	0.0165139
841.807	0.0166978
841.885	0.0167501
841.963	0.0167764
842.041	0.0165018
842.119	0.0168149
842.197	0.0167171
842.275	0.0166048
842.353	0.0166930
842.432	0.0168544
842.510	0.0168822
842.588	0.0169401
842.666	0.0170192
842.744	0.0170365
842.822	0.0169994
842.900	0.0168904
842.978	0.0171189
843.057	0.0170964
843.135	0.0173092
843.213	0.0171944
843.291	0.0171513
843.369	0.0173523
843.447	0.0172794
843.525	0.0173288
843.603	0.0172641
843.682	0.0173184
843.760	0.0172448
843.838	0.0173395
843.916	0.0172159
843.994	0.0172699
844.072	0.0173354
844.150	0.0173330
844.228	0.0173446
844.307	0.0171571
844.385	0.0171116
844.463	0.0172878
844.541	0.0171850
844.619	0.0171194
844.697	0.0171407
844.775	0.0172221
844.853	0.0169971
844.932	0.0169772
845.010	0.0169978
845.088	0.0171768
845.166	0.0169530
845.244	0.0169759
845.322	0.0170751
845.400	0.0170436
845.478	0.0169349
845.557	0.0171193
845.635	0.0171056
845.713	0.0171112
845.791	0.0172662
845.869	0.0173087
845.947	0.0175443
846.025	0.0174620
846.103	0.0175985
846.182	0.0175301
846.260	0.0175625
846.338	0.0175256
846.416	0.0174502
846.494	0.0173568
846.572	0.0174280
846.650	0.0172425
846.728	0.0171406
846.807	0.0171434
846.885	0.0170142
846.963	0.0167765
847.041	0.0168063
847.119	0.0168904
847.197	0.0167949
847.275	0.0166441
847.353	0.0166717
847.432	0.0166164
847.510	0.0165460
847.588	0.0166438
847.666	0.0165316
847.744	0.0166760
847.822	0.0168629
847.900	0.0168456
847.978	0.0167739
848.057	0.0169036
848.135	0.0171113
848.213	0.0170509
848.291	0.0170444
848.369	0.0172182
848.447	0.0171684
848.525	0.0172103
848.603	0.0172569
848.682	0.0171678
848.760	0.0171872
848.838	0.0170690
848.916	0.0170966
848.994	0.0171301
849.072	0.0171320
849.150	0.0170196
849.228	0.0171945
849.307	0.0170360
849.385	0.0172327
849.463	0.0170853
849.541	0.0170474
849.619	0.0169874
849.697	0.0171846
849.775	0.0170449
849.853	0.0171051
849.932	0.0169172
850.010	0.0170462
850.088	0.0171912
850.166	0.0170837
850.244	0.0170180
850.322	0.0170662
850.400	0.0170095
850.478	0.0170378
850.557	0.0168970
850.635	0.0170062
850.713	0.0171115
850.791	0.0169625
850.869	0.0169138
850.947	0.0170036
851.025	0.0170786
851.103	0.0169555
851.182	0.0168297
851.260	0.0168040
851.338	0.0169161
851.416	0.0168211
851.494	0.0170215
851.572	0.0169677
851.650	0.0170380
851.728	0.0169116
851.807	0.0169508
851.885	0.0171309
851.963	0.0169528
852.041	0.0171828
852.119	0.0172101
852.197	0.0172481
852.275	0.0171046
852.353	0.0171832
852.432	0.0171365
852.510	0.0172906
852.588	0.0170878
852.666	0.0172475
852.744	0.0171947
852.822	0.0171591
852.900	0.0170370
852.978	0.0170342
853.057	0.0171632
853.135	0.0170277
853.213	0.0169404
853.291	0.0169578
853.369	0.0168853
853.447	0.0169102
853.525	0.0169489
853.603	0.0167865
853.682	0.0168073
853.760	0.0166528
853.838	0.0165981
853.916	0.0167783
853.994	0.0166512
854.072	0.0166904
854.150	0.0167465
854.228	0.0166834
854.307	0.0166582
854.385	0.0167622
854.463	0.0168703
854.541	0.0168164
854.619	0.0168961
854.697	0.0169531
854.775	0.0170377
854.853	0.0169366
854.932	0.0169417
855.010	0.0171050
855.088	0.0171201
855.166	0.0172262
855.244	0.0170581
855.322	0.0171200
855.400	0.0171127
855.478	0.0169660
855.557	0.0171711
855.635	0.0173063
855.713	0.0170389
855.791	0.0171606
855.869	0.0171680
855.947	0.0171309
856.025	0.0170866
856.103	0.0171062
856.182	0.0170265
856.260	0.0169747
856.338	0.0168968
856.416	0.0169801
856.494	0.0169289
856.572	0.0169568
856.650	0.0168066
856.728	0.0168934
856.807	0.0168884
856.885	0.0168761
856.963	0.0169115
857.041	0.0168944
857.119	0.0170374
857.197	0.0170192
857.275	0.0169183
857.353	0.0169701
857.432	0.0170269
857.510	0.0171163
857.588	0.0170070
857.666	0.0168698
857.744	0.0170492
857.822	0.0170950
857.900	0.0169711
857.978	0.0169367
858.057	0.0168468
858.135	0.0168131
858.213	0.0169185
858.291	0.0170631
858.369	0.0169709
858.447	0.0169565
858.525	0.0170200
858.603	0.0170175
858.682	0.0171246
858.760	0.0171565
858.838	0.0172182
858.916	0.0173903
858.994	0.0172060
859.072	0.0171481
859.150	0.0171859
859.228	0.0170873
859.307	0.0170808
859.385	0.0171348
859.463	0.0170287
859.541	0.0170915
859.619	0.0171455
859.697	0.0169510
859.775	0.0168979
859.853	0.0168211
859.932	0.0169484
860.010	0.0166805
860.088	0.0166252
860.166	0.0167098
860.244	0.0166478
860.322	0.0167770
860.400	0.0167435
860.478	0.0167518
860.557	0.0168498
860.635	0.0170124
860.713	0.0169247
860.791	0.0169870
860.869	0.0170939
860.947	0.0170844
861.025	0.0171111
861.103	0.0171048
861.182	0.0171471
861.260	0.0172055
861.338	0.0172796
861.416	0.0173177
861.494	0.0171957
861.572	0.0172913
861.650	0.0173185
861.728	0.0173011
861.807	0.0171214
861.885	0.0170703
861.963	0.0170993
862.041	0.0169608
862.119	0.0170899
862.197	0.0171750
862.275	0.0169252
862.353	0.0169526
862.432	0.0168696
862.510	0.0168929
862.588	0.0169146
862.666	0.0171146
862.744	0.0171246
862.822	0.0170138
862.900	0.0171922
862.978	0.0170325
863.057	0.0172139
863.135	0.0171261
863.213	0.0171606
863.291	0.0172145
863.369	0.0172242
863.447	0.0171741
863.525	0.0170926
863.603	0.0172205
863.682	0.0170406
863.760	0.0171170
863.838	0.0170636
863.916	0.0171358
863.994	0.0171004
864.072	0.0169938
864.150	0.0170791
864.228	0.0171422
864.307	0.0170970
864.385	0.0169291
864.463	0.0170555
864.541	0.0172222
864.619	0.0171762
864.697	0.0172414
864.775	0.0171337
864.853	0.0173491
864.932	0.0172143
865.010	0.0171831
865.088	0.0172411
865.166	0.0171857
865.244	0.0173215
865.322	0.0173605
865.400	0.0172587
865.478	0.0174019
865.557	0.0174035
865.635	0.0171107
865.713	0.0172549
865.791	0.0173362
865.869	0.0171266
865.947	0.0170425
866.025	0.0170425
866.103	0.0169207
866.182	0.0169799
866.260	0.0169234
866.338	0.0167575
866.416	0.0168894
866.494	0.0169035
866.572	0.0168023
866.650	0.0167204
866.728	0.0168555
866.807	0.0169176
866.885	0.0168823
866.963	0.0170475
867.041	0.0170116
867.119	0.0168787
867.197	0.0170851
867.275	0.0170938
867.353	0.0171928
867.432	0.0172327
867.510	0.0172374
867.588	0.0172675
867.666	0.0172936
867.744	0.0173466
867.822	0.0172366
867.900	0.0171992
867.978	0.0172315
868.057	0.0172754
868.135	0.0172337
868.213	0.0171182
868.291	0.0171147
868.369	0.0170953
868.447	0.0170168
868.525	0.0170628
868.603	0.0171236
868.682	0.0171362
868.760	0.0170219
868.838	0.0170040
868.916	0.0170662
868.994	0.0168523
869.072	0.0169856
869.150	0.0168709
869.228	0.0168348
869.307	0.0169621
869.385	0.0169037
869.463	0.0166514
869.541	0.0167393
869.619	0.0166416
869.697	0.0168097
869.775	0.0167598
869.853	0.0166317
869.932	0.0166614
870.010	0.0167324
870.088	0.0168275
870.166	0.0167826
870.244	0.0168099
870.322	0.0167152
870.400	0.0167915
870.478	0.0168420
870.557	0.0168600
870.635	0.0170528
870.713	0.0170100
870.791	0.0171699
870.869	0.0170364
870.947	0.0172671
871.025	0.0172319
871.103	0.0171432
871.182	0.0172368
871.260	0.0172799
871.338	0.0173515
871.416	0.0171806
871.494	0.0172967
871.572	0.0174706
871.650	0.0173754
871.728	0.0172424
871.807	0.0171342
871.885	0.0172363
871.963	0.0172304
872.041	0.0172442
872.119	0.0171482
872.197	0.0171368
872.275	0.0170710
872.353	0.0170263
872.432	0.0171331
872.510	0.0170437
872.588	0.0171423
872.666	0.0170781
872.744	0.0170235
872.822	0.0170285
872.900	0.0169451
872.978	0.0169534
873.057	0.0170032
873.135	0.0168182
873.213	0.0168184
873.291	0.0167906
873.369	0.0167695
873.447	0.0168039
873.525	0.0167159
873.603	0.0167166
873.682	0.0169107
873.760	0.0167362
873.838	0.0169241
873.916	0.0168900
873.994	0.0168262
874.072	0.0167429
874.150	0.0168493
874.228	0.0167766
874.307	0.0169065
874.385	0.0169221
874.463	0.0167392
874.541	0.0167456
874.619	0.0169136
874.697	0.0167960
874.775	0.0168193
874.853	0.0168269
874.932	0.0168625
875.010	0.0168360
875.088	0.0168983
875.166	0.0168390
875.244	0.0167379
875.322	0.0169231
875.400	0.0168028
875.478	0.0168069
875.557	0.0169133
875.635	0.0168923
875.713	0.0168559
875.791	0.0168641
875.869	0.0170461
875.947	0.0169903
876.025	0.0170185
876.103	0.0171197
876.182	0.0170697
876.260	0.0170245
876.338	0.0171199
876.416	0.0169573
876.494	0.0172110
876.572	0.0171565
876.650	0.0172259
876.728	0.0172925
876.807	0.0172760
876.885	0.0172531
876.963	0.0172991
877.041	0.0171231
877.119	0.0172138
877.197	0.0172669
877.275	0.0173891
877.353	0.0173064
877.432	0.0172189
877.510	0.0173953
877.588	0.0173143
877.666	0.0173332
877.744	0.0172082
877.822	0.0172841
877.900	0.0172517
877.978	0.0171630
878.057	0.0172770
878.135	0.0173250
878.213	0.0171529
878.291	0.0171682
878.369	0.0170434
878.447	0.0170766
878.525	0.0170354
878.603	0.0170606
878.682	0.0170384
878.760	0.0170609
878.838	0.0171139
878.916	0.0168829
878.994	0.0169346
879.072	0.0170081
879.150	0.0169963
879.228	0.0168150
879.307	0.0167603
879.385	0.0167876
879.463	0.0168696
879.541	0.0168391
879.619	0.0169118
879.697	0.0166773
879.775	0.0166396
879.853	0.0166415
879.932	0.0167456
880.010	0.0167257
880.088	0.0167925
880.166	0.0167706
880.244	0.0168510
880.322	0.0169202
880.400	0.0169745
880.478	0.0169030
880.557	0.0169693
880.635	0.0170436
880.713	0.0169345
880.791	0.0171001
880.869	0.0169351
880.947	0.0169051
881.025	0.0169721
881.103	0.0168480
881.182	0.0168924
881.260	0.0170715
881.338	0.0168998
881.416	0.0168845
881.494	0.0169513
881.572	0.0168423
881.650	0.0167558
881.728	0.0169720
881.807	0.0169645
881.885	0.0170279
881.963	0.0170259
882.041	0.0170264
882.119	0.0170963
882.197	0.0169802
882.275	0.0170634
882.353	0.0171937
882.432	0.0171591
882.510	0.0172163
882.588	0.0172079
882.666	0.0172575
882.744	0.0172885
882.822	0.0171670
882.900	0.0172449
882.978	0.0174558
883.057	0.0173830
883.135	0.0172408
883.213	0.0172248
883.291	0.0172268
883.369	0.0173048
883.447	0.0171754
883.525	0.0171935
883.603	0.0171208
883.682	0.0171633
883.760	0.0170842
883.838	0.0171897
883.916	0.0172713
883.994	0.0171739
884.072	0.0171138
884.150	0.0170475
884.228	0.0169543
884.307	0.0171549
884.385	0.0171378
884.463	0.0171091
884.541	0.0171446
884.619	0.0171395
884.697	0.0170926
884.775	0.0171021
884.853	0.0169646
884.932	0.0170551
885.010	0.0170785
885.088	0.0170141
885.166	0.0169006
885.244	0.0168298
885.322	0.0169695
885.400	0.0169843
885.478	0.0168616
885.557	0.0168689
885.635	0.0170235
885.713	0.0169345
885.791	0.0168007
885.869	0.0167373
885.947	0.0167661
886.025	0.0168514
886.103	0.0170068
886.182	0.0169775
886.260	0.0168713
886.338	0.0169455
886.416	0.0170268
886.494	0.0169532
886.572	0.0170724
886.650	0.0170074
886.728	0.0170020
886.807	0.0168041
886.885	0.0169622
886.963	0.0169695
887.041	0.0166391
887.119	0.0168770
887.197	0.0169690
887.275	0.0167572
887.353	0.0168645
887.432	0.0167949
887.510	0.0167889
887.588	0.0167123
887.666	0.0167040
887.744	0.0168470
887.822	0.0167651
887.900	0.0168614
887.978	0.0169981
888.057	0.0171068
888.135	0.0171138
888.213	0.0171297
888.291	0.0171244
888.369	0.0172856
888.447	0.0173976
888.525	0.0173214
888.603	0.0175129
888.682	0.0174358
888.760	0.0176279
888.838	0.0174606
888.916	0.0174962
888.994	0.0173552
889.072	0.0172939
889.150	0.0173451
889.228	0.0172176
889.307	0.0172026
889.385	0.0171086
889.463	0.0169489
889.541	0.0169648
889.619	0.0170018
889.697	0.0170378
889.775	0.0168979
889.853	0.0169119
889.932	0.0168678
890.010	0.0167925
890.088	0.0168063
890.166	0.0168828
890.244	0.0168798
890.322	0.0169734
890.400	0.0169661
890.478	0.0169668
890.557	0.0171155
890.635	0.0170664
890.713	0.0169727
890.791	0.0170989
890.869	0.0171681
890.947	0.0170991
891.025	0.0171764
891.103	0.0170109
891.182	0.0170881
891.260	0.0170820
891.338	0.0170697
891.416	0.0168229
891.494	0.0169574
891.572	0.0168923
891.650	0.0167023
891.728	0.0167818
891.807	0.0166058
891.885	0.0166071
891.963	0.0166908
892.041	0.0166003
892.119	0.0164730
892.197	0.0165365
892.275	0.0164803
892.353	0.0165907
892.432	0.0166489
892.510	0.0166523
892.588	0.0166726
892.666	0.0169588
892.744	0.0168753
892.822	0.0168548
892.900	0.0169568
892.978	0.0169602
893.057	0.0169384
893.135	0.0171016
893.213	0.0171657
893.291	0.0171980
893.369	0.0172021
893.447	0.0169925
893.525	0.0171344
893.603	0.0172015
893.682	0.0171055
893.760	0.0170551
893.838	0.0171449
893.916	0.0170705
893.994	0.0168526
894.072	0.0168878
894.150	0.0169658
894.228	0.0169446
894.307	0.0168758
894.385	0.0168258
894.463	0.0169035
894.541	0.0169647
894.619	0.0168295
894.697	0.0169837
894.775	0.0170741
894.853	0.0171067
894.932	0.0171001
895.010	0.0173202
895.088	0.0172829
895.166	0.0173027
895.244	0.0173541
895.322	0.0173478
895.400	0.0173580
895.478	0.0174951
895.557	0.0174812
895.635	0.0173429
895.713	0.0173978
895.791	0.0172556
895.869	0.0171335
895.947	0.0170860
896.025	0.0169547
896.103	0.0167603
896.182	0.0167272
896.260	0.0167227
896.338	0.0164648
896.416	0.0165778
896.494	0.0164696
896.572	0.0163950
896.650	0.0164200
896.728	0.0165408
896.807	0.0163981
896.885	0.0164886
896.963	0.0164005
897.041	0.0165918
897.119	0.0166814
897.197	0.0167096
897.275	0.0166400
897.353	0.0167957
897.432	0.0169096
897.510	0.0169318
897.588	0.0169988
897.666	0.0170766
897.744	0.0169266
897.822	0.0170393
897.900	0.0170855
897.978	0.0170514
898.057	0.0170766
898.135	0.0169003
898.213	0.0169493
898.291	0.0170928
898.369	0.0168679
898.447	0.0167706
898.525	0.0167557
898.603	0.0169308
898.682	0.0169022
898.760	0.0168945
898.838	0.0169209
898.916	0.0169099
898.994	0.0169369
899.072	0.0170087
899.150	0.0169282
899.228	0.0170904
899.307	0.0168954
899.385	0.0171117
899.463	0.0171524
899.541	0.0169962
899.619	0.0171837
899.697	0.0171843
899.775	0.0172128
899.853	0.0170672
899.932	0.0170146
900.010	0.0171247
900.088	0.0171406
900.166	0.0169807
900.244	0.0169830
900.322	0.0169840
900.400	0.0169148
900.478	0.0169239
900.557	0.0169211
900.635	0.0167312
900.713	0.0167303
900.791	0.0167632
900.869	0.0167387
900.947	0.0167605
901.025	0.0168505
901.103	0.0168578
901.182	0.0167743
901.260	0.0170632
901.338	0.0168462
901.416	0.0169923
901.494	0.0167783
901.572	0.0170989
901.650	0.0171206
901.728	0.0172658
901.807	0.0172031
901.885	0.0171907
901.963	0.0170396
902.041	0.0171418
902.119	0.0172231
902.197	0.0172674
902.275	0.0171226
902.353	0.0171436
902.432	0.0171735
902.510	0.0171252
902.588	0.0169632
902.666	0.0169511
902.744	0.0170023
902.822	0.0169347
902.900	0.0167977
902.978	0.0170861
903.057	0.0167981
903.135	0.0169013
903.213	0.0170080
903.291	0.0167917
903.369	0.0168851
903.447	0.0169128
903.525	0.0168822
903.603	0.0168668
903.682	0.0169701
903.760	0.0169231
903.838	0.0169430
903.916	0.0169115
903.994	0.0169628
904.072	0.0170683
904.150	0.0169483
904.228	0.0169675
904.307	0.0168951
904.385	0.0170454
904.463	0.0169123
904.541	0.0168560
904.619	0.0170254
904.697	0.0168341
904.775	0.0165338
904.853	0.0168175
904.932	0.0166969
905.010	0.0168169
905.088	0.0168809
905.166	0.0167505
905.244	0.0167053
905.322	0.0167097
905.400	0.0167242
905.478	0.0167143
905.557	0.0167933
905.635	0.0169166
905.713	0.0168795
905.791	0.0169086
905.869	0.0168426
905.947	0.0167861
906.025	0.0171144
906.103	0.0171046
906.182	0.0170983
906.260	0.0171587
906.338	0.0171326
906.416	0.0171008
906.494	0.0172300
906.572	0.0172159
906.650	0.0172045
906.728	0.0172227
906.807	0.0172389
906.885	0.0171808
906.963	0.0170916
907.041	0.0172564
907.119	0.0172000
907.197	0.0172425
907.275	0.0172902
907.353	0.0171806
907.432	0.0172198
907.510	0.0172900
907.588	0.0173503
907.666	0.0171905
907.744	0.0173065
907.822	0.0173598
907.900	0.0174754
907.978	0.0175826
908.057	0.0175224
908.135	0.0175446
908.213	0.0175709
908.291	0.0176994
908.369	0.0175225
908.447	0.0176070
908.525	0.0175201
908.603	0.0176549
908.682	0.0174087
908.760	0.0174139
908.838	0.0173350
908.916	0.0171140
908.994	0.0169950
909.072	0.0171185
909.150	0.0170966
909.228	0.0167429
909.307	0.0168264
909.385	0.0167533
909.463	0.0168227
909.541	0.0167180
909.619	0.0167813
909.697	0.0166958
909.775	0.0166601
909.853	0.0166832
909.932	0.0166570
910.010	0.0167002
910.088	0.0166915
910.166	0.0167850
910.244	0.0166868
910.322	0.0166682
910.400	0.0166421
910.478	0.0167570
910.557	0.0168760
910.635	0.0167821
910.713	0.0167382
910.791	0.0167473
910.869	0.0167474
910.947	0.0167834
911.025	0.0168213
911.103	0.0168682
911.182	0.0166658
911.260	0.0167566
911.338	0.0168806
911.416	0.0168509
911.494	0.0169521
911.572	0.0170308
911.650	0.0168945
911.728	0.0170979
911.807	0.0170976
911.885	0.0171930
911.963	0.0172193
912.041	0.0172616
912.119	0.0172614
912.197	0.0171804
912.275	0.0172305
912.353	0.0172847
912.432	0.0174173
912.510	0.0174105
912.588	0.0174992
912.666	0.0176126
912.744	0.0174682
912.822	0.0174217
912.900	0.0175194
912.978	0.0175164
913.057	0.0175134
913.135	0.0175156
913.213	0.0174843
913.291	0.0174183
913.369	0.0174454
913.447	0.0173844
913.525	0.0173083
913.603	0.0174159
913.682	0.0171449
913.760	0.0171687
913.838	0.0170950
913.916	0.0173248
913.994	0.0170347
914.072	0.0170276
914.150	0.0170354
914.228	0.0172019
914.307	0.0171111
914.385	0.0171805
914.463	0.0171589
914.541	0.0170109
914.619	0.0168887
914.697	0.0170113
914.775	0.0168833
914.853	0.0169309
914.932	0.0169321
915.010	0.0168323
915.088	0.0167530
915.166	0.0168475
915.244	0.0167220
915.322	0.0166016
915.400	0.0166846
915.478	0.0166191
915.557	0.0166630
915.635	0.0165449
915.713	0.0165827
915.791	0.0165549
915.869	0.0165857
915.947	0.0165807
916.025	0.0166185
916.103	0.0164793
916.182	0.0165484
916.260	0.0166399
916.338	0.0165494
916.416	0.0165939
916.494	0.0164058
916.572	0.0165223
916.650	0.0166338
916.728	0.0166674
916.807	0.0166617
916.885	0.0166242
916.963	0.0167159
917.041	0.0166093
917.119	0.0166492
917.197	0.0168053
917.275	0.0168064
917.353	0.0167415
917.432	0.0167633
917.510	0.0169219
917.588	0.0168953
917.666	0.0168001
917.744	0.0168290
917.822	0.0169988
917.900	0.0170300
917.978	0.0170731
918.057	0.0170081
918.135	0.0171246
918.213	0.0170119
918.291	0.0170642
918.369	0.0171542
918.447	0.0170817
918.525	0.0171407
918.603	0.0171850
918.682	0.0171492
918.760	0.0171904
918.838	0.0172791
918.916	0.0172363
918.994	0.0172169
919.072	0.0172762
919.150	0.0172990
919.228	0.0171938
919.307	0.0172820
919.385	0.0172556
919.463	0.0172588
919.541	0.0173825
919.619	0.0172734
919.697	0.0171834
919.775	0.0171589
919.853	0.0170901
919.932	0.0171562
920.010	0.0170434
920.088	0.0169622
920.166	0.0170354
920.244	0.0171238
920.322	0.0170683
920.400	0.0170252
920.478	0.0171757
920.557	0.0170725
920.635	0.0171477
920.713	0.0169820
920.791	0.0169491
920.869	0.0169844
920.947	0.0169334
921.025	0.0169743
921.103	0.0169883
921.182	0.0167719
921.260	0.0168286
921.338	0.0169405
921.416	0.0168315
921.494	0.0167293
921.572	0.0166988
921.650	0.0168515
921.728	0.0167019
921.807	0.0166673
921.885	0.0167770
921.963	0.0168227
922.041	0.0169681
922.119	0.0170055
922.197	0.0169473
922.275	0.0170319
922.353	0.0168547
922.432	0.0169108
922.510	0.0168831
922.588	0.0169069
922.666	0.0169598
922.744	0.0169074
922.822	0.0168172
922.900	0.0167630
922.978	0.0168303
923.057	0.0168358
923.135	0.0168452
923.213	0.0168343
923.291	0.0167241
923.369	0.0167669
923.447	0.0168056
923.525	0.0167314
923.603	0.0168726
923.682	0.0168553
923.760	0.0168995
923.838	0.0167341
923.916	0.0168378
923.994	0.0168983
924.072	0.0167024
924.150	0.0167042
924.228	0.0169074
924.307	0.0169824
924.385	0.0169782
924.463	0.0170467
924.541	0.0171671
924.619	0.0171168
924.697	0.0171738
924.775	0.0171411
924.853	0.0172721
924.932	0.0173647
925.010	0.0173392
925.088	0.0174088
925.166	0.0173996
925.244	0.0173268
925.322	0.0172333
925.400	0.0173672
925.478	0.0171848
925.557	0.0172887
925.635	0.0172608
925.713	0.0170847
925.791	0.0173012
925.869	0.0170876
925.947	0.0170365
926.025	0.0170924
926.103	0.0171341
926.182	0.0170973
926.260	0.0171416
926.338	0.0170963
926.416	0.0171091
926.494	0.0170722
926.572	0.0170634
926.650	0.0171408
926.728	0.0170750
926.807	0.0170200
926.885	0.0170724
926.963	0.0172085
927.041	0.0170381
927.119	0.0171117
927.197	0.0171336
927.275	0.0169716
927.353	0.0169901
927.432	0.0171204
927.510	0.0169867
927.588	0.0169997
927.666	0.0168941
927.744	0.0168137
927.822	0.0169333
927.900	0.0168286
927.978	0.0169299
928.057	0.0169422
928.135	0.0169065
928.213	0.0168387
928.291	0.0168226
928.369	0.0170045
928.447	0.0170318
928.525	0.0169374
928.603	0.0168739
928.682	0.0168901
928.760	0.0169430
928.838	0.0170691
928.916	0.0171170
928.994	0.0171187
929.072	0.0169834
929.150	0.0170219
929.228	0.0169913
929.307	0.0170306
929.385	0.0172503
929.463	0.0170425
929.541	0.0170399
929.619	0.0170829
929.697	0.0170473
929.775	0.0170808
929.853	0.0171899
929.932	0.0171925
930.010	0.0171185
930.088	0.0171433
930.166	0.0170708
930.244	0.0170525
930.322	0.0169861
930.400	0.0171075
930.478	0.0169895
930.557	0.0169063
930.635	0.0170303
930.713	0.0170410
930.791	0.0170235
930.869	0.0169990
930.947	0.0171208
931.025	0.0171787
931.103	0.0171630
931.182	0.0171451
931.260	0.0171156
931.338	0.0171586
931.416	0.0172218
931.494	0.0171579
931.572	0.0172890
931.650	0.0174300
931.728	0.0173114
931.807	0.0173135
931.885	0.0173125
931.963	0.0171902
932.041	0.0172874
932.119	0.0172154
932.197	0.0171744
932.275	0.0170834
932.353	0.0170495
932.432	0.0170691
932.510	0.0171282
932.588	0.0171647
932.666	0.0170377
932.744	0.0169493
932.822	0.0170829
932.900	0.0168896
932.978	0.0169218
933.057	0.0170103
933.135	0.0168843
933.213	0.0168548
933.291	0.0166764
933.369	0.0169132
933.447	0.0168697
933.525	0.0169320
933.603	0.0169033
933.682	0.0169747
933.760	0.0169998
933.838	0.0169704
933.916	0.0170087
933.994	0.0169804
934.072	0.0171062
934.150	0.0170015
934.228	0.0170802
934.307	0.0171793
934.385	0.0171118
934.463	0.0171016
934.541	0.0170139
934.619	0.0171278
934.697	0.0170795
934.775	0.0170459
934.853	0.0169051
934.932	0.0170361
935.010	0.0170010
935.088	0.0169846
935.166	0.0169607
935.244	0.0170081
935.322	0.0169395
935.400	0.0169856
935.478	0.0170089
935.557	0.0168169
935.635	0.0170441
935.713	0.0170122
935.791	0.0170334
935.869	0.0169833
935.947	0.0169702
936.025	0.0170805
936.103	0.0171625
936.182	0.0168697
936.260	0.0169407
936.338	0.0170155
936.416	0.0170700
936.494	0.0170995
936.572	0.0168951
936.650	0.0169836
936.728	0.0170116
936.807	0.0169755
936.885	0.0170692
936.963	0.0170996
937.041	0.0169992
937.119	0.0169955
937.197	0.0169910
937.275	0.0171370
937.353	0.0170769
937.432	0.0172136
937.510	0.0170846
937.588	0.0170374
937.666	0.0170689
937.744	0.0170934
937.822	0.0170967
937.900	0.0170945
937.978	0.0171515
938.057	0.0172072
938.135	0.0171210
938.213	0.0171442
938.291	0.0169482
938.369	0.0169969
938.447	0.0170856
938.525	0.0170171
938.603	0.0170809
938.682	0.0170354
938.760	0.0168580
938.838	0.0169675
938.916	0.0170067
938.994	0.0170546
939.072	0.0169215
939.150	0.0170179
939.228	0.0171542
939.307	0.0171083
939.385	0.0171032
939.463	0.0169553
939.541	0.0171695
939.619	0.0170267
939.697	0.0170370
939.775	0.0171092
939.853	0.0171358
939.932	0.0172449
940.010	0.0171370
940.088	0.0170501
940.166	0.0171033
940.244	0.0171227
940.322	0.0171255
940.400	0.0169629
940.478	0.0169154
940.557	0.0170074
940.635	0.0169347
940.713	0.0167776
940.791	0.0169182
940.869	0.0168033
940.947	0.0168948
941.025	0.0169597
941.103	0.0169790
941.182	0.0168379
941.260	0.0168808
941.338	0.0169517
941.416	0.0170367
941.494	0.0169501
941.572	0.0169730
941.650	0.0169633
941.728	0.0169785
941.807	0.0168152
941.885	0.0170100
941.963	0.0170512
942.041	0.0170428
942.119	0.0169227
942.197	0.0169288
942.275	0.0169901
942.353	0.0169399
942.432	0.0170610
942.510	0.0170448
942.588	0.0170049
942.666	0.0169168
942.744	0.0169926
942.822	0.0169317
942.900	0.0172080
942.978	0.0169769
943.057	0.0169073
943.135	0.0172059
943.213	0.0170693
943.291	0.0170952
943.369	0.0170757
943.447	0.0170807
943.525	0.0171646
943.603	0.0171250
943.682	0.0170922
943.760	0.0172682
943.838	0.0171857
943.916	0.0171684
943.994	0.0172205
944.072	0.0171268
944.150	0.0171738
944.228	0.0171249
944.307	0.0172369
944.385	0.0172251
944.463	0.0171597
944.541	0.0172015
944.619	0.0173540
944.697	0.0171442
944.775	0.0172125
944.853	0.0172559
944.932	0.0170415
945.010	0.0170392
945.088	0.0171596
945.166	0.0173274
945.244	0.0173371
945.322	0.0171324
945.400	0.0171529
945.478	0.0171432
945.557	0.0170635
945.635	0.0171799
945.713	0.0170263
945.791	0.0170776
945.869	0.0170999
945.947	0.0170046
946.025	0.0169474
946.103	0.0169417
946.182	0.0169651
946.260	0.0168909
946.338	0.0168175
946.416	0.0169993
946.494	0.0169748
946.572	0.0168179
946.650	0.0169000
946.728	0.0168310
946.807	0.0167342
946.885	0.0167676
946.963	0.0168062
947.041	0.0167241
947.119	0.0168052
947.197	0.0167586
947.275	0.0166745
947.353	0.0166785
947.432	0.0166933
947.510	0.0168303
947.588	0.0168409
947.666	0.0169167
947.744	0.0168667
947.822	0.0168314
947.900	0.0169322
947.978	0.0168848
948.057	0.0170696
948.135	0.0170290
948.213	0.0169210
948.291	0.0169901
948.369	0.0170683
948.447	0.0171278
948.525	0.0169839
948.603	0.0171387
948.682	0.0171973
948.760	0.0172205
948.838	0.0171967
948.916	0.0171213
948.994	0.0172732
949.072	0.0172054
949.150	0.0172485
949.228	0.0172144
949.307	0.0171293
949.385	0.0171952
949.463	0.0173347
949.541	0.0171877
949.619	0.0170988
949.697	0.0171959
949.775	0.0170526
949.853	0.0170116
949.932	0.0169978
950.010	0.0170165
950.088	0.0171684
950.166	0.0171724
950.244	0.0170688
950.322	0.0171044
950.400	0.0171241
950.478	0.0170847
950.557	0.0170791
950.635	0.0171850
950.713	0.0170910
950.791	0.0170000
950.869	0.0171278
950.947	0.0169495
951.025	0.0170857
951.103	0.0169317
951.182	0.0170126
951.260	0.0170241
951.338	0.0169247
951.416	0.0169232
951.494	0.0168217
951.572	0.0167883
951.650	0.0169955
951.728	0.0169226
951.807	0.0170441
951.885	0.0167877
951.963	0.0169324
952.041	0.0169113
952.119	0.0169078
952.197	0.0168309
952.275	0.0168285
952.353	0.0169318
952.432	0.0168519
952.510	0.0168958
952.588	0.0168401
952.666	0.0166998
952.744	0.0169437
952.822	0.0169370
952.900	0.0168002
952.978	0.0167917
953.057	0.0168623
953.135	0.0167345
953.213	0.0166452
953.291	0.0167797
953.369	0.0168607
953.447	0.0168707
953.525	0.0167300
953.603	0.0168454
953.682	0.0169347
953.760	0.0168310
953.838	0.0168775
953.916	0.0169687
953.994	0.0168955
954.072	0.0169202
954.150	0.0170712
954.228	0.0169483
954.307	0.0170357
954.385	0.0169058
954.463	0.0169212
954.541	0.0170150
954.619	0.0169361
954.697	0.0168918
954.775	0.0170375
954.853	0.0170329
954.932	0.0169084
955.010	0.0169991
955.088	0.0169159
955.166	0.0170202
955.244	0.0170261
955.322	0.0169189
955.400	0.0168958
955.478	0.0169852
955.557	0.0169048
955.635	0.0168974
955.713	0.0168279
955.791	0.0169984
955.869	0.0168996
955.947	0.0170535
956.025	0.0168722
956.103	0.0170090
956.182	0.0169021
956.260	0.0169147
956.338	0.0169488
956.416	0.0169788
956.494	0.0170254
956.572	0.0170238
956.650	0.0170843
956.728	0.0170766
956.807	0.0169144
956.885	0.0171346
956.963	0.0170442
957.041	0.0171068
957.119	0.0169131
957.197	0.0170258
957.275	0.0170753
957.353	0.0170544
957.432	0.0170272
957.510	0.0170191
957.588	0.0169837
957.666	0.0169691
957.744	0.0169743
957.822	0.0169810
957.900	0.0169848
957.978	0.0169590
958.057	0.0170749
958.135	0.0170341
958.213	0.0170287
958.291	0.0168575
958.369	0.0171171
958.447	0.0170516
958.525	0.0169415
958.603	0.0170819
958.682	0.0171687
958.760	0.0170075
958.838	0.0170163
958.916	0.0171564
958.994	0.0170850
959.072	0.0170240
959.150	0.0170701
959.228	0.0170716
959.307	0.0170907
959.385	0.0171200
959.463	0.0171916
959.541	0.0172011
959.619	0.0168851
959.697	0.0170428
959.775	0.0171828
959.853	0.0170981
959.932	0.0172564
960.010	0.0171432
960.088	0.0171311
960.166	0.0171001
960.244	0.0171574
960.322	0.0170631
960.400	0.0171016
960.478	0.0170181
960.557	0.0170151
960.635	0.0172015
960.713	0.0170335
960.791	0.0170953
960.869	0.0170898
960.947	0.0170860
961.025	0.0168855
961.103	0.0171635
961.182	0.0171031
961.260	0.0169875
961.338	0.0170718
961.416	0.0170162
961.494	0.0170448
961.572	0.0170785
961.650	0.0170130
961.728	0.0170882
961.807	0.0169881
961.885	0.0170558
961.963	0.0169614
962.041	0.0169758
962.119	0.0169958
962.197	0.0171219
962.275	0.0171420
962.353	0.0171046
962.432	0.0172107
962.510	0.0171227
962.588	0.0171713
962.666	0.0172318
962.744	0.0171181
962.822	0.0171154
962.900	0.0171188
962.978	0.0170864
963.057	0.0171121
963.135	0.0170197
963.213	0.0169674
963.291	0.0170640
963.369	0.0171530
963.447	0.0170328
963.525	0.0169743
963.603	0.0170348
963.682	0.0170003
963.760	0.0170139
963.838	0.0169672
963.916	0.0170948
963.994	0.0170531
964.072	0.0170636
964.150	0.0170360
964.228	0.0171063
964.307	0.0170749
964.385	0.0170294
964.463	0.0168955
964.541	0.0170979
964.619	0.0171616
964.697	0.0170963
964.775	0.0170343
964.853	0.0169672
964.932	0.0170332
965.010	0.0169382
965.088	0.0169918
965.166	0.0168980
965.244	0.0170213
965.322	0.0170676
965.400	0.0171311
965.478	0.0169536
965.557	0.0172227
965.635	0.0171765
965.713	0.0171580
965.791	0.0171964
965.869	0.0172043
965.947	0.0171011
966.025	0.0172831
966.103	0.0172643
966.182	0.0171896
966.260	0.0172462
966.338	0.0172088
966.416	0.0171846
966.494	0.0171571
966.572	0.0171271
966.650	0.0170605
966.728	0.0172112
966.807	0.0171076
966.885	0.0169715
966.963	0.0170285
967.041	0.0169629
967.119	0.0169772
967.197	0.0169732
967.275	0.0168652
967.353	0.0168999
967.432	0.0169017
967.510	0.0168432
967.588	0.0168650
967.666	0.0167593
967.744	0.0168004
967.822	0.0166174
967.900	0.0166793
967.978	0.0167924
968.057	0.0168742
968.135	0.0167380
968.213	0.0170279
968.291	0.0170567
968.369	0.0171008
968.447	0.0171122
968.525	0.0172117
968.603	0.0171120
968.682	0.0173123
968.760	0.0173584
968.838	0.0173438
968.916	0.0173924
968.994	0.0173281
969.072	0.0173057
969.150	0.0173195
969.228	0.0171633
969.307	0.0172186
969.385	0.0170013
969.463	0.0169637
969.541	0.0168949
969.619	0.0169852
969.697	0.0169866
969.775	0.0170037
969.853	0.0169118
969.932	0.0170404
