06/10/2022	16:31:28	Ver.	4.1	UNKNOWN
Optical Delay	650.009681	Delta X		0.078125	Sweeps	1	Scan Rate	0/0
Coordinates	Axis 1	NaN	Axis 2	NaN	Axis 3	NaN	Axis 4	NaN	Axis 5	NaN	Axis 6	0.000000
TX Power	0.000000	RX Power	0.000000

650.010	0.0168711
650.088	0.0168944
650.166	0.0168154
650.244	0.0168835
650.322	0.0168978
650.400	0.0168755
650.478	0.0168679
650.557	0.0169236
650.635	0.0168848
650.713	0.0167996
650.791	0.0168771
650.869	0.0167859
650.947	0.0168623
651.025	0.0168275
651.103	0.0168483
651.182	0.0169034
651.260	0.0167325
651.338	0.0168175
651.416	0.0167714
651.494	0.0168621
651.572	0.0168789
651.650	0.0167683
651.728	0.0168537
651.807	0.0167538
651.885	0.0169112
651.963	0.0168284
652.041	0.0169248
652.119	0.0167304
652.197	0.0167526
652.275	0.0168510
652.353	0.0167845
652.432	0.0167708
652.510	0.0167618
652.588	0.0168937
652.666	0.0168150
652.744	0.0167838
652.822	0.0167591
652.900	0.0168905
652.978	0.0168752
653.057	0.0168050
653.135	0.0167754
653.213	0.0168047
653.291	0.0168503
653.369	0.0168468
653.447	0.0168909
653.525	0.0168819
653.603	0.0169934
653.682	0.0167313
653.760	0.0168142
653.838	0.0168990
653.916	0.0169415
653.994	0.0169481
654.072	0.0169568
654.150	0.0169122
654.228	0.0167268
654.307	0.0169522
654.385	0.0169209
654.463	0.0170059
654.541	0.0169160
654.619	0.0168291
654.697	0.0168060
654.775	0.0168893
654.853	0.0169326
654.932	0.0168700
655.010	0.0168933
655.088	0.0168701
655.166	0.0169091
655.244	0.0170194
655.322	0.0170026
655.400	0.0169415
655.478	0.0167735
655.557	0.0168970
655.635	0.0169156
655.713	0.0169633
655.791	0.0169418
655.869	0.0168468
655.947	0.0169519
656.025	0.0168282
656.103	0.0169042
656.182	0.0169057
656.260	0.0167829
656.338	0.0167712
656.416	0.0169324
656.494	0.0168616
656.572	0.0169746
656.650	0.0168376
656.728	0.0168784
656.807	0.0169853
656.885	0.0168996
656.963	0.0167733
657.041	0.0166823
657.119	0.0169071
657.197	0.0169372
657.275	0.0169632
657.353	0.0168530
657.432	0.0169880
657.510	0.0169203
657.588	0.0169559
657.666	0.0168670
657.744	0.0169099
657.822	0.0170185
657.900	0.0169881
657.978	0.0169439
658.057	0.0169797
658.135	0.0168723
658.213	0.0169411
658.291	0.0168785
658.369	0.0169093
658.447	0.0169247
658.525	0.0168764
658.603	0.0169242
658.682	0.0167370
658.760	0.0169178
658.838	0.0170621
658.916	0.0169529
658.994	0.0169872
659.072	0.0169962
659.150	0.0168874
659.228	0.0168842
659.307	0.0168449
659.385	0.0169953
659.463	0.0169009
659.541	0.0168469
659.619	0.0168799
659.697	0.0169473
659.775	0.0168433
659.853	0.0168882
659.932	0.0170203
660.010	0.0169119
660.088	0.0168581
660.166	0.0169492
660.244	0.0170099
660.322	0.0170303
660.400	0.0169792
660.478	0.0170061
660.557	0.0170245
660.635	0.0168060
660.713	0.0168813
660.791	0.0169656
660.869	0.0169559
660.947	0.0169718
661.025	0.0169738
661.103	0.0169713
661.182	0.0169675
661.260	0.0169224
661.338	0.0168535
661.416	0.0168084
661.494	0.0169096
661.572	0.0168800
661.650	0.0168597
661.728	0.0169038
661.807	0.0169181
661.885	0.0168674
661.963	0.0168692
662.041	0.0168917
662.119	0.0169625
662.197	0.0167661
662.275	0.0169208
662.353	0.0169283
662.432	0.0169012
662.510	0.0168897
662.588	0.0167941
662.666	0.0168365
662.744	0.0169077
662.822	0.0169183
662.900	0.0169747
662.978	0.0168867
663.057	0.0168382
663.135	0.0167960
663.213	0.0168067
663.291	0.0168676
663.369	0.0169662
663.447	0.0168161
663.525	0.0168664
663.603	0.0169420
663.682	0.0168079
663.760	0.0168229
663.838	0.0167810
663.916	0.0168591
663.994	0.0169626
664.072	0.0170004
664.150	0.0168367
664.228	0.0168452
664.307	0.0167760
664.385	0.0168938
664.463	0.0168428
664.541	0.0168484
664.619	0.0168250
664.697	0.0168245
664.775	0.0167236
664.853	0.0168781
664.932	0.0168253
665.010	0.0167808
665.088	0.0168236
665.166	0.0169064
665.244	0.0169388
665.322	0.0169168
665.400	0.0168017
665.478	0.0168032
665.557	0.0167587
665.635	0.0168070
665.713	0.0169259
665.791	0.0169220
665.869	0.0167809
665.947	0.0167521
666.025	0.0168012
666.103	0.0168662
666.182	0.0169688
666.260	0.0168613
666.338	0.0168076
666.416	0.0168909
666.494	0.0168806
666.572	0.0168900
666.650	0.0169002
666.728	0.0168369
666.807	0.0167440
666.885	0.0168893
666.963	0.0170203
667.041	0.0167713
667.119	0.0168746
667.197	0.0169667
667.275	0.0169360
667.353	0.0168156
667.432	0.0169083
667.510	0.0169198
667.588	0.0168402
667.666	0.0167960
667.744	0.0168685
667.822	0.0168842
667.900	0.0168523
667.978	0.0168073
668.057	0.0168259
668.135	0.0169671
668.213	0.0169337
668.291	0.0168199
668.369	0.0168798
668.447	0.0168464
668.525	0.0167941
668.603	0.0168456
668.682	0.0168094
668.760	0.0167977
668.838	0.0170630
668.916	0.0169763
668.994	0.0168723
669.072	0.0167959
669.150	0.0167665
669.228	0.0168873
669.307	0.0169137
669.385	0.0169512
669.463	0.0168591
669.541	0.0167123
669.619	0.0169297
669.697	0.0169817
669.775	0.0170147
669.853	0.0168542
669.932	0.0169080
670.010	0.0168948
670.088	0.0168530
670.166	0.0168547
670.244	0.0168530
670.322	0.0167765
670.400	0.0169432
670.478	0.0168270
670.557	0.0168294
670.635	0.0168864
670.713	0.0168130
670.791	0.0167260
670.869	0.0167411
670.947	0.0169612
671.025	0.0169102
671.103	0.0167876
671.182	0.0168340
671.260	0.0169071
671.338	0.0169033
671.416	0.0168999
671.494	0.0169402
671.572	0.0169895
671.650	0.0167914
671.728	0.0168394
671.807	0.0169935
671.885	0.0168755
671.963	0.0169038
672.041	0.0169974
672.119	0.0168697
672.197	0.0168658
672.275	0.0168269
672.353	0.0167168
672.432	0.0167814
672.510	0.0168758
672.588	0.0169296
672.666	0.0168237
672.744	0.0168802
672.822	0.0168888
672.900	0.0170714
672.978	0.0168927
673.057	0.0167349
673.135	0.0168572
673.213	0.0168443
673.291	0.0170152
673.369	0.0168048
673.447	0.0168918
673.525	0.0168382
673.603	0.0167551
673.682	0.0169603
673.760	0.0168887
673.838	0.0169196
673.916	0.0168667
673.994	0.0169199
674.072	0.0168406
674.150	0.0168538
674.228	0.0169726
674.307	0.0168981
674.385	0.0169174
674.463	0.0169615
674.541	0.0169456
674.619	0.0169035
674.697	0.0168241
674.775	0.0168930
674.853	0.0168797
674.932	0.0169379
675.010	0.0170048
675.088	0.0170393
675.166	0.0167627
675.244	0.0169048
675.322	0.0169991
675.400	0.0169095
675.478	0.0168461
675.557	0.0169350
675.635	0.0168758
675.713	0.0168409
675.791	0.0169070
675.869	0.0168839
675.947	0.0169708
676.025	0.0170617
676.103	0.0169894
676.182	0.0168923
676.260	0.0169804
676.338	0.0169716
676.416	0.0169155
676.494	0.0170668
676.572	0.0169482
676.650	0.0169374
676.728	0.0169763
676.807	0.0168430
676.885	0.0167876
676.963	0.0170341
677.041	0.0168467
677.119	0.0168702
677.197	0.0169505
677.275	0.0170914
677.353	0.0169894
677.432	0.0169090
677.510	0.0168955
677.588	0.0169250
677.666	0.0169502
677.744	0.0169254
677.822	0.0168652
677.900	0.0169606
677.978	0.0168581
678.057	0.0168619
678.135	0.0170537
678.213	0.0170159
678.291	0.0169000
678.369	0.0167742
678.447	0.0169385
678.525	0.0169467
678.603	0.0167841
678.682	0.0169240
678.760	0.0169322
678.838	0.0168384
678.916	0.0169151
678.994	0.0168593
679.072	0.0169048
679.150	0.0169732
679.228	0.0169375
679.307	0.0168464
679.385	0.0169107
679.463	0.0168388
679.541	0.0167520
679.619	0.0167645
679.697	0.0168253
679.775	0.0169158
679.853	0.0168661
679.932	0.0169157
680.010	0.0168233
680.088	0.0167959
680.166	0.0169156
680.244	0.0169527
680.322	0.0168826
680.400	0.0168336
680.478	0.0169497
680.557	0.0169801
680.635	0.0169662
680.713	0.0169053
680.791	0.0168455
680.869	0.0169820
680.947	0.0169677
681.025	0.0169472
681.103	0.0168903
681.182	0.0168690
681.260	0.0168568
681.338	0.0168087
681.416	0.0167535
681.494	0.0169924
681.572	0.0169897
681.650	0.0168177
681.728	0.0169812
681.807	0.0170167
681.885	0.0169392
681.963	0.0168002
682.041	0.0168658
682.119	0.0168709
682.197	0.0167731
682.275	0.0168602
682.353	0.0170498
682.432	0.0170087
682.510	0.0169364
682.588	0.0168545
682.666	0.0168940
682.744	0.0169061
682.822	0.0168671
682.900	0.0168654
682.978	0.0168835
683.057	0.0167928
683.135	0.0168695
683.213	0.0169226
683.291	0.0169890
683.369	0.0168625
683.447	0.0168403
683.525	0.0168259
683.603	0.0168210
683.682	0.0169834
683.760	0.0168976
683.838	0.0169522
683.916	0.0168334
683.994	0.0168595
684.072	0.0169496
684.150	0.0169021
684.228	0.0168283
684.307	0.0169469
684.385	0.0169489
684.463	0.0169469
684.541	0.0167685
684.619	0.0170041
684.697	0.0168620
684.775	0.0168160
684.853	0.0168593
684.932	0.0170139
685.010	0.0168974
685.088	0.0169577
685.166	0.0167867
685.244	0.0168303
685.322	0.0168544
685.400	0.0168450
685.478	0.0168475
685.557	0.0167741
685.635	0.0168164
685.713	0.0167632
685.791	0.0168301
685.869	0.0167661
685.947	0.0168163
686.025	0.0167778
686.103	0.0169787
686.182	0.0168704
686.260	0.0168880
686.338	0.0169264
686.416	0.0168314
686.494	0.0167492
686.572	0.0168498
686.650	0.0167780
686.728	0.0167703
686.807	0.0167896
686.885	0.0168295
686.963	0.0169389
687.041	0.0168419
687.119	0.0168611
687.197	0.0168179
687.275	0.0168056
687.353	0.0168629
687.432	0.0167644
687.510	0.0167771
687.588	0.0166956
687.666	0.0167654
687.744	0.0166809
687.822	0.0168244
687.900	0.0169775
687.978	0.0168224
688.057	0.0167690
688.135	0.0168298
688.213	0.0167738
688.291	0.0168960
688.369	0.0169604
688.447	0.0167601
688.525	0.0167899
688.603	0.0169701
688.682	0.0169967
688.760	0.0168748
688.838	0.0168993
688.916	0.0169816
688.994	0.0169855
689.072	0.0168158
689.150	0.0167337
689.228	0.0169509
689.307	0.0168936
689.385	0.0167939
689.463	0.0168705
689.541	0.0169569
689.619	0.0167970
689.697	0.0168537
689.775	0.0168906
689.853	0.0169077
689.932	0.0169172
690.010	0.0169045
690.088	0.0169322
690.166	0.0168922
690.244	0.0168030
690.322	0.0168212
690.400	0.0169523
690.478	0.0169295
690.557	0.0168893
690.635	0.0169051
690.713	0.0168536
690.791	0.0169416
690.869	0.0167998
690.947	0.0170209
691.025	0.0169968
691.103	0.0169161
691.182	0.0169521
691.260	0.0167838
691.338	0.0167979
691.416	0.0168890
691.494	0.0169357
691.572	0.0167954
691.650	0.0169382
691.728	0.0168389
691.807	0.0169014
691.885	0.0169258
691.963	0.0168460
692.041	0.0168927
692.119	0.0169605
692.197	0.0168941
692.275	0.0169365
692.353	0.0167795
692.432	0.0168571
692.510	0.0169572
692.588	0.0169695
692.666	0.0167403
692.744	0.0168824
692.822	0.0168761
692.900	0.0169264
692.978	0.0169931
693.057	0.0170021
693.135	0.0168981
693.213	0.0170684
693.291	0.0170233
693.369	0.0168815
693.447	0.0168568
693.525	0.0167879
693.603	0.0168657
693.682	0.0169412
693.760	0.0168739
693.838	0.0168991
693.916	0.0169068
693.994	0.0170052
694.072	0.0169618
694.150	0.0168651
694.228	0.0168742
694.307	0.0169711
694.385	0.0168816
694.463	0.0168594
694.541	0.0169484
694.619	0.0170677
694.697	0.0169020
694.775	0.0169773
694.853	0.0168741
694.932	0.0171716
695.010	0.0170121
695.088	0.0169950
695.166	0.0168532
695.244	0.0169486
695.322	0.0169742
695.400	0.0168777
695.478	0.0169603
695.557	0.0168698
695.635	0.0169530
695.713	0.0169099
695.791	0.0169095
695.869	0.0169775
695.947	0.0169283
696.025	0.0168074
696.103	0.0169854
696.182	0.0169959
696.260	0.0169785
696.338	0.0168483
696.416	0.0169426
696.494	0.0168591
696.572	0.0170088
696.650	0.0168684
696.728	0.0169726
696.807	0.0169846
696.885	0.0168826
696.963	0.0167946
697.041	0.0168592
697.119	0.0170349
697.197	0.0169827
697.275	0.0166507
697.353	0.0169039
697.432	0.0170539
697.510	0.0167931
697.588	0.0169086
697.666	0.0170560
697.744	0.0169550
697.822	0.0168811
697.900	0.0169503
697.978	0.0169504
698.057	0.0169561
698.135	0.0169869
698.213	0.0170841
698.291	0.0168887
698.369	0.0170152
698.447	0.0168962
698.525	0.0170042
698.603	0.0169210
698.682	0.0169442
698.760	0.0168162
698.838	0.0168718
698.916	0.0170187
698.994	0.0169602
699.072	0.0168846
699.150	0.0170331
699.228	0.0168748
699.307	0.0168101
699.385	0.0168116
699.463	0.0168932
699.541	0.0170560
699.619	0.0168425
699.697	0.0168838
699.775	0.0169543
699.853	0.0168763
699.932	0.0169167
700.010	0.0169417
700.088	0.0169482
700.166	0.0169005
700.244	0.0169142
700.322	0.0169207
700.400	0.0171014
700.478	0.0169134
700.557	0.0169025
700.635	0.0169524
700.713	0.0168153
700.791	0.0169022
700.869	0.0169524
700.947	0.0168024
701.025	0.0169257
701.103	0.0167851
701.182	0.0168939
701.260	0.0169097
701.338	0.0167227
701.416	0.0168430
701.494	0.0168275
701.572	0.0168099
701.650	0.0169091
701.728	0.0167822
701.807	0.0167771
701.885	0.0168610
701.963	0.0168494
702.041	0.0169003
702.119	0.0169466
702.197	0.0168398
702.275	0.0168761
702.353	0.0169481
702.432	0.0169115
702.510	0.0169456
702.588	0.0169608
702.666	0.0168394
702.744	0.0168992
702.822	0.0168996
702.900	0.0169388
702.978	0.0168313
703.057	0.0168632
703.135	0.0168755
703.213	0.0169097
703.291	0.0169437
703.369	0.0167728
703.447	0.0170218
703.525	0.0169823
703.603	0.0167951
703.682	0.0168584
703.760	0.0170547
703.838	0.0168864
703.916	0.0168763
703.994	0.0168335
704.072	0.0168987
704.150	0.0169131
704.228	0.0167690
704.307	0.0167696
704.385	0.0169533
704.463	0.0170171
704.541	0.0167954
704.619	0.0168222
704.697	0.0169629
704.775	0.0169640
704.853	0.0168797
704.932	0.0168822
705.010	0.0167190
705.088	0.0169496
705.166	0.0168712
705.244	0.0167744
705.322	0.0169054
705.400	0.0169001
705.478	0.0168398
705.557	0.0167942
705.635	0.0167681
705.713	0.0168472
705.791	0.0168049
705.869	0.0167832
705.947	0.0168772
706.025	0.0169257
706.103	0.0168835
706.182	0.0168304
706.260	0.0168806
706.338	0.0168848
706.416	0.0168171
706.494	0.0166844
706.572	0.0168960
706.650	0.0169781
706.728	0.0168223
706.807	0.0168134
706.885	0.0167583
706.963	0.0167789
707.041	0.0167171
707.119	0.0167294
707.197	0.0168540
707.275	0.0170115
707.353	0.0168603
707.432	0.0168446
707.510	0.0169103
707.588	0.0168694
707.666	0.0168159
707.744	0.0168132
707.822	0.0167876
707.900	0.0169382
707.978	0.0168243
708.057	0.0168399
708.135	0.0169701
708.213	0.0169685
708.291	0.0168203
708.369	0.0168828
708.447	0.0168575
708.525	0.0168620
708.603	0.0168227
708.682	0.0169374
708.760	0.0169526
708.838	0.0168233
708.916	0.0168618
708.994	0.0167935
709.072	0.0170162
709.150	0.0169579
709.228	0.0167294
709.307	0.0167062
709.385	0.0168439
709.463	0.0168177
709.541	0.0167679
709.619	0.0169323
709.697	0.0169277
709.775	0.0167422
709.853	0.0167239
709.932	0.0166844
710.010	0.0168032
710.088	0.0169546
710.166	0.0167200
710.244	0.0167909
710.322	0.0168147
710.400	0.0167298
710.478	0.0168103
710.557	0.0168007
710.635	0.0168568
710.713	0.0169366
710.791	0.0168264
710.869	0.0168366
710.947	0.0168674
711.025	0.0170345
711.103	0.0167673
711.182	0.0168871
711.260	0.0167931
711.338	0.0168766
711.416	0.0168523
711.494	0.0167669
711.572	0.0169186
711.650	0.0168842
711.728	0.0168701
711.807	0.0168661
711.885	0.0168477
711.963	0.0168370
712.041	0.0168241
712.119	0.0168114
712.197	0.0167281
712.275	0.0167740
712.353	0.0169584
712.432	0.0167934
712.510	0.0168130
712.588	0.0168607
712.666	0.0168931
712.744	0.0169651
712.822	0.0168768
712.900	0.0167912
712.978	0.0167979
713.057	0.0168203
713.135	0.0169466
713.213	0.0170099
713.291	0.0168787
713.369	0.0169014
713.447	0.0168680
713.525	0.0167252
713.603	0.0169051
713.682	0.0169073
713.760	0.0169218
713.838	0.0168436
713.916	0.0168899
713.994	0.0169330
714.072	0.0170280
714.150	0.0169114
714.228	0.0168790
714.307	0.0167273
714.385	0.0167236
714.463	0.0170145
714.541	0.0170805
714.619	0.0170247
714.697	0.0168368
714.775	0.0168718
714.853	0.0170444
714.932	0.0169579
715.010	0.0169369
715.088	0.0169635
715.166	0.0170706
715.244	0.0169624
715.322	0.0169825
715.400	0.0169480
715.478	0.0167469
715.557	0.0169791
715.635	0.0169234
715.713	0.0170252
715.791	0.0169269
715.869	0.0170885
715.947	0.0169472
716.025	0.0170136
716.103	0.0169898
716.182	0.0168326
716.260	0.0167690
716.338	0.0168972
716.416	0.0169149
716.494	0.0168025
716.572	0.0168063
716.650	0.0168987
716.728	0.0169232
716.807	0.0169636
716.885	0.0170865
716.963	0.0170205
717.041	0.0170667
717.119	0.0170908
717.197	0.0171037
717.275	0.0172098
717.353	0.0171523
717.432	0.0168878
717.510	0.0168641
717.588	0.0169190
717.666	0.0168590
717.744	0.0167006
717.822	0.0165201
717.900	0.0166023
717.978	0.0166755
718.057	0.0166634
718.135	0.0166600
718.213	0.0166324
718.291	0.0167329
718.369	0.0168660
718.447	0.0168156
718.525	0.0169639
718.603	0.0170415
718.682	0.0171936
718.760	0.0171165
718.838	0.0172142
718.916	0.0172653
718.994	0.0172836
719.072	0.0172080
719.150	0.0170888
719.228	0.0169986
719.307	0.0171116
719.385	0.0170370
719.463	0.0169711
719.541	0.0170019
719.619	0.0168109
719.697	0.0169186
719.775	0.0168375
719.853	0.0168562
719.932	0.0167810
720.010	0.0167101
720.088	0.0168066
720.166	0.0167970
720.244	0.0167573
720.322	0.0168574
720.400	0.0167908
720.478	0.0167418
720.557	0.0166855
720.635	0.0166517
720.713	0.0167832
720.791	0.0167393
720.869	0.0165983
720.947	0.0166889
721.025	0.0168475
721.103	0.0169726
721.182	0.0169254
721.260	0.0170176
721.338	0.0173113
721.416	0.0171280
721.494	0.0173641
721.572	0.0175197
721.650	0.0173116
721.728	0.0172054
721.807	0.0172532
721.885	0.0172092
721.963	0.0170045
722.041	0.0167055
722.119	0.0168573
722.197	0.0165497
722.275	0.0164886
722.353	0.0164685
722.432	0.0165158
722.510	0.0163825
722.588	0.0163184
722.666	0.0163409
722.744	0.0166101
722.822	0.0166267
722.900	0.0166830
722.978	0.0167305
723.057	0.0169360
723.135	0.0170045
723.213	0.0171543
723.291	0.0171115
723.369	0.0171486
723.447	0.0171742
723.525	0.0173083
723.603	0.0173944
723.682	0.0174118
723.760	0.0173793
723.838	0.0173350
723.916	0.0172956
723.994	0.0172665
724.072	0.0171339
724.150	0.0171954
724.228	0.0169865
724.307	0.0169469
724.385	0.0169463
724.463	0.0168439
724.541	0.0166980
724.619	0.0166456
724.697	0.0166048
724.775	0.0164963
724.853	0.0165130
724.932	0.0164840
725.010	0.0164492
725.088	0.0164631
725.166	0.0165561
725.244	0.0166365
725.322	0.0167656
725.400	0.0168303
725.478	0.0167340
725.557	0.0169903
725.635	0.0168761
725.713	0.0168977
725.791	0.0170661
725.869	0.0170106
725.947	0.0172399
726.025	0.0172283
726.103	0.0171132
726.182	0.0172106
726.260	0.0170985
726.338	0.0169366
726.416	0.0170663
726.494	0.0169589
726.572	0.0169547
726.650	0.0168607
726.728	0.0167947
726.807	0.0167236
726.885	0.0167365
726.963	0.0166889
727.041	0.0166031
727.119	0.0165588
727.197	0.0164768
727.275	0.0165124
727.353	0.0165364
727.432	0.0165290
727.510	0.0165150
727.588	0.0164622
727.666	0.0165047
727.744	0.0167415
727.822	0.0167106
727.900	0.0167828
727.978	0.0169959
728.057	0.0169315
728.135	0.0169510
728.213	0.0170974
728.291	0.0172149
728.369	0.0172454
728.447	0.0171460
728.525	0.0170369
728.603	0.0171353
728.682	0.0170016
728.760	0.0169038
728.838	0.0169318
728.916	0.0168736
728.994	0.0167296
729.072	0.0166372
729.150	0.0165394
729.228	0.0167005
729.307	0.0167001
729.385	0.0164520
729.463	0.0164988
729.541	0.0166837
729.619	0.0166992
729.697	0.0167798
729.775	0.0167823
729.853	0.0168778
729.932	0.0167738
730.010	0.0168607
730.088	0.0167348
730.166	0.0168082
730.244	0.0167819
730.322	0.0169613
730.400	0.0168569
730.478	0.0169410
730.557	0.0169702
730.635	0.0169322
730.713	0.0167876
730.791	0.0169612
730.869	0.0168858
730.947	0.0168810
731.025	0.0167148
731.103	0.0169042
731.182	0.0169754
731.260	0.0168397
731.338	0.0169257
731.416	0.0169706
731.494	0.0167963
731.572	0.0169023
731.650	0.0168801
731.728	0.0170205
731.807	0.0169055
731.885	0.0167975
731.963	0.0168781
732.041	0.0168025
732.119	0.0168172
732.197	0.0166980
732.275	0.0167471
732.353	0.0168288
732.432	0.0167546
732.510	0.0168494
732.588	0.0168512
732.666	0.0169459
732.744	0.0167428
732.822	0.0168457
732.900	0.0168034
732.978	0.0169402
733.057	0.0170092
733.135	0.0169371
733.213	0.0168546
733.291	0.0169506
733.369	0.0169906
733.447	0.0167608
733.525	0.0167737
733.603	0.0167170
733.682	0.0167570
733.760	0.0167018
733.838	0.0166956
733.916	0.0166659
733.994	0.0166694
734.072	0.0166462
734.150	0.0167509
734.228	0.0168131
734.307	0.0169860
734.385	0.0170573
734.463	0.0170450
734.541	0.0172499
734.619	0.0172739
734.697	0.0171748
734.775	0.0172941
734.853	0.0172306
734.932	0.0171334
735.010	0.0170512
735.088	0.0170819
735.166	0.0168822
735.244	0.0169398
735.322	0.0167401
735.400	0.0166440
735.478	0.0164613
735.557	0.0164489
735.635	0.0164892
735.713	0.0165683
735.791	0.0165518
735.869	0.0164857
735.947	0.0166106
736.025	0.0166505
736.103	0.0167013
736.182	0.0168847
736.260	0.0171425
736.338	0.0172720
736.416	0.0171750
736.494	0.0173015
736.572	0.0174198
736.650	0.0174988
736.728	0.0173540
736.807	0.0173719
736.885	0.0172372
736.963	0.0172967
737.041	0.0173161
737.119	0.0170605
737.197	0.0170725
737.275	0.0169454
737.353	0.0168944
737.432	0.0167403
737.510	0.0166638
737.588	0.0166445
737.666	0.0167166
737.744	0.0168123
737.822	0.0165601
737.900	0.0165186
737.978	0.0165338
738.057	0.0165348
738.135	0.0165536
738.213	0.0165787
738.291	0.0167287
738.369	0.0167365
738.447	0.0167280
738.525	0.0168801
738.603	0.0170504
738.682	0.0170195
738.760	0.0171634
738.838	0.0172640
738.916	0.0174995
738.994	0.0174770
739.072	0.0175732
739.150	0.0177121
739.228	0.0176041
739.307	0.0175345
739.385	0.0174997
739.463	0.0174766
739.541	0.0172881
739.619	0.0170246
739.697	0.0170194
739.775	0.0168718
739.853	0.0167235
739.932	0.0165037
740.010	0.0163943
740.088	0.0163736
740.166	0.0162427
740.244	0.0163989
740.322	0.0162589
740.400	0.0163213
740.478	0.0163709
740.557	0.0165767
740.635	0.0165093
740.713	0.0166795
740.791	0.0168896
740.869	0.0170930
740.947	0.0172254
741.025	0.0173338
741.103	0.0173228
741.182	0.0174664
741.260	0.0173802
741.338	0.0174298
741.416	0.0174264
741.494	0.0174452
741.572	0.0173337
741.650	0.0171843
741.728	0.0170503
741.807	0.0169247
741.885	0.0168328
741.963	0.0168257
742.041	0.0167210
742.119	0.0167254
742.197	0.0167149
742.275	0.0166003
742.353	0.0166013
742.432	0.0165163
742.510	0.0165968
742.588	0.0165406
742.666	0.0165894
742.744	0.0166381
742.822	0.0166786
742.900	0.0168624
742.978	0.0168409
743.057	0.0167805
743.135	0.0166650
743.213	0.0167775
743.291	0.0168414
743.369	0.0167308
743.447	0.0167939
743.525	0.0169765
743.603	0.0169267
743.682	0.0169833
743.760	0.0170167
743.838	0.0169720
743.916	0.0169043
743.994	0.0170689
744.072	0.0171297
744.150	0.0170201
744.228	0.0169025
744.307	0.0170116
744.385	0.0170107
744.463	0.0169146
744.541	0.0168750
744.619	0.0169448
744.697	0.0168080
744.775	0.0168262
744.853	0.0167867
744.932	0.0166561
745.010	0.0166668
745.088	0.0167442
745.166	0.0167412
745.244	0.0167366
745.322	0.0168460
745.400	0.0167611
745.478	0.0166467
745.557	0.0167693
745.635	0.0168196
745.713	0.0167781
745.791	0.0166945
745.869	0.0168441
745.947	0.0168243
746.025	0.0168454
746.103	0.0167495
746.182	0.0168787
746.260	0.0170203
746.338	0.0169140
746.416	0.0169814
746.494	0.0170631
746.572	0.0168785
746.650	0.0169284
746.728	0.0170271
746.807	0.0170186
746.885	0.0170689
746.963	0.0169889
747.041	0.0171024
747.119	0.0170979
747.197	0.0170631
747.275	0.0170351
747.353	0.0170296
747.432	0.0170651
747.510	0.0170391
747.588	0.0171384
747.666	0.0170250
747.744	0.0169199
747.822	0.0167413
747.900	0.0167828
747.978	0.0167287
748.057	0.0167970
748.135	0.0167226
748.213	0.0167311
748.291	0.0167664
748.369	0.0166406
748.447	0.0167959
748.525	0.0166769
748.603	0.0168115
748.682	0.0167591
748.760	0.0167223
748.838	0.0167945
748.916	0.0169671
748.994	0.0170490
749.072	0.0170518
749.150	0.0170052
749.228	0.0170454
749.307	0.0171282
749.385	0.0172109
749.463	0.0171892
749.541	0.0170886
749.619	0.0171564
749.697	0.0171906
749.775	0.0170822
749.853	0.0170597
749.932	0.0171091
750.010	0.0169095
750.088	0.0169884
750.166	0.0169348
750.244	0.0168401
750.322	0.0167621
750.400	0.0167933
750.478	0.0168098
750.557	0.0168535
750.635	0.0166779
750.713	0.0169353
750.791	0.0167942
750.869	0.0167493
750.947	0.0169291
751.025	0.0168509
751.103	0.0168430
751.182	0.0169775
751.260	0.0169008
751.338	0.0168665
751.416	0.0169186
751.494	0.0169206
751.572	0.0170406
751.650	0.0170068
751.728	0.0170174
751.807	0.0170714
751.885	0.0170846
751.963	0.0169234
752.041	0.0168830
752.119	0.0171044
752.197	0.0169436
752.275	0.0169707
752.353	0.0169299
752.432	0.0170309
752.510	0.0169411
752.588	0.0169078
752.666	0.0168549
752.744	0.0170871
752.822	0.0169946
752.900	0.0169327
752.978	0.0169224
753.057	0.0169707
753.135	0.0169328
753.213	0.0168616
753.291	0.0168993
753.369	0.0167608
753.447	0.0169106
753.525	0.0168561
753.603	0.0169608
753.682	0.0168246
753.760	0.0168745
753.838	0.0170251
753.916	0.0169972
753.994	0.0168946
754.072	0.0169127
754.150	0.0169163
754.228	0.0168490
754.307	0.0170296
754.385	0.0169736
754.463	0.0168820
754.541	0.0169178
754.619	0.0168449
754.697	0.0169778
754.775	0.0169186
754.853	0.0170049
754.932	0.0168841
755.010	0.0169234
755.088	0.0169447
755.166	0.0168371
755.244	0.0169392
755.322	0.0170181
755.400	0.0169937
755.478	0.0168586
755.557	0.0169810
755.635	0.0169080
755.713	0.0168752
755.791	0.0167641
755.869	0.0167913
755.947	0.0168845
756.025	0.0168745
756.103	0.0168095
756.182	0.0167415
756.260	0.0167902
756.338	0.0169013
756.416	0.0168635
756.494	0.0168630
756.572	0.0168362
756.650	0.0168713
756.728	0.0167985
756.807	0.0169340
756.885	0.0168210
756.963	0.0169621
757.041	0.0167902
757.119	0.0170127
757.197	0.0169824
757.275	0.0169753
757.353	0.0171319
757.432	0.0169738
757.510	0.0169885
757.588	0.0170737
757.666	0.0168918
757.744	0.0170223
757.822	0.0170763
757.900	0.0171174
757.978	0.0169452
758.057	0.0168544
758.135	0.0168329
758.213	0.0168891
758.291	0.0169512
758.369	0.0168623
758.447	0.0168535
758.525	0.0167863
758.603	0.0168349
758.682	0.0169157
758.760	0.0168783
758.838	0.0170638
758.916	0.0169431
758.994	0.0170334
759.072	0.0169833
759.150	0.0171070
759.228	0.0170174
759.307	0.0169146
759.385	0.0172343
759.463	0.0171686
759.541	0.0171269
759.619	0.0172284
759.697	0.0173114
759.775	0.0170958
759.853	0.0170441
759.932	0.0170458
760.010	0.0169557
760.088	0.0170036
760.166	0.0169273
760.244	0.0170243
760.322	0.0168574
760.400	0.0167532
760.478	0.0168735
760.557	0.0169785
760.635	0.0169002
760.713	0.0168719
760.791	0.0169674
760.869	0.0169799
760.947	0.0168862
761.025	0.0169162
761.103	0.0168775
761.182	0.0169857
761.260	0.0168383
761.338	0.0168578
761.416	0.0169238
761.494	0.0167302
761.572	0.0165836
761.650	0.0168516
761.728	0.0167405
761.807	0.0168763
761.885	0.0169412
761.963	0.0171084
762.041	0.0170152
762.119	0.0170010
762.197	0.0170673
762.275	0.0170758
762.353	0.0170014
762.432	0.0171669
762.510	0.0172251
762.588	0.0172336
762.666	0.0171320
762.744	0.0172451
762.822	0.0171621
762.900	0.0170340
762.978	0.0169295
763.057	0.0169115
763.135	0.0168770
763.213	0.0168442
763.291	0.0167740
763.369	0.0165574
763.447	0.0165886
763.525	0.0166919
763.603	0.0165269
763.682	0.0164848
763.760	0.0163605
763.838	0.0165774
763.916	0.0164414
763.994	0.0165289
764.072	0.0166062
764.150	0.0167300
764.228	0.0166209
764.307	0.0167478
764.385	0.0167403
764.463	0.0167902
764.541	0.0169010
764.619	0.0168062
764.697	0.0169748
764.775	0.0169160
764.853	0.0170411
764.932	0.0170977
765.010	0.0171535
765.088	0.0171945
765.166	0.0171826
765.244	0.0173948
765.322	0.0173247
765.400	0.0173260
765.478	0.0172241
765.557	0.0172591
765.635	0.0170863
765.713	0.0169515
765.791	0.0169234
765.869	0.0168776
765.947	0.0166656
766.025	0.0167361
766.103	0.0165953
766.182	0.0166338
766.260	0.0164719
766.338	0.0164098
766.416	0.0164470
766.494	0.0163854
766.572	0.0165434
766.650	0.0164845
766.728	0.0166470
766.807	0.0165878
766.885	0.0164644
766.963	0.0167358
767.041	0.0167042
767.119	0.0166515
767.197	0.0167290
767.275	0.0167950
767.353	0.0167751
767.432	0.0169125
767.510	0.0168555
767.588	0.0169857
767.666	0.0169292
767.744	0.0169676
767.822	0.0168980
767.900	0.0168792
767.978	0.0168434
768.057	0.0169424
768.135	0.0172020
768.213	0.0168507
768.291	0.0170171
768.369	0.0168992
768.447	0.0168941
768.525	0.0169299
768.603	0.0167585
768.682	0.0171218
768.760	0.0172179
768.838	0.0169567
768.916	0.0170467
768.994	0.0169157
769.072	0.0169872
769.150	0.0169450
769.228	0.0168230
769.307	0.0168564
769.385	0.0170142
769.463	0.0168497
769.541	0.0166793
769.619	0.0168481
769.697	0.0169562
769.775	0.0168735
769.853	0.0168806
769.932	0.0167883
770.010	0.0170339
770.088	0.0167684
770.166	0.0168842
770.244	0.0168436
770.322	0.0169194
770.400	0.0167929
770.478	0.0168552
770.557	0.0168371
770.635	0.0166758
770.713	0.0166665
770.791	0.0166460
770.869	0.0166639
770.947	0.0165321
771.025	0.0164811
771.103	0.0164626
771.182	0.0163611
771.260	0.0164499
771.338	0.0165829
771.416	0.0165940
771.494	0.0165468
771.572	0.0165640
771.650	0.0167347
771.728	0.0166897
771.807	0.0168121
771.885	0.0168833
771.963	0.0168504
772.041	0.0170497
772.119	0.0171004
772.197	0.0171214
772.275	0.0172640
772.353	0.0174025
772.432	0.0171970
772.510	0.0174850
772.588	0.0174196
772.666	0.0177372
772.744	0.0177702
772.822	0.0174754
772.900	0.0177570
772.978	0.0176366
773.057	0.0175441
773.135	0.0174010
773.213	0.0172689
773.291	0.0172144
773.369	0.0170367
773.447	0.0169012
773.525	0.0168000
773.603	0.0166455
773.682	0.0164529
773.760	0.0163806
773.838	0.0162825
773.916	0.0161301
773.994	0.0161611
774.072	0.0161075
774.150	0.0160734
774.228	0.0159821
774.307	0.0161667
774.385	0.0161687
774.463	0.0161878
774.541	0.0163559
774.619	0.0164135
774.697	0.0163398
774.775	0.0165950
774.853	0.0165968
774.932	0.0165417
775.010	0.0167334
775.088	0.0167785
775.166	0.0168823
775.244	0.0170670
775.322	0.0171242
775.400	0.0170965
775.478	0.0173138
775.557	0.0172234
775.635	0.0173112
775.713	0.0173977
775.791	0.0174014
775.869	0.0174955
775.947	0.0175537
776.025	0.0176701
776.103	0.0174566
776.182	0.0174707
776.260	0.0176163
776.338	0.0177068
776.416	0.0175346
776.494	0.0174239
776.572	0.0175942
776.650	0.0174703
776.728	0.0175380
776.807	0.0173607
776.885	0.0173211
776.963	0.0172398
777.041	0.0172347
777.119	0.0170462
777.197	0.0168425
777.275	0.0168202
777.353	0.0167782
777.432	0.0164942
777.510	0.0166046
777.588	0.0164587
777.666	0.0164118
777.744	0.0164468
777.822	0.0163704
777.900	0.0162524
777.978	0.0161121
778.057	0.0160554
778.135	0.0162707
778.213	0.0161698
778.291	0.0162796
778.369	0.0161642
778.447	0.0161805
778.525	0.0163036
778.603	0.0163789
778.682	0.0164017
778.760	0.0164027
778.838	0.0164375
778.916	0.0165445
778.994	0.0165332
779.072	0.0167366
779.150	0.0169191
779.228	0.0167184
779.307	0.0167522
779.385	0.0169941
779.463	0.0170311
779.541	0.0171093
779.619	0.0171296
779.697	0.0173297
779.775	0.0173473
779.853	0.0172736
779.932	0.0174424
780.010	0.0174809
780.088	0.0175810
780.166	0.0176900
780.244	0.0176339
780.322	0.0176388
780.400	0.0175973
780.478	0.0176891
780.557	0.0177155
780.635	0.0176091
780.713	0.0175934
780.791	0.0174792
780.869	0.0171500
780.947	0.0170673
781.025	0.0170763
781.103	0.0169907
781.182	0.0169364
781.260	0.0167710
781.338	0.0167360
781.416	0.0166871
781.494	0.0165443
781.572	0.0165798
781.650	0.0166832
781.728	0.0165460
781.807	0.0165903
781.885	0.0165749
781.963	0.0166992
782.041	0.0166379
782.119	0.0166965
782.197	0.0166861
782.275	0.0167609
782.353	0.0169128
782.432	0.0168729
782.510	0.0168632
782.588	0.0168237
782.666	0.0167999
782.744	0.0168591
782.822	0.0169192
782.900	0.0168595
782.978	0.0166823
783.057	0.0167612
783.135	0.0167295
783.213	0.0168150
783.291	0.0168398
783.369	0.0166978
783.447	0.0167585
783.525	0.0167234
783.603	0.0168390
783.682	0.0167230
783.760	0.0167902
783.838	0.0168937
783.916	0.0167204
783.994	0.0168136
784.072	0.0168898
784.150	0.0169381
784.228	0.0169138
784.307	0.0170013
784.385	0.0168542
784.463	0.0169472
784.541	0.0171183
784.619	0.0173608
784.697	0.0171024
784.775	0.0172122
784.853	0.0173532
784.932	0.0173633
785.010	0.0173398
785.088	0.0173995
785.166	0.0174509
785.244	0.0174731
785.322	0.0175060
785.400	0.0175053
785.478	0.0173940
785.557	0.0173644
785.635	0.0172813
785.713	0.0172108
785.791	0.0170389
785.869	0.0170216
785.947	0.0168866
786.025	0.0167112
786.103	0.0166599
786.182	0.0166533
786.260	0.0164904
786.338	0.0163551
786.416	0.0163055
786.494	0.0162440
786.572	0.0161946
786.650	0.0163023
786.728	0.0162019
786.807	0.0163541
786.885	0.0162480
786.963	0.0162280
787.041	0.0162730
787.119	0.0164987
787.197	0.0165693
787.275	0.0166013
787.353	0.0165370
787.432	0.0165009
787.510	0.0166538
787.588	0.0167175
787.666	0.0167930
787.744	0.0168797
787.822	0.0166877
787.900	0.0166826
787.978	0.0167923
788.057	0.0167569
788.135	0.0169174
788.213	0.0167944
788.291	0.0167236
788.369	0.0167981
788.447	0.0169477
788.525	0.0169291
788.603	0.0169278
788.682	0.0169388
788.760	0.0170451
788.838	0.0171458
788.916	0.0171460
788.994	0.0172517
789.072	0.0171992
789.150	0.0172497
789.228	0.0172050
789.307	0.0172238
789.385	0.0172861
789.463	0.0172490
789.541	0.0172952
789.619	0.0171645
789.697	0.0170215
789.775	0.0171935
789.853	0.0173108
789.932	0.0172211
790.010	0.0170129
790.088	0.0170422
790.166	0.0170004
790.244	0.0170375
790.322	0.0169458
790.400	0.0169817
790.478	0.0169842
790.557	0.0169636
790.635	0.0168027
790.713	0.0167435
790.791	0.0166434
790.869	0.0165154
790.947	0.0166553
791.025	0.0165063
791.103	0.0163290
791.182	0.0163822
791.260	0.0163535
791.338	0.0164417
791.416	0.0164285
791.494	0.0162947
791.572	0.0163142
791.650	0.0165169
791.728	0.0165147
791.807	0.0164698
791.885	0.0164186
791.963	0.0164075
792.041	0.0164560
792.119	0.0167216
792.197	0.0169809
792.275	0.0169296
792.353	0.0170818
792.432	0.0170818
792.510	0.0172993
792.588	0.0174277
792.666	0.0173215
792.744	0.0175160
792.822	0.0177042
792.900	0.0176868
792.978	0.0175647
793.057	0.0175657
793.135	0.0174728
793.213	0.0174693
793.291	0.0173775
793.369	0.0173080
793.447	0.0172604
793.525	0.0170412
793.603	0.0168908
793.682	0.0166577
793.760	0.0166824
793.838	0.0164497
793.916	0.0164521
793.994	0.0162384
794.072	0.0161018
794.150	0.0160674
794.228	0.0159745
794.307	0.0159403
794.385	0.0158667
794.463	0.0158430
794.541	0.0160172
794.619	0.0160259
794.697	0.0161671
794.775	0.0161674
794.853	0.0163617
794.932	0.0167090
795.010	0.0168838
795.088	0.0169949
795.166	0.0172050
795.244	0.0175145
795.322	0.0178143
795.400	0.0177926
795.478	0.0182193
795.557	0.0181479
795.635	0.0183381
795.713	0.0183717
795.791	0.0182048
795.869	0.0181069
795.947	0.0181917
796.025	0.0179316
796.103	0.0177965
796.182	0.0175945
796.260	0.0175478
796.338	0.0173244
796.416	0.0170485
796.494	0.0166633
796.572	0.0165774
796.650	0.0164041
796.728	0.0162237
796.807	0.0161072
796.885	0.0159876
796.963	0.0159836
797.041	0.0158492
797.119	0.0158145
797.197	0.0157220
797.275	0.0156024
797.353	0.0156379
797.432	0.0157334
797.510	0.0157684
797.588	0.0158131
797.666	0.0158222
797.744	0.0159277
797.822	0.0162187
797.900	0.0165296
797.978	0.0165243
798.057	0.0167596
798.135	0.0169674
798.213	0.0170344
798.291	0.0173031
798.369	0.0175012
798.447	0.0175517
798.525	0.0176251
798.603	0.0177778
798.682	0.0175925
798.760	0.0175632
798.838	0.0174433
798.916	0.0174454
798.994	0.0173170
799.072	0.0172294
799.150	0.0170808
799.228	0.0169561
799.307	0.0170251
799.385	0.0168928
799.463	0.0168464
799.541	0.0170718
799.619	0.0169997
799.697	0.0169731
799.775	0.0170853
799.853	0.0170506
799.932	0.0172533
800.010	0.0174169
800.088	0.0175040
800.166	0.0174004
800.244	0.0175660
800.322	0.0175022
800.400	0.0174712
800.478	0.0176158
800.557	0.0175349
800.635	0.0173869
800.713	0.0173238
800.791	0.0172723
800.869	0.0171479
800.947	0.0169817
801.025	0.0169081
801.103	0.0166785
801.182	0.0166531
801.260	0.0164434
801.338	0.0161686
801.416	0.0159884
801.494	0.0160078
801.572	0.0158453
801.650	0.0155724
801.728	0.0155640
801.807	0.0154810
801.885	0.0154418
801.963	0.0155224
802.041	0.0158167
802.119	0.0157055
802.197	0.0160062
802.275	0.0160868
802.353	0.0162631
802.432	0.0165328
802.510	0.0168301
802.588	0.0171124
802.666	0.0173014
802.744	0.0175420
802.822	0.0177233
802.900	0.0179689
802.978	0.0180347
803.057	0.0180833
803.135	0.0182496
803.213	0.0182878
803.291	0.0182411
803.369	0.0182027
803.447	0.0179604
803.525	0.0179128
803.603	0.0176232
803.682	0.0176482
803.760	0.0174744
803.838	0.0173605
803.916	0.0171912
803.994	0.0167609
804.072	0.0165112
804.150	0.0164291
804.228	0.0161800
804.307	0.0160071
804.385	0.0157961
804.463	0.0159103
804.541	0.0157540
804.619	0.0157703
804.697	0.0156953
804.775	0.0157961
804.853	0.0158988
804.932	0.0161032
805.010	0.0162239
805.088	0.0162175
805.166	0.0164675
805.244	0.0167545
805.322	0.0168187
805.400	0.0168986
805.478	0.0172009
805.557	0.0172150
805.635	0.0173450
805.713	0.0174161
805.791	0.0175846
805.869	0.0177998
805.947	0.0176822
806.025	0.0177077
806.103	0.0176772
806.182	0.0176878
806.260	0.0175936
806.338	0.0177000
806.416	0.0174125
806.494	0.0172552
806.572	0.0172468
806.650	0.0171626
806.728	0.0170164
806.807	0.0168053
806.885	0.0166070
806.963	0.0164967
807.041	0.0162595
807.119	0.0162133
807.197	0.0161186
807.275	0.0161077
807.353	0.0161233
807.432	0.0160345
807.510	0.0159512
807.588	0.0161237
807.666	0.0161287
807.744	0.0162164
807.822	0.0162415
807.900	0.0164208
807.978	0.0166917
808.057	0.0166454
808.135	0.0168717
808.213	0.0169491
808.291	0.0167887
808.369	0.0170717
808.447	0.0172050
808.525	0.0172515
808.603	0.0173690
808.682	0.0173499
808.760	0.0173866
808.838	0.0174766
808.916	0.0174106
808.994	0.0173357
809.072	0.0173122
809.150	0.0171941
809.228	0.0171069
809.307	0.0172601
809.385	0.0170197
809.463	0.0170115
809.541	0.0169388
809.619	0.0167521
809.697	0.0169560
809.775	0.0167886
809.853	0.0166686
809.932	0.0168470
810.010	0.0167445
810.088	0.0165460
810.166	0.0166729
810.244	0.0166119
810.322	0.0165128
810.400	0.0166162
810.478	0.0167983
810.557	0.0167397
810.635	0.0167084
810.713	0.0168888
810.791	0.0170180
810.869	0.0170425
810.947	0.0170894
811.025	0.0170440
811.103	0.0170872
811.182	0.0171849
811.260	0.0172376
811.338	0.0174210
811.416	0.0174503
811.494	0.0174319
811.572	0.0174232
811.650	0.0173743
811.728	0.0174440
811.807	0.0174841
811.885	0.0173981
811.963	0.0172533
812.041	0.0172058
812.119	0.0171497
812.197	0.0169908
812.275	0.0167037
812.353	0.0166673
812.432	0.0164369
812.510	0.0161819
812.588	0.0161409
812.666	0.0159676
812.744	0.0159679
812.822	0.0158685
812.900	0.0158049
812.978	0.0158244
813.057	0.0160388
813.135	0.0161691
813.213	0.0162320
813.291	0.0164088
813.369	0.0165846
813.447	0.0167010
813.525	0.0168183
813.603	0.0169351
813.682	0.0170745
813.760	0.0172385
813.838	0.0173062
813.916	0.0173624
813.994	0.0176047
814.072	0.0176900
814.150	0.0176051
814.228	0.0176432
814.307	0.0176615
814.385	0.0175598
814.463	0.0175791
814.541	0.0176009
814.619	0.0174537
814.697	0.0174667
814.775	0.0173427
814.853	0.0172071
814.932	0.0171041
815.010	0.0170654
815.088	0.0171117
815.166	0.0169324
815.244	0.0168423
815.322	0.0168309
815.400	0.0167290
815.478	0.0167427
815.557	0.0167162
815.635	0.0166998
815.713	0.0167001
815.791	0.0167866
815.869	0.0168987
815.947	0.0169528
816.025	0.0169751
816.103	0.0170857
816.182	0.0170659
816.260	0.0171226
816.338	0.0170993
816.416	0.0171654
816.494	0.0171318
816.572	0.0171820
816.650	0.0169398
816.728	0.0170124
816.807	0.0169462
816.885	0.0170340
816.963	0.0169485
817.041	0.0169023
817.119	0.0167883
817.197	0.0166346
817.275	0.0167442
817.353	0.0166816
817.432	0.0165683
817.510	0.0165174
817.588	0.0164254
817.666	0.0165234
817.744	0.0164461
817.822	0.0164072
817.900	0.0164278
817.978	0.0163677
818.057	0.0163524
818.135	0.0162843
818.213	0.0165611
818.291	0.0164178
818.369	0.0164626
818.447	0.0166590
818.525	0.0166911
818.603	0.0168694
818.682	0.0170282
818.760	0.0169663
818.838	0.0171523
818.916	0.0173083
818.994	0.0174627
819.072	0.0174818
819.150	0.0174218
819.228	0.0175601
819.307	0.0175819
819.385	0.0176681
819.463	0.0175491
819.541	0.0173952
819.619	0.0175350
819.697	0.0174539
819.775	0.0173579
819.853	0.0173041
819.932	0.0172623
820.010	0.0170380
820.088	0.0169077
820.166	0.0169614
820.244	0.0168709
820.322	0.0168824
820.400	0.0168446
820.478	0.0168333
820.557	0.0168510
820.635	0.0167403
820.713	0.0167181
820.791	0.0168610
820.869	0.0167001
820.947	0.0165649
821.025	0.0165469
821.103	0.0162847
821.182	0.0162531
821.260	0.0163107
821.338	0.0161388
821.416	0.0159549
821.494	0.0160935
821.572	0.0161578
821.650	0.0160523
821.728	0.0160055
821.807	0.0161340
821.885	0.0162556
821.963	0.0164343
822.041	0.0165375
822.119	0.0167325
822.197	0.0167548
822.275	0.0168681
822.353	0.0170616
822.432	0.0169653
822.510	0.0172573
822.588	0.0172535
822.666	0.0171956
822.744	0.0173596
822.822	0.0175130
822.900	0.0172484
822.978	0.0174290
823.057	0.0174110
823.135	0.0172386
823.213	0.0171841
823.291	0.0171490
823.369	0.0169790
823.447	0.0170170
823.525	0.0168218
823.603	0.0168667
823.682	0.0169183
823.760	0.0168743
823.838	0.0169255
823.916	0.0168407
823.994	0.0169166
824.072	0.0167873
824.150	0.0170555
824.228	0.0169528
824.307	0.0168341
824.385	0.0169444
824.463	0.0169997
824.541	0.0170206
824.619	0.0169814
824.697	0.0171032
824.775	0.0169252
824.853	0.0169440
824.932	0.0171051
825.010	0.0169907
825.088	0.0170155
825.166	0.0171283
825.244	0.0171833
825.322	0.0170902
825.400	0.0173708
825.478	0.0171479
825.557	0.0169782
825.635	0.0171488
825.713	0.0172093
825.791	0.0170834
825.869	0.0170790
825.947	0.0170179
826.025	0.0170094
826.103	0.0169263
826.182	0.0168896
826.260	0.0168118
826.338	0.0169636
826.416	0.0169920
826.494	0.0168645
826.572	0.0168623
826.650	0.0167557
826.728	0.0168496
826.807	0.0167677
826.885	0.0168044
826.963	0.0167647
827.041	0.0165738
827.119	0.0167006
827.197	0.0166471
827.275	0.0165748
827.353	0.0163443
827.432	0.0163775
827.510	0.0164527
827.588	0.0162589
827.666	0.0161697
827.744	0.0162196
827.822	0.0162350
827.900	0.0163427
827.978	0.0162833
828.057	0.0163218
828.135	0.0163255
828.213	0.0164162
828.291	0.0164644
828.369	0.0165348
828.447	0.0166173
828.525	0.0168070
828.603	0.0168212
828.682	0.0167610
828.760	0.0168533
828.838	0.0168279
828.916	0.0169370
828.994	0.0169177
829.072	0.0168221
829.150	0.0168076
829.228	0.0170777
829.307	0.0170241
829.385	0.0170952
829.463	0.0170463
829.541	0.0171523
829.619	0.0173161
829.697	0.0173238
829.775	0.0172473
829.853	0.0173870
829.932	0.0174672
830.010	0.0175285
830.088	0.0176170
830.166	0.0175745
830.244	0.0175879
830.322	0.0175850
830.400	0.0175561
830.478	0.0175887
830.557	0.0175312
830.635	0.0175533
830.713	0.0174165
830.791	0.0174402
830.869	0.0172860
830.947	0.0170225
831.025	0.0170914
831.103	0.0170181
831.182	0.0168871
831.260	0.0168200
831.338	0.0166602
831.416	0.0166508
831.494	0.0166808
831.572	0.0166357
831.650	0.0165395
831.728	0.0165025
831.807	0.0164082
831.885	0.0163049
831.963	0.0165154
832.041	0.0166353
832.119	0.0166037
832.197	0.0164580
832.275	0.0165421
832.353	0.0164095
832.432	0.0166054
832.510	0.0167315
832.588	0.0166886
832.666	0.0166454
832.744	0.0167748
832.822	0.0167266
832.900	0.0167130
832.978	0.0167952
833.057	0.0168741
833.135	0.0167612
833.213	0.0166757
833.291	0.0166928
833.369	0.0168102
833.447	0.0168613
833.525	0.0166977
833.603	0.0167134
833.682	0.0168324
833.760	0.0168500
833.838	0.0168521
833.916	0.0170173
833.994	0.0170428
834.072	0.0171168
834.150	0.0169883
834.228	0.0170754
834.307	0.0172102
834.385	0.0173096
834.463	0.0173169
834.541	0.0174112
834.619	0.0173174
834.697	0.0174126
834.775	0.0174720
834.853	0.0173867
834.932	0.0174139
835.010	0.0173770
835.088	0.0172629
835.166	0.0173386
835.244	0.0171224
835.322	0.0170606
835.400	0.0170224
835.478	0.0168884
835.557	0.0169464
835.635	0.0168784
835.713	0.0168321
835.791	0.0169320
835.869	0.0167934
835.947	0.0167057
836.025	0.0169041
836.103	0.0170065
836.182	0.0170828
836.260	0.0171840
836.338	0.0171998
836.416	0.0172733
836.494	0.0171106
836.572	0.0173761
836.650	0.0174554
836.728	0.0172708
836.807	0.0173730
836.885	0.0174349
836.963	0.0172725
837.041	0.0172102
837.119	0.0172438
837.197	0.0172235
837.275	0.0170140
837.353	0.0168294
837.432	0.0167389
837.510	0.0166290
837.588	0.0166158
837.666	0.0166220
837.744	0.0165389
837.822	0.0165937
837.900	0.0165131
837.978	0.0165988
838.057	0.0165779
838.135	0.0164732
838.213	0.0165146
838.291	0.0167157
838.369	0.0166623
838.447	0.0166616
838.525	0.0167113
838.603	0.0168198
838.682	0.0167189
838.760	0.0168320
838.838	0.0168217
838.916	0.0167093
838.994	0.0167226
839.072	0.0167199
839.150	0.0166299
839.228	0.0168604
839.307	0.0167268
839.385	0.0167681
839.463	0.0168577
839.541	0.0167535
839.619	0.0167669
839.697	0.0167188
839.775	0.0168117
839.853	0.0168586
839.932	0.0167612
840.010	0.0169645
840.088	0.0171455
840.166	0.0172714
840.244	0.0169530
840.322	0.0170502
840.400	0.0171541
840.478	0.0171565
840.557	0.0172369
840.635	0.0175565
840.713	0.0175305
840.791	0.0173677
840.869	0.0175140
840.947	0.0176946
841.025	0.0176221
841.103	0.0174338
841.182	0.0175624
841.260	0.0175848
841.338	0.0172485
841.416	0.0172971
841.494	0.0172660
841.572	0.0172044
841.650	0.0171835
841.728	0.0170561
841.807	0.0169032
841.885	0.0169757
841.963	0.0168890
842.041	0.0168393
842.119	0.0168221
842.197	0.0168053
842.275	0.0167877
842.353	0.0167982
842.432	0.0167946
842.510	0.0168946
842.588	0.0168087
842.666	0.0167657
842.744	0.0168520
842.822	0.0168428
842.900	0.0168874
842.978	0.0166690
843.057	0.0167505
843.135	0.0165643
843.213	0.0165357
843.291	0.0165163
843.369	0.0164564
843.447	0.0164322
843.525	0.0164526
843.603	0.0164964
843.682	0.0165038
843.760	0.0165290
843.838	0.0163630
843.916	0.0166415
843.994	0.0166502
844.072	0.0165426
844.150	0.0164995
844.228	0.0166445
844.307	0.0166959
844.385	0.0166457
844.463	0.0168578
844.541	0.0167815
844.619	0.0168891
844.697	0.0169777
844.775	0.0169493
844.853	0.0169489
844.932	0.0170434
845.010	0.0169646
845.088	0.0168587
845.166	0.0169469
845.244	0.0170158
845.322	0.0170347
845.400	0.0170026
845.478	0.0169073
845.557	0.0170327
845.635	0.0168996
845.713	0.0166351
845.791	0.0167787
845.869	0.0168185
845.947	0.0167790
846.025	0.0167196
846.103	0.0167455
846.182	0.0167789
846.260	0.0168591
846.338	0.0169168
846.416	0.0168950
846.494	0.0170094
846.572	0.0169522
846.650	0.0169920
846.728	0.0170385
846.807	0.0171286
846.885	0.0172630
846.963	0.0171669
847.041	0.0172065
847.119	0.0171306
847.197	0.0171295
847.275	0.0172330
847.353	0.0170883
847.432	0.0170694
847.510	0.0170708
847.588	0.0171081
847.666	0.0173459
847.744	0.0170447
847.822	0.0169860
847.900	0.0169266
847.978	0.0169064
848.057	0.0167597
848.135	0.0169175
848.213	0.0168484
848.291	0.0168778
848.369	0.0166315
848.447	0.0167399
848.525	0.0166276
848.603	0.0166669
848.682	0.0167431
848.760	0.0167782
848.838	0.0168324
848.916	0.0168083
848.994	0.0169260
849.072	0.0168925
849.150	0.0168236
849.228	0.0169501
849.307	0.0170340
849.385	0.0168163
849.463	0.0169339
849.541	0.0169732
849.619	0.0168784
849.697	0.0168036
849.775	0.0170449
849.853	0.0168642
849.932	0.0168666
850.010	0.0169644
850.088	0.0168314
850.166	0.0167409
850.244	0.0168486
850.322	0.0168502
850.400	0.0169456
850.478	0.0168959
850.557	0.0168359
850.635	0.0167070
850.713	0.0168692
850.791	0.0168543
850.869	0.0168552
850.947	0.0168536
851.025	0.0167388
851.103	0.0167923
851.182	0.0169077
851.260	0.0168804
851.338	0.0168240
851.416	0.0168710
851.494	0.0169722
851.572	0.0169154
851.650	0.0169176
851.728	0.0168978
851.807	0.0169678
851.885	0.0169681
851.963	0.0168679
852.041	0.0168675
852.119	0.0170543
852.197	0.0170695
852.275	0.0169871
852.353	0.0170251
852.432	0.0169828
852.510	0.0170359
852.588	0.0169778
852.666	0.0170079
852.744	0.0169827
852.822	0.0170283
852.900	0.0169893
852.978	0.0171649
853.057	0.0171352
853.135	0.0171854
853.213	0.0172197
853.291	0.0172549
853.369	0.0171900
853.447	0.0171459
853.525	0.0172169
853.603	0.0172546
853.682	0.0172866
853.760	0.0172488
853.838	0.0172100
853.916	0.0171219
853.994	0.0170098
854.072	0.0170643
854.150	0.0169300
854.228	0.0167591
854.307	0.0167694
854.385	0.0168832
854.463	0.0167942
854.541	0.0165743
854.619	0.0165828
854.697	0.0166937
854.775	0.0167199
854.853	0.0165290
854.932	0.0165202
855.010	0.0165466
855.088	0.0166792
855.166	0.0167490
855.244	0.0168238
855.322	0.0167252
855.400	0.0168610
855.478	0.0168330
855.557	0.0169959
855.635	0.0168892
855.713	0.0169685
855.791	0.0170753
855.869	0.0171004
855.947	0.0169304
856.025	0.0169301
856.103	0.0169575
856.182	0.0170847
856.260	0.0171272
856.338	0.0169168
856.416	0.0170080
856.494	0.0169041
856.572	0.0169405
856.650	0.0168805
856.728	0.0166913
856.807	0.0167984
856.885	0.0167970
856.963	0.0169514
857.041	0.0167623
857.119	0.0167877
857.197	0.0167503
857.275	0.0167933
857.353	0.0169247
857.432	0.0169192
857.510	0.0169287
857.588	0.0168832
857.666	0.0168652
857.744	0.0170439
857.822	0.0169221
857.900	0.0169760
857.978	0.0170383
858.057	0.0170506
858.135	0.0169284
858.213	0.0169740
858.291	0.0169278
858.369	0.0169291
858.447	0.0171551
858.525	0.0168105
858.603	0.0169688
858.682	0.0168968
858.760	0.0169633
858.838	0.0168996
858.916	0.0169501
858.994	0.0171683
859.072	0.0170409
859.150	0.0169535
859.228	0.0171050
859.307	0.0170618
859.385	0.0170853
859.463	0.0171780
859.541	0.0171668
859.619	0.0170580
859.697	0.0170920
859.775	0.0170340
859.853	0.0169423
859.932	0.0168031
860.010	0.0168602
860.088	0.0168790
860.166	0.0168473
860.244	0.0170377
860.322	0.0167329
860.400	0.0166978
860.478	0.0167931
860.557	0.0167769
860.635	0.0167502
860.713	0.0167677
860.791	0.0167696
860.869	0.0168874
860.947	0.0168481
861.025	0.0167725
861.103	0.0167480
861.182	0.0167422
861.260	0.0167664
861.338	0.0168001
861.416	0.0168752
861.494	0.0168394
861.572	0.0168692
861.650	0.0168875
861.728	0.0169157
861.807	0.0168067
861.885	0.0168965
861.963	0.0167776
862.041	0.0167876
862.119	0.0167181
862.197	0.0166403
862.275	0.0167578
862.353	0.0166753
862.432	0.0167192
862.510	0.0166843
862.588	0.0166786
862.666	0.0166253
862.744	0.0164748
862.822	0.0165963
862.900	0.0166215
862.978	0.0166226
863.057	0.0166312
863.135	0.0165764
863.213	0.0165791
863.291	0.0167857
863.369	0.0165709
863.447	0.0165388
863.525	0.0165991
863.603	0.0168516
863.682	0.0166748
863.760	0.0167604
863.838	0.0169479
863.916	0.0167435
863.994	0.0169363
864.072	0.0169337
864.150	0.0169795
864.228	0.0169001
864.307	0.0170529
864.385	0.0169301
864.463	0.0170158
864.541	0.0170287
864.619	0.0171847
864.697	0.0170181
864.775	0.0168291
864.853	0.0169044
864.932	0.0168829
865.010	0.0170340
865.088	0.0169481
865.166	0.0168780
865.244	0.0169718
865.322	0.0170042
865.400	0.0170113
865.478	0.0169383
865.557	0.0171605
865.635	0.0171388
865.713	0.0170040
865.791	0.0170295
865.869	0.0171951
865.947	0.0171053
866.025	0.0171552
866.103	0.0171076
866.182	0.0172475
866.260	0.0170823
866.338	0.0169942
866.416	0.0171037
866.494	0.0168807
866.572	0.0170048
866.650	0.0169265
866.728	0.0169505
866.807	0.0167616
866.885	0.0167848
866.963	0.0167879
867.041	0.0165930
867.119	0.0166105
867.197	0.0167271
867.275	0.0166043
867.353	0.0166144
867.432	0.0164664
867.510	0.0165539
867.588	0.0165205
867.666	0.0164310
867.744	0.0164754
867.822	0.0166019
867.900	0.0164581
867.978	0.0166469
868.057	0.0166271
868.135	0.0167638
868.213	0.0167216
868.291	0.0166254
868.369	0.0168858
868.447	0.0166904
868.525	0.0168027
868.603	0.0167505
868.682	0.0166658
868.760	0.0167061
868.838	0.0169077
868.916	0.0166658
868.994	0.0165974
869.072	0.0166304
869.150	0.0166133
869.228	0.0164965
869.307	0.0165995
869.385	0.0166117
869.463	0.0166418
869.541	0.0165705
869.619	0.0164467
869.697	0.0165620
869.775	0.0166678
869.853	0.0167718
869.932	0.0167714
870.010	0.0168486
870.088	0.0169444
870.166	0.0168623
870.244	0.0169182
870.322	0.0169307
870.400	0.0168480
870.478	0.0169564
870.557	0.0169493
870.635	0.0170510
870.713	0.0170567
870.791	0.0169016
870.869	0.0168312
870.947	0.0169958
871.025	0.0168474
871.103	0.0168619
871.182	0.0166586
871.260	0.0167263
871.338	0.0167493
871.416	0.0167410
871.494	0.0168764
871.572	0.0168705
871.650	0.0168217
871.728	0.0168610
871.807	0.0169614
871.885	0.0169652
871.963	0.0169842
872.041	0.0171944
872.119	0.0170369
872.197	0.0170435
872.275	0.0171246
872.353	0.0170490
872.432	0.0170724
872.510	0.0169473
872.588	0.0169728
872.666	0.0172062
872.744	0.0172173
872.822	0.0172309
872.900	0.0170031
872.978	0.0168849
873.057	0.0169883
873.135	0.0169324
873.213	0.0169939
873.291	0.0168321
873.369	0.0168325
873.447	0.0168861
873.525	0.0168369
873.603	0.0167992
873.682	0.0167985
873.760	0.0167547
873.838	0.0165859
873.916	0.0167841
873.994	0.0168810
874.072	0.0166900
874.150	0.0167464
874.228	0.0166844
874.307	0.0166481
874.385	0.0166543
874.463	0.0166307
874.541	0.0167256
874.619	0.0167021
874.697	0.0165526
874.775	0.0166829
874.853	0.0167770
874.932	0.0168394
875.010	0.0167902
875.088	0.0166206
875.166	0.0169156
875.244	0.0168765
875.322	0.0169057
875.400	0.0168751
875.478	0.0168566
875.557	0.0168121
875.635	0.0169022
875.713	0.0169841
875.791	0.0168646
875.869	0.0168989
875.947	0.0167710
876.025	0.0169317
876.103	0.0168851
876.182	0.0167870
876.260	0.0169287
876.338	0.0168623
876.416	0.0169574
876.494	0.0169810
876.572	0.0169386
876.650	0.0169688
876.728	0.0171139
876.807	0.0171333
876.885	0.0171319
876.963	0.0171587
877.041	0.0172408
877.119	0.0172411
877.197	0.0172781
877.275	0.0171771
877.353	0.0170847
877.432	0.0172886
877.510	0.0172655
877.588	0.0171150
877.666	0.0171842
877.744	0.0170940
877.822	0.0169731
877.900	0.0170660
877.978	0.0169824
878.057	0.0169160
878.135	0.0169224
878.213	0.0170496
878.291	0.0168649
878.369	0.0167626
878.447	0.0167420
878.525	0.0167541
878.603	0.0167543
878.682	0.0168494
878.760	0.0167385
878.838	0.0167963
878.916	0.0168496
878.994	0.0168205
879.072	0.0168967
879.150	0.0168008
879.228	0.0169382
879.307	0.0168410
879.385	0.0166928
879.463	0.0169643
879.541	0.0169044
879.619	0.0168428
879.697	0.0169727
879.775	0.0169452
879.853	0.0170881
879.932	0.0170993
880.010	0.0170064
880.088	0.0170235
880.166	0.0170815
880.244	0.0170708
880.322	0.0170181
880.400	0.0171785
880.478	0.0169730
880.557	0.0169210
880.635	0.0170483
880.713	0.0170733
880.791	0.0170635
880.869	0.0171782
880.947	0.0170077
881.025	0.0170231
881.103	0.0171911
881.182	0.0171008
881.260	0.0170843
881.338	0.0170906
881.416	0.0170660
881.494	0.0171678
881.572	0.0171408
881.650	0.0170718
881.728	0.0170634
881.807	0.0170448
881.885	0.0169231
881.963	0.0170089
882.041	0.0169585
882.119	0.0168496
882.197	0.0167892
882.275	0.0169386
882.353	0.0167848
882.432	0.0167612
882.510	0.0167313
882.588	0.0168262
882.666	0.0169534
882.744	0.0168391
882.822	0.0169887
882.900	0.0169108
882.978	0.0169177
883.057	0.0169919
883.135	0.0170770
883.213	0.0169245
883.291	0.0171101
883.369	0.0168892
883.447	0.0168810
883.525	0.0168521
883.603	0.0169791
883.682	0.0168905
883.760	0.0169208
883.838	0.0169431
883.916	0.0167107
883.994	0.0167523
884.072	0.0166067
884.150	0.0166699
884.228	0.0167030
884.307	0.0166312
884.385	0.0167540
884.463	0.0165723
884.541	0.0166193
884.619	0.0165710
884.697	0.0166216
884.775	0.0167230
884.853	0.0166029
884.932	0.0168300
885.010	0.0168944
885.088	0.0166318
885.166	0.0167889
885.244	0.0168545
885.322	0.0168047
885.400	0.0167861
885.478	0.0168768
885.557	0.0169238
885.635	0.0168707
885.713	0.0167877
885.791	0.0169168
885.869	0.0169098
885.947	0.0168831
886.025	0.0167516
886.103	0.0167819
886.182	0.0169954
886.260	0.0168969
886.338	0.0168799
886.416	0.0167742
886.494	0.0167963
886.572	0.0168636
886.650	0.0168442
886.728	0.0166985
886.807	0.0169101
886.885	0.0167378
886.963	0.0167377
887.041	0.0168024
887.119	0.0167022
887.197	0.0167983
887.275	0.0167386
887.353	0.0167744
887.432	0.0167114
887.510	0.0169490
887.588	0.0168913
887.666	0.0167334
887.744	0.0167967
887.822	0.0168278
887.900	0.0168622
887.978	0.0168468
888.057	0.0168333
888.135	0.0168487
888.213	0.0168078
888.291	0.0167821
888.369	0.0168155
888.447	0.0167976
888.525	0.0166894
888.603	0.0167727
888.682	0.0167039
888.760	0.0167610
888.838	0.0168527
888.916	0.0168536
888.994	0.0167969
889.072	0.0168174
889.150	0.0166043
889.228	0.0166388
889.307	0.0167997
889.385	0.0167101
889.463	0.0167845
889.541	0.0168127
889.619	0.0166673
889.697	0.0167713
889.775	0.0168115
889.853	0.0167877
889.932	0.0167451
890.010	0.0167441
890.088	0.0167243
890.166	0.0168427
890.244	0.0168059
890.322	0.0166348
890.400	0.0166557
890.478	0.0166556
890.557	0.0165762
890.635	0.0166340
890.713	0.0166116
890.791	0.0166216
890.869	0.0166891
890.947	0.0166013
891.025	0.0166586
891.103	0.0166424
891.182	0.0165081
891.260	0.0164896
891.338	0.0166576
891.416	0.0166240
891.494	0.0165794
891.572	0.0165317
891.650	0.0166458
891.728	0.0167842
891.807	0.0166985
891.885	0.0167220
891.963	0.0167862
892.041	0.0169237
892.119	0.0169686
892.197	0.0168453
892.275	0.0168542
892.353	0.0169310
892.432	0.0170464
892.510	0.0170688
892.588	0.0171001
892.666	0.0168961
892.744	0.0169894
892.822	0.0172157
892.900	0.0170422
892.978	0.0169229
893.057	0.0170195
893.135	0.0169851
893.213	0.0170197
893.291	0.0169998
893.369	0.0169003
893.447	0.0169315
893.525	0.0169254
893.603	0.0168628
893.682	0.0167850
893.760	0.0167941
893.838	0.0169033
893.916	0.0168402
893.994	0.0167941
894.072	0.0167661
894.150	0.0167644
894.228	0.0168251
894.307	0.0168840
894.385	0.0167857
894.463	0.0167643
894.541	0.0168892
894.619	0.0168574
894.697	0.0168646
894.775	0.0168387
894.853	0.0167904
894.932	0.0168383
895.010	0.0167953
895.088	0.0168204
895.166	0.0169930
895.244	0.0168580
895.322	0.0169126
895.400	0.0167841
895.478	0.0168790
895.557	0.0169455
895.635	0.0168838
895.713	0.0168747
895.791	0.0168580
895.869	0.0168383
895.947	0.0168401
896.025	0.0166888
896.103	0.0168410
896.182	0.0168581
896.260	0.0170049
896.338	0.0168274
896.416	0.0167337
896.494	0.0168235
896.572	0.0169128
896.650	0.0168650
896.728	0.0168626
896.807	0.0168565
896.885	0.0168201
896.963	0.0167915
897.041	0.0168984
897.119	0.0169531
897.197	0.0167967
897.275	0.0169271
897.353	0.0169940
897.432	0.0169922
897.510	0.0168385
897.588	0.0169341
897.666	0.0168376
897.744	0.0168845
897.822	0.0168065
897.900	0.0167039
897.978	0.0168049
898.057	0.0168577
898.135	0.0168246
898.213	0.0168375
898.291	0.0168269
898.369	0.0168451
898.447	0.0167722
898.525	0.0165266
898.603	0.0165604
898.682	0.0168771
898.760	0.0168938
898.838	0.0167432
898.916	0.0168642
898.994	0.0169337
899.072	0.0168088
899.150	0.0168616
899.228	0.0167474
899.307	0.0171189
899.385	0.0170317
899.463	0.0169228
899.541	0.0170190
899.619	0.0170110
899.697	0.0171929
899.775	0.0171011
899.853	0.0171066
899.932	0.0171408
900.010	0.0171214
900.088	0.0170484
900.166	0.0170081
900.244	0.0171468
900.322	0.0170988
900.400	0.0169488
900.478	0.0169440
900.557	0.0170354
900.635	0.0168207
900.713	0.0168848
900.791	0.0168979
900.869	0.0167622
900.947	0.0168008
901.025	0.0168322
901.103	0.0167130
901.182	0.0168041
901.260	0.0166269
901.338	0.0168295
901.416	0.0166698
901.494	0.0165599
901.572	0.0167607
901.650	0.0167912
901.728	0.0166408
901.807	0.0166793
901.885	0.0167192
901.963	0.0168582
902.041	0.0167992
902.119	0.0168997
902.197	0.0167753
902.275	0.0167889
902.353	0.0168388
902.432	0.0168582
902.510	0.0169999
902.588	0.0170371
902.666	0.0170235
902.744	0.0169525
902.822	0.0170675
902.900	0.0170291
902.978	0.0171104
903.057	0.0171538
903.135	0.0170171
903.213	0.0169999
903.291	0.0169717
903.369	0.0169511
903.447	0.0170320
903.525	0.0169979
903.603	0.0169373
903.682	0.0168756
903.760	0.0170462
903.838	0.0168880
903.916	0.0167798
903.994	0.0167580
904.072	0.0169227
904.150	0.0169205
904.228	0.0168530
904.307	0.0168182
904.385	0.0168490
904.463	0.0168396
904.541	0.0169174
904.619	0.0167826
904.697	0.0168851
904.775	0.0168863
904.853	0.0170387
904.932	0.0169537
905.010	0.0168969
905.088	0.0170201
905.166	0.0169282
905.244	0.0170391
905.322	0.0169196
905.400	0.0169320
905.478	0.0171175
905.557	0.0171134
905.635	0.0169626
905.713	0.0170055
905.791	0.0170924
905.869	0.0170616
905.947	0.0170678
906.025	0.0169653
906.103	0.0168504
906.182	0.0168695
906.260	0.0169271
906.338	0.0169103
906.416	0.0170255
906.494	0.0169925
906.572	0.0168749
906.650	0.0170108
906.728	0.0169711
906.807	0.0168425
906.885	0.0167912
906.963	0.0169613
907.041	0.0168568
907.119	0.0169192
907.197	0.0168252
907.275	0.0169056
907.353	0.0169400
907.432	0.0169605
907.510	0.0168803
907.588	0.0169001
907.666	0.0169168
907.744	0.0170084
907.822	0.0169183
907.900	0.0170028
907.978	0.0169674
908.057	0.0169395
908.135	0.0168642
908.213	0.0168086
908.291	0.0167316
908.369	0.0166563
908.447	0.0168192
908.525	0.0169488
908.603	0.0167033
908.682	0.0167241
908.760	0.0166315
908.838	0.0167653
908.916	0.0167389
908.994	0.0167546
909.072	0.0167715
909.150	0.0166957
909.228	0.0166965
909.307	0.0168459
909.385	0.0169503
909.463	0.0167745
909.541	0.0167306
909.619	0.0168377
909.697	0.0169157
909.775	0.0168527
909.853	0.0167822
909.932	0.0168774
910.010	0.0168205
910.088	0.0169273
910.166	0.0170168
910.244	0.0170824
910.322	0.0170281
910.400	0.0170463
910.478	0.0170278
910.557	0.0170522
910.635	0.0170696
910.713	0.0171562
910.791	0.0172260
910.869	0.0171660
910.947	0.0171748
911.025	0.0172166
911.103	0.0171097
911.182	0.0171234
911.260	0.0170594
911.338	0.0171250
911.416	0.0170460
911.494	0.0171066
911.572	0.0171056
911.650	0.0169469
911.728	0.0169273
911.807	0.0169073
911.885	0.0169509
911.963	0.0168698
912.041	0.0168828
912.119	0.0169348
912.197	0.0168145
912.275	0.0168064
912.353	0.0168554
912.432	0.0168633
912.510	0.0168639
912.588	0.0168998
912.666	0.0169875
912.744	0.0169685
912.822	0.0167839
912.900	0.0167456
912.978	0.0168610
913.057	0.0168777
913.135	0.0168543
913.213	0.0168616
913.291	0.0168884
913.369	0.0167274
913.447	0.0168065
913.525	0.0166895
913.603	0.0167498
913.682	0.0166321
913.760	0.0168192
913.838	0.0169373
913.916	0.0167861
913.994	0.0167046
914.072	0.0167416
914.150	0.0168012
914.228	0.0166322
914.307	0.0166245
914.385	0.0167062
914.463	0.0168510
914.541	0.0168220
914.619	0.0167196
914.697	0.0168201
914.775	0.0167286
914.853	0.0167956
914.932	0.0167989
915.010	0.0167094
915.088	0.0166408
915.166	0.0169162
915.244	0.0169855
915.322	0.0169421
915.400	0.0169387
915.478	0.0169825
915.557	0.0171000
915.635	0.0170188
915.713	0.0169386
915.791	0.0169703
915.869	0.0170213
915.947	0.0170293
916.025	0.0168019
916.103	0.0167950
916.182	0.0168929
916.260	0.0168610
916.338	0.0169118
916.416	0.0167757
916.494	0.0168810
916.572	0.0169446
916.650	0.0168909
916.728	0.0168365
916.807	0.0168250
916.885	0.0169845
916.963	0.0169183
917.041	0.0169311
917.119	0.0167828
917.197	0.0168948
917.275	0.0169267
917.353	0.0169567
917.432	0.0168102
917.510	0.0168579
917.588	0.0169150
917.666	0.0168481
917.744	0.0167800
917.822	0.0168344
917.900	0.0167995
917.978	0.0168208
918.057	0.0168677
918.135	0.0168506
918.213	0.0168117
918.291	0.0168662
918.369	0.0167842
918.447	0.0166901
918.525	0.0167637
918.603	0.0169006
918.682	0.0168195
918.760	0.0167397
918.838	0.0166328
918.916	0.0166961
918.994	0.0168378
919.072	0.0167374
919.150	0.0168128
919.228	0.0168685
919.307	0.0167378
919.385	0.0168256
919.463	0.0169001
919.541	0.0168229
919.619	0.0168526
919.697	0.0169716
919.775	0.0169079
919.853	0.0167901
919.932	0.0169298
920.010	0.0169061
920.088	0.0169844
920.166	0.0168824
920.244	0.0166857
920.322	0.0166677
920.400	0.0166360
920.478	0.0166972
920.557	0.0166547
920.635	0.0165568
920.713	0.0165975
920.791	0.0165292
920.869	0.0166328
920.947	0.0165784
921.025	0.0166700
921.103	0.0166878
921.182	0.0167113
921.260	0.0168246
921.338	0.0168499
921.416	0.0167881
921.494	0.0168154
921.572	0.0168162
921.650	0.0168293
921.728	0.0167165
921.807	0.0168665
921.885	0.0169691
921.963	0.0168386
922.041	0.0169212
922.119	0.0170151
922.197	0.0169910
922.275	0.0168462
922.353	0.0168263
922.432	0.0168553
922.510	0.0169423
922.588	0.0169678
922.666	0.0169826
922.744	0.0168236
922.822	0.0169171
922.900	0.0170135
922.978	0.0170401
923.057	0.0168241
923.135	0.0167448
923.213	0.0168019
923.291	0.0167772
923.369	0.0168660
923.447	0.0168394
923.525	0.0167947
923.603	0.0168203
923.682	0.0167612
923.760	0.0167734
923.838	0.0168488
923.916	0.0168928
923.994	0.0167188
924.072	0.0166945
924.150	0.0167175
924.228	0.0167448
924.307	0.0168034
924.385	0.0169057
924.463	0.0167611
924.541	0.0167639
924.619	0.0168766
924.697	0.0168186
924.775	0.0166912
924.853	0.0167467
924.932	0.0167647
925.010	0.0167432
925.088	0.0167717
925.166	0.0166750
925.244	0.0167395
925.322	0.0167619
925.400	0.0166436
925.478	0.0167719
925.557	0.0166776
925.635	0.0166869
925.713	0.0167422
925.791	0.0166721
925.869	0.0167172
925.947	0.0166305
926.025	0.0166718
926.103	0.0166986
926.182	0.0167108
926.260	0.0169128
926.338	0.0167930
926.416	0.0166890
926.494	0.0167902
926.572	0.0169882
926.650	0.0169760
926.728	0.0168760
926.807	0.0170655
926.885	0.0169700
926.963	0.0170692
927.041	0.0171496
927.119	0.0170744
927.197	0.0171317
927.275	0.0170063
927.353	0.0171992
927.432	0.0171921
927.510	0.0171021
927.588	0.0168955
927.666	0.0168579
927.744	0.0170338
927.822	0.0169503
927.900	0.0168527
927.978	0.0168644
928.057	0.0168534
928.135	0.0167951
928.213	0.0168182
928.291	0.0166905
928.369	0.0168064
928.447	0.0169727
928.525	0.0168385
928.603	0.0169492
928.682	0.0169653
928.760	0.0169049
928.838	0.0169376
928.916	0.0170426
928.994	0.0170789
929.072	0.0171133
929.150	0.0171561
929.228	0.0170702
929.307	0.0172293
929.385	0.0170899
929.463	0.0171554
929.541	0.0171407
929.619	0.0171336
929.697	0.0171389
929.775	0.0170827
929.853	0.0169647
929.932	0.0170107
930.010	0.0171375
930.088	0.0171243
930.166	0.0171799
930.244	0.0169321
930.322	0.0170630
930.400	0.0171748
930.478	0.0169774
930.557	0.0169774
930.635	0.0168941
930.713	0.0169598
930.791	0.0169326
930.869	0.0169053
930.947	0.0170097
931.025	0.0169501
931.103	0.0167726
931.182	0.0168439
931.260	0.0169667
931.338	0.0168383
931.416	0.0169636
931.494	0.0169836
931.572	0.0169152
931.650	0.0169836
931.728	0.0168943
931.807	0.0170924
931.885	0.0170025
931.963	0.0169776
932.041	0.0170753
932.119	0.0169755
932.197	0.0171430
932.275	0.0170246
932.353	0.0168803
932.432	0.0168539
932.510	0.0168784
932.588	0.0168457
932.666	0.0169580
932.744	0.0168642
932.822	0.0168038
932.900	0.0168767
932.978	0.0168032
933.057	0.0170772
933.135	0.0169645
933.213	0.0169079
933.291	0.0170325
933.369	0.0169446
933.447	0.0168734
933.525	0.0169632
933.603	0.0169924
933.682	0.0169605
933.760	0.0169513
933.838	0.0168180
933.916	0.0168878
933.994	0.0169834
934.072	0.0168459
934.150	0.0168970
934.228	0.0169110
934.307	0.0168797
934.385	0.0169211
934.463	0.0169735
934.541	0.0169629
934.619	0.0169766
934.697	0.0171192
934.775	0.0170350
934.853	0.0169807
934.932	0.0170584
935.010	0.0169894
935.088	0.0168730
935.166	0.0169910
935.244	0.0170031
935.322	0.0169960
935.400	0.0169366
935.478	0.0168929
935.557	0.0170055
935.635	0.0170279
935.713	0.0169588
935.791	0.0169392
935.869	0.0168450
935.947	0.0171143
936.025	0.0169205
936.103	0.0171062
936.182	0.0170971
936.260	0.0171439
936.338	0.0170950
936.416	0.0171053
936.494	0.0170735
936.572	0.0170631
936.650	0.0171086
936.728	0.0170826
936.807	0.0169702
936.885	0.0170629
936.963	0.0168957
937.041	0.0169129
937.119	0.0170010
937.197	0.0170802
937.275	0.0169191
937.353	0.0168681
937.432	0.0169246
937.510	0.0168437
937.588	0.0168089
937.666	0.0168722
937.744	0.0169713
937.822	0.0168026
937.900	0.0168171
937.978	0.0168795
938.057	0.0167584
938.135	0.0167705
938.213	0.0170138
938.291	0.0167809
938.369	0.0170876
938.447	0.0170030
938.525	0.0168880
938.603	0.0169901
938.682	0.0169632
938.760	0.0169380
938.838	0.0170526
938.916	0.0169973
938.994	0.0170103
939.072	0.0169968
939.150	0.0170358
939.228	0.0169436
939.307	0.0169054
939.385	0.0170628
939.463	0.0168041
939.541	0.0169536
939.619	0.0169087
939.697	0.0169610
939.775	0.0168944
939.853	0.0170689
939.932	0.0169836
940.010	0.0169479
940.088	0.0169323
940.166	0.0167651
940.244	0.0168993
940.322	0.0170093
940.400	0.0169526
940.478	0.0170423
940.557	0.0168431
940.635	0.0168684
940.713	0.0168340
940.791	0.0168945
940.869	0.0169050
940.947	0.0169008
941.025	0.0169180
941.103	0.0169703
941.182	0.0168762
941.260	0.0169954
941.338	0.0169666
941.416	0.0169968
941.494	0.0169308
941.572	0.0168627
941.650	0.0168499
941.728	0.0169783
941.807	0.0169302
941.885	0.0170096
941.963	0.0168626
942.041	0.0168561
942.119	0.0168844
942.197	0.0169095
942.275	0.0167648
942.353	0.0169238
942.432	0.0169351
942.510	0.0167934
942.588	0.0169067
942.666	0.0169006
942.744	0.0169942
942.822	0.0169773
942.900	0.0169335
942.978	0.0169061
943.057	0.0168898
943.135	0.0168826
943.213	0.0168526
943.291	0.0168223
943.369	0.0168611
943.447	0.0168507
943.525	0.0168137
943.603	0.0169311
943.682	0.0168623
943.760	0.0168617
943.838	0.0168348
943.916	0.0168473
943.994	0.0167754
944.072	0.0167356
944.150	0.0167319
944.228	0.0165160
944.307	0.0167342
944.385	0.0165946
944.463	0.0165623
944.541	0.0164888
944.619	0.0165389
944.697	0.0166325
944.775	0.0165620
944.853	0.0166708
944.932	0.0166812
945.010	0.0166776
945.088	0.0165247
945.166	0.0166607
945.244	0.0167047
945.322	0.0166191
945.400	0.0168448
945.478	0.0168205
945.557	0.0169105
945.635	0.0167928
945.713	0.0167697
945.791	0.0168369
945.869	0.0169086
945.947	0.0168504
946.025	0.0168333
946.103	0.0169279
946.182	0.0169206
946.260	0.0167987
946.338	0.0168919
946.416	0.0169411
946.494	0.0168740
946.572	0.0169508
946.650	0.0169137
946.728	0.0168385
946.807	0.0168673
946.885	0.0168793
946.963	0.0169383
947.041	0.0168374
947.119	0.0168336
947.197	0.0168742
947.275	0.0168272
947.353	0.0169028
947.432	0.0168476
947.510	0.0169377
947.588	0.0167858
947.666	0.0168620
947.744	0.0167886
947.822	0.0167417
947.900	0.0168521
947.978	0.0168093
948.057	0.0167194
948.135	0.0167467
948.213	0.0167528
948.291	0.0166663
948.369	0.0167431
948.447	0.0168752
948.525	0.0167452
948.603	0.0167496
948.682	0.0166949
948.760	0.0166536
948.838	0.0166290
948.916	0.0167566
948.994	0.0167918
949.072	0.0166985
949.150	0.0168477
949.228	0.0168006
949.307	0.0167193
949.385	0.0167102
949.463	0.0168990
949.541	0.0167550
949.619	0.0166870
949.697	0.0168449
949.775	0.0166307
949.853	0.0167838
949.932	0.0167159
950.010	0.0166014
950.088	0.0165633
950.166	0.0169070
950.244	0.0166261
950.322	0.0166425
950.400	0.0167150
950.478	0.0167019
950.557	0.0167153
950.635	0.0166339
950.713	0.0168494
950.791	0.0167342
950.869	0.0168368
950.947	0.0168115
951.025	0.0167886
951.103	0.0167959
951.182	0.0168355
951.260	0.0168792
951.338	0.0169902
951.416	0.0168530
951.494	0.0168555
951.572	0.0167560
951.650	0.0168718
951.728	0.0167631
951.807	0.0168603
951.885	0.0167853
951.963	0.0168343
952.041	0.0168682
952.119	0.0169194
952.197	0.0168962
952.275	0.0169086
952.353	0.0168661
952.432	0.0169194
952.510	0.0168444
952.588	0.0168989
952.666	0.0170134
952.744	0.0167539
952.822	0.0167889
952.900	0.0169840
952.978	0.0169788
953.057	0.0168259
953.135	0.0169288
953.213	0.0169160
953.291	0.0168410
953.369	0.0167980
953.447	0.0168565
953.525	0.0168751
953.603	0.0169277
953.682	0.0169477
953.760	0.0170157
953.838	0.0169354
953.916	0.0169245
953.994	0.0169431
954.072	0.0169517
954.150	0.0169717
954.228	0.0170098
954.307	0.0169716
954.385	0.0169989
954.463	0.0168919
954.541	0.0167771
954.619	0.0169655
954.697	0.0169086
954.775	0.0169494
954.853	0.0169157
954.932	0.0168188
955.010	0.0169184
955.088	0.0169353
955.166	0.0168578
955.244	0.0168169
955.322	0.0169069
955.400	0.0169047
955.478	0.0169325
955.557	0.0169588
955.635	0.0168662
955.713	0.0168574
955.791	0.0168744
955.869	0.0168253
955.947	0.0169278
956.025	0.0168890
956.103	0.0168829
956.182	0.0168444
956.260	0.0168766
956.338	0.0169460
956.416	0.0168433
956.494	0.0169583
956.572	0.0170264
956.650	0.0168456
956.728	0.0169601
956.807	0.0170701
956.885	0.0168655
956.963	0.0169496
957.041	0.0169605
957.119	0.0169664
957.197	0.0171001
957.275	0.0170547
957.353	0.0169190
957.432	0.0168961
957.510	0.0169770
957.588	0.0168889
957.666	0.0168671
957.744	0.0168485
957.822	0.0168098
957.900	0.0169439
957.978	0.0170872
958.057	0.0171432
958.135	0.0167732
958.213	0.0170130
958.291	0.0170583
958.369	0.0170008
958.447	0.0170901
958.525	0.0173075
958.603	0.0171459
958.682	0.0170354
958.760	0.0170515
958.838	0.0172068
958.916	0.0170843
958.994	0.0170825
959.072	0.0171627
959.150	0.0171542
959.228	0.0171448
959.307	0.0171154
959.385	0.0170924
959.463	0.0168230
959.541	0.0170487
959.619	0.0170346
959.697	0.0168607
959.775	0.0169296
959.853	0.0168925
959.932	0.0168455
960.010	0.0167709
960.088	0.0168545
960.166	0.0169704
960.244	0.0169016
960.322	0.0169936
960.400	0.0168019
960.478	0.0168763
960.557	0.0168826
960.635	0.0169096
960.713	0.0169267
960.791	0.0170261
960.869	0.0170078
960.947	0.0169548
961.025	0.0168758
961.103	0.0169638
961.182	0.0169175
961.260	0.0167348
961.338	0.0168671
961.416	0.0168661
961.494	0.0169108
961.572	0.0168800
961.650	0.0168774
961.728	0.0169092
961.807	0.0169511
961.885	0.0169303
961.963	0.0168649
962.041	0.0169975
962.119	0.0168130
962.197	0.0168179
962.275	0.0167262
962.353	0.0168078
962.432	0.0167374
962.510	0.0166819
962.588	0.0166746
962.666	0.0168868
962.744	0.0167522
962.822	0.0167024
962.900	0.0166991
962.978	0.0168501
963.057	0.0168596
963.135	0.0169158
963.213	0.0168909
963.291	0.0170278
963.369	0.0170669
963.447	0.0169754
963.525	0.0169711
963.603	0.0169189
963.682	0.0169237
963.760	0.0169364
963.838	0.0169717
963.916	0.0169445
963.994	0.0169664
964.072	0.0167188
964.150	0.0167804
964.228	0.0168680
964.307	0.0167385
964.385	0.0168395
964.463	0.0167851
964.541	0.0167538
964.619	0.0168355
964.697	0.0167270
964.775	0.0167869
964.853	0.0166969
964.932	0.0167044
965.010	0.0168973
965.088	0.0170257
965.166	0.0169192
965.244	0.0168284
965.322	0.0168285
965.400	0.0170712
965.478	0.0170989
965.557	0.0169197
965.635	0.0170776
965.713	0.0171316
965.791	0.0169035
965.869	0.0169803
965.947	0.0170456
966.025	0.0170390
966.103	0.0171496
966.182	0.0169350
966.260	0.0168039
966.338	0.0169760
966.416	0.0168268
966.494	0.0168575
966.572	0.0168726
966.650	0.0168447
966.728	0.0167604
966.807	0.0169141
966.885	0.0167277
966.963	0.0168458
967.041	0.0168053
967.119	0.0167870
967.197	0.0166569
967.275	0.0166459
967.353	0.0167419
967.432	0.0167490
967.510	0.0169080
967.588	0.0166960
967.666	0.0166616
967.744	0.0167600
967.822	0.0168190
967.900	0.0167123
967.978	0.0166877
968.057	0.0167551
968.135	0.0167984
968.213	0.0168193
968.291	0.0167705
968.369	0.0168070
968.447	0.0167596
968.525	0.0167348
968.603	0.0167991
968.682	0.0167625
968.760	0.0167319
968.838	0.0166053
968.916	0.0165946
968.994	0.0166422
969.072	0.0166751
969.150	0.0167657
969.228	0.0166978
969.307	0.0166755
969.385	0.0167242
969.463	0.0168081
969.541	0.0168514
969.619	0.0168078
969.697	0.0167091
969.775	0.0167880
969.853	0.0167804
969.932	0.0169888
