06/10/2022	16:32:18	Ver.	4.1	UNKNOWN
Optical Delay	650.009681	Delta X		0.078125	Sweeps	1	Scan Rate	0/0
Coordinates	Axis 1	NaN	Axis 2	NaN	Axis 3	NaN	Axis 4	NaN	Axis 5	NaN	Axis 6	0.000000
TX Power	0.000000	RX Power	0.000000

650.010	0.0166138
650.088	0.0167137
650.166	0.0167065
650.244	0.0167126
650.322	0.0166133
650.400	0.0165775
650.478	0.0166640
650.557	0.0166957
650.635	0.0165462
650.713	0.0166145
650.791	0.0167747
650.869	0.0167752
650.947	0.0166487
651.025	0.0165076
651.103	0.0165533
651.182	0.0165771
651.260	0.0165398
651.338	0.0166298
651.416	0.0166180
651.494	0.0166551
651.572	0.0166751
651.650	0.0166408
651.728	0.0165627
651.807	0.0164768
651.885	0.0166370
651.963	0.0166289
652.041	0.0167081
652.119	0.0165608
652.197	0.0167046
652.275	0.0164642
652.353	0.0166603
652.432	0.0164879
652.510	0.0165280
652.588	0.0165486
652.666	0.0166541
652.744	0.0166700
652.822	0.0166380
652.900	0.0165509
652.978	0.0165995
653.057	0.0166858
653.135	0.0165819
653.213	0.0165813
653.291	0.0165710
653.369	0.0167223
653.447	0.0166402
653.525	0.0166879
653.603	0.0166864
653.682	0.0166514
653.760	0.0167065
653.838	0.0166359
653.916	0.0165426
653.994	0.0167002
654.072	0.0166291
654.150	0.0165691
654.228	0.0165582
654.307	0.0165664
654.385	0.0166405
654.463	0.0165812
654.541	0.0166641
654.619	0.0166548
654.697	0.0166154
654.775	0.0167573
654.853	0.0165675
654.932	0.0165464
655.010	0.0165361
655.088	0.0165804
655.166	0.0166559
655.244	0.0165847
655.322	0.0165488
655.400	0.0165094
655.478	0.0167220
655.557	0.0167216
655.635	0.0165633
655.713	0.0166739
655.791	0.0166573
655.869	0.0166019
655.947	0.0167469
656.025	0.0166744
656.103	0.0165548
656.182	0.0166419
656.260	0.0166750
656.338	0.0166422
656.416	0.0166832
656.494	0.0166997
656.572	0.0165754
656.650	0.0166490
656.728	0.0166280
656.807	0.0166449
656.885	0.0167711
656.963	0.0165633
657.041	0.0165800
657.119	0.0166671
657.197	0.0167490
657.275	0.0165516
657.353	0.0166839
657.432	0.0166375
657.510	0.0166779
657.588	0.0167039
657.666	0.0167346
657.744	0.0167303
657.822	0.0167448
657.900	0.0166407
657.978	0.0166401
658.057	0.0166634
658.135	0.0166402
658.213	0.0166623
658.291	0.0166425
658.369	0.0167243
658.447	0.0164468
658.525	0.0166792
658.603	0.0166045
658.682	0.0165758
658.760	0.0167287
658.838	0.0166673
658.916	0.0167457
658.994	0.0166444
659.072	0.0167448
659.150	0.0166728
659.228	0.0166634
659.307	0.0167073
659.385	0.0167150
659.463	0.0166528
659.541	0.0166602
659.619	0.0167312
659.697	0.0165877
659.775	0.0165498
659.853	0.0166443
659.932	0.0166064
660.010	0.0167237
660.088	0.0166890
660.166	0.0165865
660.244	0.0166179
660.322	0.0167248
660.400	0.0166554
660.478	0.0167023
660.557	0.0167401
660.635	0.0167097
660.713	0.0167339
660.791	0.0166361
660.869	0.0166423
660.947	0.0166967
661.025	0.0167230
661.103	0.0167188
661.182	0.0166723
661.260	0.0166111
661.338	0.0167225
661.416	0.0166418
661.494	0.0167043
661.572	0.0166859
661.650	0.0167611
661.728	0.0167287
661.807	0.0166879
661.885	0.0166253
661.963	0.0168069
662.041	0.0166629
662.119	0.0166585
662.197	0.0167832
662.275	0.0166650
662.353	0.0167258
662.432	0.0166988
662.510	0.0166709
662.588	0.0166950
662.666	0.0166702
662.744	0.0167161
662.822	0.0167270
662.900	0.0165962
662.978	0.0165210
663.057	0.0166638
663.135	0.0166338
663.213	0.0166590
663.291	0.0166308
663.369	0.0166766
663.447	0.0165814
663.525	0.0166697
663.603	0.0165381
663.682	0.0166882
663.760	0.0165944
663.838	0.0166145
663.916	0.0166799
663.994	0.0165157
664.072	0.0165617
664.150	0.0166484
664.228	0.0166521
664.307	0.0166251
664.385	0.0166003
664.463	0.0165869
664.541	0.0166460
664.619	0.0167155
664.697	0.0165320
664.775	0.0166202
664.853	0.0165868
664.932	0.0167365
665.010	0.0166525
665.088	0.0165284
665.166	0.0166913
665.244	0.0166939
665.322	0.0167927
665.400	0.0166218
665.478	0.0166753
665.557	0.0167062
665.635	0.0167050
665.713	0.0167123
665.791	0.0166538
665.869	0.0167504
665.947	0.0167691
666.025	0.0166627
666.103	0.0167004
666.182	0.0166973
666.260	0.0165652
666.338	0.0166875
666.416	0.0166458
666.494	0.0165305
666.572	0.0167657
666.650	0.0165443
666.728	0.0165696
666.807	0.0164928
666.885	0.0166595
666.963	0.0166561
667.041	0.0164876
667.119	0.0166944
667.197	0.0167558
667.275	0.0166145
667.353	0.0167616
667.432	0.0166885
667.510	0.0165897
667.588	0.0166830
667.666	0.0165801
667.744	0.0166539
667.822	0.0167252
667.900	0.0166613
667.978	0.0166656
668.057	0.0166457
668.135	0.0166805
668.213	0.0167519
668.291	0.0166230
668.369	0.0165330
668.447	0.0165152
668.525	0.0165854
668.603	0.0166322
668.682	0.0166627
668.760	0.0166589
668.838	0.0165579
668.916	0.0165530
668.994	0.0166501
669.072	0.0167947
669.150	0.0165580
669.228	0.0167476
669.307	0.0165555
669.385	0.0165823
669.463	0.0166539
669.541	0.0166027
669.619	0.0165247
669.697	0.0165413
669.775	0.0165929
669.853	0.0165643
669.932	0.0167112
670.010	0.0166805
670.088	0.0165418
670.166	0.0166306
670.244	0.0166598
670.322	0.0166415
670.400	0.0166767
670.478	0.0166069
670.557	0.0166095
670.635	0.0164864
670.713	0.0166145
670.791	0.0166845
670.869	0.0166547
670.947	0.0164816
671.025	0.0166938
671.103	0.0166651
671.182	0.0164940
671.260	0.0165791
671.338	0.0164870
671.416	0.0165395
671.494	0.0166749
671.572	0.0166525
671.650	0.0166771
671.728	0.0166071
671.807	0.0165383
671.885	0.0164141
671.963	0.0166637
672.041	0.0166113
672.119	0.0164588
672.197	0.0166599
672.275	0.0165784
672.353	0.0166827
672.432	0.0165724
672.510	0.0165746
672.588	0.0165104
672.666	0.0164624
672.744	0.0166575
672.822	0.0166986
672.900	0.0165974
672.978	0.0166004
673.057	0.0165872
673.135	0.0164339
673.213	0.0166937
673.291	0.0166197
673.369	0.0165661
673.447	0.0164005
673.525	0.0165115
673.603	0.0166178
673.682	0.0166777
673.760	0.0164751
673.838	0.0166962
673.916	0.0165278
673.994	0.0165801
674.072	0.0165642
674.150	0.0166040
674.228	0.0166808
674.307	0.0166230
674.385	0.0166491
674.463	0.0165000
674.541	0.0165695
674.619	0.0165765
674.697	0.0165997
674.775	0.0164718
674.853	0.0166171
674.932	0.0166740
675.010	0.0165707
675.088	0.0166167
675.166	0.0165148
675.244	0.0165423
675.322	0.0166599
675.400	0.0165934
675.478	0.0164789
675.557	0.0166733
675.635	0.0167785
675.713	0.0166894
675.791	0.0166306
675.869	0.0167677
675.947	0.0167140
676.025	0.0166024
676.103	0.0166379
676.182	0.0166412
676.260	0.0165681
676.338	0.0166451
676.416	0.0166160
676.494	0.0166668
676.572	0.0166051
676.650	0.0166479
676.728	0.0166960
676.807	0.0166906
676.885	0.0166779
676.963	0.0165726
677.041	0.0167030
677.119	0.0167094
677.197	0.0166169
677.275	0.0165755
677.353	0.0166215
677.432	0.0165907
677.510	0.0165732
677.588	0.0166425
677.666	0.0166544
677.744	0.0166989
677.822	0.0166035
677.900	0.0166956
677.978	0.0165516
678.057	0.0165936
678.135	0.0166773
678.213	0.0165778
678.291	0.0166445
678.369	0.0165744
678.447	0.0166151
678.525	0.0166125
678.603	0.0166338
678.682	0.0164651
678.760	0.0165405
678.838	0.0165286
678.916	0.0167348
678.994	0.0167200
679.072	0.0166433
679.150	0.0166054
679.228	0.0166565
679.307	0.0166141
679.385	0.0165856
679.463	0.0167228
679.541	0.0167101
679.619	0.0166209
679.697	0.0166592
679.775	0.0166046
679.853	0.0166788
679.932	0.0166991
680.010	0.0166459
680.088	0.0166129
680.166	0.0165978
680.244	0.0166803
680.322	0.0166914
680.400	0.0166331
680.478	0.0166193
680.557	0.0166228
680.635	0.0166534
680.713	0.0166631
680.791	0.0165879
680.869	0.0166489
680.947	0.0165442
681.025	0.0167928
681.103	0.0167273
681.182	0.0165048
681.260	0.0167487
681.338	0.0166631
681.416	0.0166129
681.494	0.0167576
681.572	0.0166144
681.650	0.0167231
681.728	0.0166158
681.807	0.0166022
681.885	0.0167363
681.963	0.0167000
682.041	0.0166830
682.119	0.0167353
682.197	0.0165604
682.275	0.0166367
682.353	0.0166479
682.432	0.0164410
682.510	0.0165884
682.588	0.0166818
682.666	0.0166808
682.744	0.0166570
682.822	0.0166325
682.900	0.0166666
682.978	0.0165518
683.057	0.0165913
683.135	0.0165449
683.213	0.0167551
683.291	0.0166565
683.369	0.0166631
683.447	0.0166885
683.525	0.0166273
683.603	0.0165990
683.682	0.0166809
683.760	0.0165508
683.838	0.0165321
683.916	0.0166197
683.994	0.0166573
684.072	0.0166938
684.150	0.0166625
684.228	0.0165377
684.307	0.0166166
684.385	0.0166132
684.463	0.0165787
684.541	0.0167769
684.619	0.0165955
684.697	0.0165410
684.775	0.0167213
684.853	0.0167249
684.932	0.0167600
685.010	0.0166956
685.088	0.0166138
685.166	0.0165789
685.244	0.0165939
685.322	0.0166838
685.400	0.0165266
685.478	0.0164393
685.557	0.0165487
685.635	0.0166708
685.713	0.0166775
685.791	0.0166251
685.869	0.0165506
685.947	0.0165488
686.025	0.0166553
686.103	0.0167071
686.182	0.0167750
686.260	0.0165296
686.338	0.0164697
686.416	0.0165543
686.494	0.0166129
686.572	0.0166008
686.650	0.0165392
686.728	0.0166118
686.807	0.0165390
686.885	0.0165598
686.963	0.0165211
687.041	0.0166245
687.119	0.0165893
687.197	0.0165701
687.275	0.0165524
687.353	0.0165336
687.432	0.0165734
687.510	0.0166266
687.588	0.0165939
687.666	0.0165980
687.744	0.0165043
687.822	0.0165628
687.900	0.0164834
687.978	0.0166710
688.057	0.0165751
688.135	0.0166111
688.213	0.0165930
688.291	0.0166580
688.369	0.0166411
688.447	0.0166170
688.525	0.0164856
688.603	0.0166617
688.682	0.0166560
688.760	0.0165643
688.838	0.0166136
688.916	0.0165835
688.994	0.0165222
689.072	0.0165688
689.150	0.0164754
689.228	0.0165800
689.307	0.0165871
689.385	0.0165498
689.463	0.0165929
689.541	0.0166090
689.619	0.0165018
689.697	0.0164955
689.775	0.0164121
689.853	0.0164259
689.932	0.0164021
690.010	0.0165123
690.088	0.0165463
690.166	0.0165830
690.244	0.0165536
690.322	0.0166725
690.400	0.0164384
690.478	0.0165469
690.557	0.0165469
690.635	0.0166552
690.713	0.0166055
690.791	0.0165652
690.869	0.0165272
690.947	0.0165622
691.025	0.0165546
691.103	0.0167023
691.182	0.0164947
691.260	0.0166100
691.338	0.0165600
691.416	0.0165987
691.494	0.0164691
691.572	0.0165894
691.650	0.0167101
691.728	0.0165782
691.807	0.0165227
691.885	0.0165891
691.963	0.0167033
692.041	0.0165198
692.119	0.0166757
692.197	0.0166808
692.275	0.0166767
692.353	0.0164900
692.432	0.0166121
692.510	0.0166505
692.588	0.0165117
692.666	0.0166396
692.744	0.0165498
692.822	0.0166240
692.900	0.0166982
692.978	0.0165730
693.057	0.0166339
693.135	0.0166629
693.213	0.0166456
693.291	0.0165788
693.369	0.0165131
693.447	0.0164479
693.525	0.0166196
693.603	0.0165540
693.682	0.0165258
693.760	0.0165444
693.838	0.0164437
693.916	0.0166146
693.994	0.0165664
694.072	0.0165923
694.150	0.0165521
694.228	0.0165564
694.307	0.0166534
694.385	0.0166019
694.463	0.0164449
694.541	0.0165698
694.619	0.0163687
694.697	0.0167197
694.775	0.0165252
694.853	0.0165643
694.932	0.0163824
695.010	0.0165998
695.088	0.0165012
695.166	0.0164352
695.244	0.0165317
695.322	0.0165877
695.400	0.0164822
695.478	0.0164680
695.557	0.0164957
695.635	0.0166177
695.713	0.0165178
695.791	0.0165067
695.869	0.0164603
695.947	0.0165236
696.025	0.0166851
696.103	0.0165965
696.182	0.0165334
696.260	0.0165324
696.338	0.0165181
696.416	0.0165702
696.494	0.0164522
696.572	0.0163410
696.650	0.0165701
696.728	0.0166290
696.807	0.0164764
696.885	0.0166450
696.963	0.0166129
697.041	0.0166306
697.119	0.0165869
697.197	0.0165950
697.275	0.0167101
697.353	0.0166168
697.432	0.0165563
697.510	0.0167955
697.588	0.0166824
697.666	0.0165309
697.744	0.0166415
697.822	0.0166622
697.900	0.0166910
697.978	0.0166754
698.057	0.0164722
698.135	0.0166090
698.213	0.0168234
698.291	0.0167401
698.369	0.0165925
698.447	0.0165079
698.525	0.0165930
698.603	0.0165945
698.682	0.0165829
698.760	0.0166607
698.838	0.0165455
698.916	0.0165421
698.994	0.0166241
699.072	0.0166637
699.150	0.0165982
699.228	0.0166401
699.307	0.0166120
699.385	0.0167130
699.463	0.0165763
699.541	0.0166430
699.619	0.0166529
699.697	0.0165481
699.775	0.0166634
699.853	0.0166244
699.932	0.0165299
700.010	0.0166756
700.088	0.0165509
700.166	0.0165997
700.244	0.0167862
700.322	0.0166293
700.400	0.0165823
700.478	0.0165818
700.557	0.0167539
700.635	0.0166854
700.713	0.0166293
700.791	0.0166281
700.869	0.0166203
700.947	0.0167184
701.025	0.0167389
701.103	0.0166369
701.182	0.0167109
701.260	0.0168014
701.338	0.0167453
701.416	0.0166897
701.494	0.0165968
701.572	0.0166206
701.650	0.0165964
701.728	0.0166203
701.807	0.0166162
701.885	0.0164453
701.963	0.0166700
702.041	0.0166737
702.119	0.0166193
702.197	0.0165343
702.275	0.0166972
702.353	0.0167194
702.432	0.0166016
702.510	0.0165787
702.588	0.0166093
702.666	0.0164948
702.744	0.0165237
702.822	0.0165949
702.900	0.0165768
702.978	0.0166171
703.057	0.0166629
703.135	0.0166897
703.213	0.0166093
703.291	0.0167118
703.369	0.0166691
703.447	0.0165980
703.525	0.0166222
703.603	0.0167123
703.682	0.0167542
703.760	0.0165728
703.838	0.0166944
703.916	0.0167126
703.994	0.0168138
704.072	0.0167052
704.150	0.0166135
704.228	0.0166937
704.307	0.0166609
704.385	0.0167164
704.463	0.0165526
704.541	0.0168243
704.619	0.0168370
704.697	0.0166053
704.775	0.0165857
704.853	0.0166620
704.932	0.0167192
705.010	0.0167404
705.088	0.0167523
705.166	0.0167140
705.244	0.0166418
705.322	0.0166837
705.400	0.0166010
705.478	0.0165621
705.557	0.0167458
705.635	0.0166400
705.713	0.0166904
705.791	0.0166000
705.869	0.0165732
705.947	0.0165969
706.025	0.0166784
706.103	0.0166306
706.182	0.0165886
706.260	0.0165034
706.338	0.0166169
706.416	0.0166957
706.494	0.0166252
706.572	0.0164056
706.650	0.0165821
706.728	0.0165154
706.807	0.0167313
706.885	0.0166811
706.963	0.0166126
707.041	0.0165224
707.119	0.0167001
707.197	0.0166990
707.275	0.0165889
707.353	0.0165299
707.432	0.0166300
707.510	0.0167036
707.588	0.0165841
707.666	0.0166840
707.744	0.0166280
707.822	0.0167385
707.900	0.0166723
707.978	0.0166918
708.057	0.0164677
708.135	0.0166676
708.213	0.0168060
708.291	0.0166827
708.369	0.0166750
708.447	0.0166607
708.525	0.0165937
708.603	0.0167070
708.682	0.0166458
708.760	0.0166926
708.838	0.0165952
708.916	0.0166900
708.994	0.0167130
709.072	0.0166183
709.150	0.0166267
709.228	0.0167322
709.307	0.0167194
709.385	0.0166599
709.463	0.0165047
709.541	0.0166502
709.619	0.0167158
709.697	0.0165455
709.775	0.0165647
709.853	0.0164703
709.932	0.0164587
710.010	0.0164706
710.088	0.0165799
710.166	0.0164915
710.244	0.0164951
710.322	0.0164451
710.400	0.0163727
710.478	0.0165952
710.557	0.0165920
710.635	0.0164262
710.713	0.0165623
710.791	0.0165773
710.869	0.0164946
710.947	0.0165250
711.025	0.0165618
711.103	0.0165473
711.182	0.0164120
711.260	0.0165431
711.338	0.0165874
711.416	0.0165429
711.494	0.0164150
711.572	0.0166179
711.650	0.0166506
711.728	0.0165764
711.807	0.0165260
711.885	0.0164449
711.963	0.0165568
712.041	0.0167139
712.119	0.0166436
712.197	0.0165118
712.275	0.0164478
712.353	0.0165156
712.432	0.0165786
712.510	0.0164809
712.588	0.0165967
712.666	0.0165351
712.744	0.0165497
712.822	0.0166781
712.900	0.0166186
712.978	0.0166412
713.057	0.0164920
713.135	0.0164917
713.213	0.0165401
713.291	0.0164666
713.369	0.0164801
713.447	0.0165807
713.525	0.0165826
713.603	0.0164325
713.682	0.0164599
713.760	0.0165464
713.838	0.0164304
713.916	0.0164925
713.994	0.0165511
714.072	0.0165607
714.150	0.0166435
714.228	0.0166550
714.307	0.0166267
714.385	0.0167060
714.463	0.0166920
714.541	0.0166003
714.619	0.0167389
714.697	0.0166249
714.775	0.0165910
714.853	0.0163132
714.932	0.0163318
715.010	0.0164099
715.088	0.0162836
715.166	0.0163512
715.244	0.0162345
715.322	0.0162593
715.400	0.0163721
715.478	0.0165051
715.557	0.0163525
715.635	0.0166199
715.713	0.0165537
715.791	0.0166364
715.869	0.0164811
715.947	0.0166491
716.025	0.0168181
716.103	0.0167444
716.182	0.0167936
716.260	0.0167706
716.338	0.0166838
716.416	0.0167106
716.494	0.0167635
716.572	0.0165625
716.650	0.0166399
716.728	0.0166764
716.807	0.0166217
716.885	0.0165184
716.963	0.0165119
717.041	0.0165034
717.119	0.0165228
717.197	0.0165856
717.275	0.0165986
717.353	0.0164366
717.432	0.0165161
717.510	0.0165746
717.588	0.0165617
717.666	0.0165615
717.744	0.0164049
717.822	0.0164474
717.900	0.0165390
717.978	0.0163834
718.057	0.0163712
718.135	0.0165432
718.213	0.0165462
718.291	0.0165398
718.369	0.0165687
718.447	0.0168185
718.525	0.0167493
718.603	0.0168413
718.682	0.0168514
718.760	0.0168173
718.838	0.0169912
718.916	0.0169765
718.994	0.0169061
719.072	0.0168465
719.150	0.0169039
719.228	0.0166802
719.307	0.0165879
719.385	0.0165472
719.463	0.0164551
719.541	0.0163746
719.619	0.0164137
719.697	0.0162322
719.775	0.0163400
719.853	0.0164172
719.932	0.0162436
720.010	0.0163525
720.088	0.0165559
720.166	0.0165326
720.244	0.0166090
720.322	0.0166077
720.400	0.0166272
720.478	0.0167143
720.557	0.0168187
720.635	0.0168537
720.713	0.0169221
720.791	0.0168208
720.869	0.0169290
720.947	0.0171127
721.025	0.0169140
721.103	0.0170189
721.182	0.0169603
721.260	0.0168571
721.338	0.0168703
721.416	0.0167662
721.494	0.0166539
721.572	0.0167285
721.650	0.0166487
721.728	0.0166064
721.807	0.0165843
721.885	0.0163921
721.963	0.0163477
722.041	0.0164344
722.119	0.0163717
722.197	0.0163248
722.275	0.0163376
722.353	0.0165414
722.432	0.0164787
722.510	0.0164678
722.588	0.0166139
722.666	0.0167043
722.744	0.0166632
722.822	0.0167979
722.900	0.0167542
722.978	0.0166781
723.057	0.0167554
723.135	0.0167532
723.213	0.0167744
723.291	0.0168772
723.369	0.0169357
723.447	0.0167901
723.525	0.0169469
723.603	0.0168166
723.682	0.0169955
723.760	0.0167632
723.838	0.0167884
723.916	0.0166702
723.994	0.0168148
724.072	0.0168736
724.150	0.0165310
724.228	0.0165208
724.307	0.0165761
724.385	0.0166039
724.463	0.0163500
724.541	0.0164767
724.619	0.0165469
724.697	0.0164495
724.775	0.0163845
724.853	0.0164808
724.932	0.0165615
725.010	0.0165868
725.088	0.0166138
725.166	0.0165511
725.244	0.0165479
725.322	0.0168069
725.400	0.0168414
725.478	0.0167574
725.557	0.0168357
725.635	0.0166479
725.713	0.0167274
725.791	0.0168891
725.869	0.0169315
725.947	0.0167809
726.025	0.0167028
726.103	0.0165710
726.182	0.0165714
726.260	0.0165265
726.338	0.0164259
726.416	0.0164187
726.494	0.0163429
726.572	0.0164136
726.650	0.0163425
726.728	0.0165370
726.807	0.0164805
726.885	0.0166458
726.963	0.0164822
727.041	0.0166058
727.119	0.0165051
727.197	0.0165256
727.275	0.0166685
727.353	0.0165667
727.432	0.0165414
727.510	0.0165897
727.588	0.0166124
727.666	0.0165051
727.744	0.0166227
727.822	0.0165832
727.900	0.0165630
727.978	0.0165493
728.057	0.0165392
728.135	0.0163969
728.213	0.0165594
728.291	0.0167165
728.369	0.0166499
728.447	0.0165591
728.525	0.0166419
728.603	0.0165553
728.682	0.0165773
728.760	0.0165210
728.838	0.0166209
728.916	0.0165261
728.994	0.0165408
729.072	0.0164868
729.150	0.0165929
729.228	0.0166924
729.307	0.0165277
729.385	0.0165820
729.463	0.0165981
729.541	0.0163648
729.619	0.0165101
729.697	0.0165205
729.775	0.0163873
729.853	0.0165495
729.932	0.0164757
730.010	0.0166091
730.088	0.0166083
730.166	0.0165475
730.244	0.0166962
730.322	0.0165768
730.400	0.0166718
730.478	0.0166818
730.557	0.0166371
730.635	0.0166870
730.713	0.0166752
730.791	0.0166628
730.869	0.0165347
730.947	0.0165152
731.025	0.0165714
731.103	0.0164548
731.182	0.0163094
731.260	0.0163807
731.338	0.0164979
731.416	0.0164011
731.494	0.0163071
731.572	0.0163374
731.650	0.0163590
731.728	0.0163662
731.807	0.0163791
731.885	0.0164973
731.963	0.0166138
732.041	0.0168037
732.119	0.0167223
732.197	0.0168025
732.275	0.0169140
732.353	0.0168093
732.432	0.0167961
732.510	0.0169029
732.588	0.0168309
732.666	0.0168302
732.744	0.0167554
732.822	0.0165099
732.900	0.0165219
732.978	0.0164909
733.057	0.0163338
733.135	0.0161333
733.213	0.0162716
733.291	0.0161884
733.369	0.0160531
733.447	0.0160900
733.525	0.0160997
733.603	0.0165039
733.682	0.0164194
733.760	0.0164108
733.838	0.0165749
733.916	0.0168525
733.994	0.0169106
734.072	0.0168204
734.150	0.0169419
734.228	0.0170832
734.307	0.0171272
734.385	0.0170192
734.463	0.0169732
734.541	0.0169996
734.619	0.0169451
734.697	0.0168494
734.775	0.0167651
734.853	0.0168552
734.932	0.0166574
735.010	0.0164278
735.088	0.0164948
735.166	0.0163098
735.244	0.0164098
735.322	0.0164174
735.400	0.0163737
735.478	0.0163292
735.557	0.0163441
735.635	0.0164178
735.713	0.0163309
735.791	0.0163440
735.869	0.0163205
735.947	0.0164217
736.025	0.0163371
736.103	0.0164165
736.182	0.0166148
736.260	0.0166986
736.338	0.0167553
736.416	0.0170314
736.494	0.0170484
736.572	0.0171284
736.650	0.0173257
736.728	0.0173126
736.807	0.0172700
736.885	0.0173296
736.963	0.0173071
737.041	0.0170432
737.119	0.0170378
737.197	0.0168860
737.275	0.0167420
737.353	0.0165725
737.432	0.0164780
737.510	0.0162364
737.588	0.0161744
737.666	0.0160296
737.744	0.0159365
737.822	0.0159192
737.900	0.0158650
737.978	0.0159189
738.057	0.0160951
738.135	0.0160880
738.213	0.0161768
738.291	0.0164027
738.369	0.0165766
738.447	0.0166695
738.525	0.0168133
738.603	0.0169426
738.682	0.0170511
738.760	0.0170924
738.838	0.0172522
738.916	0.0172698
738.994	0.0171053
739.072	0.0171753
739.150	0.0171194
739.228	0.0170820
739.307	0.0168925
739.385	0.0167242
739.463	0.0166106
739.541	0.0165840
739.619	0.0164908
739.697	0.0164138
739.775	0.0163038
739.853	0.0162535
739.932	0.0162028
740.010	0.0162680
740.088	0.0162414
740.166	0.0162592
740.244	0.0163704
740.322	0.0163165
740.400	0.0163704
740.478	0.0163921
740.557	0.0163933
740.635	0.0164492
740.713	0.0165248
740.791	0.0165734
740.869	0.0165992
740.947	0.0165430
741.025	0.0165811
741.103	0.0166613
741.182	0.0167851
741.260	0.0168005
741.338	0.0166429
741.416	0.0167428
741.494	0.0168338
741.572	0.0168561
741.650	0.0168751
741.728	0.0168158
741.807	0.0168140
741.885	0.0167516
741.963	0.0167619
742.041	0.0166723
742.119	0.0167771
742.197	0.0167097
742.275	0.0165563
742.353	0.0165679
742.432	0.0164486
742.510	0.0163220
742.588	0.0164844
742.666	0.0162959
742.744	0.0163478
742.822	0.0164037
742.900	0.0163593
742.978	0.0164924
743.057	0.0164317
743.135	0.0163992
743.213	0.0165410
743.291	0.0166116
743.369	0.0165924
743.447	0.0167041
743.525	0.0167702
743.603	0.0168635
743.682	0.0167358
743.760	0.0166335
743.838	0.0168539
743.916	0.0168222
743.994	0.0167906
744.072	0.0167608
744.150	0.0167869
744.228	0.0167510
744.307	0.0168253
744.385	0.0166686
744.463	0.0167969
744.541	0.0169360
744.619	0.0167813
744.697	0.0166571
744.775	0.0168111
744.853	0.0168301
744.932	0.0167990
745.010	0.0167175
745.088	0.0166558
745.166	0.0167515
745.244	0.0167434
745.322	0.0167052
745.400	0.0165374
745.478	0.0166235
745.557	0.0165958
745.635	0.0165140
745.713	0.0165711
745.791	0.0163908
745.869	0.0165408
745.947	0.0163896
746.025	0.0166493
746.103	0.0166801
746.182	0.0164832
746.260	0.0165928
746.338	0.0166126
746.416	0.0166544
746.494	0.0166577
746.572	0.0168782
746.650	0.0167668
746.728	0.0167444
746.807	0.0166466
746.885	0.0166412
746.963	0.0169013
747.041	0.0167188
747.119	0.0167404
747.197	0.0168577
747.275	0.0167101
747.353	0.0166969
747.432	0.0167287
747.510	0.0166229
747.588	0.0166216
747.666	0.0166346
747.744	0.0165996
747.822	0.0166322
747.900	0.0164388
747.978	0.0164231
748.057	0.0165079
748.135	0.0164854
748.213	0.0164661
748.291	0.0164910
748.369	0.0164763
748.447	0.0163606
748.525	0.0164771
748.603	0.0165299
748.682	0.0164816
748.760	0.0164880
748.838	0.0164906
748.916	0.0164617
748.994	0.0166872
749.072	0.0166684
749.150	0.0168557
749.228	0.0167049
749.307	0.0166689
749.385	0.0166521
749.463	0.0166087
749.541	0.0165916
749.619	0.0166576
749.697	0.0166241
749.775	0.0165945
749.853	0.0167961
749.932	0.0167047
750.010	0.0166465
750.088	0.0167229
750.166	0.0165938
750.244	0.0165916
750.322	0.0165377
750.400	0.0165836
750.478	0.0165493
750.557	0.0165983
750.635	0.0164857
750.713	0.0165875
750.791	0.0164433
750.869	0.0164799
750.947	0.0165798
751.025	0.0166088
751.103	0.0164154
751.182	0.0164864
751.260	0.0164175
751.338	0.0163822
751.416	0.0163885
751.494	0.0164851
751.572	0.0163780
751.650	0.0165351
751.728	0.0165769
751.807	0.0164341
751.885	0.0165061
751.963	0.0165634
752.041	0.0167042
752.119	0.0166641
752.197	0.0165545
752.275	0.0165228
752.353	0.0165627
752.432	0.0166644
752.510	0.0166861
752.588	0.0164344
752.666	0.0166132
752.744	0.0165793
752.822	0.0165964
752.900	0.0165923
752.978	0.0165968
753.057	0.0166458
753.135	0.0165393
753.213	0.0165222
753.291	0.0165491
753.369	0.0166373
753.447	0.0164796
753.525	0.0164388
753.603	0.0166212
753.682	0.0165970
753.760	0.0164757
753.838	0.0165398
753.916	0.0167101
753.994	0.0165695
754.072	0.0166568
754.150	0.0166971
754.228	0.0166399
754.307	0.0167257
754.385	0.0165936
754.463	0.0166504
754.541	0.0167687
754.619	0.0166997
754.697	0.0166640
754.775	0.0167006
754.853	0.0166852
754.932	0.0166579
755.010	0.0167882
755.088	0.0168398
755.166	0.0166200
755.244	0.0165337
755.322	0.0166055
755.400	0.0164732
755.478	0.0166060
755.557	0.0165645
755.635	0.0165939
755.713	0.0165384
755.791	0.0165060
755.869	0.0164308
755.947	0.0165201
756.025	0.0165537
756.103	0.0165038
756.182	0.0164392
756.260	0.0166005
756.338	0.0166268
756.416	0.0165954
756.494	0.0166023
756.572	0.0165418
756.650	0.0164203
756.728	0.0165681
756.807	0.0165418
756.885	0.0166448
756.963	0.0165810
757.041	0.0165646
757.119	0.0166701
757.197	0.0165970
757.275	0.0165734
757.353	0.0165932
757.432	0.0167324
757.510	0.0166087
757.588	0.0167233
757.666	0.0166386
757.744	0.0165878
757.822	0.0165938
757.900	0.0165055
757.978	0.0164736
758.057	0.0166302
758.135	0.0164989
758.213	0.0165318
758.291	0.0166805
758.369	0.0166511
758.447	0.0164867
758.525	0.0167124
758.603	0.0165259
758.682	0.0165184
758.760	0.0165419
758.838	0.0165521
758.916	0.0164932
758.994	0.0165426
759.072	0.0166631
759.150	0.0165381
759.228	0.0166898
759.307	0.0164788
759.385	0.0165319
759.463	0.0167562
759.541	0.0168107
759.619	0.0167034
759.697	0.0166506
759.775	0.0166695
759.853	0.0167288
759.932	0.0166444
760.010	0.0166413
760.088	0.0166611
760.166	0.0167080
760.244	0.0165616
760.322	0.0166980
760.400	0.0167433
760.478	0.0168047
760.557	0.0167201
760.635	0.0167528
760.713	0.0168050
760.791	0.0165696
760.869	0.0167094
760.947	0.0165879
761.025	0.0167410
761.103	0.0165762
761.182	0.0164265
761.260	0.0164599
761.338	0.0166482
761.416	0.0164939
761.494	0.0164951
761.572	0.0165085
761.650	0.0165998
761.728	0.0164778
761.807	0.0167178
761.885	0.0166383
761.963	0.0167825
762.041	0.0168008
762.119	0.0168071
762.197	0.0168031
762.275	0.0169398
762.353	0.0169843
762.432	0.0168667
762.510	0.0168240
762.588	0.0168258
762.666	0.0167915
762.744	0.0168845
762.822	0.0168766
762.900	0.0166646
762.978	0.0166451
763.057	0.0165598
763.135	0.0164323
763.213	0.0165446
763.291	0.0162942
763.369	0.0162841
763.447	0.0163689
763.525	0.0163466
763.603	0.0163108
763.682	0.0163037
763.760	0.0164922
763.838	0.0163909
763.916	0.0163588
763.994	0.0164814
764.072	0.0164000
764.150	0.0165616
764.228	0.0167905
764.307	0.0167001
764.385	0.0167528
764.463	0.0167255
764.541	0.0169890
764.619	0.0167928
764.697	0.0169113
764.775	0.0168823
764.853	0.0168264
764.932	0.0168230
765.010	0.0169592
765.088	0.0170148
765.166	0.0170745
765.244	0.0169761
765.322	0.0170356
765.400	0.0169621
765.478	0.0169415
765.557	0.0170705
765.635	0.0170647
765.713	0.0168250
765.791	0.0167494
765.869	0.0167509
765.947	0.0166518
766.025	0.0166670
766.103	0.0165074
766.182	0.0165420
766.260	0.0165345
766.338	0.0163797
766.416	0.0162784
766.494	0.0163666
766.572	0.0162556
766.650	0.0163331
766.728	0.0162968
766.807	0.0163585
766.885	0.0164150
766.963	0.0165089
767.041	0.0164765
767.119	0.0163997
767.197	0.0166251
767.275	0.0167367
767.353	0.0166925
767.432	0.0169823
767.510	0.0166553
767.588	0.0167422
767.666	0.0168587
767.744	0.0166901
767.822	0.0168736
767.900	0.0166779
767.978	0.0167233
768.057	0.0167522
768.135	0.0167325
768.213	0.0167367
768.291	0.0167152
768.369	0.0166550
768.447	0.0168181
768.525	0.0167480
768.603	0.0166758
768.682	0.0167493
768.760	0.0166346
768.838	0.0166866
768.916	0.0166966
768.994	0.0165645
769.072	0.0165863
769.150	0.0165761
769.228	0.0165018
769.307	0.0163640
769.385	0.0164948
769.463	0.0163398
769.541	0.0163493
769.619	0.0165447
769.697	0.0165101
769.775	0.0163972
769.853	0.0165691
769.932	0.0166788
770.010	0.0167019
770.088	0.0165840
770.166	0.0167419
770.244	0.0167682
770.322	0.0167799
770.400	0.0168427
770.478	0.0167747
770.557	0.0168095
770.635	0.0169441
770.713	0.0169457
770.791	0.0167511
770.869	0.0166981
770.947	0.0166427
771.025	0.0165162
771.103	0.0164284
771.182	0.0163099
771.260	0.0163145
771.338	0.0162254
771.416	0.0160311
771.494	0.0161098
771.572	0.0161066
771.650	0.0161340
771.728	0.0161895
771.807	0.0162476
771.885	0.0163159
771.963	0.0164060
772.041	0.0164343
772.119	0.0164915
772.197	0.0166810
772.275	0.0167447
772.353	0.0169552
772.432	0.0170417
772.510	0.0171265
772.588	0.0172370
772.666	0.0172884
772.744	0.0173930
772.822	0.0175011
772.900	0.0174968
772.978	0.0174155
773.057	0.0175152
773.135	0.0173997
773.213	0.0173965
773.291	0.0172303
773.369	0.0169586
773.447	0.0169830
773.525	0.0167429
773.603	0.0165993
773.682	0.0166579
773.760	0.0163412
773.838	0.0161860
773.916	0.0162035
773.994	0.0162037
774.072	0.0161558
774.150	0.0159853
774.228	0.0160244
774.307	0.0159952
774.385	0.0159575
774.463	0.0160168
774.541	0.0159547
774.619	0.0159007
774.697	0.0159476
774.775	0.0160345
774.853	0.0159407
774.932	0.0158453
775.010	0.0160830
775.088	0.0160942
775.166	0.0163501
775.244	0.0163151
775.322	0.0165957
775.400	0.0167030
775.478	0.0165160
775.557	0.0166969
775.635	0.0167455
775.713	0.0168761
775.791	0.0168990
775.869	0.0169133
775.947	0.0169688
776.025	0.0170303
776.103	0.0170166
776.182	0.0170876
776.260	0.0169700
776.338	0.0171382
776.416	0.0170381
776.494	0.0171188
776.572	0.0171703
776.650	0.0170041
776.728	0.0171669
776.807	0.0170665
776.885	0.0171201
776.963	0.0170065
777.041	0.0169162
777.119	0.0170058
777.197	0.0170799
777.275	0.0169696
777.353	0.0169027
777.432	0.0167171
777.510	0.0166547
777.588	0.0168111
777.666	0.0166774
777.744	0.0164369
777.822	0.0164603
777.900	0.0163857
777.978	0.0163199
778.057	0.0162103
778.135	0.0162408
778.213	0.0161863
778.291	0.0160368
778.369	0.0159911
778.447	0.0158780
778.525	0.0158207
778.603	0.0158829
778.682	0.0157384
778.760	0.0156702
778.838	0.0160011
778.916	0.0156441
778.994	0.0156821
779.072	0.0158278
779.150	0.0158581
779.228	0.0159073
779.307	0.0159007
779.385	0.0160825
779.463	0.0160877
779.541	0.0163194
779.619	0.0164427
779.697	0.0163086
779.775	0.0165426
779.853	0.0166686
779.932	0.0168637
780.010	0.0170118
780.088	0.0171086
780.166	0.0172762
780.244	0.0172561
780.322	0.0173048
780.400	0.0172803
780.478	0.0175197
780.557	0.0175165
780.635	0.0175433
780.713	0.0176149
780.791	0.0176208
780.869	0.0174345
780.947	0.0175921
781.025	0.0175227
781.103	0.0175179
781.182	0.0174680
781.260	0.0172702
781.338	0.0170864
781.416	0.0169565
781.494	0.0166512
781.572	0.0165331
781.650	0.0165389
781.728	0.0164481
781.807	0.0163464
781.885	0.0164330
781.963	0.0162943
782.041	0.0162260
782.119	0.0162327
782.197	0.0162725
782.275	0.0162188
782.353	0.0161536
782.432	0.0160168
782.510	0.0160362
782.588	0.0159930
782.666	0.0159130
782.744	0.0159016
782.822	0.0157244
782.900	0.0157133
782.978	0.0155989
783.057	0.0156355
783.135	0.0154948
783.213	0.0154577
783.291	0.0156458
783.369	0.0158039
783.447	0.0158195
783.525	0.0159978
783.603	0.0161401
783.682	0.0160951
783.760	0.0162764
783.838	0.0164730
783.916	0.0166926
783.994	0.0168744
784.072	0.0169820
784.150	0.0169849
784.228	0.0171791
784.307	0.0172505
784.385	0.0172633
784.463	0.0173300
784.541	0.0172958
784.619	0.0173801
784.697	0.0173673
784.775	0.0174271
784.853	0.0174387
784.932	0.0174002
785.010	0.0173473
785.088	0.0172652
785.166	0.0173566
785.244	0.0174828
785.322	0.0173253
785.400	0.0172894
785.478	0.0171857
785.557	0.0171257
785.635	0.0170293
785.713	0.0169316
785.791	0.0169261
785.869	0.0168089
785.947	0.0166484
786.025	0.0165211
786.103	0.0162828
786.182	0.0162614
786.260	0.0161299
786.338	0.0159564
786.416	0.0159996
786.494	0.0158896
786.572	0.0158615
786.650	0.0157700
786.728	0.0158272
786.807	0.0157922
786.885	0.0158628
786.963	0.0159122
787.041	0.0159554
787.119	0.0159264
787.197	0.0159992
787.275	0.0162035
787.353	0.0163097
787.432	0.0164317
787.510	0.0164267
787.588	0.0165134
787.666	0.0165467
787.744	0.0166959
787.822	0.0167448
787.900	0.0166933
787.978	0.0168156
788.057	0.0167231
788.135	0.0168552
788.213	0.0167372
788.291	0.0167233
788.369	0.0167114
788.447	0.0168306
788.525	0.0167572
788.603	0.0167570
788.682	0.0168203
788.760	0.0167068
788.838	0.0168432
788.916	0.0168893
788.994	0.0168798
789.072	0.0169320
789.150	0.0168558
789.228	0.0169682
789.307	0.0169359
789.385	0.0169174
789.463	0.0169814
789.541	0.0169257
789.619	0.0168794
789.697	0.0168404
789.775	0.0168989
789.853	0.0168373
789.932	0.0168673
790.010	0.0167898
790.088	0.0167142
790.166	0.0167540
790.244	0.0166824
790.322	0.0168758
790.400	0.0167235
790.478	0.0167159
790.557	0.0166016
790.635	0.0165815
790.713	0.0163766
790.791	0.0164552
790.869	0.0165486
790.947	0.0163190
791.025	0.0162191
791.103	0.0162408
791.182	0.0161794
791.260	0.0159406
791.338	0.0159841
791.416	0.0159919
791.494	0.0160010
791.572	0.0159695
791.650	0.0160252
791.728	0.0159817
791.807	0.0161523
791.885	0.0162286
791.963	0.0163808
792.041	0.0163927
792.119	0.0165443
792.197	0.0165001
792.275	0.0166441
792.353	0.0168002
792.432	0.0167666
792.510	0.0167622
792.588	0.0169306
792.666	0.0169415
792.744	0.0169960
792.822	0.0169500
792.900	0.0167941
792.978	0.0171260
793.057	0.0169638
793.135	0.0169356
793.213	0.0168935
793.291	0.0170187
793.369	0.0169115
793.447	0.0168840
793.525	0.0168836
793.603	0.0169641
793.682	0.0168888
793.760	0.0169063
793.838	0.0167344
793.916	0.0167179
793.994	0.0166758
794.072	0.0165391
794.150	0.0165079
794.228	0.0163180
794.307	0.0162808
794.385	0.0162409
794.463	0.0163655
794.541	0.0162048
794.619	0.0162791
794.697	0.0162767
794.775	0.0163612
794.853	0.0163189
794.932	0.0164754
795.010	0.0165298
795.088	0.0165048
795.166	0.0166400
795.244	0.0166500
795.322	0.0166671
795.400	0.0168395
795.478	0.0169257
795.557	0.0169608
795.635	0.0169383
795.713	0.0169632
795.791	0.0170819
795.869	0.0168748
795.947	0.0170130
796.025	0.0169843
796.103	0.0171101
796.182	0.0169728
796.260	0.0169320
796.338	0.0169428
796.416	0.0169012
796.494	0.0168465
796.572	0.0167856
796.650	0.0168092
796.728	0.0165968
796.807	0.0164705
796.885	0.0163644
796.963	0.0164319
797.041	0.0163757
797.119	0.0163879
797.197	0.0162169
797.275	0.0160694
797.353	0.0161093
797.432	0.0162280
797.510	0.0162621
797.588	0.0162601
797.666	0.0162653
797.744	0.0160793
797.822	0.0162136
797.900	0.0163169
797.978	0.0163229
798.057	0.0165695
798.135	0.0165240
798.213	0.0165985
798.291	0.0167368
798.369	0.0167654
798.447	0.0167458
798.525	0.0168391
798.603	0.0170917
798.682	0.0170409
798.760	0.0170690
798.838	0.0170325
798.916	0.0168995
798.994	0.0169317
799.072	0.0166952
799.150	0.0167960
799.228	0.0165674
799.307	0.0165198
799.385	0.0164346
799.463	0.0163393
799.541	0.0163934
799.619	0.0163043
799.697	0.0162872
799.775	0.0162179
799.853	0.0162450
799.932	0.0162122
800.010	0.0162074
800.088	0.0162776
800.166	0.0164911
800.244	0.0166290
800.322	0.0167073
800.400	0.0167120
800.478	0.0168851
800.557	0.0172347
800.635	0.0171994
800.713	0.0173280
800.791	0.0174113
800.869	0.0175121
800.947	0.0175488
801.025	0.0176753
801.103	0.0177033
801.182	0.0177264
801.260	0.0175704
801.338	0.0174270
801.416	0.0175673
801.494	0.0174699
801.572	0.0173066
801.650	0.0170791
801.728	0.0167374
801.807	0.0165746
801.885	0.0165354
801.963	0.0162104
802.041	0.0159421
802.119	0.0157424
802.197	0.0157866
802.275	0.0154756
802.353	0.0153299
802.432	0.0153036
802.510	0.0152975
802.588	0.0151087
802.666	0.0151682
802.744	0.0153305
802.822	0.0155372
802.900	0.0154889
802.978	0.0158139
803.057	0.0157861
803.135	0.0159919
803.213	0.0162799
803.291	0.0164589
803.369	0.0166587
803.447	0.0169417
803.525	0.0170060
803.603	0.0172520
803.682	0.0174613
803.760	0.0176360
803.838	0.0176416
803.916	0.0177809
803.994	0.0177218
804.072	0.0177295
804.150	0.0176294
804.228	0.0175526
804.307	0.0175404
804.385	0.0173798
804.463	0.0170577
804.541	0.0168885
804.619	0.0168858
804.697	0.0166946
804.775	0.0165938
804.853	0.0163507
804.932	0.0162055
805.010	0.0161488
805.088	0.0158861
805.166	0.0158605
805.244	0.0160002
805.322	0.0157949
805.400	0.0159067
805.478	0.0160012
805.557	0.0159492
805.635	0.0159910
805.713	0.0159548
805.791	0.0161702
805.869	0.0163496
805.947	0.0163858
806.025	0.0164727
806.103	0.0165396
806.182	0.0165932
806.260	0.0167924
806.338	0.0169781
806.416	0.0167358
806.494	0.0168645
806.572	0.0168580
806.650	0.0169412
806.728	0.0168305
806.807	0.0168494
806.885	0.0167963
806.963	0.0165298
807.041	0.0167496
807.119	0.0164285
807.197	0.0165337
807.275	0.0164027
807.353	0.0164640
807.432	0.0163911
807.510	0.0162172
807.588	0.0163498
807.666	0.0160774
807.744	0.0161707
807.822	0.0162491
807.900	0.0161308
807.978	0.0162244
808.057	0.0161285
808.135	0.0162216
808.213	0.0163184
808.291	0.0163313
808.369	0.0165144
808.447	0.0165394
808.525	0.0165241
808.603	0.0166030
808.682	0.0167991
808.760	0.0169347
808.838	0.0169637
808.916	0.0170199
808.994	0.0171262
809.072	0.0170791
809.150	0.0172397
809.228	0.0171294
809.307	0.0171477
809.385	0.0171844
809.463	0.0172829
809.541	0.0170021
809.619	0.0170228
809.697	0.0170061
809.775	0.0168350
809.853	0.0166109
809.932	0.0166340
810.010	0.0166277
810.088	0.0165246
810.166	0.0162753
810.244	0.0164367
810.322	0.0163427
810.400	0.0163128
810.478	0.0161875
810.557	0.0160566
810.635	0.0160397
810.713	0.0160382
810.791	0.0161253
810.869	0.0160733
810.947	0.0161411
811.025	0.0161899
811.103	0.0162435
811.182	0.0162138
811.260	0.0160963
811.338	0.0162930
811.416	0.0164022
811.494	0.0165208
811.572	0.0165276
811.650	0.0168816
811.728	0.0168242
811.807	0.0169676
811.885	0.0171153
811.963	0.0171194
812.041	0.0173171
812.119	0.0172256
812.197	0.0172069
812.275	0.0173330
812.353	0.0173556
812.432	0.0171998
812.510	0.0170110
812.588	0.0168847
812.666	0.0168529
812.744	0.0166358
812.822	0.0165834
812.900	0.0164206
812.978	0.0163058
813.057	0.0162057
813.135	0.0161597
813.213	0.0161756
813.291	0.0162902
813.369	0.0160070
813.447	0.0161314
813.525	0.0162075
813.603	0.0160641
813.682	0.0160025
813.760	0.0160291
813.838	0.0160558
813.916	0.0163811
813.994	0.0164235
814.072	0.0162227
814.150	0.0164175
814.228	0.0165816
814.307	0.0165286
814.385	0.0166379
814.463	0.0168240
814.541	0.0168629
814.619	0.0168876
814.697	0.0168630
814.775	0.0171003
814.853	0.0171888
814.932	0.0171270
815.010	0.0171761
815.088	0.0171149
815.166	0.0170911
815.244	0.0170633
815.322	0.0171654
815.400	0.0170084
815.478	0.0168721
815.557	0.0168044
815.635	0.0166915
815.713	0.0166350
815.791	0.0164957
815.869	0.0164591
815.947	0.0163547
816.025	0.0162841
816.103	0.0161750
816.182	0.0162516
816.260	0.0161529
816.338	0.0163442
816.416	0.0162565
816.494	0.0161196
816.572	0.0164017
816.650	0.0162436
816.728	0.0162330
816.807	0.0162717
816.885	0.0166354
816.963	0.0165546
817.041	0.0166956
817.119	0.0168628
817.197	0.0168433
817.275	0.0169473
817.353	0.0172464
817.432	0.0172752
817.510	0.0173291
817.588	0.0175040
817.666	0.0174627
817.744	0.0175343
817.822	0.0174709
817.900	0.0174421
817.978	0.0175559
818.057	0.0174042
818.135	0.0173112
818.213	0.0171550
818.291	0.0169015
818.369	0.0167971
818.447	0.0166283
818.525	0.0165181
818.603	0.0164228
818.682	0.0160774
818.760	0.0158488
818.838	0.0159661
818.916	0.0157061
818.994	0.0156516
819.072	0.0157669
819.150	0.0156956
819.228	0.0156512
819.307	0.0155376
819.385	0.0157755
819.463	0.0156985
819.541	0.0159316
819.619	0.0161977
819.697	0.0163403
819.775	0.0165318
819.853	0.0168456
819.932	0.0168456
820.010	0.0170798
820.088	0.0172013
820.166	0.0173769
820.244	0.0174811
820.322	0.0177697
820.400	0.0175596
820.478	0.0175689
820.557	0.0175678
820.635	0.0174961
820.713	0.0174132
820.791	0.0171716
820.869	0.0169841
820.947	0.0169357
821.025	0.0167422
821.103	0.0165866
821.182	0.0162471
821.260	0.0162297
821.338	0.0160074
821.416	0.0159742
821.494	0.0160285
821.572	0.0159602
821.650	0.0160984
821.728	0.0161755
821.807	0.0162786
821.885	0.0162922
821.963	0.0163444
822.041	0.0165349
822.119	0.0166241
822.197	0.0167799
822.275	0.0167458
822.353	0.0170232
822.432	0.0170687
822.510	0.0171513
822.588	0.0171673
822.666	0.0173005
822.744	0.0172835
822.822	0.0172337
822.900	0.0171241
822.978	0.0172633
823.057	0.0170112
823.135	0.0170052
823.213	0.0169881
823.291	0.0168678
823.369	0.0168678
823.447	0.0168700
823.525	0.0167391
823.603	0.0167325
823.682	0.0164050
823.760	0.0164272
823.838	0.0164742
823.916	0.0165057
823.994	0.0164214
824.072	0.0163620
824.150	0.0162155
824.228	0.0163023
824.307	0.0163088
824.385	0.0162523
824.463	0.0162584
824.541	0.0162653
824.619	0.0162562
824.697	0.0164294
824.775	0.0163754
824.853	0.0163043
824.932	0.0164468
825.010	0.0165102
825.088	0.0165749
825.166	0.0165626
825.244	0.0165759
825.322	0.0166153
825.400	0.0166620
825.478	0.0166705
825.557	0.0166412
825.635	0.0166362
825.713	0.0166510
825.791	0.0167587
825.869	0.0168275
825.947	0.0167178
826.025	0.0167194
826.103	0.0166527
826.182	0.0166804
826.260	0.0166115
826.338	0.0166526
826.416	0.0166581
826.494	0.0165900
826.572	0.0166550
826.650	0.0165650
826.728	0.0165441
826.807	0.0166064
826.885	0.0164546
826.963	0.0167232
827.041	0.0166576
827.119	0.0166008
827.197	0.0167278
827.275	0.0166323
827.353	0.0166304
827.432	0.0167571
827.510	0.0168092
827.588	0.0167229
827.666	0.0167613
827.744	0.0167435
827.822	0.0167896
827.900	0.0165670
827.978	0.0165848
828.057	0.0164936
828.135	0.0166148
828.213	0.0165359
828.291	0.0165143
828.369	0.0163617
828.447	0.0162700
828.525	0.0163646
828.603	0.0164310
828.682	0.0161494
828.760	0.0162399
828.838	0.0163649
828.916	0.0163190
828.994	0.0162836
829.072	0.0163586
829.150	0.0164785
829.228	0.0164730
829.307	0.0164491
829.385	0.0163998
829.463	0.0165015
829.541	0.0164665
829.619	0.0165042
829.697	0.0165439
829.775	0.0165942
829.853	0.0164751
829.932	0.0166723
830.010	0.0166382
830.088	0.0165472
830.166	0.0165154
830.244	0.0166130
830.322	0.0165993
830.400	0.0166159
830.478	0.0163987
830.557	0.0164976
830.635	0.0164072
830.713	0.0165026
830.791	0.0164736
830.869	0.0165870
830.947	0.0165532
831.025	0.0165437
831.103	0.0165864
831.182	0.0165131
831.260	0.0166312
831.338	0.0166750
831.416	0.0166977
831.494	0.0167077
831.572	0.0168716
831.650	0.0168428
831.728	0.0169666
831.807	0.0168544
831.885	0.0167514
831.963	0.0168422
832.041	0.0168457
832.119	0.0168797
832.197	0.0169511
832.275	0.0167474
832.353	0.0168714
832.432	0.0167936
832.510	0.0166889
832.588	0.0165685
832.666	0.0165979
832.744	0.0165559
832.822	0.0163714
832.900	0.0163553
832.978	0.0164278
833.057	0.0164034
833.135	0.0164176
833.213	0.0163363
833.291	0.0165400
833.369	0.0164310
833.447	0.0163041
833.525	0.0165424
833.603	0.0164279
833.682	0.0164922
833.760	0.0164561
833.838	0.0165817
833.916	0.0165914
833.994	0.0167591
834.072	0.0166061
834.150	0.0165646
834.228	0.0166807
834.307	0.0165668
834.385	0.0165533
834.463	0.0166501
834.541	0.0166351
834.619	0.0166058
834.697	0.0166283
834.775	0.0166216
834.853	0.0165133
834.932	0.0165784
835.010	0.0166662
835.088	0.0166956
835.166	0.0166161
835.244	0.0167827
835.322	0.0167988
835.400	0.0167879
835.478	0.0167082
835.557	0.0167760
835.635	0.0167881
835.713	0.0168044
835.791	0.0167883
835.869	0.0167094
835.947	0.0167859
836.025	0.0167460
836.103	0.0167001
836.182	0.0168065
836.260	0.0167086
836.338	0.0165939
836.416	0.0167189
836.494	0.0166296
836.572	0.0165289
836.650	0.0165922
836.728	0.0164848
836.807	0.0165257
836.885	0.0165711
836.963	0.0165358
837.041	0.0164133
837.119	0.0163782
837.197	0.0166047
837.275	0.0165674
837.353	0.0166470
837.432	0.0164948
837.510	0.0165324
837.588	0.0167030
837.666	0.0168236
837.744	0.0167066
837.822	0.0167371
837.900	0.0166195
837.978	0.0166719
838.057	0.0167268
838.135	0.0166946
838.213	0.0166245
838.291	0.0166595
838.369	0.0167137
838.447	0.0166590
838.525	0.0167422
838.603	0.0167225
838.682	0.0169302
838.760	0.0169679
838.838	0.0170497
838.916	0.0171137
838.994	0.0171855
839.072	0.0171470
839.150	0.0171988
839.228	0.0172358
839.307	0.0170737
839.385	0.0171147
839.463	0.0170989
839.541	0.0171380
839.619	0.0168777
839.697	0.0167390
839.775	0.0165818
839.853	0.0165659
839.932	0.0165297
840.010	0.0162594
840.088	0.0162001
840.166	0.0162544
840.244	0.0159777
840.322	0.0158608
840.400	0.0158232
840.478	0.0159087
840.557	0.0159834
840.635	0.0159039
840.713	0.0158706
840.791	0.0160571
840.869	0.0161351
840.947	0.0161788
841.025	0.0162408
841.103	0.0163517
841.182	0.0164073
841.260	0.0165701
841.338	0.0166320
841.416	0.0167213
841.494	0.0169422
841.572	0.0170435
841.650	0.0168890
841.728	0.0170770
841.807	0.0171339
841.885	0.0169962
841.963	0.0172403
842.041	0.0172886
842.119	0.0171749
842.197	0.0173191
842.275	0.0173605
842.353	0.0172257
842.432	0.0171659
842.510	0.0171791
842.588	0.0171513
842.666	0.0171635
842.744	0.0172092
842.822	0.0170185
842.900	0.0169434
842.978	0.0170657
843.057	0.0170236
843.135	0.0169160
843.213	0.0168407
843.291	0.0168978
843.369	0.0168244
843.447	0.0167811
843.525	0.0166582
843.603	0.0166678
843.682	0.0165674
843.760	0.0165456
843.838	0.0166897
843.916	0.0164718
843.994	0.0165287
844.072	0.0164587
844.150	0.0164378
844.228	0.0164819
844.307	0.0163164
844.385	0.0163872
844.463	0.0163916
844.541	0.0162046
844.619	0.0163258
844.697	0.0163628
844.775	0.0163564
844.853	0.0162448
844.932	0.0162936
845.010	0.0162808
845.088	0.0163288
845.166	0.0162865
845.244	0.0161489
845.322	0.0163351
845.400	0.0163126
845.478	0.0165157
845.557	0.0164301
845.635	0.0163739
845.713	0.0165314
845.791	0.0164780
845.869	0.0165932
845.947	0.0166837
846.025	0.0165187
846.103	0.0164806
846.182	0.0166012
846.260	0.0165537
846.338	0.0166918
846.416	0.0166911
846.494	0.0165988
846.572	0.0167696
846.650	0.0167520
846.728	0.0165846
846.807	0.0166444
846.885	0.0166862
846.963	0.0166792
847.041	0.0166296
847.119	0.0166022
847.197	0.0167469
847.275	0.0165022
847.353	0.0166089
847.432	0.0168782
847.510	0.0167120
847.588	0.0167236
847.666	0.0168242
847.744	0.0167224
847.822	0.0168183
847.900	0.0167204
847.978	0.0167910
848.057	0.0167738
848.135	0.0167484
848.213	0.0167382
848.291	0.0167124
848.369	0.0166021
848.447	0.0165549
848.525	0.0165953
848.603	0.0163067
848.682	0.0164335
848.760	0.0164529
848.838	0.0163179
848.916	0.0163428
848.994	0.0164270
849.072	0.0165579
849.150	0.0164449
849.228	0.0164619
849.307	0.0165081
849.385	0.0166476
849.463	0.0166839
849.541	0.0167816
849.619	0.0166834
849.697	0.0167158
849.775	0.0169230
849.853	0.0168507
849.932	0.0168967
850.010	0.0168349
850.088	0.0167030
850.166	0.0168656
850.244	0.0168391
850.322	0.0169314
850.400	0.0168113
850.478	0.0165890
850.557	0.0166592
850.635	0.0165435
850.713	0.0164934
850.791	0.0163809
850.869	0.0163031
850.947	0.0163180
851.025	0.0162611
851.103	0.0162041
851.182	0.0163013
851.260	0.0162431
851.338	0.0161852
851.416	0.0162082
851.494	0.0163835
851.572	0.0162957
851.650	0.0161358
851.728	0.0163351
851.807	0.0164140
851.885	0.0164165
851.963	0.0164714
852.041	0.0164169
852.119	0.0164224
852.197	0.0164886
852.275	0.0163847
852.353	0.0163635
852.432	0.0164282
852.510	0.0164603
852.588	0.0164041
852.666	0.0164528
852.744	0.0163556
852.822	0.0164700
852.900	0.0164234
852.978	0.0165345
853.057	0.0164870
853.135	0.0164146
853.213	0.0166441
853.291	0.0167159
853.369	0.0166334
853.447	0.0168118
853.525	0.0168056
853.603	0.0168140
853.682	0.0169241
853.760	0.0170000
853.838	0.0169962
853.916	0.0171205
853.994	0.0169263
854.072	0.0170301
854.150	0.0170631
854.228	0.0169855
854.307	0.0169703
854.385	0.0168892
854.463	0.0171786
854.541	0.0167399
854.619	0.0167489
854.697	0.0166308
854.775	0.0166403
854.853	0.0165166
854.932	0.0163474
855.010	0.0163259
855.088	0.0163435
855.166	0.0163284
855.244	0.0163614
855.322	0.0163038
855.400	0.0162768
855.478	0.0163866
855.557	0.0164708
855.635	0.0162475
855.713	0.0163602
855.791	0.0165981
855.869	0.0163505
855.947	0.0166116
856.025	0.0165839
856.103	0.0164910
856.182	0.0166525
856.260	0.0165826
856.338	0.0165858
856.416	0.0164710
856.494	0.0166548
856.572	0.0166718
856.650	0.0164627
856.728	0.0163844
856.807	0.0163062
856.885	0.0163982
856.963	0.0164764
857.041	0.0163363
857.119	0.0163687
857.197	0.0163636
857.275	0.0164119
857.353	0.0163921
857.432	0.0164183
857.510	0.0164079
857.588	0.0164440
857.666	0.0164093
857.744	0.0165522
857.822	0.0167244
857.900	0.0166372
857.978	0.0167794
858.057	0.0167606
858.135	0.0168831
858.213	0.0169958
858.291	0.0169839
858.369	0.0171236
858.447	0.0169232
858.525	0.0170036
858.603	0.0169867
858.682	0.0171288
858.760	0.0168658
858.838	0.0167816
858.916	0.0168828
858.994	0.0167159
859.072	0.0167402
859.150	0.0165832
859.228	0.0165714
859.307	0.0164921
859.385	0.0165169
859.463	0.0165504
859.541	0.0164614
859.619	0.0164968
859.697	0.0164681
859.775	0.0164849
859.853	0.0165978
859.932	0.0167994
860.010	0.0164822
860.088	0.0166935
860.166	0.0165662
860.244	0.0165381
860.322	0.0167473
860.400	0.0166841
860.478	0.0168162
860.557	0.0168213
860.635	0.0167726
860.713	0.0166524
860.791	0.0166569
860.869	0.0167200
860.947	0.0166973
861.025	0.0168279
861.103	0.0167397
861.182	0.0166621
861.260	0.0166567
861.338	0.0166022
861.416	0.0166639
861.494	0.0166322
861.572	0.0166874
861.650	0.0166972
861.728	0.0167507
861.807	0.0166033
861.885	0.0165671
861.963	0.0165974
862.041	0.0166700
862.119	0.0166463
862.197	0.0166465
862.275	0.0167705
862.353	0.0167448
862.432	0.0169017
862.510	0.0166240
862.588	0.0167111
862.666	0.0168688
862.744	0.0169085
862.822	0.0168099
862.900	0.0167995
862.978	0.0166928
863.057	0.0165570
863.135	0.0166339
863.213	0.0165533
863.291	0.0164929
863.369	0.0165426
863.447	0.0164439
863.525	0.0164191
863.603	0.0164449
863.682	0.0164719
863.760	0.0164098
863.838	0.0163210
863.916	0.0164915
863.994	0.0165990
864.072	0.0165930
864.150	0.0167525
864.228	0.0166875
864.307	0.0167808
864.385	0.0167722
864.463	0.0167975
864.541	0.0169611
864.619	0.0170234
864.697	0.0169592
864.775	0.0170088
864.853	0.0168570
864.932	0.0169418
865.010	0.0167573
865.088	0.0167847
865.166	0.0168291
865.244	0.0168987
865.322	0.0167944
865.400	0.0167561
865.478	0.0167027
865.557	0.0167416
865.635	0.0166917
865.713	0.0168068
865.791	0.0166364
865.869	0.0167411
865.947	0.0166795
866.025	0.0167195
866.103	0.0167325
866.182	0.0168450
866.260	0.0166940
866.338	0.0167600
866.416	0.0168178
866.494	0.0169756
866.572	0.0169408
866.650	0.0169336
866.728	0.0170242
866.807	0.0169513
866.885	0.0170798
866.963	0.0169080
867.041	0.0167537
867.119	0.0168012
867.197	0.0168138
867.275	0.0166924
867.353	0.0167106
867.432	0.0166899
867.510	0.0166792
867.588	0.0167544
867.666	0.0165952
867.744	0.0164320
867.822	0.0164262
867.900	0.0163756
867.978	0.0165643
868.057	0.0163707
868.135	0.0164390
868.213	0.0164629
868.291	0.0164064
868.369	0.0164109
868.447	0.0163878
868.525	0.0165607
868.603	0.0166453
868.682	0.0165912
868.760	0.0166747
868.838	0.0167052
868.916	0.0165717
868.994	0.0166454
869.072	0.0165573
869.150	0.0165747
869.228	0.0166254
869.307	0.0164951
869.385	0.0165840
869.463	0.0164415
869.541	0.0163791
869.619	0.0164291
869.697	0.0163955
869.775	0.0163762
869.853	0.0163563
869.932	0.0163467
870.010	0.0163947
870.088	0.0163705
870.166	0.0164937
870.244	0.0164395
870.322	0.0164826
870.400	0.0164159
870.478	0.0164185
870.557	0.0166180
870.635	0.0167032
870.713	0.0165456
870.791	0.0166724
870.869	0.0165428
870.947	0.0167080
871.025	0.0167049
871.103	0.0165817
871.182	0.0166544
871.260	0.0164636
871.338	0.0164491
871.416	0.0164979
871.494	0.0163744
871.572	0.0163017
871.650	0.0165343
871.728	0.0164809
871.807	0.0163792
871.885	0.0164835
871.963	0.0163580
872.041	0.0164230
872.119	0.0164468
872.197	0.0165333
872.275	0.0164840
872.353	0.0165680
872.432	0.0167287
872.510	0.0165829
872.588	0.0166251
872.666	0.0168738
872.744	0.0167719
872.822	0.0168260
872.900	0.0168975
872.978	0.0168121
873.057	0.0168253
873.135	0.0169097
873.213	0.0168111
873.291	0.0169662
873.369	0.0167853
873.447	0.0167203
873.525	0.0166457
873.603	0.0165973
873.682	0.0165681
873.760	0.0166544
873.838	0.0165666
873.916	0.0165870
873.994	0.0164695
874.072	0.0164159
874.150	0.0164307
874.228	0.0162982
874.307	0.0163818
874.385	0.0164551
874.463	0.0164894
874.541	0.0163877
874.619	0.0163358
874.697	0.0163936
874.775	0.0163659
874.853	0.0165556
874.932	0.0165759
875.010	0.0164557
875.088	0.0164955
875.166	0.0163528
875.244	0.0164124
875.322	0.0164367
875.400	0.0165079
875.478	0.0163417
875.557	0.0164187
875.635	0.0162210
875.713	0.0162527
875.791	0.0162621
875.869	0.0161421
875.947	0.0162460
876.025	0.0162242
876.103	0.0163387
876.182	0.0162242
876.260	0.0162756
876.338	0.0163147
876.416	0.0164956
876.494	0.0164380
876.572	0.0165387
876.650	0.0165127
876.728	0.0165260
876.807	0.0166103
876.885	0.0167300
876.963	0.0167207
877.041	0.0167510
877.119	0.0168102
877.197	0.0167576
877.275	0.0167850
877.353	0.0168945
877.432	0.0168397
877.510	0.0166936
877.588	0.0167466
877.666	0.0167332
877.744	0.0168692
877.822	0.0168127
877.900	0.0168597
877.978	0.0167529
878.057	0.0167181
878.135	0.0165150
878.213	0.0166009
878.291	0.0167792
878.369	0.0166264
878.447	0.0165183
878.525	0.0165207
878.603	0.0165887
878.682	0.0164741
878.760	0.0163550
878.838	0.0164000
878.916	0.0163937
878.994	0.0166859
879.072	0.0165244
879.150	0.0163785
879.228	0.0165143
879.307	0.0166891
879.385	0.0165953
879.463	0.0166392
879.541	0.0164881
879.619	0.0165544
879.697	0.0165311
879.775	0.0165350
879.853	0.0163948
879.932	0.0162930
880.010	0.0163786
880.088	0.0165123
880.166	0.0165567
880.244	0.0164709
880.322	0.0164272
880.400	0.0164823
880.478	0.0166120
880.557	0.0165856
880.635	0.0165020
880.713	0.0165343
880.791	0.0166811
880.869	0.0166006
880.947	0.0167390
881.025	0.0168180
881.103	0.0168112
881.182	0.0167604
881.260	0.0167249
881.338	0.0167805
881.416	0.0170087
881.494	0.0168574
881.572	0.0169904
881.650	0.0170029
881.728	0.0169078
881.807	0.0167937
881.885	0.0166563
881.963	0.0168301
882.041	0.0167222
882.119	0.0166059
882.197	0.0166232
882.275	0.0166761
882.353	0.0166525
882.432	0.0167149
882.510	0.0165990
882.588	0.0166575
882.666	0.0165306
882.744	0.0166481
882.822	0.0166854
882.900	0.0165616
882.978	0.0165067
883.057	0.0166179
883.135	0.0166119
883.213	0.0166391
883.291	0.0166218
883.369	0.0165894
883.447	0.0164912
883.525	0.0164924
883.603	0.0166228
883.682	0.0165203
883.760	0.0167493
883.838	0.0164809
883.916	0.0165391
883.994	0.0164684
884.072	0.0165091
884.150	0.0165852
884.228	0.0166322
884.307	0.0164429
884.385	0.0165585
884.463	0.0165215
884.541	0.0166160
884.619	0.0165907
884.697	0.0164667
884.775	0.0164587
884.853	0.0166111
884.932	0.0164845
885.010	0.0164970
885.088	0.0166692
885.166	0.0165931
885.244	0.0166945
885.322	0.0168226
885.400	0.0166914
885.478	0.0167934
885.557	0.0166711
885.635	0.0166444
885.713	0.0169919
885.791	0.0169646
885.869	0.0168377
885.947	0.0168088
886.025	0.0167415
886.103	0.0167809
886.182	0.0167551
886.260	0.0168239
886.338	0.0167360
886.416	0.0167751
886.494	0.0167694
886.572	0.0167990
886.650	0.0167319
886.728	0.0167204
886.807	0.0165573
886.885	0.0165915
886.963	0.0165565
887.041	0.0165638
887.119	0.0165331
887.197	0.0165953
887.275	0.0165887
887.353	0.0165052
887.432	0.0165402
887.510	0.0167699
887.588	0.0166398
887.666	0.0165868
887.744	0.0165811
887.822	0.0165235
887.900	0.0165981
887.978	0.0166558
888.057	0.0166936
888.135	0.0165662
888.213	0.0166489
888.291	0.0167231
888.369	0.0166158
888.447	0.0166692
888.525	0.0168051
888.603	0.0167400
888.682	0.0167819
888.760	0.0167195
888.838	0.0166971
888.916	0.0168832
888.994	0.0167584
889.072	0.0168129
889.150	0.0166281
889.228	0.0165852
889.307	0.0165607
889.385	0.0167589
889.463	0.0167452
889.541	0.0166723
889.619	0.0166622
889.697	0.0166333
889.775	0.0167992
889.853	0.0168770
889.932	0.0167612
890.010	0.0168423
890.088	0.0167703
890.166	0.0167106
890.244	0.0167944
890.322	0.0167204
890.400	0.0167650
890.478	0.0167903
890.557	0.0166374
890.635	0.0168291
890.713	0.0164925
890.791	0.0166848
890.869	0.0166503
890.947	0.0165678
891.025	0.0165905
891.103	0.0165802
891.182	0.0166172
891.260	0.0164967
891.338	0.0166166
891.416	0.0167630
891.494	0.0166301
891.572	0.0164017
891.650	0.0167153
891.728	0.0166830
891.807	0.0166682
891.885	0.0167500
891.963	0.0166319
892.041	0.0168229
892.119	0.0166800
892.197	0.0167539
892.275	0.0168243
892.353	0.0165932
892.432	0.0166663
892.510	0.0167036
892.588	0.0168182
892.666	0.0166312
892.744	0.0165739
892.822	0.0166854
892.900	0.0166409
892.978	0.0165826
893.057	0.0166125
893.135	0.0167554
893.213	0.0167981
893.291	0.0168020
893.369	0.0165936
893.447	0.0165643
893.525	0.0168441
893.603	0.0167953
893.682	0.0166833
893.760	0.0164964
893.838	0.0166302
893.916	0.0166278
893.994	0.0166380
894.072	0.0166299
894.150	0.0166767
894.228	0.0165876
894.307	0.0165603
894.385	0.0166495
894.463	0.0165796
894.541	0.0167016
894.619	0.0166841
894.697	0.0167901
894.775	0.0168073
894.853	0.0168864
894.932	0.0168300
895.010	0.0167073
895.088	0.0166998
895.166	0.0167503
895.244	0.0168366
895.322	0.0168481
895.400	0.0168248
895.478	0.0166760
895.557	0.0167513
895.635	0.0167998
895.713	0.0168056
895.791	0.0167244
895.869	0.0165655
895.947	0.0168089
896.025	0.0166648
896.103	0.0167226
896.182	0.0166529
896.260	0.0166644
896.338	0.0166322
896.416	0.0166338
896.494	0.0166165
896.572	0.0167300
896.650	0.0165797
896.728	0.0166480
896.807	0.0166312
896.885	0.0165553
896.963	0.0166697
897.041	0.0167799
897.119	0.0166319
897.197	0.0168352
897.275	0.0166153
897.353	0.0167077
897.432	0.0165759
897.510	0.0165985
897.588	0.0167554
897.666	0.0167068
897.744	0.0167085
897.822	0.0165339
897.900	0.0165300
897.978	0.0165795
898.057	0.0166605
898.135	0.0165569
898.213	0.0164658
898.291	0.0165643
898.369	0.0165614
898.447	0.0163393
898.525	0.0164849
898.603	0.0165673
898.682	0.0163718
898.760	0.0164909
898.838	0.0164152
898.916	0.0165754
898.994	0.0164436
899.072	0.0164685
899.150	0.0165305
899.228	0.0164934
899.307	0.0164597
899.385	0.0165827
899.463	0.0166484
899.541	0.0166384
899.619	0.0165431
899.697	0.0166342
899.775	0.0166274
899.853	0.0167841
899.932	0.0167724
900.010	0.0167109
900.088	0.0166389
900.166	0.0167348
900.244	0.0168194
900.322	0.0167120
900.400	0.0168378
900.478	0.0168822
900.557	0.0168081
900.635	0.0167472
900.713	0.0167558
900.791	0.0169565
900.869	0.0169410
900.947	0.0166866
901.025	0.0168889
901.103	0.0168134
901.182	0.0167881
901.260	0.0169084
901.338	0.0167751
901.416	0.0168526
901.494	0.0168740
901.572	0.0166821
901.650	0.0167529
901.728	0.0167084
901.807	0.0167643
901.885	0.0165953
901.963	0.0165899
902.041	0.0166595
902.119	0.0165538
902.197	0.0165816
902.275	0.0164321
902.353	0.0164929
902.432	0.0165511
902.510	0.0166074
902.588	0.0164684
902.666	0.0164453
902.744	0.0163343
902.822	0.0164603
902.900	0.0163668
902.978	0.0163757
903.057	0.0163990
903.135	0.0164710
903.213	0.0164471
903.291	0.0164604
903.369	0.0163909
903.447	0.0162714
903.525	0.0163914
903.603	0.0165133
903.682	0.0163497
903.760	0.0164481
903.838	0.0163133
903.916	0.0164650
903.994	0.0163921
904.072	0.0164722
904.150	0.0161940
904.228	0.0164097
904.307	0.0164288
904.385	0.0164288
904.463	0.0164607
904.541	0.0163140
904.619	0.0164877
904.697	0.0164536
904.775	0.0164021
904.853	0.0164875
904.932	0.0165473
905.010	0.0164932
905.088	0.0164189
905.166	0.0164960
905.244	0.0166145
905.322	0.0166366
905.400	0.0166714
905.478	0.0166440
905.557	0.0164559
905.635	0.0166481
905.713	0.0165875
905.791	0.0166648
905.869	0.0166780
905.947	0.0166995
906.025	0.0167439
906.103	0.0168738
906.182	0.0167782
906.260	0.0168154
906.338	0.0167165
906.416	0.0166922
906.494	0.0166229
906.572	0.0168196
906.650	0.0168307
906.728	0.0168578
906.807	0.0167824
906.885	0.0167634
906.963	0.0166900
907.041	0.0165617
907.119	0.0166604
907.197	0.0166596
907.275	0.0166378
907.353	0.0165860
907.432	0.0166733
907.510	0.0166734
907.588	0.0165333
907.666	0.0166288
907.744	0.0167764
907.822	0.0166206
907.900	0.0167259
907.978	0.0169101
908.057	0.0167405
908.135	0.0167290
908.213	0.0168764
908.291	0.0167937
908.369	0.0167330
908.447	0.0167188
908.525	0.0167680
908.603	0.0166740
908.682	0.0165387
908.760	0.0165952
908.838	0.0166463
908.916	0.0164592
908.994	0.0165034
909.072	0.0164066
909.150	0.0164701
909.228	0.0163870
909.307	0.0163919
909.385	0.0165256
909.463	0.0163752
909.541	0.0161627
909.619	0.0163206
909.697	0.0163113
909.775	0.0164169
909.853	0.0163829
909.932	0.0163055
910.010	0.0164345
910.088	0.0165192
910.166	0.0164316
910.244	0.0163181
910.322	0.0164139
910.400	0.0162926
910.478	0.0164410
910.557	0.0164793
910.635	0.0164130
910.713	0.0165860
910.791	0.0164307
910.869	0.0163254
910.947	0.0163882
911.025	0.0165875
911.103	0.0164840
911.182	0.0165097
911.260	0.0165929
911.338	0.0167408
911.416	0.0165433
911.494	0.0166744
911.572	0.0167056
911.650	0.0167381
911.728	0.0165926
911.807	0.0167634
911.885	0.0168885
911.963	0.0168346
912.041	0.0169758
912.119	0.0168986
912.197	0.0169642
912.275	0.0169260
912.353	0.0170051
912.432	0.0169240
912.510	0.0169460
912.588	0.0168685
912.666	0.0168496
912.744	0.0167879
912.822	0.0169368
912.900	0.0168005
912.978	0.0168195
913.057	0.0166917
913.135	0.0166658
913.213	0.0167396
913.291	0.0165871
913.369	0.0166290
913.447	0.0166229
913.525	0.0166253
913.603	0.0167160
913.682	0.0167833
913.760	0.0166790
913.838	0.0167203
913.916	0.0168308
913.994	0.0168570
914.072	0.0168975
914.150	0.0167882
914.228	0.0168935
914.307	0.0167849
914.385	0.0169083
914.463	0.0169669
914.541	0.0168366
914.619	0.0167931
914.697	0.0167650
914.775	0.0168209
914.853	0.0167811
914.932	0.0166310
915.010	0.0165227
915.088	0.0165594
915.166	0.0164994
915.244	0.0165717
915.322	0.0166325
915.400	0.0165289
915.478	0.0165543
915.557	0.0164608
915.635	0.0163105
915.713	0.0164111
915.791	0.0165768
915.869	0.0164424
915.947	0.0165833
916.025	0.0164609
916.103	0.0165983
916.182	0.0166274
916.260	0.0165668
916.338	0.0165108
916.416	0.0164825
916.494	0.0166570
916.572	0.0168826
916.650	0.0165536
916.728	0.0167406
916.807	0.0167461
916.885	0.0167365
916.963	0.0169234
917.041	0.0169456
917.119	0.0168973
917.197	0.0167879
917.275	0.0168580
917.353	0.0167513
917.432	0.0168114
917.510	0.0168369
917.588	0.0168311
917.666	0.0168489
917.744	0.0167140
917.822	0.0168404
917.900	0.0167450
917.978	0.0166543
918.057	0.0166305
918.135	0.0167136
918.213	0.0166544
918.291	0.0168131
918.369	0.0165701
918.447	0.0167217
918.525	0.0167383
918.603	0.0169930
918.682	0.0168501
918.760	0.0169001
918.838	0.0168033
918.916	0.0168675
918.994	0.0168139
919.072	0.0170530
919.150	0.0168311
919.228	0.0168903
919.307	0.0169198
919.385	0.0168233
919.463	0.0168164
919.541	0.0167583
919.619	0.0168488
919.697	0.0168574
919.775	0.0167830
919.853	0.0167104
919.932	0.0168095
920.010	0.0166579
920.088	0.0167105
920.166	0.0165665
920.244	0.0166424
920.322	0.0164621
920.400	0.0166550
920.478	0.0165167
920.557	0.0166185
920.635	0.0165847
920.713	0.0165867
920.791	0.0165998
920.869	0.0167288
920.947	0.0166105
921.025	0.0164129
921.103	0.0164784
921.182	0.0165765
921.260	0.0164997
921.338	0.0164505
921.416	0.0165697
921.494	0.0166149
921.572	0.0166248
921.650	0.0164380
921.728	0.0164688
921.807	0.0166234
921.885	0.0166769
921.963	0.0167446
922.041	0.0165935
922.119	0.0166599
922.197	0.0167192
922.275	0.0165928
922.353	0.0166003
922.432	0.0166404
922.510	0.0167210
922.588	0.0166962
922.666	0.0166994
922.744	0.0166096
922.822	0.0166375
922.900	0.0167083
922.978	0.0165141
923.057	0.0166975
923.135	0.0166677
923.213	0.0166315
923.291	0.0166350
923.369	0.0166542
923.447	0.0167572
923.525	0.0168407
923.603	0.0166579
923.682	0.0166460
923.760	0.0166682
923.838	0.0166571
923.916	0.0167666
923.994	0.0166869
924.072	0.0168554
924.150	0.0168828
924.228	0.0167915
924.307	0.0171227
924.385	0.0170689
924.463	0.0168116
924.541	0.0169576
924.619	0.0169338
924.697	0.0169564
924.775	0.0170296
924.853	0.0169914
924.932	0.0169437
925.010	0.0168066
925.088	0.0167454
925.166	0.0167162
925.244	0.0166810
925.322	0.0165897
925.400	0.0163184
925.478	0.0164694
925.557	0.0165921
925.635	0.0162817
925.713	0.0164519
925.791	0.0162795
925.869	0.0162281
925.947	0.0164552
926.025	0.0165544
926.103	0.0163711
926.182	0.0164536
926.260	0.0163936
926.338	0.0164369
926.416	0.0164842
926.494	0.0164181
926.572	0.0165125
926.650	0.0164413
926.728	0.0164172
926.807	0.0165440
926.885	0.0165720
926.963	0.0165688
927.041	0.0165855
927.119	0.0166862
927.197	0.0166300
927.275	0.0165866
927.353	0.0165079
927.432	0.0165228
927.510	0.0166284
927.588	0.0166261
927.666	0.0166533
927.744	0.0165963
927.822	0.0164989
927.900	0.0166380
927.978	0.0165553
928.057	0.0163706
928.135	0.0164672
928.213	0.0163995
928.291	0.0163162
928.369	0.0164899
928.447	0.0163285
928.525	0.0163905
928.603	0.0163960
928.682	0.0163968
928.760	0.0164295
928.838	0.0164623
928.916	0.0163958
928.994	0.0165357
929.072	0.0166183
929.150	0.0166792
929.228	0.0167860
929.307	0.0166495
929.385	0.0166753
929.463	0.0167362
929.541	0.0166575
929.619	0.0164560
929.697	0.0166059
929.775	0.0165363
929.853	0.0165262
929.932	0.0165719
930.010	0.0163779
930.088	0.0163885
930.166	0.0164876
930.244	0.0163497
930.322	0.0164192
930.400	0.0165532
930.478	0.0164902
930.557	0.0164504
930.635	0.0165890
930.713	0.0165771
930.791	0.0164482
930.869	0.0164767
930.947	0.0164996
931.025	0.0164124
931.103	0.0164250
931.182	0.0165647
931.260	0.0165068
931.338	0.0165017
931.416	0.0164912
931.494	0.0166096
931.572	0.0165781
931.650	0.0164652
931.728	0.0166523
931.807	0.0167593
931.885	0.0164925
931.963	0.0164972
932.041	0.0164928
932.119	0.0165881
932.197	0.0166369
932.275	0.0166238
932.353	0.0163712
932.432	0.0166308
932.510	0.0165088
932.588	0.0164893
932.666	0.0164474
932.744	0.0163992
932.822	0.0163255
932.900	0.0164306
932.978	0.0163474
933.057	0.0163606
933.135	0.0163930
933.213	0.0162341
933.291	0.0163110
933.369	0.0164471
933.447	0.0165473
933.525	0.0164687
933.603	0.0165365
933.682	0.0163892
933.760	0.0163376
933.838	0.0165542
933.916	0.0165517
933.994	0.0165355
934.072	0.0165656
934.150	0.0165324
934.228	0.0164461
934.307	0.0164459
934.385	0.0163209
934.463	0.0166427
934.541	0.0165955
934.619	0.0164444
934.697	0.0164613
934.775	0.0164943
934.853	0.0166694
934.932	0.0164156
935.010	0.0164850
935.088	0.0166602
935.166	0.0164358
935.244	0.0166264
935.322	0.0165051
935.400	0.0165102
935.478	0.0166179
935.557	0.0165694
935.635	0.0166245
935.713	0.0167287
935.791	0.0167471
935.869	0.0166572
935.947	0.0165768
936.025	0.0166645
936.103	0.0167645
936.182	0.0166164
936.260	0.0166369
936.338	0.0166822
936.416	0.0166850
936.494	0.0167236
936.572	0.0164993
936.650	0.0165733
936.728	0.0165798
936.807	0.0166233
936.885	0.0165458
936.963	0.0166138
937.041	0.0166471
937.119	0.0165326
937.197	0.0165547
937.275	0.0165123
937.353	0.0165897
937.432	0.0165477
937.510	0.0165520
937.588	0.0166058
937.666	0.0165739
937.744	0.0165441
937.822	0.0166108
937.900	0.0165430
937.978	0.0167092
938.057	0.0167253
938.135	0.0165969
938.213	0.0165594
938.291	0.0167218
938.369	0.0167652
938.447	0.0168806
938.525	0.0168382
938.603	0.0167348
938.682	0.0167672
938.760	0.0167760
938.838	0.0168465
938.916	0.0168236
938.994	0.0168006
939.072	0.0167584
939.150	0.0166558
939.228	0.0167486
939.307	0.0167542
939.385	0.0166702
939.463	0.0166813
939.541	0.0165937
939.619	0.0165881
939.697	0.0166094
939.775	0.0166994
939.853	0.0166557
939.932	0.0166248
940.010	0.0166662
940.088	0.0166393
940.166	0.0165852
940.244	0.0166485
940.322	0.0166142
940.400	0.0166204
940.478	0.0166914
940.557	0.0166194
940.635	0.0166599
940.713	0.0166479
940.791	0.0167453
940.869	0.0167023
940.947	0.0167253
941.025	0.0166447
941.103	0.0165898
941.182	0.0167789
941.260	0.0166926
941.338	0.0167326
941.416	0.0167399
941.494	0.0166017
941.572	0.0166037
941.650	0.0167128
941.728	0.0166954
941.807	0.0168568
941.885	0.0165919
941.963	0.0166924
942.041	0.0167365
942.119	0.0167892
942.197	0.0167012
942.275	0.0167950
942.353	0.0169384
942.432	0.0167789
942.510	0.0168044
942.588	0.0167677
942.666	0.0168768
942.744	0.0170676
942.822	0.0168420
942.900	0.0166721
942.978	0.0168232
943.057	0.0168797
943.135	0.0169726
943.213	0.0169151
943.291	0.0168405
943.369	0.0169031
943.447	0.0167981
943.525	0.0168336
943.603	0.0169667
943.682	0.0168703
943.760	0.0168866
943.838	0.0167567
943.916	0.0166520
943.994	0.0167390
944.072	0.0167870
944.150	0.0168110
944.228	0.0168365
944.307	0.0166309
944.385	0.0167116
944.463	0.0168246
944.541	0.0166454
944.619	0.0166496
944.697	0.0166367
944.775	0.0166524
944.853	0.0165590
944.932	0.0165429
945.010	0.0166457
945.088	0.0164602
945.166	0.0166972
945.244	0.0165854
945.322	0.0166174
945.400	0.0164693
945.478	0.0166066
945.557	0.0165739
945.635	0.0164910
945.713	0.0164376
945.791	0.0164854
945.869	0.0165634
945.947	0.0164487
946.025	0.0166130
946.103	0.0165314
946.182	0.0165037
946.260	0.0166414
946.338	0.0166109
946.416	0.0166422
946.494	0.0166458
946.572	0.0166441
946.650	0.0167050
946.728	0.0166069
946.807	0.0166815
946.885	0.0166718
946.963	0.0167422
947.041	0.0166388
947.119	0.0164404
947.197	0.0167134
947.275	0.0166343
947.353	0.0166909
947.432	0.0166097
947.510	0.0167251
947.588	0.0166750
947.666	0.0167229
947.744	0.0166296
947.822	0.0166843
947.900	0.0167386
947.978	0.0166454
948.057	0.0167751
948.135	0.0167795
948.213	0.0166424
948.291	0.0166402
948.369	0.0167182
948.447	0.0167705
948.525	0.0165834
948.603	0.0166994
948.682	0.0167097
948.760	0.0167509
948.838	0.0167793
948.916	0.0166773
948.994	0.0166539
949.072	0.0166385
949.150	0.0165669
949.228	0.0166889
949.307	0.0164700
949.385	0.0166449
949.463	0.0165856
949.541	0.0164870
949.619	0.0165350
949.697	0.0164503
949.775	0.0165365
949.853	0.0166098
949.932	0.0165907
950.010	0.0165364
950.088	0.0164633
950.166	0.0165025
950.244	0.0165028
950.322	0.0165856
950.400	0.0165736
950.478	0.0166406
950.557	0.0165712
950.635	0.0165237
950.713	0.0165982
950.791	0.0166287
950.869	0.0164684
950.947	0.0165833
951.025	0.0167244
951.103	0.0166089
951.182	0.0166383
951.260	0.0164365
951.338	0.0165106
951.416	0.0165428
951.494	0.0166559
951.572	0.0165528
951.650	0.0165928
951.728	0.0165408
951.807	0.0164677
951.885	0.0166113
951.963	0.0164363
952.041	0.0164244
952.119	0.0164606
952.197	0.0164470
952.275	0.0163662
952.353	0.0163877
952.432	0.0163574
952.510	0.0164097
952.588	0.0164252
952.666	0.0166166
952.744	0.0164529
952.822	0.0163487
952.900	0.0164882
952.978	0.0164534
953.057	0.0165778
953.135	0.0165197
953.213	0.0164653
953.291	0.0163925
953.369	0.0164742
953.447	0.0166573
953.525	0.0166528
953.603	0.0166022
953.682	0.0165964
953.760	0.0164978
953.838	0.0165775
953.916	0.0165194
953.994	0.0166081
954.072	0.0166286
954.150	0.0167530
954.228	0.0167343
954.307	0.0167036
954.385	0.0167802
954.463	0.0167794
954.541	0.0166499
954.619	0.0166503
954.697	0.0165249
954.775	0.0166890
954.853	0.0166527
954.932	0.0165942
955.010	0.0165549
955.088	0.0165862
955.166	0.0166705
955.244	0.0166595
955.322	0.0167054
955.400	0.0166476
955.478	0.0166614
955.557	0.0165514
955.635	0.0165465
955.713	0.0167568
955.791	0.0165818
955.869	0.0165739
955.947	0.0167509
956.025	0.0165087
956.103	0.0166412
956.182	0.0166467
956.260	0.0167068
956.338	0.0166938
956.416	0.0165445
956.494	0.0166894
956.572	0.0167278
956.650	0.0165742
956.728	0.0165487
956.807	0.0166333
956.885	0.0165931
956.963	0.0164285
957.041	0.0165849
957.119	0.0165836
957.197	0.0164568
957.275	0.0165884
957.353	0.0164712
957.432	0.0165420
957.510	0.0163860
957.588	0.0163993
957.666	0.0164723
957.744	0.0165826
957.822	0.0165170
957.900	0.0164888
957.978	0.0165236
958.057	0.0164482
958.135	0.0164627
958.213	0.0165475
958.291	0.0164085
958.369	0.0165810
958.447	0.0165708
958.525	0.0165804
958.603	0.0164635
958.682	0.0166656
958.760	0.0165580
958.838	0.0165238
958.916	0.0166686
958.994	0.0167262
959.072	0.0166520
959.150	0.0166707
959.228	0.0167062
959.307	0.0167030
959.385	0.0166483
959.463	0.0167253
959.541	0.0166925
959.619	0.0166692
959.697	0.0165606
959.775	0.0166998
959.853	0.0166066
959.932	0.0165175
960.010	0.0166144
960.088	0.0167017
960.166	0.0166467
960.244	0.0166848
960.322	0.0168360
960.400	0.0167202
960.478	0.0166089
960.557	0.0167598
960.635	0.0168559
960.713	0.0168063
960.791	0.0169012
960.869	0.0166584
960.947	0.0165866
961.025	0.0165947
961.103	0.0166870
961.182	0.0167211
961.260	0.0166727
961.338	0.0165507
961.416	0.0167120
961.494	0.0165549
961.572	0.0165939
961.650	0.0165351
961.728	0.0166058
961.807	0.0165096
961.885	0.0166109
961.963	0.0166919
962.041	0.0165375
962.119	0.0165215
962.197	0.0166299
962.275	0.0165862
962.353	0.0165550
962.432	0.0167190
962.510	0.0166161
962.588	0.0166345
962.666	0.0164766
962.744	0.0165245
962.822	0.0165941
962.900	0.0166360
962.978	0.0166084
963.057	0.0166115
963.135	0.0166718
963.213	0.0166505
963.291	0.0165946
963.369	0.0165604
963.447	0.0166325
963.525	0.0166087
963.603	0.0166923
963.682	0.0166268
963.760	0.0165958
963.838	0.0165068
963.916	0.0165542
963.994	0.0164683
964.072	0.0165945
964.150	0.0165890
964.228	0.0166030
964.307	0.0166681
964.385	0.0165933
964.463	0.0164869
964.541	0.0164490
964.619	0.0164767
964.697	0.0165455
964.775	0.0165355
964.853	0.0166322
964.932	0.0165512
965.010	0.0165614
965.088	0.0165971
965.166	0.0167209
965.244	0.0167133
965.322	0.0167762
965.400	0.0166389
965.478	0.0165160
965.557	0.0165840
965.635	0.0166762
965.713	0.0167191
965.791	0.0167045
965.869	0.0167078
965.947	0.0166083
966.025	0.0167812
966.103	0.0165530
966.182	0.0165128
966.260	0.0167553
966.338	0.0167201
966.416	0.0165966
966.494	0.0166099
966.572	0.0165269
966.650	0.0166727
966.728	0.0165289
966.807	0.0166549
966.885	0.0166968
966.963	0.0166974
967.041	0.0166296
967.119	0.0167308
967.197	0.0168672
967.275	0.0166998
967.353	0.0167919
967.432	0.0167956
967.510	0.0167640
967.588	0.0166232
967.666	0.0166873
967.744	0.0166550
967.822	0.0165879
967.900	0.0164912
967.978	0.0164381
968.057	0.0165023
968.135	0.0164568
968.213	0.0165739
968.291	0.0165057
968.369	0.0165649
968.447	0.0164231
968.525	0.0164611
968.603	0.0164412
968.682	0.0164842
968.760	0.0165614
968.838	0.0165492
968.916	0.0165086
968.994	0.0165051
969.072	0.0165868
969.150	0.0165197
969.228	0.0166340
969.307	0.0165247
969.385	0.0167054
969.463	0.0167152
969.541	0.0166496
969.619	0.0168438
969.697	0.0167004
969.775	0.0166463
969.853	0.0166566
969.932	0.0165975
