06/10/2022	16:32:33	Ver.	4.1	UNKNOWN
Optical Delay	650.009681	Delta X		0.078125	Sweeps	1	Scan Rate	0/0
Coordinates	Axis 1	NaN	Axis 2	NaN	Axis 3	NaN	Axis 4	NaN	Axis 5	NaN	Axis 6	0.000000
TX Power	0.000000	RX Power	0.000000

650.010	0.0165604
650.088	0.0165086
650.166	0.0166543
650.244	0.0164750
650.322	0.0165266
650.400	0.0166197
650.478	0.0165047
650.557	0.0166548
650.635	0.0164699
650.713	0.0165498
650.791	0.0165715
650.869	0.0165398
650.947	0.0166322
651.025	0.0165331
651.103	0.0165504
651.182	0.0165654
651.260	0.0165189
651.338	0.0165248
651.416	0.0165436
651.494	0.0166543
651.572	0.0165915
651.650	0.0164960
651.728	0.0165097
651.807	0.0166636
651.885	0.0166721
651.963	0.0165708
652.041	0.0164906
652.119	0.0164748
652.197	0.0165079
652.275	0.0166959
652.353	0.0166061
652.432	0.0164550
652.510	0.0164939
652.588	0.0166827
652.666	0.0166272
652.744	0.0165285
652.822	0.0165237
652.900	0.0165537
652.978	0.0165319
653.057	0.0166840
653.135	0.0167055
653.213	0.0165664
653.291	0.0165276
653.369	0.0165761
653.447	0.0165479
653.525	0.0166330
653.603	0.0165681
653.682	0.0165291
653.760	0.0166290
653.838	0.0165353
653.916	0.0165794
653.994	0.0165618
654.072	0.0166492
654.150	0.0164344
654.228	0.0167123
654.307	0.0166088
654.385	0.0165223
654.463	0.0167245
654.541	0.0167095
654.619	0.0167353
654.697	0.0165355
654.775	0.0166425
654.853	0.0166363
654.932	0.0165549
655.010	0.0166141
655.088	0.0166840
655.166	0.0165514
655.244	0.0167146
655.322	0.0166063
655.400	0.0165474
655.478	0.0166415
655.557	0.0167278
655.635	0.0165994
655.713	0.0165388
655.791	0.0166594
655.869	0.0166373
655.947	0.0165916
656.025	0.0166431
656.103	0.0167150
656.182	0.0166354
656.260	0.0165950
656.338	0.0166213
656.416	0.0167334
656.494	0.0166571
656.572	0.0167273
656.650	0.0167799
656.728	0.0165669
656.807	0.0166434
656.885	0.0166086
656.963	0.0166772
657.041	0.0166897
657.119	0.0165469
657.197	0.0165704
657.275	0.0167815
657.353	0.0166266
657.432	0.0166791
657.510	0.0166275
657.588	0.0166853
657.666	0.0166875
657.744	0.0167045
657.822	0.0166653
657.900	0.0166659
657.978	0.0165999
658.057	0.0166521
658.135	0.0166421
658.213	0.0166759
658.291	0.0167442
658.369	0.0166566
658.447	0.0165074
658.525	0.0165870
658.603	0.0165765
658.682	0.0167384
658.760	0.0166829
658.838	0.0165085
658.916	0.0166937
658.994	0.0166820
659.072	0.0166849
659.150	0.0165987
659.228	0.0166252
659.307	0.0167214
659.385	0.0166536
659.463	0.0166133
659.541	0.0165995
659.619	0.0166463
659.697	0.0164881
659.775	0.0164997
659.853	0.0165540
659.932	0.0166392
660.010	0.0166811
660.088	0.0165549
660.166	0.0165324
660.244	0.0165798
660.322	0.0165839
660.400	0.0165799
660.478	0.0165564
660.557	0.0165588
660.635	0.0166389
660.713	0.0165750
660.791	0.0166518
660.869	0.0165941
660.947	0.0165913
661.025	0.0167368
661.103	0.0165418
661.182	0.0166582
661.260	0.0165841
661.338	0.0166827
661.416	0.0166859
661.494	0.0166589
661.572	0.0165418
661.650	0.0165785
661.728	0.0165762
661.807	0.0165366
661.885	0.0166702
661.963	0.0166186
662.041	0.0166414
662.119	0.0166557
662.197	0.0164869
662.275	0.0165945
662.353	0.0164960
662.432	0.0165128
662.510	0.0166419
662.588	0.0166578
662.666	0.0166381
662.744	0.0166661
662.822	0.0165807
662.900	0.0166005
662.978	0.0165832
663.057	0.0164213
663.135	0.0166063
663.213	0.0165901
663.291	0.0166026
663.369	0.0164687
663.447	0.0165601
663.525	0.0164651
663.603	0.0165333
663.682	0.0166356
663.760	0.0166962
663.838	0.0166049
663.916	0.0165244
663.994	0.0164725
664.072	0.0166521
664.150	0.0165920
664.228	0.0164853
664.307	0.0166232
664.385	0.0165788
664.463	0.0165388
664.541	0.0165643
664.619	0.0165401
664.697	0.0165636
664.775	0.0165146
664.853	0.0165720
664.932	0.0165215
665.010	0.0165003
665.088	0.0165486
665.166	0.0165176
665.244	0.0165868
665.322	0.0165134
665.400	0.0164761
665.478	0.0165336
665.557	0.0165126
665.635	0.0166872
665.713	0.0163664
665.791	0.0164966
665.869	0.0166193
665.947	0.0166094
666.025	0.0166081
666.103	0.0165077
666.182	0.0165835
666.260	0.0164796
666.338	0.0165361
666.416	0.0164912
666.494	0.0165726
666.572	0.0165260
666.650	0.0165681
666.728	0.0166371
666.807	0.0165084
666.885	0.0165431
666.963	0.0164395
667.041	0.0164957
667.119	0.0165064
667.197	0.0165298
667.275	0.0166046
667.353	0.0164912
667.432	0.0165190
667.510	0.0164420
667.588	0.0164558
667.666	0.0166391
667.744	0.0165334
667.822	0.0165153
667.900	0.0165016
667.978	0.0165357
668.057	0.0165111
668.135	0.0164167
668.213	0.0166492
668.291	0.0165339
668.369	0.0163952
668.447	0.0164595
668.525	0.0165424
668.603	0.0164681
668.682	0.0165722
668.760	0.0164961
668.838	0.0166338
668.916	0.0164825
668.994	0.0166263
669.072	0.0166158
669.150	0.0164867
669.228	0.0164939
669.307	0.0166058
669.385	0.0165266
669.463	0.0164908
669.541	0.0165031
669.619	0.0166343
669.697	0.0164498
669.775	0.0164930
669.853	0.0165478
669.932	0.0166006
670.010	0.0165231
670.088	0.0165317
670.166	0.0166367
670.244	0.0164697
670.322	0.0164702
670.400	0.0165208
670.478	0.0165528
670.557	0.0165969
670.635	0.0165365
670.713	0.0165371
670.791	0.0165448
670.869	0.0165274
670.947	0.0165108
671.025	0.0165360
671.103	0.0164802
671.182	0.0165070
671.260	0.0165248
671.338	0.0165732
671.416	0.0164222
671.494	0.0164013
671.572	0.0165820
671.650	0.0166005
671.728	0.0164898
671.807	0.0165894
671.885	0.0165360
671.963	0.0165147
672.041	0.0167188
672.119	0.0166587
672.197	0.0164626
672.275	0.0166485
672.353	0.0165579
672.432	0.0165406
672.510	0.0165318
672.588	0.0163877
672.666	0.0165383
672.744	0.0165891
672.822	0.0164540
672.900	0.0166171
672.978	0.0165677
673.057	0.0166672
673.135	0.0166224
673.213	0.0164661
673.291	0.0165333
673.369	0.0166618
673.447	0.0165565
673.525	0.0167229
673.603	0.0165452
673.682	0.0166545
673.760	0.0166492
673.838	0.0164354
673.916	0.0165914
673.994	0.0166925
674.072	0.0166471
674.150	0.0164970
674.228	0.0165432
674.307	0.0165635
674.385	0.0165236
674.463	0.0166518
674.541	0.0165334
674.619	0.0165717
674.697	0.0166058
674.775	0.0164664
674.853	0.0167043
674.932	0.0164472
675.010	0.0164959
675.088	0.0165154
675.166	0.0165298
675.244	0.0166607
675.322	0.0166620
675.400	0.0165380
675.478	0.0165675
675.557	0.0165218
675.635	0.0167043
675.713	0.0165395
675.791	0.0164844
675.869	0.0165716
675.947	0.0166862
676.025	0.0167096
676.103	0.0164895
676.182	0.0165340
676.260	0.0166896
676.338	0.0167312
676.416	0.0165514
676.494	0.0164995
676.572	0.0166629
676.650	0.0165379
676.728	0.0166402
676.807	0.0165502
676.885	0.0166219
676.963	0.0165238
677.041	0.0165416
677.119	0.0165723
677.197	0.0166945
677.275	0.0166814
677.353	0.0166164
677.432	0.0165845
677.510	0.0166215
677.588	0.0164979
677.666	0.0166431
677.744	0.0165311
677.822	0.0165621
677.900	0.0165537
677.978	0.0165517
678.057	0.0165688
678.135	0.0166207
678.213	0.0165390
678.291	0.0165540
678.369	0.0166624
678.447	0.0166444
678.525	0.0165648
678.603	0.0165567
678.682	0.0167179
678.760	0.0165531
678.838	0.0165720
678.916	0.0166560
678.994	0.0166122
679.072	0.0165607
679.150	0.0166935
679.228	0.0165805
679.307	0.0166568
679.385	0.0166231
679.463	0.0165688
679.541	0.0165109
679.619	0.0165480
679.697	0.0165706
679.775	0.0165021
679.853	0.0165849
679.932	0.0164671
680.010	0.0166148
680.088	0.0166214
680.166	0.0164881
680.244	0.0164700
680.322	0.0166540
680.400	0.0164860
680.478	0.0165382
680.557	0.0165060
680.635	0.0165620
680.713	0.0165820
680.791	0.0165337
680.869	0.0164921
680.947	0.0166110
681.025	0.0165066
681.103	0.0165540
681.182	0.0164658
681.260	0.0165028
681.338	0.0166125
681.416	0.0165796
681.494	0.0165554
681.572	0.0166403
681.650	0.0165010
681.728	0.0163297
681.807	0.0166126
681.885	0.0165806
681.963	0.0165158
682.041	0.0164999
682.119	0.0165667
682.197	0.0165171
682.275	0.0164464
682.353	0.0166234
682.432	0.0165109
682.510	0.0165496
682.588	0.0164978
682.666	0.0165855
682.744	0.0165188
682.822	0.0164680
682.900	0.0165870
682.978	0.0165060
683.057	0.0164944
683.135	0.0164863
683.213	0.0166210
683.291	0.0165715
683.369	0.0164672
683.447	0.0164193
683.525	0.0166273
683.603	0.0165843
683.682	0.0165520
683.760	0.0164441
683.838	0.0166798
683.916	0.0166019
683.994	0.0164391
684.072	0.0165395
684.150	0.0165031
684.228	0.0165746
684.307	0.0166405
684.385	0.0165887
684.463	0.0164578
684.541	0.0163876
684.619	0.0164559
684.697	0.0165376
684.775	0.0164001
684.853	0.0164880
684.932	0.0165441
685.010	0.0165487
685.088	0.0164149
685.166	0.0165923
685.244	0.0165154
685.322	0.0164170
685.400	0.0166127
685.478	0.0165803
685.557	0.0164565
685.635	0.0164113
685.713	0.0165692
685.791	0.0165342
685.869	0.0165407
685.947	0.0164756
686.025	0.0164513
686.103	0.0164329
686.182	0.0164822
686.260	0.0166859
686.338	0.0165130
686.416	0.0165361
686.494	0.0164242
686.572	0.0164528
686.650	0.0165248
686.728	0.0165792
686.807	0.0164523
686.885	0.0165454
686.963	0.0164002
687.041	0.0165529
687.119	0.0165601
687.197	0.0165853
687.275	0.0166124
687.353	0.0163496
687.432	0.0165804
687.510	0.0167493
687.588	0.0165835
687.666	0.0164165
687.744	0.0165783
687.822	0.0165786
687.900	0.0164413
687.978	0.0165834
688.057	0.0165768
688.135	0.0166390
688.213	0.0167018
688.291	0.0165488
688.369	0.0165051
688.447	0.0166176
688.525	0.0166542
688.603	0.0167115
688.682	0.0164983
688.760	0.0165469
688.838	0.0165456
688.916	0.0165344
688.994	0.0166167
689.072	0.0164396
689.150	0.0164933
689.228	0.0164837
689.307	0.0164900
689.385	0.0166286
689.463	0.0165771
689.541	0.0165487
689.619	0.0164355
689.697	0.0166383
689.775	0.0166549
689.853	0.0166271
689.932	0.0166167
690.010	0.0165603
690.088	0.0165770
690.166	0.0165943
690.244	0.0165298
690.322	0.0166656
690.400	0.0166266
690.478	0.0165178
690.557	0.0165697
690.635	0.0165695
690.713	0.0166049
690.791	0.0165480
690.869	0.0163963
690.947	0.0165540
691.025	0.0165089
691.103	0.0164674
691.182	0.0165722
691.260	0.0165282
691.338	0.0166266
691.416	0.0166084
691.494	0.0164878
691.572	0.0163947
691.650	0.0164461
691.728	0.0165052
691.807	0.0166089
691.885	0.0165536
691.963	0.0165527
692.041	0.0164310
692.119	0.0164938
692.197	0.0165971
692.275	0.0165842
692.353	0.0165359
692.432	0.0164375
692.510	0.0164758
692.588	0.0166505
692.666	0.0165118
692.744	0.0166367
692.822	0.0165224
692.900	0.0165862
692.978	0.0166628
693.057	0.0165941
693.135	0.0164777
693.213	0.0166313
693.291	0.0165546
693.369	0.0165257
693.447	0.0166252
693.525	0.0165914
693.603	0.0166062
693.682	0.0165571
693.760	0.0166480
693.838	0.0165090
693.916	0.0165748
693.994	0.0166293
694.072	0.0165865
694.150	0.0165488
694.228	0.0166137
694.307	0.0165710
694.385	0.0165356
694.463	0.0165457
694.541	0.0165621
694.619	0.0164835
694.697	0.0165814
694.775	0.0166422
694.853	0.0164419
694.932	0.0165795
695.010	0.0166371
695.088	0.0165319
695.166	0.0165160
695.244	0.0166158
695.322	0.0165947
695.400	0.0166714
695.478	0.0165898
695.557	0.0164417
695.635	0.0165034
695.713	0.0166039
695.791	0.0165388
695.869	0.0166887
695.947	0.0167566
696.025	0.0165256
696.103	0.0167017
696.182	0.0166820
696.260	0.0165986
696.338	0.0166370
696.416	0.0167287
696.494	0.0165472
696.572	0.0165650
696.650	0.0166628
696.728	0.0166492
696.807	0.0166270
696.885	0.0166830
696.963	0.0167309
697.041	0.0166699
697.119	0.0166512
697.197	0.0165419
697.275	0.0166401
697.353	0.0167110
697.432	0.0166846
697.510	0.0166410
697.588	0.0166634
697.666	0.0165146
697.744	0.0165438
697.822	0.0164905
697.900	0.0166254
697.978	0.0166020
698.057	0.0165420
698.135	0.0166811
698.213	0.0164482
698.291	0.0166945
698.369	0.0166224
698.447	0.0167073
698.525	0.0166726
698.603	0.0165624
698.682	0.0165945
698.760	0.0165261
698.838	0.0167194
698.916	0.0165142
698.994	0.0164436
699.072	0.0165540
699.150	0.0164817
699.228	0.0166111
699.307	0.0167093
699.385	0.0165667
699.463	0.0166136
699.541	0.0165501
699.619	0.0165633
699.697	0.0166183
699.775	0.0166370
699.853	0.0166034
699.932	0.0166296
700.010	0.0166080
700.088	0.0166684
700.166	0.0167299
700.244	0.0165525
700.322	0.0165775
700.400	0.0166036
700.478	0.0165737
700.557	0.0164833
700.635	0.0166021
700.713	0.0166376
700.791	0.0165848
700.869	0.0166499
700.947	0.0165712
701.025	0.0165495
701.103	0.0166178
701.182	0.0166523
701.260	0.0164965
701.338	0.0165953
701.416	0.0164272
701.494	0.0164664
701.572	0.0164862
701.650	0.0164353
701.728	0.0165539
701.807	0.0164948
701.885	0.0164558
701.963	0.0164574
702.041	0.0163617
702.119	0.0164444
702.197	0.0165195
702.275	0.0165677
702.353	0.0164694
702.432	0.0166564
702.510	0.0165189
702.588	0.0164442
702.666	0.0166091
702.744	0.0166695
702.822	0.0165647
702.900	0.0164774
702.978	0.0166250
703.057	0.0166772
703.135	0.0165596
703.213	0.0165541
703.291	0.0166157
703.369	0.0165881
703.447	0.0165505
703.525	0.0165785
703.603	0.0166465
703.682	0.0164979
703.760	0.0164511
703.838	0.0166563
703.916	0.0165974
703.994	0.0165637
704.072	0.0166170
704.150	0.0167123
704.228	0.0166919
704.307	0.0165863
704.385	0.0166715
704.463	0.0165837
704.541	0.0165169
704.619	0.0166613
704.697	0.0166429
704.775	0.0167220
704.853	0.0167842
704.932	0.0165724
705.010	0.0165248
705.088	0.0166034
705.166	0.0166624
705.244	0.0164278
705.322	0.0165453
705.400	0.0167282
705.478	0.0167551
705.557	0.0165820
705.635	0.0166357
705.713	0.0164977
705.791	0.0165128
705.869	0.0165092
705.947	0.0167001
706.025	0.0166472
706.103	0.0164951
706.182	0.0165765
706.260	0.0166373
706.338	0.0166145
706.416	0.0163860
706.494	0.0165273
706.572	0.0165263
706.650	0.0166402
706.728	0.0166853
706.807	0.0165256
706.885	0.0163651
706.963	0.0166330
707.041	0.0166870
707.119	0.0164492
707.197	0.0165731
707.275	0.0164639
707.353	0.0166055
707.432	0.0164454
707.510	0.0164158
707.588	0.0164968
707.666	0.0166034
707.744	0.0165489
707.822	0.0164642
707.900	0.0164714
707.978	0.0166458
708.057	0.0164662
708.135	0.0166223
708.213	0.0165243
708.291	0.0165005
708.369	0.0165163
708.447	0.0165491
708.525	0.0164442
708.603	0.0165599
708.682	0.0165240
708.760	0.0165842
708.838	0.0164746
708.916	0.0166052
708.994	0.0165105
709.072	0.0165681
709.150	0.0163168
709.228	0.0165855
709.307	0.0165636
709.385	0.0165690
709.463	0.0166045
709.541	0.0165758
709.619	0.0164540
709.697	0.0163953
709.775	0.0164732
709.853	0.0166835
709.932	0.0165691
710.010	0.0164498
710.088	0.0164853
710.166	0.0165622
710.244	0.0165107
710.322	0.0165099
710.400	0.0165148
710.478	0.0165800
710.557	0.0165358
710.635	0.0164557
710.713	0.0165385
710.791	0.0164474
710.869	0.0165807
710.947	0.0166110
711.025	0.0165225
711.103	0.0166138
711.182	0.0164462
711.260	0.0165437
711.338	0.0165186
711.416	0.0165469
711.494	0.0165916
711.572	0.0166620
711.650	0.0165310
711.728	0.0165584
711.807	0.0167059
711.885	0.0166674
711.963	0.0165350
712.041	0.0165616
712.119	0.0165723
712.197	0.0165564
712.275	0.0165968
712.353	0.0165421
712.432	0.0165051
712.510	0.0164540
712.588	0.0166275
712.666	0.0164394
712.744	0.0165089
712.822	0.0165933
712.900	0.0165115
712.978	0.0164928
713.057	0.0165397
713.135	0.0164925
713.213	0.0166879
713.291	0.0166490
713.369	0.0166917
713.447	0.0168288
713.525	0.0168617
713.603	0.0167665
713.682	0.0167332
713.760	0.0167177
713.838	0.0167277
713.916	0.0167083
713.994	0.0165534
714.072	0.0165296
714.150	0.0164017
714.228	0.0164027
714.307	0.0164494
714.385	0.0164295
714.463	0.0163527
714.541	0.0164230
714.619	0.0165262
714.697	0.0165234
714.775	0.0165582
714.853	0.0166483
714.932	0.0167120
715.010	0.0167281
715.088	0.0168076
715.166	0.0168767
715.244	0.0168686
715.322	0.0166504
715.400	0.0167815
715.478	0.0167587
715.557	0.0167478
715.635	0.0166834
715.713	0.0166894
715.791	0.0166093
715.869	0.0165193
715.947	0.0166564
716.025	0.0165869
716.103	0.0164240
716.182	0.0166204
716.260	0.0166320
716.338	0.0164712
716.416	0.0166145
716.494	0.0164571
716.572	0.0165193
716.650	0.0164167
716.728	0.0165640
716.807	0.0164109
716.885	0.0164526
716.963	0.0165167
717.041	0.0165247
717.119	0.0165816
717.197	0.0164756
717.275	0.0164812
717.353	0.0164935
717.432	0.0165646
717.510	0.0167509
717.588	0.0166547
717.666	0.0167487
717.744	0.0168076
717.822	0.0167308
717.900	0.0167835
717.978	0.0168698
718.057	0.0170309
718.135	0.0168388
718.213	0.0167091
718.291	0.0167059
718.369	0.0166771
718.447	0.0165889
718.525	0.0166228
718.603	0.0164755
718.682	0.0163852
718.760	0.0163451
718.838	0.0162312
718.916	0.0163677
718.994	0.0163639
719.072	0.0164500
719.150	0.0164151
719.228	0.0164703
719.307	0.0163760
719.385	0.0165163
719.463	0.0165542
719.541	0.0166415
719.619	0.0166642
719.697	0.0168184
719.775	0.0168150
719.853	0.0168240
719.932	0.0169052
720.010	0.0168615
720.088	0.0169871
720.166	0.0169583
720.244	0.0168772
720.322	0.0168388
720.400	0.0168323
720.478	0.0167641
720.557	0.0168655
720.635	0.0166991
720.713	0.0166236
720.791	0.0165756
720.869	0.0164474
720.947	0.0164118
721.025	0.0164325
721.103	0.0164185
721.182	0.0163142
721.260	0.0164277
721.338	0.0163283
721.416	0.0163712
721.494	0.0163968
721.572	0.0164912
721.650	0.0165504
721.728	0.0165251
721.807	0.0164114
721.885	0.0164929
721.963	0.0165586
722.041	0.0166402
722.119	0.0165393
722.197	0.0166435
722.275	0.0166801
722.353	0.0167153
722.432	0.0167895
722.510	0.0166575
722.588	0.0168285
722.666	0.0167246
722.744	0.0166449
722.822	0.0167727
722.900	0.0167188
722.978	0.0166623
723.057	0.0166766
723.135	0.0165203
723.213	0.0165054
723.291	0.0164749
723.369	0.0164487
723.447	0.0164120
723.525	0.0163858
723.603	0.0163863
723.682	0.0163293
723.760	0.0163318
723.838	0.0162872
723.916	0.0165234
723.994	0.0164282
724.072	0.0164682
724.150	0.0164368
724.228	0.0165459
724.307	0.0166307
724.385	0.0166461
724.463	0.0167667
724.541	0.0168071
724.619	0.0168214
724.697	0.0167115
724.775	0.0168444
724.853	0.0168553
724.932	0.0168264
725.010	0.0167134
725.088	0.0166608
725.166	0.0167052
725.244	0.0166027
725.322	0.0166095
725.400	0.0166242
725.478	0.0165405
725.557	0.0164633
725.635	0.0165796
725.713	0.0164600
725.791	0.0165272
725.869	0.0164569
725.947	0.0166234
726.025	0.0164658
726.103	0.0167435
726.182	0.0166812
726.260	0.0165457
726.338	0.0164607
726.416	0.0166179
726.494	0.0166013
726.572	0.0166595
726.650	0.0166067
726.728	0.0165266
726.807	0.0165717
726.885	0.0166607
726.963	0.0165883
727.041	0.0166068
727.119	0.0165630
727.197	0.0165237
727.275	0.0164884
727.353	0.0165853
727.432	0.0165989
727.510	0.0166306
727.588	0.0165423
727.666	0.0166486
727.744	0.0166056
727.822	0.0165522
727.900	0.0166669
727.978	0.0165155
728.057	0.0166359
728.135	0.0166191
728.213	0.0165829
728.291	0.0165477
728.369	0.0164559
728.447	0.0165488
728.525	0.0164763
728.603	0.0165311
728.682	0.0164902
728.760	0.0164964
728.838	0.0166250
728.916	0.0165693
728.994	0.0164101
729.072	0.0165785
729.150	0.0166851
729.228	0.0167601
729.307	0.0166858
729.385	0.0167136
729.463	0.0165423
729.541	0.0167635
729.619	0.0167175
729.697	0.0168275
729.775	0.0167541
729.853	0.0168170
729.932	0.0167216
730.010	0.0169338
730.088	0.0167304
730.166	0.0166702
730.244	0.0167465
730.322	0.0167035
730.400	0.0165027
730.478	0.0165659
730.557	0.0165675
730.635	0.0165626
730.713	0.0163968
730.791	0.0164772
730.869	0.0164872
730.947	0.0164021
731.025	0.0165836
731.103	0.0167934
731.182	0.0166135
731.260	0.0166267
731.338	0.0167664
731.416	0.0168958
731.494	0.0167424
731.572	0.0169583
731.650	0.0170047
731.728	0.0169347
731.807	0.0170067
731.885	0.0170118
731.963	0.0167284
732.041	0.0167165
732.119	0.0166711
732.197	0.0166710
732.275	0.0164626
732.353	0.0164066
732.432	0.0164028
732.510	0.0162848
732.588	0.0164175
732.666	0.0162569
732.744	0.0163065
732.822	0.0162475
732.900	0.0162271
732.978	0.0163988
733.057	0.0164233
733.135	0.0166074
733.213	0.0168377
733.291	0.0168361
733.369	0.0168476
733.447	0.0170474
733.525	0.0170228
733.603	0.0170026
733.682	0.0170171
733.760	0.0169555
733.838	0.0170177
733.916	0.0169268
733.994	0.0169378
734.072	0.0166924
734.150	0.0167670
734.228	0.0167657
734.307	0.0164405
734.385	0.0164117
734.463	0.0164433
734.541	0.0164193
734.619	0.0161653
734.697	0.0163295
734.775	0.0162170
734.853	0.0162785
734.932	0.0162514
735.010	0.0162908
735.088	0.0163177
735.166	0.0162424
735.244	0.0163750
735.322	0.0162437
735.400	0.0163006
735.478	0.0166744
735.557	0.0167689
735.635	0.0166454
735.713	0.0168586
735.791	0.0169699
735.869	0.0170054
735.947	0.0171512
736.025	0.0172247
736.103	0.0172504
736.182	0.0171075
736.260	0.0170168
736.338	0.0169386
736.416	0.0168506
736.494	0.0169584
736.572	0.0165258
736.650	0.0165598
736.728	0.0163161
736.807	0.0163299
736.885	0.0160669
736.963	0.0159705
737.041	0.0160196
737.119	0.0158861
737.197	0.0159756
737.275	0.0159087
737.353	0.0160366
737.432	0.0161474
737.510	0.0163291
737.588	0.0163874
737.666	0.0164673
737.744	0.0166806
737.822	0.0169566
737.900	0.0169154
737.978	0.0169385
738.057	0.0169961
738.135	0.0170992
738.213	0.0172337
738.291	0.0171180
738.369	0.0170707
738.447	0.0170551
738.525	0.0170287
738.603	0.0168781
738.682	0.0167155
738.760	0.0166930
738.838	0.0165889
738.916	0.0165639
738.994	0.0165182
739.072	0.0165072
739.150	0.0163860
739.228	0.0162202
739.307	0.0163057
739.385	0.0163213
739.463	0.0162563
739.541	0.0162836
739.619	0.0163711
739.697	0.0163245
739.775	0.0164830
739.853	0.0165435
739.932	0.0165276
740.010	0.0166960
740.088	0.0167204
740.166	0.0166170
740.244	0.0165525
740.322	0.0167849
740.400	0.0169353
740.478	0.0166889
740.557	0.0168562
740.635	0.0168018
740.713	0.0167678
740.791	0.0167719
740.869	0.0168089
740.947	0.0168711
741.025	0.0168199
741.103	0.0167002
741.182	0.0167210
741.260	0.0167988
741.338	0.0166757
741.416	0.0167598
741.494	0.0165869
741.572	0.0165890
741.650	0.0165523
741.728	0.0165202
741.807	0.0163326
741.885	0.0163432
741.963	0.0163895
742.041	0.0163251
742.119	0.0163499
742.197	0.0163437
742.275	0.0165123
742.353	0.0164133
742.432	0.0164602
742.510	0.0165289
742.588	0.0164903
742.666	0.0166110
742.744	0.0165966
742.822	0.0166743
742.900	0.0168318
742.978	0.0166166
743.057	0.0164506
743.135	0.0166145
743.213	0.0167165
743.291	0.0167138
743.369	0.0166893
743.447	0.0165348
743.525	0.0166615
743.603	0.0164462
743.682	0.0165679
743.760	0.0166978
743.838	0.0166813
743.916	0.0165823
743.994	0.0166940
744.072	0.0166874
744.150	0.0165594
744.228	0.0165990
744.307	0.0166525
744.385	0.0166621
744.463	0.0165685
744.541	0.0166358
744.619	0.0166206
744.697	0.0165492
744.775	0.0164314
744.853	0.0163622
744.932	0.0165622
745.010	0.0163492
745.088	0.0164309
745.166	0.0163656
745.244	0.0164804
745.322	0.0163491
745.400	0.0164902
745.478	0.0165154
745.557	0.0165401
745.635	0.0165195
745.713	0.0165256
745.791	0.0165445
745.869	0.0165510
745.947	0.0165483
746.025	0.0166187
746.103	0.0166813
746.182	0.0166479
746.260	0.0166914
746.338	0.0167927
746.416	0.0166779
746.494	0.0167091
746.572	0.0165972
746.650	0.0165443
746.728	0.0165655
746.807	0.0166770
746.885	0.0165723
746.963	0.0163886
747.041	0.0165189
747.119	0.0164050
747.197	0.0164519
747.275	0.0163756
747.353	0.0164255
747.432	0.0164635
747.510	0.0163334
747.588	0.0164289
747.666	0.0164520
747.744	0.0165028
747.822	0.0164284
747.900	0.0164164
747.978	0.0164706
748.057	0.0164027
748.135	0.0163891
748.213	0.0164743
748.291	0.0165018
748.369	0.0166039
748.447	0.0165065
748.525	0.0165985
748.603	0.0166787
748.682	0.0165980
748.760	0.0166672
748.838	0.0167286
748.916	0.0166042
748.994	0.0164860
749.072	0.0165597
749.150	0.0166721
749.228	0.0167197
749.307	0.0164909
749.385	0.0165417
749.463	0.0166411
749.541	0.0167130
749.619	0.0165047
749.697	0.0165868
749.775	0.0165101
749.853	0.0164783
749.932	0.0164992
750.010	0.0165694
750.088	0.0164184
750.166	0.0165039
750.244	0.0166180
750.322	0.0165292
750.400	0.0164342
750.478	0.0165210
750.557	0.0165101
750.635	0.0165602
750.713	0.0165004
750.791	0.0165147
750.869	0.0164261
750.947	0.0165311
751.025	0.0164331
751.103	0.0166791
751.182	0.0166871
751.260	0.0165965
751.338	0.0164915
751.416	0.0166087
751.494	0.0165631
751.572	0.0165695
751.650	0.0165240
751.728	0.0165522
751.807	0.0165896
751.885	0.0166272
751.963	0.0165778
752.041	0.0165367
752.119	0.0166708
752.197	0.0165498
752.275	0.0164764
752.353	0.0165020
752.432	0.0164854
752.510	0.0165363
752.588	0.0165112
752.666	0.0164659
752.744	0.0164556
752.822	0.0164778
752.900	0.0164223
752.978	0.0165611
753.057	0.0163287
753.135	0.0165347
753.213	0.0164897
753.291	0.0165107
753.369	0.0165577
753.447	0.0164321
753.525	0.0165739
753.603	0.0165113
753.682	0.0166619
753.760	0.0165067
753.838	0.0166495
753.916	0.0166302
753.994	0.0166392
754.072	0.0165278
754.150	0.0166405
754.228	0.0166377
754.307	0.0166566
754.385	0.0165607
754.463	0.0166005
754.541	0.0166872
754.619	0.0166264
754.697	0.0166744
754.775	0.0166530
754.853	0.0165948
754.932	0.0163221
755.010	0.0165449
755.088	0.0165031
755.166	0.0165240
755.244	0.0164408
755.322	0.0165662
755.400	0.0164943
755.478	0.0165468
755.557	0.0165195
755.635	0.0165136
755.713	0.0165324
755.791	0.0164908
755.869	0.0165475
755.947	0.0166280
756.025	0.0166711
756.103	0.0165426
756.182	0.0166191
756.260	0.0164800
756.338	0.0164804
756.416	0.0167901
756.494	0.0164411
756.572	0.0166465
756.650	0.0166817
756.728	0.0165749
756.807	0.0165388
756.885	0.0165710
756.963	0.0165330
757.041	0.0166467
757.119	0.0166386
757.197	0.0166363
757.275	0.0166454
757.353	0.0166344
757.432	0.0168326
757.510	0.0166292
757.588	0.0165739
757.666	0.0166259
757.744	0.0167110
757.822	0.0166401
757.900	0.0164870
757.978	0.0165582
758.057	0.0163804
758.135	0.0165001
758.213	0.0164764
758.291	0.0164854
758.369	0.0164005
758.447	0.0165259
758.525	0.0164899
758.603	0.0165278
758.682	0.0165901
758.760	0.0165129
758.838	0.0164445
758.916	0.0164950
758.994	0.0165879
759.072	0.0164686
759.150	0.0166486
759.228	0.0166386
759.307	0.0166127
759.385	0.0167820
759.463	0.0166377
759.541	0.0167166
759.619	0.0166412
759.697	0.0167463
759.775	0.0167033
759.853	0.0165919
759.932	0.0166546
760.010	0.0166810
760.088	0.0166408
760.166	0.0166907
760.244	0.0164879
760.322	0.0164778
760.400	0.0165628
760.478	0.0164890
760.557	0.0164091
760.635	0.0165277
760.713	0.0166377
760.791	0.0165083
760.869	0.0165447
760.947	0.0164967
761.025	0.0166412
761.103	0.0166538
761.182	0.0165073
761.260	0.0165256
761.338	0.0166403
761.416	0.0167303
761.494	0.0166978
761.572	0.0166620
761.650	0.0166534
761.728	0.0167742
761.807	0.0167292
761.885	0.0169013
761.963	0.0167956
762.041	0.0167610
762.119	0.0168079
762.197	0.0169370
762.275	0.0169798
762.353	0.0170473
762.432	0.0169746
762.510	0.0168092
762.588	0.0169102
762.666	0.0168629
762.744	0.0167259
762.822	0.0168002
762.900	0.0165211
762.978	0.0165952
763.057	0.0164420
763.135	0.0163663
763.213	0.0163723
763.291	0.0164041
763.369	0.0163620
763.447	0.0163214
763.525	0.0162694
763.603	0.0162517
763.682	0.0162667
763.760	0.0163064
763.838	0.0164624
763.916	0.0164583
763.994	0.0164388
764.072	0.0165308
764.150	0.0165144
764.228	0.0165012
764.307	0.0167621
764.385	0.0165417
764.463	0.0165780
764.541	0.0167149
764.619	0.0168005
764.697	0.0167719
764.775	0.0166948
764.853	0.0167964
764.932	0.0167401
765.010	0.0168708
765.088	0.0168044
765.166	0.0168448
765.244	0.0167976
765.322	0.0168476
765.400	0.0167466
765.478	0.0166878
765.557	0.0167632
765.635	0.0167340
765.713	0.0165374
765.791	0.0167188
765.869	0.0164971
765.947	0.0163622
766.025	0.0162378
766.103	0.0161395
766.182	0.0162527
766.260	0.0163737
766.338	0.0162836
766.416	0.0161546
766.494	0.0163636
766.572	0.0163031
766.650	0.0162273
766.728	0.0163095
766.807	0.0163231
766.885	0.0164288
766.963	0.0165173
767.041	0.0166071
767.119	0.0164826
767.197	0.0165892
767.275	0.0166245
767.353	0.0168047
767.432	0.0167375
767.510	0.0168102
767.588	0.0168717
767.666	0.0169025
767.744	0.0166228
767.822	0.0167141
767.900	0.0167589
767.978	0.0167006
768.057	0.0166782
768.135	0.0167593
768.213	0.0167426
768.291	0.0166323
768.369	0.0166439
768.447	0.0165047
768.525	0.0167194
768.603	0.0167905
768.682	0.0166316
768.760	0.0165987
768.838	0.0164802
768.916	0.0165550
768.994	0.0164468
769.072	0.0164258
769.150	0.0165971
769.228	0.0164883
769.307	0.0165211
769.385	0.0164513
769.463	0.0163215
769.541	0.0163673
769.619	0.0164157
769.697	0.0165647
769.775	0.0164641
769.853	0.0164951
769.932	0.0167713
770.010	0.0166391
770.088	0.0166573
770.166	0.0167220
770.244	0.0168245
770.322	0.0168479
770.400	0.0168607
770.478	0.0168858
770.557	0.0170144
770.635	0.0168647
770.713	0.0168082
770.791	0.0167271
770.869	0.0166289
770.947	0.0165210
771.025	0.0165269
771.103	0.0162936
771.182	0.0162447
771.260	0.0162440
771.338	0.0161025
771.416	0.0159907
771.494	0.0160962
771.572	0.0161574
771.650	0.0161543
771.728	0.0161796
771.807	0.0163329
771.885	0.0163188
771.963	0.0163239
772.041	0.0163129
772.119	0.0165175
772.197	0.0166855
772.275	0.0167501
772.353	0.0169931
772.432	0.0169222
772.510	0.0170899
772.588	0.0171138
772.666	0.0171603
772.744	0.0172105
772.822	0.0173493
772.900	0.0173903
772.978	0.0172549
773.057	0.0172977
773.135	0.0171468
773.213	0.0169551
773.291	0.0169332
773.369	0.0168673
773.447	0.0167825
773.525	0.0166692
773.603	0.0164301
773.682	0.0163190
773.760	0.0163704
773.838	0.0163713
773.916	0.0161058
773.994	0.0159688
774.072	0.0160425
774.150	0.0160970
774.228	0.0159766
774.307	0.0160223
774.385	0.0159115
774.463	0.0159855
774.541	0.0159422
774.619	0.0159144
774.697	0.0160832
774.775	0.0159576
774.853	0.0159338
774.932	0.0159698
775.010	0.0161094
775.088	0.0161836
775.166	0.0162705
775.244	0.0162868
775.322	0.0164804
775.400	0.0164166
775.478	0.0165585
775.557	0.0167014
775.635	0.0167567
775.713	0.0168106
775.791	0.0169175
775.869	0.0168085
775.947	0.0169227
776.025	0.0170406
776.103	0.0169981
776.182	0.0171012
776.260	0.0172520
776.338	0.0170808
776.416	0.0169662
776.494	0.0171431
776.572	0.0171619
776.650	0.0169975
776.728	0.0171265
776.807	0.0169833
776.885	0.0170888
776.963	0.0169984
777.041	0.0170433
777.119	0.0169586
777.197	0.0170220
777.275	0.0170361
777.353	0.0169653
777.432	0.0167089
777.510	0.0166786
777.588	0.0167082
777.666	0.0167323
777.744	0.0165449
777.822	0.0163184
777.900	0.0163589
777.978	0.0163981
778.057	0.0163519
778.135	0.0161680
778.213	0.0161159
778.291	0.0160809
778.369	0.0160075
778.447	0.0160286
778.525	0.0160802
778.603	0.0159759
778.682	0.0158367
778.760	0.0158107
778.838	0.0158278
778.916	0.0157663
778.994	0.0159184
779.072	0.0158125
779.150	0.0159507
779.228	0.0159283
779.307	0.0159557
779.385	0.0159779
779.463	0.0160246
779.541	0.0161868
779.619	0.0163435
779.697	0.0162829
779.775	0.0164433
779.853	0.0165991
779.932	0.0166860
780.010	0.0168273
780.088	0.0169975
780.166	0.0171139
780.244	0.0171482
780.322	0.0172069
780.400	0.0172925
780.478	0.0172736
780.557	0.0173843
780.635	0.0174516
780.713	0.0175262
780.791	0.0173309
780.869	0.0176559
780.947	0.0176339
781.025	0.0174268
781.103	0.0173749
781.182	0.0173114
781.260	0.0172958
781.338	0.0173122
781.416	0.0171546
781.494	0.0168736
781.572	0.0168443
781.650	0.0167175
781.728	0.0164827
781.807	0.0166410
781.885	0.0164944
781.963	0.0164076
782.041	0.0162476
782.119	0.0162578
782.197	0.0162821
782.275	0.0162315
782.353	0.0160416
782.432	0.0159428
782.510	0.0160328
782.588	0.0158913
782.666	0.0157655
782.744	0.0156848
782.822	0.0155166
782.900	0.0155196
782.978	0.0154085
783.057	0.0154026
783.135	0.0154823
783.213	0.0154655
783.291	0.0155296
783.369	0.0156679
783.447	0.0157636
783.525	0.0158065
783.603	0.0159811
783.682	0.0162470
783.760	0.0163428
783.838	0.0164936
783.916	0.0164395
783.994	0.0166078
784.072	0.0169836
784.150	0.0170544
784.228	0.0170501
784.307	0.0170885
784.385	0.0171903
784.463	0.0174519
784.541	0.0174987
784.619	0.0174155
784.697	0.0175398
784.775	0.0175462
784.853	0.0175395
784.932	0.0175878
785.010	0.0175418
785.088	0.0175780
785.166	0.0175071
785.244	0.0174706
785.322	0.0173012
785.400	0.0171742
785.478	0.0172029
785.557	0.0170717
785.635	0.0169857
785.713	0.0168082
785.791	0.0167918
785.869	0.0165758
785.947	0.0165192
786.025	0.0164638
786.103	0.0163255
786.182	0.0160961
786.260	0.0161922
786.338	0.0161549
786.416	0.0159558
786.494	0.0158957
786.572	0.0158086
786.650	0.0158759
786.728	0.0158224
786.807	0.0157833
786.885	0.0157549
786.963	0.0159229
787.041	0.0159013
787.119	0.0159068
787.197	0.0158258
787.275	0.0159283
787.353	0.0159689
787.432	0.0161329
787.510	0.0160873
787.588	0.0161083
787.666	0.0163462
787.744	0.0163600
787.822	0.0164709
787.900	0.0165750
787.978	0.0165225
788.057	0.0166087
788.135	0.0165946
788.213	0.0166567
788.291	0.0168417
788.369	0.0167595
788.447	0.0167868
788.525	0.0170949
788.603	0.0168790
788.682	0.0168334
788.760	0.0169888
788.838	0.0170270
788.916	0.0169832
788.994	0.0170156
789.072	0.0170458
789.150	0.0170633
789.228	0.0171284
789.307	0.0170184
789.385	0.0169717
789.463	0.0170362
789.541	0.0168959
789.619	0.0170470
789.697	0.0169469
789.775	0.0168660
789.853	0.0169631
789.932	0.0169411
790.010	0.0167970
790.088	0.0169225
790.166	0.0168848
790.244	0.0168462
790.322	0.0168553
790.400	0.0168176
790.478	0.0167848
790.557	0.0167722
790.635	0.0168356
790.713	0.0166450
790.791	0.0164783
790.869	0.0164078
790.947	0.0162424
791.025	0.0163207
791.103	0.0161261
791.182	0.0161085
791.260	0.0160062
791.338	0.0159394
791.416	0.0158688
791.494	0.0158565
791.572	0.0157248
791.650	0.0157710
791.728	0.0158988
791.807	0.0158649
791.885	0.0161246
791.963	0.0162392
792.041	0.0163385
792.119	0.0164832
792.197	0.0166423
792.275	0.0167455
792.353	0.0168111
792.432	0.0168839
792.510	0.0169725
792.588	0.0169411
792.666	0.0170774
792.744	0.0171233
792.822	0.0170558
792.900	0.0169931
792.978	0.0169979
793.057	0.0170361
793.135	0.0169716
793.213	0.0168673
793.291	0.0169029
793.369	0.0168376
793.447	0.0168260
793.525	0.0167529
793.603	0.0167154
793.682	0.0167299
793.760	0.0166556
793.838	0.0166994
793.916	0.0166930
793.994	0.0166813
794.072	0.0166019
794.150	0.0166931
794.228	0.0166090
794.307	0.0164735
794.385	0.0165134
794.463	0.0164951
794.541	0.0164648
794.619	0.0164008
794.697	0.0163666
794.775	0.0164259
794.853	0.0163373
794.932	0.0163997
795.010	0.0164478
795.088	0.0163561
795.166	0.0163996
795.244	0.0165321
795.322	0.0165012
795.400	0.0165412
795.478	0.0164552
795.557	0.0167197
795.635	0.0166646
795.713	0.0166813
795.791	0.0167108
795.869	0.0167654
795.947	0.0167681
796.025	0.0169367
796.103	0.0169794
796.182	0.0170372
796.260	0.0169981
796.338	0.0169990
796.416	0.0170613
796.494	0.0171348
796.572	0.0169784
796.650	0.0169415
796.728	0.0168755
796.807	0.0167039
796.885	0.0167973
796.963	0.0167581
797.041	0.0167139
797.119	0.0163837
797.197	0.0163831
797.275	0.0163547
797.353	0.0163108
797.432	0.0161537
797.510	0.0160342
797.588	0.0161205
797.666	0.0161341
797.744	0.0161952
797.822	0.0161648
797.900	0.0161848
797.978	0.0161466
798.057	0.0162703
798.135	0.0161850
798.213	0.0163197
798.291	0.0165757
798.369	0.0165360
798.447	0.0165514
798.525	0.0164832
798.603	0.0168156
798.682	0.0167964
798.760	0.0168986
798.838	0.0168427
798.916	0.0169768
798.994	0.0168104
799.072	0.0169748
799.150	0.0169093
799.228	0.0167213
799.307	0.0167834
799.385	0.0167660
799.463	0.0165320
799.541	0.0165625
799.619	0.0165754
799.697	0.0164829
799.775	0.0162157
799.853	0.0163524
799.932	0.0162559
800.010	0.0163194
800.088	0.0163226
800.166	0.0160693
800.244	0.0162914
800.322	0.0162411
800.400	0.0161922
800.478	0.0162840
800.557	0.0163143
800.635	0.0162566
800.713	0.0163747
800.791	0.0164819
800.869	0.0166753
800.947	0.0167023
801.025	0.0167258
801.103	0.0168726
801.182	0.0168433
801.260	0.0171139
801.338	0.0171125
801.416	0.0171646
801.494	0.0172859
801.572	0.0172573
801.650	0.0172018
801.728	0.0172926
801.807	0.0172147
801.885	0.0170158
801.963	0.0170007
802.041	0.0168481
802.119	0.0167208
802.197	0.0166158
802.275	0.0163821
802.353	0.0161523
802.432	0.0161348
802.510	0.0159200
802.588	0.0155781
802.666	0.0154675
802.744	0.0153850
802.822	0.0153600
802.900	0.0152633
802.978	0.0152592
803.057	0.0151452
803.135	0.0152190
803.213	0.0154700
803.291	0.0155851
803.369	0.0157186
803.447	0.0159460
803.525	0.0161610
803.603	0.0164194
803.682	0.0167660
803.760	0.0171074
803.838	0.0171929
803.916	0.0174702
803.994	0.0175827
804.072	0.0177631
804.150	0.0180207
804.228	0.0179121
804.307	0.0177667
804.385	0.0178286
804.463	0.0176746
804.541	0.0176472
804.619	0.0174951
804.697	0.0174075
804.775	0.0170203
804.853	0.0168366
804.932	0.0167440
805.010	0.0164934
805.088	0.0164199
805.166	0.0162202
805.244	0.0161277
805.322	0.0160799
805.400	0.0161833
805.478	0.0159888
805.557	0.0159410
805.635	0.0160463
805.713	0.0158577
805.791	0.0161025
805.869	0.0163683
805.947	0.0162329
806.025	0.0164146
806.103	0.0165760
806.182	0.0167066
806.260	0.0168354
806.338	0.0168708
806.416	0.0168335
806.494	0.0168229
806.572	0.0168756
806.650	0.0168783
806.728	0.0168437
806.807	0.0169582
806.885	0.0168463
806.963	0.0168627
807.041	0.0169751
807.119	0.0167946
807.197	0.0167288
807.275	0.0164939
807.353	0.0164909
807.432	0.0164970
807.510	0.0163911
807.588	0.0162340
807.666	0.0161666
807.744	0.0161362
807.822	0.0159791
807.900	0.0160648
807.978	0.0159454
808.057	0.0159767
808.135	0.0161568
808.213	0.0161095
808.291	0.0163343
808.369	0.0164944
808.447	0.0163531
808.525	0.0164589
808.603	0.0164297
808.682	0.0166064
808.760	0.0165417
808.838	0.0165914
808.916	0.0167843
808.994	0.0168562
809.072	0.0170170
809.150	0.0169695
809.228	0.0170325
809.307	0.0170854
809.385	0.0171838
809.463	0.0172207
809.541	0.0172910
809.619	0.0171698
809.697	0.0172040
809.775	0.0171263
809.853	0.0170330
809.932	0.0169263
810.010	0.0169500
810.088	0.0167648
810.166	0.0167475
810.244	0.0164572
810.322	0.0164380
810.400	0.0164845
810.478	0.0163739
810.557	0.0162483
810.635	0.0162585
810.713	0.0162324
810.791	0.0163004
810.869	0.0161685
810.947	0.0162412
811.025	0.0161103
811.103	0.0161230
811.182	0.0161137
811.260	0.0162090
811.338	0.0163017
811.416	0.0162223
811.494	0.0165161
811.572	0.0164922
811.650	0.0164318
811.728	0.0167091
811.807	0.0168259
811.885	0.0166650
811.963	0.0168308
812.041	0.0170403
812.119	0.0170453
812.197	0.0171376
812.275	0.0171067
812.353	0.0171150
812.432	0.0172211
812.510	0.0172276
812.588	0.0172166
812.666	0.0170592
812.744	0.0169131
812.822	0.0169686
812.900	0.0168479
812.978	0.0167865
813.057	0.0168253
813.135	0.0165829
813.213	0.0164680
813.291	0.0164058
813.369	0.0163493
813.447	0.0162806
813.525	0.0160922
813.603	0.0161314
813.682	0.0161227
813.760	0.0159782
813.838	0.0160922
813.916	0.0160535
813.994	0.0162722
814.072	0.0161785
814.150	0.0163972
814.228	0.0163654
814.307	0.0164944
814.385	0.0166348
814.463	0.0166045
814.541	0.0168398
814.619	0.0169115
814.697	0.0169151
814.775	0.0170229
814.853	0.0169728
814.932	0.0169229
815.010	0.0171519
815.088	0.0171440
815.166	0.0171827
815.244	0.0171640
815.322	0.0169395
815.400	0.0170619
815.478	0.0170406
815.557	0.0169102
815.635	0.0168013
815.713	0.0166400
815.791	0.0165632
815.869	0.0164674
815.947	0.0164018
816.025	0.0163525
816.103	0.0161454
816.182	0.0159667
816.260	0.0160944
816.338	0.0158926
816.416	0.0159835
816.494	0.0160561
816.572	0.0160635
816.650	0.0161924
816.728	0.0162681
816.807	0.0162946
816.885	0.0162489
816.963	0.0164733
817.041	0.0166112
817.119	0.0167034
817.197	0.0166351
817.275	0.0167051
817.353	0.0168758
817.432	0.0169640
817.510	0.0169473
817.588	0.0169377
817.666	0.0172127
817.744	0.0170797
817.822	0.0172234
817.900	0.0174010
817.978	0.0174461
818.057	0.0172839
818.135	0.0173245
818.213	0.0174858
818.291	0.0172600
818.369	0.0174349
818.447	0.0172005
818.525	0.0171597
818.603	0.0172446
818.682	0.0171387
818.760	0.0168867
818.838	0.0166091
818.916	0.0167280
818.994	0.0165099
819.072	0.0163699
819.150	0.0161269
819.228	0.0161415
819.307	0.0158707
819.385	0.0158282
819.463	0.0156337
819.541	0.0155826
819.619	0.0155682
819.697	0.0156331
819.775	0.0156139
819.853	0.0158575
819.932	0.0159177
820.010	0.0160214
820.088	0.0161202
820.166	0.0164066
820.244	0.0167632
820.322	0.0168768
820.400	0.0169267
820.478	0.0171321
820.557	0.0173995
820.635	0.0174200
820.713	0.0174810
820.791	0.0174345
820.869	0.0175082
820.947	0.0173357
821.025	0.0171851
821.103	0.0170259
821.182	0.0169393
821.260	0.0167867
821.338	0.0166282
821.416	0.0164342
821.494	0.0162708
821.572	0.0162833
821.650	0.0160151
821.728	0.0161282
821.807	0.0158896
821.885	0.0158643
821.963	0.0158621
822.041	0.0160073
822.119	0.0160640
822.197	0.0161236
822.275	0.0162703
822.353	0.0163241
822.432	0.0165228
822.510	0.0166109
822.588	0.0165948
822.666	0.0167731
822.744	0.0168808
822.822	0.0171103
822.900	0.0171362
822.978	0.0169323
823.057	0.0170628
823.135	0.0170154
823.213	0.0170628
823.291	0.0169790
823.369	0.0170886
823.447	0.0169849
823.525	0.0169841
823.603	0.0169379
823.682	0.0167860
823.760	0.0166090
823.838	0.0167166
823.916	0.0165686
823.994	0.0164471
824.072	0.0164427
824.150	0.0164111
824.228	0.0162917
824.307	0.0163343
824.385	0.0162636
824.463	0.0161858
824.541	0.0160931
824.619	0.0161146
824.697	0.0160854
824.775	0.0158393
824.853	0.0159039
824.932	0.0159167
825.010	0.0159704
825.088	0.0159743
825.166	0.0159852
825.244	0.0161716
825.322	0.0162295
825.400	0.0162147
825.478	0.0162590
825.557	0.0163194
825.635	0.0164782
825.713	0.0165376
825.791	0.0166495
825.869	0.0167726
825.947	0.0166514
826.025	0.0167602
826.103	0.0169467
826.182	0.0169299
826.260	0.0169282
826.338	0.0169659
826.416	0.0168820
826.494	0.0169348
826.572	0.0168774
826.650	0.0167967
826.728	0.0166817
826.807	0.0167200
826.885	0.0165784
826.963	0.0165634
827.041	0.0164539
827.119	0.0162881
827.197	0.0164313
827.275	0.0165014
827.353	0.0163586
827.432	0.0162636
827.510	0.0162502
827.588	0.0162849
827.666	0.0164107
827.744	0.0163482
827.822	0.0164968
827.900	0.0165307
827.978	0.0165208
828.057	0.0166148
828.135	0.0165359
828.213	0.0168118
828.291	0.0167372
828.369	0.0167455
828.447	0.0166767
828.525	0.0164954
828.603	0.0165118
828.682	0.0165430
828.760	0.0165864
828.838	0.0165946
828.916	0.0164861
828.994	0.0164934
829.072	0.0163657
829.150	0.0163368
829.228	0.0163437
829.307	0.0164788
829.385	0.0163104
829.463	0.0163898
829.541	0.0164336
829.619	0.0164823
829.697	0.0164647
829.775	0.0165580
829.853	0.0165503
829.932	0.0165011
830.010	0.0165301
830.088	0.0166476
830.166	0.0166709
830.244	0.0166129
830.322	0.0166032
830.400	0.0165264
830.478	0.0167309
830.557	0.0166031
830.635	0.0165496
830.713	0.0167125
830.791	0.0167322
830.869	0.0167781
830.947	0.0168077
831.025	0.0167153
831.103	0.0168459
831.182	0.0167930
831.260	0.0167281
831.338	0.0167645
831.416	0.0166266
831.494	0.0166999
831.572	0.0166425
831.650	0.0166348
831.728	0.0167452
831.807	0.0165063
831.885	0.0166405
831.963	0.0166400
832.041	0.0167211
832.119	0.0166682
832.197	0.0166874
832.275	0.0166850
832.353	0.0167171
832.432	0.0167612
832.510	0.0167883
832.588	0.0166183
832.666	0.0167379
832.744	0.0168069
832.822	0.0165468
832.900	0.0166951
832.978	0.0167685
833.057	0.0168542
833.135	0.0168235
833.213	0.0166900
833.291	0.0168087
833.369	0.0168661
833.447	0.0166302
833.525	0.0166414
833.603	0.0166078
833.682	0.0166972
833.760	0.0165810
833.838	0.0167055
833.916	0.0166140
833.994	0.0165446
834.072	0.0164894
834.150	0.0165096
834.228	0.0163969
834.307	0.0164454
834.385	0.0164607
834.463	0.0164236
834.541	0.0165369
834.619	0.0166007
834.697	0.0164760
834.775	0.0165243
834.853	0.0166525
834.932	0.0167149
835.010	0.0167214
835.088	0.0167252
835.166	0.0167424
835.244	0.0168740
835.322	0.0169347
835.400	0.0168429
835.478	0.0167829
835.557	0.0168893
835.635	0.0167740
835.713	0.0168185
835.791	0.0167863
835.869	0.0167142
835.947	0.0165887
836.025	0.0165785
836.103	0.0165078
836.182	0.0165425
836.260	0.0165682
836.338	0.0165095
836.416	0.0164784
836.494	0.0167084
836.572	0.0164681
836.650	0.0164726
836.728	0.0164348
836.807	0.0165300
836.885	0.0164552
836.963	0.0166525
837.041	0.0165316
837.119	0.0166125
837.197	0.0164564
837.275	0.0164565
837.353	0.0165962
837.432	0.0165479
837.510	0.0166812
837.588	0.0166915
837.666	0.0166101
837.744	0.0165691
837.822	0.0165945
837.900	0.0166848
837.978	0.0167987
838.057	0.0167366
838.135	0.0167507
838.213	0.0168251
838.291	0.0166750
838.369	0.0168009
838.447	0.0168682
838.525	0.0167092
838.603	0.0168056
838.682	0.0168597
838.760	0.0168361
838.838	0.0169323
838.916	0.0170836
838.994	0.0171268
839.072	0.0170022
839.150	0.0169955
839.228	0.0171492
839.307	0.0171083
839.385	0.0171819
839.463	0.0171387
839.541	0.0170538
839.619	0.0170017
839.697	0.0171290
839.775	0.0172399
839.853	0.0170094
839.932	0.0168726
840.010	0.0168469
840.088	0.0166943
840.166	0.0167265
840.244	0.0164504
840.322	0.0161205
840.400	0.0159592
840.478	0.0159982
840.557	0.0160651
840.635	0.0158297
840.713	0.0157347
840.791	0.0156466
840.869	0.0157414
840.947	0.0158060
841.025	0.0157285
841.103	0.0158836
841.182	0.0161762
841.260	0.0160543
841.338	0.0163060
841.416	0.0164793
841.494	0.0164779
841.572	0.0164415
841.650	0.0165773
841.728	0.0167000
841.807	0.0167260
841.885	0.0166614
841.963	0.0167844
842.041	0.0168652
842.119	0.0166244
842.197	0.0167105
842.275	0.0168295
842.353	0.0167355
842.432	0.0168144
842.510	0.0168368
842.588	0.0168047
842.666	0.0168282
842.744	0.0169785
842.822	0.0167368
842.900	0.0167889
842.978	0.0169945
843.057	0.0168855
843.135	0.0168889
843.213	0.0168573
843.291	0.0168880
843.369	0.0169104
843.447	0.0168639
843.525	0.0168216
843.603	0.0167812
843.682	0.0167847
843.760	0.0166989
843.838	0.0166926
843.916	0.0166236
843.994	0.0166137
844.072	0.0164931
844.150	0.0165442
844.228	0.0165826
844.307	0.0164783
844.385	0.0161524
844.463	0.0163292
844.541	0.0163358
844.619	0.0164358
844.697	0.0163076
844.775	0.0163937
844.853	0.0162425
844.932	0.0163876
845.010	0.0165066
845.088	0.0164671
845.166	0.0163251
845.244	0.0163907
845.322	0.0164463
845.400	0.0163498
845.478	0.0163408
845.557	0.0163509
845.635	0.0163830
845.713	0.0162740
845.791	0.0163600
845.869	0.0163429
845.947	0.0163107
846.025	0.0163607
846.103	0.0164241
846.182	0.0163823
846.260	0.0163308
846.338	0.0163330
846.416	0.0164531
846.494	0.0164840
846.572	0.0165247
846.650	0.0164507
846.728	0.0165052
846.807	0.0165870
846.885	0.0165881
846.963	0.0165779
847.041	0.0165601
847.119	0.0166265
847.197	0.0166221
847.275	0.0166306
847.353	0.0166661
847.432	0.0166850
847.510	0.0167431
847.588	0.0166719
847.666	0.0167113
847.744	0.0166530
847.822	0.0167853
847.900	0.0166754
847.978	0.0168043
848.057	0.0167555
848.135	0.0167123
848.213	0.0166943
848.291	0.0165998
848.369	0.0166137
848.447	0.0165166
848.525	0.0165994
848.603	0.0165193
848.682	0.0165212
848.760	0.0163754
848.838	0.0164940
848.916	0.0163774
848.994	0.0162254
849.072	0.0163044
849.150	0.0163191
849.228	0.0163561
849.307	0.0164512
849.385	0.0162547
849.463	0.0164266
849.541	0.0164517
849.619	0.0163821
849.697	0.0164252
849.775	0.0166353
849.853	0.0166996
849.932	0.0165634
850.010	0.0165542
850.088	0.0168335
850.166	0.0167967
850.244	0.0166667
850.322	0.0167291
850.400	0.0167568
850.478	0.0167860
850.557	0.0169032
850.635	0.0168066
850.713	0.0167002
850.791	0.0166351
850.869	0.0165087
850.947	0.0164814
851.025	0.0165389
851.103	0.0163694
851.182	0.0162178
851.260	0.0163161
851.338	0.0162547
851.416	0.0162614
851.494	0.0162228
851.572	0.0162704
851.650	0.0163974
851.728	0.0163367
851.807	0.0162264
851.885	0.0162963
851.963	0.0162897
852.041	0.0164026
852.119	0.0163379
852.197	0.0164441
852.275	0.0164140
852.353	0.0164526
852.432	0.0165082
852.510	0.0165291
852.588	0.0165549
852.666	0.0165198
852.744	0.0163364
852.822	0.0165456
852.900	0.0165855
852.978	0.0164993
853.057	0.0165074
853.135	0.0165579
853.213	0.0164925
853.291	0.0166047
853.369	0.0166573
853.447	0.0167382
853.525	0.0166422
853.603	0.0167417
853.682	0.0168228
853.760	0.0168228
853.838	0.0169842
853.916	0.0169340
853.994	0.0169933
854.072	0.0170861
854.150	0.0170471
854.228	0.0171049
854.307	0.0170418
854.385	0.0170923
854.463	0.0171272
854.541	0.0171033
854.619	0.0168653
854.697	0.0168170
854.775	0.0169266
854.853	0.0167937
854.932	0.0166494
855.010	0.0166298
855.088	0.0165944
855.166	0.0164574
855.244	0.0164699
855.322	0.0164493
855.400	0.0164117
855.478	0.0164356
855.557	0.0163732
855.635	0.0164586
855.713	0.0164118
855.791	0.0165073
855.869	0.0166381
855.947	0.0164951
856.025	0.0164821
856.103	0.0165387
856.182	0.0166821
856.260	0.0166012
856.338	0.0165785
856.416	0.0164754
856.494	0.0164514
856.572	0.0164394
856.650	0.0165553
856.728	0.0164650
856.807	0.0164513
856.885	0.0164260
856.963	0.0163518
857.041	0.0162971
857.119	0.0163324
857.197	0.0163049
857.275	0.0163359
857.353	0.0164128
857.432	0.0164722
857.510	0.0163235
857.588	0.0162643
857.666	0.0164501
857.744	0.0164468
857.822	0.0164129
857.900	0.0164578
857.978	0.0164469
858.057	0.0166545
858.135	0.0167179
858.213	0.0167884
858.291	0.0169090
858.369	0.0168259
858.447	0.0168211
858.525	0.0169846
858.603	0.0169698
858.682	0.0169717
858.760	0.0169107
858.838	0.0169604
858.916	0.0169740
858.994	0.0167921
859.072	0.0168514
859.150	0.0168269
859.228	0.0167249
859.307	0.0168609
859.385	0.0166724
859.463	0.0165219
859.541	0.0166861
859.619	0.0166145
859.697	0.0166598
859.775	0.0165940
859.853	0.0167088
859.932	0.0165646
860.010	0.0166392
860.088	0.0166888
860.166	0.0168041
860.244	0.0166982
860.322	0.0167870
860.400	0.0167744
860.478	0.0168538
860.557	0.0168253
860.635	0.0168597
860.713	0.0169789
860.791	0.0169246
860.869	0.0167111
860.947	0.0168786
861.025	0.0167986
861.103	0.0166508
861.182	0.0166235
861.260	0.0166920
861.338	0.0167033
861.416	0.0164930
861.494	0.0165426
861.572	0.0165945
861.650	0.0165418
861.728	0.0165202
861.807	0.0165799
861.885	0.0167100
861.963	0.0165532
862.041	0.0167627
862.119	0.0168213
862.197	0.0168051
862.275	0.0168720
862.353	0.0167970
862.432	0.0168801
862.510	0.0167088
862.588	0.0169527
862.666	0.0167406
862.744	0.0166431
862.822	0.0164667
862.900	0.0166236
862.978	0.0166216
863.057	0.0166282
863.135	0.0164066
863.213	0.0164661
863.291	0.0164830
863.369	0.0164503
863.447	0.0163002
863.525	0.0163541
863.603	0.0163094
863.682	0.0163158
863.760	0.0163461
863.838	0.0161753
863.916	0.0162186
863.994	0.0162214
864.072	0.0163571
864.150	0.0163566
864.228	0.0163965
864.307	0.0164524
864.385	0.0163963
864.463	0.0164327
864.541	0.0164749
864.619	0.0164026
864.697	0.0166530
864.775	0.0166177
864.853	0.0165485
864.932	0.0165906
865.010	0.0165994
865.088	0.0165260
865.166	0.0165479
865.244	0.0164725
865.322	0.0165585
865.400	0.0162573
865.478	0.0164656
865.557	0.0165106
865.635	0.0164542
865.713	0.0163970
865.791	0.0164469
865.869	0.0165485
865.947	0.0165094
866.025	0.0166466
866.103	0.0164397
866.182	0.0164025
866.260	0.0163794
866.338	0.0165604
866.416	0.0165266
866.494	0.0164861
866.572	0.0167281
866.650	0.0165240
866.728	0.0167373
866.807	0.0167786
866.885	0.0166659
866.963	0.0166344
867.041	0.0167983
867.119	0.0166833
867.197	0.0166049
867.275	0.0166030
867.353	0.0165953
867.432	0.0166280
867.510	0.0166129
867.588	0.0164490
867.666	0.0164538
867.744	0.0164257
867.822	0.0164061
867.900	0.0162862
867.978	0.0163127
868.057	0.0162563
868.135	0.0162103
868.213	0.0162893
868.291	0.0163419
868.369	0.0163051
868.447	0.0163112
868.525	0.0163431
868.603	0.0165099
868.682	0.0164039
868.760	0.0164594
868.838	0.0166513
868.916	0.0165096
868.994	0.0163732
869.072	0.0165855
869.150	0.0165820
869.228	0.0165251
869.307	0.0165390
869.385	0.0165157
869.463	0.0165972
869.541	0.0163626
869.619	0.0163548
869.697	0.0163643
869.775	0.0163902
869.853	0.0164735
869.932	0.0163821
870.010	0.0162959
870.088	0.0163676
870.166	0.0166409
870.244	0.0164653
870.322	0.0164230
870.400	0.0164767
870.478	0.0165154
870.557	0.0164377
870.635	0.0164413
870.713	0.0164903
870.791	0.0164516
870.869	0.0165710
870.947	0.0164452
871.025	0.0165359
871.103	0.0164440
871.182	0.0164124
871.260	0.0164808
871.338	0.0163802
871.416	0.0164063
871.494	0.0164026
871.572	0.0164355
871.650	0.0164799
871.728	0.0163220
871.807	0.0163844
871.885	0.0163948
871.963	0.0162764
872.041	0.0163416
872.119	0.0163425
872.197	0.0163709
872.275	0.0163033
872.353	0.0162406
872.432	0.0164553
872.510	0.0164532
872.588	0.0164780
872.666	0.0164914
872.744	0.0165269
872.822	0.0165783
872.900	0.0167031
872.978	0.0166358
873.057	0.0166010
873.135	0.0167273
873.213	0.0169902
873.291	0.0167472
873.369	0.0165795
873.447	0.0167289
873.525	0.0169520
873.603	0.0167390
873.682	0.0168408
873.760	0.0167104
873.838	0.0165757
873.916	0.0165906
873.994	0.0165611
874.072	0.0164796
874.150	0.0164555
874.228	0.0164857
874.307	0.0164296
874.385	0.0162496
874.463	0.0164063
874.541	0.0163103
874.619	0.0163068
874.697	0.0164350
874.775	0.0164085
874.853	0.0164507
874.932	0.0163818
875.010	0.0164506
875.088	0.0164142
875.166	0.0162969
875.244	0.0165150
875.322	0.0163409
875.400	0.0164846
875.478	0.0164824
875.557	0.0164297
875.635	0.0163905
875.713	0.0163069
875.791	0.0163589
875.869	0.0163905
875.947	0.0162809
876.025	0.0163490
876.103	0.0163086
876.182	0.0162685
876.260	0.0163186
876.338	0.0163477
876.416	0.0164472
876.494	0.0164783
876.572	0.0164577
876.650	0.0165003
876.728	0.0166112
876.807	0.0166156
876.885	0.0165118
876.963	0.0167866
877.041	0.0169423
877.119	0.0167583
877.197	0.0167686
877.275	0.0169978
877.353	0.0169735
877.432	0.0170087
877.510	0.0170113
877.588	0.0168821
877.666	0.0170187
877.744	0.0169890
877.822	0.0170341
877.900	0.0169839
877.978	0.0170036
878.057	0.0167303
878.135	0.0167879
878.213	0.0167469
878.291	0.0168304
878.369	0.0167358
878.447	0.0166383
878.525	0.0164998
878.603	0.0165566
878.682	0.0164902
878.760	0.0164069
878.838	0.0163247
878.916	0.0162629
878.994	0.0163499
879.072	0.0163299
879.150	0.0163675
879.228	0.0162098
879.307	0.0162788
879.385	0.0163651
879.463	0.0163406
879.541	0.0164073
879.619	0.0164369
879.697	0.0163931
879.775	0.0164573
879.853	0.0165362
879.932	0.0162632
880.010	0.0162893
880.088	0.0164931
880.166	0.0163720
880.244	0.0163352
880.322	0.0162776
880.400	0.0163042
880.478	0.0163392
880.557	0.0164379
880.635	0.0164147
880.713	0.0163187
880.791	0.0164981
880.869	0.0165501
880.947	0.0164843
881.025	0.0165944
881.103	0.0166315
881.182	0.0167152
881.260	0.0167358
881.338	0.0167389
881.416	0.0167490
881.494	0.0167998
881.572	0.0168125
881.650	0.0167712
881.728	0.0168108
881.807	0.0169267
881.885	0.0168111
881.963	0.0169460
882.041	0.0169563
882.119	0.0168873
882.197	0.0169341
882.275	0.0168335
882.353	0.0168236
882.432	0.0168080
882.510	0.0165544
882.588	0.0166863
882.666	0.0166449
882.744	0.0165076
882.822	0.0164923
882.900	0.0166116
882.978	0.0165266
883.057	0.0165489
883.135	0.0165147
883.213	0.0165108
883.291	0.0164972
883.369	0.0165182
883.447	0.0165086
883.525	0.0165520
883.603	0.0165932
883.682	0.0164725
883.760	0.0164883
883.838	0.0165488
883.916	0.0165578
883.994	0.0164969
884.072	0.0166119
884.150	0.0166212
884.228	0.0165838
884.307	0.0164405
884.385	0.0165733
884.463	0.0164848
884.541	0.0166316
884.619	0.0165689
884.697	0.0166443
884.775	0.0165640
884.853	0.0165271
884.932	0.0165578
885.010	0.0166125
885.088	0.0164772
885.166	0.0163757
885.244	0.0165486
885.322	0.0165377
885.400	0.0166482
885.478	0.0166898
885.557	0.0167142
885.635	0.0167596
885.713	0.0167673
885.791	0.0165754
885.869	0.0167995
885.947	0.0168116
886.025	0.0168603
886.103	0.0168270
886.182	0.0168631
886.260	0.0168880
886.338	0.0167212
886.416	0.0169357
886.494	0.0168877
886.572	0.0167876
886.650	0.0167064
886.728	0.0167038
886.807	0.0166952
886.885	0.0166088
886.963	0.0164954
887.041	0.0166366
887.119	0.0165437
887.197	0.0164155
887.275	0.0166016
887.353	0.0166225
887.432	0.0163346
887.510	0.0163847
887.588	0.0164630
887.666	0.0165324
887.744	0.0165351
887.822	0.0165157
887.900	0.0165727
887.978	0.0166273
888.057	0.0165984
888.135	0.0167641
888.213	0.0166990
888.291	0.0165749
888.369	0.0165288
888.447	0.0167500
888.525	0.0166145
888.603	0.0166402
888.682	0.0166760
888.760	0.0165540
888.838	0.0166277
888.916	0.0165129
888.994	0.0165474
889.072	0.0167186
889.150	0.0166467
889.228	0.0165600
889.307	0.0166200
889.385	0.0166223
889.463	0.0165780
889.541	0.0167440
889.619	0.0166762
889.697	0.0167612
889.775	0.0168225
889.853	0.0167321
889.932	0.0167519
890.010	0.0165894
890.088	0.0166543
890.166	0.0167948
890.244	0.0165944
890.322	0.0167107
890.400	0.0167318
890.478	0.0166629
890.557	0.0166918
890.635	0.0165631
890.713	0.0165255
890.791	0.0166962
890.869	0.0165652
890.947	0.0164927
891.025	0.0164820
891.103	0.0164926
891.182	0.0164127
891.260	0.0165552
891.338	0.0164938
891.416	0.0164895
891.494	0.0164848
891.572	0.0164045
891.650	0.0164423
891.728	0.0164989
891.807	0.0164391
891.885	0.0165094
891.963	0.0164716
892.041	0.0164781
892.119	0.0167501
892.197	0.0166457
892.275	0.0166110
892.353	0.0166513
892.432	0.0165098
892.510	0.0166229
892.588	0.0168114
892.666	0.0165932
892.744	0.0165498
892.822	0.0165459
892.900	0.0164639
892.978	0.0166146
893.057	0.0165881
893.135	0.0166170
893.213	0.0164003
893.291	0.0164811
893.369	0.0165903
893.447	0.0165800
893.525	0.0166115
893.603	0.0166183
893.682	0.0166809
893.760	0.0165792
893.838	0.0166315
893.916	0.0165046
893.994	0.0167678
894.072	0.0166654
894.150	0.0166376
894.228	0.0166027
894.307	0.0166050
894.385	0.0165441
894.463	0.0167391
894.541	0.0166737
894.619	0.0164840
894.697	0.0166081
894.775	0.0165770
894.853	0.0166991
894.932	0.0165398
895.010	0.0165281
895.088	0.0165110
895.166	0.0166089
895.244	0.0165639
895.322	0.0164586
895.400	0.0165604
895.478	0.0165327
895.557	0.0166514
895.635	0.0165082
895.713	0.0165692
895.791	0.0166283
895.869	0.0165864
895.947	0.0166145
896.025	0.0166575
896.103	0.0167044
896.182	0.0167755
896.260	0.0166903
896.338	0.0167945
896.416	0.0167783
896.494	0.0165688
896.572	0.0166258
896.650	0.0167358
896.728	0.0166875
896.807	0.0166228
896.885	0.0166237
896.963	0.0166034
897.041	0.0165590
897.119	0.0164159
897.197	0.0165154
897.275	0.0165051
897.353	0.0165611
897.432	0.0165389
897.510	0.0164302
897.588	0.0164690
897.666	0.0163779
897.744	0.0164456
897.822	0.0164110
897.900	0.0163855
897.978	0.0164088
898.057	0.0164117
898.135	0.0164005
898.213	0.0163041
898.291	0.0164658
898.369	0.0163566
898.447	0.0165168
898.525	0.0165443
898.603	0.0162613
898.682	0.0163489
898.760	0.0164214
898.838	0.0164028
898.916	0.0163287
898.994	0.0163779
899.072	0.0162042
899.150	0.0161948
899.228	0.0162286
899.307	0.0163282
899.385	0.0163848
899.463	0.0162571
899.541	0.0162183
899.619	0.0162389
899.697	0.0163391
899.775	0.0164694
899.853	0.0163746
899.932	0.0163698
900.010	0.0165338
900.088	0.0165770
900.166	0.0163983
900.244	0.0165877
900.322	0.0167610
900.400	0.0165216
900.478	0.0166854
900.557	0.0166805
900.635	0.0168057
900.713	0.0168922
900.791	0.0168752
900.869	0.0166633
900.947	0.0167207
901.025	0.0167142
901.103	0.0168597
901.182	0.0166488
901.260	0.0168078
901.338	0.0169041
901.416	0.0167091
901.494	0.0167989
901.572	0.0167612
901.650	0.0167115
901.728	0.0166698
901.807	0.0166473
901.885	0.0165618
901.963	0.0167336
902.041	0.0165428
902.119	0.0164992
902.197	0.0166327
902.275	0.0167547
902.353	0.0164564
902.432	0.0164620
902.510	0.0165215
902.588	0.0165655
902.666	0.0164410
902.744	0.0164310
902.822	0.0167084
902.900	0.0166207
902.978	0.0164557
903.057	0.0163853
903.135	0.0165155
903.213	0.0165819
903.291	0.0164948
903.369	0.0164791
903.447	0.0164961
903.525	0.0165512
903.603	0.0165089
903.682	0.0165704
903.760	0.0164180
903.838	0.0163444
903.916	0.0163413
903.994	0.0164168
904.072	0.0164301
904.150	0.0163563
904.228	0.0163383
904.307	0.0163571
904.385	0.0163415
904.463	0.0162555
904.541	0.0162882
904.619	0.0163479
904.697	0.0162576
904.775	0.0164294
904.853	0.0163321
904.932	0.0163545
905.010	0.0164183
905.088	0.0163960
905.166	0.0164208
905.244	0.0163496
905.322	0.0163890
905.400	0.0165288
905.478	0.0164201
905.557	0.0165054
905.635	0.0165395
905.713	0.0165079
905.791	0.0165118
905.869	0.0165150
905.947	0.0166735
906.025	0.0164858
906.103	0.0166250
906.182	0.0163939
906.260	0.0165585
906.338	0.0167831
906.416	0.0166559
906.494	0.0165639
906.572	0.0167000
906.650	0.0166673
906.728	0.0167926
906.807	0.0166779
906.885	0.0166438
906.963	0.0167406
907.041	0.0167457
907.119	0.0166725
907.197	0.0168248
907.275	0.0168035
907.353	0.0168673
907.432	0.0167231
907.510	0.0167347
907.588	0.0167651
907.666	0.0167847
907.744	0.0166628
907.822	0.0167694
907.900	0.0166790
907.978	0.0167320
908.057	0.0167352
908.135	0.0166589
908.213	0.0167239
908.291	0.0168243
908.369	0.0167567
908.447	0.0167768
908.525	0.0168487
908.603	0.0168531
908.682	0.0167329
908.760	0.0166735
908.838	0.0168415
908.916	0.0168015
908.994	0.0167831
909.072	0.0167995
909.150	0.0166126
909.228	0.0166974
909.307	0.0167434
909.385	0.0166293
909.463	0.0167467
909.541	0.0166268
909.619	0.0165693
909.697	0.0164218
909.775	0.0165216
909.853	0.0164239
909.932	0.0163651
910.010	0.0164001
910.088	0.0163550
910.166	0.0164026
910.244	0.0164200
910.322	0.0164461
910.400	0.0162899
910.478	0.0163969
910.557	0.0164587
910.635	0.0163689
910.713	0.0165268
910.791	0.0167192
910.869	0.0165118
910.947	0.0165138
911.025	0.0165220
911.103	0.0165688
911.182	0.0166061
911.260	0.0166023
911.338	0.0167841
911.416	0.0167619
911.494	0.0166714
911.572	0.0168037
911.650	0.0168293
911.728	0.0168034
911.807	0.0166277
911.885	0.0167222
911.963	0.0168867
912.041	0.0168521
912.119	0.0168228
912.197	0.0167871
912.275	0.0168504
912.353	0.0166913
912.432	0.0166033
912.510	0.0166660
912.588	0.0167083
912.666	0.0166232
912.744	0.0166325
912.822	0.0167157
912.900	0.0167220
912.978	0.0165837
913.057	0.0166947
913.135	0.0167359
913.213	0.0168004
913.291	0.0167951
913.369	0.0167471
913.447	0.0167995
913.525	0.0170467
913.603	0.0169250
913.682	0.0166869
913.760	0.0168336
913.838	0.0167603
913.916	0.0168140
913.994	0.0167294
914.072	0.0168830
914.150	0.0168836
914.228	0.0166707
914.307	0.0168783
914.385	0.0166943
914.463	0.0167239
914.541	0.0167374
914.619	0.0167052
914.697	0.0166512
914.775	0.0168407
914.853	0.0167595
914.932	0.0166077
915.010	0.0166292
915.088	0.0165745
915.166	0.0166311
915.244	0.0165701
915.322	0.0164219
915.400	0.0164812
915.478	0.0166324
915.557	0.0163563
915.635	0.0165305
915.713	0.0163809
915.791	0.0163904
915.869	0.0165034
915.947	0.0164941
916.025	0.0164739
916.103	0.0164610
916.182	0.0164984
916.260	0.0163161
916.338	0.0164567
916.416	0.0164616
916.494	0.0164507
916.572	0.0164986
916.650	0.0164716
916.728	0.0164976
916.807	0.0163526
916.885	0.0164101
916.963	0.0164608
917.041	0.0163885
917.119	0.0164697
917.197	0.0166614
917.275	0.0164828
917.353	0.0166119
917.432	0.0165691
917.510	0.0166518
917.588	0.0167751
917.666	0.0167426
917.744	0.0167539
917.822	0.0168051
917.900	0.0167804
917.978	0.0167666
918.057	0.0166901
918.135	0.0166700
918.213	0.0167153
918.291	0.0167645
918.369	0.0167077
918.447	0.0167413
918.525	0.0167400
918.603	0.0167048
918.682	0.0167097
918.760	0.0167315
918.838	0.0168568
918.916	0.0167084
918.994	0.0167494
919.072	0.0168292
919.150	0.0165779
919.228	0.0167270
919.307	0.0168936
919.385	0.0167016
919.463	0.0167126
919.541	0.0166491
919.619	0.0168437
919.697	0.0167334
919.775	0.0167212
919.853	0.0168171
919.932	0.0168633
920.010	0.0167478
920.088	0.0166736
920.166	0.0167879
920.244	0.0168574
920.322	0.0166163
920.400	0.0165434
920.478	0.0166393
920.557	0.0165158
920.635	0.0164601
920.713	0.0164726
920.791	0.0165220
920.869	0.0165221
920.947	0.0165444
921.025	0.0163805
921.103	0.0164484
921.182	0.0163979
921.260	0.0164910
921.338	0.0164545
921.416	0.0164725
921.494	0.0163158
921.572	0.0163162
921.650	0.0164972
921.728	0.0164033
921.807	0.0165411
921.885	0.0164876
921.963	0.0165618
922.041	0.0165234
922.119	0.0162904
922.197	0.0165481
922.275	0.0164871
922.353	0.0164320
922.432	0.0164564
922.510	0.0165108
922.588	0.0163642
922.666	0.0163253
922.744	0.0163054
922.822	0.0164363
922.900	0.0165552
922.978	0.0163749
923.057	0.0163960
923.135	0.0164384
923.213	0.0164116
923.291	0.0163081
923.369	0.0165268
923.447	0.0166674
923.525	0.0166604
923.603	0.0165153
923.682	0.0165590
923.760	0.0166299
923.838	0.0168201
923.916	0.0166778
923.994	0.0167745
924.072	0.0166838
924.150	0.0167216
924.228	0.0167510
924.307	0.0166940
924.385	0.0166289
924.463	0.0165958
924.541	0.0164655
924.619	0.0164362
924.697	0.0164279
924.775	0.0165144
924.853	0.0165363
924.932	0.0165547
925.010	0.0164520
925.088	0.0163572
925.166	0.0164334
925.244	0.0164751
925.322	0.0165773
925.400	0.0166997
925.478	0.0165858
925.557	0.0165839
925.635	0.0166621
925.713	0.0166312
925.791	0.0164684
925.869	0.0164960
925.947	0.0166308
926.025	0.0164367
926.103	0.0165621
926.182	0.0164249
926.260	0.0164906
926.338	0.0164977
926.416	0.0166092
926.494	0.0164606
926.572	0.0164725
926.650	0.0164431
926.728	0.0164760
926.807	0.0165832
926.885	0.0165200
926.963	0.0164867
927.041	0.0164629
927.119	0.0165825
927.197	0.0164347
927.275	0.0163877
927.353	0.0164668
927.432	0.0162663
927.510	0.0162995
927.588	0.0161998
927.666	0.0164288
927.744	0.0162542
927.822	0.0162612
927.900	0.0164008
927.978	0.0163752
928.057	0.0162762
928.135	0.0164324
928.213	0.0163541
928.291	0.0164107
928.369	0.0165539
928.447	0.0166698
928.525	0.0164709
928.603	0.0165607
928.682	0.0164859
928.760	0.0164141
928.838	0.0165172
928.916	0.0165280
928.994	0.0164693
929.072	0.0165154
929.150	0.0164167
929.228	0.0164204
929.307	0.0163507
929.385	0.0164180
929.463	0.0163626
929.541	0.0162656
929.619	0.0164221
929.697	0.0164642
929.775	0.0163584
929.853	0.0164931
929.932	0.0164712
930.010	0.0163927
930.088	0.0165980
930.166	0.0164888
930.244	0.0164578
930.322	0.0165326
930.400	0.0165152
930.478	0.0164256
930.557	0.0166148
930.635	0.0166019
930.713	0.0164819
930.791	0.0164005
930.869	0.0166181
930.947	0.0166916
931.025	0.0166571
931.103	0.0166200
931.182	0.0165429
931.260	0.0165369
931.338	0.0165067
931.416	0.0165855
931.494	0.0165258
931.572	0.0165751
931.650	0.0167332
931.728	0.0166884
931.807	0.0165662
931.885	0.0166760
931.963	0.0165704
932.041	0.0165733
932.119	0.0165481
932.197	0.0166132
932.275	0.0165990
932.353	0.0165395
932.432	0.0165573
932.510	0.0167330
932.588	0.0165491
932.666	0.0165899
932.744	0.0166066
932.822	0.0166000
932.900	0.0166039
932.978	0.0165596
933.057	0.0166077
933.135	0.0165906
933.213	0.0164677
933.291	0.0165018
933.369	0.0165730
933.447	0.0163783
933.525	0.0165133
933.603	0.0164912
933.682	0.0163914
933.760	0.0164928
933.838	0.0164467
933.916	0.0165189
933.994	0.0164528
934.072	0.0164266
934.150	0.0165277
934.228	0.0164723
934.307	0.0164411
934.385	0.0164373
934.463	0.0164851
934.541	0.0166092
934.619	0.0166670
934.697	0.0166204
934.775	0.0165569
934.853	0.0164749
934.932	0.0166409
935.010	0.0167693
935.088	0.0168235
935.166	0.0166594
935.244	0.0166468
935.322	0.0167486
935.400	0.0166576
935.478	0.0166088
935.557	0.0168797
935.635	0.0166611
935.713	0.0165679
935.791	0.0167102
935.869	0.0166624
935.947	0.0166560
936.025	0.0166296
936.103	0.0165620
936.182	0.0165520
936.260	0.0165772
936.338	0.0166957
936.416	0.0165871
936.494	0.0167377
936.572	0.0166180
936.650	0.0166366
936.728	0.0166740
936.807	0.0166051
936.885	0.0167510
936.963	0.0167486
937.041	0.0166541
937.119	0.0166470
937.197	0.0166344
937.275	0.0167349
937.353	0.0166451
937.432	0.0165664
937.510	0.0166158
937.588	0.0167052
937.666	0.0167666
937.744	0.0167213
937.822	0.0166052
937.900	0.0167078
937.978	0.0166047
938.057	0.0167096
938.135	0.0167433
938.213	0.0167499
938.291	0.0167371
938.369	0.0167509
938.447	0.0166642
938.525	0.0167628
938.603	0.0166163
938.682	0.0168093
938.760	0.0166251
938.838	0.0165565
938.916	0.0167087
938.994	0.0167931
939.072	0.0166671
939.150	0.0166713
939.228	0.0167022
939.307	0.0168106
939.385	0.0167904
939.463	0.0168250
939.541	0.0166663
939.619	0.0169027
939.697	0.0168502
939.775	0.0167846
939.853	0.0167181
939.932	0.0166851
940.010	0.0167097
940.088	0.0166542
940.166	0.0167520
940.244	0.0166129
940.322	0.0166929
940.400	0.0166367
940.478	0.0165707
940.557	0.0165289
940.635	0.0164208
940.713	0.0164088
940.791	0.0164175
940.869	0.0163997
940.947	0.0163458
941.025	0.0164211
941.103	0.0164443
941.182	0.0163047
941.260	0.0163683
941.338	0.0162688
941.416	0.0162513
941.494	0.0162839
941.572	0.0162547
941.650	0.0163628
941.728	0.0163023
941.807	0.0164658
941.885	0.0165076
941.963	0.0164838
942.041	0.0165653
942.119	0.0164728
942.197	0.0165028
942.275	0.0165287
942.353	0.0166125
942.432	0.0165837
942.510	0.0166742
942.588	0.0165085
942.666	0.0165266
942.744	0.0166275
942.822	0.0165237
942.900	0.0166105
942.978	0.0166176
943.057	0.0165938
943.135	0.0166103
943.213	0.0166772
943.291	0.0167012
943.369	0.0165718
943.447	0.0167117
943.525	0.0165678
943.603	0.0165955
943.682	0.0165731
943.760	0.0165784
943.838	0.0167554
943.916	0.0165750
943.994	0.0166610
944.072	0.0167407
944.150	0.0164125
944.228	0.0165416
944.307	0.0166354
944.385	0.0165131
944.463	0.0164627
944.541	0.0165946
944.619	0.0165645
944.697	0.0165950
944.775	0.0165543
944.853	0.0166221
944.932	0.0164330
945.010	0.0163811
945.088	0.0165988
945.166	0.0166280
945.244	0.0164127
945.322	0.0167141
945.400	0.0165548
945.478	0.0165164
945.557	0.0165462
945.635	0.0164481
945.713	0.0164698
945.791	0.0164395
945.869	0.0165630
945.947	0.0165778
946.025	0.0165019
946.103	0.0164478
946.182	0.0165242
946.260	0.0163679
946.338	0.0164677
946.416	0.0165051
946.494	0.0163405
946.572	0.0164107
946.650	0.0164928
946.728	0.0163489
946.807	0.0164192
946.885	0.0164506
946.963	0.0164120
947.041	0.0165269
947.119	0.0164695
947.197	0.0163943
947.275	0.0164310
947.353	0.0165150
947.432	0.0165896
947.510	0.0164699
947.588	0.0166813
947.666	0.0166003
947.744	0.0164247
947.822	0.0166523
947.900	0.0167075
947.978	0.0166953
948.057	0.0164095
948.135	0.0165049
948.213	0.0166193
948.291	0.0165375
948.369	0.0165371
948.447	0.0165520
948.525	0.0166574
948.603	0.0164957
948.682	0.0165235
948.760	0.0164484
948.838	0.0163635
948.916	0.0164428
948.994	0.0165730
949.072	0.0165874
949.150	0.0164529
949.228	0.0164583
949.307	0.0165469
949.385	0.0165434
949.463	0.0162834
949.541	0.0165124
949.619	0.0165524
949.697	0.0164936
949.775	0.0164024
949.853	0.0165616
949.932	0.0164917
950.010	0.0164605
950.088	0.0164723
950.166	0.0165215
950.244	0.0165566
950.322	0.0165343
950.400	0.0165752
950.478	0.0164984
950.557	0.0166135
950.635	0.0164252
950.713	0.0164784
950.791	0.0163884
950.869	0.0164027
950.947	0.0165623
951.025	0.0166851
951.103	0.0164877
951.182	0.0166088
951.260	0.0164620
951.338	0.0165786
951.416	0.0165147
951.494	0.0165591
951.572	0.0164420
951.650	0.0166483
951.728	0.0163560
951.807	0.0164098
951.885	0.0163825
951.963	0.0164289
952.041	0.0165469
952.119	0.0164098
952.197	0.0164532
952.275	0.0163606
952.353	0.0164404
952.432	0.0164047
952.510	0.0164003
952.588	0.0164239
952.666	0.0165220
952.744	0.0164362
952.822	0.0163778
952.900	0.0165142
952.978	0.0165441
953.057	0.0163980
953.135	0.0164108
953.213	0.0163758
953.291	0.0164132
953.369	0.0164602
953.447	0.0164243
953.525	0.0164082
953.603	0.0165865
953.682	0.0165994
953.760	0.0166438
953.838	0.0164860
953.916	0.0164751
953.994	0.0166322
954.072	0.0165414
954.150	0.0165325
954.228	0.0165319
954.307	0.0167086
954.385	0.0165506
954.463	0.0165453
954.541	0.0165468
954.619	0.0165814
954.697	0.0164631
954.775	0.0164952
954.853	0.0164921
954.932	0.0166692
955.010	0.0167932
955.088	0.0165872
955.166	0.0165750
955.244	0.0166342
955.322	0.0167513
955.400	0.0169389
955.478	0.0166904
955.557	0.0165598
955.635	0.0166946
955.713	0.0165179
955.791	0.0166013
955.869	0.0166891
955.947	0.0165964
956.025	0.0165655
956.103	0.0164209
956.182	0.0165109
956.260	0.0165734
956.338	0.0164128
956.416	0.0164816
956.494	0.0164770
956.572	0.0165242
956.650	0.0165395
956.728	0.0164391
956.807	0.0165463
956.885	0.0164275
956.963	0.0164155
957.041	0.0166082
957.119	0.0164927
957.197	0.0165566
957.275	0.0164864
957.353	0.0165244
957.432	0.0163219
957.510	0.0165205
957.588	0.0164748
957.666	0.0166436
957.744	0.0164912
957.822	0.0165472
957.900	0.0165582
957.978	0.0164820
958.057	0.0166591
958.135	0.0165507
958.213	0.0165780
958.291	0.0165916
958.369	0.0166100
958.447	0.0166356
958.525	0.0163549
958.603	0.0165558
958.682	0.0165780
958.760	0.0164887
958.838	0.0163383
958.916	0.0164492
958.994	0.0164626
959.072	0.0165218
959.150	0.0163479
959.228	0.0163947
959.307	0.0164610
959.385	0.0166013
959.463	0.0162792
959.541	0.0165371
959.619	0.0165768
959.697	0.0166232
959.775	0.0165258
959.853	0.0167139
959.932	0.0167216
960.010	0.0166171
960.088	0.0166888
960.166	0.0167628
960.244	0.0167062
960.322	0.0167616
960.400	0.0167068
960.478	0.0165646
960.557	0.0166702
960.635	0.0167351
960.713	0.0165414
960.791	0.0166844
960.869	0.0166052
960.947	0.0166248
961.025	0.0165769
961.103	0.0166018
961.182	0.0165179
961.260	0.0164973
961.338	0.0167461
961.416	0.0165264
961.494	0.0165968
961.572	0.0165665
961.650	0.0165014
961.728	0.0165335
961.807	0.0166535
961.885	0.0166904
961.963	0.0166074
962.041	0.0166245
962.119	0.0166489
962.197	0.0166586
962.275	0.0165826
962.353	0.0165574
962.432	0.0165747
962.510	0.0164927
962.588	0.0165521
962.666	0.0166298
962.744	0.0164358
962.822	0.0162905
962.900	0.0164840
962.978	0.0164758
963.057	0.0163908
963.135	0.0163837
963.213	0.0163731
963.291	0.0165007
963.369	0.0164847
963.447	0.0164732
963.525	0.0165904
963.603	0.0165327
963.682	0.0165774
963.760	0.0166238
963.838	0.0166086
963.916	0.0164880
963.994	0.0165945
964.072	0.0166522
964.150	0.0164609
964.228	0.0165501
964.307	0.0165501
964.385	0.0166781
964.463	0.0164541
964.541	0.0164938
964.619	0.0166070
964.697	0.0166975
964.775	0.0166006
964.853	0.0165316
964.932	0.0164796
965.010	0.0165507
965.088	0.0165250
965.166	0.0165497
965.244	0.0164577
965.322	0.0165652
965.400	0.0164670
965.478	0.0164856
965.557	0.0164581
965.635	0.0164577
965.713	0.0164925
965.791	0.0165939
965.869	0.0166188
965.947	0.0165461
966.025	0.0166365
966.103	0.0166132
966.182	0.0166618
966.260	0.0167249
966.338	0.0166599
966.416	0.0166705
966.494	0.0166194
966.572	0.0165155
966.650	0.0167732
966.728	0.0166869
966.807	0.0166636
966.885	0.0166536
966.963	0.0166336
967.041	0.0165547
967.119	0.0166449
967.197	0.0164503
967.275	0.0163955
967.353	0.0165739
967.432	0.0165198
967.510	0.0165524
967.588	0.0164093
967.666	0.0164525
967.744	0.0166714
967.822	0.0165517
967.900	0.0165949
967.978	0.0166022
968.057	0.0165467
968.135	0.0164931
968.213	0.0165896
968.291	0.0166269
968.369	0.0165250
968.447	0.0165075
968.525	0.0166284
968.603	0.0164916
968.682	0.0164292
968.760	0.0164075
968.838	0.0164092
968.916	0.0165764
968.994	0.0164635
969.072	0.0164552
969.150	0.0164565
969.228	0.0165224
969.307	0.0165559
969.385	0.0165237
969.463	0.0164282
969.541	0.0163857
969.619	0.0163940
969.697	0.0165863
969.775	0.0165707
969.853	0.0164752
969.932	0.0165549
