06/10/2022	16:32:53	Ver.	4.1	UNKNOWN
Optical Delay	650.009681	Delta X		0.078125	Sweeps	1	Scan Rate	0/0
Coordinates	Axis 1	NaN	Axis 2	NaN	Axis 3	NaN	Axis 4	NaN	Axis 5	NaN	Axis 6	0.000000
TX Power	0.000000	RX Power	0.000000

650.010	0.0166079
650.088	0.0167938
650.166	0.0165598
650.244	0.0165247
650.322	0.0166169
650.400	0.0165913
650.478	0.0166771
650.557	0.0165781
650.635	0.0167835
650.713	0.0166875
650.791	0.0166656
650.869	0.0167577
650.947	0.0165186
651.025	0.0166413
651.103	0.0167102
651.182	0.0165679
651.260	0.0166404
651.338	0.0166454
651.416	0.0166324
651.494	0.0167004
651.572	0.0165213
651.650	0.0166775
651.728	0.0166895
651.807	0.0166932
651.885	0.0167126
651.963	0.0167426
652.041	0.0166401
652.119	0.0166894
652.197	0.0167014
652.275	0.0166431
652.353	0.0166560
652.432	0.0166077
652.510	0.0166261
652.588	0.0167506
652.666	0.0167242
652.744	0.0167970
652.822	0.0166621
652.900	0.0165935
652.978	0.0166288
653.057	0.0166176
653.135	0.0166512
653.213	0.0167292
653.291	0.0166123
653.369	0.0165868
653.447	0.0166759
653.525	0.0167748
653.603	0.0166084
653.682	0.0164529
653.760	0.0166096
653.838	0.0166211
653.916	0.0164869
653.994	0.0165572
654.072	0.0165090
654.150	0.0166410
654.228	0.0166377
654.307	0.0166547
654.385	0.0167053
654.463	0.0165067
654.541	0.0165549
654.619	0.0166019
654.697	0.0167340
654.775	0.0166471
654.853	0.0166769
654.932	0.0165842
655.010	0.0165961
655.088	0.0165598
655.166	0.0166603
655.244	0.0166515
655.322	0.0165931
655.400	0.0167069
655.478	0.0167271
655.557	0.0166607
655.635	0.0166218
655.713	0.0165057
655.791	0.0166266
655.869	0.0168425
655.947	0.0166195
656.025	0.0166525
656.103	0.0166521
656.182	0.0166563
656.260	0.0166204
656.338	0.0167276
656.416	0.0165813
656.494	0.0167296
656.572	0.0166482
656.650	0.0166603
656.728	0.0165857
656.807	0.0166446
656.885	0.0166644
656.963	0.0166090
657.041	0.0165298
657.119	0.0165782
657.197	0.0165323
657.275	0.0166192
657.353	0.0166056
657.432	0.0166094
657.510	0.0165795
657.588	0.0165785
657.666	0.0164682
657.744	0.0166885
657.822	0.0165944
657.900	0.0166320
657.978	0.0164304
658.057	0.0166325
658.135	0.0167121
658.213	0.0166707
658.291	0.0164805
658.369	0.0166478
658.447	0.0166798
658.525	0.0167191
658.603	0.0165937
658.682	0.0165673
658.760	0.0167982
658.838	0.0166264
658.916	0.0167046
658.994	0.0166064
659.072	0.0166474
659.150	0.0166004
659.228	0.0164452
659.307	0.0166142
659.385	0.0166370
659.463	0.0164822
659.541	0.0164214
659.619	0.0165520
659.697	0.0166174
659.775	0.0165500
659.853	0.0167049
659.932	0.0165856
660.010	0.0166319
660.088	0.0166765
660.166	0.0166933
660.244	0.0165421
660.322	0.0165231
660.400	0.0166111
660.478	0.0167160
660.557	0.0165904
660.635	0.0166795
660.713	0.0165377
660.791	0.0166387
660.869	0.0165044
660.947	0.0164973
661.025	0.0165461
661.103	0.0165894
661.182	0.0165090
661.260	0.0165005
661.338	0.0166067
661.416	0.0165782
661.494	0.0167295
661.572	0.0165350
661.650	0.0164095
661.728	0.0165173
661.807	0.0164502
661.885	0.0166151
661.963	0.0164948
662.041	0.0163795
662.119	0.0165250
662.197	0.0165621
662.275	0.0165972
662.353	0.0166645
662.432	0.0165504
662.510	0.0166830
662.588	0.0165922
662.666	0.0165250
662.744	0.0165797
662.822	0.0164778
662.900	0.0164984
662.978	0.0165820
663.057	0.0165134
663.135	0.0166550
663.213	0.0165672
663.291	0.0165181
663.369	0.0164417
663.447	0.0166148
663.525	0.0164888
663.603	0.0164677
663.682	0.0165882
663.760	0.0165691
663.838	0.0167050
663.916	0.0164491
663.994	0.0166009
664.072	0.0165389
664.150	0.0164260
664.228	0.0165428
664.307	0.0165126
664.385	0.0165849
664.463	0.0165237
664.541	0.0165759
664.619	0.0165551
664.697	0.0166299
664.775	0.0166033
664.853	0.0165197
664.932	0.0164807
665.010	0.0166286
665.088	0.0165294
665.166	0.0164790
665.244	0.0165637
665.322	0.0165856
665.400	0.0167036
665.478	0.0166032
665.557	0.0165398
665.635	0.0166609
665.713	0.0165952
665.791	0.0165303
665.869	0.0164701
665.947	0.0167197
666.025	0.0166208
666.103	0.0166645
666.182	0.0165890
666.260	0.0163766
666.338	0.0163935
666.416	0.0165320
666.494	0.0166849
666.572	0.0165292
666.650	0.0166278
666.728	0.0165633
666.807	0.0166341
666.885	0.0166190
666.963	0.0166517
667.041	0.0166063
667.119	0.0166062
667.197	0.0166107
667.275	0.0164711
667.353	0.0167277
667.432	0.0166490
667.510	0.0166373
667.588	0.0165521
667.666	0.0166301
667.744	0.0167295
667.822	0.0165715
667.900	0.0165661
667.978	0.0165555
668.057	0.0166503
668.135	0.0165320
668.213	0.0164214
668.291	0.0165631
668.369	0.0165484
668.447	0.0166079
668.525	0.0165067
668.603	0.0166734
668.682	0.0166357
668.760	0.0164986
668.838	0.0165668
668.916	0.0165897
668.994	0.0166335
669.072	0.0165063
669.150	0.0164753
669.228	0.0164982
669.307	0.0165298
669.385	0.0165082
669.463	0.0165714
669.541	0.0164588
669.619	0.0165498
669.697	0.0165421
669.775	0.0166045
669.853	0.0165826
669.932	0.0166086
670.010	0.0166743
670.088	0.0165371
670.166	0.0165909
670.244	0.0167162
670.322	0.0165859
670.400	0.0165137
670.478	0.0166283
670.557	0.0165508
670.635	0.0166011
670.713	0.0165572
670.791	0.0165798
670.869	0.0165254
670.947	0.0167215
671.025	0.0165833
671.103	0.0165467
671.182	0.0165195
671.260	0.0167118
671.338	0.0164839
671.416	0.0164996
671.494	0.0165456
671.572	0.0165067
671.650	0.0166162
671.728	0.0164836
671.807	0.0166138
671.885	0.0166811
671.963	0.0167226
672.041	0.0167061
672.119	0.0166873
672.197	0.0166074
672.275	0.0166989
672.353	0.0166840
672.432	0.0165869
672.510	0.0166050
672.588	0.0166035
672.666	0.0165499
672.744	0.0166465
672.822	0.0164858
672.900	0.0165759
672.978	0.0165181
673.057	0.0167042
673.135	0.0166602
673.213	0.0165688
673.291	0.0167345
673.369	0.0166147
673.447	0.0166078
673.525	0.0165559
673.603	0.0166512
673.682	0.0168717
673.760	0.0165489
673.838	0.0165762
673.916	0.0166277
673.994	0.0166609
674.072	0.0165248
674.150	0.0166348
674.228	0.0165684
674.307	0.0166406
674.385	0.0165834
674.463	0.0165988
674.541	0.0165110
674.619	0.0165906
674.697	0.0165128
674.775	0.0166370
674.853	0.0165242
674.932	0.0167096
675.010	0.0164248
675.088	0.0165642
675.166	0.0165393
675.244	0.0165671
675.322	0.0165897
675.400	0.0164831
675.478	0.0165131
675.557	0.0166641
675.635	0.0166299
675.713	0.0165864
675.791	0.0165639
675.869	0.0164806
675.947	0.0164243
676.025	0.0166436
676.103	0.0167630
676.182	0.0164004
676.260	0.0165884
676.338	0.0165848
676.416	0.0164027
676.494	0.0165875
676.572	0.0166531
676.650	0.0164524
676.728	0.0164082
676.807	0.0165149
676.885	0.0165376
676.963	0.0166634
677.041	0.0165371
677.119	0.0165015
677.197	0.0165809
677.275	0.0165557
677.353	0.0166336
677.432	0.0166326
677.510	0.0164848
677.588	0.0166057
677.666	0.0165501
677.744	0.0165567
677.822	0.0164937
677.900	0.0165733
677.978	0.0164413
678.057	0.0166203
678.135	0.0165300
678.213	0.0166191
678.291	0.0165752
678.369	0.0165013
678.447	0.0166109
678.525	0.0166373
678.603	0.0164148
678.682	0.0164577
678.760	0.0165474
678.838	0.0166712
678.916	0.0164420
678.994	0.0166346
679.072	0.0165526
679.150	0.0165717
679.228	0.0164951
679.307	0.0165746
679.385	0.0166892
679.463	0.0164744
679.541	0.0165203
679.619	0.0165791
679.697	0.0164671
679.775	0.0164798
679.853	0.0165956
679.932	0.0164845
680.010	0.0165004
680.088	0.0165936
680.166	0.0165716
680.244	0.0164557
680.322	0.0165030
680.400	0.0164909
680.478	0.0165908
680.557	0.0165352
680.635	0.0164381
680.713	0.0165184
680.791	0.0165150
680.869	0.0165115
680.947	0.0165340
681.025	0.0166614
681.103	0.0164867
681.182	0.0165263
681.260	0.0165414
681.338	0.0165177
681.416	0.0165035
681.494	0.0166592
681.572	0.0164891
681.650	0.0165022
681.728	0.0166263
681.807	0.0166420
681.885	0.0165874
681.963	0.0165501
682.041	0.0165165
682.119	0.0166472
682.197	0.0166343
682.275	0.0165733
682.353	0.0166206
682.432	0.0165572
682.510	0.0165111
682.588	0.0165630
682.666	0.0165573
682.744	0.0165383
682.822	0.0165945
682.900	0.0166143
682.978	0.0166566
683.057	0.0166079
683.135	0.0165791
683.213	0.0165406
683.291	0.0165913
683.369	0.0165530
683.447	0.0166051
683.525	0.0165768
683.603	0.0166219
683.682	0.0165064
683.760	0.0164797
683.838	0.0165408
683.916	0.0164967
683.994	0.0164876
684.072	0.0165160
684.150	0.0165051
684.228	0.0165910
684.307	0.0165048
684.385	0.0164382
684.463	0.0165821
684.541	0.0164031
684.619	0.0164801
684.697	0.0165051
684.775	0.0165122
684.853	0.0163267
684.932	0.0166232
685.010	0.0164806
685.088	0.0165334
685.166	0.0166718
685.244	0.0165681
685.322	0.0165111
685.400	0.0165578
685.478	0.0165199
685.557	0.0165443
685.635	0.0166277
685.713	0.0166256
685.791	0.0165372
685.869	0.0164715
685.947	0.0164443
686.025	0.0166114
686.103	0.0165060
686.182	0.0165549
686.260	0.0166011
686.338	0.0165885
686.416	0.0165076
686.494	0.0165279
686.572	0.0165836
686.650	0.0165801
686.728	0.0166438
686.807	0.0166700
686.885	0.0167078
686.963	0.0165937
687.041	0.0164820
687.119	0.0165961
687.197	0.0165821
687.275	0.0165986
687.353	0.0165607
687.432	0.0167878
687.510	0.0164336
687.588	0.0165108
687.666	0.0165927
687.744	0.0166225
687.822	0.0164977
687.900	0.0164624
687.978	0.0165289
688.057	0.0164901
688.135	0.0165829
688.213	0.0167249
688.291	0.0166825
688.369	0.0165948
688.447	0.0166056
688.525	0.0166181
688.603	0.0165746
688.682	0.0165784
688.760	0.0166035
688.838	0.0165131
688.916	0.0165913
688.994	0.0166057
689.072	0.0165860
689.150	0.0164850
689.228	0.0166071
689.307	0.0166662
689.385	0.0164813
689.463	0.0165833
689.541	0.0164655
689.619	0.0165662
689.697	0.0165905
689.775	0.0164720
689.853	0.0165096
689.932	0.0165546
690.010	0.0165868
690.088	0.0167161
690.166	0.0165876
690.244	0.0166550
690.322	0.0165350
690.400	0.0165198
690.478	0.0165968
690.557	0.0167027
690.635	0.0165564
690.713	0.0167041
690.791	0.0166023
690.869	0.0166518
690.947	0.0165422
691.025	0.0164861
691.103	0.0166419
691.182	0.0166344
691.260	0.0168095
691.338	0.0167559
691.416	0.0167566
691.494	0.0165988
691.572	0.0166973
691.650	0.0166638
691.728	0.0166822
691.807	0.0167922
691.885	0.0166182
691.963	0.0166065
692.041	0.0166978
692.119	0.0165862
692.197	0.0165287
692.275	0.0167805
692.353	0.0167113
692.432	0.0166699
692.510	0.0164835
692.588	0.0165134
692.666	0.0165499
692.744	0.0165318
692.822	0.0165118
692.900	0.0165192
692.978	0.0166203
693.057	0.0167039
693.135	0.0166795
693.213	0.0165565
693.291	0.0166705
693.369	0.0166564
693.447	0.0166881
693.525	0.0166498
693.603	0.0164915
693.682	0.0165897
693.760	0.0165441
693.838	0.0165114
693.916	0.0166182
693.994	0.0168359
694.072	0.0166572
694.150	0.0165564
694.228	0.0166096
694.307	0.0167011
694.385	0.0166675
694.463	0.0166161
694.541	0.0166125
694.619	0.0166451
694.697	0.0166946
694.775	0.0167715
694.853	0.0165944
694.932	0.0165643
695.010	0.0165723
695.088	0.0165763
695.166	0.0165630
695.244	0.0165703
695.322	0.0166959
695.400	0.0166859
695.478	0.0166966
695.557	0.0166579
695.635	0.0165321
695.713	0.0165325
695.791	0.0165906
695.869	0.0165806
695.947	0.0165478
696.025	0.0166071
696.103	0.0166756
696.182	0.0165495
696.260	0.0165372
696.338	0.0165102
696.416	0.0166106
696.494	0.0164067
696.572	0.0164124
696.650	0.0166544
696.728	0.0165520
696.807	0.0165900
696.885	0.0164246
696.963	0.0165207
697.041	0.0167252
697.119	0.0165162
697.197	0.0165372
697.275	0.0165465
697.353	0.0164947
697.432	0.0165578
697.510	0.0166320
697.588	0.0165708
697.666	0.0165630
697.744	0.0165613
697.822	0.0166680
697.900	0.0165812
697.978	0.0166264
698.057	0.0168087
698.135	0.0164661
698.213	0.0166564
698.291	0.0166962
698.369	0.0167103
698.447	0.0165559
698.525	0.0166158
698.603	0.0165762
698.682	0.0165732
698.760	0.0166563
698.838	0.0166305
698.916	0.0165009
698.994	0.0164685
699.072	0.0166745
699.150	0.0166806
699.228	0.0166180
699.307	0.0165533
699.385	0.0165954
699.463	0.0166232
699.541	0.0165853
699.619	0.0165992
699.697	0.0166440
699.775	0.0165076
699.853	0.0164850
699.932	0.0165757
700.010	0.0165065
700.088	0.0166663
700.166	0.0165586
700.244	0.0166302
700.322	0.0164162
700.400	0.0164397
700.478	0.0165709
700.557	0.0166319
700.635	0.0164455
700.713	0.0166175
700.791	0.0165780
700.869	0.0165486
700.947	0.0166414
701.025	0.0166620
701.103	0.0167541
701.182	0.0164643
701.260	0.0165888
701.338	0.0166080
701.416	0.0164695
701.494	0.0165519
701.572	0.0165633
701.650	0.0165671
701.728	0.0166744
701.807	0.0165773
701.885	0.0166732
701.963	0.0166486
702.041	0.0165878
702.119	0.0167030
702.197	0.0164782
702.275	0.0164413
702.353	0.0164904
702.432	0.0166163
702.510	0.0165167
702.588	0.0166172
702.666	0.0166172
702.744	0.0165844
702.822	0.0166079
702.900	0.0165254
702.978	0.0166175
703.057	0.0165980
703.135	0.0165826
703.213	0.0165639
703.291	0.0166269
703.369	0.0165306
703.447	0.0166206
703.525	0.0164542
703.603	0.0164950
703.682	0.0166593
703.760	0.0165898
703.838	0.0165649
703.916	0.0164629
703.994	0.0166011
704.072	0.0166254
704.150	0.0165942
704.228	0.0166888
704.307	0.0164828
704.385	0.0165446
704.463	0.0166679
704.541	0.0165208
704.619	0.0165712
704.697	0.0165194
704.775	0.0165804
704.853	0.0165641
704.932	0.0166029
705.010	0.0165218
705.088	0.0165148
705.166	0.0164360
705.244	0.0165742
705.322	0.0166339
705.400	0.0165784
705.478	0.0165513
705.557	0.0165920
705.635	0.0165823
705.713	0.0165595
705.791	0.0165368
705.869	0.0165562
705.947	0.0166546
706.025	0.0165426
706.103	0.0166416
706.182	0.0166466
706.260	0.0164507
706.338	0.0166351
706.416	0.0165222
706.494	0.0164801
706.572	0.0165205
706.650	0.0166614
706.728	0.0165780
706.807	0.0165811
706.885	0.0165702
706.963	0.0165331
707.041	0.0165070
707.119	0.0164790
707.197	0.0165770
707.275	0.0166569
707.353	0.0166522
707.432	0.0164578
707.510	0.0165270
707.588	0.0165276
707.666	0.0165442
707.744	0.0166541
707.822	0.0166563
707.900	0.0164507
707.978	0.0165549
708.057	0.0166675
708.135	0.0166921
708.213	0.0166181
708.291	0.0165952
708.369	0.0164943
708.447	0.0167091
708.525	0.0166934
708.603	0.0166011
708.682	0.0165725
708.760	0.0166065
708.838	0.0165059
708.916	0.0165926
708.994	0.0165862
709.072	0.0165438
709.150	0.0166788
709.228	0.0165861
709.307	0.0166206
709.385	0.0165751
709.463	0.0166577
709.541	0.0166855
709.619	0.0166158
709.697	0.0166003
709.775	0.0166158
709.853	0.0166307
709.932	0.0166611
710.010	0.0166570
710.088	0.0167799
710.166	0.0166904
710.244	0.0166456
710.322	0.0166602
710.400	0.0165781
710.478	0.0166315
710.557	0.0168054
710.635	0.0167433
710.713	0.0165728
710.791	0.0165880
710.869	0.0165931
710.947	0.0165783
711.025	0.0166627
711.103	0.0167386
711.182	0.0167267
711.260	0.0167271
711.338	0.0165739
711.416	0.0164664
711.494	0.0166155
711.572	0.0167216
711.650	0.0165794
711.728	0.0164964
711.807	0.0165416
711.885	0.0166867
711.963	0.0165684
712.041	0.0166079
712.119	0.0166721
712.197	0.0165507
712.275	0.0167378
712.353	0.0167570
712.432	0.0167498
712.510	0.0167213
712.588	0.0168504
712.666	0.0167375
712.744	0.0167432
712.822	0.0168571
712.900	0.0165516
712.978	0.0165514
713.057	0.0164896
713.135	0.0164448
713.213	0.0164867
713.291	0.0165527
713.369	0.0164082
713.447	0.0164182
713.525	0.0164046
713.603	0.0165577
713.682	0.0166476
713.760	0.0166517
713.838	0.0165543
713.916	0.0167509
713.994	0.0166388
714.072	0.0165398
714.150	0.0167280
714.228	0.0167488
714.307	0.0168127
714.385	0.0168718
714.463	0.0167713
714.541	0.0168621
714.619	0.0166745
714.697	0.0167555
714.775	0.0167703
714.853	0.0166048
714.932	0.0166422
715.010	0.0166750
715.088	0.0165335
715.166	0.0166982
715.244	0.0166116
715.322	0.0164542
715.400	0.0165253
715.478	0.0166418
715.557	0.0165430
715.635	0.0165974
715.713	0.0165828
715.791	0.0165246
715.869	0.0165988
715.947	0.0165353
716.025	0.0165488
716.103	0.0164455
716.182	0.0165075
716.260	0.0164697
716.338	0.0165255
716.416	0.0165698
716.494	0.0166135
716.572	0.0165377
716.650	0.0166674
716.728	0.0168086
716.807	0.0167027
716.885	0.0168381
716.963	0.0168547
717.041	0.0168807
717.119	0.0168426
717.197	0.0165842
717.275	0.0165536
717.353	0.0166371
717.432	0.0166953
717.510	0.0164304
717.588	0.0162856
717.666	0.0163332
717.744	0.0164385
717.822	0.0161907
717.900	0.0162240
717.978	0.0162997
718.057	0.0163134
718.135	0.0164046
718.213	0.0164213
718.291	0.0164525
718.369	0.0164904
718.447	0.0165613
718.525	0.0165175
718.603	0.0167068
718.682	0.0166714
718.760	0.0165960
718.838	0.0167320
718.916	0.0167350
718.994	0.0168901
719.072	0.0168821
719.150	0.0168034
719.228	0.0168746
719.307	0.0168558
719.385	0.0167966
719.463	0.0168775
719.541	0.0167585
719.619	0.0166053
719.697	0.0166985
719.775	0.0167191
719.853	0.0166380
719.932	0.0164050
720.010	0.0163179
720.088	0.0164240
720.166	0.0163916
720.244	0.0163205
720.322	0.0164129
720.400	0.0163622
720.478	0.0162782
720.557	0.0162814
720.635	0.0164026
720.713	0.0164128
720.791	0.0163510
720.869	0.0163758
720.947	0.0164753
721.025	0.0164108
721.103	0.0165752
721.182	0.0165349
721.260	0.0167153
721.338	0.0167787
721.416	0.0165865
721.494	0.0167205
721.572	0.0166910
721.650	0.0168449
721.728	0.0166882
721.807	0.0166771
721.885	0.0165976
721.963	0.0167609
722.041	0.0167051
722.119	0.0166046
722.197	0.0167803
722.275	0.0166500
722.353	0.0165521
722.432	0.0164063
722.510	0.0164059
722.588	0.0162778
722.666	0.0163831
722.744	0.0164892
722.822	0.0164537
722.900	0.0164072
722.978	0.0163801
723.057	0.0163874
723.135	0.0164646
723.213	0.0166354
723.291	0.0164595
723.369	0.0165511
723.447	0.0165691
723.525	0.0166212
723.603	0.0167236
723.682	0.0168073
723.760	0.0166822
723.838	0.0169309
723.916	0.0166949
723.994	0.0166951
724.072	0.0166895
724.150	0.0167299
724.228	0.0167414
724.307	0.0166782
724.385	0.0166553
724.463	0.0164601
724.541	0.0166195
724.619	0.0166148
724.697	0.0166225
724.775	0.0165150
724.853	0.0166080
724.932	0.0165025
725.010	0.0165489
725.088	0.0166136
725.166	0.0164636
725.244	0.0167163
725.322	0.0165959
725.400	0.0166238
725.478	0.0167013
725.557	0.0167731
725.635	0.0166738
725.713	0.0168571
725.791	0.0167319
725.869	0.0166770
725.947	0.0167870
726.025	0.0166636
726.103	0.0167600
726.182	0.0166663
726.260	0.0166808
726.338	0.0165856
726.416	0.0166104
726.494	0.0166036
726.572	0.0166660
726.650	0.0165036
726.728	0.0165379
726.807	0.0165877
726.885	0.0167503
726.963	0.0166990
727.041	0.0165759
727.119	0.0166985
727.197	0.0167767
727.275	0.0166361
727.353	0.0165655
727.432	0.0166488
727.510	0.0165688
727.588	0.0165515
727.666	0.0165682
727.744	0.0165826
727.822	0.0166011
727.900	0.0166111
727.978	0.0165018
728.057	0.0165182
728.135	0.0165183
728.213	0.0165552
728.291	0.0165474
728.369	0.0166152
728.447	0.0166042
728.525	0.0166167
728.603	0.0166049
728.682	0.0166066
728.760	0.0166993
728.838	0.0166822
728.916	0.0167142
728.994	0.0166582
729.072	0.0167972
729.150	0.0166549
729.228	0.0166919
729.307	0.0166702
729.385	0.0165160
729.463	0.0166493
729.541	0.0165126
729.619	0.0164174
729.697	0.0164731
729.775	0.0164810
729.853	0.0164619
729.932	0.0163792
730.010	0.0164233
730.088	0.0165450
730.166	0.0164166
730.244	0.0165176
730.322	0.0165410
730.400	0.0165862
730.478	0.0166322
730.557	0.0167674
730.635	0.0166591
730.713	0.0166817
730.791	0.0168585
730.869	0.0169401
730.947	0.0169251
731.025	0.0167679
731.103	0.0166587
731.182	0.0168930
731.260	0.0165900
731.338	0.0165855
731.416	0.0163847
731.494	0.0162070
731.572	0.0162219
731.650	0.0163014
731.728	0.0162771
731.807	0.0161439
731.885	0.0162353
731.963	0.0162682
732.041	0.0162534
732.119	0.0161900
732.197	0.0163873
732.275	0.0163960
732.353	0.0166207
732.432	0.0166367
732.510	0.0168659
732.588	0.0168387
732.666	0.0170528
732.744	0.0171169
732.822	0.0170204
732.900	0.0169364
732.978	0.0169500
733.057	0.0169955
733.135	0.0169737
733.213	0.0168192
733.291	0.0167631
733.369	0.0165612
733.447	0.0165768
733.525	0.0163950
733.603	0.0163723
733.682	0.0163849
733.760	0.0164353
733.838	0.0164145
733.916	0.0162354
733.994	0.0165009
734.072	0.0162284
734.150	0.0162991
734.228	0.0163047
734.307	0.0163452
734.385	0.0163479
734.463	0.0164971
734.541	0.0166072
734.619	0.0165991
734.697	0.0167125
734.775	0.0166953
734.853	0.0168729
734.932	0.0167530
735.010	0.0170243
735.088	0.0171938
735.166	0.0172664
735.244	0.0172155
735.322	0.0172443
735.400	0.0171801
735.478	0.0170251
735.557	0.0170415
735.635	0.0169164
735.713	0.0167516
735.791	0.0165542
735.869	0.0164425
735.947	0.0162846
736.025	0.0161879
736.103	0.0160653
736.182	0.0160722
736.260	0.0160342
736.338	0.0159129
736.416	0.0158362
736.494	0.0160016
736.572	0.0159554
736.650	0.0161005
736.728	0.0163212
736.807	0.0164891
736.885	0.0166586
736.963	0.0167194
737.041	0.0168266
737.119	0.0169724
737.197	0.0171806
737.275	0.0171867
737.353	0.0170782
737.432	0.0171444
737.510	0.0170941
737.588	0.0170551
737.666	0.0169640
737.744	0.0169334
737.822	0.0168497
737.900	0.0166960
737.978	0.0167016
738.057	0.0164032
738.135	0.0163239
738.213	0.0162456
738.291	0.0163098
738.369	0.0162651
738.447	0.0160053
738.525	0.0162790
738.603	0.0161013
738.682	0.0161852
738.760	0.0161178
738.838	0.0162292
738.916	0.0163960
738.994	0.0163887
739.072	0.0163399
739.150	0.0164314
739.228	0.0164259
739.307	0.0165384
739.385	0.0165779
739.463	0.0166022
739.541	0.0167821
739.619	0.0166844
739.697	0.0168377
739.775	0.0167388
739.853	0.0166782
739.932	0.0167948
740.010	0.0167841
740.088	0.0167810
740.166	0.0168004
740.244	0.0167165
740.322	0.0166426
740.400	0.0167345
740.478	0.0166776
740.557	0.0166264
740.635	0.0166624
740.713	0.0163687
740.791	0.0164124
740.869	0.0164695
740.947	0.0162675
741.025	0.0163818
741.103	0.0164267
741.182	0.0163708
741.260	0.0160836
741.338	0.0163545
741.416	0.0163346
741.494	0.0163557
741.572	0.0164811
741.650	0.0163860
741.728	0.0165296
741.807	0.0165897
741.885	0.0164670
741.963	0.0165405
742.041	0.0165730
742.119	0.0166978
742.197	0.0165740
742.275	0.0167471
742.353	0.0166826
742.432	0.0165596
742.510	0.0166974
742.588	0.0165549
742.666	0.0166524
742.744	0.0166040
742.822	0.0165783
742.900	0.0165721
742.978	0.0165325
743.057	0.0166049
743.135	0.0165353
743.213	0.0166190
743.291	0.0166488
743.369	0.0166638
743.447	0.0165363
743.525	0.0165741
743.603	0.0165479
743.682	0.0166239
743.760	0.0164810
743.838	0.0164039
743.916	0.0165468
743.994	0.0167363
744.072	0.0164833
744.150	0.0165044
744.228	0.0164736
744.307	0.0164539
744.385	0.0163740
744.463	0.0164122
744.541	0.0165347
744.619	0.0165626
744.697	0.0166566
744.775	0.0165042
744.853	0.0165930
744.932	0.0165959
745.010	0.0165466
745.088	0.0167149
745.166	0.0165944
745.244	0.0167471
745.322	0.0167334
745.400	0.0166905
745.478	0.0167278
745.557	0.0167848
745.635	0.0166992
745.713	0.0168085
745.791	0.0167172
745.869	0.0165617
745.947	0.0165992
746.025	0.0166783
746.103	0.0165861
746.182	0.0166866
746.260	0.0165847
746.338	0.0164828
746.416	0.0165044
746.494	0.0164729
746.572	0.0164764
746.650	0.0164144
746.728	0.0165090
746.807	0.0164385
746.885	0.0163815
746.963	0.0164854
747.041	0.0164370
747.119	0.0163847
747.197	0.0164951
747.275	0.0165972
747.353	0.0163776
747.432	0.0164472
747.510	0.0167020
747.588	0.0166651
747.666	0.0166197
747.744	0.0167790
747.822	0.0166633
747.900	0.0165703
747.978	0.0166129
748.057	0.0166279
748.135	0.0166743
748.213	0.0166621
748.291	0.0166280
748.369	0.0167671
748.447	0.0165977
748.525	0.0166765
748.603	0.0167603
748.682	0.0165877
748.760	0.0165402
748.838	0.0166765
748.916	0.0165354
748.994	0.0166893
749.072	0.0165884
749.150	0.0166268
749.228	0.0164224
749.307	0.0165107
749.385	0.0166102
749.463	0.0164978
749.541	0.0165738
749.619	0.0165305
749.697	0.0164904
749.775	0.0163927
749.853	0.0166715
749.932	0.0165640
750.010	0.0164854
750.088	0.0166373
750.166	0.0166038
750.244	0.0165352
750.322	0.0166160
750.400	0.0167081
750.478	0.0165643
750.557	0.0167027
750.635	0.0165998
750.713	0.0167035
750.791	0.0168182
750.869	0.0165853
750.947	0.0167768
751.025	0.0166940
751.103	0.0167170
751.182	0.0165292
751.260	0.0167457
751.338	0.0165057
751.416	0.0166059
751.494	0.0165721
751.572	0.0166251
751.650	0.0166180
751.728	0.0165569
751.807	0.0166025
751.885	0.0163967
751.963	0.0163889
752.041	0.0165108
752.119	0.0165440
752.197	0.0165023
752.275	0.0165327
752.353	0.0165211
752.432	0.0164825
752.510	0.0166372
752.588	0.0165794
752.666	0.0165945
752.744	0.0166265
752.822	0.0165126
752.900	0.0166463
752.978	0.0167169
753.057	0.0166412
753.135	0.0167316
753.213	0.0165665
753.291	0.0167143
753.369	0.0166374
753.447	0.0165464
753.525	0.0166585
753.603	0.0167305
753.682	0.0167154
753.760	0.0164702
753.838	0.0165646
753.916	0.0165153
753.994	0.0164873
754.072	0.0163995
754.150	0.0165108
754.228	0.0166518
754.307	0.0165281
754.385	0.0166003
754.463	0.0166043
754.541	0.0165944
754.619	0.0165367
754.697	0.0166084
754.775	0.0166584
754.853	0.0165813
754.932	0.0165875
755.010	0.0166357
755.088	0.0165803
755.166	0.0166729
755.244	0.0167442
755.322	0.0166821
755.400	0.0166161
755.478	0.0167449
755.557	0.0167997
755.635	0.0168176
755.713	0.0167537
755.791	0.0167458
755.869	0.0166210
755.947	0.0166820
756.025	0.0166180
756.103	0.0168129
756.182	0.0166514
756.260	0.0166160
756.338	0.0166138
756.416	0.0166534
756.494	0.0167933
756.572	0.0166556
756.650	0.0167215
756.728	0.0168437
756.807	0.0167103
756.885	0.0166971
756.963	0.0166248
757.041	0.0167303
757.119	0.0167719
757.197	0.0167620
757.275	0.0167537
757.353	0.0166857
757.432	0.0167167
757.510	0.0166791
757.588	0.0166765
757.666	0.0167262
757.744	0.0165577
757.822	0.0165843
757.900	0.0165870
757.978	0.0166308
758.057	0.0166073
758.135	0.0165011
758.213	0.0165030
758.291	0.0164862
758.369	0.0165892
758.447	0.0166515
758.525	0.0165810
758.603	0.0165606
758.682	0.0164850
758.760	0.0167369
758.838	0.0167538
758.916	0.0167313
758.994	0.0167036
759.072	0.0167668
759.150	0.0166360
759.228	0.0165475
759.307	0.0167488
759.385	0.0168168
759.463	0.0163935
759.541	0.0165692
759.619	0.0164296
759.697	0.0166045
759.775	0.0165943
759.853	0.0164858
759.932	0.0164487
760.010	0.0164266
760.088	0.0164216
760.166	0.0164847
760.244	0.0165193
760.322	0.0164667
760.400	0.0165081
760.478	0.0164999
760.557	0.0165023
760.635	0.0165262
760.713	0.0165439
760.791	0.0164471
760.869	0.0166238
760.947	0.0164899
761.025	0.0165445
761.103	0.0166219
761.182	0.0166386
761.260	0.0166559
761.338	0.0166208
761.416	0.0166707
761.494	0.0167012
761.572	0.0166113
761.650	0.0166777
761.728	0.0166428
761.807	0.0166866
761.885	0.0166118
761.963	0.0166242
762.041	0.0166695
762.119	0.0168069
762.197	0.0167924
762.275	0.0167346
762.353	0.0167379
762.432	0.0167160
762.510	0.0168369
762.588	0.0167912
762.666	0.0168214
762.744	0.0166873
762.822	0.0164232
762.900	0.0165063
762.978	0.0165115
763.057	0.0164271
763.135	0.0164897
763.213	0.0164402
763.291	0.0163017
763.369	0.0162915
763.447	0.0163221
763.525	0.0163843
763.603	0.0163648
763.682	0.0162735
763.760	0.0164486
763.838	0.0163187
763.916	0.0165876
763.994	0.0164853
764.072	0.0166169
764.150	0.0166828
764.228	0.0165649
764.307	0.0165645
764.385	0.0165827
764.463	0.0168753
764.541	0.0167972
764.619	0.0166846
764.697	0.0167484
764.775	0.0168159
764.853	0.0167352
764.932	0.0169219
765.010	0.0169060
765.088	0.0167971
765.166	0.0165524
765.244	0.0166606
765.322	0.0167173
765.400	0.0167502
765.478	0.0166949
765.557	0.0166726
765.635	0.0167514
765.713	0.0166335
765.791	0.0165296
765.869	0.0164457
765.947	0.0164227
766.025	0.0165898
766.103	0.0163622
766.182	0.0163631
766.260	0.0163166
766.338	0.0164767
766.416	0.0163731
766.494	0.0163688
766.572	0.0164291
766.650	0.0162749
766.728	0.0163567
766.807	0.0165537
766.885	0.0164458
766.963	0.0164867
767.041	0.0166180
767.119	0.0164967
767.197	0.0164547
767.275	0.0165565
767.353	0.0165846
767.432	0.0166376
767.510	0.0167483
767.588	0.0167313
767.666	0.0167966
767.744	0.0167543
767.822	0.0166328
767.900	0.0166271
767.978	0.0166656
768.057	0.0166708
768.135	0.0165771
768.213	0.0166151
768.291	0.0166258
768.369	0.0165362
768.447	0.0166367
768.525	0.0166938
768.603	0.0165797
768.682	0.0165193
768.760	0.0166054
768.838	0.0166200
768.916	0.0165749
768.994	0.0163969
769.072	0.0165430
769.150	0.0162878
769.228	0.0161996
769.307	0.0164003
769.385	0.0163837
769.463	0.0163029
769.541	0.0163518
769.619	0.0165195
769.697	0.0164619
769.775	0.0166164
769.853	0.0167197
769.932	0.0165719
770.010	0.0167487
770.088	0.0166284
770.166	0.0166824
770.244	0.0168414
770.322	0.0169213
770.400	0.0167292
770.478	0.0167310
770.557	0.0169009
770.635	0.0168451
770.713	0.0167936
770.791	0.0167357
770.869	0.0166203
770.947	0.0165799
771.025	0.0164553
771.103	0.0163177
771.182	0.0163352
771.260	0.0162953
771.338	0.0162364
771.416	0.0161742
771.494	0.0161692
771.572	0.0161188
771.650	0.0160791
771.728	0.0161588
771.807	0.0161388
771.885	0.0161917
771.963	0.0163409
772.041	0.0162573
772.119	0.0164480
772.197	0.0164715
772.275	0.0165591
772.353	0.0167728
772.432	0.0168265
772.510	0.0168914
772.588	0.0170097
772.666	0.0170537
772.744	0.0172888
772.822	0.0173634
772.900	0.0172651
772.978	0.0172845
773.057	0.0172997
773.135	0.0172215
773.213	0.0171032
773.291	0.0170923
773.369	0.0169361
773.447	0.0168842
773.525	0.0166939
773.603	0.0166676
773.682	0.0166692
773.760	0.0163827
773.838	0.0163374
773.916	0.0161807
773.994	0.0160722
774.072	0.0162619
774.150	0.0161817
774.228	0.0160608
774.307	0.0159946
774.385	0.0159635
774.463	0.0161163
774.541	0.0160063
774.619	0.0159552
774.697	0.0158854
774.775	0.0159554
774.853	0.0159383
774.932	0.0158511
775.010	0.0159711
775.088	0.0159986
775.166	0.0161645
775.244	0.0161849
775.322	0.0162394
775.400	0.0163704
775.478	0.0163862
775.557	0.0164326
775.635	0.0166958
775.713	0.0168283
775.791	0.0166700
775.869	0.0168841
775.947	0.0169703
776.025	0.0170857
776.103	0.0170956
776.182	0.0171054
776.260	0.0172340
776.338	0.0173032
776.416	0.0173505
776.494	0.0172366
776.572	0.0171413
776.650	0.0172736
776.728	0.0171455
776.807	0.0171337
776.885	0.0170826
776.963	0.0170321
777.041	0.0169668
777.119	0.0168287
777.197	0.0167469
777.275	0.0166333
777.353	0.0164625
777.432	0.0165671
777.510	0.0165894
777.588	0.0164020
777.666	0.0163487
777.744	0.0163847
777.822	0.0163358
777.900	0.0164531
777.978	0.0163808
778.057	0.0162643
778.135	0.0163351
778.213	0.0163230
778.291	0.0163591
778.369	0.0162174
778.447	0.0162592
778.525	0.0163814
778.603	0.0162515
778.682	0.0162531
778.760	0.0161902
778.838	0.0158958
778.916	0.0161521
778.994	0.0159714
779.072	0.0158411
779.150	0.0157886
779.228	0.0158112
779.307	0.0158937
779.385	0.0160123
779.463	0.0160650
779.541	0.0160507
779.619	0.0160597
779.697	0.0161144
779.775	0.0162206
779.853	0.0163615
779.932	0.0164604
780.010	0.0166087
780.088	0.0167241
780.166	0.0168965
780.244	0.0168814
780.322	0.0170310
780.400	0.0173245
780.478	0.0172670
780.557	0.0174195
780.635	0.0173741
780.713	0.0173836
780.791	0.0175787
780.869	0.0178197
780.947	0.0175211
781.025	0.0175146
781.103	0.0175828
781.182	0.0174805
781.260	0.0174898
781.338	0.0173891
781.416	0.0173023
781.494	0.0171678
781.572	0.0171908
781.650	0.0170869
781.728	0.0168948
781.807	0.0167304
781.885	0.0166203
781.963	0.0165540
782.041	0.0162820
782.119	0.0162137
782.197	0.0160511
782.275	0.0161483
782.353	0.0159872
782.432	0.0158672
782.510	0.0157335
782.588	0.0157049
782.666	0.0156331
782.744	0.0155103
782.822	0.0153711
782.900	0.0153472
782.978	0.0153004
783.057	0.0153525
783.135	0.0153699
783.213	0.0154566
783.291	0.0154578
783.369	0.0155083
783.447	0.0157092
783.525	0.0159029
783.603	0.0159800
783.682	0.0160635
783.760	0.0163940
783.838	0.0164516
783.916	0.0165092
783.994	0.0166924
784.072	0.0170016
784.150	0.0170941
784.228	0.0171212
784.307	0.0172080
784.385	0.0173144
784.463	0.0172618
784.541	0.0175276
784.619	0.0175494
784.697	0.0176213
784.775	0.0176327
784.853	0.0177789
784.932	0.0176370
785.010	0.0177316
785.088	0.0176921
785.166	0.0176943
785.244	0.0176630
785.322	0.0176535
785.400	0.0175586
785.478	0.0174731
785.557	0.0174147
785.635	0.0171558
785.713	0.0170512
785.791	0.0170110
785.869	0.0167734
785.947	0.0166985
786.025	0.0167994
786.103	0.0163627
786.182	0.0162032
786.260	0.0161662
786.338	0.0161287
786.416	0.0160666
786.494	0.0160925
786.572	0.0158831
786.650	0.0158738
786.728	0.0159666
786.807	0.0159597
786.885	0.0159050
786.963	0.0157838
787.041	0.0159940
787.119	0.0158745
787.197	0.0158319
787.275	0.0157670
787.353	0.0158397
787.432	0.0158022
787.510	0.0158797
787.588	0.0158349
787.666	0.0159286
787.744	0.0161077
787.822	0.0162987
787.900	0.0161585
787.978	0.0162659
788.057	0.0163225
788.135	0.0164215
788.213	0.0165419
788.291	0.0166167
788.369	0.0168995
788.447	0.0169096
788.525	0.0169549
788.603	0.0170956
788.682	0.0172057
788.760	0.0172214
788.838	0.0171861
788.916	0.0172408
788.994	0.0172574
789.072	0.0172063
789.150	0.0171926
789.228	0.0171864
789.307	0.0171825
789.385	0.0171326
789.463	0.0170415
789.541	0.0171335
789.619	0.0170552
789.697	0.0170303
789.775	0.0170645
789.853	0.0170847
789.932	0.0170267
790.010	0.0169588
790.088	0.0169382
790.166	0.0168668
790.244	0.0170122
790.322	0.0168476
790.400	0.0167910
790.478	0.0166992
790.557	0.0166624
790.635	0.0165723
790.713	0.0165467
790.791	0.0164838
790.869	0.0163422
790.947	0.0162666
791.025	0.0162158
791.103	0.0158810
791.182	0.0159098
791.260	0.0159181
791.338	0.0157870
791.416	0.0155931
791.494	0.0157156
791.572	0.0156814
791.650	0.0158457
791.728	0.0157777
791.807	0.0158931
791.885	0.0161315
791.963	0.0161648
792.041	0.0163677
792.119	0.0165295
792.197	0.0165717
792.275	0.0167906
792.353	0.0168449
792.432	0.0168911
792.510	0.0170715
792.588	0.0171162
792.666	0.0170099
792.744	0.0171463
792.822	0.0171612
792.900	0.0170638
792.978	0.0171090
793.057	0.0170817
793.135	0.0170215
793.213	0.0168622
793.291	0.0167194
793.369	0.0166287
793.447	0.0166577
793.525	0.0165960
793.603	0.0165082
793.682	0.0166403
793.760	0.0165903
793.838	0.0165504
793.916	0.0166573
793.994	0.0167034
794.072	0.0168147
794.150	0.0167860
794.228	0.0166872
794.307	0.0167518
794.385	0.0166046
794.463	0.0166922
794.541	0.0166266
794.619	0.0165631
794.697	0.0165200
794.775	0.0166888
794.853	0.0164358
794.932	0.0163811
795.010	0.0163050
795.088	0.0163718
795.166	0.0163005
795.244	0.0162605
795.322	0.0162394
795.400	0.0163169
795.478	0.0160725
795.557	0.0161944
795.635	0.0162056
795.713	0.0162078
795.791	0.0161516
795.869	0.0161883
795.947	0.0161836
796.025	0.0163641
796.103	0.0163333
796.182	0.0165079
796.260	0.0165344
796.338	0.0165620
796.416	0.0166428
796.494	0.0167364
796.572	0.0168189
796.650	0.0170021
796.728	0.0168785
796.807	0.0168813
796.885	0.0170608
796.963	0.0171521
797.041	0.0169433
797.119	0.0169751
797.197	0.0169865
797.275	0.0166867
797.353	0.0165422
797.432	0.0165165
797.510	0.0164280
797.588	0.0164536
797.666	0.0163565
797.744	0.0162054
797.822	0.0162321
797.900	0.0162904
797.978	0.0160680
798.057	0.0161265
798.135	0.0161523
798.213	0.0160841
798.291	0.0160478
798.369	0.0161417
798.447	0.0160551
798.525	0.0162296
798.603	0.0163993
798.682	0.0163232
798.760	0.0161134
798.838	0.0163708
798.916	0.0165879
798.994	0.0165138
799.072	0.0166544
799.150	0.0166861
799.228	0.0167755
799.307	0.0169427
799.385	0.0169692
799.463	0.0168743
799.541	0.0170422
799.619	0.0171359
799.697	0.0170821
799.775	0.0171516
799.853	0.0169798
799.932	0.0169382
800.010	0.0169015
800.088	0.0169852
800.166	0.0168093
800.244	0.0168329
800.322	0.0164583
800.400	0.0164138
800.478	0.0164860
800.557	0.0164269
800.635	0.0163260
800.713	0.0162808
800.791	0.0161269
800.869	0.0161779
800.947	0.0161801
801.025	0.0161176
801.103	0.0161752
801.182	0.0162928
801.260	0.0163194
801.338	0.0162480
801.416	0.0163580
801.494	0.0164281
801.572	0.0166224
801.650	0.0167171
801.728	0.0167787
801.807	0.0169879
801.885	0.0169949
801.963	0.0171367
802.041	0.0170255
802.119	0.0171553
802.197	0.0171685
802.275	0.0171899
802.353	0.0170821
802.432	0.0170524
802.510	0.0168277
802.588	0.0167648
802.666	0.0166906
802.744	0.0164820
802.822	0.0161900
802.900	0.0161103
802.978	0.0158651
803.057	0.0156937
803.135	0.0157156
803.213	0.0155882
803.291	0.0155758
803.369	0.0152894
803.447	0.0154447
803.525	0.0156187
803.603	0.0155811
803.682	0.0158160
803.760	0.0161598
803.838	0.0161643
803.916	0.0164459
803.994	0.0166673
804.072	0.0168214
804.150	0.0169104
804.228	0.0170669
804.307	0.0172961
804.385	0.0173598
804.463	0.0173974
804.541	0.0174966
804.619	0.0173885
804.697	0.0173059
804.775	0.0173322
804.853	0.0171815
804.932	0.0171131
805.010	0.0170677
805.088	0.0169421
805.166	0.0168519
805.244	0.0166423
805.322	0.0165852
805.400	0.0165972
805.478	0.0165603
805.557	0.0165865
805.635	0.0164801
805.713	0.0164303
805.791	0.0163493
805.869	0.0163288
805.947	0.0163670
806.025	0.0163596
806.103	0.0164925
806.182	0.0165899
806.260	0.0165569
806.338	0.0166096
806.416	0.0166597
806.494	0.0166046
806.572	0.0167208
806.650	0.0166732
806.728	0.0167425
806.807	0.0165954
806.885	0.0167664
806.963	0.0167222
807.041	0.0167968
807.119	0.0167199
807.197	0.0167423
807.275	0.0167562
807.353	0.0167664
807.432	0.0165439
807.510	0.0165362
807.588	0.0167066
807.666	0.0164760
807.744	0.0165692
807.822	0.0164172
807.900	0.0163551
807.978	0.0163741
808.057	0.0162979
808.135	0.0162069
808.213	0.0162231
808.291	0.0161472
808.369	0.0161078
808.447	0.0162411
808.525	0.0162341
808.603	0.0163363
808.682	0.0164008
808.760	0.0163751
808.838	0.0165381
808.916	0.0167449
808.994	0.0167923
809.072	0.0168627
809.150	0.0167939
809.228	0.0168716
809.307	0.0169529
809.385	0.0171171
809.463	0.0171934
809.541	0.0172427
809.619	0.0171856
809.697	0.0170554
809.775	0.0170734
809.853	0.0171101
809.932	0.0170656
810.010	0.0169874
810.088	0.0168797
810.166	0.0169250
810.244	0.0166837
810.322	0.0167067
810.400	0.0166069
810.478	0.0165043
810.557	0.0164993
810.635	0.0164820
810.713	0.0164131
810.791	0.0163864
810.869	0.0162621
810.947	0.0162473
811.025	0.0162572
811.103	0.0164130
811.182	0.0163229
811.260	0.0163343
811.338	0.0162781
811.416	0.0163286
811.494	0.0163535
811.572	0.0164198
811.650	0.0164301
811.728	0.0163808
811.807	0.0165833
811.885	0.0164518
811.963	0.0164556
812.041	0.0164177
812.119	0.0166908
812.197	0.0166942
812.275	0.0167439
812.353	0.0166820
812.432	0.0167027
812.510	0.0169170
812.588	0.0167889
812.666	0.0167867
812.744	0.0168008
812.822	0.0169802
812.900	0.0168406
812.978	0.0166776
813.057	0.0168073
813.135	0.0166331
813.213	0.0167089
813.291	0.0165974
813.369	0.0165843
813.447	0.0165549
813.525	0.0164201
813.603	0.0162669
813.682	0.0163361
813.760	0.0162672
813.838	0.0163322
813.916	0.0163325
813.994	0.0162679
814.072	0.0161900
814.150	0.0163178
814.228	0.0162436
814.307	0.0164072
814.385	0.0163945
814.463	0.0166447
814.541	0.0166222
814.619	0.0166325
814.697	0.0167558
814.775	0.0169578
814.853	0.0169125
814.932	0.0170643
815.010	0.0170829
815.088	0.0170252
815.166	0.0170592
815.244	0.0172632
815.322	0.0171770
815.400	0.0171616
815.478	0.0170020
815.557	0.0170116
815.635	0.0169910
815.713	0.0168882
815.791	0.0169608
815.869	0.0167367
815.947	0.0165591
816.025	0.0166032
816.103	0.0163172
816.182	0.0162478
816.260	0.0161819
816.338	0.0162473
816.416	0.0161935
816.494	0.0160092
816.572	0.0157980
816.650	0.0158408
816.728	0.0156827
816.807	0.0155135
816.885	0.0157958
816.963	0.0157863
817.041	0.0157999
817.119	0.0160062
817.197	0.0161408
817.275	0.0163461
817.353	0.0163905
817.432	0.0165155
817.510	0.0165913
817.588	0.0167509
817.666	0.0168479
817.744	0.0169490
817.822	0.0171045
817.900	0.0172281
817.978	0.0171366
818.057	0.0170840
818.135	0.0172033
818.213	0.0171459
818.291	0.0172518
818.369	0.0173743
818.447	0.0173084
818.525	0.0171584
818.603	0.0172300
818.682	0.0170995
818.760	0.0170528
818.838	0.0169872
818.916	0.0168050
818.994	0.0169450
819.072	0.0166618
819.150	0.0165341
819.228	0.0163956
819.307	0.0163183
819.385	0.0162745
819.463	0.0160574
819.541	0.0160519
819.619	0.0160364
819.697	0.0158546
819.775	0.0156226
819.853	0.0157474
819.932	0.0157195
820.010	0.0157048
820.088	0.0157394
820.166	0.0157607
820.244	0.0159446
820.322	0.0160609
820.400	0.0160475
820.478	0.0162674
820.557	0.0163661
820.635	0.0165876
820.713	0.0167027
820.791	0.0166288
820.869	0.0167754
820.947	0.0169194
821.025	0.0170941
821.103	0.0169993
821.182	0.0169059
821.260	0.0168279
821.338	0.0169715
821.416	0.0169117
821.494	0.0168374
821.572	0.0166698
821.650	0.0166880
821.728	0.0165381
821.807	0.0164195
821.885	0.0165067
821.963	0.0162971
822.041	0.0161722
822.119	0.0162388
822.197	0.0162658
822.275	0.0162692
822.353	0.0161680
822.432	0.0165509
822.510	0.0165343
822.588	0.0164989
822.666	0.0166510
822.744	0.0165155
822.822	0.0166504
822.900	0.0168735
822.978	0.0167370
823.057	0.0166854
823.135	0.0168727
823.213	0.0170267
823.291	0.0168845
823.369	0.0169417
823.447	0.0169257
823.525	0.0169151
823.603	0.0169973
823.682	0.0169720
823.760	0.0167819
823.838	0.0169317
823.916	0.0168347
823.994	0.0167242
824.072	0.0167448
824.150	0.0167348
824.228	0.0166624
824.307	0.0165833
824.385	0.0163264
824.463	0.0165311
824.541	0.0164439
824.619	0.0163254
824.697	0.0162572
824.775	0.0162577
824.853	0.0161753
824.932	0.0161647
825.010	0.0160594
825.088	0.0158841
825.166	0.0159205
825.244	0.0160041
825.322	0.0158146
825.400	0.0160162
825.478	0.0160474
825.557	0.0160462
825.635	0.0160770
825.713	0.0161927
825.791	0.0163299
825.869	0.0164769
825.947	0.0165421
826.025	0.0166013
826.103	0.0167530
826.182	0.0169529
826.260	0.0171320
826.338	0.0170231
826.416	0.0171296
826.494	0.0171299
826.572	0.0173062
826.650	0.0171653
826.728	0.0171539
826.807	0.0172359
826.885	0.0170516
826.963	0.0170871
827.041	0.0170270
827.119	0.0169205
827.197	0.0168717
827.275	0.0167240
827.353	0.0166552
827.432	0.0167335
827.510	0.0167221
827.588	0.0166240
827.666	0.0165933
827.744	0.0165717
827.822	0.0164889
827.900	0.0165419
827.978	0.0164228
828.057	0.0166801
828.135	0.0166486
828.213	0.0165971
828.291	0.0165104
828.369	0.0166570
828.447	0.0166844
828.525	0.0166754
828.603	0.0165176
828.682	0.0165512
828.760	0.0165812
828.838	0.0166502
828.916	0.0165067
828.994	0.0166573
829.072	0.0165336
829.150	0.0165749
829.228	0.0164946
829.307	0.0165817
829.385	0.0165754
829.463	0.0165803
829.541	0.0165993
829.619	0.0165801
829.697	0.0165391
829.775	0.0166147
829.853	0.0167469
829.932	0.0168169
830.010	0.0168088
830.088	0.0167663
830.166	0.0167693
830.244	0.0167603
830.322	0.0167027
830.400	0.0165725
830.478	0.0166536
830.557	0.0167511
830.635	0.0165951
830.713	0.0166507
830.791	0.0166341
830.869	0.0165285
830.947	0.0165267
831.025	0.0165806
831.103	0.0165517
831.182	0.0165726
831.260	0.0165954
831.338	0.0165137
831.416	0.0167024
831.494	0.0165849
831.572	0.0165499
831.650	0.0166440
831.728	0.0166619
831.807	0.0166090
831.885	0.0168932
831.963	0.0168380
832.041	0.0167764
832.119	0.0166228
832.197	0.0167676
832.275	0.0168833
832.353	0.0168822
832.432	0.0168868
832.510	0.0168004
832.588	0.0168952
832.666	0.0167419
832.744	0.0167133
832.822	0.0167995
832.900	0.0167399
832.978	0.0166229
833.057	0.0166733
833.135	0.0165730
833.213	0.0166501
833.291	0.0166883
833.369	0.0165755
833.447	0.0166168
833.525	0.0166529
833.603	0.0165653
833.682	0.0164700
833.760	0.0166937
833.838	0.0168438
833.916	0.0168288
833.994	0.0167955
834.072	0.0167405
834.150	0.0167297
834.228	0.0165916
834.307	0.0167607
834.385	0.0168618
834.463	0.0167186
834.541	0.0167145
834.619	0.0166422
834.697	0.0165867
834.775	0.0166858
834.853	0.0166838
834.932	0.0166275
835.010	0.0167439
835.088	0.0166468
835.166	0.0166969
835.244	0.0167133
835.322	0.0168791
835.400	0.0167200
835.478	0.0165903
835.557	0.0167789
835.635	0.0167020
835.713	0.0166965
835.791	0.0168716
835.869	0.0165853
835.947	0.0166508
836.025	0.0167301
836.103	0.0167367
836.182	0.0166249
836.260	0.0166142
836.338	0.0166006
836.416	0.0164346
836.494	0.0163717
836.572	0.0165318
836.650	0.0163675
836.728	0.0161767
836.807	0.0163293
836.885	0.0163189
836.963	0.0163561
837.041	0.0162068
837.119	0.0163077
837.197	0.0163238
837.275	0.0162663
837.353	0.0162074
837.432	0.0162312
837.510	0.0161608
837.588	0.0161367
837.666	0.0163803
837.744	0.0163940
837.822	0.0163998
837.900	0.0163799
837.978	0.0163718
838.057	0.0163940
838.135	0.0165092
838.213	0.0164513
838.291	0.0166462
838.369	0.0165575
838.447	0.0164714
838.525	0.0165712
838.603	0.0165910
838.682	0.0167491
838.760	0.0166967
838.838	0.0165958
838.916	0.0167864
838.994	0.0167852
839.072	0.0166883
839.150	0.0168096
839.228	0.0168928
839.307	0.0167564
839.385	0.0169106
839.463	0.0168959
839.541	0.0168242
839.619	0.0167198
839.697	0.0170269
839.775	0.0169655
839.853	0.0168183
839.932	0.0168011
840.010	0.0166589
840.088	0.0167605
840.166	0.0166263
840.244	0.0165936
840.322	0.0167590
840.400	0.0163922
840.478	0.0165464
840.557	0.0164071
840.635	0.0162600
840.713	0.0164307
840.791	0.0162359
840.869	0.0162991
840.947	0.0162436
841.025	0.0161565
841.103	0.0161646
841.182	0.0160591
841.260	0.0161118
841.338	0.0159833
841.416	0.0160871
841.494	0.0161787
841.572	0.0161425
841.650	0.0160200
841.728	0.0160647
841.807	0.0163531
841.885	0.0161863
841.963	0.0163548
842.041	0.0163687
842.119	0.0163329
842.197	0.0163741
842.275	0.0165501
842.353	0.0164907
842.432	0.0165819
842.510	0.0166241
842.588	0.0165955
842.666	0.0167451
842.744	0.0167573
842.822	0.0166000
842.900	0.0167799
842.978	0.0167032
843.057	0.0166711
843.135	0.0167847
843.213	0.0168017
843.291	0.0167675
843.369	0.0167561
843.447	0.0166842
843.525	0.0169007
843.603	0.0167463
843.682	0.0167829
843.760	0.0168599
843.838	0.0167912
843.916	0.0168194
843.994	0.0168414
844.072	0.0167771
844.150	0.0167181
844.228	0.0167667
844.307	0.0166167
844.385	0.0164180
844.463	0.0166294
844.541	0.0166369
844.619	0.0164709
844.697	0.0164534
844.775	0.0164205
844.853	0.0164149
844.932	0.0164442
845.010	0.0163685
845.088	0.0164364
845.166	0.0166261
845.244	0.0165104
845.322	0.0165268
845.400	0.0167772
845.478	0.0166315
845.557	0.0166004
845.635	0.0167052
845.713	0.0166009
845.791	0.0165584
845.869	0.0165646
845.947	0.0164860
846.025	0.0164997
846.103	0.0163145
846.182	0.0164666
846.260	0.0164745
846.338	0.0163213
846.416	0.0163668
846.494	0.0162537
846.572	0.0162376
846.650	0.0161970
846.728	0.0162293
846.807	0.0162917
846.885	0.0163402
846.963	0.0163139
847.041	0.0162354
847.119	0.0163966
847.197	0.0164661
847.275	0.0166261
847.353	0.0166055
847.432	0.0166634
847.510	0.0168695
847.588	0.0167750
847.666	0.0169103
847.744	0.0168821
847.822	0.0170189
847.900	0.0169024
847.978	0.0169310
848.057	0.0169615
848.135	0.0170753
848.213	0.0169732
848.291	0.0169276
848.369	0.0170126
848.447	0.0169292
848.525	0.0168734
848.603	0.0168157
848.682	0.0167422
848.760	0.0168351
848.838	0.0167244
848.916	0.0168147
848.994	0.0166578
849.072	0.0166416
849.150	0.0166489
849.228	0.0165635
849.307	0.0165601
849.385	0.0165625
849.463	0.0164561
849.541	0.0165125
849.619	0.0165054
849.697	0.0166367
849.775	0.0165652
849.853	0.0166274
849.932	0.0164773
850.010	0.0165572
850.088	0.0167186
850.166	0.0165325
850.244	0.0166872
850.322	0.0165745
850.400	0.0167104
850.478	0.0167066
850.557	0.0167730
850.635	0.0165475
850.713	0.0166437
850.791	0.0167133
850.869	0.0169117
850.947	0.0168378
851.025	0.0166235
851.103	0.0167516
851.182	0.0168892
851.260	0.0166628
851.338	0.0168287
851.416	0.0166796
851.494	0.0167937
851.572	0.0165712
851.650	0.0165734
851.728	0.0166842
851.807	0.0165442
851.885	0.0164171
851.963	0.0163837
852.041	0.0164646
852.119	0.0164226
852.197	0.0163709
852.275	0.0163956
852.353	0.0163446
852.432	0.0164426
852.510	0.0163489
852.588	0.0162679
852.666	0.0164024
852.744	0.0164491
852.822	0.0163041
852.900	0.0164682
852.978	0.0164500
853.057	0.0164523
853.135	0.0164768
853.213	0.0164050
853.291	0.0165705
853.369	0.0167343
853.447	0.0166380
853.525	0.0166901
853.603	0.0166421
853.682	0.0167133
853.760	0.0168806
853.838	0.0167394
853.916	0.0168158
853.994	0.0169186
854.072	0.0168846
854.150	0.0170333
854.228	0.0170721
854.307	0.0170119
854.385	0.0169299
854.463	0.0171277
854.541	0.0169099
854.619	0.0171717
854.697	0.0169855
854.775	0.0169497
854.853	0.0170398
854.932	0.0169236
855.010	0.0169431
855.088	0.0168108
855.166	0.0168255
855.244	0.0168809
855.322	0.0167897
855.400	0.0168419
855.478	0.0167062
855.557	0.0166690
855.635	0.0166750
855.713	0.0166325
855.791	0.0165789
855.869	0.0166256
855.947	0.0165952
856.025	0.0165786
856.103	0.0166090
856.182	0.0164899
856.260	0.0164871
856.338	0.0166857
856.416	0.0167077
856.494	0.0165981
856.572	0.0166090
856.650	0.0167533
856.728	0.0166844
856.807	0.0165297
856.885	0.0165949
856.963	0.0165472
857.041	0.0165192
857.119	0.0165648
857.197	0.0164642
857.275	0.0163044
857.353	0.0163602
857.432	0.0163017
857.510	0.0163484
857.588	0.0163172
857.666	0.0162718
857.744	0.0165411
857.822	0.0163966
857.900	0.0162893
857.978	0.0163311
858.057	0.0163658
858.135	0.0165323
858.213	0.0162323
858.291	0.0163841
858.369	0.0165213
858.447	0.0164865
858.525	0.0165554
858.603	0.0165836
858.682	0.0166730
858.760	0.0166635
858.838	0.0167653
858.916	0.0166441
858.994	0.0166568
859.072	0.0167770
859.150	0.0168008
859.228	0.0168581
859.307	0.0167979
859.385	0.0168415
859.463	0.0167527
859.541	0.0165495
859.619	0.0166216
859.697	0.0166524
859.775	0.0166540
859.853	0.0165165
859.932	0.0164764
860.010	0.0166247
860.088	0.0165411
860.166	0.0165820
860.244	0.0166077
860.322	0.0164038
860.400	0.0165340
860.478	0.0163191
860.557	0.0164417
860.635	0.0165086
860.713	0.0165660
860.791	0.0164237
860.869	0.0165715
860.947	0.0166687
861.025	0.0165987
861.103	0.0165144
861.182	0.0165523
861.260	0.0164986
861.338	0.0164310
861.416	0.0166092
861.494	0.0167046
861.572	0.0166276
861.650	0.0164198
861.728	0.0164941
861.807	0.0164283
861.885	0.0163950
861.963	0.0163549
862.041	0.0163453
862.119	0.0164693
862.197	0.0164294
862.275	0.0165299
862.353	0.0165455
862.432	0.0166437
862.510	0.0166311
862.588	0.0167651
862.666	0.0166781
862.744	0.0168343
862.822	0.0168172
862.900	0.0167578
862.978	0.0169260
863.057	0.0168320
863.135	0.0166366
863.213	0.0166869
863.291	0.0166077
863.369	0.0165453
863.447	0.0165680
863.525	0.0163385
863.603	0.0162966
863.682	0.0163388
863.760	0.0161510
863.838	0.0161768
863.916	0.0161979
863.994	0.0161590
864.072	0.0161217
864.150	0.0161520
864.228	0.0161474
864.307	0.0162992
864.385	0.0162573
864.463	0.0162739
864.541	0.0163564
864.619	0.0164945
864.697	0.0164371
864.775	0.0165513
864.853	0.0165910
864.932	0.0166110
865.010	0.0165946
865.088	0.0165466
865.166	0.0166039
865.244	0.0165961
865.322	0.0166322
865.400	0.0166678
865.478	0.0166991
865.557	0.0165732
865.635	0.0167294
865.713	0.0165515
865.791	0.0165124
865.869	0.0165778
865.947	0.0165091
866.025	0.0166176
866.103	0.0165871
866.182	0.0163877
866.260	0.0165143
866.338	0.0165223
866.416	0.0164949
866.494	0.0167532
866.572	0.0164365
866.650	0.0165053
866.728	0.0166241
866.807	0.0166153
866.885	0.0165228
866.963	0.0166383
867.041	0.0165011
867.119	0.0165115
867.197	0.0167792
867.275	0.0166296
867.353	0.0165948
867.432	0.0167262
867.510	0.0164546
867.588	0.0164247
867.666	0.0164531
867.744	0.0165250
867.822	0.0163799
867.900	0.0162200
867.978	0.0162149
868.057	0.0161670
868.135	0.0162617
868.213	0.0161832
868.291	0.0162409
868.369	0.0163254
868.447	0.0163691
868.525	0.0163486
868.603	0.0164880
868.682	0.0165211
868.760	0.0165759
868.838	0.0167043
868.916	0.0166026
868.994	0.0165952
869.072	0.0166746
869.150	0.0168189
869.228	0.0167585
869.307	0.0167510
869.385	0.0167261
869.463	0.0166039
869.541	0.0164848
869.619	0.0165993
869.697	0.0166248
869.775	0.0165435
869.853	0.0165019
869.932	0.0164251
870.010	0.0163818
870.088	0.0163041
870.166	0.0163708
870.244	0.0162138
870.322	0.0161535
870.400	0.0161667
870.478	0.0162411
870.557	0.0162861
870.635	0.0163073
870.713	0.0163624
870.791	0.0165069
870.869	0.0165031
870.947	0.0166095
871.025	0.0167073
871.103	0.0166725
871.182	0.0168752
871.260	0.0168584
871.338	0.0167943
871.416	0.0168793
871.494	0.0169057
871.572	0.0166965
871.650	0.0167908
871.728	0.0167573
871.807	0.0166932
871.885	0.0168166
871.963	0.0166081
872.041	0.0164261
872.119	0.0165104
872.197	0.0164793
872.275	0.0164220
872.353	0.0163931
872.432	0.0162833
872.510	0.0163722
872.588	0.0164457
872.666	0.0164449
872.744	0.0164518
872.822	0.0166612
872.900	0.0165817
872.978	0.0166324
873.057	0.0166972
873.135	0.0166956
873.213	0.0168584
873.291	0.0168781
873.369	0.0167291
873.447	0.0167356
873.525	0.0169692
873.603	0.0168660
873.682	0.0168806
873.760	0.0169014
873.838	0.0168659
873.916	0.0168074
873.994	0.0167260
874.072	0.0166716
874.150	0.0166965
874.228	0.0165370
874.307	0.0164429
874.385	0.0164266
874.463	0.0164724
874.541	0.0163777
874.619	0.0164381
874.697	0.0164034
874.775	0.0163194
874.853	0.0162216
874.932	0.0162968
875.010	0.0164407
875.088	0.0163226
875.166	0.0164910
875.244	0.0165417
875.322	0.0163650
875.400	0.0163846
875.478	0.0164154
875.557	0.0163723
875.635	0.0166061
875.713	0.0165971
875.791	0.0165290
875.869	0.0164457
875.947	0.0164607
876.025	0.0163954
876.103	0.0163376
876.182	0.0162971
876.260	0.0163567
876.338	0.0164402
876.416	0.0163382
876.494	0.0162575
876.572	0.0161734
876.650	0.0162292
876.728	0.0163664
876.807	0.0164426
876.885	0.0164591
876.963	0.0165289
877.041	0.0166219
877.119	0.0166695
877.197	0.0167719
877.275	0.0169604
877.353	0.0166980
877.432	0.0168929
877.510	0.0170587
877.588	0.0170242
877.666	0.0170382
877.744	0.0170647
877.822	0.0170021
877.900	0.0170309
877.978	0.0169945
878.057	0.0169922
878.135	0.0167156
878.213	0.0168661
878.291	0.0168015
878.369	0.0166747
878.447	0.0165831
878.525	0.0167056
878.603	0.0165461
878.682	0.0164507
878.760	0.0164379
878.838	0.0163288
878.916	0.0163352
878.994	0.0166402
879.072	0.0164037
879.150	0.0164746
879.228	0.0164864
879.307	0.0164754
879.385	0.0165734
879.463	0.0165160
879.541	0.0163579
879.619	0.0164940
879.697	0.0164470
879.775	0.0164034
879.853	0.0164965
879.932	0.0164174
880.010	0.0164215
880.088	0.0162903
880.166	0.0164503
880.244	0.0164874
880.322	0.0164053
880.400	0.0163709
880.478	0.0164348
880.557	0.0164192
880.635	0.0164279
880.713	0.0163637
880.791	0.0165125
880.869	0.0164306
880.947	0.0164836
881.025	0.0165560
881.103	0.0165351
881.182	0.0166804
881.260	0.0167577
881.338	0.0168854
881.416	0.0169427
881.494	0.0168219
881.572	0.0168509
881.650	0.0170210
881.728	0.0168652
881.807	0.0168817
881.885	0.0169266
881.963	0.0169621
882.041	0.0168134
882.119	0.0168300
882.197	0.0169081
882.275	0.0168025
882.353	0.0167465
882.432	0.0167637
882.510	0.0167315
882.588	0.0165389
882.666	0.0167365
882.744	0.0166015
882.822	0.0165922
882.900	0.0165625
882.978	0.0164259
883.057	0.0165318
883.135	0.0165276
883.213	0.0164633
883.291	0.0165083
883.369	0.0164426
883.447	0.0165984
883.525	0.0165575
883.603	0.0165334
883.682	0.0165796
883.760	0.0165239
883.838	0.0164984
883.916	0.0166639
883.994	0.0167419
884.072	0.0165957
884.150	0.0166389
884.228	0.0166521
884.307	0.0165096
884.385	0.0166202
884.463	0.0165620
884.541	0.0166434
884.619	0.0164830
884.697	0.0164244
884.775	0.0163763
884.853	0.0164629
884.932	0.0165605
885.010	0.0165804
885.088	0.0165667
885.166	0.0166135
885.244	0.0165579
885.322	0.0166517
885.400	0.0165976
885.478	0.0165176
885.557	0.0165472
885.635	0.0165345
885.713	0.0165611
885.791	0.0166194
885.869	0.0165075
885.947	0.0166413
886.025	0.0166015
886.103	0.0167632
886.182	0.0167728
886.260	0.0167427
886.338	0.0167493
886.416	0.0168225
886.494	0.0168508
886.572	0.0168213
886.650	0.0168449
886.728	0.0167860
886.807	0.0166715
886.885	0.0167568
886.963	0.0168069
887.041	0.0166041
887.119	0.0166892
887.197	0.0165746
887.275	0.0164809
887.353	0.0164137
887.432	0.0164383
887.510	0.0163720
887.588	0.0164488
887.666	0.0163202
887.744	0.0163356
887.822	0.0164883
887.900	0.0163760
887.978	0.0164286
888.057	0.0165617
888.135	0.0165191
888.213	0.0165861
888.291	0.0164633
888.369	0.0164264
888.447	0.0166464
888.525	0.0165428
888.603	0.0165819
888.682	0.0165932
888.760	0.0166301
888.838	0.0166792
888.916	0.0167599
888.994	0.0167573
889.072	0.0167168
889.150	0.0166667
889.228	0.0166441
889.307	0.0166398
889.385	0.0165815
889.463	0.0166537
889.541	0.0166285
889.619	0.0165448
889.697	0.0166188
889.775	0.0166344
889.853	0.0165011
889.932	0.0165608
890.010	0.0167761
890.088	0.0167928
890.166	0.0166814
890.244	0.0165571
890.322	0.0166486
890.400	0.0167374
890.478	0.0166290
890.557	0.0166541
890.635	0.0167896
890.713	0.0167126
890.791	0.0166486
890.869	0.0165926
890.947	0.0165397
891.025	0.0164771
891.103	0.0165274
891.182	0.0165594
891.260	0.0165768
891.338	0.0164841
891.416	0.0164230
891.494	0.0164063
891.572	0.0163367
891.650	0.0165216
891.728	0.0164836
891.807	0.0162249
891.885	0.0162473
891.963	0.0164185
892.041	0.0164341
892.119	0.0164120
892.197	0.0164182
892.275	0.0164136
892.353	0.0165027
892.432	0.0164254
892.510	0.0164513
892.588	0.0164494
892.666	0.0165240
892.744	0.0166058
892.822	0.0165194
892.900	0.0165685
892.978	0.0165081
893.057	0.0166861
893.135	0.0165812
893.213	0.0165895
893.291	0.0166570
893.369	0.0165103
893.447	0.0164972
893.525	0.0165281
893.603	0.0166066
893.682	0.0163403
893.760	0.0165207
893.838	0.0166055
893.916	0.0164231
893.994	0.0164732
894.072	0.0163682
894.150	0.0164998
894.228	0.0164453
894.307	0.0165146
894.385	0.0165349
894.463	0.0166576
894.541	0.0165594
894.619	0.0165999
894.697	0.0165908
894.775	0.0166035
894.853	0.0167426
894.932	0.0166287
895.010	0.0165331
895.088	0.0165136
895.166	0.0164856
895.244	0.0165324
895.322	0.0165978
895.400	0.0165179
895.478	0.0164285
895.557	0.0165233
895.635	0.0164658
895.713	0.0164516
895.791	0.0164819
895.869	0.0165263
895.947	0.0164394
896.025	0.0164280
896.103	0.0164261
896.182	0.0165784
896.260	0.0165538
896.338	0.0165684
896.416	0.0165937
896.494	0.0167626
896.572	0.0167538
896.650	0.0166317
896.728	0.0166370
896.807	0.0166496
896.885	0.0167306
896.963	0.0167410
897.041	0.0167022
897.119	0.0166333
897.197	0.0166961
897.275	0.0166579
897.353	0.0166412
897.432	0.0166109
897.510	0.0165323
897.588	0.0165389
897.666	0.0164935
897.744	0.0163866
897.822	0.0163805
897.900	0.0165107
897.978	0.0165660
898.057	0.0163972
898.135	0.0163869
898.213	0.0164727
898.291	0.0163531
898.369	0.0165225
898.447	0.0164152
898.525	0.0164294
898.603	0.0164291
898.682	0.0163325
898.760	0.0165190
898.838	0.0165000
898.916	0.0165737
898.994	0.0163862
899.072	0.0165041
899.150	0.0164734
899.228	0.0163398
899.307	0.0163954
899.385	0.0163171
899.463	0.0163483
899.541	0.0164653
899.619	0.0164465
899.697	0.0164293
899.775	0.0163756
899.853	0.0163688
899.932	0.0164122
900.010	0.0164292
900.088	0.0163094
900.166	0.0164437
900.244	0.0163175
900.322	0.0163524
900.400	0.0164359
900.478	0.0165641
900.557	0.0163486
900.635	0.0165182
900.713	0.0166132
900.791	0.0166187
900.869	0.0166991
900.947	0.0167201
901.025	0.0166769
901.103	0.0167194
901.182	0.0166772
901.260	0.0167445
901.338	0.0167175
901.416	0.0168881
901.494	0.0168108
901.572	0.0167446
901.650	0.0167825
901.728	0.0167883
901.807	0.0168311
901.885	0.0168524
901.963	0.0168253
902.041	0.0167497
902.119	0.0166573
902.197	0.0167690
902.275	0.0166625
902.353	0.0168268
902.432	0.0165438
902.510	0.0166963
902.588	0.0166398
902.666	0.0168318
902.744	0.0166546
902.822	0.0167426
902.900	0.0167321
902.978	0.0166562
903.057	0.0166463
903.135	0.0167362
903.213	0.0167401
903.291	0.0165865
903.369	0.0165446
903.447	0.0165479
903.525	0.0166761
903.603	0.0167213
903.682	0.0165565
903.760	0.0164767
903.838	0.0165066
903.916	0.0165831
903.994	0.0164764
904.072	0.0164565
904.150	0.0164323
904.228	0.0164970
904.307	0.0165237
904.385	0.0163792
904.463	0.0165025
904.541	0.0164012
904.619	0.0163209
904.697	0.0163438
904.775	0.0163757
904.853	0.0163797
904.932	0.0163001
905.010	0.0164536
905.088	0.0164223
905.166	0.0166393
905.244	0.0164775
905.322	0.0165228
905.400	0.0164539
905.478	0.0165343
905.557	0.0168635
905.635	0.0166833
905.713	0.0167113
905.791	0.0166466
905.869	0.0166837
905.947	0.0167151
906.025	0.0166159
906.103	0.0167434
906.182	0.0166457
906.260	0.0167636
906.338	0.0167896
906.416	0.0167880
906.494	0.0166695
906.572	0.0167594
906.650	0.0167265
906.728	0.0167329
906.807	0.0166652
906.885	0.0166753
906.963	0.0168382
907.041	0.0167783
907.119	0.0166668
907.197	0.0166643
907.275	0.0168260
907.353	0.0167612
907.432	0.0167142
907.510	0.0167677
907.588	0.0168563
907.666	0.0166847
907.744	0.0167202
907.822	0.0168139
907.900	0.0167793
907.978	0.0167532
908.057	0.0167693
908.135	0.0168081
908.213	0.0168108
908.291	0.0167938
908.369	0.0167024
908.447	0.0168298
908.525	0.0167525
908.603	0.0165392
908.682	0.0167569
908.760	0.0168320
908.838	0.0168623
908.916	0.0166702
908.994	0.0166997
909.072	0.0167590
909.150	0.0166338
909.228	0.0167929
909.307	0.0167377
909.385	0.0165688
909.463	0.0167448
909.541	0.0167186
909.619	0.0166835
909.697	0.0165810
909.775	0.0165658
909.853	0.0165385
909.932	0.0165454
910.010	0.0165984
910.088	0.0164146
910.166	0.0164701
910.244	0.0165414
910.322	0.0164998
910.400	0.0164999
910.478	0.0163825
910.557	0.0164993
910.635	0.0163429
910.713	0.0164285
910.791	0.0163412
910.869	0.0163280
910.947	0.0164277
911.025	0.0164114
911.103	0.0163928
911.182	0.0163454
911.260	0.0164402
911.338	0.0164701
911.416	0.0164211
911.494	0.0165120
911.572	0.0163976
911.650	0.0164604
911.728	0.0163330
911.807	0.0164602
911.885	0.0164850
911.963	0.0166599
912.041	0.0166338
912.119	0.0166032
912.197	0.0167087
912.275	0.0167725
912.353	0.0167467
912.432	0.0166293
912.510	0.0166497
912.588	0.0166429
912.666	0.0167635
912.744	0.0166064
912.822	0.0167744
912.900	0.0167355
912.978	0.0168269
913.057	0.0167687
913.135	0.0168057
913.213	0.0168274
913.291	0.0168613
913.369	0.0168187
913.447	0.0167790
913.525	0.0168502
913.603	0.0168119
913.682	0.0167904
913.760	0.0167272
913.838	0.0169533
913.916	0.0168009
913.994	0.0167578
914.072	0.0168230
914.150	0.0169940
914.228	0.0168719
914.307	0.0167229
914.385	0.0169308
914.463	0.0168230
914.541	0.0167973
914.619	0.0168138
914.697	0.0168723
914.775	0.0169817
914.853	0.0167884
914.932	0.0167876
915.010	0.0166921
915.088	0.0167073
915.166	0.0167735
915.244	0.0165936
915.322	0.0168102
915.400	0.0166399
915.478	0.0165343
915.557	0.0165445
915.635	0.0165398
915.713	0.0164808
915.791	0.0164680
915.869	0.0163943
915.947	0.0164845
916.025	0.0163560
916.103	0.0163521
916.182	0.0162619
916.260	0.0161803
916.338	0.0162831
916.416	0.0161724
916.494	0.0160840
916.572	0.0161606
916.650	0.0162141
916.728	0.0163930
916.807	0.0162832
916.885	0.0160681
916.963	0.0163123
917.041	0.0161997
917.119	0.0162526
917.197	0.0164077
917.275	0.0162200
917.353	0.0163131
917.432	0.0164375
917.510	0.0163919
917.588	0.0164417
917.666	0.0164326
917.744	0.0165200
917.822	0.0165972
917.900	0.0165094
917.978	0.0164963
918.057	0.0164814
918.135	0.0166103
918.213	0.0165948
918.291	0.0166729
918.369	0.0165568
918.447	0.0164999
918.525	0.0166136
918.603	0.0166529
918.682	0.0163589
918.760	0.0165611
918.838	0.0165652
918.916	0.0164109
918.994	0.0164330
919.072	0.0164377
919.150	0.0164480
919.228	0.0164867
919.307	0.0163596
919.385	0.0163136
919.463	0.0165609
919.541	0.0164975
919.619	0.0164803
919.697	0.0164622
919.775	0.0165413
919.853	0.0164925
919.932	0.0166576
920.010	0.0166238
920.088	0.0166360
920.166	0.0165115
920.244	0.0165943
920.322	0.0166737
920.400	0.0167073
920.478	0.0166682
920.557	0.0165526
920.635	0.0166324
920.713	0.0165413
920.791	0.0165844
920.869	0.0166068
920.947	0.0166077
921.025	0.0166547
921.103	0.0164964
921.182	0.0164429
921.260	0.0163780
921.338	0.0164184
921.416	0.0163765
921.494	0.0162430
921.572	0.0162949
921.650	0.0162830
921.728	0.0163873
921.807	0.0162266
921.885	0.0161962
921.963	0.0162339
922.041	0.0162714
922.119	0.0162853
922.197	0.0162381
922.275	0.0163905
922.353	0.0163413
922.432	0.0164709
922.510	0.0165344
922.588	0.0164199
922.666	0.0163423
922.744	0.0165695
922.822	0.0164413
922.900	0.0163096
922.978	0.0165456
923.057	0.0165836
923.135	0.0165318
923.213	0.0164308
923.291	0.0163335
923.369	0.0164017
923.447	0.0163840
923.525	0.0163829
923.603	0.0162140
923.682	0.0162182
923.760	0.0162529
923.838	0.0161953
923.916	0.0162511
923.994	0.0162839
924.072	0.0162721
924.150	0.0163214
924.228	0.0163632
924.307	0.0164394
924.385	0.0165900
924.463	0.0166814
924.541	0.0164098
924.619	0.0164400
924.697	0.0164834
924.775	0.0164549
924.853	0.0165910
924.932	0.0165704
925.010	0.0165751
925.088	0.0166424
925.166	0.0167040
925.244	0.0165091
925.322	0.0165202
925.400	0.0165728
925.478	0.0166013
925.557	0.0165926
925.635	0.0167010
925.713	0.0167097
925.791	0.0166738
925.869	0.0167909
925.947	0.0167102
926.025	0.0167348
926.103	0.0167027
926.182	0.0166940
926.260	0.0166965
926.338	0.0166209
926.416	0.0165755
926.494	0.0165413
926.572	0.0165485
926.650	0.0164945
926.728	0.0165302
926.807	0.0164606
926.885	0.0164648
926.963	0.0164594
927.041	0.0164172
927.119	0.0164280
927.197	0.0166147
927.275	0.0165374
927.353	0.0166607
927.432	0.0168449
927.510	0.0168298
927.588	0.0167809
927.666	0.0168919
927.744	0.0167757
927.822	0.0167975
927.900	0.0165560
927.978	0.0166042
928.057	0.0166132
928.135	0.0166213
928.213	0.0165481
928.291	0.0164974
928.369	0.0164762
928.447	0.0165686
928.525	0.0165096
928.603	0.0163622
928.682	0.0164260
928.760	0.0165329
928.838	0.0165303
928.916	0.0165540
928.994	0.0166960
929.072	0.0164850
929.150	0.0163912
929.228	0.0165147
929.307	0.0163992
929.385	0.0164523
929.463	0.0163828
929.541	0.0164887
929.619	0.0165311
929.697	0.0164013
929.775	0.0164799
929.853	0.0163925
929.932	0.0165353
930.010	0.0163266
930.088	0.0166483
930.166	0.0165860
930.244	0.0163924
930.322	0.0166305
930.400	0.0166171
930.478	0.0166129
930.557	0.0166479
930.635	0.0165709
930.713	0.0166501
930.791	0.0167033
930.869	0.0166648
930.947	0.0166932
931.025	0.0166212
931.103	0.0166480
931.182	0.0167052
931.260	0.0165855
931.338	0.0166582
931.416	0.0166962
931.494	0.0167972
931.572	0.0166938
931.650	0.0167025
931.728	0.0167321
931.807	0.0166833
931.885	0.0166876
931.963	0.0166872
932.041	0.0167726
932.119	0.0167607
932.197	0.0168195
932.275	0.0167310
932.353	0.0168213
932.432	0.0168299
932.510	0.0167918
932.588	0.0168159
932.666	0.0168018
932.744	0.0167381
932.822	0.0167292
932.900	0.0166971
932.978	0.0167483
933.057	0.0167393
933.135	0.0165977
933.213	0.0166685
933.291	0.0166289
933.369	0.0166177
933.447	0.0165496
933.525	0.0166943
933.603	0.0165054
933.682	0.0165499
933.760	0.0166789
933.838	0.0164222
933.916	0.0165813
933.994	0.0165505
934.072	0.0166497
934.150	0.0166552
934.228	0.0166631
934.307	0.0166174
934.385	0.0167209
934.463	0.0165437
934.541	0.0166063
934.619	0.0164587
934.697	0.0166548
934.775	0.0166129
934.853	0.0165865
934.932	0.0166498
935.010	0.0164975
935.088	0.0166002
935.166	0.0166504
935.244	0.0165936
935.322	0.0165339
935.400	0.0165523
935.478	0.0165406
935.557	0.0164578
935.635	0.0164394
935.713	0.0165071
935.791	0.0163903
935.869	0.0165858
935.947	0.0165186
936.025	0.0165125
936.103	0.0164751
936.182	0.0165479
936.260	0.0164603
936.338	0.0164846
936.416	0.0165042
936.494	0.0165894
936.572	0.0164026
936.650	0.0164655
936.728	0.0166125
936.807	0.0165684
936.885	0.0166657
936.963	0.0166212
937.041	0.0166613
937.119	0.0166425
937.197	0.0167822
937.275	0.0166212
937.353	0.0165147
937.432	0.0164967
937.510	0.0164792
937.588	0.0166735
937.666	0.0164459
937.744	0.0164678
937.822	0.0164915
937.900	0.0165019
937.978	0.0165157
938.057	0.0163325
938.135	0.0165665
938.213	0.0165197
938.291	0.0164719
938.369	0.0165997
938.447	0.0164406
938.525	0.0164333
938.603	0.0166327
938.682	0.0166038
938.760	0.0166323
938.838	0.0166974
938.916	0.0165804
938.994	0.0167572
939.072	0.0168009
939.150	0.0167026
939.228	0.0166790
939.307	0.0165791
939.385	0.0166972
939.463	0.0167664
939.541	0.0166693
939.619	0.0166464
939.697	0.0167245
939.775	0.0165235
939.853	0.0165900
939.932	0.0167461
940.010	0.0165414
940.088	0.0164874
940.166	0.0164970
940.244	0.0165581
940.322	0.0166272
940.400	0.0165640
940.478	0.0164883
940.557	0.0165514
940.635	0.0165169
940.713	0.0165051
940.791	0.0165746
940.869	0.0165327
940.947	0.0165093
941.025	0.0165647
941.103	0.0163246
941.182	0.0163825
941.260	0.0163345
941.338	0.0165443
941.416	0.0165694
941.494	0.0163646
941.572	0.0164763
941.650	0.0166331
941.728	0.0163589
941.807	0.0163685
941.885	0.0164606
941.963	0.0164291
942.041	0.0164784
942.119	0.0164417
942.197	0.0163528
942.275	0.0165007
942.353	0.0164619
942.432	0.0164533
942.510	0.0164746
942.588	0.0165631
942.666	0.0165850
942.744	0.0165755
942.822	0.0165293
942.900	0.0164301
942.978	0.0166042
943.057	0.0165951
943.135	0.0165847
943.213	0.0164442
943.291	0.0165765
943.369	0.0165109
943.447	0.0165871
943.525	0.0165547
943.603	0.0165531
943.682	0.0165166
943.760	0.0166081
943.838	0.0166802
943.916	0.0166328
943.994	0.0164635
944.072	0.0164494
944.150	0.0165223
944.228	0.0166863
944.307	0.0165836
944.385	0.0165838
944.463	0.0166222
944.541	0.0165567
944.619	0.0165960
944.697	0.0167111
944.775	0.0166923
944.853	0.0165191
944.932	0.0166045
945.010	0.0166101
945.088	0.0167181
945.166	0.0164964
945.244	0.0167035
945.322	0.0165717
945.400	0.0165836
945.478	0.0165536
945.557	0.0164436
945.635	0.0164590
945.713	0.0164290
945.791	0.0163914
945.869	0.0163413
945.947	0.0162757
946.025	0.0163690
946.103	0.0164661
946.182	0.0163936
946.260	0.0165303
946.338	0.0164562
946.416	0.0165134
946.494	0.0166457
946.572	0.0165237
946.650	0.0164631
946.728	0.0165924
946.807	0.0165883
946.885	0.0166591
946.963	0.0165510
947.041	0.0165697
947.119	0.0164010
947.197	0.0164700
947.275	0.0165747
947.353	0.0166450
947.432	0.0167485
947.510	0.0164776
947.588	0.0166076
947.666	0.0165767
947.744	0.0166048
947.822	0.0166129
947.900	0.0165643
947.978	0.0164877
948.057	0.0165231
948.135	0.0164822
948.213	0.0165397
948.291	0.0164773
948.369	0.0165397
948.447	0.0165836
948.525	0.0164782
948.603	0.0165536
948.682	0.0164170
948.760	0.0165156
948.838	0.0164741
948.916	0.0164682
948.994	0.0164931
949.072	0.0164874
949.150	0.0164928
949.228	0.0164346
949.307	0.0164681
949.385	0.0165382
949.463	0.0165675
949.541	0.0165346
949.619	0.0165647
949.697	0.0165668
949.775	0.0166084
949.853	0.0165314
949.932	0.0166974
950.010	0.0165205
950.088	0.0165219
950.166	0.0166031
950.244	0.0166155
950.322	0.0166830
950.400	0.0167210
950.478	0.0166555
950.557	0.0165449
950.635	0.0165871
950.713	0.0165276
950.791	0.0166412
950.869	0.0165013
950.947	0.0166215
951.025	0.0166268
951.103	0.0165790
951.182	0.0168108
951.260	0.0165675
951.338	0.0165923
951.416	0.0164748
951.494	0.0165738
951.572	0.0165083
951.650	0.0167406
951.728	0.0166089
951.807	0.0164671
951.885	0.0167290
951.963	0.0165326
952.041	0.0165887
952.119	0.0166401
952.197	0.0165871
952.275	0.0165038
952.353	0.0165567
952.432	0.0166140
952.510	0.0166339
952.588	0.0165314
952.666	0.0164935
952.744	0.0165329
952.822	0.0164334
952.900	0.0164764
952.978	0.0164956
953.057	0.0164304
953.135	0.0163440
953.213	0.0163443
953.291	0.0164771
953.369	0.0164117
953.447	0.0163161
953.525	0.0164172
953.603	0.0163120
953.682	0.0163474
953.760	0.0164728
953.838	0.0164593
953.916	0.0164877
953.994	0.0163586
954.072	0.0165387
954.150	0.0164344
954.228	0.0164626
954.307	0.0164898
954.385	0.0166014
954.463	0.0165010
954.541	0.0165940
954.619	0.0167509
954.697	0.0165506
954.775	0.0165882
954.853	0.0166702
954.932	0.0166054
955.010	0.0166602
955.088	0.0166174
955.166	0.0166206
955.244	0.0166635
955.322	0.0167702
955.400	0.0167247
955.478	0.0165073
955.557	0.0167108
955.635	0.0167356
955.713	0.0166867
955.791	0.0165719
955.869	0.0165558
955.947	0.0165720
956.025	0.0166431
956.103	0.0166206
956.182	0.0166619
956.260	0.0165841
956.338	0.0164905
956.416	0.0164341
956.494	0.0166685
956.572	0.0166184
956.650	0.0163590
956.728	0.0165691
956.807	0.0166302
956.885	0.0166371
956.963	0.0165565
957.041	0.0166346
957.119	0.0167361
957.197	0.0166843
957.275	0.0167744
957.353	0.0166165
957.432	0.0166809
957.510	0.0167445
957.588	0.0166264
957.666	0.0166249
957.744	0.0165054
957.822	0.0165569
957.900	0.0166634
957.978	0.0164906
958.057	0.0165723
958.135	0.0164983
958.213	0.0166262
958.291	0.0165784
958.369	0.0164590
958.447	0.0164881
958.525	0.0162899
958.603	0.0163716
958.682	0.0165306
958.760	0.0164509
958.838	0.0165112
958.916	0.0164664
958.994	0.0164925
959.072	0.0164874
959.150	0.0165303
959.228	0.0165488
959.307	0.0164249
959.385	0.0165112
959.463	0.0166158
959.541	0.0164563
959.619	0.0164104
959.697	0.0164909
959.775	0.0164420
959.853	0.0164710
959.932	0.0166061
960.010	0.0166447
960.088	0.0165868
960.166	0.0165424
960.244	0.0166105
960.322	0.0165511
960.400	0.0165513
960.478	0.0166543
960.557	0.0167540
960.635	0.0166209
960.713	0.0167393
960.791	0.0166831
960.869	0.0166733
960.947	0.0167149
961.025	0.0165944
961.103	0.0167933
961.182	0.0167070
961.260	0.0166744
961.338	0.0165460
961.416	0.0165989
961.494	0.0165685
961.572	0.0166691
961.650	0.0166338
961.728	0.0164787
961.807	0.0164780
961.885	0.0165461
961.963	0.0164070
962.041	0.0165015
962.119	0.0165010
962.197	0.0164445
962.275	0.0165878
962.353	0.0164564
962.432	0.0164380
962.510	0.0165823
962.588	0.0165169
962.666	0.0165419
962.744	0.0166264
962.822	0.0165587
962.900	0.0166260
962.978	0.0165989
963.057	0.0166978
963.135	0.0166887
963.213	0.0166959
963.291	0.0164965
963.369	0.0165882
963.447	0.0166657
963.525	0.0165543
963.603	0.0165784
963.682	0.0166753
963.760	0.0167621
963.838	0.0166546
963.916	0.0165549
963.994	0.0166134
964.072	0.0165781
964.150	0.0165867
964.228	0.0164584
964.307	0.0164536
964.385	0.0164147
964.463	0.0165655
964.541	0.0166403
964.619	0.0164565
964.697	0.0165720
964.775	0.0165862
964.853	0.0164929
964.932	0.0166015
965.010	0.0164638
965.088	0.0166031
965.166	0.0164510
965.244	0.0165599
965.322	0.0165897
965.400	0.0166302
965.478	0.0166542
965.557	0.0165558
965.635	0.0165749
965.713	0.0165989
965.791	0.0165314
965.869	0.0167236
965.947	0.0167086
966.025	0.0165993
966.103	0.0165147
966.182	0.0165255
966.260	0.0166219
966.338	0.0165238
966.416	0.0165005
966.494	0.0164700
966.572	0.0165160
966.650	0.0163937
966.728	0.0164160
966.807	0.0166581
966.885	0.0164644
966.963	0.0164637
967.041	0.0164889
967.119	0.0166833
967.197	0.0165432
967.275	0.0166695
967.353	0.0165563
967.432	0.0167107
967.510	0.0167204
967.588	0.0166462
967.666	0.0167856
967.744	0.0166959
967.822	0.0167079
967.900	0.0167019
967.978	0.0167467
968.057	0.0165565
968.135	0.0166741
968.213	0.0167200
968.291	0.0165936
968.369	0.0166962
968.447	0.0167026
968.525	0.0166160
968.603	0.0166619
968.682	0.0165327
968.760	0.0164410
968.838	0.0166541
968.916	0.0165863
968.994	0.0165765
969.072	0.0165433
969.150	0.0165738
969.228	0.0164391
969.307	0.0164309
969.385	0.0164491
969.463	0.0164528
969.541	0.0165947
969.619	0.0165474
969.697	0.0165726
969.775	0.0165957
969.853	0.0164542
969.932	0.0165949
