06/10/2022	16:33:43	Ver.	4.1	UNKNOWN
Optical Delay	650.009681	Delta X		0.078125	Sweeps	1	Scan Rate	0/0
Coordinates	Axis 1	NaN	Axis 2	NaN	Axis 3	NaN	Axis 4	NaN	Axis 5	NaN	Axis 6	0.000000
TX Power	0.000000	RX Power	0.000000

650.010	0.0165023
650.088	0.0164270
650.166	0.0165524
650.244	0.0166617
650.322	0.0165988
650.400	0.0163708
650.478	0.0165102
650.557	0.0165533
650.635	0.0165536
650.713	0.0165730
650.791	0.0165466
650.869	0.0166208
650.947	0.0167303
651.025	0.0165408
651.103	0.0164297
651.182	0.0164880
651.260	0.0163593
651.338	0.0165467
651.416	0.0164336
651.494	0.0163727
651.572	0.0165820
651.650	0.0165513
651.728	0.0165388
651.807	0.0165151
651.885	0.0164976
651.963	0.0164383
652.041	0.0165774
652.119	0.0164809
652.197	0.0164696
652.275	0.0164598
652.353	0.0165489
652.432	0.0165955
652.510	0.0165862
652.588	0.0165478
652.666	0.0165727
652.744	0.0164743
652.822	0.0164303
652.900	0.0164384
652.978	0.0164286
653.057	0.0165085
653.135	0.0165691
653.213	0.0165256
653.291	0.0164216
653.369	0.0165247
653.447	0.0165776
653.525	0.0165173
653.603	0.0166559
653.682	0.0165833
653.760	0.0165550
653.838	0.0165778
653.916	0.0164674
653.994	0.0165333
654.072	0.0165555
654.150	0.0164666
654.228	0.0165452
654.307	0.0165417
654.385	0.0165128
654.463	0.0164169
654.541	0.0165512
654.619	0.0165334
654.697	0.0165314
654.775	0.0165730
654.853	0.0165176
654.932	0.0164890
655.010	0.0165133
655.088	0.0165260
655.166	0.0164764
655.244	0.0164544
655.322	0.0165264
655.400	0.0165231
655.478	0.0164674
655.557	0.0164225
655.635	0.0165964
655.713	0.0167105
655.791	0.0164853
655.869	0.0165145
655.947	0.0163973
656.025	0.0165154
656.103	0.0164395
656.182	0.0165686
656.260	0.0164897
656.338	0.0166014
656.416	0.0165849
656.494	0.0164822
656.572	0.0165572
656.650	0.0166004
656.728	0.0163298
656.807	0.0165614
656.885	0.0165432
656.963	0.0164953
657.041	0.0165313
657.119	0.0164740
657.197	0.0164462
657.275	0.0165096
657.353	0.0165911
657.432	0.0164696
657.510	0.0165077
657.588	0.0165398
657.666	0.0165453
657.744	0.0164479
657.822	0.0165249
657.900	0.0166210
657.978	0.0165627
658.057	0.0164352
658.135	0.0166404
658.213	0.0166009
658.291	0.0164892
658.369	0.0165452
658.447	0.0166228
658.525	0.0165034
658.603	0.0165585
658.682	0.0165194
658.760	0.0164217
658.838	0.0166376
658.916	0.0166553
658.994	0.0163860
659.072	0.0165621
659.150	0.0164557
659.228	0.0165230
659.307	0.0166318
659.385	0.0164517
659.463	0.0166927
659.541	0.0166048
659.619	0.0165835
659.697	0.0165247
659.775	0.0165216
659.853	0.0165746
659.932	0.0165939
660.010	0.0165376
660.088	0.0165767
660.166	0.0165662
660.244	0.0165004
660.322	0.0165361
660.400	0.0164636
660.478	0.0165942
660.557	0.0166099
660.635	0.0165517
660.713	0.0166239
660.791	0.0166010
660.869	0.0166106
660.947	0.0165227
661.025	0.0165013
661.103	0.0165344
661.182	0.0164827
661.260	0.0165920
661.338	0.0165471
661.416	0.0165902
661.494	0.0166015
661.572	0.0165865
661.650	0.0167056
661.728	0.0165921
661.807	0.0165913
661.885	0.0166116
661.963	0.0166633
662.041	0.0165658
662.119	0.0165389
662.197	0.0166585
662.275	0.0164603
662.353	0.0165778
662.432	0.0167624
662.510	0.0166911
662.588	0.0165827
662.666	0.0165771
662.744	0.0166232
662.822	0.0165025
662.900	0.0164426
662.978	0.0164644
663.057	0.0164654
663.135	0.0164517
663.213	0.0166346
663.291	0.0165304
663.369	0.0165823
663.447	0.0165635
663.525	0.0164725
663.603	0.0165639
663.682	0.0165919
663.760	0.0164824
663.838	0.0165534
663.916	0.0166223
663.994	0.0166168
664.072	0.0164076
664.150	0.0164360
664.228	0.0165882
664.307	0.0165265
664.385	0.0166509
664.463	0.0166530
664.541	0.0165574
664.619	0.0165216
664.697	0.0164632
664.775	0.0164753
664.853	0.0166840
664.932	0.0163731
665.010	0.0164697
665.088	0.0165929
665.166	0.0165446
665.244	0.0165710
665.322	0.0165257
665.400	0.0165412
665.478	0.0166228
665.557	0.0164204
665.635	0.0165413
665.713	0.0163861
665.791	0.0164850
665.869	0.0165301
665.947	0.0164264
666.025	0.0164727
666.103	0.0165532
666.182	0.0165321
666.260	0.0167236
666.338	0.0164304
666.416	0.0165279
666.494	0.0164206
666.572	0.0165150
666.650	0.0165488
666.728	0.0166619
666.807	0.0165232
666.885	0.0164261
666.963	0.0165043
667.041	0.0166049
667.119	0.0165514
667.197	0.0164935
667.275	0.0165176
667.353	0.0165382
667.432	0.0164671
667.510	0.0165383
667.588	0.0166122
667.666	0.0166152
667.744	0.0164590
667.822	0.0164777
667.900	0.0164949
667.978	0.0165360
668.057	0.0165726
668.135	0.0164855
668.213	0.0165137
668.291	0.0164481
668.369	0.0165018
668.447	0.0165910
668.525	0.0165182
668.603	0.0165163
668.682	0.0165559
668.760	0.0165298
668.838	0.0165711
668.916	0.0166597
668.994	0.0165075
669.072	0.0164861
669.150	0.0166250
669.228	0.0166170
669.307	0.0165354
669.385	0.0165698
669.463	0.0165601
669.541	0.0165755
669.619	0.0167111
669.697	0.0164667
669.775	0.0164750
669.853	0.0164575
669.932	0.0165436
670.010	0.0165392
670.088	0.0165424
670.166	0.0164320
670.244	0.0165711
670.322	0.0165067
670.400	0.0163915
670.478	0.0165045
670.557	0.0166241
670.635	0.0164742
670.713	0.0165622
670.791	0.0166351
670.869	0.0165504
670.947	0.0166470
671.025	0.0165411
671.103	0.0165462
671.182	0.0165896
671.260	0.0165495
671.338	0.0164539
671.416	0.0164771
671.494	0.0165858
671.572	0.0164771
671.650	0.0164465
671.728	0.0164588
671.807	0.0164757
671.885	0.0164013
671.963	0.0165774
672.041	0.0165582
672.119	0.0163983
672.197	0.0164913
672.275	0.0165598
672.353	0.0167603
672.432	0.0165669
672.510	0.0164734
672.588	0.0164763
672.666	0.0165434
672.744	0.0165555
672.822	0.0165850
672.900	0.0165932
672.978	0.0165932
673.057	0.0165120
673.135	0.0166384
673.213	0.0166050
673.291	0.0166332
673.369	0.0165772
673.447	0.0164468
673.525	0.0164609
673.603	0.0165414
673.682	0.0166111
673.760	0.0166495
673.838	0.0166037
673.916	0.0165950
673.994	0.0165877
674.072	0.0166140
674.150	0.0166235
674.228	0.0165868
674.307	0.0165720
674.385	0.0165110
674.463	0.0165871
674.541	0.0165778
674.619	0.0166774
674.697	0.0165718
674.775	0.0165395
674.853	0.0166103
674.932	0.0166297
675.010	0.0165097
675.088	0.0165757
675.166	0.0165762
675.244	0.0164294
675.322	0.0166089
675.400	0.0165573
675.478	0.0165392
675.557	0.0166176
675.635	0.0165694
675.713	0.0167172
675.791	0.0166045
675.869	0.0166900
675.947	0.0165570
676.025	0.0166193
676.103	0.0165849
676.182	0.0166734
676.260	0.0166502
676.338	0.0165141
676.416	0.0165476
676.494	0.0165675
676.572	0.0165276
676.650	0.0165853
676.728	0.0166204
676.807	0.0166840
676.885	0.0166809
676.963	0.0165090
677.041	0.0166547
677.119	0.0164172
677.197	0.0166825
677.275	0.0164880
677.353	0.0164667
677.432	0.0165897
677.510	0.0165281
677.588	0.0165602
677.666	0.0165204
677.744	0.0165930
677.822	0.0166908
677.900	0.0165404
677.978	0.0165417
678.057	0.0165343
678.135	0.0165677
678.213	0.0165669
678.291	0.0165562
678.369	0.0166325
678.447	0.0165412
678.525	0.0166154
678.603	0.0165771
678.682	0.0164470
678.760	0.0165069
678.838	0.0166848
678.916	0.0165140
678.994	0.0165842
679.072	0.0167165
679.150	0.0164386
679.228	0.0165216
679.307	0.0166270
679.385	0.0165823
679.463	0.0165267
679.541	0.0165639
679.619	0.0164963
679.697	0.0164995
679.775	0.0165661
679.853	0.0165922
679.932	0.0165042
680.010	0.0165473
680.088	0.0165166
680.166	0.0165020
680.244	0.0165103
680.322	0.0164167
680.400	0.0165766
680.478	0.0166125
680.557	0.0164866
680.635	0.0165540
680.713	0.0164394
680.791	0.0166448
680.869	0.0163874
680.947	0.0165342
681.025	0.0166317
681.103	0.0164299
681.182	0.0165823
681.260	0.0166000
681.338	0.0165518
681.416	0.0165701
681.494	0.0165361
681.572	0.0163930
681.650	0.0165196
681.728	0.0164812
681.807	0.0166444
681.885	0.0165224
681.963	0.0163816
682.041	0.0165708
682.119	0.0164782
682.197	0.0164764
682.275	0.0166591
682.353	0.0164771
682.432	0.0166399
682.510	0.0166140
682.588	0.0165513
682.666	0.0165659
682.744	0.0165254
682.822	0.0164227
682.900	0.0166069
682.978	0.0164337
683.057	0.0164730
683.135	0.0165637
683.213	0.0165353
683.291	0.0164483
683.369	0.0165585
683.447	0.0165497
683.525	0.0165412
683.603	0.0164640
683.682	0.0166203
683.760	0.0166376
683.838	0.0165145
683.916	0.0163959
683.994	0.0164720
684.072	0.0165357
684.150	0.0165662
684.228	0.0166023
684.307	0.0164539
684.385	0.0166924
684.463	0.0164349
684.541	0.0165316
684.619	0.0166425
684.697	0.0165828
684.775	0.0166252
684.853	0.0164674
684.932	0.0164632
685.010	0.0165273
685.088	0.0165369
685.166	0.0164790
685.244	0.0165364
685.322	0.0164607
685.400	0.0164163
685.478	0.0164797
685.557	0.0166310
685.635	0.0165447
685.713	0.0163941
685.791	0.0164628
685.869	0.0163923
685.947	0.0164655
686.025	0.0166921
686.103	0.0165512
686.182	0.0164740
686.260	0.0164813
686.338	0.0165106
686.416	0.0165253
686.494	0.0164959
686.572	0.0165072
686.650	0.0165663
686.728	0.0163680
686.807	0.0164937
686.885	0.0165602
686.963	0.0164913
687.041	0.0166054
687.119	0.0166973
687.197	0.0164505
687.275	0.0164916
687.353	0.0165326
687.432	0.0165527
687.510	0.0165629
687.588	0.0165483
687.666	0.0164532
687.744	0.0165321
687.822	0.0165056
687.900	0.0166100
687.978	0.0165147
688.057	0.0165208
688.135	0.0164648
688.213	0.0164903
688.291	0.0164236
688.369	0.0165494
688.447	0.0165479
688.525	0.0165253
688.603	0.0164220
688.682	0.0164076
688.760	0.0165588
688.838	0.0165651
688.916	0.0165091
688.994	0.0165975
689.072	0.0164827
689.150	0.0164550
689.228	0.0163377
689.307	0.0164639
689.385	0.0164779
689.463	0.0164423
689.541	0.0165879
689.619	0.0166559
689.697	0.0165490
689.775	0.0164711
689.853	0.0166525
689.932	0.0165408
690.010	0.0166496
690.088	0.0164694
690.166	0.0164880
690.244	0.0165594
690.322	0.0164841
690.400	0.0165308
690.478	0.0165649
690.557	0.0165293
690.635	0.0164463
690.713	0.0165845
690.791	0.0165562
690.869	0.0166109
690.947	0.0165491
691.025	0.0166744
691.103	0.0166219
691.182	0.0163943
691.260	0.0165284
691.338	0.0166040
691.416	0.0166729
691.494	0.0166116
691.572	0.0164848
691.650	0.0165334
691.728	0.0165639
691.807	0.0165183
691.885	0.0165305
691.963	0.0165464
692.041	0.0165213
692.119	0.0165205
692.197	0.0165707
692.275	0.0165816
692.353	0.0163645
692.432	0.0165229
692.510	0.0165207
692.588	0.0165729
692.666	0.0165269
692.744	0.0165728
692.822	0.0164421
692.900	0.0166257
692.978	0.0165346
693.057	0.0165723
693.135	0.0166618
693.213	0.0165779
693.291	0.0165297
693.369	0.0165562
693.447	0.0165762
693.525	0.0165720
693.603	0.0165440
693.682	0.0165954
693.760	0.0166135
693.838	0.0164328
693.916	0.0164995
693.994	0.0164805
694.072	0.0166609
694.150	0.0165483
694.228	0.0165994
694.307	0.0165192
694.385	0.0166085
694.463	0.0165916
694.541	0.0165746
694.619	0.0165698
694.697	0.0165707
694.775	0.0164172
694.853	0.0165723
694.932	0.0166425
695.010	0.0165130
695.088	0.0165739
695.166	0.0166202
695.244	0.0165653
695.322	0.0166155
695.400	0.0165647
695.478	0.0164605
695.557	0.0166978
695.635	0.0164984
695.713	0.0165614
695.791	0.0165667
695.869	0.0166414
695.947	0.0165092
696.025	0.0165833
696.103	0.0165996
696.182	0.0165971
696.260	0.0165321
696.338	0.0166132
696.416	0.0165614
696.494	0.0167648
696.572	0.0165613
696.650	0.0167240
696.728	0.0166277
696.807	0.0164122
696.885	0.0165903
696.963	0.0167330
697.041	0.0165331
697.119	0.0165202
697.197	0.0165864
697.275	0.0165122
697.353	0.0166536
697.432	0.0164217
697.510	0.0166344
697.588	0.0164847
697.666	0.0165271
697.744	0.0166389
697.822	0.0165411
697.900	0.0165092
697.978	0.0164426
698.057	0.0165612
698.135	0.0167216
698.213	0.0166088
698.291	0.0164993
698.369	0.0165189
698.447	0.0165906
698.525	0.0166435
698.603	0.0165471
698.682	0.0164909
698.760	0.0164984
698.838	0.0165937
698.916	0.0165136
698.994	0.0166405
699.072	0.0165422
699.150	0.0163649
699.228	0.0165614
699.307	0.0165735
699.385	0.0164503
699.463	0.0165810
699.541	0.0164948
699.619	0.0165971
699.697	0.0166251
699.775	0.0164254
699.853	0.0164177
699.932	0.0165521
700.010	0.0165736
700.088	0.0165968
700.166	0.0165170
700.244	0.0164807
700.322	0.0164822
700.400	0.0164792
700.478	0.0165769
700.557	0.0165018
700.635	0.0166153
700.713	0.0165647
700.791	0.0164851
700.869	0.0166531
700.947	0.0165192
701.025	0.0165152
701.103	0.0166013
701.182	0.0164114
701.260	0.0163780
701.338	0.0165482
701.416	0.0166297
701.494	0.0165886
701.572	0.0165946
701.650	0.0165874
701.728	0.0165889
701.807	0.0166261
701.885	0.0164942
701.963	0.0165419
702.041	0.0165029
702.119	0.0166859
702.197	0.0165121
702.275	0.0165627
702.353	0.0164592
702.432	0.0165298
702.510	0.0165479
702.588	0.0164933
702.666	0.0165282
702.744	0.0166679
702.822	0.0164568
702.900	0.0165750
702.978	0.0164819
703.057	0.0164374
703.135	0.0164333
703.213	0.0164853
703.291	0.0166698
703.369	0.0165665
703.447	0.0166161
703.525	0.0164796
703.603	0.0164588
703.682	0.0164969
703.760	0.0165090
703.838	0.0165016
703.916	0.0164357
703.994	0.0165324
704.072	0.0165953
704.150	0.0165231
704.228	0.0165867
704.307	0.0165888
704.385	0.0165042
704.463	0.0165270
704.541	0.0165704
704.619	0.0166273
704.697	0.0165183
704.775	0.0164323
704.853	0.0166553
704.932	0.0165131
705.010	0.0165336
705.088	0.0165432
705.166	0.0164345
705.244	0.0164780
705.322	0.0165314
705.400	0.0165141
705.478	0.0164751
705.557	0.0164729
705.635	0.0164931
705.713	0.0165675
705.791	0.0164511
705.869	0.0165810
705.947	0.0164600
706.025	0.0165350
706.103	0.0164551
706.182	0.0165540
706.260	0.0165688
706.338	0.0165715
706.416	0.0165051
706.494	0.0164906
706.572	0.0163173
706.650	0.0165838
706.728	0.0165352
706.807	0.0165007
706.885	0.0165879
706.963	0.0165763
707.041	0.0164759
707.119	0.0165310
707.197	0.0165609
707.275	0.0165417
707.353	0.0165260
707.432	0.0166324
707.510	0.0165726
707.588	0.0166265
707.666	0.0165490
707.744	0.0164159
707.822	0.0165971
707.900	0.0165462
707.978	0.0164926
708.057	0.0165392
708.135	0.0165282
708.213	0.0166157
708.291	0.0165703
708.369	0.0164605
708.447	0.0164520
708.525	0.0164651
708.603	0.0165030
708.682	0.0166631
708.760	0.0164965
708.838	0.0165784
708.916	0.0165340
708.994	0.0166090
709.072	0.0165705
709.150	0.0165016
709.228	0.0165886
709.307	0.0166098
709.385	0.0166856
709.463	0.0166531
709.541	0.0165831
709.619	0.0167400
709.697	0.0166569
709.775	0.0167771
709.853	0.0166736
709.932	0.0166914
710.010	0.0166941
710.088	0.0166516
710.166	0.0166747
710.244	0.0165269
710.322	0.0164820
710.400	0.0165491
710.478	0.0165202
710.557	0.0166946
710.635	0.0164856
710.713	0.0163818
710.791	0.0164686
710.869	0.0165725
710.947	0.0166736
711.025	0.0166624
711.103	0.0165125
711.182	0.0167337
711.260	0.0166544
711.338	0.0166520
711.416	0.0167371
711.494	0.0165806
711.572	0.0166811
711.650	0.0167974
711.728	0.0165807
711.807	0.0165373
711.885	0.0166470
711.963	0.0165282
712.041	0.0164272
712.119	0.0165023
712.197	0.0166176
712.275	0.0164725
712.353	0.0164562
712.432	0.0164671
712.510	0.0164901
712.588	0.0165259
712.666	0.0165346
712.744	0.0164175
712.822	0.0166209
712.900	0.0166114
712.978	0.0163863
713.057	0.0165328
713.135	0.0165727
713.213	0.0165538
713.291	0.0165112
713.369	0.0164871
713.447	0.0164900
713.525	0.0165428
713.603	0.0167284
713.682	0.0166544
713.760	0.0165742
713.838	0.0166660
713.916	0.0167180
713.994	0.0167298
714.072	0.0166456
714.150	0.0168015
714.228	0.0168191
714.307	0.0166331
714.385	0.0166857
714.463	0.0166076
714.541	0.0166038
714.619	0.0164637
714.697	0.0164945
714.775	0.0164143
714.853	0.0164191
714.932	0.0165017
715.010	0.0164494
715.088	0.0164513
715.166	0.0163161
715.244	0.0162282
715.322	0.0163354
715.400	0.0162863
715.478	0.0164590
715.557	0.0164093
715.635	0.0164277
715.713	0.0164618
715.791	0.0166702
715.869	0.0166087
715.947	0.0165887
716.025	0.0166350
716.103	0.0166068
716.182	0.0167787
716.260	0.0165336
716.338	0.0166312
716.416	0.0166892
716.494	0.0167167
716.572	0.0167836
716.650	0.0165999
716.728	0.0166588
716.807	0.0166216
716.885	0.0166537
716.963	0.0165393
717.041	0.0164272
717.119	0.0164841
717.197	0.0164058
717.275	0.0164346
717.353	0.0163571
717.432	0.0163876
717.510	0.0164223
717.588	0.0164692
717.666	0.0164442
717.744	0.0164845
717.822	0.0164277
717.900	0.0163679
717.978	0.0164475
718.057	0.0165887
718.135	0.0166061
718.213	0.0166280
718.291	0.0165113
718.369	0.0166361
718.447	0.0167017
718.525	0.0165976
718.603	0.0166623
718.682	0.0167655
718.760	0.0168132
718.838	0.0167142
718.916	0.0167962
718.994	0.0166142
719.072	0.0167361
719.150	0.0166085
719.228	0.0165997
719.307	0.0165482
719.385	0.0165186
719.463	0.0166022
719.541	0.0166555
719.619	0.0164729
719.697	0.0163522
719.775	0.0165022
719.853	0.0164923
719.932	0.0164539
720.010	0.0164693
720.088	0.0165028
720.166	0.0165096
720.244	0.0164677
720.322	0.0165746
720.400	0.0164402
720.478	0.0164449
720.557	0.0165599
720.635	0.0164938
720.713	0.0166385
720.791	0.0167041
720.869	0.0166530
720.947	0.0166164
721.025	0.0167284
721.103	0.0167027
721.182	0.0164335
721.260	0.0165750
721.338	0.0166284
721.416	0.0166271
721.494	0.0165115
721.572	0.0165031
721.650	0.0165285
721.728	0.0164590
721.807	0.0164660
721.885	0.0165164
721.963	0.0164770
722.041	0.0164530
722.119	0.0166019
722.197	0.0164702
722.275	0.0164361
722.353	0.0166370
722.432	0.0163466
722.510	0.0164696
722.588	0.0164211
722.666	0.0164880
722.744	0.0165039
722.822	0.0165693
722.900	0.0166684
722.978	0.0165466
723.057	0.0165533
723.135	0.0165341
723.213	0.0164042
723.291	0.0166825
723.369	0.0165500
723.447	0.0164328
723.525	0.0164391
723.603	0.0165281
723.682	0.0167104
723.760	0.0168159
723.838	0.0164083
723.916	0.0164892
723.994	0.0166919
724.072	0.0166593
724.150	0.0166062
724.228	0.0166033
724.307	0.0165484
724.385	0.0165344
724.463	0.0165405
724.541	0.0166380
724.619	0.0165482
724.697	0.0164745
724.775	0.0164355
724.853	0.0165130
724.932	0.0164344
725.010	0.0164566
725.088	0.0164686
725.166	0.0166223
725.244	0.0164411
725.322	0.0165358
725.400	0.0165272
725.478	0.0164398
725.557	0.0165353
725.635	0.0166419
725.713	0.0165623
725.791	0.0166433
725.869	0.0166873
725.947	0.0166141
726.025	0.0166521
726.103	0.0165170
726.182	0.0165415
726.260	0.0166325
726.338	0.0165499
726.416	0.0165827
726.494	0.0166382
726.572	0.0166283
726.650	0.0165202
726.728	0.0165303
726.807	0.0164228
726.885	0.0166454
726.963	0.0165930
727.041	0.0164521
727.119	0.0166195
727.197	0.0165360
727.275	0.0164426
727.353	0.0164014
727.432	0.0163455
727.510	0.0164494
727.588	0.0163974
727.666	0.0164330
727.744	0.0163618
727.822	0.0165285
727.900	0.0164485
727.978	0.0163196
728.057	0.0164859
728.135	0.0166154
728.213	0.0166766
728.291	0.0166737
728.369	0.0167841
728.447	0.0169742
728.525	0.0169070
728.603	0.0167872
728.682	0.0168094
728.760	0.0166290
728.838	0.0166178
728.916	0.0167202
728.994	0.0165207
729.072	0.0164116
729.150	0.0163515
729.228	0.0163056
729.307	0.0163414
729.385	0.0162106
729.463	0.0163235
729.541	0.0162270
729.619	0.0163262
729.697	0.0163281
729.775	0.0163254
729.853	0.0164671
729.932	0.0165656
730.010	0.0166927
730.088	0.0166550
730.166	0.0168797
730.244	0.0170174
730.322	0.0168795
730.400	0.0169705
730.478	0.0169100
730.557	0.0169507
730.635	0.0168482
730.713	0.0168526
730.791	0.0167010
730.869	0.0166931
730.947	0.0165044
731.025	0.0163432
731.103	0.0162865
731.182	0.0161711
731.260	0.0163625
731.338	0.0163278
731.416	0.0161973
731.494	0.0162426
731.572	0.0161178
731.650	0.0163065
731.728	0.0162029
731.807	0.0163037
731.885	0.0163536
731.963	0.0163904
732.041	0.0165830
732.119	0.0164718
732.197	0.0165357
732.275	0.0165156
732.353	0.0166939
732.432	0.0167715
732.510	0.0168391
732.588	0.0169180
732.666	0.0169314
732.744	0.0170343
732.822	0.0171304
732.900	0.0171500
732.978	0.0170160
733.057	0.0169129
733.135	0.0169360
733.213	0.0169215
733.291	0.0167174
733.369	0.0165376
733.447	0.0164527
733.525	0.0162946
733.603	0.0161592
733.682	0.0162655
733.760	0.0160200
733.838	0.0159858
733.916	0.0159511
733.994	0.0159080
734.072	0.0159344
734.150	0.0161634
734.228	0.0161994
734.307	0.0163164
734.385	0.0165131
734.463	0.0165276
734.541	0.0168148
734.619	0.0169540
734.697	0.0170387
734.775	0.0170623
734.853	0.0170195
734.932	0.0171467
735.010	0.0171552
735.088	0.0170442
735.166	0.0168305
735.244	0.0168570
735.322	0.0166681
735.400	0.0167256
735.478	0.0165195
735.557	0.0163934
735.635	0.0162465
735.713	0.0164642
735.791	0.0163254
735.869	0.0162799
735.947	0.0162653
736.025	0.0162248
736.103	0.0162555
736.182	0.0162114
736.260	0.0163474
736.338	0.0162580
736.416	0.0163074
736.494	0.0164259
736.572	0.0166817
736.650	0.0166287
736.728	0.0165738
736.807	0.0167405
736.885	0.0166850
736.963	0.0167300
737.041	0.0168202
737.119	0.0168006
737.197	0.0167667
737.275	0.0167003
737.353	0.0168962
737.432	0.0167296
737.510	0.0166199
737.588	0.0167033
737.666	0.0167282
737.744	0.0167639
737.822	0.0165104
737.900	0.0166689
737.978	0.0166260
738.057	0.0164606
738.135	0.0165662
738.213	0.0164989
738.291	0.0164697
738.369	0.0164526
738.447	0.0164194
738.525	0.0162766
738.603	0.0163641
738.682	0.0163393
738.760	0.0163931
738.838	0.0163686
738.916	0.0163695
738.994	0.0164841
739.072	0.0164664
739.150	0.0164002
739.228	0.0164417
739.307	0.0165189
739.385	0.0164462
739.463	0.0166894
739.541	0.0167120
739.619	0.0166441
739.697	0.0166546
739.775	0.0165366
739.853	0.0167494
739.932	0.0166614
740.010	0.0167048
740.088	0.0166605
740.166	0.0166119
740.244	0.0166400
740.322	0.0166337
740.400	0.0165906
740.478	0.0165468
740.557	0.0166149
740.635	0.0166179
740.713	0.0165919
740.791	0.0164847
740.869	0.0165645
740.947	0.0166020
741.025	0.0165921
741.103	0.0166795
741.182	0.0165352
741.260	0.0167490
741.338	0.0166776
741.416	0.0165343
741.494	0.0165617
741.572	0.0166580
741.650	0.0166034
741.728	0.0164457
741.807	0.0165052
741.885	0.0164301
741.963	0.0165028
742.041	0.0165411
742.119	0.0164672
742.197	0.0165205
742.275	0.0165627
742.353	0.0164748
742.432	0.0165521
742.510	0.0166251
742.588	0.0165804
742.666	0.0165556
742.744	0.0165981
742.822	0.0166831
742.900	0.0166524
742.978	0.0167283
743.057	0.0166383
743.135	0.0168255
743.213	0.0167404
743.291	0.0165607
743.369	0.0165447
743.447	0.0166085
743.525	0.0166219
743.603	0.0167202
743.682	0.0165327
743.760	0.0164980
743.838	0.0166223
743.916	0.0165022
743.994	0.0164576
744.072	0.0164330
744.150	0.0164602
744.228	0.0164360
744.307	0.0164686
744.385	0.0165083
744.463	0.0164803
744.541	0.0164318
744.619	0.0165453
744.697	0.0163792
744.775	0.0164433
744.853	0.0164120
744.932	0.0165179
745.010	0.0165503
745.088	0.0166370
745.166	0.0167057
745.244	0.0165844
745.322	0.0165734
745.400	0.0167516
745.478	0.0165943
745.557	0.0165266
745.635	0.0168303
745.713	0.0166633
745.791	0.0164875
745.869	0.0165137
745.947	0.0164375
746.025	0.0166034
746.103	0.0165593
746.182	0.0165504
746.260	0.0165273
746.338	0.0165173
746.416	0.0164981
746.494	0.0165604
746.572	0.0165183
746.650	0.0164948
746.728	0.0164098
746.807	0.0163631
746.885	0.0164805
746.963	0.0165258
747.041	0.0164596
747.119	0.0165607
747.197	0.0164909
747.275	0.0164584
747.353	0.0164596
747.432	0.0164813
747.510	0.0164151
747.588	0.0165102
747.666	0.0164706
747.744	0.0164893
747.822	0.0166003
747.900	0.0165308
747.978	0.0163862
748.057	0.0164782
748.135	0.0165729
748.213	0.0164835
748.291	0.0165783
748.369	0.0166147
748.447	0.0165880
748.525	0.0165637
748.603	0.0165125
748.682	0.0164787
748.760	0.0166940
748.838	0.0165733
748.916	0.0164025
748.994	0.0166045
749.072	0.0165022
749.150	0.0165560
749.228	0.0164149
749.307	0.0164326
749.385	0.0163656
749.463	0.0163556
749.541	0.0164989
749.619	0.0165213
749.697	0.0166514
749.775	0.0165515
749.853	0.0164482
749.932	0.0164366
750.010	0.0165007
750.088	0.0165777
750.166	0.0166175
750.244	0.0165119
750.322	0.0166322
750.400	0.0166952
750.478	0.0166389
750.557	0.0165939
750.635	0.0166090
750.713	0.0165758
750.791	0.0166380
750.869	0.0165859
750.947	0.0165366
751.025	0.0166028
751.103	0.0166234
751.182	0.0166045
751.260	0.0166312
751.338	0.0165327
751.416	0.0165612
751.494	0.0164979
751.572	0.0164686
751.650	0.0165362
751.728	0.0165719
751.807	0.0165405
751.885	0.0164723
751.963	0.0165408
752.041	0.0164415
752.119	0.0164229
752.197	0.0165381
752.275	0.0165009
752.353	0.0165459
752.432	0.0164223
752.510	0.0164140
752.588	0.0164024
752.666	0.0165189
752.744	0.0165254
752.822	0.0165692
752.900	0.0164256
752.978	0.0163800
753.057	0.0165046
753.135	0.0166261
753.213	0.0165303
753.291	0.0164263
753.369	0.0165277
753.447	0.0165276
753.525	0.0165257
753.603	0.0164538
753.682	0.0164616
753.760	0.0165192
753.838	0.0165409
753.916	0.0165875
753.994	0.0164313
754.072	0.0164604
754.150	0.0165015
754.228	0.0165054
754.307	0.0164631
754.385	0.0165387
754.463	0.0166450
754.541	0.0165240
754.619	0.0165072
754.697	0.0164518
754.775	0.0164185
754.853	0.0165585
754.932	0.0165570
755.010	0.0164897
755.088	0.0165073
755.166	0.0164340
755.244	0.0164970
755.322	0.0164749
755.400	0.0163728
755.478	0.0163941
755.557	0.0165276
755.635	0.0164952
755.713	0.0165505
755.791	0.0164433
755.869	0.0166164
755.947	0.0165400
756.025	0.0165723
756.103	0.0164862
756.182	0.0165591
756.260	0.0165386
756.338	0.0164918
756.416	0.0165288
756.494	0.0165764
756.572	0.0165890
756.650	0.0165090
756.728	0.0164803
756.807	0.0165079
756.885	0.0166129
756.963	0.0164973
757.041	0.0164567
757.119	0.0165946
757.197	0.0164047
757.275	0.0166126
757.353	0.0163872
757.432	0.0164716
757.510	0.0164155
757.588	0.0165046
757.666	0.0164933
757.744	0.0163359
757.822	0.0162885
757.900	0.0163217
757.978	0.0163831
758.057	0.0162683
758.135	0.0165475
758.213	0.0165991
758.291	0.0166052
758.369	0.0164576
758.447	0.0165022
758.525	0.0165487
758.603	0.0164729
758.682	0.0166953
758.760	0.0165895
758.838	0.0164287
758.916	0.0163956
758.994	0.0165494
759.072	0.0165819
759.150	0.0166454
759.228	0.0164659
759.307	0.0165502
759.385	0.0166380
759.463	0.0166331
759.541	0.0163614
759.619	0.0165023
759.697	0.0165515
759.775	0.0164748
759.853	0.0165308
759.932	0.0164869
760.010	0.0164101
760.088	0.0164319
760.166	0.0163876
760.244	0.0164416
760.322	0.0163091
760.400	0.0162219
760.478	0.0165211
760.557	0.0165609
760.635	0.0164675
760.713	0.0163885
760.791	0.0163583
760.869	0.0163943
760.947	0.0164389
761.025	0.0163944
761.103	0.0163414
761.182	0.0165129
761.260	0.0164621
761.338	0.0163664
761.416	0.0163147
761.494	0.0165739
761.572	0.0165862
761.650	0.0166483
761.728	0.0164984
761.807	0.0165652
761.885	0.0167374
761.963	0.0167340
762.041	0.0167362
762.119	0.0165234
762.197	0.0166272
762.275	0.0165733
762.353	0.0165493
762.432	0.0165000
762.510	0.0165529
762.588	0.0165053
762.666	0.0164904
762.744	0.0163330
762.822	0.0163416
762.900	0.0164197
762.978	0.0162762
763.057	0.0162339
763.135	0.0162093
763.213	0.0162320
763.291	0.0163190
763.369	0.0162827
763.447	0.0162744
763.525	0.0163378
763.603	0.0162527
763.682	0.0164813
763.760	0.0165401
763.838	0.0165434
763.916	0.0165163
763.994	0.0165926
764.072	0.0166463
764.150	0.0164386
764.228	0.0166456
764.307	0.0166232
764.385	0.0166418
764.463	0.0165887
764.541	0.0167307
764.619	0.0166185
764.697	0.0167693
764.775	0.0167255
764.853	0.0167157
764.932	0.0167370
765.010	0.0166850
765.088	0.0167645
765.166	0.0165616
765.244	0.0166712
765.322	0.0166058
765.400	0.0165939
765.478	0.0164732
765.557	0.0165966
765.635	0.0165294
765.713	0.0165292
765.791	0.0163798
765.869	0.0163611
765.947	0.0163491
766.025	0.0164312
766.103	0.0163948
766.182	0.0161045
766.260	0.0161372
766.338	0.0162204
766.416	0.0163123
766.494	0.0163407
766.572	0.0164288
766.650	0.0163351
766.728	0.0162972
766.807	0.0165569
766.885	0.0164442
766.963	0.0165091
767.041	0.0165891
767.119	0.0166953
767.197	0.0166438
767.275	0.0167880
767.353	0.0168706
767.432	0.0167467
767.510	0.0168102
767.588	0.0168964
767.666	0.0167445
767.744	0.0168830
767.822	0.0169218
767.900	0.0168222
767.978	0.0168040
768.057	0.0167782
768.135	0.0168657
768.213	0.0167664
768.291	0.0169276
768.369	0.0167236
768.447	0.0166304
768.525	0.0166766
768.603	0.0166165
768.682	0.0166080
768.760	0.0165882
768.838	0.0164068
768.916	0.0163708
768.994	0.0162137
769.072	0.0163282
769.150	0.0162563
769.228	0.0163190
769.307	0.0161621
769.385	0.0163657
769.463	0.0164215
769.541	0.0163413
769.619	0.0163628
769.697	0.0164825
769.775	0.0164983
769.853	0.0164886
769.932	0.0167773
770.010	0.0167962
770.088	0.0168612
770.166	0.0167882
770.244	0.0168533
770.322	0.0168348
770.400	0.0168085
770.478	0.0168493
770.557	0.0167368
770.635	0.0166360
770.713	0.0166938
770.791	0.0166197
770.869	0.0165460
770.947	0.0165452
771.025	0.0165183
771.103	0.0164467
771.182	0.0163676
771.260	0.0164242
771.338	0.0163107
771.416	0.0162844
771.494	0.0161840
771.572	0.0161827
771.650	0.0162617
771.728	0.0162891
771.807	0.0161829
771.885	0.0162354
771.963	0.0163306
772.041	0.0164304
772.119	0.0163863
772.197	0.0165667
772.275	0.0166405
772.353	0.0164812
772.432	0.0166493
772.510	0.0166960
772.588	0.0167535
772.666	0.0168802
772.744	0.0167802
772.822	0.0167736
772.900	0.0169260
772.978	0.0168788
773.057	0.0168717
773.135	0.0170194
773.213	0.0169907
773.291	0.0170605
773.369	0.0169229
773.447	0.0169996
773.525	0.0169635
773.603	0.0167900
773.682	0.0168021
773.760	0.0168009
773.838	0.0166621
773.916	0.0166302
773.994	0.0163333
774.072	0.0163707
774.150	0.0164959
774.228	0.0162557
774.307	0.0161542
774.385	0.0161256
774.463	0.0160611
774.541	0.0158765
774.619	0.0157601
774.697	0.0157697
774.775	0.0156833
774.853	0.0158774
774.932	0.0157259
775.010	0.0157966
775.088	0.0159105
775.166	0.0158836
775.244	0.0159874
775.322	0.0159959
775.400	0.0161205
775.478	0.0163911
775.557	0.0165121
775.635	0.0165562
775.713	0.0165594
775.791	0.0166080
775.869	0.0167085
775.947	0.0169131
776.025	0.0171499
776.103	0.0173339
776.182	0.0172137
776.260	0.0173596
776.338	0.0174070
776.416	0.0174517
776.494	0.0174113
776.572	0.0174668
776.650	0.0173096
776.728	0.0174247
776.807	0.0173562
776.885	0.0173376
776.963	0.0171061
777.041	0.0169743
777.119	0.0169115
777.197	0.0167651
777.275	0.0166637
777.353	0.0164700
777.432	0.0163277
777.510	0.0160146
777.588	0.0161400
777.666	0.0160236
777.744	0.0159483
777.822	0.0159776
777.900	0.0158322
777.978	0.0158472
778.057	0.0158208
778.135	0.0160326
778.213	0.0160915
778.291	0.0161410
778.369	0.0162186
778.447	0.0163006
778.525	0.0164242
778.603	0.0165358
778.682	0.0162235
778.760	0.0165028
778.838	0.0165233
778.916	0.0164189
778.994	0.0164955
779.072	0.0163982
779.150	0.0163270
779.228	0.0163303
779.307	0.0162068
779.385	0.0162560
779.463	0.0162821
779.541	0.0161004
779.619	0.0160500
779.697	0.0162019
779.775	0.0162640
779.853	0.0160069
779.932	0.0160653
780.010	0.0160553
780.088	0.0161908
780.166	0.0162458
780.244	0.0162702
780.322	0.0163225
780.400	0.0164798
780.478	0.0165942
780.557	0.0166239
780.635	0.0167212
780.713	0.0168045
780.791	0.0169423
780.869	0.0171082
780.947	0.0170573
781.025	0.0170806
781.103	0.0172844
781.182	0.0173774
781.260	0.0174020
781.338	0.0174247
781.416	0.0175025
781.494	0.0176805
781.572	0.0176492
781.650	0.0176540
781.728	0.0174313
781.807	0.0175922
781.885	0.0174207
781.963	0.0171751
782.041	0.0169727
782.119	0.0169605
782.197	0.0166638
782.275	0.0164863
782.353	0.0163228
782.432	0.0161205
782.510	0.0159756
782.588	0.0156675
782.666	0.0153775
782.744	0.0153723
782.822	0.0152514
782.900	0.0151388
782.978	0.0150761
783.057	0.0150584
783.135	0.0151064
783.213	0.0150362
783.291	0.0149918
783.369	0.0151514
783.447	0.0152554
783.525	0.0153703
783.603	0.0153123
783.682	0.0154888
783.760	0.0156667
783.838	0.0158729
783.916	0.0161627
783.994	0.0161560
784.072	0.0162911
784.150	0.0164645
784.228	0.0166110
784.307	0.0168281
784.385	0.0169962
784.463	0.0170683
784.541	0.0173286
784.619	0.0173597
784.697	0.0174771
784.775	0.0175542
784.853	0.0176854
784.932	0.0179191
785.010	0.0179766
785.088	0.0180003
785.166	0.0179142
785.244	0.0176820
785.322	0.0178104
785.400	0.0176293
785.478	0.0176054
785.557	0.0175103
785.635	0.0173961
785.713	0.0171386
785.791	0.0170274
785.869	0.0168668
785.947	0.0168597
786.025	0.0166512
786.103	0.0165467
786.182	0.0165047
786.260	0.0163997
786.338	0.0164684
786.416	0.0164097
786.494	0.0162555
786.572	0.0161304
786.650	0.0162119
786.728	0.0160931
786.807	0.0161459
786.885	0.0160716
786.963	0.0159020
787.041	0.0160169
787.119	0.0160794
787.197	0.0159608
787.275	0.0156947
787.353	0.0157674
787.432	0.0156199
787.510	0.0156242
787.588	0.0154910
787.666	0.0155414
787.744	0.0154610
787.822	0.0156187
787.900	0.0155235
787.978	0.0155582
788.057	0.0156426
788.135	0.0157787
788.213	0.0157704
788.291	0.0158085
788.369	0.0161081
788.447	0.0160812
788.525	0.0163221
788.603	0.0165317
788.682	0.0167305
788.760	0.0167578
788.838	0.0169393
788.916	0.0171309
788.994	0.0171790
789.072	0.0172306
789.150	0.0173868
789.228	0.0174267
789.307	0.0174391
789.385	0.0174535
789.463	0.0176437
789.541	0.0175269
789.619	0.0174811
789.697	0.0175285
789.775	0.0176280
789.853	0.0176060
789.932	0.0175484
790.010	0.0174894
790.088	0.0173307
790.166	0.0174083
790.244	0.0172975
790.322	0.0171757
790.400	0.0170815
790.478	0.0171496
790.557	0.0170283
790.635	0.0169106
790.713	0.0167282
790.791	0.0165769
790.869	0.0163127
790.947	0.0164116
791.025	0.0161253
791.103	0.0159666
791.182	0.0159500
791.260	0.0157501
791.338	0.0155593
791.416	0.0156225
791.494	0.0155331
791.572	0.0154187
791.650	0.0153603
791.728	0.0152876
791.807	0.0153146
791.885	0.0154358
791.963	0.0155615
792.041	0.0155714
792.119	0.0154808
792.197	0.0157401
792.275	0.0158492
792.353	0.0160091
792.432	0.0161033
792.510	0.0163377
792.588	0.0164625
792.666	0.0166148
792.744	0.0167078
792.822	0.0168185
792.900	0.0168040
792.978	0.0168780
793.057	0.0169084
793.135	0.0170999
793.213	0.0169937
793.291	0.0170211
793.369	0.0170319
793.447	0.0170955
793.525	0.0170312
793.603	0.0171191
793.682	0.0171128
793.760	0.0171327
793.838	0.0170338
793.916	0.0170157
793.994	0.0171667
794.072	0.0170580
794.150	0.0169960
794.228	0.0171026
794.307	0.0169569
794.385	0.0169890
794.463	0.0170075
794.541	0.0168709
794.619	0.0169292
794.697	0.0169299
794.775	0.0167679
794.853	0.0169083
794.932	0.0169417
795.010	0.0167760
795.088	0.0169534
795.166	0.0166718
795.244	0.0167094
795.322	0.0166977
795.400	0.0166941
795.478	0.0165389
795.557	0.0165477
795.635	0.0164143
795.713	0.0161468
795.791	0.0162230
795.869	0.0161097
795.947	0.0160012
796.025	0.0158927
796.103	0.0158715
796.182	0.0159084
796.260	0.0158877
796.338	0.0158416
796.416	0.0156738
796.494	0.0156853
796.572	0.0156840
796.650	0.0158005
796.728	0.0158018
796.807	0.0159030
796.885	0.0158888
796.963	0.0160647
797.041	0.0162103
797.119	0.0163072
797.197	0.0163892
797.275	0.0166078
797.353	0.0166608
797.432	0.0168879
797.510	0.0170139
797.588	0.0172105
797.666	0.0172745
797.744	0.0172585
797.822	0.0173959
797.900	0.0174876
797.978	0.0175224
798.057	0.0174486
798.135	0.0174345
798.213	0.0173316
798.291	0.0173270
798.369	0.0171329
798.447	0.0172179
798.525	0.0170784
798.603	0.0168553
798.682	0.0169010
798.760	0.0166369
798.838	0.0165186
798.916	0.0164595
798.994	0.0164991
799.072	0.0163450
799.150	0.0161656
799.228	0.0162677
799.307	0.0160555
799.385	0.0161698
799.463	0.0162329
799.541	0.0161170
799.619	0.0159863
799.697	0.0160334
799.775	0.0161121
799.853	0.0160950
799.932	0.0160802
800.010	0.0161425
800.088	0.0161752
800.166	0.0161761
800.244	0.0162849
800.322	0.0163060
800.400	0.0163445
800.478	0.0163552
800.557	0.0165794
800.635	0.0167775
800.713	0.0166663
800.791	0.0166578
800.869	0.0167021
800.947	0.0169753
801.025	0.0166139
801.103	0.0169343
801.182	0.0169298
801.260	0.0167439
801.338	0.0166988
801.416	0.0167562
801.494	0.0167120
801.572	0.0165916
801.650	0.0164725
801.728	0.0165788
801.807	0.0165782
801.885	0.0164371
801.963	0.0167341
802.041	0.0166319
802.119	0.0166775
802.197	0.0165633
802.275	0.0164420
802.353	0.0165235
802.432	0.0165058
802.510	0.0164764
802.588	0.0164486
802.666	0.0163560
802.744	0.0162679
802.822	0.0163383
802.900	0.0163512
802.978	0.0161422
803.057	0.0160914
803.135	0.0160477
803.213	0.0161147
803.291	0.0160584
803.369	0.0160631
803.447	0.0161963
803.525	0.0161662
803.603	0.0162735
803.682	0.0162711
803.760	0.0163016
803.838	0.0164000
803.916	0.0165242
803.994	0.0166928
804.072	0.0168025
804.150	0.0168612
804.228	0.0169580
804.307	0.0170671
804.385	0.0170329
804.463	0.0169546
804.541	0.0169540
804.619	0.0168877
804.697	0.0168668
804.775	0.0168319
804.853	0.0166756
804.932	0.0167004
805.010	0.0165035
805.088	0.0163352
805.166	0.0163805
805.244	0.0161462
805.322	0.0161994
805.400	0.0161036
805.478	0.0160235
805.557	0.0161008
805.635	0.0159292
805.713	0.0158734
805.791	0.0159009
805.869	0.0158880
805.947	0.0160007
806.025	0.0158829
806.103	0.0160217
806.182	0.0162450
806.260	0.0162316
806.338	0.0163335
806.416	0.0163830
806.494	0.0164178
806.572	0.0165276
806.650	0.0167374
806.728	0.0167548
806.807	0.0169577
806.885	0.0171644
806.963	0.0171815
807.041	0.0172407
807.119	0.0173541
807.197	0.0174606
807.275	0.0174264
807.353	0.0176081
807.432	0.0175859
807.510	0.0173530
807.588	0.0174564
807.666	0.0171665
807.744	0.0170328
807.822	0.0169461
807.900	0.0166923
807.978	0.0165784
808.057	0.0163954
808.135	0.0161689
808.213	0.0160207
808.291	0.0158633
808.369	0.0156751
808.447	0.0155040
808.525	0.0155765
808.603	0.0153979
808.682	0.0153046
808.760	0.0152545
808.838	0.0153747
808.916	0.0154093
808.994	0.0155148
809.072	0.0155089
809.150	0.0157954
809.228	0.0158710
809.307	0.0161015
809.385	0.0163403
809.463	0.0163524
809.541	0.0167402
809.619	0.0170445
809.697	0.0170878
809.775	0.0172563
809.853	0.0173807
809.932	0.0173962
810.010	0.0176062
810.088	0.0175063
810.166	0.0174851
810.244	0.0175266
810.322	0.0175694
810.400	0.0173898
810.478	0.0172318
810.557	0.0170901
810.635	0.0169275
810.713	0.0168649
810.791	0.0165987
810.869	0.0164469
810.947	0.0163264
811.025	0.0162434
811.103	0.0162681
811.182	0.0162348
811.260	0.0160735
811.338	0.0161945
811.416	0.0160419
811.494	0.0161365
811.572	0.0161171
811.650	0.0162335
811.728	0.0163708
811.807	0.0165071
811.885	0.0164720
811.963	0.0164262
812.041	0.0164624
812.119	0.0164215
812.197	0.0167358
812.275	0.0166248
812.353	0.0167091
812.432	0.0168768
812.510	0.0166594
812.588	0.0167056
812.666	0.0168427
812.744	0.0169505
812.822	0.0169236
812.900	0.0168821
812.978	0.0170879
813.057	0.0170358
813.135	0.0169277
813.213	0.0168729
813.291	0.0169087
813.369	0.0167402
813.447	0.0166238
813.525	0.0167651
813.603	0.0165460
813.682	0.0165363
813.760	0.0162987
813.838	0.0162900
813.916	0.0160059
813.994	0.0160937
814.072	0.0160242
814.150	0.0158320
814.228	0.0160127
814.307	0.0159939
814.385	0.0160520
814.463	0.0159114
814.541	0.0160419
814.619	0.0160508
814.697	0.0161633
814.775	0.0162048
814.853	0.0163605
814.932	0.0164490
815.010	0.0165334
815.088	0.0167941
815.166	0.0168310
815.244	0.0168410
815.322	0.0169930
815.400	0.0170964
815.478	0.0170598
815.557	0.0172390
815.635	0.0172920
815.713	0.0170992
815.791	0.0172823
815.869	0.0171292
815.947	0.0171705
816.025	0.0170906
816.103	0.0171094
816.182	0.0169694
816.260	0.0171297
816.338	0.0169371
816.416	0.0168047
816.494	0.0168661
816.572	0.0167287
816.650	0.0165547
816.728	0.0165750
816.807	0.0163564
816.885	0.0162943
816.963	0.0162506
817.041	0.0161974
817.119	0.0160355
817.197	0.0160806
817.275	0.0160815
817.353	0.0158940
817.432	0.0158179
817.510	0.0160388
817.588	0.0158828
817.666	0.0159519
817.744	0.0160418
817.822	0.0160703
817.900	0.0162571
817.978	0.0163863
818.057	0.0163925
818.135	0.0164507
818.213	0.0165424
818.291	0.0166088
818.369	0.0167688
818.447	0.0166267
818.525	0.0170861
818.603	0.0171177
818.682	0.0170344
818.760	0.0169782
818.838	0.0170999
818.916	0.0169804
818.994	0.0172282
819.072	0.0171599
819.150	0.0170434
819.228	0.0170965
819.307	0.0169788
819.385	0.0170364
819.463	0.0167577
819.541	0.0167937
819.619	0.0167509
819.697	0.0166652
819.775	0.0166333
819.853	0.0167775
819.932	0.0167252
820.010	0.0164901
820.088	0.0163101
820.166	0.0163750
820.244	0.0164652
820.322	0.0164355
820.400	0.0164728
820.478	0.0163737
820.557	0.0163862
820.635	0.0163711
820.713	0.0162732
820.791	0.0163625
820.869	0.0164661
820.947	0.0163468
821.025	0.0162971
821.103	0.0163329
821.182	0.0163990
821.260	0.0164711
821.338	0.0164970
821.416	0.0164096
821.494	0.0165719
821.572	0.0165984
821.650	0.0165112
821.728	0.0166994
821.807	0.0166772
821.885	0.0165388
821.963	0.0165639
822.041	0.0165160
822.119	0.0166409
822.197	0.0165891
822.275	0.0164187
822.353	0.0164577
822.432	0.0161746
822.510	0.0161110
822.588	0.0160306
822.666	0.0159484
822.744	0.0159518
822.822	0.0158142
822.900	0.0157269
822.978	0.0157927
823.057	0.0157117
823.135	0.0159340
823.213	0.0158913
823.291	0.0159739
823.369	0.0163003
823.447	0.0165400
823.525	0.0164471
823.603	0.0167261
823.682	0.0169119
823.760	0.0169482
823.838	0.0172012
823.916	0.0174021
823.994	0.0173827
824.072	0.0175071
824.150	0.0175510
824.228	0.0175488
824.307	0.0175508
824.385	0.0174165
824.463	0.0174577
824.541	0.0173273
824.619	0.0173063
824.697	0.0170052
824.775	0.0169292
824.853	0.0167315
824.932	0.0165647
825.010	0.0164446
825.088	0.0162261
825.166	0.0159768
825.244	0.0158656
825.322	0.0158710
825.400	0.0157077
825.478	0.0155833
825.557	0.0156672
825.635	0.0157010
825.713	0.0155639
825.791	0.0157060
825.869	0.0157302
825.947	0.0157973
826.025	0.0158438
826.103	0.0159384
826.182	0.0161297
826.260	0.0160133
826.338	0.0161415
826.416	0.0163203
826.494	0.0161596
826.572	0.0162508
826.650	0.0164079
826.728	0.0163950
826.807	0.0165390
826.885	0.0164646
826.963	0.0165578
827.041	0.0167014
827.119	0.0166747
827.197	0.0165978
827.275	0.0166474
827.353	0.0166801
827.432	0.0166809
827.510	0.0168282
827.588	0.0167281
827.666	0.0167770
827.744	0.0168011
827.822	0.0166576
827.900	0.0166830
827.978	0.0167522
828.057	0.0167487
828.135	0.0166908
828.213	0.0165129
828.291	0.0165305
828.369	0.0165606
828.447	0.0167196
828.525	0.0165558
828.603	0.0166283
828.682	0.0166926
828.760	0.0166325
828.838	0.0166939
828.916	0.0166656
828.994	0.0166589
829.072	0.0167848
829.150	0.0166431
829.228	0.0166801
829.307	0.0166173
829.385	0.0167096
829.463	0.0167603
829.541	0.0166290
829.619	0.0166106
829.697	0.0165069
829.775	0.0166319
829.853	0.0164922
829.932	0.0164861
830.010	0.0166033
830.088	0.0164535
830.166	0.0165731
830.244	0.0166059
830.322	0.0163526
830.400	0.0164582
830.478	0.0165011
830.557	0.0165343
830.635	0.0165188
830.713	0.0165514
830.791	0.0164772
830.869	0.0165273
830.947	0.0166543
831.025	0.0164296
831.103	0.0164765
831.182	0.0164807
831.260	0.0165042
831.338	0.0163501
831.416	0.0164139
831.494	0.0163113
831.572	0.0164049
831.650	0.0162962
831.728	0.0161754
831.807	0.0162066
831.885	0.0160794
831.963	0.0160987
832.041	0.0161938
832.119	0.0161240
832.197	0.0160400
832.275	0.0161893
832.353	0.0162007
832.432	0.0162196
832.510	0.0161999
832.588	0.0164863
832.666	0.0166472
832.744	0.0166306
832.822	0.0168143
832.900	0.0168668
832.978	0.0170502
833.057	0.0170213
833.135	0.0168996
833.213	0.0170868
833.291	0.0172363
833.369	0.0172723
833.447	0.0170367
833.525	0.0171717
833.603	0.0172543
833.682	0.0169780
833.760	0.0169168
833.838	0.0169017
833.916	0.0169523
833.994	0.0168977
834.072	0.0168255
834.150	0.0167094
834.228	0.0167037
834.307	0.0166675
834.385	0.0166268
834.463	0.0166307
834.541	0.0164118
834.619	0.0165923
834.697	0.0163589
834.775	0.0164647
834.853	0.0164592
834.932	0.0163548
835.010	0.0164520
835.088	0.0163180
835.166	0.0164082
835.244	0.0163763
835.322	0.0162476
835.400	0.0163650
835.478	0.0161919
835.557	0.0162093
835.635	0.0163930
835.713	0.0164428
835.791	0.0164210
835.869	0.0166010
835.947	0.0165865
836.025	0.0167271
836.103	0.0168281
836.182	0.0169402
836.260	0.0169997
836.338	0.0170174
836.416	0.0169892
836.494	0.0170178
836.572	0.0170072
836.650	0.0168699
836.728	0.0170129
836.807	0.0169688
836.885	0.0169374
836.963	0.0167400
837.041	0.0166994
837.119	0.0167137
837.197	0.0165265
837.275	0.0166124
837.353	0.0164146
837.432	0.0164513
837.510	0.0163498
837.588	0.0162277
837.666	0.0165498
837.744	0.0162695
837.822	0.0164214
837.900	0.0163042
837.978	0.0165630
838.057	0.0166764
838.135	0.0165229
838.213	0.0166666
838.291	0.0167423
838.369	0.0166824
838.447	0.0166158
838.525	0.0167174
838.603	0.0168034
838.682	0.0167529
838.760	0.0167495
838.838	0.0167808
838.916	0.0168187
838.994	0.0167216
839.072	0.0169087
839.150	0.0167853
839.228	0.0168770
839.307	0.0168015
839.385	0.0168560
839.463	0.0167921
839.541	0.0168584
839.619	0.0167841
839.697	0.0166949
839.775	0.0166967
839.853	0.0165772
839.932	0.0165440
840.010	0.0165392
840.088	0.0165089
840.166	0.0164772
840.244	0.0164025
840.322	0.0164857
840.400	0.0164901
840.478	0.0163669
840.557	0.0164293
840.635	0.0163980
840.713	0.0164497
840.791	0.0165437
840.869	0.0166122
840.947	0.0166820
841.025	0.0167903
841.103	0.0167140
841.182	0.0167285
841.260	0.0167935
841.338	0.0168068
841.416	0.0167612
841.494	0.0168114
841.572	0.0169532
841.650	0.0168632
841.728	0.0167060
841.807	0.0166249
841.885	0.0167356
841.963	0.0166537
842.041	0.0166495
842.119	0.0166958
842.197	0.0166756
842.275	0.0166064
842.353	0.0166991
842.432	0.0166890
842.510	0.0166126
842.588	0.0168047
842.666	0.0167305
842.744	0.0168192
842.822	0.0166763
842.900	0.0166311
842.978	0.0167632
843.057	0.0167528
843.135	0.0166512
843.213	0.0166183
843.291	0.0166760
843.369	0.0165961
843.447	0.0163966
843.525	0.0164899
843.603	0.0161938
843.682	0.0162984
843.760	0.0162363
843.838	0.0163924
843.916	0.0161314
843.994	0.0161877
844.072	0.0162077
844.150	0.0161132
844.228	0.0161426
844.307	0.0161900
844.385	0.0162030
844.463	0.0162749
844.541	0.0163672
844.619	0.0162646
844.697	0.0164188
844.775	0.0165028
844.853	0.0165598
844.932	0.0164410
845.010	0.0165784
845.088	0.0168288
845.166	0.0166199
845.244	0.0166054
845.322	0.0166993
845.400	0.0166861
845.478	0.0166791
845.557	0.0166785
845.635	0.0164821
845.713	0.0166209
845.791	0.0166553
845.869	0.0167249
845.947	0.0166048
846.025	0.0165893
846.103	0.0167699
846.182	0.0166998
846.260	0.0166457
846.338	0.0168653
846.416	0.0169155
846.494	0.0167555
846.572	0.0167278
846.650	0.0167836
846.728	0.0167760
846.807	0.0167538
846.885	0.0166450
846.963	0.0166712
847.041	0.0166070
847.119	0.0165924
847.197	0.0165354
847.275	0.0164430
847.353	0.0164783
847.432	0.0164805
847.510	0.0163739
847.588	0.0164098
847.666	0.0163927
847.744	0.0163368
847.822	0.0164310
847.900	0.0165265
847.978	0.0164780
848.057	0.0164945
848.135	0.0165547
848.213	0.0164429
848.291	0.0163814
848.369	0.0163672
848.447	0.0165257
848.525	0.0164014
848.603	0.0164095
848.682	0.0163540
848.760	0.0163897
848.838	0.0162955
848.916	0.0164010
848.994	0.0162239
849.072	0.0163837
849.150	0.0162236
849.228	0.0163797
849.307	0.0163162
849.385	0.0162119
849.463	0.0161686
849.541	0.0162557
849.619	0.0163636
849.697	0.0163564
849.775	0.0163793
849.853	0.0164262
849.932	0.0163905
850.010	0.0164046
850.088	0.0165826
850.166	0.0165598
850.244	0.0165595
850.322	0.0165714
850.400	0.0165569
850.478	0.0166735
850.557	0.0165575
850.635	0.0165740
850.713	0.0164575
850.791	0.0165684
850.869	0.0164799
850.947	0.0164989
851.025	0.0163351
851.103	0.0166389
851.182	0.0167033
851.260	0.0166117
851.338	0.0165314
851.416	0.0165330
851.494	0.0165882
851.572	0.0165492
851.650	0.0167529
851.728	0.0167390
851.807	0.0166792
851.885	0.0166597
851.963	0.0166528
852.041	0.0166927
852.119	0.0167406
852.197	0.0165649
852.275	0.0166324
852.353	0.0164802
852.432	0.0165342
852.510	0.0165417
852.588	0.0163762
852.666	0.0164200
852.744	0.0162432
852.822	0.0162967
852.900	0.0161756
852.978	0.0162296
853.057	0.0161829
853.135	0.0160811
853.213	0.0161546
853.291	0.0161229
853.369	0.0162854
853.447	0.0162486
853.525	0.0160606
853.603	0.0163134
853.682	0.0162779
853.760	0.0163898
853.838	0.0165453
853.916	0.0164182
853.994	0.0165919
854.072	0.0165541
854.150	0.0164022
854.228	0.0165417
854.307	0.0164972
854.385	0.0165151
854.463	0.0165172
854.541	0.0164371
854.619	0.0164482
854.697	0.0164020
854.775	0.0164304
854.853	0.0164511
854.932	0.0165121
855.010	0.0163961
855.088	0.0165341
855.166	0.0166921
855.244	0.0166603
855.322	0.0164530
855.400	0.0166880
855.478	0.0166605
855.557	0.0164755
855.635	0.0166849
855.713	0.0166754
855.791	0.0166105
855.869	0.0165862
855.947	0.0164240
856.025	0.0165274
856.103	0.0166173
856.182	0.0165604
856.260	0.0164855
856.338	0.0164648
856.416	0.0164644
856.494	0.0163969
856.572	0.0165202
856.650	0.0165321
856.728	0.0165218
856.807	0.0166400
856.885	0.0166147
856.963	0.0165560
857.041	0.0166416
857.119	0.0169391
857.197	0.0166529
857.275	0.0167311
857.353	0.0169030
857.432	0.0169579
857.510	0.0170189
857.588	0.0168421
857.666	0.0169287
857.744	0.0168372
857.822	0.0168822
857.900	0.0170148
857.978	0.0167633
858.057	0.0167680
858.135	0.0167514
858.213	0.0167074
858.291	0.0165436
858.369	0.0166364
858.447	0.0165777
858.525	0.0166479
858.603	0.0164011
858.682	0.0165426
858.760	0.0165326
858.838	0.0165340
858.916	0.0164526
858.994	0.0164367
859.072	0.0164990
859.150	0.0164561
859.228	0.0165411
859.307	0.0165120
859.385	0.0164964
859.463	0.0163846
859.541	0.0164110
859.619	0.0163018
859.697	0.0165269
859.775	0.0164153
859.853	0.0165318
859.932	0.0165735
860.010	0.0166695
860.088	0.0165494
860.166	0.0164149
860.244	0.0165505
860.322	0.0164599
860.400	0.0165134
860.478	0.0164221
860.557	0.0165316
860.635	0.0164899
860.713	0.0164157
860.791	0.0164792
860.869	0.0163940
860.947	0.0162746
861.025	0.0163912
861.103	0.0164238
861.182	0.0165115
861.260	0.0165165
861.338	0.0163805
861.416	0.0163606
861.494	0.0165195
861.572	0.0166087
861.650	0.0165415
861.728	0.0165749
861.807	0.0166383
861.885	0.0165949
861.963	0.0167378
862.041	0.0167008
862.119	0.0167757
862.197	0.0166611
862.275	0.0166968
862.353	0.0166721
862.432	0.0167415
862.510	0.0167329
862.588	0.0166766
862.666	0.0167919
862.744	0.0167229
862.822	0.0166456
862.900	0.0168335
862.978	0.0167941
863.057	0.0166850
863.135	0.0166750
863.213	0.0166835
863.291	0.0167595
863.369	0.0167341
863.447	0.0166581
863.525	0.0166273
863.603	0.0168516
863.682	0.0167070
863.760	0.0165068
863.838	0.0166467
863.916	0.0165736
863.994	0.0165649
864.072	0.0167307
864.150	0.0165950
864.228	0.0168073
864.307	0.0166734
864.385	0.0165929
864.463	0.0166203
864.541	0.0166992
864.619	0.0167467
864.697	0.0167397
864.775	0.0165326
864.853	0.0164339
864.932	0.0166260
865.010	0.0165058
865.088	0.0164558
865.166	0.0165026
865.244	0.0164662
865.322	0.0166040
865.400	0.0164562
865.478	0.0163441
865.557	0.0164499
865.635	0.0164985
865.713	0.0164240
865.791	0.0164970
865.869	0.0164972
865.947	0.0165604
866.025	0.0165294
866.103	0.0165642
866.182	0.0165571
866.260	0.0166647
866.338	0.0165549
866.416	0.0165335
866.494	0.0166206
866.572	0.0165772
866.650	0.0166846
866.728	0.0166616
866.807	0.0167439
866.885	0.0167591
866.963	0.0166935
867.041	0.0167435
867.119	0.0166927
867.197	0.0165878
867.275	0.0166795
867.353	0.0167432
867.432	0.0166782
867.510	0.0166797
867.588	0.0166222
867.666	0.0166503
867.744	0.0166846
867.822	0.0166684
867.900	0.0166510
867.978	0.0165791
868.057	0.0167813
868.135	0.0167670
868.213	0.0167961
868.291	0.0166299
868.369	0.0167602
868.447	0.0167589
868.525	0.0166937
868.603	0.0167673
868.682	0.0167667
868.760	0.0167834
868.838	0.0167288
868.916	0.0166336
868.994	0.0165735
869.072	0.0166639
869.150	0.0166866
869.228	0.0167349
869.307	0.0165560
869.385	0.0166120
869.463	0.0166141
869.541	0.0166418
869.619	0.0167181
869.697	0.0166605
869.775	0.0166537
869.853	0.0165762
869.932	0.0165343
870.010	0.0165542
870.088	0.0166423
870.166	0.0165955
870.244	0.0164523
870.322	0.0165434
870.400	0.0166308
870.478	0.0166332
870.557	0.0164492
870.635	0.0164097
870.713	0.0164229
870.791	0.0164638
870.869	0.0165979
870.947	0.0163818
871.025	0.0164478
871.103	0.0164442
871.182	0.0165224
871.260	0.0163400
871.338	0.0163032
871.416	0.0164688
871.494	0.0164697
871.572	0.0164587
871.650	0.0163257
871.728	0.0163852
871.807	0.0163725
871.885	0.0164079
871.963	0.0165978
872.041	0.0164388
872.119	0.0164983
872.197	0.0165519
872.275	0.0165629
872.353	0.0165362
872.432	0.0164868
872.510	0.0166798
872.588	0.0166501
872.666	0.0166380
872.744	0.0168036
872.822	0.0167142
872.900	0.0167324
872.978	0.0168522
873.057	0.0167826
873.135	0.0167081
873.213	0.0167775
873.291	0.0167223
873.369	0.0167088
873.447	0.0167092
873.525	0.0166891
873.603	0.0165984
873.682	0.0166984
873.760	0.0167931
873.838	0.0167110
873.916	0.0166550
873.994	0.0166331
874.072	0.0165675
874.150	0.0167025
874.228	0.0165460
874.307	0.0165546
874.385	0.0165746
874.463	0.0166307
874.541	0.0166985
874.619	0.0165346
874.697	0.0165946
874.775	0.0166140
874.853	0.0165439
874.932	0.0166618
875.010	0.0166542
875.088	0.0166634
875.166	0.0165336
875.244	0.0164544
875.322	0.0165628
875.400	0.0163982
875.478	0.0163750
875.557	0.0165041
875.635	0.0164942
875.713	0.0162067
875.791	0.0163028
875.869	0.0163569
875.947	0.0163123
876.025	0.0163229
876.103	0.0162531
876.182	0.0162919
876.260	0.0163412
876.338	0.0163684
876.416	0.0161900
876.494	0.0163097
876.572	0.0162548
876.650	0.0164818
876.728	0.0163728
876.807	0.0164172
876.885	0.0164029
876.963	0.0163231
877.041	0.0164792
877.119	0.0166256
877.197	0.0165079
877.275	0.0166398
877.353	0.0164758
877.432	0.0165015
877.510	0.0165764
877.588	0.0165701
877.666	0.0165686
877.744	0.0163585
877.822	0.0164939
877.900	0.0165004
877.978	0.0164917
878.057	0.0165018
878.135	0.0165562
878.213	0.0165702
878.291	0.0166055
878.369	0.0166619
878.447	0.0166584
878.525	0.0165869
878.603	0.0165688
878.682	0.0166070
878.760	0.0166407
878.838	0.0166296
878.916	0.0166451
878.994	0.0165334
879.072	0.0165940
879.150	0.0166527
879.228	0.0167104
879.307	0.0166474
879.385	0.0163885
879.463	0.0165018
879.541	0.0165343
879.619	0.0164852
879.697	0.0163648
879.775	0.0163438
879.853	0.0164061
879.932	0.0163010
880.010	0.0162769
880.088	0.0161662
880.166	0.0162849
880.244	0.0161122
880.322	0.0163299
880.400	0.0163304
880.478	0.0162690
880.557	0.0162818
880.635	0.0163097
880.713	0.0164230
880.791	0.0164758
880.869	0.0164737
880.947	0.0164426
881.025	0.0165422
881.103	0.0165068
881.182	0.0165405
881.260	0.0163989
881.338	0.0165922
881.416	0.0165648
881.494	0.0166582
881.572	0.0167278
881.650	0.0165356
881.728	0.0164826
881.807	0.0164467
881.885	0.0165285
881.963	0.0165717
882.041	0.0164089
882.119	0.0165424
882.197	0.0163508
882.275	0.0165585
882.353	0.0165809
882.432	0.0165713
882.510	0.0165955
882.588	0.0165014
882.666	0.0166129
882.744	0.0165789
882.822	0.0165170
882.900	0.0165191
882.978	0.0166316
883.057	0.0165874
883.135	0.0165894
883.213	0.0167049
883.291	0.0166294
883.369	0.0165226
883.447	0.0165385
883.525	0.0165501
883.603	0.0165083
883.682	0.0165386
883.760	0.0164656
883.838	0.0163988
883.916	0.0163956
883.994	0.0162839
884.072	0.0164980
884.150	0.0163687
884.228	0.0162978
884.307	0.0164220
884.385	0.0165086
884.463	0.0163697
884.541	0.0163847
884.619	0.0163421
884.697	0.0164873
884.775	0.0165109
884.853	0.0166015
884.932	0.0165616
885.010	0.0166754
885.088	0.0165363
885.166	0.0167305
885.244	0.0167595
885.322	0.0168459
885.400	0.0166389
885.478	0.0166808
885.557	0.0167573
885.635	0.0167808
885.713	0.0167898
885.791	0.0168039
885.869	0.0168182
885.947	0.0167625
886.025	0.0164500
886.103	0.0166155
886.182	0.0167076
886.260	0.0167255
886.338	0.0166893
886.416	0.0165090
886.494	0.0165199
886.572	0.0163647
886.650	0.0165752
886.728	0.0164687
886.807	0.0164841
886.885	0.0166609
886.963	0.0165670
887.041	0.0165532
887.119	0.0165115
887.197	0.0165166
887.275	0.0165714
887.353	0.0165769
887.432	0.0165752
887.510	0.0164061
887.588	0.0164799
887.666	0.0165179
887.744	0.0164634
887.822	0.0164058
887.900	0.0164672
887.978	0.0164217
888.057	0.0163727
888.135	0.0163406
888.213	0.0163075
888.291	0.0163557
888.369	0.0164619
888.447	0.0163727
888.525	0.0163493
888.603	0.0165163
888.682	0.0163892
888.760	0.0165717
888.838	0.0164985
888.916	0.0163508
888.994	0.0164185
889.072	0.0167110
889.150	0.0166193
889.228	0.0167236
889.307	0.0167191
889.385	0.0167359
889.463	0.0166251
889.541	0.0167572
889.619	0.0168027
889.697	0.0167438
889.775	0.0168475
889.853	0.0168764
889.932	0.0167561
890.010	0.0168116
890.088	0.0167722
890.166	0.0166835
890.244	0.0166326
890.322	0.0169037
890.400	0.0166801
890.478	0.0167296
890.557	0.0167090
890.635	0.0168237
890.713	0.0166946
890.791	0.0168344
890.869	0.0167761
890.947	0.0166382
891.025	0.0167629
891.103	0.0167746
891.182	0.0167796
891.260	0.0166836
891.338	0.0168055
891.416	0.0167590
891.494	0.0168867
891.572	0.0167967
891.650	0.0168129
891.728	0.0169342
891.807	0.0167139
891.885	0.0167456
891.963	0.0166593
892.041	0.0167281
892.119	0.0167475
892.197	0.0166061
892.275	0.0165024
892.353	0.0166024
892.432	0.0164349
892.510	0.0162788
892.588	0.0165260
892.666	0.0162703
892.744	0.0162566
892.822	0.0162170
892.900	0.0163025
892.978	0.0161800
893.057	0.0162411
893.135	0.0163330
893.213	0.0162674
893.291	0.0165670
893.369	0.0163789
893.447	0.0163979
893.525	0.0164629
893.603	0.0166048
893.682	0.0166731
893.760	0.0165746
893.838	0.0166349
893.916	0.0168111
893.994	0.0166801
894.072	0.0167194
894.150	0.0167439
894.228	0.0167376
894.307	0.0167308
894.385	0.0166936
894.463	0.0165419
894.541	0.0167954
894.619	0.0166399
894.697	0.0167593
894.775	0.0167787
894.853	0.0167176
894.932	0.0167298
895.010	0.0167521
895.088	0.0167964
895.166	0.0166251
895.244	0.0164674
895.322	0.0165554
895.400	0.0168034
895.478	0.0165276
895.557	0.0164735
895.635	0.0165529
895.713	0.0166913
895.791	0.0166234
895.869	0.0166566
895.947	0.0165958
896.025	0.0165942
896.103	0.0164987
896.182	0.0164073
896.260	0.0165262
896.338	0.0165166
896.416	0.0165943
896.494	0.0165334
896.572	0.0164864
896.650	0.0163963
896.728	0.0164671
896.807	0.0163911
896.885	0.0165417
896.963	0.0165478
897.041	0.0165199
897.119	0.0163811
897.197	0.0165279
897.275	0.0166285
897.353	0.0166527
897.432	0.0166705
897.510	0.0168362
897.588	0.0168944
897.666	0.0169376
897.744	0.0169666
897.822	0.0169255
897.900	0.0169273
897.978	0.0168488
898.057	0.0169518
898.135	0.0168390
898.213	0.0168954
898.291	0.0169304
898.369	0.0168565
898.447	0.0167915
898.525	0.0169135
898.603	0.0166663
898.682	0.0167787
898.760	0.0166541
898.838	0.0164593
898.916	0.0164124
898.994	0.0164257
899.072	0.0163860
899.150	0.0164819
899.228	0.0164481
899.307	0.0164247
899.385	0.0165459
899.463	0.0163678
899.541	0.0164201
899.619	0.0166028
899.697	0.0164682
899.775	0.0164913
899.853	0.0165788
899.932	0.0165424
900.010	0.0166108
900.088	0.0165851
900.166	0.0165881
900.244	0.0166411
900.322	0.0165446
900.400	0.0163797
900.478	0.0164594
900.557	0.0164941
900.635	0.0164606
900.713	0.0164509
900.791	0.0163826
900.869	0.0165399
900.947	0.0166016
901.025	0.0164264
901.103	0.0163335
901.182	0.0163021
901.260	0.0165086
901.338	0.0164083
901.416	0.0164005
901.494	0.0164806
901.572	0.0164516
901.650	0.0165968
901.728	0.0165240
901.807	0.0164742
901.885	0.0165333
901.963	0.0167238
902.041	0.0166272
902.119	0.0165844
902.197	0.0165352
902.275	0.0166894
902.353	0.0165115
902.432	0.0165226
902.510	0.0166666
902.588	0.0166278
902.666	0.0166566
902.744	0.0165605
902.822	0.0165569
902.900	0.0165276
902.978	0.0164879
903.057	0.0165540
903.135	0.0165466
903.213	0.0165094
903.291	0.0166076
903.369	0.0165652
903.447	0.0165247
903.525	0.0164688
903.603	0.0165084
903.682	0.0166307
903.760	0.0166286
903.838	0.0165459
903.916	0.0166132
903.994	0.0166579
904.072	0.0165772
904.150	0.0166092
904.228	0.0165508
904.307	0.0164803
904.385	0.0166244
904.463	0.0165075
904.541	0.0165267
904.619	0.0166521
904.697	0.0163866
904.775	0.0163540
904.853	0.0165164
904.932	0.0164390
905.010	0.0163532
905.088	0.0162517
905.166	0.0163593
905.244	0.0162968
905.322	0.0162335
905.400	0.0160989
905.478	0.0164156
905.557	0.0163059
905.635	0.0161815
905.713	0.0162744
905.791	0.0162698
905.869	0.0162057
905.947	0.0163457
906.025	0.0162922
906.103	0.0161930
906.182	0.0163441
906.260	0.0163529
906.338	0.0162952
906.416	0.0163811
906.494	0.0163612
906.572	0.0165138
906.650	0.0164451
906.728	0.0163571
906.807	0.0164827
906.885	0.0165505
906.963	0.0163836
907.041	0.0164384
907.119	0.0165130
907.197	0.0164758
907.275	0.0165236
907.353	0.0164902
907.432	0.0163995
907.510	0.0163492
907.588	0.0165108
907.666	0.0164996
907.744	0.0163525
907.822	0.0164061
907.900	0.0164925
907.978	0.0164688
908.057	0.0163390
908.135	0.0164467
908.213	0.0164127
908.291	0.0163577
908.369	0.0163943
908.447	0.0165273
908.525	0.0164318
908.603	0.0164663
908.682	0.0165484
908.760	0.0165840
908.838	0.0165431
908.916	0.0166817
908.994	0.0165366
909.072	0.0164905
909.150	0.0164879
909.228	0.0165695
909.307	0.0166342
909.385	0.0167001
909.463	0.0165910
909.541	0.0165393
909.619	0.0166979
909.697	0.0167195
909.775	0.0166540
909.853	0.0165949
909.932	0.0166304
910.010	0.0166401
910.088	0.0166937
910.166	0.0165835
910.244	0.0167415
910.322	0.0166759
910.400	0.0166705
910.478	0.0167260
910.557	0.0167802
910.635	0.0166689
910.713	0.0166776
910.791	0.0165901
910.869	0.0167427
910.947	0.0166735
911.025	0.0166602
911.103	0.0165601
911.182	0.0166976
911.260	0.0166465
911.338	0.0164667
911.416	0.0165620
911.494	0.0165803
911.572	0.0164792
911.650	0.0164830
911.728	0.0165216
911.807	0.0164678
911.885	0.0165593
911.963	0.0164287
912.041	0.0166290
912.119	0.0163819
912.197	0.0164513
912.275	0.0164385
912.353	0.0164718
912.432	0.0164794
912.510	0.0165885
912.588	0.0165147
912.666	0.0164720
912.744	0.0164558
912.822	0.0165392
912.900	0.0165685
912.978	0.0164832
913.057	0.0165935
913.135	0.0165745
913.213	0.0164302
913.291	0.0165136
913.369	0.0165574
913.447	0.0165334
913.525	0.0166403
913.603	0.0164666
913.682	0.0166134
913.760	0.0166738
913.838	0.0165554
913.916	0.0166187
913.994	0.0164475
914.072	0.0166219
914.150	0.0166058
914.228	0.0166125
914.307	0.0165376
914.385	0.0165679
914.463	0.0165885
914.541	0.0166959
914.619	0.0168464
914.697	0.0165842
914.775	0.0166768
914.853	0.0166356
914.932	0.0166121
915.010	0.0167401
915.088	0.0166929
915.166	0.0167218
915.244	0.0168692
915.322	0.0167649
915.400	0.0168720
915.478	0.0166708
915.557	0.0167072
915.635	0.0167760
915.713	0.0168024
915.791	0.0169104
915.869	0.0168414
915.947	0.0167916
916.025	0.0168648
916.103	0.0166854
916.182	0.0167255
916.260	0.0167389
916.338	0.0167537
916.416	0.0166866
916.494	0.0167562
916.572	0.0167494
916.650	0.0165943
916.728	0.0167382
916.807	0.0166910
916.885	0.0167519
916.963	0.0167043
917.041	0.0167197
917.119	0.0167142
917.197	0.0165936
917.275	0.0166090
917.353	0.0165996
917.432	0.0166656
917.510	0.0165955
917.588	0.0167372
917.666	0.0166037
917.744	0.0167016
917.822	0.0165909
917.900	0.0166439
917.978	0.0165767
918.057	0.0165414
918.135	0.0165703
918.213	0.0163963
918.291	0.0164558
918.369	0.0164201
918.447	0.0166055
918.525	0.0164989
918.603	0.0162848
918.682	0.0164747
918.760	0.0164816
918.838	0.0166003
918.916	0.0164154
918.994	0.0163935
919.072	0.0164185
919.150	0.0163866
919.228	0.0163371
919.307	0.0163051
919.385	0.0164964
919.463	0.0165040
919.541	0.0164017
919.619	0.0163668
919.697	0.0164352
919.775	0.0163132
919.853	0.0164914
919.932	0.0165719
920.010	0.0165533
920.088	0.0165207
920.166	0.0164690
920.244	0.0166884
920.322	0.0167781
920.400	0.0167798
920.478	0.0167303
920.557	0.0167874
920.635	0.0167352
920.713	0.0167274
920.791	0.0166138
920.869	0.0167429
920.947	0.0167263
921.025	0.0166809
921.103	0.0165877
921.182	0.0165029
921.260	0.0166886
921.338	0.0166496
921.416	0.0166801
921.494	0.0166096
921.572	0.0165887
921.650	0.0166870
921.728	0.0165731
921.807	0.0166828
921.885	0.0167199
921.963	0.0167883
922.041	0.0168622
922.119	0.0166701
922.197	0.0166807
922.275	0.0164583
922.353	0.0165657
922.432	0.0166505
922.510	0.0166138
922.588	0.0165429
922.666	0.0165574
922.744	0.0166353
922.822	0.0166167
922.900	0.0167462
922.978	0.0166930
923.057	0.0166010
923.135	0.0166909
923.213	0.0167229
923.291	0.0166085
923.369	0.0167004
923.447	0.0166335
923.525	0.0167720
923.603	0.0167465
923.682	0.0165820
923.760	0.0164124
923.838	0.0164410
923.916	0.0163429
923.994	0.0165139
924.072	0.0164450
924.150	0.0164188
924.228	0.0164763
924.307	0.0163503
924.385	0.0164252
924.463	0.0163478
924.541	0.0163655
924.619	0.0164661
924.697	0.0164339
924.775	0.0165895
924.853	0.0165284
924.932	0.0165482
925.010	0.0166418
925.088	0.0164745
925.166	0.0164555
925.244	0.0165359
925.322	0.0164253
925.400	0.0162663
925.478	0.0163924
925.557	0.0161787
925.635	0.0162073
925.713	0.0163338
925.791	0.0164434
925.869	0.0163597
925.947	0.0163851
926.025	0.0164455
926.103	0.0163688
926.182	0.0165266
926.260	0.0165405
926.338	0.0165356
926.416	0.0164174
926.494	0.0165789
926.572	0.0165851
926.650	0.0166679
926.728	0.0164091
926.807	0.0164782
926.885	0.0166251
926.963	0.0166453
927.041	0.0165911
927.119	0.0165356
927.197	0.0165319
927.275	0.0164644
927.353	0.0164934
927.432	0.0166235
927.510	0.0164548
927.588	0.0166089
927.666	0.0166594
927.744	0.0166455
927.822	0.0168099
927.900	0.0165472
927.978	0.0166927
928.057	0.0167103
928.135	0.0165816
928.213	0.0166397
928.291	0.0166203
928.369	0.0165063
928.447	0.0164779
928.525	0.0166579
928.603	0.0165903
928.682	0.0166105
928.760	0.0166354
928.838	0.0165351
928.916	0.0165387
928.994	0.0165386
929.072	0.0167042
929.150	0.0165896
929.228	0.0165618
929.307	0.0166367
929.385	0.0167060
929.463	0.0166615
929.541	0.0165440
929.619	0.0166035
929.697	0.0165421
929.775	0.0164513
929.853	0.0165228
929.932	0.0164112
930.010	0.0165144
930.088	0.0166124
930.166	0.0164285
930.244	0.0164285
930.322	0.0164809
930.400	0.0163991
930.478	0.0163646
930.557	0.0164236
930.635	0.0163609
930.713	0.0163837
930.791	0.0164732
930.869	0.0163351
930.947	0.0166134
931.025	0.0164764
931.103	0.0164085
931.182	0.0163860
931.260	0.0164607
931.338	0.0165723
931.416	0.0166114
931.494	0.0165817
931.572	0.0165700
931.650	0.0164818
931.728	0.0165569
931.807	0.0164756
931.885	0.0165350
931.963	0.0164411
932.041	0.0162971
932.119	0.0163586
932.197	0.0164798
932.275	0.0165251
932.353	0.0163696
932.432	0.0164398
932.510	0.0164906
932.588	0.0163905
932.666	0.0165237
932.744	0.0166290
932.822	0.0166737
932.900	0.0165591
932.978	0.0165070
933.057	0.0166637
933.135	0.0166929
933.213	0.0167190
933.291	0.0167016
933.369	0.0166167
933.447	0.0165865
933.525	0.0167584
933.603	0.0166779
933.682	0.0166622
933.760	0.0167553
933.838	0.0166399
933.916	0.0167603
933.994	0.0168178
934.072	0.0167596
934.150	0.0167731
934.228	0.0167049
934.307	0.0166301
934.385	0.0167443
934.463	0.0167475
934.541	0.0168629
934.619	0.0167448
934.697	0.0168104
934.775	0.0167421
934.853	0.0166104
934.932	0.0165984
935.010	0.0166209
935.088	0.0165543
935.166	0.0166109
935.244	0.0165676
935.322	0.0165417
935.400	0.0165038
935.478	0.0165830
935.557	0.0165479
935.635	0.0165852
935.713	0.0165430
935.791	0.0163425
935.869	0.0163702
935.947	0.0166448
936.025	0.0165990
936.103	0.0164686
936.182	0.0165540
936.260	0.0165617
936.338	0.0165342
936.416	0.0165157
936.494	0.0165537
936.572	0.0165096
936.650	0.0164388
936.728	0.0165014
936.807	0.0164802
936.885	0.0164736
936.963	0.0165246
937.041	0.0165874
937.119	0.0163647
937.197	0.0164858
937.275	0.0164124
937.353	0.0164179
937.432	0.0165204
937.510	0.0164749
937.588	0.0166141
937.666	0.0164827
937.744	0.0164796
937.822	0.0166552
937.900	0.0164971
937.978	0.0165057
938.057	0.0165446
938.135	0.0163872
938.213	0.0165826
938.291	0.0165919
938.369	0.0166364
938.447	0.0165766
938.525	0.0166810
938.603	0.0167055
938.682	0.0167600
938.760	0.0166064
938.838	0.0166235
938.916	0.0165957
938.994	0.0167085
939.072	0.0166894
939.150	0.0166533
939.228	0.0165544
939.307	0.0168034
939.385	0.0167181
939.463	0.0167252
939.541	0.0167745
939.619	0.0167386
939.697	0.0166112
939.775	0.0167625
939.853	0.0168911
939.932	0.0167336
940.010	0.0166240
940.088	0.0165382
940.166	0.0165951
940.244	0.0167598
940.322	0.0165613
940.400	0.0166091
940.478	0.0166714
940.557	0.0167587
940.635	0.0167411
940.713	0.0165919
940.791	0.0165988
940.869	0.0166207
940.947	0.0165218
941.025	0.0165982
941.103	0.0166806
941.182	0.0165554
941.260	0.0164319
941.338	0.0166016
941.416	0.0166182
941.494	0.0165002
941.572	0.0165774
941.650	0.0166114
941.728	0.0166841
941.807	0.0165755
941.885	0.0165118
941.963	0.0165523
942.041	0.0165800
942.119	0.0166645
942.197	0.0166006
942.275	0.0165383
942.353	0.0165122
942.432	0.0165259
942.510	0.0164858
942.588	0.0166641
942.666	0.0166886
942.744	0.0165710
942.822	0.0165737
942.900	0.0164683
942.978	0.0166348
943.057	0.0164635
943.135	0.0165408
943.213	0.0164124
943.291	0.0163586
943.369	0.0163684
943.447	0.0164175
943.525	0.0165492
943.603	0.0166090
943.682	0.0166314
943.760	0.0164142
943.838	0.0165562
943.916	0.0164957
943.994	0.0165350
944.072	0.0163203
944.150	0.0165800
944.228	0.0166130
944.307	0.0165741
944.385	0.0164825
944.463	0.0165861
944.541	0.0166304
944.619	0.0165862
944.697	0.0165681
944.775	0.0165582
944.853	0.0165353
944.932	0.0166236
945.010	0.0166013
945.088	0.0165517
945.166	0.0165929
945.244	0.0165751
945.322	0.0166654
945.400	0.0166343
945.478	0.0167029
945.557	0.0166378
945.635	0.0165443
945.713	0.0165707
945.791	0.0164796
945.869	0.0165895
945.947	0.0165382
946.025	0.0166286
946.103	0.0165807
946.182	0.0165122
946.260	0.0165084
946.338	0.0166214
946.416	0.0165865
946.494	0.0166254
946.572	0.0166354
946.650	0.0166975
946.728	0.0167059
946.807	0.0166808
946.885	0.0166142
946.963	0.0165232
947.041	0.0165779
947.119	0.0166368
947.197	0.0166296
947.275	0.0167200
947.353	0.0166103
947.432	0.0165965
947.510	0.0165547
947.588	0.0165134
947.666	0.0165626
947.744	0.0165852
947.822	0.0164889
947.900	0.0166509
947.978	0.0166344
948.057	0.0165969
948.135	0.0165090
948.213	0.0165012
948.291	0.0165782
948.369	0.0165035
948.447	0.0165643
948.525	0.0165005
948.603	0.0166368
948.682	0.0164794
948.760	0.0164483
948.838	0.0165120
948.916	0.0164571
948.994	0.0164288
949.072	0.0164433
949.150	0.0164173
949.228	0.0163773
949.307	0.0164859
949.385	0.0164203
949.463	0.0164940
949.541	0.0165259
949.619	0.0164909
949.697	0.0163148
949.775	0.0165622
949.853	0.0165714
949.932	0.0164222
950.010	0.0163596
950.088	0.0164212
950.166	0.0164532
950.244	0.0165012
950.322	0.0164339
950.400	0.0163743
950.478	0.0164296
950.557	0.0165856
950.635	0.0165365
950.713	0.0164472
950.791	0.0164874
950.869	0.0165104
950.947	0.0165375
951.025	0.0165981
951.103	0.0164590
951.182	0.0165142
951.260	0.0166724
951.338	0.0166586
951.416	0.0165154
951.494	0.0164899
951.572	0.0166840
951.650	0.0166828
951.728	0.0166595
951.807	0.0166611
951.885	0.0168499
951.963	0.0167606
952.041	0.0166286
952.119	0.0167389
952.197	0.0167857
952.275	0.0166708
952.353	0.0167030
952.432	0.0166112
952.510	0.0166209
952.588	0.0166931
952.666	0.0166534
952.744	0.0166462
952.822	0.0167300
952.900	0.0165166
952.978	0.0165114
953.057	0.0165636
953.135	0.0165943
953.213	0.0165051
953.291	0.0164478
953.369	0.0163949
953.447	0.0165656
953.525	0.0165416
953.603	0.0164451
953.682	0.0163873
953.760	0.0163705
953.838	0.0165421
953.916	0.0165013
953.994	0.0164090
954.072	0.0166550
954.150	0.0165385
954.228	0.0165118
954.307	0.0165537
954.385	0.0166323
954.463	0.0165956
954.541	0.0166149
954.619	0.0166872
954.697	0.0166339
954.775	0.0165993
954.853	0.0166408
954.932	0.0166779
955.010	0.0166997
955.088	0.0166899
955.166	0.0167053
955.244	0.0167478
955.322	0.0167353
955.400	0.0165497
955.478	0.0166065
955.557	0.0168526
955.635	0.0166572
955.713	0.0165322
955.791	0.0166211
955.869	0.0165501
955.947	0.0166096
956.025	0.0165245
956.103	0.0165921
956.182	0.0166496
956.260	0.0164905
956.338	0.0166845
956.416	0.0164956
956.494	0.0165694
956.572	0.0164783
956.650	0.0164160
956.728	0.0165950
956.807	0.0165292
956.885	0.0165154
956.963	0.0165679
957.041	0.0166361
957.119	0.0165324
957.197	0.0166843
957.275	0.0166610
957.353	0.0164234
957.432	0.0165012
957.510	0.0165936
957.588	0.0166959
957.666	0.0166520
957.744	0.0165647
957.822	0.0165890
957.900	0.0166075
957.978	0.0165507
958.057	0.0164896
958.135	0.0165083
958.213	0.0166229
958.291	0.0166887
958.369	0.0167113
958.447	0.0166339
958.525	0.0166615
958.603	0.0165800
958.682	0.0165942
958.760	0.0167242
958.838	0.0167178
958.916	0.0166271
958.994	0.0166299
959.072	0.0166586
959.150	0.0166862
959.228	0.0165979
959.307	0.0166363
959.385	0.0165079
959.463	0.0166134
959.541	0.0165473
959.619	0.0165172
959.697	0.0165823
959.775	0.0165882
959.853	0.0166587
959.932	0.0167658
960.010	0.0167595
960.088	0.0166383
960.166	0.0166170
960.244	0.0166063
960.322	0.0167552
960.400	0.0168495
960.478	0.0167852
960.557	0.0167780
960.635	0.0166037
960.713	0.0163467
960.791	0.0165481
960.869	0.0163573
960.947	0.0165896
961.025	0.0165186
961.103	0.0164944
961.182	0.0164040
961.260	0.0164185
961.338	0.0163286
961.416	0.0164591
961.494	0.0163754
961.572	0.0163264
961.650	0.0164456
961.728	0.0163097
961.807	0.0163839
961.885	0.0164558
961.963	0.0165565
962.041	0.0164183
962.119	0.0164996
962.197	0.0165894
962.275	0.0165139
962.353	0.0164382
962.432	0.0165511
962.510	0.0166830
962.588	0.0166264
962.666	0.0166534
962.744	0.0166865
962.822	0.0166720
962.900	0.0165945
962.978	0.0166399
963.057	0.0167231
963.135	0.0166535
963.213	0.0166181
963.291	0.0164877
963.369	0.0164524
963.447	0.0165755
963.525	0.0164381
963.603	0.0164500
963.682	0.0165425
963.760	0.0164532
963.838	0.0164652
963.916	0.0162881
963.994	0.0164428
964.072	0.0164365
964.150	0.0163314
964.228	0.0164230
964.307	0.0164640
964.385	0.0163662
964.463	0.0163597
964.541	0.0163479
964.619	0.0164278
964.697	0.0165875
964.775	0.0164125
964.853	0.0164470
964.932	0.0165950
965.010	0.0165456
965.088	0.0166831
965.166	0.0165913
965.244	0.0165153
965.322	0.0166346
965.400	0.0166060
965.478	0.0166137
965.557	0.0165872
965.635	0.0165634
965.713	0.0165985
965.791	0.0166310
965.869	0.0166309
965.947	0.0166029
966.025	0.0164517
966.103	0.0166653
966.182	0.0165644
966.260	0.0163964
966.338	0.0164073
966.416	0.0164101
966.494	0.0166085
966.572	0.0164079
966.650	0.0163882
966.728	0.0166193
966.807	0.0164397
966.885	0.0163966
966.963	0.0165102
967.041	0.0165121
967.119	0.0164594
967.197	0.0164841
967.275	0.0165079
967.353	0.0165110
967.432	0.0165454
967.510	0.0164248
967.588	0.0164072
967.666	0.0164745
967.744	0.0165816
967.822	0.0165302
967.900	0.0165442
967.978	0.0166018
968.057	0.0165466
968.135	0.0165826
968.213	0.0166593
968.291	0.0165047
968.369	0.0165629
968.447	0.0165957
968.525	0.0166549
968.603	0.0165826
968.682	0.0166821
968.760	0.0165878
968.838	0.0166707
968.916	0.0167452
968.994	0.0166561
969.072	0.0165954
969.150	0.0165733
969.228	0.0166235
969.307	0.0165802
969.385	0.0166880
969.463	0.0167082
969.541	0.0164465
969.619	0.0167554
969.697	0.0167076
969.775	0.0165786
969.853	0.0165367
969.932	0.0165676
