06/10/2022	16:11:47	Ver.	4.1	UNKNOWN
Optical Delay	550.020508	Delta X		0.078125	Sweeps	1	Scan Rate	0/0
Coordinates	Axis 1	NaN	Axis 2	NaN	Axis 3	NaN	Axis 4	NaN	Axis 5	NaN	Axis 6	0.000000
TX Power	0.000000	RX Power	0.000000

550.021	0.0166039
550.099	0.0165855
550.177	0.0165205
550.255	0.0165027
550.333	0.0166763
550.411	0.0165974
550.489	0.0165731
550.567	0.0166606
550.646	0.0165887
550.724	0.0164720
550.802	0.0165897
550.880	0.0165705
550.958	0.0165558
551.036	0.0166362
551.114	0.0166249
551.192	0.0166412
551.271	0.0165018
551.349	0.0165490
551.427	0.0165118
551.505	0.0166142
551.583	0.0165605
551.661	0.0167167
551.739	0.0166014
551.817	0.0165588
551.896	0.0165369
551.974	0.0167332
552.052	0.0166961
552.130	0.0165928
552.208	0.0165521
552.286	0.0165802
552.364	0.0165331
552.442	0.0165946
552.521	0.0167245
552.599	0.0166350
552.677	0.0166060
552.755	0.0165975
552.833	0.0165239
552.911	0.0165307
552.989	0.0167846
553.067	0.0166405
553.146	0.0166621
553.224	0.0165623
553.302	0.0166530
553.380	0.0165252
553.458	0.0166513
553.536	0.0166494
553.614	0.0166153
553.692	0.0166098
553.771	0.0166122
553.849	0.0164733
553.927	0.0165884
554.005	0.0165799
554.083	0.0166751
554.161	0.0165124
554.239	0.0166846
554.317	0.0165125
554.396	0.0165760
554.474	0.0166230
554.552	0.0165274
554.630	0.0166917
554.708	0.0165463
554.786	0.0165569
554.864	0.0165369
554.942	0.0165634
555.021	0.0165306
555.099	0.0167582
555.177	0.0166386
555.255	0.0166334
555.333	0.0166123
555.411	0.0166216
555.489	0.0165727
555.567	0.0165947
555.646	0.0166876
555.724	0.0166796
555.802	0.0165581
555.880	0.0166698
555.958	0.0165865
556.036	0.0165786
556.114	0.0166198
556.192	0.0165553
556.271	0.0165413
556.349	0.0166111
556.427	0.0166853
556.505	0.0166247
556.583	0.0165668
556.661	0.0165907
556.739	0.0165686
556.817	0.0166405
556.896	0.0165083
556.974	0.0166707
557.052	0.0165427
557.130	0.0165263
557.208	0.0165505
557.286	0.0166406
557.364	0.0165182
557.442	0.0166100
557.521	0.0165789
557.599	0.0164433
557.677	0.0165105
557.755	0.0166221
557.833	0.0166367
557.911	0.0167876
557.989	0.0166901
558.067	0.0165865
558.146	0.0166521
558.224	0.0165225
558.302	0.0166887
558.380	0.0166096
558.458	0.0166128
558.536	0.0166785
558.614	0.0165675
558.692	0.0166659
558.771	0.0165762
558.849	0.0165842
558.927	0.0166667
559.005	0.0166125
559.083	0.0164547
559.161	0.0165333
559.239	0.0166273
559.317	0.0165688
559.396	0.0164768
559.474	0.0166248
559.552	0.0165694
559.630	0.0166763
559.708	0.0167710
559.786	0.0166555
559.864	0.0165108
559.942	0.0166191
560.021	0.0166933
560.099	0.0165002
560.177	0.0166657
560.255	0.0165645
560.333	0.0165015
560.411	0.0165594
560.489	0.0166479
560.567	0.0165227
560.646	0.0165260
560.724	0.0165180
560.802	0.0166315
560.880	0.0166284
560.958	0.0165624
561.036	0.0165511
561.114	0.0166011
561.192	0.0165848
561.271	0.0165587
561.349	0.0165691
561.427	0.0165795
561.505	0.0166280
561.583	0.0165015
561.661	0.0166164
561.739	0.0165975
561.817	0.0165620
561.896	0.0165732
561.974	0.0167647
562.052	0.0164803
562.130	0.0165593
562.208	0.0165534
562.286	0.0166555
562.364	0.0167617
562.442	0.0165154
562.521	0.0166908
562.599	0.0167430
562.677	0.0164666
562.755	0.0165634
562.833	0.0167005
562.911	0.0164954
562.989	0.0166483
563.067	0.0164633
563.146	0.0166285
563.224	0.0165441
563.302	0.0166139
563.380	0.0165534
563.458	0.0165242
563.536	0.0167298
563.614	0.0167191
563.692	0.0165453
563.771	0.0166706
563.849	0.0164604
563.927	0.0165114
564.005	0.0167085
564.083	0.0168143
564.161	0.0166824
564.239	0.0166295
564.317	0.0166378
564.396	0.0167071
564.474	0.0166381
564.552	0.0164993
564.630	0.0165365
564.708	0.0167144
564.786	0.0165995
564.864	0.0165151
564.942	0.0166693
565.021	0.0165861
565.099	0.0164803
565.177	0.0166000
565.255	0.0166225
565.333	0.0165652
565.411	0.0165747
565.489	0.0166404
565.567	0.0164798
565.646	0.0165644
565.724	0.0165860
565.802	0.0166123
565.880	0.0166107
565.958	0.0166499
566.036	0.0165501
566.114	0.0166605
566.192	0.0166671
566.271	0.0165164
566.349	0.0165349
566.427	0.0165569
566.505	0.0167208
566.583	0.0167036
566.661	0.0166677
566.739	0.0163747
566.817	0.0165215
566.896	0.0166205
566.974	0.0167046
567.052	0.0166025
567.130	0.0165613
567.208	0.0164705
567.286	0.0166450
567.364	0.0166673
567.442	0.0166066
567.521	0.0165146
567.599	0.0165776
567.677	0.0166560
567.755	0.0166715
567.833	0.0165410
567.911	0.0166563
567.989	0.0166560
568.067	0.0166006
568.146	0.0164519
568.224	0.0165665
568.302	0.0166089
568.380	0.0165580
568.458	0.0165650
568.536	0.0166387
568.614	0.0166772
568.692	0.0165877
568.771	0.0166621
568.849	0.0165459
568.927	0.0165968
569.005	0.0165392
569.083	0.0164858
569.161	0.0167329
569.239	0.0166040
569.317	0.0167146
569.396	0.0166681
569.474	0.0166613
569.552	0.0165685
569.630	0.0166525
569.708	0.0165667
569.786	0.0165495
569.864	0.0167353
569.942	0.0166023
570.021	0.0166839
570.099	0.0166463
570.177	0.0165228
570.255	0.0165486
570.333	0.0166991
570.411	0.0165983
570.489	0.0166453
570.567	0.0166576
570.646	0.0165971
570.724	0.0166758
570.802	0.0166451
570.880	0.0166087
570.958	0.0165118
571.036	0.0166534
571.114	0.0166786
571.192	0.0166794
571.271	0.0166712
571.349	0.0166075
571.427	0.0166501
571.505	0.0165853
571.583	0.0166002
571.661	0.0166800
571.739	0.0166737
571.817	0.0166743
571.896	0.0166609
571.974	0.0165849
572.052	0.0166785
572.130	0.0166380
572.208	0.0166154
572.286	0.0166335
572.364	0.0166624
572.442	0.0165944
572.521	0.0165943
572.599	0.0165900
572.677	0.0165536
572.755	0.0165845
572.833	0.0165781
572.911	0.0166512
572.989	0.0165981
573.067	0.0166503
573.146	0.0165861
573.224	0.0165807
573.302	0.0166632
573.380	0.0167804
573.458	0.0165677
573.536	0.0165475
573.614	0.0165804
573.692	0.0165990
573.771	0.0166428
573.849	0.0166020
573.927	0.0165714
574.005	0.0164888
574.083	0.0166093
574.161	0.0165783
574.239	0.0166778
574.317	0.0166035
574.396	0.0165679
574.474	0.0166557
574.552	0.0165731
574.630	0.0165770
574.708	0.0166822
574.786	0.0166172
574.864	0.0166354
574.942	0.0165269
575.021	0.0165416
575.099	0.0165866
575.177	0.0164258
575.255	0.0165248
575.333	0.0166827
575.411	0.0166939
575.489	0.0166744
575.567	0.0166554
575.646	0.0166338
575.724	0.0166740
575.802	0.0165556
575.880	0.0166565
575.958	0.0166293
576.036	0.0164777
576.114	0.0165608
576.192	0.0166284
576.271	0.0164765
576.349	0.0165509
576.427	0.0164941
576.505	0.0165072
576.583	0.0167448
576.661	0.0167458
576.739	0.0164799
576.817	0.0165456
576.896	0.0164376
576.974	0.0165596
577.052	0.0165795
577.130	0.0165736
577.208	0.0165820
577.286	0.0166221
577.364	0.0165901
577.442	0.0166335
577.521	0.0166460
577.599	0.0165994
577.677	0.0165698
577.755	0.0165804
577.833	0.0166639
577.911	0.0166438
577.989	0.0164832
578.067	0.0166614
578.146	0.0165820
578.224	0.0165517
578.302	0.0165843
578.380	0.0166396
578.458	0.0165577
578.536	0.0165706
578.614	0.0165716
578.692	0.0166444
578.771	0.0166773
578.849	0.0165506
578.927	0.0166680
579.005	0.0166724
579.083	0.0166412
579.161	0.0166217
579.239	0.0165761
579.317	0.0166138
579.396	0.0166180
579.474	0.0166409
579.552	0.0166335
579.630	0.0166007
579.708	0.0166985
579.786	0.0165736
579.864	0.0165450
579.942	0.0166727
580.021	0.0164929
580.099	0.0166706
580.177	0.0167336
580.255	0.0165926
580.333	0.0166295
580.411	0.0166092
580.489	0.0165852
580.567	0.0166605
580.646	0.0167421
580.724	0.0165423
580.802	0.0166135
580.880	0.0167442
580.958	0.0166779
581.036	0.0165925
581.114	0.0166065
581.192	0.0165275
581.271	0.0165654
581.349	0.0167396
581.427	0.0166660
581.505	0.0167644
581.583	0.0167469
581.661	0.0166006
581.739	0.0166874
581.817	0.0165382
581.896	0.0165034
581.974	0.0164701
582.052	0.0166499
582.130	0.0165456
582.208	0.0167135
582.286	0.0166360
582.364	0.0165286
582.442	0.0166678
582.521	0.0167258
582.599	0.0165363
582.677	0.0165459
582.755	0.0167430
582.833	0.0165240
582.911	0.0166506
582.989	0.0166697
583.067	0.0165536
583.146	0.0164520
583.224	0.0165995
583.302	0.0166522
583.380	0.0165755
583.458	0.0166447
583.536	0.0166523
583.614	0.0165588
583.692	0.0165366
583.771	0.0166169
583.849	0.0165549
583.927	0.0166892
584.005	0.0166026
584.083	0.0166066
584.161	0.0167236
584.239	0.0165882
584.317	0.0165598
584.396	0.0165731
584.474	0.0166965
584.552	0.0165746
584.630	0.0165913
584.708	0.0165312
584.786	0.0166315
584.864	0.0166161
584.942	0.0166206
585.021	0.0165519
585.099	0.0165819
585.177	0.0166361
585.255	0.0166474
585.333	0.0165948
585.411	0.0166283
585.489	0.0165726
585.567	0.0166174
585.646	0.0166991
585.724	0.0166253
585.802	0.0166431
585.880	0.0166097
585.958	0.0166116
586.036	0.0165825
586.114	0.0166478
586.192	0.0165642
586.271	0.0166574
586.349	0.0166401
586.427	0.0165032
586.505	0.0166667
586.583	0.0167206
586.661	0.0166077
586.739	0.0167316
586.817	0.0166241
586.896	0.0165281
586.974	0.0165771
587.052	0.0166578
587.130	0.0166512
587.208	0.0166096
587.286	0.0165572
587.364	0.0165904
587.442	0.0165953
587.521	0.0166218
587.599	0.0166125
587.677	0.0166550
587.755	0.0165923
587.833	0.0166624
587.911	0.0165437
587.989	0.0165775
588.067	0.0166019
588.146	0.0165461
588.224	0.0166301
588.302	0.0166625
588.380	0.0165021
588.458	0.0163926
588.536	0.0165504
588.614	0.0165369
588.692	0.0166309
588.771	0.0165156
588.849	0.0165933
588.927	0.0166142
589.005	0.0166424
589.083	0.0165176
589.161	0.0165087
589.239	0.0166192
589.317	0.0165811
589.396	0.0166158
589.474	0.0165157
589.552	0.0164998
589.630	0.0165843
589.708	0.0165230
589.786	0.0165489
589.864	0.0167001
589.942	0.0165765
590.021	0.0165456
590.099	0.0167063
590.177	0.0166551
590.255	0.0166566
590.333	0.0166694
590.411	0.0166863
590.489	0.0165296
590.567	0.0166267
590.646	0.0166902
590.724	0.0166491
590.802	0.0164809
590.880	0.0166556
590.958	0.0167132
591.036	0.0166730
591.114	0.0165753
591.192	0.0165281
591.271	0.0165648
591.349	0.0166261
591.427	0.0165594
591.505	0.0165805
591.583	0.0164917
591.661	0.0165563
591.739	0.0165565
591.817	0.0165675
591.896	0.0164983
591.974	0.0166288
592.052	0.0166730
592.130	0.0166251
592.208	0.0165881
592.286	0.0165862
592.364	0.0166299
592.442	0.0166236
592.521	0.0165879
592.599	0.0165746
592.677	0.0165569
592.755	0.0165690
592.833	0.0164974
592.911	0.0165308
592.989	0.0166585
593.067	0.0166364
593.146	0.0165837
593.224	0.0165802
593.302	0.0165857
593.380	0.0166205
593.458	0.0165189
593.536	0.0166572
593.614	0.0166054
593.692	0.0166281
593.771	0.0164837
593.849	0.0166824
593.927	0.0166761
594.005	0.0165909
594.083	0.0165988
594.161	0.0164750
594.239	0.0165514
594.317	0.0165737
594.396	0.0166416
594.474	0.0165472
594.552	0.0165411
594.630	0.0166043
594.708	0.0167638
594.786	0.0165250
594.864	0.0166390
594.942	0.0165988
595.021	0.0165206
595.099	0.0167128
595.177	0.0166096
595.255	0.0165582
595.333	0.0166785
595.411	0.0167172
595.489	0.0167297
595.567	0.0166878
595.646	0.0165630
595.724	0.0166541
595.802	0.0166136
595.880	0.0166518
595.958	0.0166412
596.036	0.0164973
596.114	0.0165105
596.192	0.0167081
596.271	0.0166869
596.349	0.0166439
596.427	0.0166056
596.505	0.0166189
596.583	0.0165793
596.661	0.0165488
596.739	0.0167033
596.817	0.0167953
596.896	0.0166558
596.974	0.0165651
597.052	0.0166486
597.130	0.0167319
597.208	0.0166290
597.286	0.0165981
597.364	0.0167319
597.442	0.0165294
597.521	0.0165254
597.599	0.0167535
597.677	0.0166718
597.755	0.0166163
597.833	0.0167593
597.911	0.0165086
597.989	0.0165796
598.067	0.0167912
598.146	0.0166436
598.224	0.0166298
598.302	0.0165873
598.380	0.0166252
598.458	0.0166004
598.536	0.0167528
598.614	0.0165832
598.692	0.0166571
598.771	0.0164994
598.849	0.0166844
598.927	0.0167143
599.005	0.0166735
599.083	0.0167903
599.161	0.0166216
599.239	0.0166266
599.317	0.0165816
599.396	0.0164729
599.474	0.0165044
599.552	0.0165360
599.630	0.0167394
599.708	0.0167390
599.786	0.0166254
599.864	0.0167894
599.942	0.0166640
600.021	0.0164464
600.099	0.0165317
600.177	0.0167269
600.255	0.0166248
600.333	0.0165216
600.411	0.0165376
600.489	0.0166216
600.567	0.0166580
600.646	0.0165827
600.724	0.0165054
600.802	0.0165881
600.880	0.0166132
600.958	0.0165454
601.036	0.0164867
601.114	0.0166596
601.192	0.0166608
601.271	0.0166600
601.349	0.0166077
601.427	0.0166634
601.505	0.0166389
601.583	0.0166688
601.661	0.0166379
601.739	0.0165717
601.817	0.0166405
601.896	0.0165344
601.974	0.0166408
602.052	0.0166850
602.130	0.0166995
602.208	0.0166110
602.286	0.0166188
602.364	0.0166235
602.442	0.0165446
602.521	0.0166225
602.599	0.0166130
602.677	0.0166223
602.755	0.0165812
602.833	0.0165598
602.911	0.0166389
602.989	0.0166113
603.067	0.0166446
603.146	0.0167139
603.224	0.0167177
603.302	0.0167005
603.380	0.0167182
603.458	0.0165174
603.536	0.0165591
603.614	0.0165128
603.692	0.0166258
603.771	0.0165521
603.849	0.0165615
603.927	0.0166082
604.005	0.0167075
604.083	0.0166296
604.161	0.0165206
604.239	0.0165601
604.317	0.0166785
604.396	0.0166353
604.474	0.0165517
604.552	0.0166351
604.630	0.0165923
604.708	0.0166230
604.786	0.0166788
604.864	0.0165775
604.942	0.0165328
605.021	0.0164629
605.099	0.0165858
605.177	0.0166419
605.255	0.0165650
605.333	0.0165155
605.411	0.0166695
605.489	0.0166026
605.567	0.0165623
605.646	0.0167205
605.724	0.0166365
605.802	0.0165422
605.880	0.0165743
605.958	0.0165775
606.036	0.0165928
606.114	0.0164964
606.192	0.0166436
606.271	0.0167381
606.349	0.0164758
606.427	0.0164883
606.505	0.0165582
606.583	0.0165527
606.661	0.0165194
606.739	0.0165275
606.817	0.0166302
606.896	0.0164816
606.974	0.0165060
607.052	0.0166148
607.130	0.0165910
607.208	0.0166135
607.286	0.0165739
607.364	0.0165491
607.442	0.0165819
607.521	0.0164231
607.599	0.0165519
607.677	0.0167202
607.755	0.0166106
607.833	0.0164583
607.911	0.0165905
607.989	0.0166153
608.067	0.0165693
608.146	0.0164980
608.224	0.0166084
608.302	0.0164181
608.380	0.0165424
608.458	0.0166180
608.536	0.0165157
608.614	0.0164323
608.692	0.0166107
608.771	0.0166426
608.849	0.0165205
608.927	0.0167154
609.005	0.0167129
609.083	0.0166138
609.161	0.0165377
609.239	0.0166329
609.317	0.0166300
609.396	0.0166540
609.474	0.0165557
609.552	0.0164830
609.630	0.0167030
609.708	0.0166042
609.786	0.0165452
609.864	0.0166788
609.942	0.0166725
610.021	0.0167431
610.099	0.0165802
610.177	0.0166888
610.255	0.0166229
610.333	0.0166171
610.411	0.0165286
610.489	0.0164886
610.567	0.0165845
610.646	0.0166096
610.724	0.0165631
610.802	0.0164574
610.880	0.0165774
610.958	0.0165601
611.036	0.0165940
611.114	0.0165815
611.192	0.0165697
611.271	0.0167093
611.349	0.0164529
611.427	0.0165417
611.505	0.0167490
611.583	0.0165317
611.661	0.0166098
611.739	0.0165173
611.817	0.0166375
611.896	0.0165157
611.974	0.0166449
612.052	0.0166854
612.130	0.0165025
612.208	0.0166418
612.286	0.0165404
612.364	0.0166257
612.442	0.0166750
612.521	0.0166862
612.599	0.0164636
612.677	0.0167374
612.755	0.0165664
612.833	0.0165134
612.911	0.0166190
612.989	0.0164619
613.067	0.0165130
613.146	0.0166454
613.224	0.0165501
613.302	0.0165472
613.380	0.0165125
613.458	0.0167588
613.536	0.0164954
613.614	0.0166127
613.692	0.0164901
613.771	0.0165366
613.849	0.0166429
613.927	0.0165958
614.005	0.0165094
614.083	0.0166485
614.161	0.0165900
614.239	0.0166338
614.317	0.0165972
614.396	0.0166190
614.474	0.0164626
614.552	0.0165772
614.630	0.0166868
614.708	0.0166235
614.786	0.0165493
614.864	0.0165144
614.942	0.0167009
615.021	0.0166754
615.099	0.0166151
615.177	0.0165394
615.255	0.0164371
615.333	0.0166241
615.411	0.0166872
615.489	0.0166267
615.567	0.0164204
615.646	0.0165947
615.724	0.0166067
615.802	0.0166513
615.880	0.0167432
615.958	0.0166991
616.036	0.0167087
616.114	0.0167746
616.192	0.0166075
616.271	0.0166302
616.349	0.0165976
616.427	0.0166401
616.505	0.0166020
616.583	0.0166068
616.661	0.0165398
616.739	0.0165415
616.817	0.0166283
616.896	0.0167007
616.974	0.0164703
617.052	0.0164833
617.130	0.0166563
617.208	0.0166438
617.286	0.0166458
617.364	0.0166695
617.442	0.0166570
617.521	0.0165842
617.599	0.0165707
617.677	0.0164812
617.755	0.0167281
617.833	0.0166251
617.911	0.0165667
617.989	0.0165823
618.067	0.0165981
618.146	0.0165034
618.224	0.0164716
618.302	0.0166939
618.380	0.0166908
618.458	0.0166772
618.536	0.0166994
618.614	0.0167139
618.692	0.0167185
618.771	0.0165958
618.849	0.0165971
618.927	0.0164937
619.005	0.0166866
619.083	0.0165318
619.161	0.0165806
619.239	0.0167024
619.317	0.0166193
619.396	0.0166428
619.474	0.0166317
619.552	0.0165134
619.630	0.0167169
619.708	0.0167060
619.786	0.0166704
619.864	0.0167500
619.942	0.0166548
620.021	0.0166278
620.099	0.0165920
620.177	0.0166124
620.255	0.0166794
620.333	0.0165826
620.411	0.0166906
620.489	0.0165417
620.567	0.0166315
620.646	0.0166782
620.724	0.0166953
620.802	0.0165772
620.880	0.0165067
620.958	0.0165475
621.036	0.0165476
621.114	0.0166923
621.192	0.0167076
621.271	0.0166035
621.349	0.0166356
621.427	0.0166467
621.505	0.0167432
621.583	0.0164951
621.661	0.0166150
621.739	0.0166023
621.817	0.0166743
621.896	0.0166308
621.974	0.0166434
622.052	0.0165113
622.130	0.0167499
622.208	0.0167333
622.286	0.0166139
622.364	0.0166898
622.442	0.0168068
622.521	0.0165758
622.599	0.0165659
622.677	0.0166170
622.755	0.0167222
622.833	0.0167033
622.911	0.0166068
622.989	0.0165860
623.067	0.0165977
623.146	0.0166180
623.224	0.0166587
623.302	0.0167155
623.380	0.0166155
623.458	0.0166660
623.536	0.0165638
623.614	0.0166235
623.692	0.0166029
623.771	0.0165948
623.849	0.0167297
623.927	0.0165894
624.005	0.0166262
624.083	0.0165881
624.161	0.0165386
624.239	0.0166169
624.317	0.0166587
624.396	0.0167461
624.474	0.0165278
624.552	0.0166871
624.630	0.0165912
624.708	0.0165508
624.786	0.0165194
624.864	0.0165096
624.942	0.0166201
625.021	0.0166586
625.099	0.0166319
625.177	0.0164721
625.255	0.0165201
625.333	0.0166204
625.411	0.0166452
625.489	0.0166222
625.567	0.0166264
625.646	0.0167594
625.724	0.0165851
625.802	0.0165941
625.880	0.0166155
625.958	0.0165456
626.036	0.0165535
626.114	0.0165867
626.192	0.0166341
626.271	0.0165501
626.349	0.0166402
626.427	0.0166087
626.505	0.0165888
626.583	0.0166299
626.661	0.0167619
626.739	0.0166547
626.817	0.0165362
626.896	0.0165727
626.974	0.0166554
627.052	0.0167101
627.130	0.0166122
627.208	0.0165524
627.286	0.0166771
627.364	0.0165533
627.442	0.0164950
627.521	0.0166004
627.599	0.0166087
627.677	0.0166811
627.755	0.0167100
627.833	0.0164735
627.911	0.0165720
627.989	0.0165500
628.067	0.0166063
628.146	0.0166303
628.224	0.0167149
628.302	0.0167578
628.380	0.0166919
628.458	0.0167052
628.536	0.0165347
628.614	0.0166197
628.692	0.0166273
628.771	0.0166721
628.849	0.0167033
628.927	0.0167297
629.005	0.0167202
629.083	0.0166114
629.161	0.0165894
629.239	0.0165893
629.317	0.0166022
629.396	0.0165777
629.474	0.0166898
629.552	0.0165540
629.630	0.0166151
629.708	0.0166525
629.786	0.0166051
629.864	0.0165852
629.942	0.0165775
630.021	0.0165952
630.099	0.0165536
630.177	0.0165710
630.255	0.0165993
630.333	0.0165365
630.411	0.0166203
630.489	0.0166166
630.567	0.0166185
630.646	0.0166100
630.724	0.0168146
630.802	0.0165880
630.880	0.0165616
630.958	0.0164873
631.036	0.0165859
631.114	0.0166231
631.192	0.0165907
631.271	0.0166453
631.349	0.0165724
631.427	0.0164923
631.505	0.0165125
631.583	0.0166513
631.661	0.0165777
631.739	0.0167503
631.817	0.0165145
631.896	0.0166630
631.974	0.0165210
632.052	0.0165441
632.130	0.0164808
632.208	0.0165889
632.286	0.0166440
632.364	0.0166260
632.442	0.0166945
632.521	0.0166888
632.599	0.0166564
632.677	0.0165971
632.755	0.0165422
632.833	0.0166707
632.911	0.0166395
632.989	0.0166945
633.067	0.0166341
633.146	0.0166994
633.224	0.0167096
633.302	0.0165086
633.380	0.0166140
633.458	0.0165646
633.536	0.0165596
633.614	0.0166327
633.692	0.0166834
633.771	0.0167050
633.849	0.0166396
633.927	0.0166281
634.005	0.0167391
634.083	0.0165906
634.161	0.0166045
634.239	0.0165056
634.317	0.0165943
634.396	0.0165992
634.474	0.0165719
634.552	0.0166727
634.630	0.0164690
634.708	0.0165758
634.786	0.0166086
634.864	0.0167184
634.942	0.0165228
635.021	0.0165917
635.099	0.0166682
635.177	0.0167137
635.255	0.0166830
635.333	0.0165514
635.411	0.0165418
635.489	0.0166544
635.567	0.0164981
635.646	0.0166897
635.724	0.0165353
635.802	0.0166305
635.880	0.0165801
635.958	0.0165754
636.036	0.0167182
636.114	0.0166518
636.192	0.0165986
636.271	0.0166262
636.349	0.0167168
636.427	0.0165732
636.505	0.0166105
636.583	0.0167194
636.661	0.0166779
636.739	0.0165499
636.817	0.0166683
636.896	0.0165317
636.974	0.0163802
637.052	0.0166606
637.130	0.0166784
637.208	0.0165422
637.286	0.0165813
637.364	0.0166499
637.442	0.0167331
637.521	0.0166087
637.599	0.0166143
637.677	0.0166466
637.755	0.0167300
637.833	0.0166601
637.911	0.0167564
637.989	0.0166969
638.067	0.0166518
638.146	0.0167146
638.224	0.0165572
638.302	0.0166204
638.380	0.0165358
638.458	0.0165559
638.536	0.0166930
638.614	0.0165419
638.692	0.0165594
638.771	0.0165047
638.849	0.0167692
638.927	0.0165645
639.005	0.0165720
639.083	0.0167023
639.161	0.0166896
639.239	0.0167188
639.317	0.0166024
639.396	0.0166959
639.474	0.0167094
639.552	0.0165596
639.630	0.0166710
639.708	0.0166747
639.786	0.0166491
639.864	0.0165852
639.942	0.0165839
640.021	0.0165002
640.099	0.0166400
640.177	0.0166399
640.255	0.0165900
640.333	0.0167141
640.411	0.0167010
640.489	0.0166580
640.567	0.0166547
640.646	0.0167222
640.724	0.0165835
640.802	0.0167194
640.880	0.0166528
640.958	0.0165599
641.036	0.0165923
641.114	0.0166699
641.192	0.0167586
641.271	0.0166046
641.349	0.0166476
641.427	0.0165444
641.505	0.0166030
641.583	0.0166398
641.661	0.0165703
641.739	0.0166662
641.817	0.0165910
641.896	0.0165795
641.974	0.0166997
642.052	0.0165939
642.130	0.0166364
642.208	0.0165778
642.286	0.0165414
642.364	0.0166193
642.442	0.0166640
642.521	0.0166829
642.599	0.0166199
642.677	0.0165929
642.755	0.0166656
642.833	0.0166170
642.911	0.0166113
642.989	0.0165241
643.067	0.0167524
643.146	0.0166251
643.224	0.0166372
643.302	0.0166753
643.380	0.0166454
643.458	0.0167379
643.536	0.0165528
643.614	0.0166244
643.692	0.0166299
643.771	0.0166402
643.849	0.0166662
643.927	0.0164227
644.005	0.0165783
644.083	0.0165556
644.161	0.0165546
644.239	0.0165984
644.317	0.0166450
644.396	0.0167334
644.474	0.0164648
644.552	0.0166075
644.630	0.0166692
644.708	0.0167596
644.786	0.0166511
644.864	0.0166119
644.942	0.0166218
645.021	0.0167054
645.099	0.0166383
645.177	0.0166257
645.255	0.0166513
645.333	0.0165670
645.411	0.0167661
645.489	0.0166080
645.567	0.0164087
645.646	0.0164635
645.724	0.0167218
645.802	0.0165905
645.880	0.0166238
645.958	0.0166371
646.036	0.0166154
646.114	0.0165967
646.192	0.0167275
646.271	0.0165228
646.349	0.0165133
646.427	0.0166759
646.505	0.0166336
646.583	0.0166608
646.661	0.0166151
646.739	0.0165998
646.817	0.0166076
646.896	0.0166357
646.974	0.0165796
647.052	0.0166386
647.130	0.0165378
647.208	0.0164797
647.286	0.0166047
647.364	0.0167479
647.442	0.0166022
647.521	0.0165691
647.599	0.0166399
647.677	0.0167559
647.755	0.0165951
647.833	0.0165790
647.911	0.0165972
647.989	0.0165651
648.067	0.0167361
648.146	0.0166436
648.224	0.0166781
648.302	0.0166645
648.380	0.0165569
648.458	0.0164862
648.536	0.0165968
648.614	0.0165661
648.692	0.0166506
648.771	0.0166814
648.849	0.0166453
648.927	0.0166168
649.005	0.0165657
649.083	0.0165208
649.161	0.0165760
649.239	0.0166004
649.317	0.0165216
649.396	0.0165793
649.474	0.0166601
649.552	0.0165138
649.630	0.0165651
649.708	0.0166923
649.786	0.0165720
649.864	0.0166409
649.942	0.0165874
650.021	0.0167208
650.099	0.0165173
650.177	0.0165897
650.255	0.0166173
650.333	0.0166203
650.411	0.0165116
650.489	0.0164939
650.567	0.0166955
650.646	0.0166251
650.724	0.0164274
650.802	0.0165468
650.880	0.0166119
650.958	0.0167773
651.036	0.0166204
651.114	0.0164681
651.192	0.0166361
651.271	0.0166502
651.349	0.0165691
651.427	0.0166143
651.505	0.0166525
651.583	0.0166191
651.661	0.0165350
651.739	0.0165489
651.817	0.0164974
651.896	0.0167918
651.974	0.0166583
652.052	0.0165816
652.130	0.0165253
652.208	0.0165072
652.286	0.0166473
652.364	0.0166280
652.442	0.0165743
652.521	0.0165485
652.599	0.0166149
652.677	0.0165276
652.755	0.0167771
652.833	0.0165961
652.911	0.0165440
652.989	0.0165713
653.067	0.0166733
653.146	0.0165990
653.224	0.0166382
653.302	0.0165904
653.380	0.0166436
653.458	0.0166340
653.536	0.0166055
653.614	0.0165034
653.692	0.0165770
653.771	0.0166680
653.849	0.0165604
653.927	0.0165124
654.005	0.0165759
654.083	0.0167037
654.161	0.0165645
654.239	0.0167178
654.317	0.0165672
654.396	0.0165104
654.474	0.0166143
654.552	0.0166193
654.630	0.0165749
654.708	0.0166980
654.786	0.0166422
654.864	0.0166080
654.942	0.0165417
655.021	0.0166857
655.099	0.0165617
655.177	0.0166299
655.255	0.0165825
655.333	0.0167113
655.411	0.0165632
655.489	0.0164992
655.567	0.0166114
655.646	0.0165633
655.724	0.0164384
655.802	0.0166546
655.880	0.0167278
655.958	0.0165332
656.036	0.0165922
656.114	0.0165556
656.192	0.0166482
656.271	0.0165275
656.349	0.0165911
656.427	0.0164990
656.505	0.0165341
656.583	0.0166448
656.661	0.0164682
656.739	0.0165108
656.817	0.0165971
656.896	0.0164256
656.974	0.0165686
657.052	0.0165989
657.130	0.0165019
657.208	0.0165725
657.286	0.0165707
657.364	0.0166553
657.442	0.0164727
657.521	0.0166567
657.599	0.0165489
657.677	0.0165923
657.755	0.0165800
657.833	0.0167252
657.911	0.0165201
657.989	0.0166522
658.067	0.0166141
658.146	0.0166003
658.224	0.0165336
658.302	0.0166271
658.380	0.0164483
658.458	0.0167592
658.536	0.0166486
658.614	0.0167023
658.692	0.0165707
658.771	0.0166252
658.849	0.0166468
658.927	0.0166376
659.005	0.0165741
659.083	0.0166680
659.161	0.0165135
659.239	0.0166253
659.317	0.0165183
659.396	0.0164970
659.474	0.0166094
659.552	0.0165383
659.630	0.0167648
659.708	0.0166121
659.786	0.0165551
659.864	0.0166216
659.942	0.0165111
660.021	0.0165858
660.099	0.0165826
660.177	0.0167085
660.255	0.0166663
660.333	0.0165048
660.411	0.0165461
660.489	0.0164407
660.567	0.0166306
660.646	0.0166795
660.724	0.0166872
660.802	0.0166122
660.880	0.0167014
660.958	0.0166589
661.036	0.0164650
661.114	0.0165589
661.192	0.0166531
661.271	0.0166915
661.349	0.0166391
661.427	0.0165896
661.505	0.0166888
661.583	0.0165984
661.661	0.0166451
661.739	0.0166149
661.817	0.0166092
661.896	0.0167001
661.974	0.0165243
662.052	0.0166972
662.130	0.0165710
662.208	0.0166001
662.286	0.0166808
662.364	0.0165647
662.442	0.0165771
662.521	0.0167352
662.599	0.0164822
662.677	0.0166460
662.755	0.0166768
662.833	0.0167225
662.911	0.0167183
662.989	0.0165061
663.067	0.0166764
663.146	0.0165111
663.224	0.0165185
663.302	0.0166215
663.380	0.0167113
663.458	0.0167216
663.536	0.0164714
663.614	0.0165737
663.692	0.0165686
663.771	0.0166341
663.849	0.0166908
663.927	0.0165804
664.005	0.0166493
664.083	0.0165259
664.161	0.0165994
664.239	0.0166499
664.317	0.0165929
664.396	0.0166708
664.474	0.0166383
664.552	0.0165905
664.630	0.0165283
664.708	0.0165300
664.786	0.0166322
664.864	0.0166327
664.942	0.0166748
665.021	0.0166185
665.099	0.0166674
665.177	0.0166164
665.255	0.0167119
665.333	0.0165771
665.411	0.0166167
665.489	0.0165875
665.567	0.0165487
665.646	0.0165321
665.724	0.0164883
665.802	0.0166586
665.880	0.0166113
665.958	0.0164805
666.036	0.0166666
666.114	0.0165593
666.192	0.0164175
666.271	0.0165453
666.349	0.0167018
666.427	0.0165091
666.505	0.0164285
666.583	0.0165810
666.661	0.0167414
666.739	0.0167284
666.817	0.0167363
666.896	0.0166975
666.974	0.0166472
667.052	0.0166654
667.130	0.0167231
667.208	0.0166055
667.286	0.0164999
667.364	0.0166285
667.442	0.0164963
667.521	0.0166485
667.599	0.0165760
667.677	0.0166545
667.755	0.0166111
667.833	0.0166386
667.911	0.0166161
667.989	0.0165440
668.067	0.0165173
668.146	0.0166750
668.224	0.0165546
668.302	0.0165617
668.380	0.0165552
668.458	0.0166545
668.536	0.0164330
668.614	0.0164840
668.692	0.0165405
668.771	0.0166677
668.849	0.0166898
668.927	0.0166106
669.005	0.0167185
669.083	0.0166207
669.161	0.0166600
669.239	0.0165976
669.317	0.0166866
669.396	0.0164234
669.474	0.0166007
669.552	0.0165552
669.630	0.0165024
669.708	0.0166830
669.786	0.0166893
669.864	0.0165431
669.942	0.0165266
670.021	0.0165919
670.099	0.0166383
670.177	0.0165642
670.255	0.0164529
670.333	0.0165803
670.411	0.0165817
670.489	0.0165961
670.567	0.0166287
670.646	0.0166631
670.724	0.0164320
670.802	0.0165650
670.880	0.0167403
670.958	0.0166074
671.036	0.0164737
671.114	0.0166142
671.192	0.0166354
671.271	0.0166837
671.349	0.0166476
671.427	0.0164261
671.505	0.0166145
671.583	0.0166055
671.661	0.0166641
671.739	0.0166415
671.817	0.0165750
671.896	0.0166341
671.974	0.0167329
672.052	0.0167091
672.130	0.0165307
672.208	0.0165809
672.286	0.0166999
672.364	0.0166270
672.442	0.0166328
672.521	0.0166587
672.599	0.0166454
672.677	0.0167404
672.755	0.0166798
672.833	0.0165937
672.911	0.0166549
672.989	0.0164896
673.067	0.0165652
673.146	0.0165696
673.224	0.0166296
673.302	0.0166554
673.380	0.0165276
673.458	0.0166504
673.536	0.0166261
673.614	0.0164987
673.692	0.0166340
673.771	0.0164929
673.849	0.0165720
673.927	0.0166431
674.005	0.0167038
674.083	0.0165926
674.161	0.0166064
674.239	0.0166607
674.317	0.0164936
674.396	0.0166370
674.474	0.0167053
674.552	0.0166564
674.630	0.0165781
674.708	0.0164485
674.786	0.0166277
674.864	0.0166093
674.942	0.0165924
675.021	0.0166800
675.099	0.0164945
675.177	0.0166818
675.255	0.0166130
675.333	0.0166148
675.411	0.0165849
675.489	0.0165752
675.567	0.0166472
675.646	0.0166407
675.724	0.0166558
675.802	0.0166103
675.880	0.0166537
675.958	0.0166591
676.036	0.0166727
676.114	0.0164307
676.192	0.0166682
676.271	0.0165926
676.349	0.0165781
676.427	0.0165147
676.505	0.0165476
676.583	0.0165843
676.661	0.0165696
676.739	0.0165628
676.817	0.0165977
676.896	0.0165781
676.974	0.0166168
677.052	0.0165575
677.130	0.0165270
677.208	0.0165276
677.286	0.0165267
677.364	0.0165388
677.442	0.0165992
677.521	0.0165513
677.599	0.0166042
677.677	0.0166014
677.755	0.0166409
677.833	0.0166225
677.911	0.0166168
677.989	0.0164990
678.067	0.0164863
678.146	0.0166330
678.224	0.0167477
678.302	0.0167364
678.380	0.0165521
678.458	0.0165281
678.536	0.0165939
678.614	0.0165875
678.692	0.0166144
678.771	0.0165438
678.849	0.0166599
678.927	0.0164799
679.005	0.0165755
679.083	0.0166005
679.161	0.0166042
679.239	0.0164587
679.317	0.0165824
679.396	0.0165016
679.474	0.0165541
679.552	0.0166398
679.630	0.0166295
679.708	0.0164981
679.786	0.0165339
679.864	0.0166025
679.942	0.0165429
680.021	0.0165628
680.099	0.0165692
680.177	0.0166191
680.255	0.0166218
680.333	0.0164973
680.411	0.0164856
680.489	0.0165232
680.567	0.0166293
680.646	0.0166998
680.724	0.0166864
680.802	0.0166233
680.880	0.0166596
680.958	0.0166550
681.036	0.0164179
681.114	0.0166801
681.192	0.0165692
681.271	0.0163815
681.349	0.0165639
681.427	0.0166628
681.505	0.0164887
681.583	0.0166682
681.661	0.0165427
681.739	0.0166219
681.817	0.0166068
681.896	0.0166915
681.974	0.0166849
682.052	0.0166541
682.130	0.0166286
682.208	0.0165369
682.286	0.0165623
682.364	0.0166020
682.442	0.0165875
682.521	0.0165386
682.599	0.0167039
682.677	0.0166693
682.755	0.0166690
682.833	0.0165533
682.911	0.0166412
682.989	0.0166367
683.067	0.0164651
683.146	0.0165113
683.224	0.0166381
683.302	0.0167023
683.380	0.0165810
683.458	0.0166451
683.536	0.0167776
683.614	0.0166190
683.692	0.0166087
683.771	0.0166102
683.849	0.0166951
683.927	0.0166297
684.005	0.0166244
684.083	0.0165363
684.161	0.0166233
684.239	0.0166727
684.317	0.0166954
684.396	0.0165630
684.474	0.0164400
684.552	0.0165494
684.630	0.0166826
684.708	0.0167339
684.786	0.0165166
684.864	0.0165675
684.942	0.0165931
685.021	0.0166679
685.099	0.0165977
685.177	0.0164932
685.255	0.0166941
685.333	0.0166327
685.411	0.0165468
685.489	0.0166299
685.567	0.0165654
685.646	0.0165537
685.724	0.0165656
685.802	0.0167265
685.880	0.0166795
685.958	0.0166677
686.036	0.0165715
686.114	0.0166471
686.192	0.0166048
686.271	0.0166049
686.349	0.0165063
686.427	0.0164532
686.505	0.0166708
686.583	0.0165802
686.661	0.0165426
686.739	0.0166566
686.817	0.0166456
686.896	0.0165893
686.974	0.0166553
687.052	0.0166220
687.130	0.0165466
687.208	0.0164816
687.286	0.0166850
687.364	0.0166474
687.442	0.0166833
687.521	0.0165894
687.599	0.0165374
687.677	0.0168093
687.755	0.0165531
687.833	0.0166021
687.911	0.0167781
687.989	0.0165968
688.067	0.0166201
688.146	0.0165477
688.224	0.0165451
688.302	0.0167127
688.380	0.0166727
688.458	0.0166192
688.536	0.0167191
688.614	0.0165118
688.692	0.0165665
688.771	0.0166398
688.849	0.0166344
688.927	0.0165881
689.005	0.0166239
689.083	0.0167464
689.161	0.0166762
689.239	0.0166036
689.317	0.0167738
689.396	0.0166704
689.474	0.0164520
689.552	0.0167254
689.630	0.0166892
689.708	0.0166621
689.786	0.0166240
689.864	0.0166850
689.942	0.0167511
690.021	0.0166052
690.099	0.0164865
690.177	0.0165953
690.255	0.0165847
690.333	0.0167832
690.411	0.0166960
690.489	0.0166656
690.567	0.0165782
690.646	0.0167088
690.724	0.0166634
690.802	0.0166571
690.880	0.0167271
690.958	0.0166004
691.036	0.0165871
691.114	0.0168215
691.192	0.0166440
691.271	0.0166232
691.349	0.0167056
691.427	0.0166817
691.505	0.0167050
691.583	0.0167026
691.661	0.0166667
691.739	0.0165779
691.817	0.0166110
691.896	0.0166576
691.974	0.0165601
692.052	0.0165451
692.130	0.0165948
692.208	0.0166764
692.286	0.0166611
692.364	0.0167280
692.442	0.0165615
692.521	0.0167017
692.599	0.0166046
692.677	0.0165504
692.755	0.0166280
692.833	0.0166372
692.911	0.0165937
692.989	0.0165800
693.067	0.0165829
693.146	0.0166278
693.224	0.0166558
693.302	0.0165506
693.380	0.0166210
693.458	0.0166299
693.536	0.0167117
693.614	0.0166438
693.692	0.0165719
693.771	0.0165403
693.849	0.0167570
693.927	0.0166205
694.005	0.0165800
694.083	0.0167393
694.161	0.0165555
694.239	0.0166479
694.317	0.0166566
694.396	0.0166434
694.474	0.0166094
694.552	0.0166154
694.630	0.0165690
694.708	0.0166816
694.786	0.0166044
694.864	0.0164931
694.942	0.0165845
695.021	0.0166171
695.099	0.0165912
695.177	0.0165566
695.255	0.0166913
695.333	0.0166136
695.411	0.0165572
695.489	0.0167735
695.567	0.0166946
695.646	0.0166562
695.724	0.0166349
695.802	0.0166113
695.880	0.0167120
695.958	0.0165389
696.036	0.0165369
696.114	0.0167009
696.192	0.0167584
696.271	0.0166476
696.349	0.0166093
696.427	0.0165930
696.505	0.0166428
696.583	0.0166267
696.661	0.0166574
696.739	0.0165722
696.817	0.0167248
696.896	0.0167931
696.974	0.0166289
697.052	0.0165976
697.130	0.0166905
697.208	0.0164154
697.286	0.0166007
697.364	0.0166104
697.442	0.0167451
697.521	0.0166546
697.599	0.0165528
697.677	0.0167281
697.755	0.0165534
697.833	0.0165096
697.911	0.0166284
697.989	0.0165426
698.067	0.0166224
698.146	0.0166080
698.224	0.0166396
698.302	0.0167363
698.380	0.0165584
698.458	0.0166653
698.536	0.0167051
698.614	0.0166101
698.692	0.0165540
698.771	0.0166120
698.849	0.0165351
698.927	0.0165292
699.005	0.0166453
699.083	0.0166334
699.161	0.0166186
699.239	0.0166594
699.317	0.0165767
699.396	0.0165546
699.474	0.0165819
699.552	0.0166722
699.630	0.0166366
699.708	0.0166949
699.786	0.0166572
699.864	0.0166068
699.942	0.0166962
700.021	0.0165778
700.099	0.0166017
700.177	0.0166841
700.255	0.0165645
700.333	0.0164851
700.411	0.0166380
700.489	0.0165730
700.567	0.0166258
700.646	0.0167263
700.724	0.0166286
700.802	0.0166077
700.880	0.0165465
700.958	0.0166239
701.036	0.0166856
701.114	0.0166199
701.192	0.0166499
701.271	0.0166944
701.349	0.0165375
701.427	0.0166621
701.505	0.0165775
701.583	0.0165720
701.661	0.0165482
701.739	0.0166355
701.817	0.0166908
701.896	0.0166506
701.974	0.0167068
702.052	0.0167001
702.130	0.0165517
702.208	0.0166303
702.286	0.0167796
702.364	0.0166010
702.442	0.0165739
702.521	0.0166973
702.599	0.0165444
702.677	0.0164901
702.755	0.0166220
702.833	0.0165951
702.911	0.0165716
702.989	0.0165851
703.067	0.0165878
703.146	0.0164903
703.224	0.0165510
703.302	0.0167068
703.380	0.0167811
703.458	0.0165738
703.536	0.0165446
703.614	0.0165362
703.692	0.0167682
703.771	0.0166257
703.849	0.0165770
703.927	0.0165886
704.005	0.0165495
704.083	0.0165831
704.161	0.0166002
704.239	0.0166376
704.317	0.0166224
704.396	0.0166042
704.474	0.0165434
704.552	0.0167421
704.630	0.0166151
704.708	0.0165569
704.786	0.0167882
704.864	0.0166360
704.942	0.0167332
705.021	0.0167058
705.099	0.0165951
705.177	0.0164547
705.255	0.0165346
705.333	0.0166726
705.411	0.0165744
705.489	0.0165024
705.567	0.0166699
705.646	0.0166894
705.724	0.0166634
705.802	0.0166879
705.880	0.0165880
705.958	0.0166017
706.036	0.0166948
706.114	0.0167426
706.192	0.0165329
706.271	0.0165459
706.349	0.0166322
706.427	0.0165550
706.505	0.0165934
706.583	0.0165429
706.661	0.0167731
706.739	0.0166534
706.817	0.0165801
706.896	0.0166331
706.974	0.0165957
707.052	0.0166602
707.130	0.0166034
707.208	0.0166006
707.286	0.0165884
707.364	0.0166899
707.442	0.0166551
707.521	0.0166802
707.599	0.0166959
707.677	0.0165942
707.755	0.0165384
707.833	0.0165236
707.911	0.0166683
707.989	0.0166629
708.067	0.0167194
708.146	0.0166045
708.224	0.0166315
708.302	0.0166325
708.380	0.0167592
708.458	0.0166757
708.536	0.0165786
708.614	0.0167354
708.692	0.0166092
708.771	0.0165765
708.849	0.0166256
708.927	0.0166897
709.005	0.0166560
709.083	0.0166122
709.161	0.0167452
709.239	0.0165775
709.317	0.0166213
709.396	0.0165971
709.474	0.0164575
709.552	0.0166029
709.630	0.0167583
709.708	0.0166994
709.786	0.0165247
709.864	0.0165861
709.942	0.0166682
710.021	0.0166102
710.099	0.0167453
710.177	0.0166174
710.255	0.0166474
710.333	0.0165761
710.411	0.0166647
710.489	0.0166592
710.567	0.0166625
710.646	0.0164942
710.724	0.0166688
710.802	0.0165833
710.880	0.0165399
710.958	0.0165974
711.036	0.0165888
711.114	0.0165446
711.192	0.0166515
711.271	0.0166052
711.349	0.0165278
711.427	0.0166644
711.505	0.0165881
711.583	0.0166449
711.661	0.0166586
711.739	0.0166132
711.817	0.0166442
711.896	0.0166508
711.974	0.0164894
712.052	0.0166512
712.130	0.0165978
712.208	0.0167350
712.286	0.0166283
712.364	0.0167385
712.442	0.0165885
712.521	0.0165231
712.599	0.0167255
712.677	0.0165419
712.755	0.0166460
712.833	0.0166862
712.911	0.0166001
712.989	0.0165874
713.067	0.0166920
713.146	0.0165801
713.224	0.0165491
713.302	0.0165285
713.380	0.0165363
713.458	0.0166250
713.536	0.0166545
713.614	0.0166183
713.692	0.0166092
713.771	0.0166162
713.849	0.0165639
713.927	0.0166170
714.005	0.0164761
714.083	0.0167767
714.161	0.0166489
714.239	0.0163568
714.317	0.0165110
714.396	0.0166140
714.474	0.0165196
714.552	0.0164710
714.630	0.0166168
714.708	0.0166223
714.786	0.0165541
714.864	0.0166147
714.942	0.0167325
715.021	0.0166183
715.099	0.0166374
715.177	0.0164865
715.255	0.0164571
715.333	0.0166648
715.411	0.0166093
715.489	0.0166490
715.567	0.0165209
715.646	0.0165477
715.724	0.0165186
715.802	0.0165693
715.880	0.0166640
715.958	0.0166606
716.036	0.0165388
716.114	0.0165533
716.192	0.0166108
716.271	0.0165829
716.349	0.0165829
716.427	0.0165401
716.505	0.0166011
716.583	0.0165672
716.661	0.0165730
716.739	0.0165165
716.817	0.0164647
716.896	0.0165891
716.974	0.0166418
717.052	0.0165211
717.130	0.0166563
717.208	0.0163468
717.286	0.0164660
717.364	0.0166364
717.442	0.0165089
717.521	0.0166499
717.599	0.0165398
717.677	0.0164310
717.755	0.0165475
717.833	0.0165681
717.911	0.0165694
717.989	0.0165903
718.067	0.0165671
718.146	0.0164685
718.224	0.0165490
718.302	0.0165784
718.380	0.0165222
718.458	0.0165748
718.536	0.0165886
718.614	0.0164710
718.692	0.0164212
718.771	0.0167103
718.849	0.0166068
718.927	0.0165514
719.005	0.0165316
719.083	0.0165891
719.161	0.0165298
719.239	0.0166036
719.317	0.0165591
719.396	0.0167612
719.474	0.0165959
719.552	0.0165983
719.630	0.0166089
719.708	0.0166122
719.786	0.0165961
719.864	0.0167198
719.942	0.0165574
720.021	0.0165614
720.099	0.0166663
720.177	0.0164441
720.255	0.0166673
720.333	0.0167817
720.411	0.0166008
720.489	0.0166132
720.567	0.0166820
720.646	0.0165916
720.724	0.0165238
720.802	0.0165019
720.880	0.0166730
720.958	0.0166693
721.036	0.0167249
721.114	0.0166241
721.192	0.0166026
721.271	0.0166615
721.349	0.0165763
721.427	0.0165990
721.505	0.0166123
721.583	0.0167242
721.661	0.0166422
721.739	0.0166694
721.817	0.0166075
721.896	0.0166107
721.974	0.0165948
722.052	0.0166571
722.130	0.0166850
722.208	0.0166905
722.286	0.0166199
722.364	0.0166934
722.442	0.0165253
722.521	0.0165902
722.599	0.0165844
722.677	0.0166822
722.755	0.0165658
722.833	0.0167226
722.911	0.0165896
722.989	0.0167585
723.067	0.0167205
723.146	0.0166628
723.224	0.0166079
723.302	0.0167653
723.380	0.0167210
723.458	0.0166875
723.536	0.0166549
723.614	0.0166885
723.692	0.0166702
723.771	0.0166531
723.849	0.0167591
723.927	0.0167599
724.005	0.0166703
724.083	0.0166832
724.161	0.0166888
724.239	0.0167313
724.317	0.0168246
724.396	0.0166761
724.474	0.0166592
724.552	0.0166985
724.630	0.0165390
724.708	0.0167804
724.786	0.0167525
724.864	0.0167321
724.942	0.0167883
725.021	0.0166662
725.099	0.0166879
725.177	0.0166862
725.255	0.0168490
725.333	0.0166999
725.411	0.0167261
725.489	0.0167173
725.567	0.0168146
725.646	0.0167965
725.724	0.0167072
725.802	0.0166544
725.880	0.0166523
725.958	0.0167173
726.036	0.0167389
726.114	0.0166875
726.192	0.0165707
726.271	0.0167194
726.349	0.0166441
726.427	0.0167895
726.505	0.0166892
726.583	0.0167597
726.661	0.0167127
726.739	0.0167570
726.817	0.0167596
726.896	0.0166407
726.974	0.0166348
727.052	0.0167840
727.130	0.0168011
727.208	0.0166490
727.286	0.0167959
727.364	0.0167229
727.442	0.0165698
727.521	0.0166975
727.599	0.0166708
727.677	0.0165690
727.755	0.0166499
727.833	0.0166878
727.911	0.0165922
727.989	0.0167293
728.067	0.0167410
728.146	0.0167513
728.224	0.0167632
728.302	0.0167268
728.380	0.0166527
728.458	0.0165681
728.536	0.0166022
728.614	0.0166251
728.692	0.0167293
728.771	0.0166393
728.849	0.0167152
728.927	0.0165353
729.005	0.0165222
729.083	0.0166064
729.161	0.0165934
729.239	0.0166115
729.317	0.0167422
729.396	0.0166408
729.474	0.0166917
729.552	0.0165356
729.630	0.0165669
729.708	0.0166029
729.786	0.0166975
729.864	0.0165726
729.942	0.0164537
730.021	0.0166552
730.099	0.0166190
730.177	0.0166403
730.255	0.0166463
730.333	0.0165073
730.411	0.0164549
730.489	0.0165562
730.567	0.0165157
730.646	0.0165296
730.724	0.0165486
730.802	0.0166315
730.880	0.0165247
730.958	0.0164435
731.036	0.0167038
731.114	0.0165733
731.192	0.0165833
731.271	0.0166022
731.349	0.0166509
731.427	0.0166150
731.505	0.0165150
731.583	0.0165714
731.661	0.0164336
731.739	0.0164965
731.817	0.0167603
731.896	0.0165595
731.974	0.0164954
732.052	0.0166084
732.130	0.0165664
732.208	0.0166539
732.286	0.0165504
732.364	0.0166895
732.442	0.0166695
732.521	0.0164399
732.599	0.0164500
732.677	0.0166217
732.755	0.0166794
732.833	0.0166019
732.911	0.0166072
732.989	0.0164417
733.067	0.0165531
733.146	0.0165913
733.224	0.0166493
733.302	0.0166493
733.380	0.0164325
733.458	0.0165882
733.536	0.0165491
733.614	0.0165195
733.692	0.0165692
733.771	0.0166066
733.849	0.0166811
733.927	0.0166016
734.005	0.0165868
734.083	0.0166980
734.161	0.0165297
734.239	0.0164431
734.317	0.0165820
734.396	0.0165940
734.474	0.0165727
734.552	0.0165905
734.630	0.0166863
734.708	0.0165936
734.786	0.0165382
734.864	0.0165710
734.942	0.0166270
735.021	0.0165981
735.099	0.0167692
735.177	0.0166463
735.255	0.0163734
735.333	0.0166359
735.411	0.0167048
735.489	0.0166846
735.567	0.0165642
735.646	0.0165553
735.724	0.0165095
735.802	0.0166602
735.880	0.0165606
735.958	0.0166337
736.036	0.0165740
736.114	0.0167078
736.192	0.0166812
736.271	0.0166454
736.349	0.0164902
736.427	0.0165443
736.505	0.0165303
736.583	0.0166626
736.661	0.0166351
736.739	0.0166235
736.817	0.0164864
736.896	0.0165193
736.974	0.0165726
737.052	0.0165558
737.130	0.0166031
737.208	0.0166898
737.286	0.0166398
737.364	0.0165983
737.442	0.0166473
737.521	0.0165900
737.599	0.0167007
737.677	0.0166422
737.755	0.0166158
737.833	0.0166466
737.911	0.0164517
737.989	0.0163514
738.067	0.0165266
738.146	0.0165250
738.224	0.0166409
738.302	0.0164687
738.380	0.0165472
738.458	0.0166336
738.536	0.0168067
738.614	0.0167197
738.692	0.0169013
738.771	0.0170923
738.849	0.0169992
738.927	0.0171507
739.005	0.0168539
739.083	0.0169017
739.161	0.0170142
739.239	0.0168888
739.317	0.0167613
739.396	0.0166431
739.474	0.0166390
739.552	0.0165887
739.630	0.0164687
739.708	0.0164526
739.786	0.0164223
739.864	0.0165095
739.942	0.0165211
740.021	0.0163778
740.099	0.0163274
740.177	0.0164505
740.255	0.0163689
740.333	0.0163318
740.411	0.0163855
740.489	0.0164725
740.567	0.0162753
740.646	0.0165268
740.724	0.0165790
740.802	0.0166103
740.880	0.0166587
740.958	0.0166862
741.036	0.0165933
741.114	0.0167097
741.192	0.0166673
741.271	0.0166164
741.349	0.0165952
741.427	0.0165383
741.505	0.0165601
741.583	0.0165005
741.661	0.0166739
741.739	0.0165718
741.817	0.0166151
741.896	0.0166673
741.974	0.0167751
742.052	0.0167930
742.130	0.0168439
742.208	0.0168253
742.286	0.0168678
742.364	0.0168179
742.442	0.0168230
742.521	0.0167654
742.599	0.0167389
742.677	0.0165320
742.755	0.0162564
742.833	0.0162318
742.911	0.0160104
742.989	0.0157879
743.067	0.0158408
743.146	0.0156386
743.224	0.0158777
743.302	0.0160117
743.380	0.0161516
743.458	0.0160867
743.536	0.0165945
743.614	0.0168916
743.692	0.0172368
743.771	0.0173658
743.849	0.0177161
743.927	0.0176982
744.005	0.0177071
744.083	0.0177377
744.161	0.0179153
744.239	0.0176567
744.317	0.0174892
744.396	0.0172138
744.474	0.0169712
744.552	0.0168021
744.630	0.0168327
744.708	0.0164423
744.786	0.0161905
744.864	0.0160856
744.942	0.0157825
745.021	0.0156017
745.099	0.0153537
745.177	0.0152966
745.255	0.0152031
745.333	0.0151482
745.411	0.0153261
745.489	0.0154374
745.567	0.0154865
745.646	0.0157866
745.724	0.0162299
745.802	0.0165916
745.880	0.0170573
745.958	0.0172732
746.036	0.0176134
746.114	0.0179831
746.192	0.0183695
746.271	0.0183839
746.349	0.0180858
746.427	0.0181635
746.505	0.0180260
746.583	0.0178356
746.661	0.0175944
746.739	0.0171801
746.817	0.0170669
746.896	0.0168119
746.974	0.0166871
747.052	0.0163883
747.130	0.0161994
747.208	0.0161528
747.286	0.0158280
747.364	0.0156937
747.442	0.0155701
747.521	0.0154207
747.599	0.0153913
747.677	0.0152531
747.755	0.0151681
747.833	0.0150741
747.911	0.0152850
747.989	0.0154024
748.067	0.0154137
748.146	0.0157191
748.224	0.0158058
748.302	0.0162292
748.380	0.0165575
748.458	0.0169293
748.536	0.0173438
748.614	0.0176774
748.692	0.0178440
748.771	0.0180984
748.849	0.0182542
748.927	0.0181676
749.005	0.0181414
749.083	0.0180397
749.161	0.0178524
749.239	0.0176842
749.317	0.0174244
749.396	0.0172352
749.474	0.0171136
749.552	0.0167375
749.630	0.0165737
749.708	0.0164203
749.786	0.0164259
749.864	0.0162919
749.942	0.0162115
750.021	0.0161968
750.099	0.0161494
750.177	0.0160319
750.255	0.0159208
750.333	0.0158204
750.411	0.0157751
750.489	0.0157877
750.567	0.0156878
750.646	0.0156944
750.724	0.0157623
750.802	0.0159898
750.880	0.0162122
750.958	0.0163189
751.036	0.0165207
751.114	0.0166942
751.192	0.0169550
751.271	0.0172748
751.349	0.0173356
751.427	0.0175060
751.505	0.0176202
751.583	0.0176017
751.661	0.0176561
751.739	0.0175941
751.817	0.0173953
751.896	0.0174113
751.974	0.0172408
752.052	0.0170239
752.130	0.0169018
752.208	0.0167431
752.286	0.0166516
752.364	0.0163972
752.442	0.0162222
752.521	0.0160796
752.599	0.0161881
752.677	0.0160726
752.755	0.0159052
752.833	0.0160652
752.911	0.0159837
752.989	0.0161737
753.067	0.0162024
753.146	0.0162163
753.224	0.0162842
753.302	0.0163939
753.380	0.0163825
753.458	0.0166228
753.536	0.0166119
753.614	0.0166270
753.692	0.0169176
753.771	0.0169501
753.849	0.0169538
753.927	0.0168263
754.005	0.0170654
754.083	0.0170815
754.161	0.0171395
754.239	0.0172582
754.317	0.0172375
754.396	0.0174664
754.474	0.0174928
754.552	0.0173388
754.630	0.0174284
754.708	0.0175160
754.786	0.0173575
754.864	0.0174582
754.942	0.0174159
755.021	0.0172244
755.099	0.0171465
755.177	0.0169308
755.255	0.0166805
755.333	0.0165566
755.411	0.0163026
755.489	0.0161763
755.567	0.0161134
755.646	0.0157677
755.724	0.0156470
755.802	0.0156033
755.880	0.0152409
755.958	0.0153911
756.036	0.0156013
756.114	0.0155904
756.192	0.0154708
756.271	0.0155305
756.349	0.0156269
756.427	0.0158611
756.505	0.0158328
756.583	0.0160721
756.661	0.0163215
756.739	0.0162627
756.817	0.0165973
756.896	0.0167661
756.974	0.0169311
757.052	0.0171387
757.130	0.0172071
757.208	0.0172668
757.286	0.0173281
757.364	0.0175591
757.442	0.0174953
757.521	0.0174315
757.599	0.0176281
757.677	0.0176309
757.755	0.0175734
757.833	0.0174361
757.911	0.0174469
757.989	0.0172866
758.067	0.0171320
758.146	0.0168986
758.224	0.0167799
758.302	0.0166376
758.380	0.0165322
758.458	0.0163087
758.536	0.0160706
758.614	0.0159622
758.692	0.0159124
758.771	0.0159834
758.849	0.0158952
758.927	0.0160664
759.005	0.0158806
759.083	0.0161851
759.161	0.0163316
759.239	0.0163544
759.317	0.0165440
759.396	0.0165458
759.474	0.0166924
759.552	0.0167126
759.630	0.0166003
759.708	0.0166846
759.786	0.0165104
759.864	0.0165776
759.942	0.0163777
760.021	0.0163751
760.099	0.0161129
760.177	0.0161372
760.255	0.0160869
760.333	0.0159689
760.411	0.0159908
760.489	0.0159077
760.567	0.0158724
760.646	0.0160258
760.724	0.0161927
760.802	0.0162439
760.880	0.0163334
760.958	0.0166106
761.036	0.0165787
761.114	0.0168606
761.192	0.0169715
761.271	0.0170850
761.349	0.0171341
761.427	0.0172073
761.505	0.0173064
761.583	0.0172739
761.661	0.0172309
761.739	0.0172226
761.817	0.0171443
761.896	0.0171355
761.974	0.0169822
762.052	0.0170182
762.130	0.0168826
762.208	0.0167804
762.286	0.0166643
762.364	0.0168169
762.442	0.0167065
762.521	0.0167484
762.599	0.0166198
762.677	0.0167689
762.755	0.0166879
762.833	0.0165983
762.911	0.0168745
762.989	0.0168279
763.067	0.0169647
763.146	0.0169885
763.224	0.0168572
763.302	0.0169711
763.380	0.0169871
763.458	0.0169875
763.536	0.0169078
763.614	0.0170928
763.692	0.0169680
763.771	0.0169440
763.849	0.0170234
763.927	0.0167966
764.005	0.0169670
764.083	0.0168854
764.161	0.0168069
764.239	0.0166943
764.317	0.0166787
764.396	0.0165212
764.474	0.0162762
764.552	0.0162421
764.630	0.0162424
764.708	0.0161108
764.786	0.0158900
764.864	0.0158117
764.942	0.0156573
765.021	0.0154948
765.099	0.0155190
765.177	0.0155895
765.255	0.0156281
765.333	0.0154522
765.411	0.0157410
765.489	0.0158689
765.567	0.0160802
765.646	0.0161909
765.724	0.0163708
765.802	0.0166750
765.880	0.0167867
765.958	0.0171043
766.036	0.0172883
766.114	0.0172243
766.192	0.0175485
766.271	0.0175434
766.349	0.0176658
766.427	0.0175653
766.505	0.0175369
766.583	0.0175507
766.661	0.0173491
766.739	0.0171010
766.817	0.0170676
766.896	0.0169945
766.974	0.0165312
767.052	0.0165481
767.130	0.0164046
767.208	0.0162283
767.286	0.0162417
767.364	0.0160593
767.442	0.0161343
767.521	0.0160741
767.599	0.0161691
767.677	0.0161769
767.755	0.0162029
767.833	0.0163726
767.911	0.0164037
767.989	0.0164704
768.067	0.0165888
768.146	0.0167467
768.224	0.0167847
768.302	0.0169610
768.380	0.0168969
768.458	0.0170002
768.536	0.0170434
768.614	0.0169791
768.692	0.0170152
768.771	0.0171020
768.849	0.0169379
768.927	0.0168516
769.005	0.0168612
769.083	0.0167165
769.161	0.0165765
769.239	0.0165696
769.317	0.0165427
769.396	0.0161291
769.474	0.0162174
769.552	0.0160901
769.630	0.0160755
769.708	0.0159982
769.786	0.0159963
769.864	0.0159685
769.942	0.0160303
770.021	0.0159958
770.099	0.0159870
770.177	0.0159552
770.255	0.0162249
770.333	0.0162666
770.411	0.0163486
770.489	0.0164469
770.567	0.0165108
770.646	0.0166197
770.724	0.0168286
770.802	0.0168410
770.880	0.0170423
770.958	0.0171957
771.036	0.0172186
771.114	0.0171663
771.192	0.0173874
771.271	0.0173390
771.349	0.0173396
771.427	0.0174224
771.505	0.0174219
771.583	0.0172612
771.661	0.0172001
771.739	0.0173267
771.817	0.0170259
771.896	0.0169574
771.974	0.0170203
772.052	0.0169683
772.130	0.0168367
772.208	0.0166373
772.286	0.0164542
772.364	0.0164500
772.442	0.0163828
772.521	0.0164466
772.599	0.0163124
772.677	0.0163169
772.755	0.0163555
772.833	0.0164637
772.911	0.0166121
772.989	0.0165862
773.067	0.0167184
773.146	0.0168446
773.224	0.0168922
773.302	0.0168841
773.380	0.0169523
773.458	0.0169986
773.536	0.0170890
773.614	0.0171208
773.692	0.0170831
773.771	0.0169769
773.849	0.0169229
773.927	0.0168964
774.005	0.0166736
774.083	0.0166045
774.161	0.0165413
774.239	0.0163795
774.317	0.0163117
774.396	0.0162743
774.474	0.0161454
774.552	0.0160726
774.630	0.0160235
774.708	0.0159868
774.786	0.0159927
774.864	0.0160461
774.942	0.0161166
775.021	0.0158769
775.099	0.0160416
775.177	0.0161115
775.255	0.0161046
775.333	0.0159921
775.411	0.0160084
775.489	0.0163586
775.567	0.0163747
775.646	0.0163419
775.724	0.0165683
775.802	0.0167333
775.880	0.0167981
775.958	0.0167348
776.036	0.0169646
776.114	0.0171920
776.192	0.0171737
776.271	0.0172600
776.349	0.0172353
776.427	0.0173236
776.505	0.0173943
776.583	0.0173665
776.661	0.0173832
776.739	0.0173637
776.817	0.0172062
776.896	0.0171341
776.974	0.0169088
777.052	0.0167445
777.130	0.0166214
777.208	0.0167443
777.286	0.0165195
777.364	0.0163921
777.442	0.0163031
777.521	0.0161940
777.599	0.0160168
777.677	0.0160603
777.755	0.0160902
777.833	0.0161629
777.911	0.0161318
777.989	0.0161912
778.067	0.0162028
778.146	0.0162904
778.224	0.0164694
778.302	0.0165517
778.380	0.0165662
778.458	0.0166618
778.536	0.0165703
778.614	0.0166824
778.692	0.0168534
778.771	0.0167498
778.849	0.0166461
778.927	0.0167298
779.005	0.0166614
779.083	0.0166567
779.161	0.0167609
779.239	0.0165146
779.317	0.0163857
779.396	0.0164302
779.474	0.0163745
779.552	0.0161970
779.630	0.0161356
779.708	0.0163885
779.786	0.0163859
779.864	0.0163232
779.942	0.0161668
780.021	0.0163197
780.099	0.0163409
780.177	0.0164264
780.255	0.0164932
780.333	0.0165949
780.411	0.0165409
780.489	0.0166218
780.567	0.0168266
780.646	0.0167295
780.724	0.0168716
780.802	0.0169285
780.880	0.0169666
780.958	0.0168022
781.036	0.0168069
781.114	0.0168818
781.192	0.0169264
781.271	0.0168247
781.349	0.0169187
781.427	0.0168911
781.505	0.0168237
781.583	0.0167307
781.661	0.0167016
781.739	0.0166336
781.817	0.0167694
781.896	0.0167237
781.974	0.0165505
782.052	0.0167242
782.130	0.0166566
782.208	0.0166556
782.286	0.0165987
782.364	0.0166303
782.442	0.0167573
782.521	0.0165575
782.599	0.0165253
782.677	0.0166338
782.755	0.0166334
782.833	0.0165099
782.911	0.0164308
782.989	0.0164584
783.067	0.0165549
783.146	0.0163040
783.224	0.0163813
783.302	0.0166510
783.380	0.0166100
783.458	0.0164655
783.536	0.0165796
783.614	0.0166840
783.692	0.0166538
783.771	0.0167778
783.849	0.0168280
783.927	0.0168459
784.005	0.0169179
784.083	0.0169936
784.161	0.0168468
784.239	0.0168356
784.317	0.0168268
784.396	0.0168555
784.474	0.0168706
784.552	0.0167375
784.630	0.0166724
784.708	0.0166026
784.786	0.0164566
784.864	0.0165621
784.942	0.0165115
785.021	0.0163638
785.099	0.0163298
785.177	0.0163456
785.255	0.0164227
785.333	0.0163601
785.411	0.0163457
785.489	0.0161861
785.567	0.0163171
785.646	0.0164138
785.724	0.0164603
785.802	0.0163939
785.880	0.0164263
785.958	0.0165509
786.036	0.0165470
786.114	0.0164571
786.192	0.0166082
786.271	0.0166263
786.349	0.0166678
786.427	0.0166644
786.505	0.0165030
786.583	0.0165935
786.661	0.0167806
786.739	0.0165107
786.817	0.0166245
786.896	0.0165681
786.974	0.0165677
787.052	0.0165064
787.130	0.0163966
787.208	0.0164738
787.286	0.0165888
787.364	0.0165498
787.442	0.0165697
787.521	0.0165707
787.599	0.0166588
787.677	0.0165900
787.755	0.0167530
787.833	0.0167574
787.911	0.0167475
787.989	0.0168523
788.067	0.0166679
788.146	0.0166520
788.224	0.0168412
788.302	0.0168349
788.380	0.0167532
788.458	0.0165501
788.536	0.0166133
788.614	0.0166600
788.692	0.0165968
788.771	0.0164947
788.849	0.0165174
788.927	0.0164806
789.005	0.0164733
789.083	0.0163521
789.161	0.0164444
789.239	0.0163461
789.317	0.0162440
789.396	0.0165450
789.474	0.0164356
789.552	0.0163834
789.630	0.0164415
789.708	0.0165623
789.786	0.0165541
789.864	0.0165517
789.942	0.0166256
790.021	0.0167358
790.099	0.0166576
790.177	0.0167004
790.255	0.0166645
790.333	0.0167287
790.411	0.0165173
790.489	0.0167110
790.567	0.0166931
790.646	0.0165697
790.724	0.0165269
790.802	0.0165633
790.880	0.0164182
790.958	0.0162417
791.036	0.0163212
791.114	0.0162496
791.192	0.0163883
791.271	0.0163117
791.349	0.0162293
791.427	0.0163850
791.505	0.0165153
791.583	0.0165473
791.661	0.0166542
791.739	0.0167208
791.817	0.0167744
791.896	0.0168218
791.974	0.0168118
792.052	0.0170139
792.130	0.0170199
792.208	0.0169286
792.286	0.0167979
792.364	0.0169849
792.442	0.0168288
792.521	0.0167537
792.599	0.0167709
792.677	0.0167788
792.755	0.0166698
792.833	0.0165939
792.911	0.0165873
792.989	0.0165074
793.067	0.0167403
793.146	0.0165138
793.224	0.0165024
793.302	0.0165809
793.380	0.0168396
793.458	0.0166227
793.536	0.0166880
793.614	0.0167394
793.692	0.0167066
793.771	0.0167975
793.849	0.0167873
793.927	0.0168699
794.005	0.0168572
794.083	0.0167029
794.161	0.0166736
794.239	0.0167774
794.317	0.0167677
794.396	0.0166732
794.474	0.0165045
794.552	0.0165395
794.630	0.0167793
794.708	0.0165685
794.786	0.0165748
794.864	0.0166325
794.942	0.0166949
795.021	0.0166183
795.099	0.0165807
795.177	0.0166370
795.255	0.0166341
795.333	0.0166078
795.411	0.0168446
795.489	0.0167678
795.567	0.0166550
795.646	0.0168426
795.724	0.0169302
795.802	0.0167307
795.880	0.0166953
795.958	0.0166443
796.036	0.0166822
796.114	0.0168330
796.192	0.0165693
796.271	0.0164928
796.349	0.0164782
796.427	0.0164134
796.505	0.0165292
796.583	0.0164867
796.661	0.0164578
796.739	0.0163637
796.817	0.0163877
796.896	0.0164486
796.974	0.0164432
797.052	0.0163947
797.130	0.0164760
797.208	0.0164130
797.286	0.0165742
797.364	0.0166904
797.442	0.0166936
797.521	0.0165843
797.599	0.0165466
797.677	0.0166791
797.755	0.0166844
797.833	0.0167480
797.911	0.0165910
797.989	0.0166663
798.067	0.0166463
798.146	0.0166243
798.224	0.0166532
798.302	0.0165385
798.380	0.0166141
798.458	0.0167786
798.536	0.0165849
798.614	0.0165649
798.692	0.0167362
798.771	0.0167375
798.849	0.0164420
798.927	0.0165866
799.005	0.0165734
799.083	0.0166235
799.161	0.0166579
799.239	0.0165905
799.317	0.0168588
799.396	0.0167890
799.474	0.0168291
799.552	0.0169128
799.630	0.0167143
799.708	0.0169512
799.786	0.0169014
799.864	0.0168147
799.942	0.0167074
800.021	0.0168743
800.099	0.0169627
800.177	0.0166276
800.255	0.0168080
800.333	0.0168324
800.411	0.0167710
800.489	0.0166777
800.567	0.0167476
800.646	0.0166908
800.724	0.0165318
800.802	0.0165595
800.880	0.0164857
800.958	0.0165291
801.036	0.0164689
801.114	0.0165536
801.192	0.0167000
801.271	0.0165709
801.349	0.0165957
801.427	0.0165259
801.505	0.0166156
801.583	0.0168176
801.661	0.0166243
801.739	0.0166396
801.817	0.0167165
801.896	0.0166410
801.974	0.0166691
802.052	0.0166464
802.130	0.0166392
802.208	0.0165069
802.286	0.0165318
802.364	0.0165511
802.442	0.0167223
802.521	0.0166273
802.599	0.0166409
802.677	0.0165891
802.755	0.0166862
802.833	0.0167142
802.911	0.0165231
802.989	0.0165958
803.067	0.0167345
803.146	0.0165825
803.224	0.0166428
803.302	0.0165412
803.380	0.0165540
803.458	0.0165659
803.536	0.0165250
803.614	0.0167301
803.692	0.0166277
803.771	0.0166022
803.849	0.0166244
803.927	0.0165800
804.005	0.0165391
804.083	0.0166882
804.161	0.0166005
804.239	0.0165857
804.317	0.0164656
804.396	0.0164588
804.474	0.0165141
804.552	0.0164411
804.630	0.0166256
804.708	0.0165276
804.786	0.0165388
804.864	0.0165711
804.942	0.0165812
805.021	0.0166084
805.099	0.0166616
805.177	0.0166357
805.255	0.0166721
805.333	0.0167671
805.411	0.0167165
805.489	0.0166859
805.567	0.0168156
805.646	0.0167161
805.724	0.0168513
805.802	0.0168818
805.880	0.0167944
805.958	0.0168238
806.036	0.0167870
806.114	0.0168206
806.192	0.0167616
806.271	0.0166799
806.349	0.0166160
806.427	0.0167463
806.505	0.0166045
806.583	0.0166337
806.661	0.0165891
806.739	0.0165546
806.817	0.0165693
806.896	0.0165907
806.974	0.0163091
807.052	0.0163920
807.130	0.0164406
807.208	0.0163526
807.286	0.0163318
807.364	0.0162559
807.442	0.0162917
807.521	0.0163591
807.599	0.0162518
807.677	0.0162361
807.755	0.0164865
807.833	0.0163520
807.911	0.0163924
807.989	0.0163390
808.067	0.0166206
808.146	0.0166216
808.224	0.0164664
808.302	0.0164988
808.380	0.0165709
808.458	0.0165766
808.536	0.0165639
808.614	0.0167149
808.692	0.0166087
808.771	0.0168724
808.849	0.0168771
808.927	0.0168497
809.005	0.0168398
809.083	0.0168761
809.161	0.0168034
809.239	0.0168673
809.317	0.0168225
809.396	0.0166746
809.474	0.0167835
809.552	0.0168465
809.630	0.0166892
809.708	0.0168094
809.786	0.0166501
809.864	0.0164904
809.942	0.0165275
810.021	0.0165395
810.099	0.0163977
810.177	0.0164252
810.255	0.0164641
810.333	0.0164977
810.411	0.0164063
810.489	0.0163910
810.567	0.0164115
810.646	0.0163175
810.724	0.0165139
810.802	0.0166489
810.880	0.0163771
810.958	0.0164535
811.036	0.0165229
811.114	0.0165759
811.192	0.0166061
811.271	0.0166892
811.349	0.0165670
811.427	0.0167873
811.505	0.0168165
811.583	0.0166944
811.661	0.0168324
811.739	0.0168424
811.817	0.0168610
811.896	0.0168641
811.974	0.0167929
812.052	0.0167422
812.130	0.0168079
812.208	0.0167972
812.286	0.0166311
812.364	0.0166188
812.442	0.0166718
812.521	0.0166008
812.599	0.0164037
812.677	0.0164434
812.755	0.0163621
812.833	0.0164644
812.911	0.0163019
812.989	0.0163779
813.067	0.0163245
813.146	0.0163960
813.224	0.0164665
813.302	0.0165840
813.380	0.0163639
813.458	0.0165512
813.536	0.0166010
813.614	0.0166957
813.692	0.0164544
813.771	0.0166405
813.849	0.0166958
813.927	0.0167648
814.005	0.0168225
814.083	0.0168500
814.161	0.0167976
814.239	0.0166776
814.317	0.0167066
814.396	0.0166231
814.474	0.0166155
814.552	0.0168283
814.630	0.0166624
814.708	0.0166430
814.786	0.0166387
814.864	0.0166650
814.942	0.0166965
815.021	0.0167181
815.099	0.0165522
815.177	0.0166328
815.255	0.0167085
815.333	0.0166216
815.411	0.0166100
815.489	0.0166508
815.567	0.0166050
815.646	0.0165535
815.724	0.0164104
815.802	0.0166283
815.880	0.0165863
815.958	0.0165370
816.036	0.0163949
816.114	0.0165512
816.192	0.0164986
816.271	0.0163238
816.349	0.0163015
816.427	0.0165040
816.505	0.0164687
816.583	0.0163638
816.661	0.0164459
816.739	0.0166395
816.817	0.0165816
816.896	0.0164610
816.974	0.0164873
817.052	0.0166212
817.130	0.0166497
817.208	0.0167016
817.286	0.0166891
817.364	0.0168149
817.442	0.0168668
817.521	0.0168661
817.599	0.0169907
817.677	0.0169681
817.755	0.0168787
817.833	0.0169016
817.911	0.0169521
817.989	0.0168108
818.067	0.0168491
818.146	0.0168505
818.224	0.0168189
818.302	0.0167771
818.380	0.0165779
818.458	0.0167064
818.536	0.0167716
818.614	0.0167601
818.692	0.0166201
818.771	0.0166037
818.849	0.0166084
818.927	0.0165231
819.005	0.0165879
819.083	0.0165267
819.161	0.0164751
819.239	0.0164211
819.317	0.0165595
819.396	0.0165125
819.474	0.0167072
819.552	0.0167189
819.630	0.0166901
819.708	0.0166472
819.786	0.0165903
819.864	0.0166676
819.942	0.0167703
820.021	0.0167474
820.099	0.0167162
820.177	0.0165593
820.255	0.0167881
820.333	0.0167761
820.411	0.0166473
820.489	0.0166309
820.567	0.0167762
820.646	0.0168195
820.724	0.0167724
820.802	0.0167546
820.880	0.0167274
820.958	0.0166036
821.036	0.0167847
821.114	0.0167085
821.192	0.0167587
821.271	0.0167902
821.349	0.0167043
821.427	0.0167300
821.505	0.0167272
821.583	0.0167377
821.661	0.0167619
821.739	0.0167786
821.817	0.0168095
821.896	0.0166635
821.974	0.0166962
822.052	0.0166904
822.130	0.0164908
822.208	0.0165334
822.286	0.0166044
822.364	0.0165894
822.442	0.0164418
822.521	0.0164468
822.599	0.0164198
822.677	0.0166579
822.755	0.0165878
822.833	0.0165224
822.911	0.0165068
822.989	0.0165435
823.067	0.0165017
823.146	0.0164927
823.224	0.0165231
823.302	0.0164455
823.380	0.0165478
823.458	0.0165831
823.536	0.0165813
823.614	0.0165713
823.692	0.0166121
823.771	0.0164814
823.849	0.0167652
823.927	0.0166933
824.005	0.0167671
824.083	0.0166744
824.161	0.0165903
824.239	0.0168181
824.317	0.0168089
824.396	0.0167500
824.474	0.0168752
824.552	0.0168021
824.630	0.0168405
824.708	0.0168304
824.786	0.0166892
824.864	0.0168379
824.942	0.0168378
825.021	0.0167566
825.099	0.0168225
825.177	0.0167430
825.255	0.0165543
825.333	0.0167500
825.411	0.0166941
825.489	0.0168034
825.567	0.0166629
825.646	0.0166208
825.724	0.0167800
825.802	0.0167598
825.880	0.0167414
825.958	0.0166999
826.036	0.0166222
826.114	0.0167377
826.192	0.0165593
826.271	0.0165454
826.349	0.0165435
826.427	0.0164302
826.505	0.0164082
826.583	0.0165964
826.661	0.0164961
826.739	0.0164585
826.817	0.0163677
826.896	0.0163892
826.974	0.0163771
827.052	0.0163632
827.130	0.0163473
827.208	0.0162894
827.286	0.0164296
827.364	0.0165763
827.442	0.0166512
827.521	0.0164389
827.599	0.0164472
827.677	0.0165396
827.755	0.0165463
827.833	0.0165034
827.911	0.0166090
827.989	0.0165606
828.067	0.0166485
828.146	0.0166686
828.224	0.0167605
828.302	0.0166620
828.380	0.0166798
828.458	0.0169179
828.536	0.0166418
828.614	0.0165501
828.692	0.0166663
828.771	0.0167938
828.849	0.0166419
828.927	0.0166516
829.005	0.0166870
829.083	0.0166070
829.161	0.0165216
829.239	0.0167448
829.317	0.0166396
829.396	0.0165004
829.474	0.0164936
829.552	0.0166579
829.630	0.0165392
829.708	0.0165054
829.786	0.0165829
829.864	0.0164319
829.942	0.0165424
830.021	0.0165068
830.099	0.0166234
830.177	0.0165192
830.255	0.0166026
830.333	0.0166426
830.411	0.0168070
830.489	0.0167130
830.567	0.0167258
830.646	0.0167252
830.724	0.0168230
830.802	0.0168081
830.880	0.0168527
830.958	0.0168380
831.036	0.0168748
831.114	0.0168933
831.192	0.0168179
831.271	0.0167669
831.349	0.0166769
831.427	0.0167155
831.505	0.0168086
831.583	0.0165897
831.661	0.0166467
831.739	0.0166370
831.817	0.0165986
831.896	0.0166315
831.974	0.0166042
832.052	0.0164109
832.130	0.0166329
832.208	0.0166295
832.286	0.0165662
832.364	0.0165208
832.442	0.0165104
832.521	0.0164690
832.599	0.0165956
832.677	0.0165960
832.755	0.0165298
832.833	0.0165508
832.911	0.0165142
832.989	0.0165897
833.067	0.0166735
833.146	0.0166829
833.224	0.0165507
833.302	0.0165813
833.380	0.0167246
833.458	0.0165762
833.536	0.0166543
833.614	0.0165327
833.692	0.0165821
833.771	0.0166373
833.849	0.0165266
833.927	0.0164586
834.005	0.0165353
834.083	0.0164871
834.161	0.0164896
834.239	0.0166036
834.317	0.0167030
834.396	0.0164628
834.474	0.0164870
834.552	0.0166305
834.630	0.0165925
834.708	0.0166607
834.786	0.0166248
834.864	0.0167482
834.942	0.0166930
835.021	0.0164931
835.099	0.0166489
835.177	0.0167525
835.255	0.0165074
835.333	0.0166129
835.411	0.0166458
835.489	0.0165547
835.567	0.0164716
835.646	0.0165138
835.724	0.0165276
835.802	0.0166480
835.880	0.0165784
835.958	0.0166193
836.036	0.0166327
836.114	0.0166054
836.192	0.0166475
836.271	0.0167628
836.349	0.0165919
836.427	0.0167839
836.505	0.0167619
836.583	0.0166842
836.661	0.0167558
836.739	0.0167319
836.817	0.0168234
836.896	0.0167745
836.974	0.0166808
837.052	0.0166238
837.130	0.0166516
837.208	0.0166605
837.286	0.0167135
837.364	0.0167577
837.442	0.0166969
837.521	0.0163644
837.599	0.0163924
837.677	0.0164760
837.755	0.0163612
837.833	0.0163056
837.911	0.0163483
837.989	0.0164945
838.067	0.0163489
838.146	0.0163527
838.224	0.0164290
838.302	0.0162991
838.380	0.0164345
838.458	0.0163551
838.536	0.0163701
838.614	0.0164693
838.692	0.0164679
838.771	0.0165359
838.849	0.0165260
838.927	0.0165363
839.005	0.0164912
839.083	0.0165973
839.161	0.0164893
839.239	0.0166432
839.317	0.0165702
839.396	0.0165501
839.474	0.0166453
839.552	0.0165064
839.630	0.0164276
839.708	0.0163576
839.786	0.0164864
839.864	0.0164358
839.942	0.0165662
840.021	0.0164082
840.099	0.0164059
840.177	0.0164803
840.255	0.0165231
840.333	0.0165205
840.411	0.0166255
840.489	0.0166951
840.567	0.0166892
840.646	0.0168626
840.724	0.0166819
840.802	0.0165742
840.880	0.0167410
840.958	0.0167141
841.036	0.0167310
841.114	0.0167750
841.192	0.0168535
841.271	0.0168315
841.349	0.0167854
841.427	0.0166752
841.505	0.0167426
841.583	0.0167697
841.661	0.0166278
841.739	0.0166058
841.817	0.0165032
841.896	0.0166077
841.974	0.0166430
842.052	0.0166156
842.130	0.0165667
842.208	0.0166241
842.286	0.0166658
842.364	0.0166836
842.442	0.0166166
842.521	0.0166176
842.599	0.0167191
842.677	0.0166313
842.755	0.0166552
842.833	0.0167122
842.911	0.0167410
842.989	0.0168562
843.067	0.0168637
843.146	0.0166732
843.224	0.0166439
843.302	0.0167211
843.380	0.0166500
843.458	0.0167085
843.536	0.0166225
843.614	0.0167429
843.692	0.0167657
843.771	0.0167218
843.849	0.0165788
843.927	0.0165170
844.005	0.0165170
844.083	0.0167036
844.161	0.0165691
844.239	0.0164497
844.317	0.0166977
844.396	0.0165861
844.474	0.0164412
844.552	0.0166125
844.630	0.0166852
844.708	0.0165984
844.786	0.0166343
844.864	0.0166472
844.942	0.0166052
845.021	0.0164899
845.099	0.0166526
845.177	0.0167104
845.255	0.0165543
845.333	0.0165746
845.411	0.0165174
845.489	0.0165380
845.567	0.0164855
845.646	0.0165314
845.724	0.0165161
845.802	0.0164485
845.880	0.0163213
845.958	0.0165549
846.036	0.0164211
846.114	0.0163743
846.192	0.0164848
846.271	0.0165828
846.349	0.0165278
846.427	0.0165499
846.505	0.0166459
846.583	0.0165926
846.661	0.0166619
846.739	0.0167997
846.817	0.0165267
846.896	0.0166848
846.974	0.0166090
847.052	0.0166872
847.130	0.0167754
847.208	0.0167539
847.286	0.0166500
847.364	0.0166065
847.442	0.0167744
847.521	0.0164110
847.599	0.0164749
847.677	0.0165466
847.755	0.0165648
847.833	0.0165295
847.911	0.0164647
847.989	0.0164941
848.067	0.0163810
848.146	0.0163807
848.224	0.0164935
848.302	0.0164664
848.380	0.0164752
848.458	0.0164757
848.536	0.0166071
848.614	0.0165140
848.692	0.0166163
848.771	0.0165749
848.849	0.0167481
848.927	0.0167294
849.005	0.0165895
849.083	0.0168134
849.161	0.0167135
849.239	0.0166757
849.317	0.0167864
849.396	0.0168081
849.474	0.0166667
849.552	0.0166901
849.630	0.0167319
849.708	0.0167574
849.786	0.0166902
849.864	0.0166923
849.942	0.0165630
850.021	0.0165771
850.099	0.0165549
850.177	0.0165354
850.255	0.0164432
850.333	0.0165848
850.411	0.0164592
850.489	0.0164963
850.567	0.0164417
850.646	0.0164914
850.724	0.0164644
850.802	0.0165549
850.880	0.0165153
850.958	0.0166014
851.036	0.0165545
851.114	0.0166993
851.192	0.0165795
851.271	0.0166507
851.349	0.0166591
851.427	0.0167520
851.505	0.0166488
851.583	0.0166695
851.661	0.0167095
851.739	0.0167471
851.817	0.0165984
851.896	0.0166370
851.974	0.0166904
852.052	0.0167145
852.130	0.0165177
852.208	0.0164118
852.286	0.0165373
852.364	0.0165442
852.442	0.0164128
852.521	0.0164490
852.599	0.0163089
852.677	0.0162473
852.755	0.0161724
852.833	0.0162115
852.911	0.0162530
852.989	0.0164109
853.067	0.0162074
853.146	0.0163102
853.224	0.0163084
853.302	0.0163551
853.380	0.0165068
853.458	0.0164285
853.536	0.0164960
853.614	0.0164209
853.692	0.0166226
853.771	0.0165941
853.849	0.0166373
853.927	0.0166000
854.005	0.0166051
854.083	0.0166738
854.161	0.0167508
854.239	0.0168006
854.317	0.0168244
854.396	0.0167426
854.474	0.0168331
854.552	0.0167786
854.630	0.0167161
854.708	0.0167667
854.786	0.0167831
854.864	0.0168567
854.942	0.0168464
855.021	0.0166624
855.099	0.0168087
855.177	0.0167953
855.255	0.0166060
855.333	0.0166451
855.411	0.0167912
855.489	0.0167809
855.567	0.0167718
855.646	0.0168074
855.724	0.0167399
855.802	0.0166889
855.880	0.0167433
855.958	0.0167274
856.036	0.0166599
856.114	0.0167287
856.192	0.0166335
856.271	0.0165154
856.349	0.0164735
856.427	0.0164255
856.505	0.0165126
856.583	0.0165234
856.661	0.0165044
856.739	0.0163473
856.817	0.0165359
856.896	0.0163918
856.974	0.0164515
857.052	0.0164461
857.130	0.0163212
857.208	0.0162577
857.286	0.0163976
857.364	0.0165225
857.442	0.0164828
857.521	0.0166051
857.599	0.0165259
857.677	0.0165796
857.755	0.0166261
857.833	0.0166096
857.911	0.0166957
857.989	0.0167024
858.067	0.0164595
858.146	0.0166067
858.224	0.0167297
858.302	0.0166936
858.380	0.0167001
858.458	0.0166617
858.536	0.0166801
858.614	0.0166980
858.692	0.0166596
858.771	0.0166001
858.849	0.0166645
858.927	0.0166928
859.005	0.0166037
859.083	0.0167023
859.161	0.0166492
859.239	0.0166405
859.317	0.0166006
859.396	0.0167750
859.474	0.0167266
859.552	0.0167662
859.630	0.0167326
859.708	0.0166360
859.786	0.0167601
859.864	0.0167625
859.942	0.0167999
860.021	0.0167775
860.099	0.0168592
860.177	0.0166396
860.255	0.0167349
860.333	0.0167227
860.411	0.0165527
860.489	0.0166167
860.567	0.0166659
860.646	0.0165657
860.724	0.0165569
860.802	0.0166433
860.880	0.0165162
860.958	0.0163745
861.036	0.0164189
861.114	0.0166498
861.192	0.0164874
861.271	0.0164427
861.349	0.0164884
861.427	0.0162861
861.505	0.0163574
861.583	0.0163857
861.661	0.0163622
861.739	0.0165775
861.817	0.0165057
861.896	0.0165701
861.974	0.0164443
862.052	0.0164158
862.130	0.0164371
862.208	0.0165325
862.286	0.0165855
862.364	0.0165645
862.442	0.0166371
862.521	0.0166557
862.599	0.0166678
862.677	0.0167583
862.755	0.0167228
862.833	0.0167024
862.911	0.0167012
862.989	0.0167920
863.067	0.0168661
863.146	0.0168875
863.224	0.0167786
863.302	0.0167561
863.380	0.0167995
863.458	0.0167788
863.536	0.0167917
863.614	0.0166235
863.692	0.0167292
863.771	0.0165414
863.849	0.0165849
863.927	0.0167046
864.005	0.0166393
864.083	0.0165599
864.161	0.0167090
864.239	0.0167518
864.317	0.0166600
864.396	0.0166795
864.474	0.0166502
864.552	0.0168140
864.630	0.0165845
864.708	0.0166616
864.786	0.0165430
864.864	0.0165903
864.942	0.0166499
865.021	0.0166259
865.099	0.0165630
865.177	0.0165749
865.255	0.0164655
865.333	0.0164910
865.411	0.0166635
865.489	0.0166356
865.567	0.0165476
865.646	0.0164387
865.724	0.0165846
865.802	0.0165665
865.880	0.0165185
865.958	0.0165696
866.036	0.0163931
866.114	0.0164892
866.192	0.0165305
866.271	0.0165228
866.349	0.0166246
866.427	0.0164942
866.505	0.0166806
866.583	0.0165975
866.661	0.0166414
866.739	0.0166344
866.817	0.0167811
866.896	0.0166586
866.974	0.0166349
867.052	0.0166219
867.130	0.0167263
867.208	0.0165099
867.286	0.0167709
867.364	0.0168027
867.442	0.0168205
867.521	0.0168723
867.599	0.0168088
867.677	0.0168143
867.755	0.0169139
867.833	0.0168575
867.911	0.0167572
867.989	0.0168111
868.067	0.0169226
868.146	0.0169152
868.224	0.0168381
868.302	0.0168358
868.380	0.0166583
868.458	0.0168002
868.536	0.0167036
868.614	0.0165260
868.692	0.0164973
868.771	0.0166268
868.849	0.0165582
868.927	0.0163992
869.005	0.0165157
869.083	0.0165498
869.161	0.0162965
869.239	0.0163512
869.317	0.0163025
869.396	0.0163295
869.474	0.0162830
869.552	0.0162556
869.630	0.0162279
869.708	0.0163080
869.786	0.0162279
869.864	0.0162694
869.942	0.0162859
