06/10/2022	16:38:38	Ver.	4.1	UNKNOWN
Optical Delay	600.015094	Delta X		0.078125	Sweeps	1	Scan Rate	0/0
Coordinates	Axis 1	NaN	Axis 2	NaN	Axis 3	NaN	Axis 4	NaN	Axis 5	NaN	Axis 6	0.000000
TX Power	0.000000	RX Power	0.000000

600.015	0.0165156
600.093	0.0166652
600.171	0.0164713
600.249	0.0166445
600.328	0.0164400
600.406	0.0164755
600.484	0.0165514
600.562	0.0164708
600.640	0.0164979
600.718	0.0165401
600.796	0.0165611
600.874	0.0165659
600.953	0.0165491
601.031	0.0166131
601.109	0.0164855
601.187	0.0164807
601.265	0.0166036
601.343	0.0166395
601.421	0.0166058
601.499	0.0166261
601.578	0.0165410
601.656	0.0166542
601.734	0.0164380
601.812	0.0164570
601.890	0.0165018
601.968	0.0165470
602.046	0.0165006
602.124	0.0164128
602.203	0.0163998
602.281	0.0165157
602.359	0.0165494
602.437	0.0163966
602.515	0.0164769
602.593	0.0165578
602.671	0.0163723
602.749	0.0164255
602.828	0.0164435
602.906	0.0164793
602.984	0.0165407
603.062	0.0164377
603.140	0.0165200
603.218	0.0163104
603.296	0.0164616
603.374	0.0163181
603.453	0.0164367
603.531	0.0162891
603.609	0.0164400
603.687	0.0166495
603.765	0.0163361
603.843	0.0164019
603.921	0.0164867
603.999	0.0164147
604.078	0.0163944
604.156	0.0164223
604.234	0.0165562
604.312	0.0164285
604.390	0.0164416
604.468	0.0162224
604.546	0.0162956
604.624	0.0164226
604.703	0.0165221
604.781	0.0163829
604.859	0.0164233
604.937	0.0164614
605.015	0.0162978
605.093	0.0164079
605.171	0.0163554
605.249	0.0163323
605.328	0.0163545
605.406	0.0163860
605.484	0.0163835
605.562	0.0164789
605.640	0.0163312
605.718	0.0164147
605.796	0.0163832
605.874	0.0163879
605.953	0.0163544
606.031	0.0164619
606.109	0.0163582
606.187	0.0165417
606.265	0.0164275
606.343	0.0163832
606.421	0.0163930
606.499	0.0164250
606.578	0.0163300
606.656	0.0163274
606.734	0.0163622
606.812	0.0162546
606.890	0.0162692
606.968	0.0164952
607.046	0.0163555
607.124	0.0162584
607.203	0.0163068
607.281	0.0163459
607.359	0.0164632
607.437	0.0164799
607.515	0.0163925
607.593	0.0163943
607.671	0.0164252
607.749	0.0164847
607.828	0.0162959
607.906	0.0163661
607.984	0.0164445
608.062	0.0164568
608.140	0.0163584
608.218	0.0165130
608.296	0.0163256
608.374	0.0164246
608.453	0.0165788
608.531	0.0166188
608.609	0.0165106
608.687	0.0164417
608.765	0.0164486
608.843	0.0165730
608.921	0.0164717
608.999	0.0164894
609.078	0.0164266
609.156	0.0164143
609.234	0.0164381
609.312	0.0164317
609.390	0.0164487
609.468	0.0163927
609.546	0.0164615
609.624	0.0164272
609.703	0.0165036
609.781	0.0164795
609.859	0.0165422
609.937	0.0165096
610.015	0.0164052
610.093	0.0166109
610.171	0.0166145
610.249	0.0164806
610.328	0.0167321
610.406	0.0165656
610.484	0.0165749
610.562	0.0167741
610.640	0.0167411
610.718	0.0165761
610.796	0.0167065
610.874	0.0167541
610.953	0.0168121
611.031	0.0167898
611.109	0.0167455
611.187	0.0167690
611.265	0.0168119
611.343	0.0167480
611.421	0.0167374
611.499	0.0166072
611.578	0.0168456
611.656	0.0168458
611.734	0.0167300
611.812	0.0168159
611.890	0.0167996
611.968	0.0167563
612.046	0.0168166
612.124	0.0166699
612.203	0.0166892
612.281	0.0166841
612.359	0.0166889
612.437	0.0165916
612.515	0.0165570
612.593	0.0168351
612.671	0.0167185
612.749	0.0166031
612.828	0.0166135
612.906	0.0165943
612.984	0.0165894
613.062	0.0166769
613.140	0.0165900
613.218	0.0164901
613.296	0.0166068
613.374	0.0165749
613.453	0.0164900
613.531	0.0165024
613.609	0.0165417
613.687	0.0164834
613.765	0.0164541
613.843	0.0165183
613.921	0.0165443
613.999	0.0164673
614.078	0.0163721
614.156	0.0165109
614.234	0.0164768
614.312	0.0163759
614.390	0.0165235
614.468	0.0164803
614.546	0.0166370
614.624	0.0165112
614.703	0.0165829
614.781	0.0165515
614.859	0.0165893
614.937	0.0165215
615.015	0.0165306
615.093	0.0164897
615.171	0.0164506
615.249	0.0164480
615.328	0.0164925
615.406	0.0166025
615.484	0.0164989
615.562	0.0164678
615.640	0.0165897
615.718	0.0164858
615.796	0.0165485
615.874	0.0165611
615.953	0.0164524
616.031	0.0164362
616.109	0.0165208
616.187	0.0164937
616.265	0.0164372
616.343	0.0164677
616.421	0.0165567
616.499	0.0165474
616.578	0.0165503
616.656	0.0164233
616.734	0.0164759
616.812	0.0163445
616.890	0.0164892
616.968	0.0163120
617.046	0.0162626
617.124	0.0163180
617.203	0.0164252
617.281	0.0163785
617.359	0.0164756
617.437	0.0163953
617.515	0.0163522
617.593	0.0164468
617.671	0.0165782
617.749	0.0165423
617.828	0.0162814
617.906	0.0163512
617.984	0.0163763
618.062	0.0163256
618.140	0.0163829
618.218	0.0163663
618.296	0.0164144
618.374	0.0164801
618.453	0.0163033
618.531	0.0165799
618.609	0.0163435
618.687	0.0164311
618.765	0.0164929
618.843	0.0166280
618.921	0.0164336
618.999	0.0164456
619.078	0.0164821
619.156	0.0165159
619.234	0.0163467
619.312	0.0165202
619.390	0.0164587
619.468	0.0163378
619.546	0.0165326
619.624	0.0165671
619.703	0.0165730
619.781	0.0166157
619.859	0.0165051
619.937	0.0165163
620.015	0.0164441
620.093	0.0164967
620.171	0.0166076
620.249	0.0165870
620.328	0.0165561
620.406	0.0164703
620.484	0.0167137
620.562	0.0167172
620.640	0.0166205
620.718	0.0164786
620.796	0.0165477
620.874	0.0164614
620.953	0.0166451
621.031	0.0165117
621.109	0.0167383
621.187	0.0166131
621.265	0.0165107
621.343	0.0166678
621.421	0.0166534
621.499	0.0164483
621.578	0.0165685
621.656	0.0166889
621.734	0.0166338
621.812	0.0165158
621.890	0.0166534
621.968	0.0166753
622.046	0.0164529
622.124	0.0165323
622.203	0.0164548
622.281	0.0165147
622.359	0.0165623
622.437	0.0165350
622.515	0.0166518
622.593	0.0165540
622.671	0.0164143
622.749	0.0165357
622.828	0.0166391
622.906	0.0165244
622.984	0.0166572
623.062	0.0164892
623.140	0.0166244
623.218	0.0163782
623.296	0.0164832
623.374	0.0164725
623.453	0.0164890
623.531	0.0163734
623.609	0.0165432
623.687	0.0165913
623.765	0.0165633
623.843	0.0163911
623.921	0.0164867
623.999	0.0165308
624.078	0.0166114
624.156	0.0164231
624.234	0.0164748
624.312	0.0165099
624.390	0.0163900
624.468	0.0164294
624.546	0.0164668
624.624	0.0164034
624.703	0.0164208
624.781	0.0164077
624.859	0.0164005
624.937	0.0164725
625.015	0.0164626
625.093	0.0164246
625.171	0.0164323
625.249	0.0163599
625.328	0.0165512
625.406	0.0165379
625.484	0.0164203
625.562	0.0165578
625.640	0.0163889
625.718	0.0164705
625.796	0.0163795
625.874	0.0164637
625.953	0.0165067
626.031	0.0164606
626.109	0.0165073
626.187	0.0164911
626.265	0.0164753
626.343	0.0164661
626.421	0.0163459
626.499	0.0164052
626.578	0.0164719
626.656	0.0164752
626.734	0.0163950
626.812	0.0163894
626.890	0.0163405
626.968	0.0165285
627.046	0.0164699
627.124	0.0164625
627.203	0.0164306
627.281	0.0164346
627.359	0.0165329
627.437	0.0164619
627.515	0.0164056
627.593	0.0164587
627.671	0.0164974
627.749	0.0164738
627.828	0.0163931
627.906	0.0163210
627.984	0.0164830
628.062	0.0165522
628.140	0.0164919
628.218	0.0163684
628.296	0.0163634
628.374	0.0164756
628.453	0.0164032
628.531	0.0164622
628.609	0.0164468
628.687	0.0164423
628.765	0.0163290
628.843	0.0164343
628.921	0.0163581
628.999	0.0165175
629.078	0.0164391
629.156	0.0163503
629.234	0.0164220
629.312	0.0165735
629.390	0.0164239
629.468	0.0164712
629.546	0.0165780
629.624	0.0164773
629.703	0.0165520
629.781	0.0164917
629.859	0.0163552
629.937	0.0164961
630.015	0.0163783
630.093	0.0165106
630.171	0.0164958
630.249	0.0164953
630.328	0.0164931
630.406	0.0163962
630.484	0.0165426
630.562	0.0164548
630.640	0.0165656
630.718	0.0166553
630.796	0.0166251
630.874	0.0165353
630.953	0.0166822
631.031	0.0166871
631.109	0.0167589
631.187	0.0165626
631.265	0.0166410
631.343	0.0165050
631.421	0.0164977
631.499	0.0166074
631.578	0.0165664
631.656	0.0166517
631.734	0.0166281
631.812	0.0164806
631.890	0.0164693
631.968	0.0165211
632.046	0.0167484
632.124	0.0166417
632.203	0.0165272
632.281	0.0166714
632.359	0.0165639
632.437	0.0164314
632.515	0.0165311
632.593	0.0166368
632.671	0.0164535
632.749	0.0165742
632.828	0.0165150
632.906	0.0165075
632.984	0.0164814
633.062	0.0164529
633.140	0.0166813
633.218	0.0164712
633.296	0.0164682
633.374	0.0165480
633.453	0.0165438
633.531	0.0164832
633.609	0.0165324
633.687	0.0165308
633.765	0.0165712
633.843	0.0166817
633.921	0.0166428
633.999	0.0165472
634.078	0.0166004
634.156	0.0165932
634.234	0.0166578
634.312	0.0166113
634.390	0.0164754
634.468	0.0165689
634.546	0.0165237
634.624	0.0164640
634.703	0.0165663
634.781	0.0166175
634.859	0.0165827
634.937	0.0165409
635.015	0.0165866
635.093	0.0165562
635.171	0.0164690
635.249	0.0166737
635.328	0.0165844
635.406	0.0165387
635.484	0.0165805
635.562	0.0165977
635.640	0.0165337
635.718	0.0165760
635.796	0.0165312
635.874	0.0166116
635.953	0.0165560
636.031	0.0164743
636.109	0.0166431
636.187	0.0166561
636.265	0.0166202
636.343	0.0165217
636.421	0.0165517
636.499	0.0164695
636.578	0.0163677
636.656	0.0165575
636.734	0.0166601
636.812	0.0165549
636.890	0.0165051
636.968	0.0165614
637.046	0.0163647
637.124	0.0163969
637.203	0.0164674
637.281	0.0166402
637.359	0.0165755
637.437	0.0166214
637.515	0.0165127
637.593	0.0164124
637.671	0.0166634
637.749	0.0165833
637.828	0.0165298
637.906	0.0164894
637.984	0.0165669
638.062	0.0165766
638.140	0.0165589
638.218	0.0165737
638.296	0.0163519
638.374	0.0163826
638.453	0.0165055
638.531	0.0165953
638.609	0.0165173
638.687	0.0164472
638.765	0.0165517
638.843	0.0164882
638.921	0.0165767
638.999	0.0165926
639.078	0.0164403
639.156	0.0166100
639.234	0.0164972
639.312	0.0165125
639.390	0.0165709
639.468	0.0164455
639.546	0.0166552
639.624	0.0166875
639.703	0.0165456
639.781	0.0166988
639.859	0.0163993
639.937	0.0164986
640.015	0.0164945
640.093	0.0164322
640.171	0.0166802
640.249	0.0166719
640.328	0.0165547
640.406	0.0165012
640.484	0.0166092
640.562	0.0165057
640.640	0.0165004
640.718	0.0165407
640.796	0.0165447
640.874	0.0165421
640.953	0.0165836
641.031	0.0163460
641.109	0.0164849
641.187	0.0164877
641.265	0.0165073
641.343	0.0166418
641.421	0.0164874
641.499	0.0165438
641.578	0.0165874
641.656	0.0165549
641.734	0.0166338
641.812	0.0165842
641.890	0.0164433
641.968	0.0165332
642.046	0.0165531
642.124	0.0165974
642.203	0.0166325
642.281	0.0164090
642.359	0.0165620
642.437	0.0166243
642.515	0.0166492
642.593	0.0165353
642.671	0.0165540
642.749	0.0166520
642.828	0.0165022
642.906	0.0165755
642.984	0.0164523
643.062	0.0166204
643.140	0.0166387
643.218	0.0166306
643.296	0.0165326
643.374	0.0165620
643.453	0.0165887
643.531	0.0165768
643.609	0.0166005
643.687	0.0166830
643.765	0.0166889
643.843	0.0164580
643.921	0.0164318
643.999	0.0164415
644.078	0.0166030
644.156	0.0165205
644.234	0.0166014
644.312	0.0164920
644.390	0.0165256
644.468	0.0164915
644.546	0.0164481
644.624	0.0164081
644.703	0.0165649
644.781	0.0164285
644.859	0.0164133
644.937	0.0164752
645.015	0.0163759
645.093	0.0163889
645.171	0.0164565
645.249	0.0165843
645.328	0.0164427
645.406	0.0164842
645.484	0.0163448
645.562	0.0165044
645.640	0.0164111
645.718	0.0165230
645.796	0.0165263
645.874	0.0163630
645.953	0.0163430
646.031	0.0164375
646.109	0.0163923
646.187	0.0164828
646.265	0.0165446
646.343	0.0163938
646.421	0.0163472
646.499	0.0164832
646.578	0.0165269
646.656	0.0163573
646.734	0.0163052
646.812	0.0163989
646.890	0.0165290
646.968	0.0165068
647.046	0.0163692
647.124	0.0163572
647.203	0.0163533
647.281	0.0163993
647.359	0.0161662
647.437	0.0163716
647.515	0.0164494
647.593	0.0164827
647.671	0.0162897
647.749	0.0164723
647.828	0.0164898
647.906	0.0165115
647.984	0.0164533
648.062	0.0164640
648.140	0.0164236
648.218	0.0164010
648.296	0.0164467
648.374	0.0164307
648.453	0.0163030
648.531	0.0164765
648.609	0.0163570
648.687	0.0164164
648.765	0.0164036
648.843	0.0162635
648.921	0.0164349
648.999	0.0165038
649.078	0.0164084
649.156	0.0164073
649.234	0.0163937
649.312	0.0162171
649.390	0.0163847
649.468	0.0163291
649.546	0.0163746
649.624	0.0164099
649.703	0.0164030
649.781	0.0163437
649.859	0.0162761
649.937	0.0162962
650.015	0.0164614
650.093	0.0163782
650.171	0.0163184
650.249	0.0163781
650.328	0.0164451
650.406	0.0163471
650.484	0.0164587
650.562	0.0163882
650.640	0.0165176
650.718	0.0164478
650.796	0.0164671
650.874	0.0164711
650.953	0.0163683
651.031	0.0165170
651.109	0.0164787
651.187	0.0162801
651.265	0.0165104
651.343	0.0165100
651.421	0.0164623
651.499	0.0162502
651.578	0.0163482
651.656	0.0166145
651.734	0.0165049
651.812	0.0164806
651.890	0.0164150
651.968	0.0165145
652.046	0.0165379
652.124	0.0164333
652.203	0.0162705
652.281	0.0164474
652.359	0.0164938
652.437	0.0163995
652.515	0.0163840
652.593	0.0165343
652.671	0.0164613
652.749	0.0162829
652.828	0.0164932
652.906	0.0164282
652.984	0.0165190
653.062	0.0164310
653.140	0.0164079
653.218	0.0164918
653.296	0.0163872
653.374	0.0164120
653.453	0.0164931
653.531	0.0164166
653.609	0.0165482
653.687	0.0164480
653.765	0.0165053
653.843	0.0164167
653.921	0.0165241
653.999	0.0166333
654.078	0.0164715
654.156	0.0164210
654.234	0.0164979
654.312	0.0165180
654.390	0.0164561
654.468	0.0164962
654.546	0.0166353
654.624	0.0165458
654.703	0.0164040
654.781	0.0164753
654.859	0.0165326
654.937	0.0164816
655.015	0.0166699
655.093	0.0166721
655.171	0.0165295
655.249	0.0165656
655.328	0.0166386
655.406	0.0166297
655.484	0.0165749
655.562	0.0165555
655.640	0.0165601
655.718	0.0165724
655.796	0.0165420
655.874	0.0165129
655.953	0.0165715
656.031	0.0166058
656.109	0.0165298
656.187	0.0164571
656.265	0.0165195
656.343	0.0166538
656.421	0.0165182
656.499	0.0165063
656.578	0.0164780
656.656	0.0165598
656.734	0.0164975
656.812	0.0166183
656.890	0.0166819
656.968	0.0165756
657.046	0.0164722
657.124	0.0167155
657.203	0.0163195
657.281	0.0165358
657.359	0.0165332
657.437	0.0164639
657.515	0.0164938
657.593	0.0165258
657.671	0.0165799
657.749	0.0164303
657.828	0.0164850
657.906	0.0164680
657.984	0.0166361
658.062	0.0165425
658.140	0.0164267
658.218	0.0164561
658.296	0.0165083
658.374	0.0165677
658.453	0.0165549
658.531	0.0165080
658.609	0.0165818
658.687	0.0164348
658.765	0.0163922
658.843	0.0165849
658.921	0.0165311
658.999	0.0165224
659.078	0.0165636
659.156	0.0165231
659.234	0.0166937
659.312	0.0165016
659.390	0.0165681
659.468	0.0165493
659.546	0.0164845
659.624	0.0164600
659.703	0.0165397
659.781	0.0164645
659.859	0.0165095
659.937	0.0165215
660.015	0.0165137
660.093	0.0165408
660.171	0.0165544
660.249	0.0165863
660.328	0.0164590
660.406	0.0163506
660.484	0.0163677
660.562	0.0164924
660.640	0.0165144
660.718	0.0164838
660.796	0.0164194
660.874	0.0164177
660.953	0.0165355
661.031	0.0164983
661.109	0.0164223
661.187	0.0164890
661.265	0.0165223
661.343	0.0164333
661.421	0.0165469
661.499	0.0164104
661.578	0.0164844
661.656	0.0165181
661.734	0.0164648
661.812	0.0166177
661.890	0.0164201
661.968	0.0164875
662.046	0.0165044
662.124	0.0164523
662.203	0.0164645
662.281	0.0166193
662.359	0.0164428
662.437	0.0164433
662.515	0.0163811
662.593	0.0165202
662.671	0.0164317
662.749	0.0164972
662.828	0.0166713
662.906	0.0164414
662.984	0.0165541
663.062	0.0164948
663.140	0.0164758
663.218	0.0165642
663.296	0.0164822
663.374	0.0164676
663.453	0.0164913
663.531	0.0165376
663.609	0.0165425
663.687	0.0165199
663.765	0.0163782
663.843	0.0164582
663.921	0.0164896
663.999	0.0165453
664.078	0.0164739
664.156	0.0166613
664.234	0.0163838
664.312	0.0163207
664.390	0.0166397
664.468	0.0164969
664.546	0.0164753
664.624	0.0162874
664.703	0.0165519
664.781	0.0165289
664.859	0.0165365
664.937	0.0164239
665.015	0.0164018
665.093	0.0164820
665.171	0.0164750
665.249	0.0163917
665.328	0.0163996
665.406	0.0163883
665.484	0.0165223
665.562	0.0165270
665.640	0.0165221
665.718	0.0165062
665.796	0.0164378
665.874	0.0164843
665.953	0.0164119
666.031	0.0165398
666.109	0.0164567
666.187	0.0165604
666.265	0.0164944
666.343	0.0165765
666.421	0.0165208
666.499	0.0165348
666.578	0.0163229
666.656	0.0165479
666.734	0.0166359
666.812	0.0164648
666.890	0.0165615
666.968	0.0165084
667.046	0.0165632
667.124	0.0165941
667.203	0.0166035
667.281	0.0164290
667.359	0.0164552
667.437	0.0166611
667.515	0.0164964
667.593	0.0165759
667.671	0.0166544
667.749	0.0165886
667.828	0.0165376
667.906	0.0165842
667.984	0.0164038
668.062	0.0165572
668.140	0.0166040
668.218	0.0164701
668.296	0.0165416
668.374	0.0165826
668.453	0.0165846
668.531	0.0165697
668.609	0.0165759
668.687	0.0163755
668.765	0.0164135
668.843	0.0167160
668.921	0.0165731
668.999	0.0165289
669.078	0.0164505
669.156	0.0166431
669.234	0.0163574
669.312	0.0163779
669.390	0.0164310
669.468	0.0165563
669.546	0.0165331
669.624	0.0165133
669.703	0.0164207
669.781	0.0164531
669.859	0.0164350
669.937	0.0163605
670.015	0.0164175
670.093	0.0165115
670.171	0.0163871
670.249	0.0164385
670.328	0.0164434
670.406	0.0163557
670.484	0.0164516
670.562	0.0165128
670.640	0.0165198
670.718	0.0163268
670.796	0.0164825
670.874	0.0164893
670.953	0.0164095
671.031	0.0163712
671.109	0.0164770
671.187	0.0164252
671.265	0.0165108
671.343	0.0163851
671.421	0.0163946
671.499	0.0163166
671.578	0.0164365
671.656	0.0164571
671.734	0.0164333
671.812	0.0164213
671.890	0.0163435
671.968	0.0163636
672.046	0.0164413
672.124	0.0163745
672.203	0.0163977
672.281	0.0163297
672.359	0.0164157
672.437	0.0164783
672.515	0.0163197
672.593	0.0164241
672.671	0.0164214
672.749	0.0164668
672.828	0.0164408
672.906	0.0163637
672.984	0.0163349
673.062	0.0165688
673.140	0.0165330
673.218	0.0162601
673.296	0.0164487
673.374	0.0163536
673.453	0.0163512
673.531	0.0163761
673.609	0.0163262
673.687	0.0163490
673.765	0.0164278
673.843	0.0164098
673.921	0.0164417
673.999	0.0164024
674.078	0.0162698
674.156	0.0164166
674.234	0.0162733
674.312	0.0164588
674.390	0.0163081
674.468	0.0163505
674.546	0.0163850
674.624	0.0163943
674.703	0.0163732
674.781	0.0163656
674.859	0.0162334
674.937	0.0164104
675.015	0.0162988
675.093	0.0163392
675.171	0.0164635
675.249	0.0163950
675.328	0.0162431
675.406	0.0163892
675.484	0.0164172
675.562	0.0162406
675.640	0.0163948
675.718	0.0163809
675.796	0.0163616
675.874	0.0164658
675.953	0.0163273
676.031	0.0165340
676.109	0.0164140
676.187	0.0163529
676.265	0.0164230
676.343	0.0165622
676.421	0.0164909
676.499	0.0163670
676.578	0.0164473
676.656	0.0164519
676.734	0.0165749
676.812	0.0165213
676.890	0.0164989
676.968	0.0164674
677.046	0.0164735
677.124	0.0165538
677.203	0.0165605
677.281	0.0165742
677.359	0.0165552
677.437	0.0164536
677.515	0.0164888
677.593	0.0164877
677.671	0.0164709
677.749	0.0166055
677.828	0.0164302
677.906	0.0164827
677.984	0.0165656
678.062	0.0164725
678.140	0.0165560
678.218	0.0164453
678.296	0.0165476
678.374	0.0164516
678.453	0.0165085
678.531	0.0164144
678.609	0.0165230
678.687	0.0165639
678.765	0.0166233
678.843	0.0165707
678.921	0.0164130
678.999	0.0164403
679.078	0.0165400
679.156	0.0165113
679.234	0.0166328
679.312	0.0165508
679.390	0.0164059
679.468	0.0164016
679.546	0.0166439
679.624	0.0165362
679.703	0.0164535
679.781	0.0165594
679.859	0.0164969
679.937	0.0165285
680.015	0.0164693
680.093	0.0165821
680.171	0.0166082
680.249	0.0165449
680.328	0.0165923
680.406	0.0166588
680.484	0.0164774
680.562	0.0164253
680.640	0.0165878
680.718	0.0165096
680.796	0.0165376
680.874	0.0163702
680.953	0.0163734
681.031	0.0166171
681.109	0.0165578
681.187	0.0164722
681.265	0.0164544
681.343	0.0164385
681.421	0.0165879
681.499	0.0165812
681.578	0.0165923
681.656	0.0165309
681.734	0.0165836
681.812	0.0165438
681.890	0.0164284
681.968	0.0165285
682.046	0.0166814
682.124	0.0165271
682.203	0.0165966
682.281	0.0166402
682.359	0.0165788
682.437	0.0164651
682.515	0.0165462
682.593	0.0165501
682.671	0.0164964
682.749	0.0165927
682.828	0.0166018
682.906	0.0164358
682.984	0.0165329
683.062	0.0166914
683.140	0.0166549
683.218	0.0165235
683.296	0.0166196
683.374	0.0164945
683.453	0.0165544
683.531	0.0165853
683.609	0.0165760
683.687	0.0165041
683.765	0.0164270
683.843	0.0164364
683.921	0.0164510
683.999	0.0163478
684.078	0.0164332
684.156	0.0164138
684.234	0.0165344
684.312	0.0165269
684.390	0.0164559
684.468	0.0164487
684.546	0.0164948
684.624	0.0166205
684.703	0.0165955
684.781	0.0163157
684.859	0.0164288
684.937	0.0166467
685.015	0.0166949
685.093	0.0165416
685.171	0.0163416
685.249	0.0165304
685.328	0.0165540
685.406	0.0165250
685.484	0.0165345
685.562	0.0166523
685.640	0.0163943
685.718	0.0163972
685.796	0.0165734
685.874	0.0166067
685.953	0.0165966
686.031	0.0165266
686.109	0.0164759
686.187	0.0164255
686.265	0.0166309
686.343	0.0166449
686.421	0.0165168
686.499	0.0166109
686.578	0.0166761
686.656	0.0165290
686.734	0.0165270
686.812	0.0165076
686.890	0.0166151
686.968	0.0165927
687.046	0.0165868
687.124	0.0165063
687.203	0.0166178
687.281	0.0165755
687.359	0.0164938
687.437	0.0164743
687.515	0.0167197
687.593	0.0166317
687.671	0.0165377
687.749	0.0165775
687.828	0.0165211
687.906	0.0166321
687.984	0.0166017
688.062	0.0166283
688.140	0.0165096
688.218	0.0164780
688.296	0.0165525
688.374	0.0166232
688.453	0.0164107
688.531	0.0166501
688.609	0.0166142
688.687	0.0164772
688.765	0.0164664
688.843	0.0165925
688.921	0.0167208
688.999	0.0166005
689.078	0.0165228
689.156	0.0166165
689.234	0.0165702
689.312	0.0166376
689.390	0.0164089
689.468	0.0165113
689.546	0.0166032
689.624	0.0165774
689.703	0.0164944
689.781	0.0165685
689.859	0.0166713
689.937	0.0166251
690.015	0.0166142
690.093	0.0167277
690.171	0.0165443
690.249	0.0164755
690.328	0.0165064
690.406	0.0164536
690.484	0.0166590
690.562	0.0166392
690.640	0.0165961
690.718	0.0165137
690.796	0.0166076
690.874	0.0165891
690.953	0.0166557
691.031	0.0165687
691.109	0.0165116
691.187	0.0166361
691.265	0.0165642
691.343	0.0165923
691.421	0.0165958
691.499	0.0165045
691.578	0.0165360
691.656	0.0165356
691.734	0.0166274
691.812	0.0165771
691.890	0.0164412
691.968	0.0166673
692.046	0.0165857
692.124	0.0166984
692.203	0.0164989
692.281	0.0165691
692.359	0.0165926
692.437	0.0165531
692.515	0.0165605
692.593	0.0166055
692.671	0.0166312
692.749	0.0165580
692.828	0.0165699
692.906	0.0165385
692.984	0.0166572
693.062	0.0166074
693.140	0.0165579
693.218	0.0165678
693.296	0.0164948
693.374	0.0165112
693.453	0.0165727
693.531	0.0165594
693.609	0.0164868
693.687	0.0165772
693.765	0.0165063
693.843	0.0164507
693.921	0.0164444
693.999	0.0165471
694.078	0.0164733
694.156	0.0164790
694.234	0.0164677
694.312	0.0164708
694.390	0.0165477
694.468	0.0164909
694.546	0.0166374
694.624	0.0164220
694.703	0.0166715
694.781	0.0165772
694.859	0.0166441
694.937	0.0164857
695.015	0.0164634
695.093	0.0165705
695.171	0.0166562
695.249	0.0165430
695.328	0.0164767
695.406	0.0166095
695.484	0.0165870
695.562	0.0165055
695.640	0.0164641
695.718	0.0164890
695.796	0.0164053
695.874	0.0165112
695.953	0.0165786
696.031	0.0164989
696.109	0.0164945
696.187	0.0164902
696.265	0.0164419
696.343	0.0164472
696.421	0.0165320
696.499	0.0165227
696.578	0.0164220
696.656	0.0163271
696.734	0.0166546
696.812	0.0164610
696.890	0.0165078
696.968	0.0164732
697.046	0.0163977
697.124	0.0165598
697.203	0.0163039
697.281	0.0163676
697.359	0.0164439
697.437	0.0164576
697.515	0.0163519
697.593	0.0163791
697.671	0.0163746
697.749	0.0164159
697.828	0.0164697
697.906	0.0165665
697.984	0.0163266
698.062	0.0164024
698.140	0.0164806
698.218	0.0164908
698.296	0.0163729
698.374	0.0163389
698.453	0.0165240
698.531	0.0164400
698.609	0.0163738
698.687	0.0164687
698.765	0.0164513
698.843	0.0163555
698.921	0.0163758
698.999	0.0164330
699.078	0.0164876
699.156	0.0166003
699.234	0.0165235
699.312	0.0164433
699.390	0.0164474
699.468	0.0164927
699.546	0.0165262
699.624	0.0164510
699.703	0.0165063
699.781	0.0164188
699.859	0.0164684
699.937	0.0167303
700.015	0.0165592
700.093	0.0165024
700.171	0.0165337
700.249	0.0165286
700.328	0.0164971
700.406	0.0164980
700.484	0.0165224
700.562	0.0166446
700.640	0.0163641
700.718	0.0165269
700.796	0.0165334
700.874	0.0165191
700.953	0.0165445
701.031	0.0164870
701.109	0.0166310
701.187	0.0164951
701.265	0.0165002
701.343	0.0164272
701.421	0.0164869
701.499	0.0165996
701.578	0.0164836
701.656	0.0165715
701.734	0.0166073
701.812	0.0164246
701.890	0.0165504
701.968	0.0166306
702.046	0.0165432
702.124	0.0165456
702.203	0.0164600
702.281	0.0165443
702.359	0.0164505
702.437	0.0165476
702.515	0.0164431
702.593	0.0164561
702.671	0.0165813
702.749	0.0165259
702.828	0.0164013
702.906	0.0164527
702.984	0.0164997
703.062	0.0164883
703.140	0.0164404
703.218	0.0166481
703.296	0.0165592
703.374	0.0166304
703.453	0.0166328
703.531	0.0164964
703.609	0.0165369
703.687	0.0164003
703.765	0.0164741
703.843	0.0164886
703.921	0.0165611
703.999	0.0165461
704.078	0.0165208
704.156	0.0164642
704.234	0.0166091
704.312	0.0165947
704.390	0.0164427
704.468	0.0165470
704.546	0.0165582
704.624	0.0164922
704.703	0.0166250
704.781	0.0165809
704.859	0.0166017
704.937	0.0165693
705.015	0.0165661
705.093	0.0165763
705.171	0.0165690
705.249	0.0166361
705.328	0.0163925
705.406	0.0164941
705.484	0.0164532
705.562	0.0164860
705.640	0.0164185
705.718	0.0164364
705.796	0.0164539
705.874	0.0164613
705.953	0.0165048
706.031	0.0166168
706.109	0.0165393
706.187	0.0164562
706.265	0.0165759
706.343	0.0164484
706.421	0.0165805
706.499	0.0165995
706.578	0.0165065
706.656	0.0166465
706.734	0.0165749
706.812	0.0164286
706.890	0.0165244
706.968	0.0166204
707.046	0.0164876
707.124	0.0164605
707.203	0.0166093
707.281	0.0165893
707.359	0.0164661
707.437	0.0165893
707.515	0.0164905
707.593	0.0166135
707.671	0.0165788
707.749	0.0164807
707.828	0.0163783
707.906	0.0164523
707.984	0.0165693
708.062	0.0166194
708.140	0.0164269
708.218	0.0164565
708.296	0.0165707
708.374	0.0166006
708.453	0.0165981
708.531	0.0165419
708.609	0.0165873
708.687	0.0165306
708.765	0.0165051
708.843	0.0165337
708.921	0.0165785
708.999	0.0166061
709.078	0.0165884
709.156	0.0166208
709.234	0.0165746
709.312	0.0165565
709.390	0.0165936
709.468	0.0164999
709.546	0.0165412
709.624	0.0165742
709.703	0.0166902
709.781	0.0165359
709.859	0.0165137
709.937	0.0166673
710.015	0.0166154
710.093	0.0165964
710.171	0.0165926
710.249	0.0165798
710.328	0.0165556
710.406	0.0166258
710.484	0.0165481
710.562	0.0165675
710.640	0.0166602
710.718	0.0166186
710.796	0.0166939
710.874	0.0165710
710.953	0.0166122
711.031	0.0165471
711.109	0.0165031
711.187	0.0165086
711.265	0.0165813
711.343	0.0166415
711.421	0.0166183
711.499	0.0166479
711.578	0.0165543
711.656	0.0166176
711.734	0.0164606
711.812	0.0167008
711.890	0.0166994
711.968	0.0166914
712.046	0.0165627
712.124	0.0166550
712.203	0.0167412
712.281	0.0165717
712.359	0.0165170
712.437	0.0167004
712.515	0.0166582
712.593	0.0167056
712.671	0.0165499
712.749	0.0166807
712.828	0.0164774
712.906	0.0165568
712.984	0.0165997
713.062	0.0166709
713.140	0.0165524
713.218	0.0166315
713.296	0.0166257
713.374	0.0165430
713.453	0.0166290
713.531	0.0166444
713.609	0.0167310
713.687	0.0167784
713.765	0.0167356
713.843	0.0166748
713.921	0.0166684
713.999	0.0168482
714.078	0.0167950
714.156	0.0167558
714.234	0.0167133
714.312	0.0165136
714.390	0.0167118
714.468	0.0166999
714.546	0.0164961
714.624	0.0166605
714.703	0.0165947
714.781	0.0165399
714.859	0.0164333
714.937	0.0163704
715.015	0.0165313
715.093	0.0165159
715.171	0.0164777
715.249	0.0165904
715.328	0.0165671
715.406	0.0167606
715.484	0.0166467
715.562	0.0167497
715.640	0.0167730
715.718	0.0168058
715.796	0.0166920
715.874	0.0167519
715.953	0.0167680
716.031	0.0165834
716.109	0.0164679
716.187	0.0167045
716.265	0.0165688
716.343	0.0165665
716.421	0.0165945
716.499	0.0165067
716.578	0.0165582
716.656	0.0164110
716.734	0.0165210
716.812	0.0165752
716.890	0.0165292
716.968	0.0165028
717.046	0.0166590
717.124	0.0166022
717.203	0.0165380
717.281	0.0164935
717.359	0.0166663
717.437	0.0165034
717.515	0.0166185
717.593	0.0166676
717.671	0.0164806
717.749	0.0164743
717.828	0.0165272
717.906	0.0166001
717.984	0.0166993
718.062	0.0165257
718.140	0.0165357
718.218	0.0166830
718.296	0.0166570
718.374	0.0166594
718.453	0.0167078
718.531	0.0166438
718.609	0.0165238
718.687	0.0164655
718.765	0.0165473
718.843	0.0164146
718.921	0.0163766
718.999	0.0163654
719.078	0.0162919
719.156	0.0162521
719.234	0.0161137
719.312	0.0162708
719.390	0.0162026
719.468	0.0162473
719.546	0.0163980
719.624	0.0165122
719.703	0.0164999
719.781	0.0164557
719.859	0.0164748
719.937	0.0166918
720.015	0.0168732
720.093	0.0166199
720.171	0.0166290
720.249	0.0167822
720.328	0.0168749
720.406	0.0167352
720.484	0.0166767
720.562	0.0167625
720.640	0.0166657
720.718	0.0165071
720.796	0.0164400
720.874	0.0163725
720.953	0.0164670
721.031	0.0164436
721.109	0.0164176
721.187	0.0163567
721.265	0.0163627
721.343	0.0162564
721.421	0.0162810
721.499	0.0164172
721.578	0.0163660
721.656	0.0164261
721.734	0.0164659
721.812	0.0165379
721.890	0.0165317
721.968	0.0166789
722.046	0.0165958
722.124	0.0165324
722.203	0.0164584
722.281	0.0164598
722.359	0.0165121
722.437	0.0164328
722.515	0.0165048
722.593	0.0166531
722.671	0.0165416
722.749	0.0164918
722.828	0.0166073
722.906	0.0164880
722.984	0.0165475
723.062	0.0165014
723.140	0.0164416
723.218	0.0164162
723.296	0.0164628
723.374	0.0164269
723.453	0.0165140
723.531	0.0164174
723.609	0.0164146
723.687	0.0162552
723.765	0.0163201
723.843	0.0164002
723.921	0.0163377
723.999	0.0162883
724.078	0.0163268
724.156	0.0164317
724.234	0.0163483
724.312	0.0162391
724.390	0.0162471
724.468	0.0165340
724.546	0.0164575
724.624	0.0163683
724.703	0.0163963
724.781	0.0164032
724.859	0.0164614
724.937	0.0164062
725.015	0.0165191
725.093	0.0163451
725.171	0.0164498
725.249	0.0164149
725.328	0.0163268
725.406	0.0165654
725.484	0.0162447
725.562	0.0163522
725.640	0.0163274
725.718	0.0161864
725.796	0.0161967
725.874	0.0162366
725.953	0.0161845
726.031	0.0162630
726.109	0.0163398
726.187	0.0163399
726.265	0.0162929
726.343	0.0162907
726.421	0.0161707
726.499	0.0164435
726.578	0.0163806
726.656	0.0162643
726.734	0.0163551
726.812	0.0163336
726.890	0.0163158
726.968	0.0162394
727.046	0.0162248
727.124	0.0165141
727.203	0.0165697
727.281	0.0163486
727.359	0.0162555
727.437	0.0163831
727.515	0.0162689
727.593	0.0163828
727.671	0.0165247
727.749	0.0164137
727.828	0.0163903
727.906	0.0164091
727.984	0.0163847
728.062	0.0164321
728.140	0.0165517
728.218	0.0164952
728.296	0.0165485
728.374	0.0163423
728.453	0.0164531
728.531	0.0163853
728.609	0.0165215
728.687	0.0164613
728.765	0.0163398
728.843	0.0164718
728.921	0.0164743
728.999	0.0164413
729.078	0.0165316
729.156	0.0164204
729.234	0.0163512
729.312	0.0163649
729.390	0.0164179
729.468	0.0164624
729.546	0.0164365
729.624	0.0164232
729.703	0.0163525
729.781	0.0165089
729.859	0.0163599
729.937	0.0163513
730.015	0.0164016
730.093	0.0165030
730.171	0.0165441
730.249	0.0164427
730.328	0.0164225
730.406	0.0165594
730.484	0.0165609
730.562	0.0164426
730.640	0.0165212
730.718	0.0164481
730.796	0.0163420
730.874	0.0166041
730.953	0.0165719
731.031	0.0164967
731.109	0.0164560
731.187	0.0164154
731.265	0.0164036
731.343	0.0164713
731.421	0.0163660
731.499	0.0163624
731.578	0.0164681
731.656	0.0163575
731.734	0.0164420
731.812	0.0165063
731.890	0.0164749
731.968	0.0164854
732.046	0.0165651
732.124	0.0165792
732.203	0.0164819
732.281	0.0165598
732.359	0.0164584
732.437	0.0165532
732.515	0.0165892
732.593	0.0167514
732.671	0.0164574
732.749	0.0164705
732.828	0.0165127
732.906	0.0165734
732.984	0.0164886
733.062	0.0165311
733.140	0.0165337
733.218	0.0164207
733.296	0.0164461
733.374	0.0165988
733.453	0.0164350
733.531	0.0165092
733.609	0.0165504
733.687	0.0165337
733.765	0.0164950
733.843	0.0163880
733.921	0.0165279
733.999	0.0165286
734.078	0.0164176
734.156	0.0164896
734.234	0.0165923
734.312	0.0165233
734.390	0.0164309
734.468	0.0165544
734.546	0.0164839
734.624	0.0165431
734.703	0.0165700
734.781	0.0166664
734.859	0.0165278
734.937	0.0167020
735.015	0.0165620
735.093	0.0167123
735.171	0.0166473
735.249	0.0166586
735.328	0.0167200
735.406	0.0166010
735.484	0.0164962
735.562	0.0165611
735.640	0.0166691
735.718	0.0166695
735.796	0.0166927
735.874	0.0165862
735.953	0.0166741
736.031	0.0165560
736.109	0.0166287
736.187	0.0167363
736.265	0.0165801
736.343	0.0165775
736.421	0.0167241
736.499	0.0165189
736.578	0.0166559
736.656	0.0165998
736.734	0.0166368
736.812	0.0164950
736.890	0.0165114
736.968	0.0164768
737.046	0.0165010
737.124	0.0165421
737.203	0.0164268
737.281	0.0164646
737.359	0.0167068
737.437	0.0165882
737.515	0.0165636
737.593	0.0165291
737.671	0.0165372
737.749	0.0165675
737.828	0.0164560
737.906	0.0165192
737.984	0.0165879
738.062	0.0165447
738.140	0.0164843
738.218	0.0164369
738.296	0.0164508
738.374	0.0167033
738.453	0.0166229
738.531	0.0164909
738.609	0.0165120
738.687	0.0164845
738.765	0.0165473
738.843	0.0165158
738.921	0.0165319
738.999	0.0165144
739.078	0.0164526
739.156	0.0164611
739.234	0.0165165
739.312	0.0165141
739.390	0.0164282
739.468	0.0165244
739.546	0.0164734
739.624	0.0164593
739.703	0.0163921
739.781	0.0164863
739.859	0.0165816
739.937	0.0165275
740.015	0.0163860
740.093	0.0166413
740.171	0.0164138
740.249	0.0166433
740.328	0.0165514
740.406	0.0164590
740.484	0.0165039
740.562	0.0164611
740.640	0.0165827
740.718	0.0164939
740.796	0.0163489
740.874	0.0164993
740.953	0.0166362
741.031	0.0163528
741.109	0.0163916
741.187	0.0164286
741.265	0.0164549
741.343	0.0166003
741.421	0.0166319
741.499	0.0165505
741.578	0.0163388
741.656	0.0167458
741.734	0.0165189
741.812	0.0165196
741.890	0.0164774
741.968	0.0164845
742.046	0.0164504
742.124	0.0163891
742.203	0.0164922
742.281	0.0166592
742.359	0.0166827
742.437	0.0165718
742.515	0.0165083
742.593	0.0165308
742.671	0.0164954
742.749	0.0164521
742.828	0.0165815
742.906	0.0164467
742.984	0.0166161
743.062	0.0165943
743.140	0.0165282
743.218	0.0166460
743.296	0.0166195
743.374	0.0164314
743.453	0.0165510
743.531	0.0165632
743.609	0.0165350
743.687	0.0165052
743.765	0.0165985
743.843	0.0165666
743.921	0.0165454
743.999	0.0162357
744.078	0.0164433
744.156	0.0165134
744.234	0.0165382
744.312	0.0164818
744.390	0.0165031
744.468	0.0165216
744.546	0.0164645
744.624	0.0164880
744.703	0.0164950
744.781	0.0163784
744.859	0.0165204
744.937	0.0166006
745.015	0.0164862
745.093	0.0165743
745.171	0.0164136
745.249	0.0163744
745.328	0.0163564
745.406	0.0164495
745.484	0.0164120
745.562	0.0163546
745.640	0.0163811
745.718	0.0163898
745.796	0.0165547
745.874	0.0163907
745.953	0.0165277
746.031	0.0163329
746.109	0.0163772
746.187	0.0164468
746.265	0.0163513
746.343	0.0164315
746.421	0.0164172
746.499	0.0163990
746.578	0.0164616
746.656	0.0163939
746.734	0.0163205
746.812	0.0163876
746.890	0.0164410
746.968	0.0164472
747.046	0.0164536
747.124	0.0163941
747.203	0.0164035
747.281	0.0164173
747.359	0.0165321
747.437	0.0165505
747.515	0.0164441
747.593	0.0163602
747.671	0.0163614
747.749	0.0164983
747.828	0.0165134
747.906	0.0163164
747.984	0.0164124
748.062	0.0164089
748.140	0.0164102
748.218	0.0163400
748.296	0.0164134
748.374	0.0164859
748.453	0.0163694
748.531	0.0164587
748.609	0.0163495
748.687	0.0163467
748.765	0.0165033
748.843	0.0164156
748.921	0.0164823
748.999	0.0163394
749.078	0.0164185
749.156	0.0164056
749.234	0.0163715
749.312	0.0164153
749.390	0.0164248
749.468	0.0163761
749.546	0.0163718
749.624	0.0163599
749.703	0.0165092
749.781	0.0164766
749.859	0.0163806
749.937	0.0164597
750.015	0.0164790
750.093	0.0163474
750.171	0.0164026
750.249	0.0163518
750.328	0.0163747
750.406	0.0163746
750.484	0.0163673
750.562	0.0164787
750.640	0.0163248
750.718	0.0164763
750.796	0.0165202
750.874	0.0164654
750.953	0.0164779
751.031	0.0163189
751.109	0.0164189
751.187	0.0164244
751.265	0.0163781
751.343	0.0164091
751.421	0.0164334
751.499	0.0163360
751.578	0.0163134
751.656	0.0164185
751.734	0.0164098
751.812	0.0163290
751.890	0.0163382
751.968	0.0163775
752.046	0.0163703
752.124	0.0162718
752.203	0.0164442
752.281	0.0164222
752.359	0.0163404
752.437	0.0163262
752.515	0.0162447
752.593	0.0164244
752.671	0.0163745
752.749	0.0162931
752.828	0.0162458
752.906	0.0163495
752.984	0.0163494
753.062	0.0163813
753.140	0.0163815
753.218	0.0164098
753.296	0.0164702
753.374	0.0163942
753.453	0.0163346
753.531	0.0163172
753.609	0.0164104
753.687	0.0163543
753.765	0.0164093
753.843	0.0164844
753.921	0.0164655
753.999	0.0163883
754.078	0.0163801
754.156	0.0164087
754.234	0.0163818
754.312	0.0164437
754.390	0.0164040
754.468	0.0164926
754.546	0.0164714
754.624	0.0164473
754.703	0.0164622
754.781	0.0164500
754.859	0.0164073
754.937	0.0164391
755.015	0.0164407
755.093	0.0164138
755.171	0.0163615
755.249	0.0164137
755.328	0.0164318
755.406	0.0164517
755.484	0.0163660
755.562	0.0164172
755.640	0.0166064
755.718	0.0164935
755.796	0.0165734
755.874	0.0165718
755.953	0.0165141
756.031	0.0166074
756.109	0.0165644
756.187	0.0166280
756.265	0.0165077
756.343	0.0165207
756.421	0.0165393
756.499	0.0165676
756.578	0.0165553
756.656	0.0164719
756.734	0.0166641
756.812	0.0165188
756.890	0.0165376
756.968	0.0165224
757.046	0.0164709
757.124	0.0166917
757.203	0.0164911
757.281	0.0165102
757.359	0.0163116
757.437	0.0166248
757.515	0.0165785
757.593	0.0163914
757.671	0.0165656
757.749	0.0166348
757.828	0.0164635
757.906	0.0165835
757.984	0.0166088
758.062	0.0165566
758.140	0.0166056
758.218	0.0165545
758.296	0.0165720
758.374	0.0165446
758.453	0.0166489
758.531	0.0165968
758.609	0.0166113
758.687	0.0167093
758.765	0.0166892
758.843	0.0166051
758.921	0.0166779
758.999	0.0167887
759.078	0.0167881
759.156	0.0166917
759.234	0.0167811
759.312	0.0164397
759.390	0.0166886
759.468	0.0167398
759.546	0.0165562
759.624	0.0166041
759.703	0.0167030
759.781	0.0166273
759.859	0.0164855
759.937	0.0164706
760.015	0.0166529
760.093	0.0166398
760.171	0.0165677
760.249	0.0164578
760.328	0.0165987
760.406	0.0166624
760.484	0.0165407
760.562	0.0165699
760.640	0.0164228
760.718	0.0164985
760.796	0.0165328
760.874	0.0165124
760.953	0.0164947
761.031	0.0164230
761.109	0.0166052
761.187	0.0165911
761.265	0.0166076
761.343	0.0167509
761.421	0.0166838
761.499	0.0165137
761.578	0.0165532
761.656	0.0167235
761.734	0.0166880
761.812	0.0166879
761.890	0.0164613
761.968	0.0165971
762.046	0.0166842
762.124	0.0166490
762.203	0.0165958
762.281	0.0166566
762.359	0.0165660
762.437	0.0165891
762.515	0.0166045
762.593	0.0164469
762.671	0.0164836
762.749	0.0164909
762.828	0.0165366
762.906	0.0164864
762.984	0.0163622
763.062	0.0163558
763.140	0.0164638
763.218	0.0164358
763.296	0.0164464
763.374	0.0164029
763.453	0.0164127
763.531	0.0164367
763.609	0.0164065
763.687	0.0164325
763.765	0.0164964
763.843	0.0164404
763.921	0.0162999
763.999	0.0164265
764.078	0.0165108
764.156	0.0163733
764.234	0.0164056
764.312	0.0163435
764.390	0.0163736
764.468	0.0163489
764.546	0.0164374
764.624	0.0165415
764.703	0.0166408
764.781	0.0164131
764.859	0.0164816
764.937	0.0163583
765.015	0.0165191
765.093	0.0165563
765.171	0.0164935
765.249	0.0165351
765.328	0.0167478
765.406	0.0164459
765.484	0.0165474
765.562	0.0165052
765.640	0.0165725
765.718	0.0166062
765.796	0.0164936
765.874	0.0167014
765.953	0.0164883
766.031	0.0164697
766.109	0.0164407
766.187	0.0164831
766.265	0.0165569
766.343	0.0164552
766.421	0.0165048
766.499	0.0166209
766.578	0.0164696
766.656	0.0165700
766.734	0.0164706
766.812	0.0164804
766.890	0.0164444
766.968	0.0165875
767.046	0.0165356
767.124	0.0164972
767.203	0.0165796
767.281	0.0165335
767.359	0.0164240
767.437	0.0166203
767.515	0.0165040
767.593	0.0164668
767.671	0.0164762
767.749	0.0164109
767.828	0.0164013
767.906	0.0164936
767.984	0.0164911
768.062	0.0163532
768.140	0.0164255
768.218	0.0165073
768.296	0.0164553
768.374	0.0165417
768.453	0.0165037
768.531	0.0166036
768.609	0.0165205
768.687	0.0166644
768.765	0.0166301
768.843	0.0166682
768.921	0.0167920
768.999	0.0168183
769.078	0.0167430
769.156	0.0166658
769.234	0.0168066
769.312	0.0166992
769.390	0.0168027
769.468	0.0168190
769.546	0.0168024
769.624	0.0166827
769.703	0.0166020
769.781	0.0167246
769.859	0.0167834
769.937	0.0166576
770.015	0.0166480
770.093	0.0165334
770.171	0.0164809
770.249	0.0165390
770.328	0.0164802
770.406	0.0165211
770.484	0.0165485
770.562	0.0164874
770.640	0.0163425
770.718	0.0163966
770.796	0.0164660
770.874	0.0164502
770.953	0.0165265
771.031	0.0165571
771.109	0.0165033
771.187	0.0165637
771.265	0.0165397
771.343	0.0165874
771.421	0.0164668
771.499	0.0165248
771.578	0.0165883
771.656	0.0165704
771.734	0.0165598
771.812	0.0164452
771.890	0.0165813
771.968	0.0166430
772.046	0.0165081
772.124	0.0165301
772.203	0.0165601
772.281	0.0164407
772.359	0.0165759
772.437	0.0164664
772.515	0.0164327
772.593	0.0162473
772.671	0.0162045
772.749	0.0162921
772.828	0.0163478
772.906	0.0162923
772.984	0.0164619
773.062	0.0164402
773.140	0.0164538
773.218	0.0165768
773.296	0.0165650
773.374	0.0165225
773.453	0.0165090
773.531	0.0166659
773.609	0.0165221
773.687	0.0166235
773.765	0.0166920
773.843	0.0166303
773.921	0.0166729
773.999	0.0165217
774.078	0.0164994
774.156	0.0166103
774.234	0.0166640
774.312	0.0165272
774.390	0.0165536
774.468	0.0166016
774.546	0.0164942
774.624	0.0164630
774.703	0.0164622
774.781	0.0165687
774.859	0.0164433
774.937	0.0164534
775.015	0.0164574
775.093	0.0165315
775.171	0.0164681
775.249	0.0164568
775.328	0.0165195
775.406	0.0163866
775.484	0.0163457
775.562	0.0164986
775.640	0.0165182
775.718	0.0164898
775.796	0.0164367
775.874	0.0164069
775.953	0.0165583
776.031	0.0164301
776.109	0.0164150
776.187	0.0163732
776.265	0.0164314
776.343	0.0163363
776.421	0.0163482
776.499	0.0164017
776.578	0.0163561
776.656	0.0164007
776.734	0.0164263
776.812	0.0163764
776.890	0.0164709
776.968	0.0164867
777.046	0.0166463
777.124	0.0165108
777.203	0.0164756
777.281	0.0165395
777.359	0.0164924
777.437	0.0165651
777.515	0.0164722
777.593	0.0162389
777.671	0.0163570
777.749	0.0164672
777.828	0.0165594
777.906	0.0164168
777.984	0.0166796
778.062	0.0165735
778.140	0.0165730
778.218	0.0166129
778.296	0.0165341
778.374	0.0166689
778.453	0.0167197
778.531	0.0166123
778.609	0.0166843
778.687	0.0165616
778.765	0.0166532
778.843	0.0166740
778.921	0.0166358
778.999	0.0167744
779.078	0.0166669
779.156	0.0166740
779.234	0.0166729
779.312	0.0166797
779.390	0.0167371
779.468	0.0167078
779.546	0.0166575
779.624	0.0167372
779.703	0.0167572
779.781	0.0169343
779.859	0.0167532
779.937	0.0166689
780.015	0.0166586
780.093	0.0166514
780.171	0.0168269
780.249	0.0166882
780.328	0.0165952
780.406	0.0167543
780.484	0.0166902
780.562	0.0165834
780.640	0.0166222
780.718	0.0165466
780.796	0.0164263
780.874	0.0164743
780.953	0.0165462
781.031	0.0163448
781.109	0.0164478
781.187	0.0163874
781.265	0.0164732
781.343	0.0163406
781.421	0.0163959
781.499	0.0163686
781.578	0.0162074
781.656	0.0161654
781.734	0.0161219
781.812	0.0162053
781.890	0.0163354
781.968	0.0160969
782.046	0.0159727
782.124	0.0161404
782.203	0.0162594
782.281	0.0161945
782.359	0.0164755
782.437	0.0164654
782.515	0.0165624
782.593	0.0166930
782.671	0.0167174
782.749	0.0165376
782.828	0.0164520
782.906	0.0166108
782.984	0.0168034
783.062	0.0170348
783.140	0.0167788
783.218	0.0169332
783.296	0.0169942
783.374	0.0168514
783.453	0.0169565
783.531	0.0170724
783.609	0.0171084
783.687	0.0170765
783.765	0.0170764
783.843	0.0172523
783.921	0.0170918
783.999	0.0170197
784.078	0.0168983
784.156	0.0169599
784.234	0.0169526
784.312	0.0168970
784.390	0.0168764
784.468	0.0166709
784.546	0.0166048
784.624	0.0164548
784.703	0.0165070
784.781	0.0164882
784.859	0.0163322
784.937	0.0163962
785.015	0.0163474
785.093	0.0163467
785.171	0.0162820
785.249	0.0162418
785.328	0.0163806
785.406	0.0162687
785.484	0.0163216
785.562	0.0163150
785.640	0.0164410
785.718	0.0163696
785.796	0.0163907
785.874	0.0164540
785.953	0.0165527
786.031	0.0166406
786.109	0.0166671
786.187	0.0167114
786.265	0.0168877
786.343	0.0168717
786.421	0.0167323
786.499	0.0167023
786.578	0.0167824
786.656	0.0167670
786.734	0.0167067
786.812	0.0165622
786.890	0.0165310
786.968	0.0165088
787.046	0.0164958
787.124	0.0164895
787.203	0.0163372
787.281	0.0164497
787.359	0.0164285
787.437	0.0163249
787.515	0.0164295
787.593	0.0163872
787.671	0.0164498
787.749	0.0164519
787.828	0.0163816
787.906	0.0164258
787.984	0.0164373
788.062	0.0165009
788.140	0.0165324
788.218	0.0165574
788.296	0.0166506
788.374	0.0164857
788.453	0.0165143
788.531	0.0167069
788.609	0.0168635
788.687	0.0166977
788.765	0.0168095
788.843	0.0167930
788.921	0.0167247
788.999	0.0170422
789.078	0.0170229
789.156	0.0170789
789.234	0.0170341
789.312	0.0170879
789.390	0.0172224
789.468	0.0171288
789.546	0.0173529
789.624	0.0172990
789.703	0.0170223
789.781	0.0169986
789.859	0.0171078
789.937	0.0168828
790.015	0.0168306
790.093	0.0170016
790.171	0.0168587
790.249	0.0167467
790.328	0.0165871
790.406	0.0165765
790.484	0.0164537
790.562	0.0165073
790.640	0.0163850
790.718	0.0162507
790.796	0.0161813
790.874	0.0162011
790.953	0.0160892
791.031	0.0160832
791.109	0.0160328
791.187	0.0160587
791.265	0.0160485
791.343	0.0159783
791.421	0.0159627
791.499	0.0158505
791.578	0.0159628
791.656	0.0158298
791.734	0.0158689
791.812	0.0159071
791.890	0.0159960
791.968	0.0160777
792.046	0.0160305
792.124	0.0161073
792.203	0.0161615
792.281	0.0161981
792.359	0.0164126
792.437	0.0164107
792.515	0.0163850
792.593	0.0165862
792.671	0.0166238
792.749	0.0167136
792.828	0.0166833
792.906	0.0168902
792.984	0.0169341
793.062	0.0170621
793.140	0.0171140
793.218	0.0171537
793.296	0.0172256
793.374	0.0172392
793.453	0.0171606
793.531	0.0172576
793.609	0.0170712
793.687	0.0171215
793.765	0.0170646
793.843	0.0169543
793.921	0.0170747
793.999	0.0168143
794.078	0.0168133
794.156	0.0168462
794.234	0.0167884
794.312	0.0168001
794.390	0.0166017
794.468	0.0167317
794.546	0.0165582
794.624	0.0164027
794.703	0.0163808
794.781	0.0164133
794.859	0.0164467
794.937	0.0162017
795.015	0.0162278
795.093	0.0162955
795.171	0.0161456
795.249	0.0161584
795.328	0.0162585
795.406	0.0161863
795.484	0.0161649
795.562	0.0161733
795.640	0.0161803
795.718	0.0160187
795.796	0.0162257
795.874	0.0162372
795.953	0.0162012
796.031	0.0162475
796.109	0.0160408
796.187	0.0162551
796.265	0.0163645
796.343	0.0164185
796.421	0.0164085
796.499	0.0163857
796.578	0.0165199
796.656	0.0166158
796.734	0.0165411
796.812	0.0165720
796.890	0.0164751
796.968	0.0165231
797.046	0.0165573
797.124	0.0163779
797.203	0.0163915
797.281	0.0163375
797.359	0.0163783
797.437	0.0161961
797.515	0.0162151
797.593	0.0162343
797.671	0.0161113
797.749	0.0162349
797.828	0.0159962
797.906	0.0159853
797.984	0.0160178
798.062	0.0161462
798.140	0.0159958
798.218	0.0160663
798.296	0.0162592
798.374	0.0164429
798.453	0.0164804
798.531	0.0167294
798.609	0.0166439
798.687	0.0168156
798.765	0.0170615
798.843	0.0171995
798.921	0.0172717
798.999	0.0174900
799.078	0.0174565
799.156	0.0174776
799.234	0.0175611
799.312	0.0176405
799.390	0.0176141
799.468	0.0176306
799.546	0.0176794
799.624	0.0176218
799.703	0.0175221
799.781	0.0174416
799.859	0.0172934
799.937	0.0172102
800.015	0.0172383
800.093	0.0169065
800.171	0.0170715
800.249	0.0167243
800.328	0.0165214
800.406	0.0163495
800.484	0.0162479
800.562	0.0159891
800.640	0.0156900
800.718	0.0157522
800.796	0.0155946
800.874	0.0155697
800.953	0.0155641
801.031	0.0153667
801.109	0.0154089
801.187	0.0154144
801.265	0.0154498
801.343	0.0154928
801.421	0.0154562
801.499	0.0154978
801.578	0.0155941
801.656	0.0156215
801.734	0.0158627
801.812	0.0159399
801.890	0.0160482
801.968	0.0160974
802.046	0.0162764
802.124	0.0163731
802.203	0.0164339
802.281	0.0166656
802.359	0.0165948
802.437	0.0168139
802.515	0.0169131
802.593	0.0170090
802.671	0.0170087
802.749	0.0170953
802.828	0.0170321
802.906	0.0170301
802.984	0.0171774
803.062	0.0172828
803.140	0.0170954
803.218	0.0170907
803.296	0.0172449
803.374	0.0170885
803.453	0.0170990
803.531	0.0170605
803.609	0.0170973
803.687	0.0170856
803.765	0.0170683
803.843	0.0169803
803.921	0.0168640
803.999	0.0168537
804.078	0.0169039
804.156	0.0168690
804.234	0.0167364
804.312	0.0166519
804.390	0.0167673
804.468	0.0167487
804.546	0.0167099
804.624	0.0167152
804.703	0.0166237
804.781	0.0166289
804.859	0.0164616
804.937	0.0165704
805.015	0.0164893
805.093	0.0165829
805.171	0.0165285
805.249	0.0164995
805.328	0.0164005
805.406	0.0165102
805.484	0.0164838
805.562	0.0163728
805.640	0.0163139
805.718	0.0164010
805.796	0.0163171
805.874	0.0162675
805.953	0.0163362
806.031	0.0162511
806.109	0.0161909
806.187	0.0160386
806.265	0.0161946
806.343	0.0161894
806.421	0.0161213
806.499	0.0160471
806.578	0.0160668
806.656	0.0160281
806.734	0.0161502
806.812	0.0161084
806.890	0.0159808
806.968	0.0162082
807.046	0.0162107
807.124	0.0161916
807.203	0.0161620
807.281	0.0161052
807.359	0.0162798
807.437	0.0162802
807.515	0.0162242
807.593	0.0161640
807.671	0.0163599
807.749	0.0162791
807.828	0.0162098
807.906	0.0163815
807.984	0.0164738
808.062	0.0164396
808.140	0.0164981
808.218	0.0165044
808.296	0.0165737
808.374	0.0166664
808.453	0.0167921
808.531	0.0169227
808.609	0.0169897
808.687	0.0170270
808.765	0.0170576
808.843	0.0170938
808.921	0.0172239
808.999	0.0171259
809.078	0.0170881
809.156	0.0173339
809.234	0.0171983
809.312	0.0171760
809.390	0.0172357
809.468	0.0171691
809.546	0.0172208
809.624	0.0171339
809.703	0.0170387
809.781	0.0169923
809.859	0.0169100
809.937	0.0166492
810.015	0.0166203
810.093	0.0167255
810.171	0.0165114
810.249	0.0164574
810.328	0.0165030
810.406	0.0162630
810.484	0.0161118
810.562	0.0162254
810.640	0.0161405
810.718	0.0158340
810.796	0.0159039
810.874	0.0160622
810.953	0.0158016
811.031	0.0158891
811.109	0.0159246
811.187	0.0159674
811.265	0.0159734
811.343	0.0160079
811.421	0.0161835
811.499	0.0161931
811.578	0.0162623
811.656	0.0163245
811.734	0.0162668
811.812	0.0162418
811.890	0.0162996
811.968	0.0164422
812.046	0.0165455
812.124	0.0164718
812.203	0.0165228
812.281	0.0164294
812.359	0.0164068
812.437	0.0164640
812.515	0.0164125
812.593	0.0165492
812.671	0.0164713
812.749	0.0165968
812.828	0.0167032
812.906	0.0166298
812.984	0.0164600
813.062	0.0166125
813.140	0.0167950
813.218	0.0166857
813.296	0.0167290
813.374	0.0167075
813.453	0.0167056
813.531	0.0167407
813.609	0.0167883
813.687	0.0167406
813.765	0.0167707
813.843	0.0167609
813.921	0.0165845
813.999	0.0167181
814.078	0.0167834
814.156	0.0165941
814.234	0.0166401
814.312	0.0166264
814.390	0.0166302
814.468	0.0164782
814.546	0.0164648
814.624	0.0165031
814.703	0.0165018
814.781	0.0165913
814.859	0.0166181
814.937	0.0167703
815.015	0.0167391
815.093	0.0166933
815.171	0.0168534
815.249	0.0168885
815.328	0.0169321
815.406	0.0169023
815.484	0.0167629
815.562	0.0167676
815.640	0.0167258
815.718	0.0169186
815.796	0.0166421
815.874	0.0164951
815.953	0.0166526
816.031	0.0167077
816.109	0.0165112
816.187	0.0164889
816.265	0.0163663
816.343	0.0163984
816.421	0.0161349
816.499	0.0160738
816.578	0.0163200
816.656	0.0162516
816.734	0.0160980
816.812	0.0160376
816.890	0.0160857
816.968	0.0159811
817.046	0.0159265
817.124	0.0159766
817.203	0.0159189
817.281	0.0158301
817.359	0.0158273
817.437	0.0159782
817.515	0.0159818
817.593	0.0159560
817.671	0.0159490
817.749	0.0159120
817.828	0.0161221
817.906	0.0162373
817.984	0.0160302
818.062	0.0161111
818.140	0.0162614
818.218	0.0162367
818.296	0.0164608
818.374	0.0165810
818.453	0.0163948
818.531	0.0165586
818.609	0.0165830
818.687	0.0168152
818.765	0.0168124
818.843	0.0169080
818.921	0.0169403
818.999	0.0169966
819.078	0.0169852
819.156	0.0171153
819.234	0.0173440
819.312	0.0171471
819.390	0.0173301
819.468	0.0171706
819.546	0.0171598
819.624	0.0171893
819.703	0.0171500
819.781	0.0171349
819.859	0.0171339
819.937	0.0169073
820.015	0.0168069
820.093	0.0168007
820.171	0.0168486
820.249	0.0165871
820.328	0.0166065
820.406	0.0165720
820.484	0.0163414
820.562	0.0162439
820.640	0.0161331
820.718	0.0161042
820.796	0.0159670
820.874	0.0158990
820.953	0.0159152
821.031	0.0158434
821.109	0.0157607
821.187	0.0157252
821.265	0.0158373
821.343	0.0158411
821.421	0.0158565
821.499	0.0159861
821.578	0.0158649
821.656	0.0160677
821.734	0.0161978
821.812	0.0161993
821.890	0.0160955
821.968	0.0162629
822.046	0.0163898
822.124	0.0164466
822.203	0.0164055
822.281	0.0164040
822.359	0.0163104
822.437	0.0165761
822.515	0.0167422
822.593	0.0166111
822.671	0.0166211
822.749	0.0167599
822.828	0.0166934
822.906	0.0169169
822.984	0.0167986
823.062	0.0167794
823.140	0.0167030
823.218	0.0168135
823.296	0.0168540
823.374	0.0167804
823.453	0.0167850
823.531	0.0168410
823.609	0.0167242
823.687	0.0166373
823.765	0.0166975
823.843	0.0166287
823.921	0.0164619
823.999	0.0164000
824.078	0.0163847
824.156	0.0163187
824.234	0.0162606
824.312	0.0162436
824.390	0.0162276
824.468	0.0161353
824.546	0.0163078
824.624	0.0162788
824.703	0.0162814
824.781	0.0160604
824.859	0.0163094
824.937	0.0162274
825.015	0.0162338
825.093	0.0163690
825.171	0.0163821
825.249	0.0164809
825.328	0.0163673
825.406	0.0164780
825.484	0.0164623
825.562	0.0164963
825.640	0.0165640
825.718	0.0166228
825.796	0.0165231
825.874	0.0167193
825.953	0.0167048
826.031	0.0166661
826.109	0.0166761
826.187	0.0164983
826.265	0.0166896
826.343	0.0164165
826.421	0.0165768
826.499	0.0163583
826.578	0.0163694
826.656	0.0163041
826.734	0.0160136
826.812	0.0160374
826.890	0.0161002
826.968	0.0160300
827.046	0.0159773
827.124	0.0159547
827.203	0.0159207
827.281	0.0159969
827.359	0.0159116
827.437	0.0160191
827.515	0.0160764
827.593	0.0159923
827.671	0.0159814
827.749	0.0159866
827.828	0.0161999
827.906	0.0161558
827.984	0.0162755
828.062	0.0163706
828.140	0.0165004
828.218	0.0166019
828.296	0.0165520
828.374	0.0165076
828.453	0.0166406
828.531	0.0166459
828.609	0.0168224
828.687	0.0167332
828.765	0.0167558
828.843	0.0168384
828.921	0.0168073
828.999	0.0167542
829.078	0.0169367
829.156	0.0168140
829.234	0.0168708
829.312	0.0168055
829.390	0.0167072
829.468	0.0166171
829.546	0.0166344
829.624	0.0166937
829.703	0.0165449
829.781	0.0167333
829.859	0.0165358
829.937	0.0166039
830.015	0.0165308
830.093	0.0165491
830.171	0.0165015
830.249	0.0164442
830.328	0.0165038
830.406	0.0164240
830.484	0.0164305
830.562	0.0162502
830.640	0.0162605
830.718	0.0164168
830.796	0.0162296
830.874	0.0163031
830.953	0.0161625
831.031	0.0160975
831.109	0.0160587
831.187	0.0161886
831.265	0.0161659
831.343	0.0162904
831.421	0.0162875
831.499	0.0163194
831.578	0.0164311
831.656	0.0163316
831.734	0.0164397
831.812	0.0164485
831.890	0.0165875
831.968	0.0165430
832.046	0.0166887
832.124	0.0165462
832.203	0.0165497
832.281	0.0166129
832.359	0.0166946
832.437	0.0165645
832.515	0.0165919
832.593	0.0166122
832.671	0.0165347
832.749	0.0165272
832.828	0.0164523
832.906	0.0165331
832.984	0.0163503
833.062	0.0164323
833.140	0.0164240
833.218	0.0164249
833.296	0.0165285
833.374	0.0165248
833.453	0.0164598
833.531	0.0165242
833.609	0.0164489
833.687	0.0163850
833.765	0.0163414
833.843	0.0164947
833.921	0.0164008
833.999	0.0164194
834.078	0.0164837
834.156	0.0163378
834.234	0.0163624
834.312	0.0164792
834.390	0.0164013
834.468	0.0164527
834.546	0.0165831
834.624	0.0164421
834.703	0.0165849
834.781	0.0164984
834.859	0.0165511
834.937	0.0164836
835.015	0.0164965
835.093	0.0165475
835.171	0.0165217
835.249	0.0165918
835.328	0.0164825
835.406	0.0165606
835.484	0.0164453
835.562	0.0164634
835.640	0.0165697
835.718	0.0165757
835.796	0.0166071
835.874	0.0166753
835.953	0.0167906
836.031	0.0166589
836.109	0.0166231
836.187	0.0165559
836.265	0.0166077
836.343	0.0165889
836.421	0.0163880
836.499	0.0164788
836.578	0.0164410
836.656	0.0162813
836.734	0.0162714
836.812	0.0162557
836.890	0.0162804
836.968	0.0162918
837.046	0.0160793
837.124	0.0160453
837.203	0.0160941
837.281	0.0161419
837.359	0.0161767
837.437	0.0162381
837.515	0.0162855
837.593	0.0161873
837.671	0.0164308
837.749	0.0163893
837.828	0.0165106
837.906	0.0166554
837.984	0.0166692
838.062	0.0168828
838.140	0.0169105
838.218	0.0167153
838.296	0.0169429
838.374	0.0167554
838.453	0.0169894
838.531	0.0169875
838.609	0.0167580
838.687	0.0169453
838.765	0.0166436
838.843	0.0166524
838.921	0.0165282
838.999	0.0166061
839.078	0.0166171
839.156	0.0164552
839.234	0.0163223
839.312	0.0164686
839.390	0.0162856
839.468	0.0162026
839.546	0.0163126
839.624	0.0162358
839.703	0.0162158
839.781	0.0163123
839.859	0.0164046
839.937	0.0163596
840.015	0.0164048
840.093	0.0163555
840.171	0.0163942
840.249	0.0164043
840.328	0.0164743
840.406	0.0166765
840.484	0.0166450
840.562	0.0166613
840.640	0.0164940
840.718	0.0165391
840.796	0.0165889
840.874	0.0165556
840.953	0.0165234
841.031	0.0166207
841.109	0.0166542
841.187	0.0165094
841.265	0.0163950
841.343	0.0164655
841.421	0.0165129
841.499	0.0164105
841.578	0.0165067
841.656	0.0165562
841.734	0.0165559
841.812	0.0165283
841.890	0.0165512
841.968	0.0165755
842.046	0.0166141
842.124	0.0168850
842.203	0.0166656
842.281	0.0168640
842.359	0.0168717
842.437	0.0168036
842.515	0.0169515
842.593	0.0167702
842.671	0.0167276
842.749	0.0167208
842.828	0.0167659
842.906	0.0165663
842.984	0.0166982
843.062	0.0165324
843.140	0.0164065
843.218	0.0164589
843.296	0.0164273
843.374	0.0163757
843.453	0.0163077
843.531	0.0161813
843.609	0.0163099
843.687	0.0161650
843.765	0.0160072
843.843	0.0161585
843.921	0.0161794
843.999	0.0162042
844.078	0.0161213
844.156	0.0160192
844.234	0.0161472
844.312	0.0163257
844.390	0.0162334
844.468	0.0161945
844.546	0.0163887
844.624	0.0164002
844.703	0.0163839
844.781	0.0165180
844.859	0.0167041
844.937	0.0167580
845.015	0.0165239
845.093	0.0166492
845.171	0.0167551
845.249	0.0166888
845.328	0.0168629
845.406	0.0167560
845.484	0.0167622
845.562	0.0169054
845.640	0.0168035
845.718	0.0167095
845.796	0.0167634
845.874	0.0168623
845.953	0.0167088
846.031	0.0166586
846.109	0.0166357
846.187	0.0166025
846.265	0.0165077
846.343	0.0163212
846.421	0.0164331
846.499	0.0164212
846.578	0.0163416
846.656	0.0163225
846.734	0.0163407
846.812	0.0163471
846.890	0.0162189
846.968	0.0162320
847.046	0.0161932
847.124	0.0163375
847.203	0.0163158
847.281	0.0162695
847.359	0.0164514
847.437	0.0164247
847.515	0.0164179
847.593	0.0164685
847.671	0.0164969
847.749	0.0164731
847.828	0.0166199
847.906	0.0167001
847.984	0.0166728
848.062	0.0166879
848.140	0.0166191
848.218	0.0167919
848.296	0.0167377
848.374	0.0167307
848.453	0.0168191
848.531	0.0166843
848.609	0.0166827
848.687	0.0167617
848.765	0.0168488
848.843	0.0167010
848.921	0.0168317
848.999	0.0167059
849.078	0.0166518
849.156	0.0165637
849.234	0.0167155
849.312	0.0166824
849.390	0.0165084
849.468	0.0166224
849.546	0.0164973
849.624	0.0165070
849.703	0.0166389
849.781	0.0165810
849.859	0.0165481
849.937	0.0164628
850.015	0.0165417
850.093	0.0163081
850.171	0.0163779
850.249	0.0165246
850.328	0.0164237
850.406	0.0165007
850.484	0.0165736
850.562	0.0164543
850.640	0.0163837
850.718	0.0163287
850.796	0.0162136
850.874	0.0163817
850.953	0.0163283
851.031	0.0163155
851.109	0.0162813
851.187	0.0162341
851.265	0.0163581
851.343	0.0162619
851.421	0.0161880
851.499	0.0162395
851.578	0.0162353
851.656	0.0162301
851.734	0.0162846
851.812	0.0164600
851.890	0.0164688
851.968	0.0163769
852.046	0.0165176
852.124	0.0165748
852.203	0.0167139
852.281	0.0167561
852.359	0.0167502
852.437	0.0167522
852.515	0.0167180
852.593	0.0169656
852.671	0.0170486
852.749	0.0169171
852.828	0.0168933
852.906	0.0170074
852.984	0.0167951
853.062	0.0169520
853.140	0.0168813
853.218	0.0168362
853.296	0.0168014
853.374	0.0168437
853.453	0.0167999
853.531	0.0165339
853.609	0.0165475
853.687	0.0164307
853.765	0.0164487
853.843	0.0163434
853.921	0.0162774
853.999	0.0162592
854.078	0.0162666
854.156	0.0163342
854.234	0.0161677
854.312	0.0161439
854.390	0.0161671
854.468	0.0161491
854.546	0.0161577
854.624	0.0162166
854.703	0.0163453
854.781	0.0162920
854.859	0.0164951
854.937	0.0163445
855.015	0.0163576
855.093	0.0164524
855.171	0.0163800
855.249	0.0165125
855.328	0.0165297
855.406	0.0165423
855.484	0.0164981
855.562	0.0166338
855.640	0.0165887
855.718	0.0164218
855.796	0.0166145
855.874	0.0165440
855.953	0.0164378
856.031	0.0163587
856.109	0.0163200
856.187	0.0164311
856.265	0.0163783
856.343	0.0163035
856.421	0.0161867
856.499	0.0162695
856.578	0.0164735
856.656	0.0164019
856.734	0.0162154
856.812	0.0163135
856.890	0.0162752
856.968	0.0162442
857.046	0.0163946
857.124	0.0164692
857.203	0.0163730
857.281	0.0164391
857.359	0.0163400
857.437	0.0165432
857.515	0.0165551
857.593	0.0166268
857.671	0.0165845
857.749	0.0165756
857.828	0.0167443
857.906	0.0166415
857.984	0.0165724
858.062	0.0166058
858.140	0.0165952
858.218	0.0165614
858.296	0.0166599
858.374	0.0167789
858.453	0.0167589
858.531	0.0165992
858.609	0.0165150
858.687	0.0167832
858.765	0.0166748
858.843	0.0165702
858.921	0.0165585
858.999	0.0165977
859.078	0.0165941
859.156	0.0165736
859.234	0.0166943
859.312	0.0164862
859.390	0.0165184
859.468	0.0166338
859.546	0.0163604
859.624	0.0164837
859.703	0.0165531
859.781	0.0165499
859.859	0.0165448
859.937	0.0165446
860.015	0.0165585
860.093	0.0166548
860.171	0.0166189
860.249	0.0164696
860.328	0.0164899
860.406	0.0165383
860.484	0.0166822
860.562	0.0166259
860.640	0.0166243
860.718	0.0164951
860.796	0.0165398
860.874	0.0165949
860.953	0.0166011
861.031	0.0163739
861.109	0.0164645
861.187	0.0164528
861.265	0.0164375
861.343	0.0165490
861.421	0.0163945
861.499	0.0164255
861.578	0.0163544
861.656	0.0164153
861.734	0.0164406
861.812	0.0164977
861.890	0.0162508
861.968	0.0163293
862.046	0.0164487
862.124	0.0164129
862.203	0.0164486
862.281	0.0164368
862.359	0.0165635
862.437	0.0165125
862.515	0.0165562
862.593	0.0166230
862.671	0.0166226
862.749	0.0165604
862.828	0.0165894
862.906	0.0166191
862.984	0.0165382
863.062	0.0165787
863.140	0.0166177
863.218	0.0166653
863.296	0.0165124
863.374	0.0166850
863.453	0.0167081
863.531	0.0166814
863.609	0.0166990
863.687	0.0165961
863.765	0.0166785
863.843	0.0167440
863.921	0.0167223
863.999	0.0166816
864.078	0.0168498
864.156	0.0166521
864.234	0.0168203
864.312	0.0167861
864.390	0.0167371
864.468	0.0167702
864.546	0.0165987
864.624	0.0166155
864.703	0.0166825
864.781	0.0165193
864.859	0.0165101
864.937	0.0164802
865.015	0.0164027
865.093	0.0164105
865.171	0.0164020
865.249	0.0165123
865.328	0.0165465
865.406	0.0166586
865.484	0.0165489
865.562	0.0165850
865.640	0.0165282
865.718	0.0166171
865.796	0.0166084
865.874	0.0166706
865.953	0.0166831
866.031	0.0166139
866.109	0.0167133
866.187	0.0168085
866.265	0.0166108
866.343	0.0166618
866.421	0.0166801
866.499	0.0166476
866.578	0.0166723
866.656	0.0166473
866.734	0.0166645
866.812	0.0167326
866.890	0.0167715
866.968	0.0167136
867.046	0.0166193
867.124	0.0165934
867.203	0.0165223
867.281	0.0165399
867.359	0.0165172
867.437	0.0166435
867.515	0.0166744
867.593	0.0165326
867.671	0.0165494
867.749	0.0164745
867.828	0.0163532
867.906	0.0163983
867.984	0.0165050
868.062	0.0165051
868.140	0.0163274
868.218	0.0163057
868.296	0.0163537
868.374	0.0163795
868.453	0.0164173
868.531	0.0163918
868.609	0.0163918
868.687	0.0164292
868.765	0.0164764
868.843	0.0163759
868.921	0.0165987
868.999	0.0164085
869.078	0.0165907
869.156	0.0166702
869.234	0.0166360
869.312	0.0166927
869.390	0.0168817
869.468	0.0169207
869.546	0.0168265
869.624	0.0167426
869.703	0.0168681
869.781	0.0167142
869.859	0.0167474
869.937	0.0166866
870.015	0.0167036
870.093	0.0166509
870.171	0.0165041
870.249	0.0165253
870.328	0.0166469
870.406	0.0164848
870.484	0.0164970
870.562	0.0164444
870.640	0.0163911
870.718	0.0165126
870.796	0.0164536
870.874	0.0164853
870.953	0.0164879
871.031	0.0164789
871.109	0.0165786
871.187	0.0164778
871.265	0.0165646
871.343	0.0166596
871.421	0.0164905
871.499	0.0166141
871.578	0.0166345
871.656	0.0165205
871.734	0.0166566
871.812	0.0165625
871.890	0.0166608
871.968	0.0166245
872.046	0.0166058
872.124	0.0165909
872.203	0.0166022
872.281	0.0166608
872.359	0.0166743
872.437	0.0165861
872.515	0.0164577
872.593	0.0167152
872.671	0.0166264
872.749	0.0166235
872.828	0.0166026
872.906	0.0166550
872.984	0.0166051
873.062	0.0165690
873.140	0.0164684
873.218	0.0163993
873.296	0.0166095
873.374	0.0164287
873.453	0.0164484
873.531	0.0165202
873.609	0.0164735
873.687	0.0164983
873.765	0.0163058
873.843	0.0162534
873.921	0.0163696
873.999	0.0163705
874.078	0.0163097
874.156	0.0163180
874.234	0.0165504
874.312	0.0164574
874.390	0.0162976
874.468	0.0163055
874.546	0.0163438
874.624	0.0163833
874.703	0.0166048
874.781	0.0164101
874.859	0.0164931
874.937	0.0165939
875.015	0.0165702
875.093	0.0166573
875.171	0.0165160
875.249	0.0165652
875.328	0.0166300
875.406	0.0164896
875.484	0.0165865
875.562	0.0166527
875.640	0.0166533
875.718	0.0164126
875.796	0.0165681
875.874	0.0165707
875.953	0.0164752
876.031	0.0165768
876.109	0.0166434
876.187	0.0165900
876.265	0.0164920
876.343	0.0163195
876.421	0.0165392
876.499	0.0164606
876.578	0.0165192
876.656	0.0165443
876.734	0.0164548
876.812	0.0164609
876.890	0.0164320
876.968	0.0164778
877.046	0.0162389
877.124	0.0163487
877.203	0.0164455
877.281	0.0164404
877.359	0.0164160
877.437	0.0164352
877.515	0.0164758
877.593	0.0164117
877.671	0.0164342
877.749	0.0165625
877.828	0.0165560
877.906	0.0166065
877.984	0.0165974
878.062	0.0166707
878.140	0.0166179
878.218	0.0164562
878.296	0.0165347
878.374	0.0165051
878.453	0.0165379
878.531	0.0165829
878.609	0.0165405
878.687	0.0164899
878.765	0.0163973
878.843	0.0164988
878.921	0.0165617
878.999	0.0164751
879.078	0.0164812
879.156	0.0163480
879.234	0.0163923
879.312	0.0163289
879.390	0.0163905
879.468	0.0163028
879.546	0.0163116
879.624	0.0161513
879.703	0.0162550
879.781	0.0164226
879.859	0.0163144
879.937	0.0163708
880.015	0.0163840
880.093	0.0165001
880.171	0.0165121
880.249	0.0165943
880.328	0.0166814
880.406	0.0168172
880.484	0.0166036
880.562	0.0165265
880.640	0.0167834
880.718	0.0167870
880.796	0.0167200
880.874	0.0167910
880.953	0.0167435
881.031	0.0167127
881.109	0.0166861
881.187	0.0165353
881.265	0.0165891
881.343	0.0164347
881.421	0.0165139
881.499	0.0163597
881.578	0.0165361
881.656	0.0164799
881.734	0.0163367
881.812	0.0163728
881.890	0.0162718
881.968	0.0163414
882.046	0.0162457
882.124	0.0163436
882.203	0.0164890
882.281	0.0163888
882.359	0.0163052
882.437	0.0162691
882.515	0.0164771
882.593	0.0164943
882.671	0.0163887
882.749	0.0164085
882.828	0.0164166
882.906	0.0165454
882.984	0.0163816
883.062	0.0164689
883.140	0.0163992
883.218	0.0165043
883.296	0.0164431
883.374	0.0164306
883.453	0.0165020
883.531	0.0165243
883.609	0.0164123
883.687	0.0163286
883.765	0.0164982
883.843	0.0164416
883.921	0.0164370
883.999	0.0165158
884.078	0.0164760
884.156	0.0164471
884.234	0.0165028
884.312	0.0165783
884.390	0.0165671
884.468	0.0164608
884.546	0.0164610
884.624	0.0164990
884.703	0.0166805
884.781	0.0164299
884.859	0.0163697
884.937	0.0165477
885.015	0.0165044
885.093	0.0165002
885.171	0.0165564
885.249	0.0165438
885.328	0.0164285
885.406	0.0163389
885.484	0.0163750
885.562	0.0165135
885.640	0.0165442
885.718	0.0163747
885.796	0.0164724
885.874	0.0165408
885.953	0.0165329
886.031	0.0164568
886.109	0.0165593
886.187	0.0166312
886.265	0.0166767
886.343	0.0164733
886.421	0.0165865
886.499	0.0166278
886.578	0.0165895
886.656	0.0165729
886.734	0.0165936
886.812	0.0166153
886.890	0.0165362
886.968	0.0165129
887.046	0.0166717
887.124	0.0165502
887.203	0.0164439
887.281	0.0164821
887.359	0.0165000
887.437	0.0163451
887.515	0.0164886
887.593	0.0163252
887.671	0.0163651
887.749	0.0163590
887.828	0.0163761
887.906	0.0164400
887.984	0.0164103
888.062	0.0164568
888.140	0.0163896
888.218	0.0163625
888.296	0.0165115
888.374	0.0164658
888.453	0.0163155
888.531	0.0163938
888.609	0.0166518
888.687	0.0166364
888.765	0.0165984
888.843	0.0165455
888.921	0.0166199
888.999	0.0166825
889.078	0.0166018
889.156	0.0165553
889.234	0.0166862
889.312	0.0166959
889.390	0.0164486
889.468	0.0165118
889.546	0.0166841
889.624	0.0168651
889.703	0.0166191
889.781	0.0164685
889.859	0.0167406
889.937	0.0167066
890.015	0.0166415
890.093	0.0167300
890.171	0.0167632
890.249	0.0167670
890.328	0.0167308
890.406	0.0166912
890.484	0.0167747
890.562	0.0167649
890.640	0.0167120
890.718	0.0168279
890.796	0.0167493
890.874	0.0167844
890.953	0.0167075
891.031	0.0167641
891.109	0.0166471
891.187	0.0166881
891.265	0.0165787
891.343	0.0165996
891.421	0.0165168
891.499	0.0167091
891.578	0.0165060
891.656	0.0164253
891.734	0.0164535
891.812	0.0164058
891.890	0.0165395
891.968	0.0165779
892.046	0.0164115
892.124	0.0165646
892.203	0.0165726
892.281	0.0164780
892.359	0.0165221
892.437	0.0165051
892.515	0.0166817
892.593	0.0167495
892.671	0.0166343
892.749	0.0165559
892.828	0.0166750
892.906	0.0165910
892.984	0.0166528
893.062	0.0167301
893.140	0.0166297
893.218	0.0166187
893.296	0.0166303
893.374	0.0164993
893.453	0.0164796
893.531	0.0166600
893.609	0.0166645
893.687	0.0165430
893.765	0.0165565
893.843	0.0164854
893.921	0.0163142
893.999	0.0164301
894.078	0.0165274
894.156	0.0163499
894.234	0.0164928
894.312	0.0163039
894.390	0.0162809
894.468	0.0164357
894.546	0.0162325
894.624	0.0161914
894.703	0.0163286
894.781	0.0163829
894.859	0.0163895
894.937	0.0164104
895.015	0.0165501
895.093	0.0165260
895.171	0.0164387
895.249	0.0166055
895.328	0.0166384
895.406	0.0165340
895.484	0.0165913
895.562	0.0166047
895.640	0.0166673
895.718	0.0167397
895.796	0.0167977
895.874	0.0166521
895.953	0.0165886
896.031	0.0166058
896.109	0.0166634
896.187	0.0165681
896.265	0.0165263
896.343	0.0166669
896.421	0.0164565
896.499	0.0165660
896.578	0.0166408
896.656	0.0164368
896.734	0.0164429
896.812	0.0164594
896.890	0.0165205
896.968	0.0164988
897.046	0.0163279
897.124	0.0163378
897.203	0.0163929
897.281	0.0163502
897.359	0.0163913
897.437	0.0163866
897.515	0.0163680
897.593	0.0163686
897.671	0.0164117
897.749	0.0163712
897.828	0.0163084
897.906	0.0162562
897.984	0.0163757
898.062	0.0164206
898.140	0.0163294
898.218	0.0163304
898.296	0.0162431
898.374	0.0164643
898.453	0.0164092
898.531	0.0163680
898.609	0.0165388
898.687	0.0165744
898.765	0.0164980
898.843	0.0165410
898.921	0.0164828
898.999	0.0164314
899.078	0.0164455
899.156	0.0165987
899.234	0.0166137
899.312	0.0165368
899.390	0.0165603
899.468	0.0165154
899.546	0.0164635
899.624	0.0164743
899.703	0.0165586
899.781	0.0163509
899.859	0.0164294
899.937	0.0163476
900.015	0.0163876
900.093	0.0162997
900.171	0.0163783
900.249	0.0163241
900.328	0.0163172
900.406	0.0162310
900.484	0.0162920
900.562	0.0162959
900.640	0.0163558
900.718	0.0162712
900.796	0.0162736
900.874	0.0164208
900.953	0.0163285
901.031	0.0164440
901.109	0.0165128
901.187	0.0165848
901.265	0.0164603
901.343	0.0165025
901.421	0.0166949
901.499	0.0165092
901.578	0.0165002
901.656	0.0165615
901.734	0.0165853
901.812	0.0164644
901.890	0.0165240
901.968	0.0165270
902.046	0.0165765
902.124	0.0165711
902.203	0.0165048
902.281	0.0164622
902.359	0.0165896
902.437	0.0164497
902.515	0.0164912
902.593	0.0163933
902.671	0.0164768
902.749	0.0165163
902.828	0.0164023
902.906	0.0165742
902.984	0.0164424
903.062	0.0163280
903.140	0.0165020
903.218	0.0165226
903.296	0.0165163
903.374	0.0164322
903.453	0.0166662
903.531	0.0165533
903.609	0.0165145
903.687	0.0166721
903.765	0.0165256
903.843	0.0164809
903.921	0.0166225
903.999	0.0165237
904.078	0.0165378
904.156	0.0164285
904.234	0.0163927
904.312	0.0162997
904.390	0.0162985
904.468	0.0164864
904.546	0.0163663
904.624	0.0164458
904.703	0.0162099
904.781	0.0164845
904.859	0.0164050
904.937	0.0164290
905.015	0.0165923
905.093	0.0165711
905.171	0.0166005
905.249	0.0163949
905.328	0.0165289
905.406	0.0165301
905.484	0.0166123
905.562	0.0164190
905.640	0.0164864
905.718	0.0164366
905.796	0.0162348
905.874	0.0163182
905.953	0.0163663
906.031	0.0163573
906.109	0.0162545
906.187	0.0164742
906.265	0.0163821
906.343	0.0161881
906.421	0.0163049
906.499	0.0164068
906.578	0.0162250
906.656	0.0162535
906.734	0.0162315
906.812	0.0162263
906.890	0.0162814
906.968	0.0162971
907.046	0.0163136
907.124	0.0163976
907.203	0.0164175
907.281	0.0163642
907.359	0.0164713
907.437	0.0163906
907.515	0.0164153
907.593	0.0163963
907.671	0.0163042
907.749	0.0163577
907.828	0.0164294
907.906	0.0164780
907.984	0.0164697
908.062	0.0165394
908.140	0.0166060
908.218	0.0164022
908.296	0.0166364
908.374	0.0166694
908.453	0.0167530
908.531	0.0166164
908.609	0.0165725
908.687	0.0167104
908.765	0.0166476
908.843	0.0167471
908.921	0.0166425
908.999	0.0167764
909.078	0.0167490
909.156	0.0166583
909.234	0.0167390
909.312	0.0167693
909.390	0.0169138
909.468	0.0166650
909.546	0.0167192
909.624	0.0169462
909.703	0.0166428
909.781	0.0167661
909.859	0.0167020
909.937	0.0167044
910.015	0.0165022
910.093	0.0165382
910.171	0.0166468
910.249	0.0164654
910.328	0.0165408
910.406	0.0165199
910.484	0.0164497
910.562	0.0166336
910.640	0.0165996
910.718	0.0164731
910.796	0.0165428
910.874	0.0166111
910.953	0.0164294
911.031	0.0163882
911.109	0.0165352
911.187	0.0165635
911.265	0.0165910
911.343	0.0165665
911.421	0.0166063
911.499	0.0166563
911.578	0.0165878
911.656	0.0165244
911.734	0.0166803
911.812	0.0165466
911.890	0.0164319
911.968	0.0165170
912.046	0.0164062
912.124	0.0163528
912.203	0.0163194
912.281	0.0164469
912.359	0.0164117
912.437	0.0162930
912.515	0.0162345
912.593	0.0161896
912.671	0.0162971
912.749	0.0164346
912.828	0.0163065
912.906	0.0162125
912.984	0.0163475
913.062	0.0162855
913.140	0.0163663
913.218	0.0164342
913.296	0.0164809
913.374	0.0164214
913.453	0.0163873
913.531	0.0163386
913.609	0.0165343
913.687	0.0166461
913.765	0.0165957
913.843	0.0165293
913.921	0.0165336
913.999	0.0165504
914.078	0.0165748
914.156	0.0165884
914.234	0.0165044
914.312	0.0166281
914.390	0.0166174
914.468	0.0166252
914.546	0.0164772
914.624	0.0166275
914.703	0.0165681
914.781	0.0166491
914.859	0.0167252
914.937	0.0166583
915.015	0.0165199
915.093	0.0165716
915.171	0.0165822
915.249	0.0166722
915.328	0.0167427
915.406	0.0165758
915.484	0.0167609
915.562	0.0167068
915.640	0.0167740
915.718	0.0167079
915.796	0.0167477
915.874	0.0167320
915.953	0.0166672
916.031	0.0167942
916.109	0.0167930
916.187	0.0167641
916.265	0.0167302
916.343	0.0165012
916.421	0.0166031
916.499	0.0166689
916.578	0.0165627
916.656	0.0165622
916.734	0.0164405
916.812	0.0164053
916.890	0.0163931
916.968	0.0162775
917.046	0.0163405
917.124	0.0163756
917.203	0.0162138
917.281	0.0161478
917.359	0.0162585
917.437	0.0161818
917.515	0.0162933
917.593	0.0161768
917.671	0.0160678
917.749	0.0162070
917.828	0.0161681
917.906	0.0163175
917.984	0.0162183
918.062	0.0162717
918.140	0.0162569
918.218	0.0161600
918.296	0.0162800
918.374	0.0163175
918.453	0.0162260
918.531	0.0161398
918.609	0.0162673
918.687	0.0163525
918.765	0.0161353
918.843	0.0162037
918.921	0.0162413
918.999	0.0161884
919.078	0.0162773
919.156	0.0163123
919.234	0.0162762
919.312	0.0163510
919.390	0.0163282
919.468	0.0164034
919.546	0.0164146
919.624	0.0165316
919.703	0.0164217
919.781	0.0164534
919.859	0.0163754
919.937	0.0164587
