06/10/2022	16:38:53	Ver.	4.1	UNKNOWN
Optical Delay	600.015094	Delta X		0.078125	Sweeps	1	Scan Rate	0/0
Coordinates	Axis 1	NaN	Axis 2	NaN	Axis 3	NaN	Axis 4	NaN	Axis 5	NaN	Axis 6	0.000000
TX Power	0.000000	RX Power	0.000000

600.015	0.0161666
600.093	0.0163181
600.171	0.0161816
600.249	0.0162366
600.328	0.0162056
600.406	0.0160680
600.484	0.0162399
600.562	0.0162842
600.640	0.0162109
600.718	0.0162379
600.796	0.0162019
600.874	0.0161179
600.953	0.0161028
601.031	0.0160803
601.109	0.0160895
601.187	0.0162806
601.265	0.0160860
601.343	0.0159779
601.421	0.0161413
601.499	0.0162616
601.578	0.0161300
601.656	0.0160612
601.734	0.0161391
601.812	0.0161930
601.890	0.0161822
601.968	0.0161926
602.046	0.0161679
602.124	0.0161694
602.203	0.0161877
602.281	0.0162509
602.359	0.0160286
602.437	0.0162296
602.515	0.0162511
602.593	0.0160129
602.671	0.0161111
602.749	0.0161185
602.828	0.0161797
602.906	0.0160091
602.984	0.0161564
603.062	0.0161165
603.140	0.0159968
603.218	0.0161236
603.296	0.0161903
603.374	0.0160873
603.453	0.0161225
603.531	0.0161625
603.609	0.0161883
603.687	0.0159924
603.765	0.0160943
603.843	0.0161520
603.921	0.0161575
603.999	0.0161597
604.078	0.0162209
604.156	0.0160646
604.234	0.0161567
604.312	0.0161441
604.390	0.0159441
604.468	0.0160661
604.546	0.0161988
604.624	0.0161813
604.703	0.0159825
604.781	0.0160218
604.859	0.0161283
604.937	0.0161798
605.015	0.0161449
605.093	0.0160494
605.171	0.0160789
605.249	0.0161513
605.328	0.0161789
605.406	0.0160940
605.484	0.0162230
605.562	0.0159531
605.640	0.0161903
605.718	0.0162845
605.796	0.0160909
605.874	0.0160501
605.953	0.0161590
606.031	0.0162140
606.109	0.0162019
606.187	0.0161497
606.265	0.0161947
606.343	0.0161960
606.421	0.0160788
606.499	0.0160851
606.578	0.0160957
606.656	0.0161659
606.734	0.0163157
606.812	0.0161002
606.890	0.0161583
606.968	0.0161210
607.046	0.0162864
607.124	0.0161890
607.203	0.0162172
607.281	0.0161567
607.359	0.0161705
607.437	0.0161320
607.515	0.0162215
607.593	0.0163391
607.671	0.0162251
607.749	0.0162268
607.828	0.0161588
607.906	0.0162170
607.984	0.0162054
608.062	0.0161505
608.140	0.0163808
608.218	0.0163446
608.296	0.0162191
608.374	0.0163531
608.453	0.0162810
608.531	0.0163776
608.609	0.0163059
608.687	0.0164267
608.765	0.0164668
608.843	0.0162720
608.921	0.0162528
608.999	0.0164158
609.078	0.0162579
609.156	0.0162586
609.234	0.0163939
609.312	0.0165221
609.390	0.0165666
609.468	0.0164797
609.546	0.0164204
609.624	0.0163181
609.703	0.0162826
609.781	0.0165984
609.859	0.0164783
609.937	0.0163572
610.015	0.0164297
610.093	0.0165285
610.171	0.0164242
610.249	0.0164165
610.328	0.0164050
610.406	0.0163102
610.484	0.0163985
610.562	0.0164114
610.640	0.0163968
610.718	0.0162156
610.796	0.0163193
610.874	0.0163876
610.953	0.0162029
611.031	0.0162243
611.109	0.0163251
611.187	0.0162581
611.265	0.0161408
611.343	0.0161916
611.421	0.0161670
611.499	0.0161852
611.578	0.0160915
611.656	0.0162960
611.734	0.0162655
611.812	0.0163366
611.890	0.0162911
611.968	0.0162001
612.046	0.0161578
612.124	0.0162263
612.203	0.0162900
612.281	0.0161490
612.359	0.0161062
612.437	0.0162332
612.515	0.0162202
612.593	0.0162174
612.671	0.0162305
612.749	0.0161231
612.828	0.0162224
612.906	0.0162983
612.984	0.0162109
613.062	0.0162007
613.140	0.0162721
613.218	0.0163266
613.296	0.0162862
613.374	0.0162811
613.453	0.0161035
613.531	0.0161376
613.609	0.0162091
613.687	0.0163453
613.765	0.0162235
613.843	0.0162135
613.921	0.0161818
613.999	0.0162155
614.078	0.0162963
614.156	0.0161640
614.234	0.0161794
614.312	0.0162879
614.390	0.0162496
614.468	0.0161394
614.546	0.0162810
614.624	0.0162744
614.703	0.0162024
614.781	0.0162466
614.859	0.0161926
614.937	0.0161102
615.015	0.0161057
615.093	0.0161182
615.171	0.0161403
615.249	0.0161900
615.328	0.0162200
615.406	0.0162493
615.484	0.0161539
615.562	0.0162209
615.640	0.0161794
615.718	0.0162956
615.796	0.0161562
615.874	0.0162260
615.953	0.0161538
616.031	0.0161995
616.109	0.0162478
616.187	0.0159939
616.265	0.0162910
616.343	0.0162343
616.421	0.0162634
616.499	0.0161796
616.578	0.0162068
616.656	0.0162064
616.734	0.0162420
616.812	0.0162901
616.890	0.0161910
616.968	0.0163413
617.046	0.0160298
617.124	0.0161985
617.203	0.0161958
617.281	0.0162244
617.359	0.0162655
617.437	0.0161823
617.515	0.0161148
617.593	0.0163499
617.671	0.0161839
617.749	0.0162254
617.828	0.0162650
617.906	0.0163877
617.984	0.0163842
618.062	0.0162462
618.140	0.0162896
618.218	0.0164725
618.296	0.0162542
618.374	0.0161852
618.453	0.0162191
618.531	0.0163618
618.609	0.0161890
618.687	0.0163088
618.765	0.0163393
618.843	0.0161955
618.921	0.0162376
618.999	0.0162617
619.078	0.0161991
619.156	0.0163610
619.234	0.0163472
619.312	0.0162991
619.390	0.0163455
619.468	0.0162763
619.546	0.0162425
619.624	0.0162379
619.703	0.0162369
619.781	0.0162644
619.859	0.0162640
619.937	0.0162369
620.015	0.0162222
620.093	0.0162442
620.171	0.0162483
620.249	0.0162860
620.328	0.0163470
620.406	0.0161866
620.484	0.0164114
620.562	0.0161673
620.640	0.0162717
620.718	0.0163246
620.796	0.0161584
620.874	0.0163128
620.953	0.0163466
621.031	0.0162455
621.109	0.0162957
621.187	0.0160666
621.265	0.0162320
621.343	0.0162616
621.421	0.0161058
621.499	0.0161887
621.578	0.0161737
621.656	0.0162378
621.734	0.0161185
621.812	0.0161346
621.890	0.0161265
621.968	0.0161543
622.046	0.0161996
622.124	0.0160793
622.203	0.0162196
622.281	0.0162756
622.359	0.0161855
622.437	0.0161172
622.515	0.0162151
622.593	0.0160252
622.671	0.0160947
622.749	0.0162141
622.828	0.0162931
622.906	0.0162405
622.984	0.0161051
623.062	0.0161965
623.140	0.0161215
623.218	0.0161992
623.296	0.0162805
623.374	0.0160042
623.453	0.0160847
623.531	0.0160555
623.609	0.0161639
623.687	0.0160378
623.765	0.0160322
623.843	0.0161291
623.921	0.0161514
623.999	0.0160332
624.078	0.0161275
624.156	0.0162138
624.234	0.0161516
624.312	0.0162073
624.390	0.0160983
624.468	0.0161239
624.546	0.0160441
624.624	0.0161877
624.703	0.0162076
624.781	0.0162686
624.859	0.0160113
624.937	0.0160068
625.015	0.0161951
625.093	0.0160526
625.171	0.0160695
625.249	0.0161217
625.328	0.0161416
625.406	0.0162260
625.484	0.0160587
625.562	0.0161942
625.640	0.0162056
625.718	0.0160827
625.796	0.0161415
625.874	0.0161955
625.953	0.0161473
626.031	0.0163088
626.109	0.0161127
626.187	0.0161072
626.265	0.0162812
626.343	0.0161437
626.421	0.0161224
626.499	0.0163039
626.578	0.0161167
626.656	0.0160844
626.734	0.0160978
626.812	0.0161530
626.890	0.0161851
626.968	0.0161630
627.046	0.0162664
627.124	0.0161669
627.203	0.0163501
627.281	0.0161952
627.359	0.0161293
627.437	0.0162649
627.515	0.0163163
627.593	0.0162622
627.671	0.0161148
627.749	0.0162095
627.828	0.0163249
627.906	0.0160822
627.984	0.0161079
628.062	0.0164301
628.140	0.0163268
628.218	0.0163394
628.296	0.0162450
628.374	0.0162139
628.453	0.0163893
628.531	0.0161712
628.609	0.0161784
628.687	0.0162919
628.765	0.0163096
628.843	0.0162153
628.921	0.0161246
628.999	0.0161504
629.078	0.0162731
629.156	0.0162060
629.234	0.0160780
629.312	0.0162753
629.390	0.0162675
629.468	0.0162442
629.546	0.0162155
629.624	0.0161021
629.703	0.0162109
629.781	0.0162000
629.859	0.0163545
629.937	0.0163470
630.015	0.0161726
630.093	0.0162107
630.171	0.0162379
630.249	0.0161689
630.328	0.0160880
630.406	0.0163133
630.484	0.0162150
630.562	0.0161707
630.640	0.0162543
630.718	0.0162890
630.796	0.0162017
630.874	0.0161902
630.953	0.0162579
631.031	0.0162994
631.109	0.0160744
631.187	0.0161510
631.265	0.0161224
631.343	0.0163851
631.421	0.0161970
631.499	0.0161060
631.578	0.0161935
631.656	0.0163037
631.734	0.0161529
631.812	0.0162129
631.890	0.0163029
631.968	0.0162431
632.046	0.0163361
632.124	0.0162442
632.203	0.0161107
632.281	0.0162323
632.359	0.0162856
632.437	0.0162646
632.515	0.0161960
632.593	0.0161872
632.671	0.0161506
632.749	0.0163035
632.828	0.0162674
632.906	0.0161402
632.984	0.0162560
633.062	0.0164739
633.140	0.0163053
633.218	0.0162074
633.296	0.0162660
633.374	0.0163056
633.453	0.0162746
633.531	0.0163543
633.609	0.0162473
633.687	0.0163550
633.765	0.0162325
633.843	0.0162965
633.921	0.0162241
633.999	0.0162568
634.078	0.0162980
634.156	0.0162662
634.234	0.0161176
634.312	0.0162170
634.390	0.0162035
634.468	0.0163080
634.546	0.0164464
634.624	0.0163297
634.703	0.0161962
634.781	0.0161625
634.859	0.0162769
634.937	0.0163104
635.015	0.0163390
635.093	0.0162531
635.171	0.0163361
635.249	0.0163447
635.328	0.0163206
635.406	0.0164220
635.484	0.0164015
635.562	0.0162991
635.640	0.0161346
635.718	0.0162013
635.796	0.0162019
635.874	0.0162420
635.953	0.0163648
636.031	0.0163058
636.109	0.0162666
636.187	0.0163211
636.265	0.0160845
636.343	0.0162809
636.421	0.0162936
636.499	0.0162792
636.578	0.0164219
636.656	0.0162415
636.734	0.0163393
636.812	0.0162592
636.890	0.0163763
636.968	0.0163642
637.046	0.0162128
637.124	0.0163276
637.203	0.0163096
637.281	0.0163306
637.359	0.0162604
637.437	0.0162593
637.515	0.0163570
637.593	0.0163288
637.671	0.0161286
637.749	0.0163989
637.828	0.0162583
637.906	0.0162773
637.984	0.0161458
638.062	0.0163905
638.140	0.0162645
638.218	0.0162927
638.296	0.0162658
638.374	0.0162904
638.453	0.0164182
638.531	0.0162940
638.609	0.0160928
638.687	0.0162553
638.765	0.0163830
638.843	0.0163051
638.921	0.0163277
638.999	0.0162576
639.078	0.0161979
639.156	0.0162035
639.234	0.0162885
639.312	0.0163158
639.390	0.0163551
639.468	0.0162653
639.546	0.0163012
639.624	0.0162248
639.703	0.0162732
639.781	0.0163567
639.859	0.0163069
639.937	0.0162702
640.015	0.0163217
640.093	0.0162967
640.171	0.0162341
640.249	0.0163362
640.328	0.0163871
640.406	0.0162663
640.484	0.0162924
640.562	0.0163142
640.640	0.0163970
640.718	0.0162978
640.796	0.0163770
640.874	0.0163175
640.953	0.0162937
641.031	0.0162408
641.109	0.0162341
641.187	0.0161799
641.265	0.0161787
641.343	0.0163980
641.421	0.0161475
641.499	0.0162199
641.578	0.0162088
641.656	0.0162939
641.734	0.0161953
641.812	0.0162598
641.890	0.0162711
641.968	0.0162002
642.046	0.0162457
642.124	0.0163239
642.203	0.0161530
642.281	0.0162013
642.359	0.0161736
642.437	0.0160693
642.515	0.0162630
642.593	0.0161110
642.671	0.0162077
642.749	0.0161414
642.828	0.0161576
642.906	0.0163190
642.984	0.0161451
643.062	0.0161114
643.140	0.0162309
643.218	0.0161191
643.296	0.0161954
643.374	0.0162498
643.453	0.0161826
643.531	0.0162709
643.609	0.0162193
643.687	0.0160997
643.765	0.0161485
643.843	0.0161137
643.921	0.0163065
643.999	0.0161421
644.078	0.0160691
644.156	0.0162733
644.234	0.0161340
644.312	0.0160442
644.390	0.0162032
644.468	0.0162136
644.546	0.0162416
644.624	0.0162852
644.703	0.0161371
644.781	0.0162441
644.859	0.0161636
644.937	0.0161924
645.015	0.0161805
645.093	0.0161874
645.171	0.0160888
645.249	0.0160769
645.328	0.0161158
645.406	0.0161270
645.484	0.0160947
645.562	0.0161777
645.640	0.0161642
645.718	0.0159922
645.796	0.0160282
645.874	0.0161031
645.953	0.0161076
646.031	0.0161268
646.109	0.0161334
646.187	0.0161439
646.265	0.0160397
646.343	0.0160314
646.421	0.0159829
646.499	0.0160868
646.578	0.0160170
646.656	0.0159636
646.734	0.0162344
646.812	0.0160616
646.890	0.0161054
646.968	0.0160940
647.046	0.0160499
647.124	0.0160392
647.203	0.0161831
647.281	0.0162527
647.359	0.0160968
647.437	0.0160421
647.515	0.0160227
647.593	0.0160945
647.671	0.0161012
647.749	0.0161738
647.828	0.0159623
647.906	0.0160776
647.984	0.0160445
648.062	0.0160461
648.140	0.0161662
648.218	0.0161617
648.296	0.0161116
648.374	0.0160825
648.453	0.0160316
648.531	0.0160279
648.609	0.0162389
648.687	0.0161546
648.765	0.0162344
648.843	0.0160390
648.921	0.0160590
648.999	0.0161502
649.078	0.0160835
649.156	0.0161477
649.234	0.0161887
649.312	0.0159918
649.390	0.0160585
649.468	0.0159299
649.546	0.0161902
649.624	0.0161091
649.703	0.0161544
649.781	0.0160831
649.859	0.0160813
649.937	0.0161671
650.015	0.0160341
650.093	0.0161515
650.171	0.0161195
650.249	0.0161853
650.328	0.0160220
650.406	0.0160480
650.484	0.0161983
650.562	0.0161612
650.640	0.0161104
650.718	0.0160200
650.796	0.0163518
650.874	0.0162878
650.953	0.0162851
651.031	0.0163274
651.109	0.0161326
651.187	0.0163429
651.265	0.0161557
651.343	0.0161000
651.421	0.0162665
651.499	0.0163033
651.578	0.0162888
651.656	0.0161707
651.734	0.0161333
651.812	0.0164491
651.890	0.0164433
651.968	0.0160421
652.046	0.0163560
652.124	0.0163537
652.203	0.0161777
652.281	0.0163203
652.359	0.0162483
652.437	0.0161550
652.515	0.0162435
652.593	0.0162766
652.671	0.0161707
652.749	0.0163052
652.828	0.0162074
652.906	0.0163332
652.984	0.0163653
653.062	0.0161914
653.140	0.0161529
653.218	0.0162312
653.296	0.0161837
653.374	0.0161070
653.453	0.0161167
653.531	0.0161503
653.609	0.0162345
653.687	0.0162309
653.765	0.0160722
653.843	0.0162519
653.921	0.0162180
653.999	0.0162090
654.078	0.0162251
654.156	0.0161797
654.234	0.0164056
654.312	0.0161505
654.390	0.0162245
654.468	0.0161818
654.546	0.0162280
654.624	0.0160906
654.703	0.0160878
654.781	0.0162199
654.859	0.0161869
654.937	0.0162587
655.015	0.0162212
655.093	0.0162029
655.171	0.0162523
655.249	0.0162320
655.328	0.0162376
655.406	0.0162405
655.484	0.0162610
655.562	0.0161640
655.640	0.0162166
655.718	0.0162195
655.796	0.0162421
655.874	0.0162019
655.953	0.0161296
656.031	0.0161423
656.109	0.0161644
656.187	0.0163432
656.265	0.0161960
656.343	0.0161858
656.421	0.0161395
656.499	0.0162582
656.578	0.0161412
656.656	0.0162532
656.734	0.0162330
656.812	0.0161366
656.890	0.0161034
656.968	0.0160053
657.046	0.0161872
657.124	0.0160628
657.203	0.0161674
657.281	0.0162088
657.359	0.0161864
657.437	0.0160545
657.515	0.0162473
657.593	0.0161849
657.671	0.0162979
657.749	0.0160814
657.828	0.0161861
657.906	0.0162897
657.984	0.0162094
658.062	0.0160940
658.140	0.0162124
658.218	0.0162418
658.296	0.0160654
658.374	0.0161142
658.453	0.0162235
658.531	0.0161983
658.609	0.0161523
658.687	0.0162310
658.765	0.0161654
658.843	0.0161708
658.921	0.0161729
658.999	0.0160986
659.078	0.0160711
659.156	0.0163261
659.234	0.0161234
659.312	0.0161087
659.390	0.0162521
659.468	0.0162473
659.546	0.0161745
659.624	0.0163240
659.703	0.0162348
659.781	0.0161622
659.859	0.0160394
659.937	0.0161530
660.015	0.0161136
660.093	0.0161501
660.171	0.0162194
660.249	0.0162553
660.328	0.0161771
660.406	0.0161455
660.484	0.0162365
660.562	0.0160564
660.640	0.0161296
660.718	0.0161333
660.796	0.0161915
660.874	0.0160291
660.953	0.0160477
661.031	0.0161645
661.109	0.0162842
661.187	0.0162389
661.265	0.0161543
661.343	0.0162541
661.421	0.0162471
661.499	0.0161771
661.578	0.0161581
661.656	0.0159966
661.734	0.0162030
661.812	0.0162032
661.890	0.0161274
661.968	0.0161293
662.046	0.0162789
662.124	0.0161830
662.203	0.0161355
662.281	0.0161668
662.359	0.0161977
662.437	0.0162704
662.515	0.0161349
662.593	0.0161984
662.671	0.0163103
662.749	0.0162768
662.828	0.0162405
662.906	0.0162209
662.984	0.0162903
663.062	0.0161127
663.140	0.0161369
663.218	0.0161852
663.296	0.0162866
663.374	0.0161408
663.453	0.0161244
663.531	0.0162812
663.609	0.0161111
663.687	0.0162493
663.765	0.0162762
663.843	0.0162714
663.921	0.0161690
663.999	0.0162339
664.078	0.0162122
664.156	0.0162786
664.234	0.0162463
664.312	0.0162244
664.390	0.0161453
664.468	0.0163976
664.546	0.0161414
664.624	0.0163586
664.703	0.0160178
664.781	0.0161766
664.859	0.0163629
664.937	0.0162901
665.015	0.0162421
665.093	0.0162544
665.171	0.0161511
665.249	0.0163212
665.328	0.0162822
665.406	0.0162213
665.484	0.0161436
665.562	0.0162182
665.640	0.0161470
665.718	0.0162332
665.796	0.0161349
665.874	0.0161391
665.953	0.0162030
666.031	0.0160613
666.109	0.0163008
666.187	0.0162646
666.265	0.0162592
666.343	0.0162541
666.421	0.0163116
666.499	0.0163285
666.578	0.0161766
666.656	0.0162264
666.734	0.0161768
666.812	0.0162548
666.890	0.0162983
666.968	0.0160944
667.046	0.0160272
667.124	0.0161797
667.203	0.0162827
667.281	0.0162065
667.359	0.0162176
667.437	0.0161167
667.515	0.0161049
667.593	0.0161230
667.671	0.0162218
667.749	0.0162016
667.828	0.0160848
667.906	0.0162571
667.984	0.0161625
668.062	0.0160958
668.140	0.0160730
668.218	0.0161797
668.296	0.0162292
668.374	0.0160640
668.453	0.0160464
668.531	0.0161449
668.609	0.0161543
668.687	0.0161105
668.765	0.0162513
668.843	0.0160890
668.921	0.0160319
668.999	0.0161517
669.078	0.0160783
669.156	0.0159905
669.234	0.0161716
669.312	0.0161668
669.390	0.0162763
669.468	0.0161929
669.546	0.0159722
669.624	0.0161523
669.703	0.0161279
669.781	0.0161745
669.859	0.0160771
669.937	0.0161518
670.015	0.0161222
670.093	0.0160498
670.171	0.0160091
670.249	0.0159908
670.328	0.0161200
670.406	0.0160940
670.484	0.0159684
670.562	0.0161130
670.640	0.0160457
670.718	0.0160574
670.796	0.0160461
670.874	0.0161572
670.953	0.0161046
671.031	0.0159765
671.109	0.0159883
671.187	0.0161035
671.265	0.0160087
671.343	0.0160678
671.421	0.0160481
671.499	0.0160578
671.578	0.0159418
671.656	0.0159914
671.734	0.0160030
671.812	0.0160493
671.890	0.0160566
671.968	0.0160822
672.046	0.0160798
672.124	0.0161617
672.203	0.0159807
672.281	0.0161488
672.359	0.0161320
672.437	0.0160063
672.515	0.0162121
672.593	0.0160320
672.671	0.0160368
672.749	0.0162118
672.828	0.0161322
672.906	0.0161827
672.984	0.0160450
673.062	0.0162250
673.140	0.0162281
673.218	0.0161756
673.296	0.0161574
673.374	0.0161463
673.453	0.0161082
673.531	0.0161850
673.609	0.0163068
673.687	0.0162469
673.765	0.0161935
673.843	0.0161591
673.921	0.0161615
673.999	0.0161598
674.078	0.0160399
674.156	0.0161707
674.234	0.0161655
674.312	0.0161676
674.390	0.0162508
674.468	0.0162075
674.546	0.0162460
674.624	0.0162643
674.703	0.0160799
674.781	0.0162517
674.859	0.0162147
674.937	0.0161267
675.015	0.0161567
675.093	0.0161527
675.171	0.0162782
675.249	0.0162069
675.328	0.0160201
675.406	0.0162650
675.484	0.0162222
675.562	0.0161256
675.640	0.0161039
675.718	0.0161507
675.796	0.0162439
675.874	0.0161673
675.953	0.0162279
676.031	0.0161655
676.109	0.0162231
676.187	0.0160254
676.265	0.0161510
676.343	0.0161526
676.421	0.0160642
676.499	0.0161792
676.578	0.0162509
676.656	0.0161169
676.734	0.0162731
676.812	0.0162096
676.890	0.0161143
676.968	0.0162166
677.046	0.0161687
677.124	0.0163628
677.203	0.0161391
677.281	0.0161430
677.359	0.0162430
677.437	0.0161880
677.515	0.0160912
677.593	0.0161454
677.671	0.0161760
677.749	0.0162428
677.828	0.0161910
677.906	0.0161115
677.984	0.0161147
678.062	0.0160777
678.140	0.0161279
678.218	0.0161483
678.296	0.0161716
678.374	0.0160685
678.453	0.0160141
678.531	0.0160657
678.609	0.0162322
678.687	0.0161916
678.765	0.0160774
678.843	0.0160700
678.921	0.0160849
678.999	0.0161808
679.078	0.0161686
679.156	0.0163049
679.234	0.0161790
679.312	0.0162877
679.390	0.0161929
679.468	0.0162160
679.546	0.0162379
679.624	0.0162023
679.703	0.0160966
679.781	0.0161765
679.859	0.0161990
679.937	0.0162157
680.015	0.0161744
680.093	0.0162449
680.171	0.0163256
680.249	0.0160825
680.328	0.0162822
680.406	0.0161409
680.484	0.0162231
680.562	0.0163396
680.640	0.0162668
680.718	0.0161787
680.796	0.0162412
680.874	0.0161805
680.953	0.0160720
681.031	0.0163022
681.109	0.0161891
681.187	0.0161282
681.265	0.0162386
681.343	0.0162070
681.421	0.0161061
681.499	0.0161870
681.578	0.0161494
681.656	0.0160959
681.734	0.0161639
681.812	0.0161106
681.890	0.0162121
681.968	0.0162469
682.046	0.0162006
682.124	0.0161472
682.203	0.0162263
682.281	0.0162132
682.359	0.0162512
682.437	0.0162176
682.515	0.0163111
682.593	0.0163865
682.671	0.0161882
682.749	0.0161836
682.828	0.0161444
682.906	0.0163063
682.984	0.0163203
683.062	0.0162633
683.140	0.0161793
683.218	0.0163290
683.296	0.0161570
683.374	0.0162684
683.453	0.0163159
683.531	0.0161975
683.609	0.0162454
683.687	0.0161931
683.765	0.0162656
683.843	0.0162046
683.921	0.0163158
683.999	0.0162910
684.078	0.0163158
684.156	0.0162183
684.234	0.0161694
684.312	0.0161700
684.390	0.0161208
684.468	0.0163155
684.546	0.0165038
684.624	0.0163066
684.703	0.0162791
684.781	0.0163132
684.859	0.0161559
684.937	0.0163522
685.015	0.0164323
685.093	0.0161567
685.171	0.0163540
685.249	0.0162863
685.328	0.0162661
685.406	0.0163752
685.484	0.0162654
685.562	0.0163084
685.640	0.0162415
685.718	0.0163884
685.796	0.0162379
685.874	0.0161621
685.953	0.0162845
686.031	0.0163634
686.109	0.0162104
686.187	0.0161275
686.265	0.0162823
686.343	0.0162523
686.421	0.0162645
686.499	0.0162659
686.578	0.0161760
686.656	0.0159806
686.734	0.0162965
686.812	0.0160580
686.890	0.0161965
686.968	0.0162811
687.046	0.0162954
687.124	0.0163084
687.203	0.0162779
687.281	0.0162095
687.359	0.0163122
687.437	0.0161745
687.515	0.0162102
687.593	0.0162276
687.671	0.0163108
687.749	0.0162851
687.828	0.0161521
687.906	0.0162309
687.984	0.0162843
688.062	0.0160880
688.140	0.0161855
688.218	0.0164140
688.296	0.0162525
688.374	0.0162583
688.453	0.0162567
688.531	0.0162221
688.609	0.0162996
688.687	0.0162276
688.765	0.0161636
688.843	0.0161509
688.921	0.0162798
688.999	0.0163087
689.078	0.0162646
689.156	0.0161705
689.234	0.0161605
689.312	0.0161580
689.390	0.0161855
689.468	0.0162425
689.546	0.0161564
689.624	0.0161515
689.703	0.0161845
689.781	0.0162945
689.859	0.0162317
689.937	0.0164582
690.015	0.0161922
690.093	0.0162107
690.171	0.0160753
690.249	0.0160503
690.328	0.0162257
690.406	0.0161542
690.484	0.0162209
690.562	0.0161468
690.640	0.0161574
690.718	0.0161546
690.796	0.0161403
690.874	0.0162620
690.953	0.0162044
691.031	0.0161439
691.109	0.0161198
691.187	0.0160437
691.265	0.0161581
691.343	0.0162766
691.421	0.0161473
691.499	0.0160654
691.578	0.0160171
691.656	0.0161872
691.734	0.0161853
691.812	0.0162102
691.890	0.0160120
691.968	0.0161696
692.046	0.0162499
692.124	0.0161945
692.203	0.0160886
692.281	0.0162067
692.359	0.0161739
692.437	0.0162161
692.515	0.0162894
692.593	0.0161448
692.671	0.0161897
692.749	0.0161959
692.828	0.0161540
692.906	0.0162486
692.984	0.0161785
693.062	0.0161929
693.140	0.0161460
693.218	0.0160554
693.296	0.0163003
693.374	0.0161741
693.453	0.0162502
693.531	0.0163125
693.609	0.0161657
693.687	0.0161446
693.765	0.0163416
693.843	0.0161687
693.921	0.0162186
693.999	0.0162458
694.078	0.0162608
694.156	0.0162765
694.234	0.0162169
694.312	0.0161813
694.390	0.0161831
694.468	0.0161214
694.546	0.0162743
694.624	0.0163378
694.703	0.0161423
694.781	0.0160413
694.859	0.0164646
694.937	0.0162299
695.015	0.0161871
695.093	0.0161945
695.171	0.0162286
695.249	0.0163387
695.328	0.0163333
695.406	0.0162544
695.484	0.0162628
695.562	0.0161846
695.640	0.0161758
695.718	0.0163520
695.796	0.0164195
695.874	0.0162842
695.953	0.0163538
696.031	0.0162400
696.109	0.0162277
696.187	0.0161698
696.265	0.0161383
696.343	0.0162598
696.421	0.0162949
696.499	0.0163127
696.578	0.0163049
696.656	0.0163416
696.734	0.0162685
696.812	0.0161568
696.890	0.0162846
696.968	0.0163308
697.046	0.0162822
697.124	0.0161800
697.203	0.0160972
697.281	0.0162656
697.359	0.0162461
697.437	0.0162057
697.515	0.0160895
697.593	0.0161879
697.671	0.0162662
697.749	0.0161073
697.828	0.0161250
697.906	0.0161947
697.984	0.0161765
698.062	0.0163186
698.140	0.0161597
698.218	0.0161703
698.296	0.0161816
698.374	0.0160721
698.453	0.0162159
698.531	0.0161871
698.609	0.0162918
698.687	0.0161941
698.765	0.0161991
698.843	0.0161636
698.921	0.0161610
698.999	0.0161266
699.078	0.0163114
699.156	0.0161400
699.234	0.0161497
699.312	0.0162109
699.390	0.0161430
699.468	0.0162083
699.546	0.0160540
699.624	0.0161656
699.703	0.0161069
699.781	0.0161919
699.859	0.0161176
699.937	0.0162466
700.015	0.0162633
700.093	0.0159213
700.171	0.0160046
700.249	0.0161870
700.328	0.0163454
700.406	0.0162144
700.484	0.0161829
700.562	0.0159888
700.640	0.0161848
700.718	0.0162173
700.796	0.0161140
700.874	0.0160263
700.953	0.0162076
701.031	0.0161893
701.109	0.0160693
701.187	0.0160955
701.265	0.0160850
701.343	0.0161880
701.421	0.0162157
701.499	0.0160557
701.578	0.0161889
701.656	0.0161007
701.734	0.0160728
701.812	0.0161663
701.890	0.0161633
701.968	0.0161796
702.046	0.0162283
702.124	0.0160763
702.203	0.0162218
702.281	0.0162235
702.359	0.0161193
702.437	0.0160634
702.515	0.0160869
702.593	0.0161802
702.671	0.0162030
702.749	0.0161556
702.828	0.0162273
702.906	0.0160517
702.984	0.0161697
703.062	0.0162254
703.140	0.0163017
703.218	0.0162901
703.296	0.0162035
703.374	0.0161953
703.453	0.0162533
703.531	0.0161989
703.609	0.0161738
703.687	0.0162759
703.765	0.0161387
703.843	0.0161479
703.921	0.0162308
703.999	0.0163137
704.078	0.0163165
704.156	0.0161063
704.234	0.0161933
704.312	0.0162681
704.390	0.0162410
704.468	0.0161212
704.546	0.0162529
704.624	0.0162576
704.703	0.0162474
704.781	0.0161771
704.859	0.0161010
704.937	0.0162286
705.015	0.0160742
705.093	0.0161457
705.171	0.0162125
705.249	0.0161928
705.328	0.0162302
705.406	0.0162287
705.484	0.0160895
705.562	0.0161592
705.640	0.0162492
705.718	0.0163864
705.796	0.0162320
705.874	0.0161829
705.953	0.0161839
706.031	0.0161887
706.109	0.0163015
706.187	0.0163519
706.265	0.0162764
706.343	0.0161804
706.421	0.0161064
706.499	0.0162010
706.578	0.0162704
706.656	0.0162641
706.734	0.0162604
706.812	0.0162248
706.890	0.0162173
706.968	0.0163149
707.046	0.0163501
707.124	0.0163173
707.203	0.0162192
707.281	0.0161536
707.359	0.0162811
707.437	0.0163988
707.515	0.0162626
707.593	0.0161912
707.671	0.0163223
707.749	0.0162961
707.828	0.0162806
707.906	0.0163748
707.984	0.0163551
708.062	0.0162135
708.140	0.0162048
708.218	0.0163164
708.296	0.0163525
708.374	0.0163271
708.453	0.0162877
708.531	0.0163263
708.609	0.0161453
708.687	0.0163400
708.765	0.0164920
708.843	0.0163551
708.921	0.0164104
708.999	0.0163200
709.078	0.0163854
709.156	0.0162440
709.234	0.0163152
709.312	0.0163077
709.390	0.0162279
709.468	0.0163703
709.546	0.0163696
709.624	0.0163995
709.703	0.0162213
709.781	0.0163005
709.859	0.0162511
709.937	0.0162137
710.015	0.0163830
710.093	0.0164191
710.171	0.0163094
710.249	0.0163228
710.328	0.0163046
710.406	0.0163977
710.484	0.0163777
710.562	0.0163387
710.640	0.0162930
710.718	0.0162602
710.796	0.0162659
710.874	0.0164270
710.953	0.0164368
711.031	0.0163377
711.109	0.0163142
711.187	0.0163047
711.265	0.0165115
711.343	0.0162950
711.421	0.0163369
711.499	0.0164800
711.578	0.0164235
711.656	0.0164140
711.734	0.0162891
711.812	0.0163412
711.890	0.0161813
711.968	0.0161655
712.046	0.0162924
712.124	0.0163270
712.203	0.0163440
712.281	0.0161380
712.359	0.0162704
712.437	0.0163289
712.515	0.0163226
712.593	0.0161493
712.671	0.0163144
712.749	0.0164907
712.828	0.0163948
712.906	0.0164101
712.984	0.0164461
713.062	0.0163985
713.140	0.0164220
713.218	0.0164579
713.296	0.0164068
713.374	0.0163316
713.453	0.0163718
713.531	0.0163013
713.609	0.0162270
713.687	0.0161839
713.765	0.0162458
713.843	0.0160001
713.921	0.0160684
713.999	0.0162099
714.078	0.0160926
714.156	0.0160986
714.234	0.0162043
714.312	0.0162970
714.390	0.0161642
714.468	0.0163101
714.546	0.0161574
714.624	0.0163605
714.703	0.0161698
714.781	0.0162672
714.859	0.0163549
714.937	0.0163214
715.015	0.0163911
715.093	0.0163354
715.171	0.0162185
715.249	0.0161426
715.328	0.0162134
715.406	0.0163611
715.484	0.0161526
715.562	0.0162329
715.640	0.0161833
715.718	0.0160689
715.796	0.0161173
715.874	0.0162630
715.953	0.0160837
716.031	0.0160452
716.109	0.0161979
716.187	0.0161900
716.265	0.0163457
716.343	0.0161876
716.421	0.0162621
716.499	0.0161163
716.578	0.0161794
716.656	0.0162870
716.734	0.0162599
716.812	0.0160889
716.890	0.0162295
716.968	0.0161898
717.046	0.0163493
717.124	0.0162846
717.203	0.0162566
717.281	0.0162325
717.359	0.0162646
717.437	0.0164129
717.515	0.0164424
717.593	0.0163398
717.671	0.0164871
717.749	0.0163214
717.828	0.0163441
717.906	0.0161898
717.984	0.0161739
718.062	0.0161635
718.140	0.0159537
718.218	0.0160037
718.296	0.0160088
718.374	0.0161411
718.453	0.0159502
718.531	0.0159382
718.609	0.0159171
718.687	0.0160867
718.765	0.0161587
718.843	0.0161745
718.921	0.0163215
718.999	0.0162822
719.078	0.0163844
719.156	0.0163684
719.234	0.0164610
719.312	0.0164333
719.390	0.0164007
719.468	0.0164906
719.546	0.0163934
719.624	0.0163272
719.703	0.0162563
719.781	0.0162713
719.859	0.0163320
719.937	0.0162820
720.015	0.0160432
720.093	0.0161919
720.171	0.0160686
720.249	0.0160444
720.328	0.0161269
720.406	0.0160767
720.484	0.0161189
720.562	0.0159415
720.640	0.0159959
720.718	0.0160146
720.796	0.0161528
720.874	0.0160929
720.953	0.0160474
721.031	0.0161151
721.109	0.0161975
721.187	0.0162100
721.265	0.0160870
721.343	0.0162708
721.421	0.0161255
721.499	0.0161346
721.578	0.0161718
721.656	0.0161437
721.734	0.0161472
721.812	0.0161228
721.890	0.0161346
721.968	0.0161078
722.046	0.0161887
722.124	0.0161692
722.203	0.0160969
722.281	0.0160416
722.359	0.0162035
722.437	0.0159667
722.515	0.0159473
722.593	0.0162427
722.671	0.0160294
722.749	0.0161055
722.828	0.0161596
722.906	0.0160806
722.984	0.0159929
723.062	0.0160221
723.140	0.0159491
723.218	0.0161259
723.296	0.0159536
723.374	0.0159356
723.453	0.0161184
723.531	0.0160170
723.609	0.0161144
723.687	0.0162177
723.765	0.0161079
723.843	0.0161369
723.921	0.0160900
723.999	0.0161250
724.078	0.0162238
724.156	0.0161081
724.234	0.0161888
724.312	0.0161100
724.390	0.0160931
724.468	0.0161042
724.546	0.0161264
724.624	0.0159315
724.703	0.0160144
724.781	0.0160558
724.859	0.0159306
724.937	0.0160283
725.015	0.0160446
725.093	0.0160620
725.171	0.0160577
725.249	0.0159488
725.328	0.0159986
725.406	0.0160018
725.484	0.0160396
725.562	0.0161107
725.640	0.0161828
725.718	0.0160540
725.796	0.0161678
725.874	0.0160622
725.953	0.0162508
726.031	0.0160223
726.109	0.0159589
726.187	0.0162447
726.265	0.0162307
726.343	0.0160876
726.421	0.0161016
726.499	0.0162655
726.578	0.0160452
726.656	0.0160796
726.734	0.0160129
726.812	0.0161115
726.890	0.0161252
726.968	0.0160934
727.046	0.0161449
727.124	0.0159705
727.203	0.0161359
727.281	0.0160925
727.359	0.0160734
727.437	0.0160412
727.515	0.0162518
727.593	0.0162122
727.671	0.0160396
727.749	0.0160084
727.828	0.0161309
727.906	0.0160938
727.984	0.0160922
728.062	0.0160946
728.140	0.0160651
728.218	0.0158858
728.296	0.0161120
728.374	0.0162753
728.453	0.0160746
728.531	0.0161345
728.609	0.0161573
728.687	0.0160408
728.765	0.0161744
728.843	0.0161907
728.921	0.0161318
728.999	0.0160622
729.078	0.0160690
729.156	0.0159664
729.234	0.0161637
729.312	0.0160633
729.390	0.0159885
729.468	0.0161441
729.546	0.0161202
729.624	0.0162738
729.703	0.0161734
729.781	0.0160876
729.859	0.0161507
729.937	0.0162467
730.015	0.0162505
730.093	0.0161622
730.171	0.0161088
730.249	0.0161758
730.328	0.0162161
730.406	0.0159661
730.484	0.0161066
730.562	0.0160924
730.640	0.0161006
730.718	0.0162341
730.796	0.0161227
730.874	0.0160987
730.953	0.0161079
731.031	0.0164227
731.109	0.0163107
731.187	0.0161267
731.265	0.0163133
731.343	0.0161736
731.421	0.0163448
731.499	0.0162526
731.578	0.0161976
731.656	0.0161383
731.734	0.0161199
731.812	0.0161771
731.890	0.0162167
731.968	0.0164067
732.046	0.0162783
732.124	0.0161654
732.203	0.0162415
732.281	0.0161726
732.359	0.0162235
732.437	0.0161759
732.515	0.0162290
732.593	0.0161535
732.671	0.0160455
732.749	0.0161729
732.828	0.0162678
732.906	0.0163385
732.984	0.0162450
733.062	0.0162240
733.140	0.0161928
733.218	0.0162267
733.296	0.0162856
733.374	0.0162630
733.453	0.0161695
733.531	0.0162156
733.609	0.0160580
733.687	0.0163251
733.765	0.0161948
733.843	0.0162999
733.921	0.0163146
733.999	0.0161680
734.078	0.0161401
734.156	0.0161825
734.234	0.0163342
734.312	0.0162430
734.390	0.0161395
734.468	0.0162369
734.546	0.0162317
734.624	0.0161671
734.703	0.0162824
734.781	0.0162703
734.859	0.0161633
734.937	0.0162429
735.015	0.0163108
735.093	0.0162701
735.171	0.0161421
735.249	0.0161786
735.328	0.0161939
735.406	0.0162518
735.484	0.0163094
735.562	0.0162431
735.640	0.0161059
735.718	0.0160818
735.796	0.0163666
735.874	0.0163018
735.953	0.0161238
736.031	0.0161572
736.109	0.0161972
736.187	0.0160918
736.265	0.0160208
736.343	0.0161852
736.421	0.0161161
736.499	0.0161778
736.578	0.0161546
736.656	0.0159835
736.734	0.0160834
736.812	0.0161231
736.890	0.0161920
736.968	0.0161514
737.046	0.0161559
737.124	0.0161401
737.203	0.0161776
737.281	0.0161500
737.359	0.0162732
737.437	0.0161061
737.515	0.0159967
737.593	0.0162614
737.671	0.0160944
737.749	0.0162118
737.828	0.0161668
737.906	0.0161240
737.984	0.0160746
738.062	0.0161368
738.140	0.0161050
738.218	0.0162496
738.296	0.0161993
738.374	0.0160209
738.453	0.0160704
738.531	0.0162326
738.609	0.0161489
738.687	0.0160641
738.765	0.0161536
738.843	0.0161690
738.921	0.0161433
738.999	0.0161129
739.078	0.0162666
739.156	0.0160652
739.234	0.0159784
739.312	0.0161732
739.390	0.0164211
739.468	0.0161573
739.546	0.0161082
739.624	0.0161590
739.703	0.0161936
739.781	0.0162024
739.859	0.0161012
739.937	0.0160960
740.015	0.0161749
740.093	0.0162796
740.171	0.0160895
740.249	0.0162612
740.328	0.0162302
740.406	0.0162346
740.484	0.0161481
740.562	0.0161408
740.640	0.0161971
740.718	0.0162209
740.796	0.0161381
740.874	0.0161027
740.953	0.0161694
741.031	0.0162163
741.109	0.0160944
741.187	0.0161089
741.265	0.0160922
741.343	0.0162476
741.421	0.0161816
741.499	0.0160304
741.578	0.0162930
741.656	0.0163646
741.734	0.0162245
741.812	0.0160882
741.890	0.0162872
741.968	0.0161514
742.046	0.0161849
742.124	0.0162393
742.203	0.0161752
742.281	0.0161812
742.359	0.0161392
742.437	0.0161936
742.515	0.0161257
742.593	0.0161729
742.671	0.0161964
742.749	0.0162056
742.828	0.0161356
742.906	0.0161794
742.984	0.0160999
743.062	0.0160580
743.140	0.0159788
743.218	0.0161108
743.296	0.0161514
743.374	0.0161411
743.453	0.0162169
743.531	0.0160459
743.609	0.0162434
743.687	0.0161865
743.765	0.0161341
743.843	0.0161710
743.921	0.0161653
743.999	0.0160934
744.078	0.0161253
744.156	0.0160809
744.234	0.0162018
744.312	0.0161687
744.390	0.0161018
744.468	0.0160883
744.546	0.0161048
744.624	0.0160085
744.703	0.0160860
744.781	0.0160876
744.859	0.0161705
744.937	0.0160778
745.015	0.0161249
745.093	0.0161273
745.171	0.0161229
745.249	0.0161292
745.328	0.0160696
745.406	0.0161266
745.484	0.0159249
745.562	0.0161623
745.640	0.0161412
745.718	0.0161669
745.796	0.0161346
745.874	0.0159917
745.953	0.0160574
746.031	0.0161903
746.109	0.0161505
746.187	0.0161035
746.265	0.0162109
746.343	0.0160292
746.421	0.0160909
746.499	0.0161270
746.578	0.0162975
746.656	0.0162355
746.734	0.0161577
746.812	0.0161424
746.890	0.0161624
746.968	0.0161027
747.046	0.0159807
747.124	0.0160159
747.203	0.0159944
747.281	0.0160240
747.359	0.0159990
747.437	0.0160256
747.515	0.0162062
747.593	0.0160491
747.671	0.0160003
747.749	0.0160596
747.828	0.0160319
747.906	0.0160284
747.984	0.0158497
748.062	0.0160632
748.140	0.0161134
748.218	0.0159130
748.296	0.0160087
748.374	0.0159967
748.453	0.0160654
748.531	0.0160942
748.609	0.0159648
748.687	0.0159315
748.765	0.0161368
748.843	0.0160635
748.921	0.0159865
748.999	0.0160638
749.078	0.0160286
749.156	0.0159496
749.234	0.0159949
749.312	0.0159155
749.390	0.0160480
749.468	0.0158439
749.546	0.0159506
749.624	0.0158041
749.703	0.0160289
749.781	0.0160428
749.859	0.0161175
749.937	0.0160468
750.015	0.0160608
750.093	0.0161082
750.171	0.0159782
750.249	0.0160627
750.328	0.0160365
750.406	0.0160556
750.484	0.0161069
750.562	0.0161098
750.640	0.0160801
750.718	0.0161783
750.796	0.0160109
750.874	0.0161993
750.953	0.0158798
751.031	0.0159033
751.109	0.0161028
751.187	0.0160130
751.265	0.0161446
751.343	0.0161187
751.421	0.0159557
751.499	0.0161685
751.578	0.0161480
751.656	0.0160717
751.734	0.0160466
751.812	0.0161066
751.890	0.0161230
751.968	0.0161298
752.046	0.0160161
752.124	0.0161858
752.203	0.0161073
752.281	0.0161868
752.359	0.0162524
752.437	0.0161669
752.515	0.0161413
752.593	0.0161265
752.671	0.0161419
752.749	0.0160782
752.828	0.0160198
752.906	0.0160452
752.984	0.0160442
753.062	0.0162246
753.140	0.0162974
753.218	0.0161401
753.296	0.0160711
753.374	0.0162157
753.453	0.0162366
753.531	0.0160204
753.609	0.0161497
753.687	0.0162411
753.765	0.0162999
753.843	0.0162095
753.921	0.0160868
753.999	0.0162097
754.078	0.0160852
754.156	0.0162860
754.234	0.0161737
754.312	0.0162222
754.390	0.0161538
754.468	0.0162719
754.546	0.0161714
754.624	0.0161047
754.703	0.0163203
754.781	0.0161621
754.859	0.0161441
754.937	0.0163010
755.015	0.0162521
755.093	0.0162743
755.171	0.0162950
755.249	0.0163160
755.328	0.0162511
755.406	0.0162290
755.484	0.0163547
755.562	0.0163673
755.640	0.0162910
755.718	0.0162631
755.796	0.0163524
755.874	0.0163018
755.953	0.0162334
756.031	0.0162318
756.109	0.0162858
756.187	0.0162965
756.265	0.0161674
756.343	0.0163256
756.421	0.0162973
756.499	0.0162174
756.578	0.0161369
756.656	0.0160812
756.734	0.0162072
756.812	0.0162142
756.890	0.0162616
756.968	0.0162081
757.046	0.0162430
757.124	0.0161053
757.203	0.0161497
757.281	0.0162421
757.359	0.0162268
757.437	0.0160113
757.515	0.0161086
757.593	0.0162173
757.671	0.0161780
757.749	0.0161454
757.828	0.0160590
757.906	0.0162534
757.984	0.0162769
758.062	0.0162207
758.140	0.0161662
758.218	0.0162301
758.296	0.0161797
758.374	0.0161903
758.453	0.0162798
758.531	0.0162392
758.609	0.0162068
758.687	0.0162099
758.765	0.0162035
758.843	0.0161278
758.921	0.0161777
758.999	0.0163340
759.078	0.0163390
759.156	0.0162518
759.234	0.0162387
759.312	0.0162186
759.390	0.0161561
759.468	0.0162059
759.546	0.0162315
759.624	0.0160356
759.703	0.0161382
759.781	0.0161116
759.859	0.0160820
759.937	0.0160011
760.015	0.0160357
760.093	0.0162411
760.171	0.0160567
760.249	0.0159704
760.328	0.0161101
760.406	0.0160605
760.484	0.0159792
760.562	0.0161435
760.640	0.0160294
760.718	0.0160764
760.796	0.0161584
760.874	0.0161581
760.953	0.0160693
761.031	0.0160493
761.109	0.0162895
761.187	0.0164067
761.265	0.0162759
761.343	0.0161850
761.421	0.0163611
761.499	0.0163277
761.578	0.0162693
761.656	0.0162428
761.734	0.0163467
761.812	0.0162881
761.890	0.0162572
761.968	0.0163341
762.046	0.0163116
762.124	0.0162075
762.203	0.0161520
762.281	0.0160974
762.359	0.0162136
762.437	0.0162661
762.515	0.0161366
762.593	0.0160732
762.671	0.0161959
762.749	0.0161358
762.828	0.0162566
762.906	0.0160896
762.984	0.0160997
763.062	0.0161969
763.140	0.0161987
763.218	0.0161192
763.296	0.0162090
763.374	0.0160660
763.453	0.0161256
763.531	0.0161058
763.609	0.0162763
763.687	0.0163606
763.765	0.0161305
763.843	0.0161793
763.921	0.0159880
763.999	0.0162431
764.078	0.0163094
764.156	0.0162086
764.234	0.0162289
764.312	0.0161377
764.390	0.0162907
764.468	0.0163356
764.546	0.0162231
764.624	0.0163065
764.703	0.0163630
764.781	0.0162488
764.859	0.0164040
764.937	0.0162141
765.015	0.0162537
765.093	0.0164039
765.171	0.0161333
765.249	0.0163427
765.328	0.0163410
765.406	0.0164073
765.484	0.0162978
765.562	0.0164220
765.640	0.0163985
765.718	0.0163044
765.796	0.0162133
765.874	0.0164119
765.953	0.0163300
766.031	0.0163435
766.109	0.0164002
766.187	0.0163665
766.265	0.0162682
766.343	0.0162428
766.421	0.0161725
766.499	0.0162398
766.578	0.0162881
766.656	0.0163773
766.734	0.0162621
766.812	0.0162049
766.890	0.0163017
766.968	0.0163597
767.046	0.0162981
767.124	0.0161896
767.203	0.0162488
767.281	0.0161250
767.359	0.0162347
767.437	0.0161047
767.515	0.0160653
767.593	0.0162624
767.671	0.0161263
767.749	0.0163339
767.828	0.0161055
767.906	0.0160761
767.984	0.0160552
768.062	0.0161761
768.140	0.0160989
768.218	0.0161546
768.296	0.0163728
768.374	0.0162344
768.453	0.0163256
768.531	0.0163858
768.609	0.0163772
768.687	0.0163197
768.765	0.0163950
768.843	0.0164532
768.921	0.0164347
768.999	0.0165266
769.078	0.0164192
769.156	0.0162473
769.234	0.0163558
769.312	0.0163563
769.390	0.0163793
769.468	0.0162563
769.546	0.0162292
769.624	0.0162157
769.703	0.0162271
769.781	0.0162376
769.859	0.0161714
769.937	0.0161291
770.015	0.0162666
770.093	0.0162652
770.171	0.0161930
770.249	0.0161975
770.328	0.0161458
770.406	0.0161845
770.484	0.0160574
770.562	0.0161443
770.640	0.0161642
770.718	0.0159704
770.796	0.0161544
770.874	0.0160249
770.953	0.0159248
771.031	0.0160342
771.109	0.0160396
771.187	0.0161160
771.265	0.0161320
771.343	0.0161805
771.421	0.0161524
771.499	0.0161387
771.578	0.0162748
771.656	0.0163884
771.734	0.0162093
771.812	0.0162019
771.890	0.0161677
771.968	0.0161493
772.046	0.0162383
772.124	0.0163227
772.203	0.0162730
772.281	0.0161638
772.359	0.0161575
772.437	0.0162003
772.515	0.0160997
772.593	0.0161027
772.671	0.0161889
772.749	0.0161241
772.828	0.0161104
772.906	0.0161443
772.984	0.0161217
773.062	0.0162739
773.140	0.0162688
773.218	0.0163068
773.296	0.0164142
773.374	0.0162631
773.453	0.0164703
773.531	0.0163923
773.609	0.0164097
773.687	0.0163821
773.765	0.0163680
773.843	0.0163754
773.921	0.0164909
773.999	0.0164468
774.078	0.0163194
774.156	0.0163922
774.234	0.0163321
774.312	0.0162530
774.390	0.0162853
774.468	0.0162976
774.546	0.0162474
774.624	0.0163304
774.703	0.0163329
774.781	0.0162010
774.859	0.0162450
774.937	0.0162263
775.015	0.0161788
775.093	0.0162149
775.171	0.0161752
775.249	0.0161998
775.328	0.0161970
775.406	0.0162193
775.484	0.0162380
775.562	0.0162232
775.640	0.0161732
775.718	0.0162544
775.796	0.0161659
775.874	0.0163039
775.953	0.0162399
776.031	0.0161617
776.109	0.0162592
776.187	0.0161102
776.265	0.0161342
776.343	0.0161986
776.421	0.0162690
776.499	0.0161473
776.578	0.0161831
776.656	0.0161657
776.734	0.0163469
776.812	0.0163893
776.890	0.0162819
776.968	0.0163794
777.046	0.0163564
777.124	0.0162487
777.203	0.0163723
777.281	0.0163062
777.359	0.0161397
777.437	0.0163379
777.515	0.0163117
777.593	0.0163304
777.671	0.0162549
777.749	0.0162712
777.828	0.0163187
777.906	0.0163742
777.984	0.0163036
778.062	0.0163527
778.140	0.0162828
778.218	0.0163628
778.296	0.0164084
778.374	0.0164075
778.453	0.0163551
778.531	0.0163953
778.609	0.0164416
778.687	0.0164728
778.765	0.0162630
778.843	0.0163310
778.921	0.0164783
778.999	0.0162655
779.078	0.0163313
779.156	0.0162724
779.234	0.0164781
779.312	0.0163354
779.390	0.0163208
779.468	0.0161826
779.546	0.0163148
779.624	0.0163554
779.703	0.0163624
779.781	0.0163565
779.859	0.0164823
779.937	0.0162914
780.015	0.0162766
780.093	0.0164629
780.171	0.0163522
780.249	0.0164513
780.328	0.0163282
780.406	0.0162389
780.484	0.0162735
780.562	0.0161871
780.640	0.0162399
780.718	0.0161952
780.796	0.0161880
780.874	0.0162923
780.953	0.0162737
781.031	0.0161025
781.109	0.0161109
781.187	0.0161958
781.265	0.0161766
781.343	0.0161392
781.421	0.0159994
781.499	0.0160403
781.578	0.0159618
781.656	0.0157623
781.734	0.0157691
781.812	0.0159492
781.890	0.0159388
781.968	0.0159016
782.046	0.0158603
782.124	0.0161134
782.203	0.0159912
782.281	0.0160701
782.359	0.0161593
782.437	0.0161069
782.515	0.0162157
782.593	0.0161924
782.671	0.0161819
782.749	0.0163258
782.828	0.0162913
782.906	0.0164304
782.984	0.0164252
783.062	0.0164563
783.140	0.0165452
783.218	0.0166510
783.296	0.0166755
783.374	0.0167899
783.453	0.0168004
783.531	0.0167828
783.609	0.0168955
783.687	0.0169527
783.765	0.0169551
783.843	0.0168399
783.921	0.0167735
783.999	0.0167943
784.078	0.0166465
784.156	0.0166121
784.234	0.0166245
784.312	0.0165566
784.390	0.0163977
784.468	0.0164751
784.546	0.0163021
784.624	0.0161205
784.703	0.0160092
784.781	0.0160126
784.859	0.0160349
784.937	0.0159101
785.015	0.0159534
785.093	0.0158791
785.171	0.0157932
785.249	0.0160004
785.328	0.0159020
785.406	0.0158597
785.484	0.0159588
785.562	0.0161156
785.640	0.0162019
785.718	0.0160428
785.796	0.0160224
785.874	0.0162503
785.953	0.0162179
786.031	0.0163080
786.109	0.0162040
786.187	0.0161893
786.265	0.0162663
786.343	0.0162791
786.421	0.0162700
786.499	0.0163070
786.578	0.0163271
786.656	0.0162153
786.734	0.0163486
786.812	0.0163415
786.890	0.0161977
786.968	0.0162529
787.046	0.0162422
787.124	0.0160355
787.203	0.0162393
787.281	0.0160229
787.359	0.0162083
787.437	0.0161438
787.515	0.0158697
787.593	0.0162030
787.671	0.0162621
787.749	0.0160276
787.828	0.0162389
787.906	0.0162131
787.984	0.0162057
788.062	0.0162680
788.140	0.0161671
788.218	0.0161671
788.296	0.0161784
788.374	0.0162094
788.453	0.0165276
788.531	0.0163739
788.609	0.0163724
788.687	0.0164343
788.765	0.0165297
788.843	0.0165396
788.921	0.0166505
788.999	0.0166229
789.078	0.0165771
789.156	0.0166901
789.234	0.0165896
789.312	0.0166079
789.390	0.0165196
789.468	0.0166055
789.546	0.0164504
789.624	0.0164497
789.703	0.0165849
789.781	0.0163003
789.859	0.0163898
789.937	0.0163958
790.015	0.0163953
790.093	0.0162695
790.171	0.0162244
790.249	0.0161724
790.328	0.0160520
790.406	0.0161095
790.484	0.0161535
790.562	0.0160432
790.640	0.0159626
790.718	0.0159729
790.796	0.0159599
790.874	0.0160831
790.953	0.0158968
791.031	0.0158530
791.109	0.0158797
791.187	0.0158733
791.265	0.0157442
791.343	0.0157982
791.421	0.0158344
791.499	0.0156805
791.578	0.0157479
791.656	0.0157258
791.734	0.0157131
791.812	0.0158245
791.890	0.0158433
791.968	0.0157027
792.046	0.0157501
792.124	0.0158463
792.203	0.0159332
792.281	0.0159599
792.359	0.0159479
792.437	0.0160741
792.515	0.0159375
792.593	0.0161938
792.671	0.0163110
792.749	0.0163290
792.828	0.0164315
792.906	0.0164548
792.984	0.0165247
793.062	0.0165744
793.140	0.0166181
793.218	0.0166691
793.296	0.0167185
793.374	0.0168245
793.453	0.0168967
793.531	0.0167669
793.609	0.0168526
793.687	0.0168261
793.765	0.0168748
793.843	0.0167154
793.921	0.0167730
793.999	0.0165297
794.078	0.0165544
794.156	0.0165308
794.234	0.0166111
794.312	0.0165573
794.390	0.0164142
794.468	0.0163834
794.546	0.0163184
794.624	0.0162917
794.703	0.0161281
794.781	0.0162245
794.859	0.0162199
794.937	0.0161340
795.015	0.0159270
795.093	0.0158704
795.171	0.0158031
795.249	0.0158250
795.328	0.0158141
795.406	0.0157320
795.484	0.0156879
795.562	0.0157036
795.640	0.0156723
795.718	0.0157063
795.796	0.0156770
795.874	0.0157429
795.953	0.0158408
796.031	0.0158459
796.109	0.0158372
796.187	0.0158902
796.265	0.0160699
796.343	0.0160368
796.421	0.0160841
796.499	0.0161481
796.578	0.0161632
796.656	0.0163415
796.734	0.0163180
796.812	0.0163692
796.890	0.0163535
796.968	0.0163585
797.046	0.0161995
797.124	0.0161816
797.203	0.0161984
797.281	0.0162132
797.359	0.0159598
797.437	0.0159822
797.515	0.0160765
797.593	0.0160408
797.671	0.0159261
797.749	0.0157690
797.828	0.0158215
797.906	0.0158344
797.984	0.0158275
798.062	0.0158612
798.140	0.0156342
798.218	0.0158507
798.296	0.0159031
798.374	0.0158873
798.453	0.0161014
798.531	0.0162418
798.609	0.0163216
798.687	0.0163999
798.765	0.0166801
798.843	0.0168266
798.921	0.0169221
798.999	0.0168933
799.078	0.0170658
799.156	0.0171417
799.234	0.0171508
799.312	0.0170457
799.390	0.0171540
799.468	0.0172829
799.546	0.0172567
799.624	0.0172038
799.703	0.0169444
799.781	0.0170251
799.859	0.0169790
799.937	0.0167700
800.015	0.0168227
800.093	0.0167577
800.171	0.0166201
800.249	0.0165664
800.328	0.0164071
800.406	0.0160210
800.484	0.0160902
800.562	0.0157170
800.640	0.0158279
800.718	0.0156298
800.796	0.0154820
800.874	0.0153413
800.953	0.0151110
801.031	0.0150188
801.109	0.0149756
801.187	0.0149767
801.265	0.0149565
801.343	0.0150164
801.421	0.0151788
801.499	0.0150167
801.578	0.0152402
801.656	0.0152398
801.734	0.0153221
801.812	0.0153701
801.890	0.0154911
801.968	0.0156779
802.046	0.0157530
802.124	0.0159100
802.203	0.0161138
802.281	0.0160089
802.359	0.0161848
802.437	0.0165586
802.515	0.0165170
802.593	0.0166199
802.671	0.0166673
802.749	0.0167037
802.828	0.0168890
802.906	0.0168323
802.984	0.0169567
803.062	0.0169527
803.140	0.0169423
803.218	0.0168388
803.296	0.0168089
803.374	0.0167718
803.453	0.0169894
803.531	0.0168309
803.609	0.0167062
803.687	0.0166460
803.765	0.0165805
803.843	0.0166456
803.921	0.0167460
803.999	0.0166797
804.078	0.0166212
804.156	0.0165739
804.234	0.0166020
804.312	0.0164625
804.390	0.0164308
804.468	0.0164973
804.546	0.0162770
804.624	0.0162760
804.703	0.0161899
804.781	0.0159825
804.859	0.0160842
804.937	0.0159569
805.015	0.0159709
805.093	0.0159422
805.171	0.0159506
805.249	0.0159774
805.328	0.0158647
805.406	0.0158656
805.484	0.0159109
805.562	0.0158761
805.640	0.0157439
805.718	0.0158105
805.796	0.0158955
805.874	0.0160088
805.953	0.0159000
806.031	0.0158157
806.109	0.0158018
806.187	0.0159909
806.265	0.0159693
806.343	0.0159746
806.421	0.0159822
806.499	0.0160789
806.578	0.0158174
806.656	0.0158698
806.734	0.0159544
806.812	0.0159800
806.890	0.0159045
806.968	0.0158586
807.046	0.0159937
807.124	0.0158421
807.203	0.0159649
807.281	0.0159888
807.359	0.0159119
807.437	0.0159205
807.515	0.0159024
807.593	0.0158834
807.671	0.0160514
807.749	0.0159787
807.828	0.0158858
807.906	0.0159834
807.984	0.0160174
808.062	0.0161362
808.140	0.0160883
808.218	0.0162170
808.296	0.0161916
808.374	0.0164138
808.453	0.0164982
808.531	0.0165507
808.609	0.0165958
808.687	0.0166129
808.765	0.0167873
808.843	0.0169489
808.921	0.0169077
808.999	0.0169555
809.078	0.0170525
809.156	0.0169218
809.234	0.0170074
809.312	0.0170512
809.390	0.0170082
809.468	0.0168481
809.546	0.0169835
809.624	0.0168323
809.703	0.0169131
809.781	0.0167258
809.859	0.0166520
809.937	0.0167310
810.015	0.0164722
810.093	0.0163063
810.171	0.0162903
810.249	0.0162633
810.328	0.0161813
810.406	0.0160254
810.484	0.0158958
810.562	0.0158746
810.640	0.0156350
810.718	0.0156455
810.796	0.0157660
810.874	0.0156487
810.953	0.0153533
811.031	0.0154633
811.109	0.0155476
811.187	0.0156885
811.265	0.0155499
811.343	0.0154905
811.421	0.0155260
811.499	0.0156330
811.578	0.0155636
811.656	0.0157603
811.734	0.0157066
811.812	0.0158097
811.890	0.0157957
811.968	0.0158838
812.046	0.0160403
812.124	0.0161618
812.203	0.0160363
812.281	0.0160538
812.359	0.0162002
812.437	0.0162458
812.515	0.0162522
812.593	0.0162168
812.671	0.0164666
812.749	0.0165097
812.828	0.0162735
812.906	0.0163718
812.984	0.0164389
813.062	0.0165340
813.140	0.0164851
813.218	0.0164287
813.296	0.0164149
813.374	0.0161978
813.453	0.0162540
813.531	0.0162746
813.609	0.0162372
813.687	0.0161544
813.765	0.0160409
813.843	0.0162572
813.921	0.0161627
813.999	0.0161008
814.078	0.0162057
814.156	0.0161349
814.234	0.0162290
814.312	0.0162706
814.390	0.0161874
814.468	0.0162804
814.546	0.0162997
814.624	0.0162998
814.703	0.0163193
814.781	0.0162563
814.859	0.0162968
814.937	0.0163189
815.015	0.0164315
815.093	0.0163578
815.171	0.0164429
815.249	0.0164590
815.328	0.0165456
815.406	0.0163244
815.484	0.0162822
815.562	0.0164195
815.640	0.0163831
815.718	0.0160741
815.796	0.0161539
815.874	0.0161227
815.953	0.0160884
816.031	0.0160239
816.109	0.0159963
816.187	0.0159811
816.265	0.0159369
816.343	0.0158436
816.421	0.0158665
816.499	0.0158730
816.578	0.0159096
816.656	0.0157985
816.734	0.0159895
816.812	0.0158505
816.890	0.0159151
816.968	0.0158180
817.046	0.0159163
817.124	0.0159038
817.203	0.0158746
817.281	0.0158326
817.359	0.0158649
817.437	0.0157622
817.515	0.0158527
817.593	0.0158262
817.671	0.0158053
817.749	0.0158268
817.828	0.0159224
817.906	0.0158416
817.984	0.0158772
818.062	0.0158373
818.140	0.0156905
818.218	0.0157773
818.296	0.0157919
818.374	0.0158589
818.453	0.0158257
818.531	0.0158889
818.609	0.0160380
818.687	0.0161692
818.765	0.0161772
818.843	0.0160403
818.921	0.0162200
818.999	0.0164180
819.078	0.0164456
819.156	0.0165723
819.234	0.0166112
819.312	0.0167316
819.390	0.0167949
819.468	0.0167310
819.546	0.0167729
819.624	0.0169444
819.703	0.0168966
819.781	0.0169641
819.859	0.0168027
819.937	0.0168913
820.015	0.0168509
820.093	0.0168205
820.171	0.0167000
820.249	0.0166258
820.328	0.0165981
820.406	0.0165975
820.484	0.0164683
820.562	0.0164095
820.640	0.0163903
820.718	0.0161657
820.796	0.0160156
820.874	0.0160447
820.953	0.0159661
821.031	0.0158397
821.109	0.0156748
821.187	0.0157091
821.265	0.0157461
821.343	0.0153887
821.421	0.0154272
821.499	0.0153233
821.578	0.0153433
821.656	0.0153938
821.734	0.0153310
821.812	0.0153442
821.890	0.0154317
821.968	0.0154136
822.046	0.0154380
822.124	0.0154660
822.203	0.0155266
822.281	0.0156699
822.359	0.0157207
822.437	0.0158724
822.515	0.0159492
822.593	0.0162164
822.671	0.0161779
822.749	0.0162950
822.828	0.0162268
822.906	0.0163053
822.984	0.0164699
823.062	0.0164746
823.140	0.0166675
823.218	0.0166307
823.296	0.0166068
823.374	0.0166626
823.453	0.0165687
823.531	0.0167947
823.609	0.0167591
823.687	0.0166978
823.765	0.0167332
823.843	0.0165091
823.921	0.0163608
823.999	0.0162549
824.078	0.0164091
824.156	0.0161793
824.234	0.0161261
824.312	0.0160169
824.390	0.0160062
824.468	0.0159813
824.546	0.0158524
824.624	0.0158178
824.703	0.0160523
824.781	0.0158753
824.859	0.0158501
824.937	0.0158204
825.015	0.0158043
825.093	0.0159679
825.171	0.0159930
825.249	0.0159633
825.328	0.0159840
825.406	0.0160280
825.484	0.0160233
825.562	0.0161562
825.640	0.0162962
825.718	0.0162111
825.796	0.0162339
825.874	0.0162315
825.953	0.0163866
826.031	0.0162543
826.109	0.0164240
826.187	0.0163764
826.265	0.0164192
826.343	0.0164712
826.421	0.0164462
826.499	0.0162579
826.578	0.0161736
826.656	0.0162566
826.734	0.0160358
826.812	0.0160791
826.890	0.0161095
826.968	0.0158839
827.046	0.0158109
827.124	0.0158899
827.203	0.0156662
827.281	0.0157082
827.359	0.0156724
827.437	0.0157079
827.515	0.0155682
827.593	0.0155956
827.671	0.0155941
827.749	0.0156057
827.828	0.0157806
827.906	0.0158445
827.984	0.0158636
828.062	0.0160295
828.140	0.0160748
828.218	0.0159851
828.296	0.0161236
828.374	0.0161800
828.453	0.0162344
828.531	0.0163383
828.609	0.0163257
828.687	0.0164223
828.765	0.0163591
828.843	0.0164664
828.921	0.0164782
828.999	0.0163551
829.078	0.0165815
829.156	0.0166096
829.234	0.0164793
829.312	0.0166479
829.390	0.0166197
829.468	0.0166813
829.546	0.0164783
829.624	0.0164109
829.703	0.0165143
829.781	0.0166077
829.859	0.0163708
829.937	0.0163592
830.015	0.0165218
830.093	0.0163599
830.171	0.0163253
830.249	0.0162328
830.328	0.0162577
830.406	0.0162329
830.484	0.0160648
830.562	0.0161752
830.640	0.0161819
830.718	0.0159814
830.796	0.0159944
830.874	0.0159790
830.953	0.0159264
831.031	0.0158865
831.109	0.0158201
831.187	0.0157928
831.265	0.0158736
831.343	0.0158537
831.421	0.0159678
831.499	0.0159087
831.578	0.0158607
831.656	0.0158038
831.734	0.0160318
831.812	0.0160827
831.890	0.0161405
831.968	0.0161002
832.046	0.0160214
832.124	0.0161519
832.203	0.0160159
832.281	0.0159062
832.359	0.0160883
832.437	0.0160145
832.515	0.0160709
832.593	0.0159893
832.671	0.0161072
832.749	0.0162339
832.828	0.0162473
832.906	0.0160835
832.984	0.0161530
833.062	0.0162024
833.140	0.0160560
833.218	0.0161243
833.296	0.0163878
833.374	0.0162875
833.453	0.0163085
833.531	0.0163460
833.609	0.0163035
833.687	0.0162646
833.765	0.0164355
833.843	0.0164475
833.921	0.0163621
833.999	0.0163097
834.078	0.0162816
834.156	0.0164510
834.234	0.0162672
834.312	0.0162522
834.390	0.0160886
834.468	0.0161638
834.546	0.0161379
834.624	0.0162010
834.703	0.0160421
834.781	0.0161705
834.859	0.0162154
834.937	0.0160288
835.015	0.0159808
835.093	0.0159965
835.171	0.0161481
835.249	0.0161206
835.328	0.0162077
835.406	0.0159841
835.484	0.0160744
835.562	0.0161311
835.640	0.0161930
835.718	0.0161832
835.796	0.0162043
835.874	0.0161971
835.953	0.0162401
836.031	0.0161922
836.109	0.0163635
836.187	0.0162331
836.265	0.0163013
836.343	0.0162904
836.421	0.0162186
836.499	0.0161828
836.578	0.0163100
836.656	0.0162574
836.734	0.0161898
836.812	0.0162324
836.890	0.0161980
836.968	0.0162281
837.046	0.0161070
837.124	0.0160243
837.203	0.0159473
837.281	0.0159508
837.359	0.0158932
837.437	0.0160669
837.515	0.0159512
837.593	0.0159632
837.671	0.0159028
837.749	0.0158917
837.828	0.0160795
837.906	0.0160000
837.984	0.0158961
838.062	0.0160863
838.140	0.0161930
838.218	0.0160751
838.296	0.0160044
838.374	0.0160242
838.453	0.0162560
838.531	0.0161781
838.609	0.0161651
838.687	0.0162151
838.765	0.0163033
838.843	0.0163043
838.921	0.0163342
838.999	0.0161713
839.078	0.0162175
839.156	0.0162387
839.234	0.0161315
839.312	0.0162445
839.390	0.0161988
839.468	0.0162165
839.546	0.0162157
839.624	0.0161150
839.703	0.0160284
839.781	0.0160826
839.859	0.0161429
839.937	0.0161854
840.015	0.0161390
840.093	0.0160395
840.171	0.0160716
840.249	0.0161737
840.328	0.0161868
840.406	0.0160168
840.484	0.0161272
840.562	0.0160814
840.640	0.0160365
840.718	0.0160446
840.796	0.0161591
840.874	0.0160851
840.953	0.0161252
841.031	0.0160967
841.109	0.0160845
841.187	0.0161294
841.265	0.0161430
841.343	0.0160905
841.421	0.0159646
841.499	0.0161575
841.578	0.0162127
841.656	0.0162659
841.734	0.0161578
841.812	0.0160202
841.890	0.0160519
841.968	0.0161208
842.046	0.0162989
842.124	0.0163063
842.203	0.0161650
842.281	0.0162737
842.359	0.0162662
842.437	0.0163323
842.515	0.0162688
842.593	0.0163264
842.671	0.0162927
842.749	0.0161211
842.828	0.0162116
842.906	0.0163526
842.984	0.0162723
843.062	0.0163218
843.140	0.0162788
843.218	0.0163209
843.296	0.0162306
843.374	0.0162711
843.453	0.0162228
843.531	0.0160956
843.609	0.0160440
843.687	0.0160469
843.765	0.0159351
843.843	0.0160318
843.921	0.0159026
843.999	0.0159860
844.078	0.0159076
844.156	0.0159157
844.234	0.0159758
844.312	0.0159476
844.390	0.0161513
844.468	0.0160428
844.546	0.0159850
844.624	0.0160344
844.703	0.0160574
844.781	0.0161201
844.859	0.0160532
844.937	0.0160816
845.015	0.0161524
845.093	0.0161239
845.171	0.0161047
845.249	0.0162289
845.328	0.0162222
845.406	0.0162412
845.484	0.0163240
845.562	0.0162769
845.640	0.0164369
845.718	0.0164586
845.796	0.0163330
845.874	0.0163792
845.953	0.0166158
846.031	0.0166379
846.109	0.0164354
846.187	0.0165050
846.265	0.0164721
846.343	0.0165524
846.421	0.0164348
846.499	0.0164357
846.578	0.0163741
846.656	0.0162142
846.734	0.0162739
846.812	0.0162235
846.890	0.0162222
846.968	0.0161682
847.046	0.0159064
847.124	0.0159543
847.203	0.0160659
847.281	0.0160738
847.359	0.0158961
847.437	0.0161378
847.515	0.0159464
847.593	0.0160667
847.671	0.0159395
847.749	0.0159570
847.828	0.0160072
847.906	0.0161356
847.984	0.0160784
848.062	0.0160783
848.140	0.0160960
848.218	0.0162308
848.296	0.0163077
848.374	0.0160805
848.453	0.0161493
848.531	0.0163447
848.609	0.0163700
848.687	0.0163650
848.765	0.0162754
848.843	0.0163113
848.921	0.0163659
848.999	0.0164230
849.078	0.0163953
849.156	0.0162287
849.234	0.0163129
849.312	0.0163055
849.390	0.0163033
849.468	0.0161954
849.546	0.0160822
849.624	0.0163346
849.703	0.0161138
849.781	0.0159804
849.859	0.0161172
849.937	0.0162190
850.015	0.0161886
850.093	0.0160857
850.171	0.0160174
850.249	0.0161164
850.328	0.0159935
850.406	0.0161059
850.484	0.0159413
850.562	0.0159948
850.640	0.0160275
850.718	0.0162284
850.796	0.0162086
850.874	0.0160982
850.953	0.0160738
851.031	0.0160727
851.109	0.0161591
851.187	0.0160362
851.265	0.0160942
851.343	0.0159354
851.421	0.0160049
851.499	0.0159585
851.578	0.0160519
851.656	0.0158881
851.734	0.0158942
851.812	0.0160157
851.890	0.0159860
851.968	0.0158448
852.046	0.0158717
852.124	0.0159438
852.203	0.0159110
852.281	0.0160332
852.359	0.0159972
852.437	0.0160711
852.515	0.0162321
852.593	0.0161605
852.671	0.0164399
852.749	0.0164198
852.828	0.0164346
852.906	0.0165167
852.984	0.0165311
853.062	0.0166914
853.140	0.0167088
853.218	0.0165127
853.296	0.0164507
853.374	0.0166404
853.453	0.0167281
853.531	0.0166386
853.609	0.0165245
853.687	0.0166687
853.765	0.0163714
853.843	0.0163276
853.921	0.0162506
853.999	0.0162532
854.078	0.0161772
854.156	0.0162387
854.234	0.0162100
854.312	0.0160919
854.390	0.0160312
854.468	0.0158506
854.546	0.0160195
854.624	0.0160504
854.703	0.0159365
854.781	0.0159812
854.859	0.0159103
854.937	0.0159651
855.015	0.0160709
855.093	0.0160694
855.171	0.0160733
855.249	0.0161697
855.328	0.0159614
855.406	0.0161829
855.484	0.0161498
855.562	0.0161407
855.640	0.0160318
855.718	0.0162519
855.796	0.0159989
855.874	0.0160126
855.953	0.0160081
856.031	0.0160036
856.109	0.0160820
856.187	0.0162017
856.265	0.0160352
856.343	0.0160703
856.421	0.0160906
856.499	0.0160777
856.578	0.0161301
856.656	0.0160620
856.734	0.0160557
856.812	0.0160847
856.890	0.0161610
856.968	0.0160440
857.046	0.0162080
857.124	0.0162640
857.203	0.0161060
857.281	0.0162807
857.359	0.0163217
857.437	0.0161859
857.515	0.0161940
857.593	0.0161427
857.671	0.0162019
857.749	0.0162565
857.828	0.0161874
857.906	0.0163224
857.984	0.0162286
858.062	0.0161615
858.140	0.0162115
858.218	0.0162674
858.296	0.0163840
858.374	0.0163264
858.453	0.0162778
858.531	0.0162086
858.609	0.0162460
858.687	0.0161269
858.765	0.0162289
858.843	0.0164343
858.921	0.0163507
858.999	0.0161871
859.078	0.0163056
859.156	0.0163719
859.234	0.0163680
859.312	0.0164446
859.390	0.0163161
859.468	0.0162138
859.546	0.0163592
859.624	0.0161987
859.703	0.0162588
859.781	0.0162775
859.859	0.0162460
859.937	0.0162856
860.015	0.0161916
860.093	0.0162128
860.171	0.0161175
860.249	0.0162534
860.328	0.0161949
860.406	0.0164124
860.484	0.0162611
860.562	0.0162079
860.640	0.0163700
860.718	0.0163562
860.796	0.0162766
860.874	0.0163393
860.953	0.0162957
861.031	0.0162865
861.109	0.0163230
861.187	0.0162918
861.265	0.0162794
861.343	0.0161390
861.421	0.0163069
861.499	0.0162191
861.578	0.0161238
861.656	0.0161711
861.734	0.0162209
861.812	0.0160714
861.890	0.0161369
861.968	0.0160870
862.046	0.0161960
862.124	0.0160975
862.203	0.0160320
862.281	0.0161082
862.359	0.0161917
862.437	0.0160800
862.515	0.0160780
862.593	0.0161383
862.671	0.0162669
862.749	0.0162712
862.828	0.0161412
862.906	0.0162642
862.984	0.0163312
863.062	0.0164059
863.140	0.0164732
863.218	0.0164103
863.296	0.0163753
863.374	0.0164311
863.453	0.0163348
863.531	0.0163014
863.609	0.0162958
863.687	0.0163023
863.765	0.0163807
863.843	0.0164527
863.921	0.0163163
863.999	0.0163567
864.078	0.0162614
864.156	0.0162738
864.234	0.0163454
864.312	0.0162350
864.390	0.0163327
864.468	0.0163155
864.546	0.0164666
864.624	0.0163236
864.703	0.0164349
864.781	0.0163577
864.859	0.0162811
864.937	0.0163117
865.015	0.0162973
865.093	0.0162492
865.171	0.0163837
865.249	0.0163033
865.328	0.0163505
865.406	0.0163068
865.484	0.0162727
865.562	0.0161238
865.640	0.0163395
865.718	0.0161974
865.796	0.0160782
865.874	0.0161820
865.953	0.0161966
866.031	0.0163586
866.109	0.0162254
866.187	0.0162097
866.265	0.0162267
866.343	0.0162027
866.421	0.0162608
866.499	0.0161614
866.578	0.0161341
866.656	0.0163194
866.734	0.0162261
866.812	0.0161885
866.890	0.0160541
866.968	0.0162802
867.046	0.0161457
867.124	0.0162069
867.203	0.0162848
867.281	0.0161530
867.359	0.0162666
867.437	0.0162521
867.515	0.0162325
867.593	0.0162395
867.671	0.0162349
867.749	0.0163089
867.828	0.0162350
867.906	0.0160695
867.984	0.0161809
868.062	0.0162341
868.140	0.0163213
868.218	0.0163241
868.296	0.0160759
868.374	0.0161639
868.453	0.0161148
868.531	0.0160903
868.609	0.0161732
868.687	0.0161777
868.765	0.0160580
868.843	0.0159787
868.921	0.0160841
868.999	0.0160558
869.078	0.0160579
869.156	0.0160258
869.234	0.0161606
869.312	0.0161323
869.390	0.0161197
869.468	0.0161808
869.546	0.0163390
869.624	0.0163451
869.703	0.0163151
869.781	0.0163498
869.859	0.0161945
869.937	0.0162529
870.015	0.0163397
870.093	0.0163576
870.171	0.0163555
870.249	0.0162571
870.328	0.0163663
870.406	0.0164506
870.484	0.0162458
870.562	0.0161493
870.640	0.0161346
870.718	0.0163437
870.796	0.0162800
870.874	0.0162617
870.953	0.0162596
871.031	0.0160369
871.109	0.0161118
871.187	0.0160529
871.265	0.0161003
871.343	0.0160712
871.421	0.0161356
871.499	0.0162658
871.578	0.0162086
871.656	0.0163567
871.734	0.0161637
871.812	0.0160828
871.890	0.0162254
871.968	0.0161645
872.046	0.0161607
872.124	0.0160566
872.203	0.0161752
872.281	0.0163044
872.359	0.0162747
872.437	0.0161898
872.515	0.0161708
872.593	0.0162962
872.671	0.0162013
872.749	0.0162657
872.828	0.0161823
872.906	0.0162296
872.984	0.0162812
873.062	0.0162087
873.140	0.0163934
873.218	0.0162494
873.296	0.0162250
873.374	0.0162602
873.453	0.0162959
873.531	0.0162102
873.609	0.0162316
873.687	0.0162021
873.765	0.0161686
873.843	0.0161082
873.921	0.0161813
873.999	0.0160413
874.078	0.0160276
874.156	0.0160219
874.234	0.0161204
874.312	0.0161079
874.390	0.0160476
874.468	0.0160252
874.546	0.0159863
874.624	0.0161502
874.703	0.0159702
874.781	0.0161262
874.859	0.0160407
874.937	0.0160883
875.015	0.0160526
875.093	0.0161967
875.171	0.0162443
875.249	0.0161652
875.328	0.0162490
875.406	0.0162528
875.484	0.0163187
875.562	0.0163717
875.640	0.0162799
875.718	0.0163097
875.796	0.0163786
875.874	0.0163363
875.953	0.0165759
876.031	0.0163705
876.109	0.0163652
876.187	0.0164207
876.265	0.0164003
876.343	0.0162717
876.421	0.0162437
876.499	0.0162338
876.578	0.0160802
876.656	0.0161647
876.734	0.0163376
876.812	0.0161318
876.890	0.0162307
876.968	0.0161404
877.046	0.0161305
877.124	0.0160950
877.203	0.0159480
877.281	0.0159774
877.359	0.0161665
877.437	0.0161817
877.515	0.0162188
877.593	0.0161476
877.671	0.0160847
877.749	0.0160847
877.828	0.0161320
877.906	0.0161833
877.984	0.0162267
878.062	0.0162884
878.140	0.0163240
878.218	0.0162516
878.296	0.0161697
878.374	0.0161624
878.453	0.0163020
878.531	0.0164197
878.609	0.0162640
878.687	0.0161734
878.765	0.0161604
878.843	0.0162032
878.921	0.0162415
878.999	0.0162637
879.078	0.0160903
879.156	0.0161636
879.234	0.0161647
879.312	0.0161613
879.390	0.0160609
879.468	0.0161073
879.546	0.0161007
879.624	0.0160886
879.703	0.0160079
879.781	0.0160873
879.859	0.0160042
879.937	0.0161050
880.015	0.0160677
880.093	0.0161682
880.171	0.0160555
880.249	0.0160770
880.328	0.0161514
880.406	0.0160548
880.484	0.0161391
880.562	0.0163055
880.640	0.0160934
880.718	0.0162091
880.796	0.0162814
880.874	0.0163789
880.953	0.0162283
881.031	0.0164349
881.109	0.0163585
881.187	0.0163319
881.265	0.0162823
881.343	0.0163863
881.421	0.0163174
881.499	0.0163616
881.578	0.0163530
881.656	0.0161545
881.734	0.0161541
881.812	0.0162859
881.890	0.0161693
881.968	0.0159354
882.046	0.0161533
882.124	0.0160549
882.203	0.0160589
882.281	0.0161331
882.359	0.0161151
882.437	0.0161005
882.515	0.0160406
882.593	0.0160590
882.671	0.0159908
882.749	0.0161176
882.828	0.0160609
882.906	0.0160216
882.984	0.0163139
883.062	0.0161088
883.140	0.0160631
883.218	0.0160923
883.296	0.0160939
883.374	0.0162580
883.453	0.0161811
883.531	0.0161977
883.609	0.0161832
883.687	0.0162037
883.765	0.0160634
883.843	0.0161398
883.921	0.0163112
883.999	0.0163017
884.078	0.0162312
884.156	0.0163183
884.234	0.0163165
884.312	0.0161757
884.390	0.0163160
884.468	0.0163297
884.546	0.0162189
884.624	0.0162028
884.703	0.0162202
884.781	0.0163845
884.859	0.0162619
884.937	0.0161868
885.015	0.0162767
885.093	0.0161796
885.171	0.0163390
885.249	0.0162379
885.328	0.0162614
885.406	0.0161690
885.484	0.0163287
885.562	0.0161993
885.640	0.0163244
885.718	0.0163493
885.796	0.0162971
885.874	0.0163400
885.953	0.0161791
886.031	0.0162366
886.109	0.0162019
886.187	0.0162443
886.265	0.0163364
886.343	0.0163068
886.421	0.0162447
886.499	0.0161683
886.578	0.0162052
886.656	0.0162894
886.734	0.0164249
886.812	0.0163327
886.890	0.0162946
886.968	0.0162548
887.046	0.0163127
887.124	0.0164601
887.203	0.0164637
887.281	0.0162513
887.359	0.0162020
887.437	0.0161347
887.515	0.0162608
887.593	0.0161114
887.671	0.0162621
887.749	0.0162260
887.828	0.0162409
887.906	0.0163191
887.984	0.0160720
888.062	0.0160497
888.140	0.0161342
888.218	0.0161853
888.296	0.0162971
888.374	0.0160371
888.453	0.0162101
888.531	0.0163162
888.609	0.0162425
888.687	0.0161676
888.765	0.0162120
888.843	0.0162710
888.921	0.0161574
888.999	0.0163239
889.078	0.0164295
889.156	0.0163007
889.234	0.0162009
889.312	0.0162536
889.390	0.0162395
889.468	0.0162005
889.546	0.0160841
889.624	0.0161664
889.703	0.0164452
889.781	0.0162663
889.859	0.0161460
889.937	0.0163290
890.015	0.0163217
890.093	0.0161584
890.171	0.0162824
890.249	0.0163376
890.328	0.0162320
890.406	0.0163814
890.484	0.0163822
890.562	0.0164234
890.640	0.0163787
890.718	0.0161691
890.796	0.0163186
890.874	0.0162903
890.953	0.0162521
891.031	0.0163151
891.109	0.0162690
891.187	0.0161081
891.265	0.0162202
891.343	0.0162440
891.421	0.0162347
891.499	0.0162003
891.578	0.0161801
891.656	0.0162125
891.734	0.0160743
891.812	0.0160920
891.890	0.0162585
891.968	0.0161112
892.046	0.0160651
892.124	0.0161141
892.203	0.0161230
892.281	0.0160751
892.359	0.0161160
892.437	0.0160857
892.515	0.0160612
892.593	0.0159782
892.671	0.0161333
892.749	0.0161252
892.828	0.0161154
892.906	0.0161076
892.984	0.0163529
893.062	0.0162138
893.140	0.0162036
893.218	0.0162003
893.296	0.0162089
893.374	0.0163495
893.453	0.0162860
893.531	0.0161948
893.609	0.0162687
893.687	0.0161737
893.765	0.0161954
893.843	0.0160300
893.921	0.0161714
893.999	0.0161816
894.078	0.0160515
894.156	0.0161457
894.234	0.0161135
894.312	0.0161212
894.390	0.0161045
894.468	0.0160036
894.546	0.0159641
894.624	0.0159337
894.703	0.0160303
894.781	0.0160187
894.859	0.0159353
894.937	0.0160194
895.015	0.0159783
895.093	0.0160064
895.171	0.0158590
895.249	0.0160412
895.328	0.0160355
895.406	0.0160000
895.484	0.0162395
895.562	0.0161459
895.640	0.0160688
895.718	0.0158975
895.796	0.0161954
895.874	0.0162232
895.953	0.0162033
896.031	0.0162573
896.109	0.0162350
896.187	0.0163994
896.265	0.0162505
896.343	0.0162083
896.421	0.0163233
896.499	0.0163782
896.578	0.0163476
896.656	0.0162482
896.734	0.0162666
896.812	0.0163671
896.890	0.0161181
896.968	0.0162042
897.046	0.0162121
897.124	0.0161964
897.203	0.0159965
897.281	0.0161407
897.359	0.0161872
897.437	0.0160751
897.515	0.0160970
897.593	0.0161515
897.671	0.0160484
897.749	0.0160837
897.828	0.0160275
897.906	0.0161188
897.984	0.0162288
898.062	0.0159690
898.140	0.0160074
898.218	0.0161320
898.296	0.0161005
898.374	0.0160728
898.453	0.0160595
898.531	0.0160860
898.609	0.0160712
898.687	0.0159259
898.765	0.0161909
898.843	0.0161406
898.921	0.0161830
898.999	0.0161136
899.078	0.0161191
899.156	0.0161694
899.234	0.0161388
899.312	0.0162085
899.390	0.0163319
899.468	0.0163477
899.546	0.0163548
899.624	0.0163066
899.703	0.0162265
899.781	0.0162165
899.859	0.0163778
899.937	0.0162231
900.015	0.0161720
900.093	0.0162247
900.171	0.0161828
900.249	0.0160957
900.328	0.0160906
900.406	0.0161687
900.484	0.0160202
900.562	0.0160050
900.640	0.0158288
900.718	0.0158734
900.796	0.0159068
900.874	0.0158902
900.953	0.0159763
901.031	0.0159649
901.109	0.0160110
901.187	0.0158897
901.265	0.0159042
901.343	0.0158636
901.421	0.0158917
901.499	0.0159289
901.578	0.0160835
901.656	0.0160880
901.734	0.0161095
901.812	0.0160236
901.890	0.0161361
901.968	0.0162743
902.046	0.0162170
902.124	0.0162672
902.203	0.0161755
902.281	0.0162585
902.359	0.0162200
902.437	0.0161455
902.515	0.0163078
902.593	0.0159999
902.671	0.0161488
902.749	0.0163503
902.828	0.0162744
902.906	0.0161118
902.984	0.0162622
903.062	0.0163100
903.140	0.0164871
903.218	0.0162506
903.296	0.0161098
903.374	0.0162580
903.453	0.0163514
903.531	0.0163131
903.609	0.0162162
903.687	0.0163456
903.765	0.0163570
903.843	0.0164167
903.921	0.0162833
903.999	0.0163162
904.078	0.0163563
904.156	0.0163710
904.234	0.0163746
904.312	0.0165135
904.390	0.0163850
904.468	0.0163297
904.546	0.0163171
904.624	0.0162766
904.703	0.0162722
904.781	0.0162679
904.859	0.0162514
904.937	0.0160588
905.015	0.0161617
905.093	0.0160897
905.171	0.0161481
905.249	0.0162153
905.328	0.0161662
905.406	0.0162164
905.484	0.0162531
905.562	0.0161687
905.640	0.0162722
905.718	0.0163261
905.796	0.0162595
905.874	0.0163740
905.953	0.0164643
906.031	0.0162771
906.109	0.0163575
906.187	0.0164892
906.265	0.0163816
906.343	0.0162846
906.421	0.0161424
906.499	0.0163438
906.578	0.0160674
906.656	0.0162077
906.734	0.0162616
906.812	0.0161271
906.890	0.0159498
906.968	0.0160624
907.046	0.0159085
907.124	0.0161860
907.203	0.0161969
907.281	0.0160633
907.359	0.0160076
907.437	0.0160892
907.515	0.0160814
907.593	0.0160608
907.671	0.0161751
907.749	0.0161903
907.828	0.0161288
907.906	0.0161607
907.984	0.0163608
908.062	0.0162712
908.140	0.0162683
908.218	0.0163136
908.296	0.0163080
908.374	0.0163580
908.453	0.0163896
908.531	0.0164860
908.609	0.0165410
908.687	0.0164127
908.765	0.0164916
908.843	0.0164095
908.921	0.0165447
908.999	0.0163754
909.078	0.0163823
909.156	0.0164018
909.234	0.0164349
909.312	0.0163837
909.390	0.0162206
909.468	0.0163467
909.546	0.0163441
909.624	0.0163657
909.703	0.0162160
909.781	0.0163336
909.859	0.0163044
909.937	0.0162963
910.015	0.0163821
910.093	0.0162942
910.171	0.0163203
910.249	0.0163296
910.328	0.0163261
910.406	0.0163369
910.484	0.0165518
910.562	0.0164497
910.640	0.0162112
910.718	0.0161803
910.796	0.0163345
910.874	0.0163524
910.953	0.0162476
911.031	0.0160935
911.109	0.0162080
911.187	0.0161411
911.265	0.0162023
911.343	0.0161537
911.421	0.0160773
911.499	0.0160300
911.578	0.0161737
911.656	0.0160841
911.734	0.0157985
911.812	0.0159126
911.890	0.0159377
911.968	0.0159528
912.046	0.0159434
912.124	0.0160995
912.203	0.0160540
912.281	0.0160266
912.359	0.0161746
912.437	0.0160945
912.515	0.0160577
912.593	0.0159666
912.671	0.0158108
912.749	0.0159439
912.828	0.0159549
912.906	0.0159793
912.984	0.0160497
913.062	0.0159638
913.140	0.0159569
913.218	0.0160574
913.296	0.0160038
913.374	0.0160139
913.453	0.0159032
913.531	0.0158923
913.609	0.0159395
913.687	0.0161590
913.765	0.0159879
913.843	0.0159261
913.921	0.0161127
913.999	0.0162054
914.078	0.0161241
914.156	0.0161158
914.234	0.0161736
914.312	0.0162022
914.390	0.0160882
914.468	0.0162357
914.546	0.0163883
914.624	0.0163157
914.703	0.0162520
914.781	0.0163211
914.859	0.0163411
914.937	0.0163264
915.015	0.0163937
915.093	0.0163107
915.171	0.0163861
915.249	0.0163728
915.328	0.0163613
915.406	0.0163414
915.484	0.0163148
915.562	0.0161338
915.640	0.0162078
915.718	0.0163313
915.796	0.0163190
915.874	0.0163366
915.953	0.0162195
916.031	0.0162195
916.109	0.0164375
916.187	0.0165151
916.265	0.0164416
916.343	0.0162241
916.421	0.0162247
916.499	0.0162768
916.578	0.0162049
916.656	0.0163400
916.734	0.0161324
916.812	0.0163425
916.890	0.0162875
916.968	0.0161292
917.046	0.0162566
917.124	0.0161093
917.203	0.0161344
917.281	0.0161018
917.359	0.0160839
917.437	0.0160716
917.515	0.0160612
917.593	0.0159702
917.671	0.0157344
917.749	0.0157808
917.828	0.0159558
917.906	0.0157534
917.984	0.0158287
918.062	0.0159253
918.140	0.0157234
918.218	0.0158462
918.296	0.0157742
918.374	0.0158756
918.453	0.0158398
918.531	0.0158996
918.609	0.0158347
918.687	0.0157708
918.765	0.0158382
918.843	0.0160915
918.921	0.0159196
918.999	0.0159495
919.078	0.0159465
919.156	0.0159193
919.234	0.0159051
919.312	0.0159540
919.390	0.0158361
919.468	0.0159499
919.546	0.0161732
919.624	0.0161104
919.703	0.0160571
919.781	0.0162083
919.859	0.0160900
919.937	0.0160883
