05/06/2022	18:37:08	Ver.	4.1	UNKNOWN
Optical Delay	600.021766	Delta X		0.078125	Sweeps	1	Scan Rate	0/0
Coordinates	Axis 1	NaN	Axis 2	NaN	Axis 3	NaN	Axis 4	NaN	Axis 5	NaN	Axis 6	0.000000
TX Power	0.000000	RX Power	0.000000

600.022	0.0132092
600.100	0.0132120
600.178	0.0132771
600.256	0.0132266
600.334	0.0132131
600.412	0.0133214
600.491	0.0132323
600.569	0.0132738
600.647	0.0132511
600.725	0.0132568
600.803	0.0133135
600.881	0.0130451
600.959	0.0130805
601.037	0.0132050
601.116	0.0133514
601.194	0.0132368
601.272	0.0131741
601.350	0.0132160
601.428	0.0133317
601.506	0.0131795
601.584	0.0133730
601.662	0.0133024
601.741	0.0132321
601.819	0.0131686
601.897	0.0132452
601.975	0.0133102
602.053	0.0131798
602.131	0.0130665
602.209	0.0133180
602.287	0.0131942
602.366	0.0131637
602.444	0.0133165
602.522	0.0132816
602.600	0.0131750
602.678	0.0131319
602.756	0.0132079
602.834	0.0132153
602.912	0.0132561
602.991	0.0132560
603.069	0.0131992
603.147	0.0133044
603.225	0.0131895
603.303	0.0132556
603.381	0.0131601
603.459	0.0130924
603.537	0.0132655
603.616	0.0131828
603.694	0.0131554
603.772	0.0131364
603.850	0.0132777
603.928	0.0132020
604.006	0.0132256
604.084	0.0132038
604.162	0.0132444
604.241	0.0131632
604.319	0.0133540
604.397	0.0132143
604.475	0.0131454
604.553	0.0131304
604.631	0.0132476
604.709	0.0132449
604.787	0.0132373
604.866	0.0132716
604.944	0.0131744
605.022	0.0132372
605.100	0.0131297
605.178	0.0131422
605.256	0.0133597
605.334	0.0132854
605.412	0.0133007
605.491	0.0131876
605.569	0.0132763
605.647	0.0132384
605.725	0.0131268
605.803	0.0132316
605.881	0.0131411
605.959	0.0133403
606.037	0.0134258
606.116	0.0131236
606.194	0.0130050
606.272	0.0132705
606.350	0.0131204
606.428	0.0133007
606.506	0.0134628
606.584	0.0131281
606.662	0.0132286
606.741	0.0133188
606.819	0.0131975
606.897	0.0131517
606.975	0.0132661
607.053	0.0132693
607.131	0.0131988
607.209	0.0133694
607.287	0.0132886
607.366	0.0132241
607.444	0.0131794
607.522	0.0132001
607.600	0.0132452
607.678	0.0133144
607.756	0.0132380
607.834	0.0131947
607.912	0.0131644
607.991	0.0134000
608.069	0.0131296
608.147	0.0131792
608.225	0.0131612
608.303	0.0131781
608.381	0.0130990
608.459	0.0131793
608.537	0.0133375
608.616	0.0132389
608.694	0.0131517
608.772	0.0132397
608.850	0.0132944
608.928	0.0130913
609.006	0.0132507
609.084	0.0131996
609.162	0.0132381
609.241	0.0132433
609.319	0.0131357
609.397	0.0132339
609.475	0.0131654
609.553	0.0132475
609.631	0.0131702
609.709	0.0131559
609.787	0.0131808
609.866	0.0133491
609.944	0.0132142
610.022	0.0131070
610.100	0.0131654
610.178	0.0132412
610.256	0.0132064
610.334	0.0132866
610.412	0.0133817
610.491	0.0131827
610.569	0.0133249
610.647	0.0132631
610.725	0.0130693
610.803	0.0133186
610.881	0.0133210
610.959	0.0133270
611.037	0.0132876
611.116	0.0133438
611.194	0.0131821
611.272	0.0131584
611.350	0.0131836
611.428	0.0131834
611.506	0.0132447
611.584	0.0132540
611.662	0.0132076
611.741	0.0133261
611.819	0.0132969
611.897	0.0132554
611.975	0.0133175
612.053	0.0132526
612.131	0.0131666
612.209	0.0131489
612.287	0.0131457
612.366	0.0131345
612.444	0.0132098
612.522	0.0132531
612.600	0.0132323
612.678	0.0133233
612.756	0.0132562
612.834	0.0131252
612.912	0.0132292
612.991	0.0132065
613.069	0.0132520
613.147	0.0132653
613.225	0.0132028
613.303	0.0133391
613.381	0.0133212
613.459	0.0132658
613.537	0.0131586
613.616	0.0132627
613.694	0.0131080
613.772	0.0130740
613.850	0.0131654
613.928	0.0131621
614.006	0.0132014
614.084	0.0132955
614.162	0.0132324
614.241	0.0131810
614.319	0.0132606
614.397	0.0132719
614.475	0.0131312
614.553	0.0131757
614.631	0.0133755
614.709	0.0132982
614.787	0.0131914
614.866	0.0132100
614.944	0.0132463
615.022	0.0131540
615.100	0.0132143
615.178	0.0133177
615.256	0.0131276
615.334	0.0132964
615.412	0.0132481
615.491	0.0132527
615.569	0.0132671
615.647	0.0132327
615.725	0.0131643
615.803	0.0132530
615.881	0.0130566
615.959	0.0132287
616.037	0.0131501
616.116	0.0132188
616.194	0.0130915
616.272	0.0131364
616.350	0.0132214
616.428	0.0130727
616.506	0.0132170
616.584	0.0133434
616.662	0.0133210
616.741	0.0132219
616.819	0.0131940
616.897	0.0130612
616.975	0.0131176
617.053	0.0132968
617.131	0.0132385
617.209	0.0131110
617.287	0.0132759
617.366	0.0133155
617.444	0.0132556
617.522	0.0131776
617.600	0.0132300
617.678	0.0132079
617.756	0.0130808
617.834	0.0132153
617.912	0.0130396
617.991	0.0131770
618.069	0.0131969
618.147	0.0132485
618.225	0.0130515
618.303	0.0133015
618.381	0.0133762
618.459	0.0132478
618.537	0.0131165
618.616	0.0132420
618.694	0.0131541
618.772	0.0132700
618.850	0.0131184
618.928	0.0132058
619.006	0.0133311
619.084	0.0131271
619.162	0.0132362
619.241	0.0132388
619.319	0.0131985
619.397	0.0132649
619.475	0.0132265
619.553	0.0133045
619.631	0.0131451
619.709	0.0131834
619.787	0.0131769
619.866	0.0132784
619.944	0.0131638
620.022	0.0132787
620.100	0.0132078
620.178	0.0133061
620.256	0.0132205
620.334	0.0131598
620.412	0.0132450
620.491	0.0132378
620.569	0.0132033
620.647	0.0131628
620.725	0.0132511
620.803	0.0133622
620.881	0.0131861
620.959	0.0132296
621.037	0.0131841
621.116	0.0131905
621.194	0.0133044
621.272	0.0132101
621.350	0.0132424
621.428	0.0132551
621.506	0.0131173
621.584	0.0132289
621.662	0.0132949
621.741	0.0132478
621.819	0.0131805
621.897	0.0131258
621.975	0.0131824
622.053	0.0131152
622.131	0.0132468
622.209	0.0132709
622.287	0.0131072
622.366	0.0132255
622.444	0.0132211
622.522	0.0132277
622.600	0.0132888
622.678	0.0131396
622.756	0.0132095
622.834	0.0132983
622.912	0.0130796
622.991	0.0131932
623.069	0.0132159
623.147	0.0132288
623.225	0.0131496
623.303	0.0131511
623.381	0.0132465
623.459	0.0132103
623.537	0.0132218
623.616	0.0132277
623.694	0.0132166
623.772	0.0132229
623.850	0.0131930
623.928	0.0132495
624.006	0.0132654
624.084	0.0131632
624.162	0.0132005
624.241	0.0131638
624.319	0.0132156
624.397	0.0132340
624.475	0.0132868
624.553	0.0131194
624.631	0.0131432
624.709	0.0132120
624.787	0.0131999
624.866	0.0132497
624.944	0.0132443
625.022	0.0132253
625.100	0.0131146
625.178	0.0132496
625.256	0.0132355
625.334	0.0133167
625.412	0.0131935
625.491	0.0131565
625.569	0.0131775
625.647	0.0133030
625.725	0.0132507
625.803	0.0131910
625.881	0.0132345
625.959	0.0132068
626.037	0.0132142
626.116	0.0132461
626.194	0.0132006
626.272	0.0131617
626.350	0.0131430
626.428	0.0131754
626.506	0.0132609
626.584	0.0133092
626.662	0.0132001
626.741	0.0132031
626.819	0.0133678
626.897	0.0132045
626.975	0.0132138
627.053	0.0132701
627.131	0.0132224
627.209	0.0132522
627.287	0.0131708
627.366	0.0132275
627.444	0.0130646
627.522	0.0133652
627.600	0.0132504
627.678	0.0132013
627.756	0.0131416
627.834	0.0131506
627.912	0.0132882
627.991	0.0131319
628.069	0.0131300
628.147	0.0131987
628.225	0.0133166
628.303	0.0132946
628.381	0.0131081
628.459	0.0132622
628.537	0.0132895
628.616	0.0132504
628.694	0.0131860
628.772	0.0133248
628.850	0.0132878
628.928	0.0130874
629.006	0.0132833
629.084	0.0132832
629.162	0.0132846
629.241	0.0132581
629.319	0.0133569
629.397	0.0131308
629.475	0.0132690
629.553	0.0132990
629.631	0.0132697
629.709	0.0132561
629.787	0.0132104
629.866	0.0132207
629.944	0.0132434
630.022	0.0131571
630.100	0.0132852
630.178	0.0131811
630.256	0.0132686
630.334	0.0133090
630.412	0.0133912
630.491	0.0131044
630.569	0.0131350
630.647	0.0133000
630.725	0.0131753
630.803	0.0131343
630.881	0.0131625
630.959	0.0130523
631.037	0.0131895
631.116	0.0132693
631.194	0.0133082
631.272	0.0131905
631.350	0.0132395
631.428	0.0131824
631.506	0.0131234
631.584	0.0131098
631.662	0.0131892
631.741	0.0132340
631.819	0.0132420
631.897	0.0131481
631.975	0.0133409
632.053	0.0131373
632.131	0.0132381
632.209	0.0131602
632.287	0.0132159
632.366	0.0131346
632.444	0.0131150
632.522	0.0132372
632.600	0.0133074
632.678	0.0132076
632.756	0.0131726
632.834	0.0132429
632.912	0.0131647
632.991	0.0131567
633.069	0.0132128
633.147	0.0130045
633.225	0.0132108
633.303	0.0132251
633.381	0.0132224
633.459	0.0131149
633.537	0.0132223
633.616	0.0132346
633.694	0.0131650
633.772	0.0131764
633.850	0.0131865
633.928	0.0132187
634.006	0.0133486
634.084	0.0132130
634.162	0.0131863
634.241	0.0132125
634.319	0.0131978
634.397	0.0132109
634.475	0.0132638
634.553	0.0132322
634.631	0.0131990
634.709	0.0131691
634.787	0.0132217
634.866	0.0131539
634.944	0.0132525
635.022	0.0132903
635.100	0.0131838
635.178	0.0133096
635.256	0.0132639
635.334	0.0131319
635.412	0.0132318
635.491	0.0132811
635.569	0.0132964
635.647	0.0131472
635.725	0.0131633
635.803	0.0132158
635.881	0.0132894
635.959	0.0132217
636.037	0.0131157
636.116	0.0130837
636.194	0.0133073
636.272	0.0130817
636.350	0.0131756
636.428	0.0132191
636.506	0.0133355
636.584	0.0133138
636.662	0.0132295
636.741	0.0131059
636.819	0.0130969
636.897	0.0132304
636.975	0.0132393
637.053	0.0132622
637.131	0.0131530
637.209	0.0133231
637.287	0.0132435
637.366	0.0132607
637.444	0.0132234
637.522	0.0131931
637.600	0.0131638
637.678	0.0131482
637.756	0.0132719
637.834	0.0131950
637.912	0.0130799
637.991	0.0131733
638.069	0.0131229
638.147	0.0131641
638.225	0.0133476
638.303	0.0133677
638.381	0.0131691
638.459	0.0132000
638.537	0.0131786
638.616	0.0132952
638.694	0.0131886
638.772	0.0131040
638.850	0.0132361
638.928	0.0132895
639.006	0.0132549
639.084	0.0132687
639.162	0.0131719
639.241	0.0132919
639.319	0.0133260
639.397	0.0132600
639.475	0.0132719
639.553	0.0133582
639.631	0.0130984
639.709	0.0131861
639.787	0.0132638
639.866	0.0131354
639.944	0.0133240
640.022	0.0133994
640.100	0.0131956
640.178	0.0133378
640.256	0.0133569
640.334	0.0132204
640.412	0.0132427
640.491	0.0133237
640.569	0.0131434
640.647	0.0132626
640.725	0.0132912
640.803	0.0131857
640.881	0.0132838
640.959	0.0132259
641.037	0.0134460
641.116	0.0132365
641.194	0.0131842
641.272	0.0132670
641.350	0.0132932
641.428	0.0132448
641.506	0.0133273
641.584	0.0132221
641.662	0.0132581
641.741	0.0132680
641.819	0.0133562
641.897	0.0132597
641.975	0.0130564
642.053	0.0131602
642.131	0.0132013
642.209	0.0132784
642.287	0.0132101
642.366	0.0132544
642.444	0.0131342
642.522	0.0131335
642.600	0.0132734
642.678	0.0131542
642.756	0.0133910
642.834	0.0132551
642.912	0.0131383
642.991	0.0132239
643.069	0.0132428
643.147	0.0132388
643.225	0.0132599
643.303	0.0132591
643.381	0.0133208
643.459	0.0132922
643.537	0.0132938
643.616	0.0132098
643.694	0.0131456
643.772	0.0131852
643.850	0.0131936
643.928	0.0132396
644.006	0.0133038
644.084	0.0131824
644.162	0.0132708
644.241	0.0132579
644.319	0.0131538
644.397	0.0131300
644.475	0.0132146
644.553	0.0132693
644.631	0.0131530
644.709	0.0131186
644.787	0.0131527
644.866	0.0132610
644.944	0.0131786
645.022	0.0132691
645.100	0.0132716
645.178	0.0133985
645.256	0.0132236
645.334	0.0130760
645.412	0.0133606
645.491	0.0133580
645.569	0.0131892
645.647	0.0132420
645.725	0.0132674
645.803	0.0131612
645.881	0.0131403
645.959	0.0132494
646.037	0.0131817
646.116	0.0131450
646.194	0.0133349
646.272	0.0132303
646.350	0.0133669
646.428	0.0131821
646.506	0.0133062
646.584	0.0132491
646.662	0.0132088
646.741	0.0130849
646.819	0.0131571
646.897	0.0133006
646.975	0.0133275
647.053	0.0132777
647.131	0.0132677
647.209	0.0132316
647.287	0.0132227
647.366	0.0132590
647.444	0.0130658
647.522	0.0133204
647.600	0.0132681
647.678	0.0133973
647.756	0.0131024
647.834	0.0132052
647.912	0.0132982
647.991	0.0133138
648.069	0.0132285
648.147	0.0132822
648.225	0.0131625
648.303	0.0132038
648.381	0.0133548
648.459	0.0132056
648.537	0.0132567
648.616	0.0132851
648.694	0.0131670
648.772	0.0131775
648.850	0.0130502
648.928	0.0130026
649.006	0.0133247
649.084	0.0133228
649.162	0.0131926
649.241	0.0132096
649.319	0.0131223
649.397	0.0130871
649.475	0.0131970
649.553	0.0130775
649.631	0.0131360
649.709	0.0132235
649.787	0.0132506
649.866	0.0131766
649.944	0.0132267
650.022	0.0131889
650.100	0.0132035
650.178	0.0130691
650.256	0.0131473
650.334	0.0131026
650.412	0.0131245
650.491	0.0133654
650.569	0.0132780
650.647	0.0132067
650.725	0.0132142
650.803	0.0132787
650.881	0.0131746
650.959	0.0131886
651.037	0.0132293
651.116	0.0133331
651.194	0.0131828
651.272	0.0131505
651.350	0.0133382
651.428	0.0131608
651.506	0.0130413
651.584	0.0131942
651.662	0.0132962
651.741	0.0132236
651.819	0.0131746
651.897	0.0132435
651.975	0.0133208
652.053	0.0132764
652.131	0.0131055
652.209	0.0131870
652.287	0.0132678
652.366	0.0131905
652.444	0.0132133
652.522	0.0131678
652.600	0.0131986
652.678	0.0132371
652.756	0.0130599
652.834	0.0131728
652.912	0.0131819
652.991	0.0131556
653.069	0.0130428
653.147	0.0132417
653.225	0.0131498
653.303	0.0132549
653.381	0.0131445
653.459	0.0131926
653.537	0.0132742
653.616	0.0134042
653.694	0.0132438
653.772	0.0131957
653.850	0.0132079
653.928	0.0131529
654.006	0.0132601
654.084	0.0132904
654.162	0.0132285
654.241	0.0131827
654.319	0.0131317
654.397	0.0131409
654.475	0.0131699
654.553	0.0131184
654.631	0.0131297
654.709	0.0132551
654.787	0.0133073
654.866	0.0131395
654.944	0.0132497
655.022	0.0133060
655.100	0.0131091
655.178	0.0130811
655.256	0.0131718
655.334	0.0133044
655.412	0.0131614
655.491	0.0131290
655.569	0.0132748
655.647	0.0132348
655.725	0.0131530
655.803	0.0130534
655.881	0.0132986
655.959	0.0133615
656.037	0.0132388
656.116	0.0131607
656.194	0.0132505
656.272	0.0131380
656.350	0.0131863
656.428	0.0133286
656.506	0.0132808
656.584	0.0132279
656.662	0.0134312
656.741	0.0133001
656.819	0.0131907
656.897	0.0133253
656.975	0.0132400
657.053	0.0131783
657.131	0.0131802
657.209	0.0131684
657.287	0.0132379
657.366	0.0132214
657.444	0.0132012
657.522	0.0131382
657.600	0.0133688
657.678	0.0132498
657.756	0.0130724
657.834	0.0132397
657.912	0.0133142
657.991	0.0132967
658.069	0.0131081
658.147	0.0132267
658.225	0.0131767
658.303	0.0130907
658.381	0.0131509
658.459	0.0133029
658.537	0.0133332
658.616	0.0130554
658.694	0.0131825
658.772	0.0131929
658.850	0.0133146
658.928	0.0132058
659.006	0.0132570
659.084	0.0133379
659.162	0.0131718
659.241	0.0130694
659.319	0.0131924
659.397	0.0131983
659.475	0.0131960
659.553	0.0131745
659.631	0.0132004
659.709	0.0132111
659.787	0.0132476
659.866	0.0131512
659.944	0.0132178
660.022	0.0131799
660.100	0.0132208
660.178	0.0133535
660.256	0.0131644
660.334	0.0132740
660.412	0.0131925
660.491	0.0132361
660.569	0.0132403
660.647	0.0131255
660.725	0.0132655
660.803	0.0131280
660.881	0.0131569
660.959	0.0132926
661.037	0.0131491
661.116	0.0132498
661.194	0.0133924
661.272	0.0132260
661.350	0.0132562
661.428	0.0131669
661.506	0.0131101
661.584	0.0131696
661.662	0.0131602
661.741	0.0130855
661.819	0.0132393
661.897	0.0130907
661.975	0.0130769
662.053	0.0131963
662.131	0.0131921
662.209	0.0132623
662.287	0.0132915
662.366	0.0132104
662.444	0.0133930
662.522	0.0131597
662.600	0.0133234
662.678	0.0132882
662.756	0.0133179
662.834	0.0132391
662.912	0.0132414
662.991	0.0132538
663.069	0.0132048
663.147	0.0132658
663.225	0.0132562
663.303	0.0131425
663.381	0.0131986
663.459	0.0131593
663.537	0.0131190
663.616	0.0132427
663.694	0.0131744
663.772	0.0132432
663.850	0.0133826
663.928	0.0132594
664.006	0.0132095
664.084	0.0131709
664.162	0.0132976
664.241	0.0133231
664.319	0.0132661
664.397	0.0133826
664.475	0.0132767
664.553	0.0132776
664.631	0.0133342
664.709	0.0131313
664.787	0.0131973
664.866	0.0133125
664.944	0.0131786
665.022	0.0131987
665.100	0.0134138
665.178	0.0133575
665.256	0.0131113
665.334	0.0132588
665.412	0.0132048
665.491	0.0133086
665.569	0.0133229
665.647	0.0133656
665.725	0.0132398
665.803	0.0131954
665.881	0.0133556
665.959	0.0131998
666.037	0.0132724
666.116	0.0132591
666.194	0.0131963
666.272	0.0132255
666.350	0.0132903
666.428	0.0131917
666.506	0.0132142
666.584	0.0132225
666.662	0.0131089
666.741	0.0132307
666.819	0.0133131
666.897	0.0132348
666.975	0.0132387
667.053	0.0133929
667.131	0.0131786
667.209	0.0132616
667.287	0.0130980
667.366	0.0131938
667.444	0.0131654
667.522	0.0131914
667.600	0.0131450
667.678	0.0131516
667.756	0.0131813
667.834	0.0131330
667.912	0.0132081
667.991	0.0132491
668.069	0.0130592
668.147	0.0131115
668.225	0.0132481
668.303	0.0132191
668.381	0.0132785
668.459	0.0131625
668.537	0.0130942
668.616	0.0132144
668.694	0.0130885
668.772	0.0132143
668.850	0.0132988
668.928	0.0131078
669.006	0.0130810
669.084	0.0130483
669.162	0.0131356
669.241	0.0130415
669.319	0.0132278
669.397	0.0130261
669.475	0.0130080
669.553	0.0131128
669.631	0.0132249
669.709	0.0131291
669.787	0.0132066
669.866	0.0130790
669.944	0.0131715
670.022	0.0131689
670.100	0.0131886
670.178	0.0129488
670.256	0.0130399
670.334	0.0130874
670.412	0.0129868
670.491	0.0131104
670.569	0.0131193
670.647	0.0131475
670.725	0.0132985
670.803	0.0131942
670.881	0.0129379
670.959	0.0130598
671.037	0.0131581
671.116	0.0130952
671.194	0.0130721
671.272	0.0131451
671.350	0.0130006
671.428	0.0129974
671.506	0.0131357
671.584	0.0130700
671.662	0.0130785
671.741	0.0131276
671.819	0.0130661
671.897	0.0130035
671.975	0.0131807
672.053	0.0130798
672.131	0.0128101
672.209	0.0129610
672.287	0.0130236
672.366	0.0130146
672.444	0.0130196
672.522	0.0129722
672.600	0.0128968
672.678	0.0130988
672.756	0.0130669
672.834	0.0132085
672.912	0.0131351
672.991	0.0131020
673.069	0.0129842
673.147	0.0129940
673.225	0.0130042
673.303	0.0132016
673.381	0.0131930
673.459	0.0130875
673.537	0.0131352
673.616	0.0131026
673.694	0.0130548
673.772	0.0133053
673.850	0.0132475
673.928	0.0130551
674.006	0.0130582
674.084	0.0131545
674.162	0.0131242
674.241	0.0132409
674.319	0.0132381
674.397	0.0133067
674.475	0.0131103
674.553	0.0133355
674.631	0.0132775
674.709	0.0133280
674.787	0.0132521
674.866	0.0133159
674.944	0.0131747
675.022	0.0133060
675.100	0.0134308
675.178	0.0133533
675.256	0.0132372
675.334	0.0133048
675.412	0.0131860
675.491	0.0131698
675.569	0.0132864
675.647	0.0134081
675.725	0.0133740
675.803	0.0132801
675.881	0.0132134
675.959	0.0132596
676.037	0.0133422
676.116	0.0132928
676.194	0.0133542
676.272	0.0133052
676.350	0.0133569
676.428	0.0133508
676.506	0.0132736
676.584	0.0134355
676.662	0.0135786
676.741	0.0133302
676.819	0.0133405
676.897	0.0132749
676.975	0.0133669
677.053	0.0133842
677.131	0.0133377
677.209	0.0133075
677.287	0.0134029
677.366	0.0134128
677.444	0.0134264
677.522	0.0134039
677.600	0.0132781
677.678	0.0133083
677.756	0.0134743
677.834	0.0133732
677.912	0.0132621
677.991	0.0134589
678.069	0.0132618
678.147	0.0133658
678.225	0.0134200
678.303	0.0133314
678.381	0.0134003
678.459	0.0132941
678.537	0.0134035
678.616	0.0133301
678.694	0.0133726
678.772	0.0133026
678.850	0.0132351
678.928	0.0133596
679.006	0.0133478
679.084	0.0133522
679.162	0.0132963
679.241	0.0132639
679.319	0.0132315
679.397	0.0132313
679.475	0.0133527
679.553	0.0132214
679.631	0.0133155
679.709	0.0133470
679.787	0.0132559
679.866	0.0131522
679.944	0.0132188
680.022	0.0132958
680.100	0.0132539
680.178	0.0132526
680.256	0.0131567
680.334	0.0130897
680.412	0.0132504
680.491	0.0131899
680.569	0.0131342
680.647	0.0131175
680.725	0.0132050
680.803	0.0131192
680.881	0.0129746
680.959	0.0132477
681.037	0.0130881
681.116	0.0132252
681.194	0.0129977
681.272	0.0130875
681.350	0.0133710
681.428	0.0132637
681.506	0.0131414
681.584	0.0133056
681.662	0.0131604
681.741	0.0131488
681.819	0.0131268
681.897	0.0131306
681.975	0.0132963
682.053	0.0132822
682.131	0.0131025
682.209	0.0131512
682.287	0.0131635
682.366	0.0130605
682.444	0.0131015
682.522	0.0131290
682.600	0.0131016
682.678	0.0131934
682.756	0.0131832
682.834	0.0131105
682.912	0.0131866
682.991	0.0131460
683.069	0.0133918
683.147	0.0131595
683.225	0.0131541
683.303	0.0131283
683.381	0.0132250
683.459	0.0130869
683.537	0.0132059
683.616	0.0131339
683.694	0.0130812
683.772	0.0132100
683.850	0.0132088
683.928	0.0132041
684.006	0.0131339
684.084	0.0132503
684.162	0.0131870
684.241	0.0131606
684.319	0.0132914
684.397	0.0131652
684.475	0.0132472
684.553	0.0131084
684.631	0.0130457
684.709	0.0131811
684.787	0.0132027
684.866	0.0132313
684.944	0.0131302
685.022	0.0133259
685.100	0.0131663
685.178	0.0130898
685.256	0.0132021
685.334	0.0133244
685.412	0.0132072
685.491	0.0131917
685.569	0.0133388
685.647	0.0133091
685.725	0.0130978
685.803	0.0133543
685.881	0.0132914
685.959	0.0131329
686.037	0.0131506
686.116	0.0132164
686.194	0.0132945
686.272	0.0133925
686.350	0.0132818
686.428	0.0131949
686.506	0.0131255
686.584	0.0131812
686.662	0.0132793
686.741	0.0133313
686.819	0.0131966
686.897	0.0131852
686.975	0.0131774
687.053	0.0132344
687.131	0.0132426
687.209	0.0131180
687.287	0.0133121
687.366	0.0132486
687.444	0.0133149
687.522	0.0132647
687.600	0.0131561
687.678	0.0132421
687.756	0.0132903
687.834	0.0132265
687.912	0.0132396
687.991	0.0131383
688.069	0.0133862
688.147	0.0132384
688.225	0.0133249
688.303	0.0132932
688.381	0.0132465
688.459	0.0132476
688.537	0.0132725
688.616	0.0132054
688.694	0.0132104
688.772	0.0132806
688.850	0.0131769
688.928	0.0131193
689.006	0.0132582
689.084	0.0133031
689.162	0.0132344
689.241	0.0131838
689.319	0.0132032
689.397	0.0132353
689.475	0.0132800
689.553	0.0132929
689.631	0.0132113
689.709	0.0131750
689.787	0.0132504
689.866	0.0132288
689.944	0.0133203
690.022	0.0132410
690.100	0.0131644
690.178	0.0132612
690.256	0.0132777
690.334	0.0132812
690.412	0.0132715
690.491	0.0132319
690.569	0.0132514
690.647	0.0132547
690.725	0.0132274
690.803	0.0132836
690.881	0.0133064
690.959	0.0133450
691.037	0.0132314
691.116	0.0132597
691.194	0.0131632
691.272	0.0130920
691.350	0.0132387
691.428	0.0130944
691.506	0.0132722
691.584	0.0132015
691.662	0.0130856
691.741	0.0130480
691.819	0.0130854
691.897	0.0130775
691.975	0.0130984
692.053	0.0132276
692.131	0.0132569
692.209	0.0132141
692.287	0.0131134
692.366	0.0131916
692.444	0.0133009
692.522	0.0131975
692.600	0.0131620
692.678	0.0133298
692.756	0.0131872
692.834	0.0133719
692.912	0.0132346
692.991	0.0131097
693.069	0.0132186
693.147	0.0131337
693.225	0.0131667
693.303	0.0132887
693.381	0.0131508
693.459	0.0131915
693.537	0.0131709
693.616	0.0131100
693.694	0.0133864
693.772	0.0134081
693.850	0.0133279
693.928	0.0133926
694.006	0.0133751
694.084	0.0134991
694.162	0.0133810
694.241	0.0134117
694.319	0.0133001
694.397	0.0132559
694.475	0.0131953
694.553	0.0130981
694.631	0.0129928
694.709	0.0131720
694.787	0.0130494
694.866	0.0130711
694.944	0.0130773
695.022	0.0129308
695.100	0.0128764
695.178	0.0128203
695.256	0.0128723
695.334	0.0127928
695.412	0.0129140
695.491	0.0131180
695.569	0.0130112
695.647	0.0130401
695.725	0.0130581
695.803	0.0130857
695.881	0.0130497
695.959	0.0132600
696.037	0.0131097
696.116	0.0131013
696.194	0.0132069
696.272	0.0132048
696.350	0.0131596
696.428	0.0128532
696.506	0.0130863
696.584	0.0130958
696.662	0.0131167
696.741	0.0132986
696.819	0.0132777
696.897	0.0131895
696.975	0.0133411
697.053	0.0131690
697.131	0.0132378
697.209	0.0134239
697.287	0.0134455
697.366	0.0134184
697.444	0.0133898
697.522	0.0134267
697.600	0.0134792
697.678	0.0133837
697.756	0.0134409
697.834	0.0134196
697.912	0.0132374
697.991	0.0132696
698.069	0.0132092
698.147	0.0130895
698.225	0.0131561
698.303	0.0131710
698.381	0.0130688
698.459	0.0129327
698.537	0.0130138
698.616	0.0129606
698.694	0.0128487
698.772	0.0129330
698.850	0.0128376
698.928	0.0127841
699.006	0.0129919
699.084	0.0129023
699.162	0.0129152
699.241	0.0128783
699.319	0.0129395
699.397	0.0130297
699.475	0.0129998
699.553	0.0130852
699.631	0.0130410
699.709	0.0131464
699.787	0.0130128
699.866	0.0129656
699.944	0.0131606
700.022	0.0132798
700.100	0.0132134
700.178	0.0131964
700.256	0.0131862
700.334	0.0133929
700.412	0.0134582
700.491	0.0132002
700.569	0.0133116
700.647	0.0134386
700.725	0.0134711
700.803	0.0133344
700.881	0.0133732
700.959	0.0132355
701.037	0.0132161
701.116	0.0132539
701.194	0.0134142
701.272	0.0133173
701.350	0.0132172
701.428	0.0132676
701.506	0.0134150
701.584	0.0132269
701.662	0.0132484
701.741	0.0133661
701.819	0.0132983
701.897	0.0133372
701.975	0.0132803
702.053	0.0134481
702.131	0.0133351
702.209	0.0133551
702.287	0.0133937
702.366	0.0133564
702.444	0.0132064
702.522	0.0131489
702.600	0.0130785
702.678	0.0129609
702.756	0.0131872
702.834	0.0129957
702.912	0.0128730
702.991	0.0129229
703.069	0.0130190
703.147	0.0128835
703.225	0.0128062
703.303	0.0128722
703.381	0.0128336
703.459	0.0129457
703.537	0.0129652
703.616	0.0131808
703.694	0.0132018
703.772	0.0131703
703.850	0.0132474
703.928	0.0133209
704.006	0.0134212
704.084	0.0133005
704.162	0.0132485
704.241	0.0133713
704.319	0.0134840
704.397	0.0135773
704.475	0.0133761
704.553	0.0134898
704.631	0.0133787
704.709	0.0134380
704.787	0.0135154
704.866	0.0134922
704.944	0.0133637
705.022	0.0133902
705.100	0.0134904
705.178	0.0134708
705.256	0.0134117
705.334	0.0132619
705.412	0.0134254
705.491	0.0132678
705.569	0.0132359
705.647	0.0132704
705.725	0.0131885
705.803	0.0133582
705.881	0.0132821
705.959	0.0132458
706.037	0.0132465
706.116	0.0133936
706.194	0.0132549
706.272	0.0133102
706.350	0.0133319
706.428	0.0132891
706.506	0.0133724
706.584	0.0133338
706.662	0.0133146
706.741	0.0131784
706.819	0.0134560
706.897	0.0133442
706.975	0.0133134
707.053	0.0133620
707.131	0.0133394
707.209	0.0133118
707.287	0.0132899
707.366	0.0133289
707.444	0.0133115
707.522	0.0133967
707.600	0.0133473
707.678	0.0133130
707.756	0.0132667
707.834	0.0132838
707.912	0.0132210
707.991	0.0131702
708.069	0.0131562
708.147	0.0132646
708.225	0.0132613
708.303	0.0133478
708.381	0.0132329
708.459	0.0132618
708.537	0.0131672
708.616	0.0131189
708.694	0.0132243
708.772	0.0131773
708.850	0.0132120
708.928	0.0132345
709.006	0.0133423
709.084	0.0133296
709.162	0.0132643
709.241	0.0132982
709.319	0.0133063
709.397	0.0133508
709.475	0.0135123
709.553	0.0132617
709.631	0.0132941
709.709	0.0133763
709.787	0.0132774
709.866	0.0132274
709.944	0.0131863
710.022	0.0132736
710.100	0.0132342
710.178	0.0133418
710.256	0.0131528
710.334	0.0132015
710.412	0.0132226
710.491	0.0131108
710.569	0.0131580
710.647	0.0132200
710.725	0.0131945
710.803	0.0131191
710.881	0.0131526
710.959	0.0131470
711.037	0.0131604
711.116	0.0131460
711.194	0.0131900
711.272	0.0131670
711.350	0.0131017
711.428	0.0131450
711.506	0.0130747
711.584	0.0132251
711.662	0.0133005
711.741	0.0131702
711.819	0.0133305
711.897	0.0132092
711.975	0.0133320
712.053	0.0133150
712.131	0.0132078
712.209	0.0132310
712.287	0.0133631
712.366	0.0133653
712.444	0.0132408
712.522	0.0132276
712.600	0.0132556
712.678	0.0132037
712.756	0.0132208
712.834	0.0132784
712.912	0.0131476
712.991	0.0132960
713.069	0.0132596
713.147	0.0132057
713.225	0.0131698
713.303	0.0131250
713.381	0.0129688
713.459	0.0132637
713.537	0.0132990
713.616	0.0131226
713.694	0.0132138
713.772	0.0132662
713.850	0.0131818
713.928	0.0130858
714.006	0.0130926
714.084	0.0132119
714.162	0.0132664
714.241	0.0132297
714.319	0.0131902
714.397	0.0131778
714.475	0.0132458
714.553	0.0131535
714.631	0.0131322
714.709	0.0131270
714.787	0.0130202
714.866	0.0131098
714.944	0.0132490
715.022	0.0130916
715.100	0.0130906
715.178	0.0130722
715.256	0.0130140
715.334	0.0130719
715.412	0.0132498
715.491	0.0129760
715.569	0.0130601
715.647	0.0129678
715.725	0.0132123
715.803	0.0132281
715.881	0.0131783
715.959	0.0132060
716.037	0.0132309
716.116	0.0132965
716.194	0.0133479
716.272	0.0133526
716.350	0.0131699
716.428	0.0133189
716.506	0.0131925
716.584	0.0132394
716.662	0.0131511
716.741	0.0132314
716.819	0.0131757
716.897	0.0130930
716.975	0.0130525
717.053	0.0131859
717.131	0.0131644
717.209	0.0132227
717.287	0.0130563
717.366	0.0131386
717.444	0.0132345
717.522	0.0131644
717.600	0.0130886
717.678	0.0132280
717.756	0.0130459
717.834	0.0131205
717.912	0.0131210
717.991	0.0132571
718.069	0.0132613
718.147	0.0133595
718.225	0.0133776
718.303	0.0132468
718.381	0.0132526
718.459	0.0133280
718.537	0.0133303
718.616	0.0134271
718.694	0.0133883
718.772	0.0132899
718.850	0.0133915
718.928	0.0132866
719.006	0.0131416
719.084	0.0132548
719.162	0.0133291
719.241	0.0132770
719.319	0.0131914
719.397	0.0132333
719.475	0.0131974
719.553	0.0133454
719.631	0.0132853
719.709	0.0132555
719.787	0.0134396
719.866	0.0132208
719.944	0.0133017
720.022	0.0132268
720.100	0.0132186
720.178	0.0133013
720.256	0.0133117
720.334	0.0132790
720.412	0.0132759
720.491	0.0131455
720.569	0.0131921
720.647	0.0132111
720.725	0.0132226
720.803	0.0132082
720.881	0.0132021
720.959	0.0130592
721.037	0.0132695
721.116	0.0131487
721.194	0.0131384
721.272	0.0132293
721.350	0.0130251
721.428	0.0131492
721.506	0.0131497
721.584	0.0131761
721.662	0.0130607
721.741	0.0130553
721.819	0.0130772
721.897	0.0131608
721.975	0.0132557
722.053	0.0131879
722.131	0.0131434
722.209	0.0133028
722.287	0.0130875
722.366	0.0131011
722.444	0.0132922
722.522	0.0129714
722.600	0.0131884
722.678	0.0130347
722.756	0.0131140
722.834	0.0132027
722.912	0.0129442
722.991	0.0129786
723.069	0.0131344
723.147	0.0131194
723.225	0.0130429
723.303	0.0131636
723.381	0.0131149
723.459	0.0130470
723.537	0.0130654
723.616	0.0130802
723.694	0.0130704
723.772	0.0131290
723.850	0.0131098
723.928	0.0129903
724.006	0.0130614
724.084	0.0131079
724.162	0.0131201
724.241	0.0131023
724.319	0.0129870
724.397	0.0130832
724.475	0.0131198
724.553	0.0132214
724.631	0.0131873
724.709	0.0130987
724.787	0.0130836
724.866	0.0131123
724.944	0.0129949
725.022	0.0130287
725.100	0.0131587
725.178	0.0131419
725.256	0.0130895
725.334	0.0132082
725.412	0.0132170
725.491	0.0129881
725.569	0.0130909
725.647	0.0131678
725.725	0.0130755
725.803	0.0131765
725.881	0.0130887
725.959	0.0131174
726.037	0.0131190
726.116	0.0131792
726.194	0.0131239
726.272	0.0130762
726.350	0.0130616
726.428	0.0131581
726.506	0.0130315
726.584	0.0131730
726.662	0.0132828
726.741	0.0133270
726.819	0.0132375
726.897	0.0132431
726.975	0.0134084
727.053	0.0132098
727.131	0.0132835
727.209	0.0133447
727.287	0.0133098
727.366	0.0132310
727.444	0.0131216
727.522	0.0132123
727.600	0.0132346
727.678	0.0132349
727.756	0.0133943
727.834	0.0132025
727.912	0.0131245
727.991	0.0131937
728.069	0.0131699
728.147	0.0131876
728.225	0.0132268
728.303	0.0131959
728.381	0.0131853
728.459	0.0132380
728.537	0.0131617
728.616	0.0131916
728.694	0.0131406
728.772	0.0131242
728.850	0.0132948
728.928	0.0132127
729.006	0.0131696
729.084	0.0132263
729.162	0.0131416
729.241	0.0130310
729.319	0.0131618
729.397	0.0132922
729.475	0.0131313
729.553	0.0131765
729.631	0.0131529
729.709	0.0131977
729.787	0.0131522
729.866	0.0131893
729.944	0.0131776
730.022	0.0131361
730.100	0.0132687
730.178	0.0130761
730.256	0.0130895
730.334	0.0130607
730.412	0.0130944
730.491	0.0131875
730.569	0.0132175
730.647	0.0131293
730.725	0.0132181
730.803	0.0130665
730.881	0.0132094
730.959	0.0132283
731.037	0.0132199
731.116	0.0132252
731.194	0.0131613
731.272	0.0131592
731.350	0.0131167
731.428	0.0131076
731.506	0.0132877
731.584	0.0130164
731.662	0.0131502
731.741	0.0131853
731.819	0.0132340
731.897	0.0131731
731.975	0.0131887
732.053	0.0132494
732.131	0.0133170
732.209	0.0132860
732.287	0.0133490
732.366	0.0133749
732.444	0.0132616
732.522	0.0132053
732.600	0.0133337
732.678	0.0133315
732.756	0.0133726
732.834	0.0131710
732.912	0.0133808
732.991	0.0133365
733.069	0.0133050
733.147	0.0133065
733.225	0.0133474
733.303	0.0133541
733.381	0.0131023
733.459	0.0131319
733.537	0.0131897
733.616	0.0131848
733.694	0.0132675
733.772	0.0132269
733.850	0.0132366
733.928	0.0132648
734.006	0.0132906
734.084	0.0133213
734.162	0.0133112
734.241	0.0132374
734.319	0.0131872
734.397	0.0131979
734.475	0.0132862
734.553	0.0132835
734.631	0.0133535
734.709	0.0130979
734.787	0.0131821
734.866	0.0130785
734.944	0.0131297
735.022	0.0131326
735.100	0.0131131
735.178	0.0130782
735.256	0.0131250
735.334	0.0131972
735.412	0.0130389
735.491	0.0132262
735.569	0.0130946
735.647	0.0131010
735.725	0.0131144
735.803	0.0130706
735.881	0.0131425
735.959	0.0131939
736.037	0.0131311
736.116	0.0131190
736.194	0.0130040
736.272	0.0132184
736.350	0.0130576
736.428	0.0131947
736.506	0.0132178
736.584	0.0130234
736.662	0.0130984
736.741	0.0131570
736.819	0.0131805
736.897	0.0131066
736.975	0.0131446
737.053	0.0131860
737.131	0.0131525
737.209	0.0132429
737.287	0.0131427
737.366	0.0130819
737.444	0.0130491
737.522	0.0130003
737.600	0.0130672
737.678	0.0130458
737.756	0.0131141
737.834	0.0131467
737.912	0.0131129
737.991	0.0131542
738.069	0.0131311
738.147	0.0131609
738.225	0.0131686
738.303	0.0132891
738.381	0.0131824
738.459	0.0131140
738.537	0.0131116
738.616	0.0131847
738.694	0.0131172
738.772	0.0130559
738.850	0.0130305
738.928	0.0131180
739.006	0.0132057
739.084	0.0132182
739.162	0.0130230
739.241	0.0131622
739.319	0.0132340
739.397	0.0131588
739.475	0.0131134
739.553	0.0131430
739.631	0.0131972
739.709	0.0131503
739.787	0.0130563
739.866	0.0132610
739.944	0.0132546
740.022	0.0131327
740.100	0.0132021
740.178	0.0133041
740.256	0.0132352
740.334	0.0132527
740.412	0.0132391
740.491	0.0132933
740.569	0.0133304
740.647	0.0132810
740.725	0.0131721
740.803	0.0133591
740.881	0.0132894
740.959	0.0132780
741.037	0.0132442
741.116	0.0133070
741.194	0.0132917
741.272	0.0133056
741.350	0.0132074
741.428	0.0132755
741.506	0.0133103
741.584	0.0131532
741.662	0.0131229
741.741	0.0132476
741.819	0.0131935
741.897	0.0131667
741.975	0.0131538
742.053	0.0132684
742.131	0.0131600
742.209	0.0130699
742.287	0.0131915
742.366	0.0131194
742.444	0.0132355
742.522	0.0131693
742.600	0.0132483
742.678	0.0133515
742.756	0.0132840
742.834	0.0131464
742.912	0.0131239
742.991	0.0132649
743.069	0.0132402
743.147	0.0133201
743.225	0.0132301
743.303	0.0131344
743.381	0.0133163
743.459	0.0132629
743.537	0.0132362
743.616	0.0131938
743.694	0.0131983
743.772	0.0131538
743.850	0.0132073
743.928	0.0132429
744.006	0.0131669
744.084	0.0130427
744.162	0.0130904
744.241	0.0133000
744.319	0.0133116
744.397	0.0132582
744.475	0.0132985
744.553	0.0132851
744.631	0.0132802
744.709	0.0132617
744.787	0.0131810
744.866	0.0131835
744.944	0.0132028
745.022	0.0131699
745.100	0.0132122
745.178	0.0131408
745.256	0.0132272
745.334	0.0132505
745.412	0.0131499
745.491	0.0131165
745.569	0.0131092
745.647	0.0131259
745.725	0.0131601
745.803	0.0131211
745.881	0.0131889
745.959	0.0131150
746.037	0.0132069
746.116	0.0132754
746.194	0.0131168
746.272	0.0130812
746.350	0.0131550
746.428	0.0131532
746.506	0.0131580
746.584	0.0130831
746.662	0.0131912
746.741	0.0132490
746.819	0.0133185
746.897	0.0132761
746.975	0.0131991
747.053	0.0132432
747.131	0.0132483
747.209	0.0132319
747.287	0.0131383
747.366	0.0131880
747.444	0.0132587
747.522	0.0131515
747.600	0.0132387
747.678	0.0131586
747.756	0.0131019
747.834	0.0133205
747.912	0.0131644
747.991	0.0131538
748.069	0.0131487
748.147	0.0132069
748.225	0.0132296
748.303	0.0132793
748.381	0.0133832
748.459	0.0133029
748.537	0.0133425
748.616	0.0133406
748.694	0.0133126
748.772	0.0134653
748.850	0.0133024
748.928	0.0132746
749.006	0.0134051
749.084	0.0134030
749.162	0.0133498
749.241	0.0132867
749.319	0.0132889
749.397	0.0132464
749.475	0.0134312
749.553	0.0133541
749.631	0.0132808
749.709	0.0132577
749.787	0.0133687
749.866	0.0132459
749.944	0.0132619
750.022	0.0132885
750.100	0.0133154
750.178	0.0132304
750.256	0.0131203
750.334	0.0133141
750.412	0.0131705
750.491	0.0132869
750.569	0.0132123
750.647	0.0132491
750.725	0.0133147
750.803	0.0130794
750.881	0.0133522
750.959	0.0133292
751.037	0.0132513
751.116	0.0132352
751.194	0.0132314
751.272	0.0132012
751.350	0.0133237
751.428	0.0132684
751.506	0.0131567
751.584	0.0132642
751.662	0.0130983
751.741	0.0131250
751.819	0.0132704
751.897	0.0131510
751.975	0.0131899
752.053	0.0131726
752.131	0.0131762
752.209	0.0130273
752.287	0.0131348
752.366	0.0131612
752.444	0.0130424
752.522	0.0130746
752.600	0.0131726
752.678	0.0131185
752.756	0.0130523
752.834	0.0131190
752.912	0.0132341
752.991	0.0130528
753.069	0.0132043
753.147	0.0130826
753.225	0.0131244
753.303	0.0132718
753.381	0.0132305
753.459	0.0131663
753.537	0.0131248
753.616	0.0131667
753.694	0.0130822
753.772	0.0131314
753.850	0.0132938
753.928	0.0134008
754.006	0.0131576
754.084	0.0130411
754.162	0.0131937
754.241	0.0130953
754.319	0.0130347
754.397	0.0132867
754.475	0.0132649
754.553	0.0133569
754.631	0.0132906
754.709	0.0131068
754.787	0.0131670
754.866	0.0132374
754.944	0.0132732
755.022	0.0130877
755.100	0.0132726
755.178	0.0132913
755.256	0.0131851
755.334	0.0132935
755.412	0.0132076
755.491	0.0132829
755.569	0.0132883
755.647	0.0132767
755.725	0.0132874
755.803	0.0133222
755.881	0.0132526
755.959	0.0132334
756.037	0.0132604
756.116	0.0132757
756.194	0.0133062
756.272	0.0131848
756.350	0.0134390
756.428	0.0132467
756.506	0.0133149
756.584	0.0132141
756.662	0.0131400
756.741	0.0131963
756.819	0.0132035
756.897	0.0132482
756.975	0.0132866
757.053	0.0132845
757.131	0.0131545
757.209	0.0131639
757.287	0.0132372
757.366	0.0132278
757.444	0.0132391
757.522	0.0133433
757.600	0.0133076
757.678	0.0133009
757.756	0.0131513
757.834	0.0131438
757.912	0.0132834
757.991	0.0132489
758.069	0.0132481
758.147	0.0132570
758.225	0.0131778
758.303	0.0133376
758.381	0.0132232
758.459	0.0133321
758.537	0.0132636
758.616	0.0132788
758.694	0.0132204
758.772	0.0133120
758.850	0.0134071
758.928	0.0132479
759.006	0.0131748
759.084	0.0132353
759.162	0.0132844
759.241	0.0132150
759.319	0.0132067
759.397	0.0132574
759.475	0.0131596
759.553	0.0131673
759.631	0.0132253
759.709	0.0132320
759.787	0.0130932
759.866	0.0131567
759.944	0.0131854
760.022	0.0132525
760.100	0.0134150
760.178	0.0130563
760.256	0.0131329
760.334	0.0131773
760.412	0.0132382
760.491	0.0132379
760.569	0.0131689
760.647	0.0132025
760.725	0.0131853
760.803	0.0131380
760.881	0.0130354
760.959	0.0131662
761.037	0.0130933
761.116	0.0131957
761.194	0.0131474
761.272	0.0131975
761.350	0.0131283
761.428	0.0131532
761.506	0.0131802
761.584	0.0132898
761.662	0.0132347
761.741	0.0131880
761.819	0.0132104
761.897	0.0131609
761.975	0.0132754
762.053	0.0133362
762.131	0.0133016
762.209	0.0133070
762.287	0.0133968
762.366	0.0132087
762.444	0.0133311
762.522	0.0132706
762.600	0.0132282
762.678	0.0132173
762.756	0.0131834
762.834	0.0133712
762.912	0.0131953
762.991	0.0132623
763.069	0.0132082
763.147	0.0132740
763.225	0.0133971
763.303	0.0130870
763.381	0.0130217
763.459	0.0132584
763.537	0.0132117
763.616	0.0132422
763.694	0.0132405
763.772	0.0132521
763.850	0.0133147
763.928	0.0132726
764.006	0.0132112
764.084	0.0133051
764.162	0.0132941
764.241	0.0131717
764.319	0.0132932
764.397	0.0132307
764.475	0.0131628
764.553	0.0132463
764.631	0.0131771
764.709	0.0130985
764.787	0.0132598
764.866	0.0133092
764.944	0.0131605
765.022	0.0130516
765.100	0.0131313
765.178	0.0132120
765.256	0.0131967
765.334	0.0130784
765.412	0.0130932
765.491	0.0130698
765.569	0.0131744
765.647	0.0132118
765.725	0.0131840
765.803	0.0131839
765.881	0.0131614
765.959	0.0131320
766.037	0.0130248
766.116	0.0131483
766.194	0.0131091
766.272	0.0131806
766.350	0.0131957
766.428	0.0131583
766.506	0.0130959
766.584	0.0131663
766.662	0.0130883
766.741	0.0132040
766.819	0.0131667
766.897	0.0131457
766.975	0.0130725
767.053	0.0132210
767.131	0.0130730
767.209	0.0131425
767.287	0.0130759
767.366	0.0132018
767.444	0.0131815
767.522	0.0130798
767.600	0.0129477
767.678	0.0131409
767.756	0.0132939
767.834	0.0131484
767.912	0.0130420
767.991	0.0131429
768.069	0.0131249
768.147	0.0132259
768.225	0.0131506
768.303	0.0131873
768.381	0.0132031
768.459	0.0131487
768.537	0.0131013
768.616	0.0132464
768.694	0.0132666
768.772	0.0131363
768.850	0.0132994
768.928	0.0133008
769.006	0.0132516
769.084	0.0131864
769.162	0.0132059
769.241	0.0133401
769.319	0.0133885
769.397	0.0133263
769.475	0.0133183
769.553	0.0132806
769.631	0.0132623
769.709	0.0132841
769.787	0.0132750
769.866	0.0132891
769.944	0.0132658
770.022	0.0133551
770.100	0.0132413
770.178	0.0133904
770.256	0.0132658
770.334	0.0132510
770.412	0.0132483
770.491	0.0133021
770.569	0.0133506
770.647	0.0133315
770.725	0.0133453
770.803	0.0132253
770.881	0.0133344
770.959	0.0132911
771.037	0.0133446
771.116	0.0132491
771.194	0.0133113
771.272	0.0131955
771.350	0.0133671
771.428	0.0131767
771.506	0.0131963
771.584	0.0132401
771.662	0.0132218
771.741	0.0131724
771.819	0.0133248
771.897	0.0132037
771.975	0.0131183
772.053	0.0132442
772.131	0.0132234
772.209	0.0133334
772.287	0.0133425
772.366	0.0132336
772.444	0.0133305
772.522	0.0132615
772.600	0.0133686
772.678	0.0134064
772.756	0.0132452
772.834	0.0132523
772.912	0.0132622
772.991	0.0132404
773.069	0.0133250
773.147	0.0132179
773.225	0.0133167
773.303	0.0133596
773.381	0.0132362
773.459	0.0134010
773.537	0.0135189
773.616	0.0133625
773.694	0.0133430
773.772	0.0132851
773.850	0.0132841
773.928	0.0133138
774.006	0.0133434
774.084	0.0133519
774.162	0.0132080
774.241	0.0131244
774.319	0.0132315
774.397	0.0133213
774.475	0.0132465
774.553	0.0132861
774.631	0.0132838
774.709	0.0132475
774.787	0.0131310
774.866	0.0132520
774.944	0.0131970
775.022	0.0132253
775.100	0.0130811
775.178	0.0131691
775.256	0.0132764
775.334	0.0131559
775.412	0.0132556
775.491	0.0133241
775.569	0.0131001
775.647	0.0131302
775.725	0.0133249
775.803	0.0132716
775.881	0.0132174
775.959	0.0132147
776.037	0.0132190
776.116	0.0132507
776.194	0.0132704
776.272	0.0133579
776.350	0.0131384
776.428	0.0131554
776.506	0.0132101
776.584	0.0132581
776.662	0.0132640
776.741	0.0132260
776.819	0.0132697
776.897	0.0133597
776.975	0.0132790
777.053	0.0132076
777.131	0.0131881
777.209	0.0132566
777.287	0.0131398
777.366	0.0131503
777.444	0.0132026
777.522	0.0132245
777.600	0.0132625
777.678	0.0132562
777.756	0.0133089
777.834	0.0132899
777.912	0.0132610
777.991	0.0132513
778.069	0.0132129
778.147	0.0133958
778.225	0.0132545
778.303	0.0133321
778.381	0.0132743
778.459	0.0132364
778.537	0.0134227
778.616	0.0132552
778.694	0.0132774
778.772	0.0132838
778.850	0.0133028
778.928	0.0133072
779.006	0.0132411
779.084	0.0132420
779.162	0.0133362
779.241	0.0132696
779.319	0.0131316
779.397	0.0132004
779.475	0.0133163
779.553	0.0131292
779.631	0.0133839
779.709	0.0133830
779.787	0.0132738
779.866	0.0132516
779.944	0.0133129
780.022	0.0132121
780.100	0.0133710
780.178	0.0132516
780.256	0.0131757
780.334	0.0132219
780.412	0.0132395
780.491	0.0132525
780.569	0.0132579
780.647	0.0132629
780.725	0.0132611
780.803	0.0132454
780.881	0.0131784
780.959	0.0131590
781.037	0.0133836
781.116	0.0131348
781.194	0.0133049
781.272	0.0132502
781.350	0.0130383
781.428	0.0133739
781.506	0.0133465
781.584	0.0132775
781.662	0.0130508
781.741	0.0131094
781.819	0.0132829
781.897	0.0132587
781.975	0.0132407
782.053	0.0131600
782.131	0.0132840
782.209	0.0132575
782.287	0.0131811
782.366	0.0131470
782.444	0.0130674
782.522	0.0131748
782.600	0.0133227
782.678	0.0132572
782.756	0.0132929
782.834	0.0132248
782.912	0.0131709
782.991	0.0131838
783.069	0.0132886
783.147	0.0132034
783.225	0.0131326
783.303	0.0131703
783.381	0.0131499
783.459	0.0131603
783.537	0.0131835
783.616	0.0132946
783.694	0.0131409
783.772	0.0131102
783.850	0.0131013
783.928	0.0133224
784.006	0.0132447
784.084	0.0131483
784.162	0.0132272
784.241	0.0132133
784.319	0.0132534
784.397	0.0132009
784.475	0.0132246
784.553	0.0133376
784.631	0.0130499
784.709	0.0131416
784.787	0.0131131
784.866	0.0131270
784.944	0.0131882
785.022	0.0131794
785.100	0.0131693
785.178	0.0132791
785.256	0.0132014
785.334	0.0132882
785.412	0.0131667
785.491	0.0133318
785.569	0.0132625
785.647	0.0133063
785.725	0.0131712
785.803	0.0133380
785.881	0.0131902
785.959	0.0132190
786.037	0.0132288
786.116	0.0132389
786.194	0.0132001
786.272	0.0133226
786.350	0.0131763
786.428	0.0132654
786.506	0.0132051
786.584	0.0132814
786.662	0.0132582
786.741	0.0133215
786.819	0.0130427
786.897	0.0132660
786.975	0.0132025
787.053	0.0132758
787.131	0.0132034
787.209	0.0132736
787.287	0.0131060
787.366	0.0131254
787.444	0.0131949
787.522	0.0131470
787.600	0.0131553
787.678	0.0131589
787.756	0.0132458
787.834	0.0132394
787.912	0.0133334
787.991	0.0132969
788.069	0.0132772
788.147	0.0132265
788.225	0.0131093
788.303	0.0133211
788.381	0.0133135
788.459	0.0132829
788.537	0.0132092
788.616	0.0132743
788.694	0.0132471
788.772	0.0132880
788.850	0.0131807
788.928	0.0132129
789.006	0.0132387
789.084	0.0132494
789.162	0.0131346
789.241	0.0131445
789.319	0.0131339
789.397	0.0131763
789.475	0.0132682
789.553	0.0132649
789.631	0.0132753
789.709	0.0131548
789.787	0.0130618
789.866	0.0132152
789.944	0.0130243
790.022	0.0131847
790.100	0.0130875
790.178	0.0132087
790.256	0.0131494
790.334	0.0131827
790.412	0.0131396
790.491	0.0132904
790.569	0.0130540
790.647	0.0131068
790.725	0.0131549
790.803	0.0131246
790.881	0.0131886
790.959	0.0130452
791.037	0.0131454
791.116	0.0131466
791.194	0.0131136
791.272	0.0130755
791.350	0.0132269
791.428	0.0131555
791.506	0.0130887
791.584	0.0130486
791.662	0.0131065
791.741	0.0131819
791.819	0.0131773
791.897	0.0130556
791.975	0.0131032
792.053	0.0130361
792.131	0.0131561
792.209	0.0132092
792.287	0.0132732
792.366	0.0131777
792.444	0.0131039
792.522	0.0132162
792.600	0.0131023
792.678	0.0131860
792.756	0.0133190
792.834	0.0132333
792.912	0.0131705
792.991	0.0131778
793.069	0.0132155
793.147	0.0132320
793.225	0.0131725
793.303	0.0132214
793.381	0.0131184
793.459	0.0131714
793.537	0.0131409
793.616	0.0132980
793.694	0.0131942
793.772	0.0132393
793.850	0.0130480
793.928	0.0130186
794.006	0.0131490
794.084	0.0131788
794.162	0.0130697
794.241	0.0130360
794.319	0.0130967
794.397	0.0129466
794.475	0.0130257
794.553	0.0130711
794.631	0.0130419
794.709	0.0131338
794.787	0.0131254
794.866	0.0131004
794.944	0.0131447
795.022	0.0130346
795.100	0.0131109
795.178	0.0131983
795.256	0.0132188
795.334	0.0132484
795.412	0.0131894
795.491	0.0132197
795.569	0.0131982
795.647	0.0132439
795.725	0.0131930
795.803	0.0131903
795.881	0.0132287
795.959	0.0132643
796.037	0.0132189
796.116	0.0133485
796.194	0.0133120
796.272	0.0132344
796.350	0.0132220
796.428	0.0132155
796.506	0.0133026
796.584	0.0132121
796.662	0.0131031
796.741	0.0132248
796.819	0.0132349
796.897	0.0131567
796.975	0.0131617
797.053	0.0132781
797.131	0.0132533
797.209	0.0132196
797.287	0.0134052
797.366	0.0131388
797.444	0.0131237
797.522	0.0131998
797.600	0.0131840
797.678	0.0131965
797.756	0.0132892
797.834	0.0132339
797.912	0.0131160
797.991	0.0131776
798.069	0.0131748
798.147	0.0132679
798.225	0.0131047
798.303	0.0133001
798.381	0.0132333
798.459	0.0132310
798.537	0.0131272
798.616	0.0130107
798.694	0.0132124
798.772	0.0131177
798.850	0.0130728
798.928	0.0131242
799.006	0.0131745
799.084	0.0131763
799.162	0.0131230
799.241	0.0133025
799.319	0.0132568
799.397	0.0132661
799.475	0.0132365
799.553	0.0132264
799.631	0.0131448
799.709	0.0132319
799.787	0.0133784
799.866	0.0132101
799.944	0.0132487
800.022	0.0133124
800.100	0.0132108
800.178	0.0132864
800.256	0.0132839
800.334	0.0132689
800.412	0.0133725
800.491	0.0132408
800.569	0.0132776
800.647	0.0132625
800.725	0.0130553
800.803	0.0132986
800.881	0.0132748
800.959	0.0132384
801.037	0.0132828
801.116	0.0131538
801.194	0.0131698
801.272	0.0132326
801.350	0.0132652
801.428	0.0131348
801.506	0.0133597
801.584	0.0130665
801.662	0.0131891
801.741	0.0133295
801.819	0.0132349
801.897	0.0130756
801.975	0.0131641
802.053	0.0130802
802.131	0.0131511
802.209	0.0131382
802.287	0.0134298
802.366	0.0132666
802.444	0.0132978
802.522	0.0132172
802.600	0.0133173
802.678	0.0130847
802.756	0.0132410
802.834	0.0132413
802.912	0.0132228
802.991	0.0131106
803.069	0.0130185
803.147	0.0130756
803.225	0.0131345
803.303	0.0130841
803.381	0.0132476
803.459	0.0131861
803.537	0.0131396
803.616	0.0131541
803.694	0.0131876
803.772	0.0131480
803.850	0.0130914
803.928	0.0131700
804.006	0.0131984
804.084	0.0130995
804.162	0.0129534
804.241	0.0131836
804.319	0.0131736
804.397	0.0131087
804.475	0.0131494
804.553	0.0130566
804.631	0.0131834
804.709	0.0131369
804.787	0.0131400
804.866	0.0130833
804.944	0.0131673
805.022	0.0130808
805.100	0.0132369
805.178	0.0131551
805.256	0.0131861
805.334	0.0131393
805.412	0.0131448
805.491	0.0132645
805.569	0.0131801
805.647	0.0131127
805.725	0.0131518
805.803	0.0132550
805.881	0.0130830
805.959	0.0132796
806.037	0.0132654
806.116	0.0132858
806.194	0.0131686
806.272	0.0131606
806.350	0.0132943
806.428	0.0132697
806.506	0.0132002
806.584	0.0132011
806.662	0.0133786
806.741	0.0132362
806.819	0.0133015
806.897	0.0133025
806.975	0.0131698
807.053	0.0132265
807.131	0.0133659
807.209	0.0130734
807.287	0.0132737
807.366	0.0132768
807.444	0.0132941
807.522	0.0132158
807.600	0.0132185
807.678	0.0133219
807.756	0.0132078
807.834	0.0132384
807.912	0.0133115
807.991	0.0133215
808.069	0.0132449
808.147	0.0132237
808.225	0.0131928
808.303	0.0131801
808.381	0.0132279
808.459	0.0133107
808.537	0.0132645
808.616	0.0131889
808.694	0.0131969
808.772	0.0131181
808.850	0.0131931
808.928	0.0131239
809.006	0.0131940
809.084	0.0131241
809.162	0.0132079
809.241	0.0133656
809.319	0.0132259
809.397	0.0131473
809.475	0.0132213
809.553	0.0131000
809.631	0.0132500
809.709	0.0132189
809.787	0.0132237
809.866	0.0133325
809.944	0.0132033
810.022	0.0130511
810.100	0.0132320
810.178	0.0132465
810.256	0.0132588
810.334	0.0131349
810.412	0.0131496
810.491	0.0131725
810.569	0.0130288
810.647	0.0131473
810.725	0.0131734
810.803	0.0131400
810.881	0.0131621
810.959	0.0131145
811.037	0.0130601
811.116	0.0132544
811.194	0.0130889
811.272	0.0131522
811.350	0.0130773
811.428	0.0131589
811.506	0.0132162
811.584	0.0131037
811.662	0.0133443
811.741	0.0132157
811.819	0.0130701
811.897	0.0130958
811.975	0.0132216
812.053	0.0131414
812.131	0.0132962
812.209	0.0130595
812.287	0.0132330
812.366	0.0131581
812.444	0.0132684
812.522	0.0132064
812.600	0.0132108
812.678	0.0131055
812.756	0.0131157
812.834	0.0131575
812.912	0.0130463
812.991	0.0131590
813.069	0.0131299
813.147	0.0131997
813.225	0.0131989
813.303	0.0130736
813.381	0.0131461
813.459	0.0132033
813.537	0.0130825
813.616	0.0130505
813.694	0.0132045
813.772	0.0131330
813.850	0.0130128
813.928	0.0130286
814.006	0.0131439
814.084	0.0131690
814.162	0.0131432
814.241	0.0131007
814.319	0.0131080
814.397	0.0131480
814.475	0.0131535
814.553	0.0130240
814.631	0.0131289
814.709	0.0130418
814.787	0.0130838
814.866	0.0130636
814.944	0.0132486
815.022	0.0131854
815.100	0.0131252
815.178	0.0130375
815.256	0.0130569
815.334	0.0132453
815.412	0.0130914
815.491	0.0130152
815.569	0.0130181
815.647	0.0131504
815.725	0.0131424
815.803	0.0129923
815.881	0.0129956
815.959	0.0130039
816.037	0.0129681
816.116	0.0128870
816.194	0.0131955
816.272	0.0131987
816.350	0.0130309
816.428	0.0130569
816.506	0.0130053
816.584	0.0130770
816.662	0.0131881
816.741	0.0130441
816.819	0.0131328
816.897	0.0131815
816.975	0.0131746
817.053	0.0131464
817.131	0.0130853
817.209	0.0132620
817.287	0.0132014
817.366	0.0131757
817.444	0.0130884
817.522	0.0131503
817.600	0.0131342
817.678	0.0131010
817.756	0.0129610
817.834	0.0129760
817.912	0.0130340
817.991	0.0131361
818.069	0.0131694
818.147	0.0130206
818.225	0.0132055
818.303	0.0132410
818.381	0.0131331
818.459	0.0131651
818.537	0.0131818
818.616	0.0131094
818.694	0.0131282
818.772	0.0130347
818.850	0.0129422
818.928	0.0130192
819.006	0.0132486
819.084	0.0130202
819.162	0.0131478
819.241	0.0130560
819.319	0.0129787
819.397	0.0131051
819.475	0.0131244
819.553	0.0131886
819.631	0.0130799
819.709	0.0131112
819.787	0.0130937
819.866	0.0131184
819.944	0.0130805
820.022	0.0130785
820.100	0.0131385
820.178	0.0130819
820.256	0.0132230
820.334	0.0131828
820.412	0.0131119
820.491	0.0131586
820.569	0.0132401
820.647	0.0132362
820.725	0.0131287
820.803	0.0131274
820.881	0.0130396
820.959	0.0130521
821.037	0.0131351
821.116	0.0131412
821.194	0.0132179
821.272	0.0131877
821.350	0.0132146
821.428	0.0132712
821.506	0.0132805
821.584	0.0133006
821.662	0.0131336
821.741	0.0130582
821.819	0.0131232
821.897	0.0132481
821.975	0.0132905
822.053	0.0131377
822.131	0.0132374
822.209	0.0129995
822.287	0.0130894
822.366	0.0131730
822.444	0.0131131
822.522	0.0131389
822.600	0.0130293
822.678	0.0131180
822.756	0.0132489
822.834	0.0131616
822.912	0.0133105
822.991	0.0131833
823.069	0.0130630
823.147	0.0130960
823.225	0.0132436
823.303	0.0133524
823.381	0.0132956
823.459	0.0131326
823.537	0.0131205
823.616	0.0130068
823.694	0.0131363
823.772	0.0131837
823.850	0.0131193
823.928	0.0130506
824.006	0.0130367
824.084	0.0131448
824.162	0.0131876
824.241	0.0130602
824.319	0.0130398
824.397	0.0130315
824.475	0.0129182
824.553	0.0131208
824.631	0.0130647
824.709	0.0130875
824.787	0.0130619
824.866	0.0131002
824.944	0.0131062
825.022	0.0130658
825.100	0.0131036
825.178	0.0130089
825.256	0.0132500
825.334	0.0131874
825.412	0.0130972
825.491	0.0132388
825.569	0.0132290
825.647	0.0131675
825.725	0.0132558
825.803	0.0131622
825.881	0.0132284
825.959	0.0132558
826.037	0.0132354
826.116	0.0132223
826.194	0.0132115
826.272	0.0132309
826.350	0.0133049
826.428	0.0131576
826.506	0.0130885
826.584	0.0130637
826.662	0.0131828
826.741	0.0134112
826.819	0.0132643
826.897	0.0130945
826.975	0.0132090
827.053	0.0132183
827.131	0.0132365
827.209	0.0131776
827.287	0.0131770
827.366	0.0131157
827.444	0.0131402
827.522	0.0131002
827.600	0.0130907
827.678	0.0131071
827.756	0.0131051
827.834	0.0131194
827.912	0.0132306
827.991	0.0132342
828.069	0.0131761
828.147	0.0131046
828.225	0.0131866
828.303	0.0131474
828.381	0.0132885
828.459	0.0132757
828.537	0.0131941
828.616	0.0131175
828.694	0.0132887
828.772	0.0131315
828.850	0.0132838
828.928	0.0132883
829.006	0.0132620
829.084	0.0132954
829.162	0.0132251
829.241	0.0131506
829.319	0.0130784
829.397	0.0130186
829.475	0.0131539
829.553	0.0131918
829.631	0.0131477
829.709	0.0132435
829.787	0.0132307
829.866	0.0132543
829.944	0.0131430
830.022	0.0130213
830.100	0.0131271
830.178	0.0131451
830.256	0.0132233
830.334	0.0132806
830.412	0.0131175
830.491	0.0131548
830.569	0.0132051
830.647	0.0131384
830.725	0.0130927
830.803	0.0130780
830.881	0.0132211
830.959	0.0132052
831.037	0.0132168
831.116	0.0131976
831.194	0.0132552
831.272	0.0132532
831.350	0.0131620
831.428	0.0132243
831.506	0.0131352
831.584	0.0132122
831.662	0.0130880
831.741	0.0132244
831.819	0.0130579
831.897	0.0132358
831.975	0.0132658
832.053	0.0131297
832.131	0.0131768
832.209	0.0132022
832.287	0.0131775
832.366	0.0132309
832.444	0.0130618
832.522	0.0132526
832.600	0.0130884
832.678	0.0131606
832.756	0.0131664
832.834	0.0130586
832.912	0.0132452
832.991	0.0132882
833.069	0.0132015
833.147	0.0131332
833.225	0.0131795
833.303	0.0131938
833.381	0.0133255
833.459	0.0131322
833.537	0.0133015
833.616	0.0133855
833.694	0.0131448
833.772	0.0132475
833.850	0.0133014
833.928	0.0131624
834.006	0.0132088
834.084	0.0133186
834.162	0.0133392
834.241	0.0131768
834.319	0.0132212
834.397	0.0132323
834.475	0.0132173
834.553	0.0132613
834.631	0.0131967
834.709	0.0131946
834.787	0.0131204
834.866	0.0131448
834.944	0.0132884
835.022	0.0133649
835.100	0.0132195
835.178	0.0132640
835.256	0.0134119
835.334	0.0132359
835.412	0.0133447
835.491	0.0133410
835.569	0.0133248
835.647	0.0132973
835.725	0.0133380
835.803	0.0133743
835.881	0.0132100
835.959	0.0132134
836.037	0.0132945
836.116	0.0132101
836.194	0.0132378
836.272	0.0131819
836.350	0.0132780
836.428	0.0132832
836.506	0.0133015
836.584	0.0132763
836.662	0.0132145
836.741	0.0131467
836.819	0.0133018
836.897	0.0132040
836.975	0.0131866
837.053	0.0130889
837.131	0.0132659
837.209	0.0131313
837.287	0.0131962
837.366	0.0132141
837.444	0.0131956
837.522	0.0133821
837.600	0.0132345
837.678	0.0131361
837.756	0.0131823
837.834	0.0133175
837.912	0.0131706
837.991	0.0132000
838.069	0.0132490
838.147	0.0132021
838.225	0.0131326
838.303	0.0132583
838.381	0.0132774
838.459	0.0131047
838.537	0.0132325
838.616	0.0133056
838.694	0.0132652
838.772	0.0131544
838.850	0.0132611
838.928	0.0131461
839.006	0.0131273
839.084	0.0130791
839.162	0.0133115
839.241	0.0133156
839.319	0.0132845
839.397	0.0131390
839.475	0.0133237
839.553	0.0133247
839.631	0.0131300
839.709	0.0131263
839.787	0.0132642
839.866	0.0132951
839.944	0.0132426
840.022	0.0131832
840.100	0.0131734
840.178	0.0130067
840.256	0.0130837
840.334	0.0132153
840.412	0.0132369
840.491	0.0132151
840.569	0.0132191
840.647	0.0131759
840.725	0.0132107
840.803	0.0133177
840.881	0.0131827
840.959	0.0133392
841.037	0.0131902
841.116	0.0134107
841.194	0.0133039
841.272	0.0132257
841.350	0.0132497
841.428	0.0132668
841.506	0.0132513
841.584	0.0132810
841.662	0.0132102
841.741	0.0132253
841.819	0.0132326
841.897	0.0133369
841.975	0.0133665
842.053	0.0132146
842.131	0.0133901
842.209	0.0133572
842.287	0.0132010
842.366	0.0132745
842.444	0.0132691
842.522	0.0132354
842.600	0.0132618
842.678	0.0132925
842.756	0.0132123
842.834	0.0131797
842.912	0.0131833
842.991	0.0133762
843.069	0.0132333
843.147	0.0132491
843.225	0.0132587
843.303	0.0131764
843.381	0.0132314
843.459	0.0132574
843.537	0.0132294
843.616	0.0132819
843.694	0.0131819
843.772	0.0133845
843.850	0.0132735
843.928	0.0133860
844.006	0.0133659
844.084	0.0131540
844.162	0.0132125
844.241	0.0132779
844.319	0.0132751
844.397	0.0132781
844.475	0.0133246
844.553	0.0133059
844.631	0.0131644
844.709	0.0132266
844.787	0.0132357
844.866	0.0132968
844.944	0.0132631
845.022	0.0132869
845.100	0.0130724
845.178	0.0131512
845.256	0.0132751
845.334	0.0132506
845.412	0.0132340
845.491	0.0131932
845.569	0.0131740
845.647	0.0131858
845.725	0.0131514
845.803	0.0131312
845.881	0.0131609
845.959	0.0132085
846.037	0.0131841
846.116	0.0132219
846.194	0.0132935
846.272	0.0132585
846.350	0.0132532
846.428	0.0132866
846.506	0.0131012
846.584	0.0131992
846.662	0.0132343
846.741	0.0131782
846.819	0.0133317
846.897	0.0131572
846.975	0.0131794
847.053	0.0133782
847.131	0.0132721
847.209	0.0131726
847.287	0.0132243
847.366	0.0131120
847.444	0.0130389
847.522	0.0130722
847.600	0.0131598
847.678	0.0131375
847.756	0.0131752
847.834	0.0132432
847.912	0.0132001
847.991	0.0132594
848.069	0.0132083
848.147	0.0131197
848.225	0.0132517
848.303	0.0133475
848.381	0.0131552
848.459	0.0131606
848.537	0.0131470
848.616	0.0131892
848.694	0.0132536
848.772	0.0132079
848.850	0.0131546
848.928	0.0131154
849.006	0.0130788
849.084	0.0133117
849.162	0.0132533
849.241	0.0131992
849.319	0.0132326
849.397	0.0131884
849.475	0.0132511
849.553	0.0131536
849.631	0.0131416
849.709	0.0131101
849.787	0.0132241
849.866	0.0131772
849.944	0.0132335
850.022	0.0131316
850.100	0.0132260
850.178	0.0131371
850.256	0.0130804
850.334	0.0131367
850.412	0.0131969
850.491	0.0131511
850.569	0.0132622
850.647	0.0132710
850.725	0.0131733
850.803	0.0132010
850.881	0.0131253
850.959	0.0131766
851.037	0.0132087
851.116	0.0131131
851.194	0.0133045
851.272	0.0132806
851.350	0.0131649
851.428	0.0132125
851.506	0.0132410
851.584	0.0132125
851.662	0.0132903
851.741	0.0131060
851.819	0.0132689
851.897	0.0132063
851.975	0.0131965
852.053	0.0132264
852.131	0.0131750
852.209	0.0133038
852.287	0.0132011
852.366	0.0132978
852.444	0.0132104
852.522	0.0131925
852.600	0.0134814
852.678	0.0132656
852.756	0.0130955
852.834	0.0131394
852.912	0.0133241
852.991	0.0133744
853.069	0.0132547
853.147	0.0132152
853.225	0.0132092
853.303	0.0131920
853.381	0.0131724
853.459	0.0131894
853.537	0.0132632
853.616	0.0133387
853.694	0.0133323
853.772	0.0131746
853.850	0.0131435
853.928	0.0132675
854.006	0.0132509
854.084	0.0132228
854.162	0.0131949
854.241	0.0132687
854.319	0.0131924
854.397	0.0132361
854.475	0.0132313
854.553	0.0131684
854.631	0.0132793
854.709	0.0132874
854.787	0.0133446
854.866	0.0131123
854.944	0.0131934
855.022	0.0132721
855.100	0.0131874
855.178	0.0132524
855.256	0.0132922
855.334	0.0133765
855.412	0.0133859
855.491	0.0131581
855.569	0.0132787
855.647	0.0132763
855.725	0.0132870
855.803	0.0132400
855.881	0.0131292
855.959	0.0132832
856.037	0.0132307
856.116	0.0133176
856.194	0.0132336
856.272	0.0132121
856.350	0.0130408
856.428	0.0130492
856.506	0.0133823
856.584	0.0132773
856.662	0.0132863
856.741	0.0131246
856.819	0.0133247
856.897	0.0132933
856.975	0.0130244
857.053	0.0131267
857.131	0.0132607
857.209	0.0130408
857.287	0.0132567
857.366	0.0133305
857.444	0.0131889
857.522	0.0132900
857.600	0.0132233
857.678	0.0132088
857.756	0.0130526
857.834	0.0132210
857.912	0.0132841
857.991	0.0132009
858.069	0.0131477
858.147	0.0131787
858.225	0.0131849
858.303	0.0130991
858.381	0.0131609
858.459	0.0130915
858.537	0.0131822
858.616	0.0132359
858.694	0.0131068
858.772	0.0131851
858.850	0.0133070
858.928	0.0131005
859.006	0.0130123
859.084	0.0129636
859.162	0.0130582
859.241	0.0130896
859.319	0.0131732
859.397	0.0131017
859.475	0.0130766
859.553	0.0131631
859.631	0.0132608
859.709	0.0131361
859.787	0.0131468
859.866	0.0132539
859.944	0.0132487
860.022	0.0131884
860.100	0.0131563
860.178	0.0130282
860.256	0.0131829
860.334	0.0131680
860.412	0.0131808
860.491	0.0132099
860.569	0.0132228
860.647	0.0132522
860.725	0.0130990
860.803	0.0131535
860.881	0.0133124
860.959	0.0132864
861.037	0.0131935
861.116	0.0134126
861.194	0.0131711
861.272	0.0130987
861.350	0.0133096
861.428	0.0132562
861.506	0.0131337
861.584	0.0133168
861.662	0.0132816
861.741	0.0131347
861.819	0.0133154
861.897	0.0133349
861.975	0.0131826
862.053	0.0132212
862.131	0.0132504
862.209	0.0132368
862.287	0.0132793
862.366	0.0131738
862.444	0.0133677
862.522	0.0132915
862.600	0.0132946
862.678	0.0133334
862.756	0.0133362
862.834	0.0131760
862.912	0.0132993
862.991	0.0132569
863.069	0.0132314
863.147	0.0131740
863.225	0.0133657
863.303	0.0131944
863.381	0.0132194
863.459	0.0132425
863.537	0.0132024
863.616	0.0132405
863.694	0.0132841
863.772	0.0132413
863.850	0.0131819
863.928	0.0131882
864.006	0.0133847
864.084	0.0133208
864.162	0.0132578
864.241	0.0132169
864.319	0.0131228
864.397	0.0132955
864.475	0.0132774
864.553	0.0132774
864.631	0.0131856
864.709	0.0131983
864.787	0.0133228
864.866	0.0133646
864.944	0.0132693
865.022	0.0132194
865.100	0.0132979
865.178	0.0132818
865.256	0.0131973
865.334	0.0133005
865.412	0.0133506
865.491	0.0133687
865.569	0.0132175
865.647	0.0132183
865.725	0.0133345
865.803	0.0132687
865.881	0.0132887
865.959	0.0131805
866.037	0.0132256
866.116	0.0132562
866.194	0.0132743
866.272	0.0132210
866.350	0.0132618
866.428	0.0131914
866.506	0.0131548
866.584	0.0131039
866.662	0.0132174
866.741	0.0132311
866.819	0.0130998
866.897	0.0132948
866.975	0.0132424
867.053	0.0131954
867.131	0.0132093
867.209	0.0130431
867.287	0.0131371
867.366	0.0131734
867.444	0.0132947
867.522	0.0132847
867.600	0.0131646
867.678	0.0132213
867.756	0.0132962
867.834	0.0130727
867.912	0.0131138
867.991	0.0132365
868.069	0.0130215
868.147	0.0132191
868.225	0.0131900
868.303	0.0132011
868.381	0.0131603
868.459	0.0131128
868.537	0.0132258
868.616	0.0132367
868.694	0.0131876
868.772	0.0133693
868.850	0.0131219
868.928	0.0132513
869.006	0.0130593
869.084	0.0131258
869.162	0.0130866
869.241	0.0131980
869.319	0.0131306
869.397	0.0131473
869.475	0.0132453
869.553	0.0131987
869.631	0.0133144
869.709	0.0132730
869.787	0.0131197
869.866	0.0130432
869.944	0.0131697
870.022	0.0132735
870.100	0.0131741
870.178	0.0131713
870.256	0.0132957
870.334	0.0132988
870.412	0.0131646
870.491	0.0131464
870.569	0.0132126
870.647	0.0131324
870.725	0.0130518
870.803	0.0132081
870.881	0.0131035
870.959	0.0132404
871.037	0.0131274
871.116	0.0131030
871.194	0.0132519
871.272	0.0131722
871.350	0.0131491
871.428	0.0131947
871.506	0.0132300
871.584	0.0132140
871.662	0.0132575
871.741	0.0131410
871.819	0.0131672
871.897	0.0132310
871.975	0.0131354
872.053	0.0132168
872.131	0.0131741
872.209	0.0132421
872.287	0.0133608
872.366	0.0131117
872.444	0.0131898
872.522	0.0132816
872.600	0.0132365
872.678	0.0132381
872.756	0.0132064
872.834	0.0131732
872.912	0.0131038
872.991	0.0131451
873.069	0.0131218
873.147	0.0131477
873.225	0.0130706
873.303	0.0130922
873.381	0.0130304
873.459	0.0132636
873.537	0.0131639
873.616	0.0131193
873.694	0.0131844
873.772	0.0131497
873.850	0.0131911
873.928	0.0131909
874.006	0.0130799
874.084	0.0132830
874.162	0.0131188
874.241	0.0131219
874.319	0.0131135
874.397	0.0132688
874.475	0.0132520
874.553	0.0132140
874.631	0.0132985
874.709	0.0131718
874.787	0.0131943
874.866	0.0133318
874.944	0.0131879
875.022	0.0131644
875.100	0.0132481
875.178	0.0131989
875.256	0.0132117
875.334	0.0132745
875.412	0.0133470
875.491	0.0132755
875.569	0.0132613
875.647	0.0132120
875.725	0.0133002
875.803	0.0131550
875.881	0.0131770
875.959	0.0132912
876.037	0.0131893
876.116	0.0131986
876.194	0.0132905
876.272	0.0131905
876.350	0.0131863
876.428	0.0132333
876.506	0.0132529
876.584	0.0132765
876.662	0.0132928
876.741	0.0133084
876.819	0.0131657
876.897	0.0132986
876.975	0.0132892
877.053	0.0132932
877.131	0.0131281
877.209	0.0132656
877.287	0.0132433
877.366	0.0132934
877.444	0.0132372
877.522	0.0132558
877.600	0.0131200
877.678	0.0132124
877.756	0.0132745
877.834	0.0132480
877.912	0.0131894
877.991	0.0132227
878.069	0.0131322
878.147	0.0132037
878.225	0.0132181
878.303	0.0131687
878.381	0.0130883
878.459	0.0131095
878.537	0.0132029
878.616	0.0132468
878.694	0.0131808
878.772	0.0130847
878.850	0.0131702
878.928	0.0130737
879.006	0.0131902
879.084	0.0130602
879.162	0.0129772
879.241	0.0130426
879.319	0.0130142
879.397	0.0130295
879.475	0.0131118
879.553	0.0130919
879.631	0.0130267
879.709	0.0129902
879.787	0.0131565
879.866	0.0131412
879.944	0.0131451
880.022	0.0131855
880.100	0.0130611
880.178	0.0130858
880.256	0.0131197
880.334	0.0130790
880.412	0.0131538
880.491	0.0130414
880.569	0.0130757
880.647	0.0131844
880.725	0.0130539
880.803	0.0132379
880.881	0.0130474
880.959	0.0130615
881.037	0.0130941
881.116	0.0130244
881.194	0.0130672
881.272	0.0130319
881.350	0.0131966
881.428	0.0131786
881.506	0.0131725
881.584	0.0131332
881.662	0.0130965
881.741	0.0132438
881.819	0.0130650
881.897	0.0131277
881.975	0.0132154
882.053	0.0131308
882.131	0.0131314
882.209	0.0131454
882.287	0.0130991
882.366	0.0132087
882.444	0.0131003
882.522	0.0130997
882.600	0.0131304
882.678	0.0133006
882.756	0.0131189
882.834	0.0131801
882.912	0.0132055
882.991	0.0131445
883.069	0.0131274
883.147	0.0130492
883.225	0.0130342
883.303	0.0132144
883.381	0.0131906
883.459	0.0132454
883.537	0.0132163
883.616	0.0131701
883.694	0.0130915
883.772	0.0131669
883.850	0.0132379
883.928	0.0132152
884.006	0.0131406
884.084	0.0133312
884.162	0.0132163
884.241	0.0131367
884.319	0.0131681
884.397	0.0132268
884.475	0.0131714
884.553	0.0129973
884.631	0.0131991
884.709	0.0131353
884.787	0.0130627
884.866	0.0131654
884.944	0.0133509
885.022	0.0132248
885.100	0.0130328
885.178	0.0131991
885.256	0.0131933
885.334	0.0131621
885.412	0.0131841
885.491	0.0132537
885.569	0.0132094
885.647	0.0132233
885.725	0.0130731
885.803	0.0131631
885.881	0.0131956
885.959	0.0132165
886.037	0.0131269
886.116	0.0132435
886.194	0.0131026
886.272	0.0131643
886.350	0.0132078
886.428	0.0132169
886.506	0.0131675
886.584	0.0132899
886.662	0.0132281
886.741	0.0132868
886.819	0.0131533
886.897	0.0132346
886.975	0.0130132
887.053	0.0132786
887.131	0.0132707
887.209	0.0132750
887.287	0.0132193
887.366	0.0133110
887.444	0.0132642
887.522	0.0132065
887.600	0.0133246
887.678	0.0132178
887.756	0.0132707
887.834	0.0133295
887.912	0.0131844
887.991	0.0132760
888.069	0.0132703
888.147	0.0133179
888.225	0.0132809
888.303	0.0131794
888.381	0.0131219
888.459	0.0132551
888.537	0.0131591
888.616	0.0132688
888.694	0.0131587
888.772	0.0131871
888.850	0.0131921
888.928	0.0131503
889.006	0.0130160
889.084	0.0131243
889.162	0.0130733
889.241	0.0131776
889.319	0.0132019
889.397	0.0131498
889.475	0.0132250
889.553	0.0131996
889.631	0.0131234
889.709	0.0131542
889.787	0.0131947
889.866	0.0132471
889.944	0.0132081
890.022	0.0132376
890.100	0.0131755
890.178	0.0131528
890.256	0.0132133
890.334	0.0132600
890.412	0.0132566
890.491	0.0132181
890.569	0.0131712
890.647	0.0131003
890.725	0.0131393
890.803	0.0132623
890.881	0.0131741
890.959	0.0131506
891.037	0.0132076
891.116	0.0131949
891.194	0.0131171
891.272	0.0132057
891.350	0.0132112
891.428	0.0131538
891.506	0.0132687
891.584	0.0132661
891.662	0.0132865
891.741	0.0131647
891.819	0.0131257
891.897	0.0132372
891.975	0.0132160
892.053	0.0131875
892.131	0.0131461
892.209	0.0132071
892.287	0.0132605
892.366	0.0131673
892.444	0.0132606
892.522	0.0130845
892.600	0.0132630
892.678	0.0133360
892.756	0.0132753
892.834	0.0132353
892.912	0.0132196
892.991	0.0131908
893.069	0.0130631
893.147	0.0129732
893.225	0.0130596
893.303	0.0132025
893.381	0.0131383
893.459	0.0131122
893.537	0.0131689
893.616	0.0131661
893.694	0.0131786
893.772	0.0131979
893.850	0.0131100
893.928	0.0131217
894.006	0.0130393
894.084	0.0131099
894.162	0.0133081
894.241	0.0132709
894.319	0.0131747
894.397	0.0131532
894.475	0.0131960
894.553	0.0131158
894.631	0.0132047
894.709	0.0132197
894.787	0.0131918
894.866	0.0131196
894.944	0.0131875
895.022	0.0131932
895.100	0.0131664
895.178	0.0133106
895.256	0.0131109
895.334	0.0131322
895.412	0.0132041
895.491	0.0131355
895.569	0.0131796
895.647	0.0133597
895.725	0.0132783
895.803	0.0132116
895.881	0.0132964
895.959	0.0131709
896.037	0.0130975
896.116	0.0130853
896.194	0.0132211
896.272	0.0131367
896.350	0.0131784
896.428	0.0131424
896.506	0.0131439
896.584	0.0130984
896.662	0.0131351
896.741	0.0131792
896.819	0.0130063
896.897	0.0130382
896.975	0.0132150
897.053	0.0131091
897.131	0.0131637
897.209	0.0131870
897.287	0.0131629
897.366	0.0131409
897.444	0.0131816
897.522	0.0132314
897.600	0.0132667
897.678	0.0131530
897.756	0.0130579
897.834	0.0131276
897.912	0.0131477
897.991	0.0130024
898.069	0.0130537
898.147	0.0131685
898.225	0.0130604
898.303	0.0131206
898.381	0.0131360
898.459	0.0130939
898.537	0.0131886
898.616	0.0130211
898.694	0.0129828
898.772	0.0131810
898.850	0.0132409
898.928	0.0131445
899.006	0.0130789
899.084	0.0131558
899.162	0.0130908
899.241	0.0130035
899.319	0.0129278
899.397	0.0130985
899.475	0.0132256
899.553	0.0131318
899.631	0.0131232
899.709	0.0131955
899.787	0.0131234
899.866	0.0130776
899.944	0.0131706
900.022	0.0129967
900.100	0.0130341
900.178	0.0132543
900.256	0.0133301
900.334	0.0132674
900.412	0.0130930
900.491	0.0130766
900.569	0.0131536
900.647	0.0131618
900.725	0.0133199
900.803	0.0131322
900.881	0.0132237
900.959	0.0132269
901.037	0.0131667
901.116	0.0131836
901.194	0.0131480
901.272	0.0130980
901.350	0.0131663
901.428	0.0130942
901.506	0.0131844
901.584	0.0133665
901.662	0.0131696
901.741	0.0131010
901.819	0.0134368
901.897	0.0131638
901.975	0.0130718
902.053	0.0131974
902.131	0.0132545
902.209	0.0130618
902.287	0.0131489
902.366	0.0132169
902.444	0.0132784
902.522	0.0132463
902.600	0.0130678
902.678	0.0131026
902.756	0.0131222
902.834	0.0131903
902.912	0.0131594
902.991	0.0132021
903.069	0.0131965
903.147	0.0131695
903.225	0.0130719
903.303	0.0131541
903.381	0.0131565
903.459	0.0130639
903.537	0.0131837
903.616	0.0130608
903.694	0.0130602
903.772	0.0130522
903.850	0.0131908
903.928	0.0131229
904.006	0.0131566
904.084	0.0131718
904.162	0.0132092
904.241	0.0130255
904.319	0.0131335
904.397	0.0130986
904.475	0.0131602
904.553	0.0131714
904.631	0.0132203
904.709	0.0132916
904.787	0.0131396
904.866	0.0131207
904.944	0.0132047
905.022	0.0132552
905.100	0.0130637
905.178	0.0131814
905.256	0.0131781
905.334	0.0131236
905.412	0.0131719
905.491	0.0130698
905.569	0.0130478
905.647	0.0131616
905.725	0.0130002
905.803	0.0131161
905.881	0.0130381
905.959	0.0130860
906.037	0.0132042
906.116	0.0132536
906.194	0.0131828
906.272	0.0131523
906.350	0.0131020
906.428	0.0131050
906.506	0.0131861
906.584	0.0131367
906.662	0.0130606
906.741	0.0131503
906.819	0.0131145
906.897	0.0131959
906.975	0.0132590
907.053	0.0131129
907.131	0.0131487
907.209	0.0130296
907.287	0.0130719
907.366	0.0131757
907.444	0.0129813
907.522	0.0130930
907.600	0.0131800
907.678	0.0130689
907.756	0.0130889
907.834	0.0130781
907.912	0.0131625
907.991	0.0131398
908.069	0.0132765
908.147	0.0130929
908.225	0.0131461
908.303	0.0132839
908.381	0.0131632
908.459	0.0131035
908.537	0.0131872
908.616	0.0130312
908.694	0.0132119
908.772	0.0132558
908.850	0.0131470
908.928	0.0132289
909.006	0.0133565
909.084	0.0130932
909.162	0.0132569
909.241	0.0133379
909.319	0.0132143
909.397	0.0130739
909.475	0.0130472
909.553	0.0131817
909.631	0.0132863
909.709	0.0131734
909.787	0.0130934
909.866	0.0131567
909.944	0.0132620
910.022	0.0131799
910.100	0.0131348
910.178	0.0131953
910.256	0.0131440
910.334	0.0131749
910.412	0.0132218
910.491	0.0131739
910.569	0.0130678
910.647	0.0131477
910.725	0.0132356
910.803	0.0131984
910.881	0.0132799
910.959	0.0133377
911.037	0.0131650
911.116	0.0133205
911.194	0.0133096
911.272	0.0130840
911.350	0.0130780
911.428	0.0131577
911.506	0.0131068
911.584	0.0131270
911.662	0.0132432
911.741	0.0132688
911.819	0.0132937
911.897	0.0132635
911.975	0.0131686
912.053	0.0131999
912.131	0.0131939
912.209	0.0132555
912.287	0.0132590
912.366	0.0132068
912.444	0.0131969
912.522	0.0131483
912.600	0.0132117
912.678	0.0132247
912.756	0.0134212
912.834	0.0133391
912.912	0.0133612
912.991	0.0131248
913.069	0.0132336
913.147	0.0133733
913.225	0.0134277
913.303	0.0133421
913.381	0.0133964
913.459	0.0134061
913.537	0.0132190
913.616	0.0132911
913.694	0.0134295
913.772	0.0132760
913.850	0.0132955
913.928	0.0133426
914.006	0.0132761
914.084	0.0133221
914.162	0.0132974
914.241	0.0133978
914.319	0.0131548
914.397	0.0131744
914.475	0.0133495
914.553	0.0133400
914.631	0.0132725
914.709	0.0133673
914.787	0.0132789
914.866	0.0134268
914.944	0.0132816
915.022	0.0131300
915.100	0.0132477
915.178	0.0132265
915.256	0.0132204
915.334	0.0132246
915.412	0.0132306
915.491	0.0133047
915.569	0.0131595
915.647	0.0133661
915.725	0.0133175
915.803	0.0132503
915.881	0.0132644
915.959	0.0131625
916.037	0.0132023
916.116	0.0132024
916.194	0.0131001
916.272	0.0131796
916.350	0.0133218
916.428	0.0133012
916.506	0.0132755
916.584	0.0131240
916.662	0.0131154
916.741	0.0132827
916.819	0.0132150
916.897	0.0130884
916.975	0.0131548
917.053	0.0132144
917.131	0.0131644
917.209	0.0131004
917.287	0.0132191
917.366	0.0133109
917.444	0.0131332
917.522	0.0132369
917.600	0.0131606
917.678	0.0133112
917.756	0.0132817
917.834	0.0131165
917.912	0.0132001
917.991	0.0131839
918.069	0.0131823
918.147	0.0132426
918.225	0.0131020
918.303	0.0133172
918.381	0.0132568
918.459	0.0132218
918.537	0.0132683
918.616	0.0132442
918.694	0.0132280
918.772	0.0133321
918.850	0.0132195
918.928	0.0133031
919.006	0.0133767
919.084	0.0131178
919.162	0.0132043
919.241	0.0132375
919.319	0.0132104
919.397	0.0131134
919.475	0.0132328
919.553	0.0133042
919.631	0.0132148
919.709	0.0132909
919.787	0.0131082
919.866	0.0130340
919.944	0.0130920
