05/06/2022	19:22:25	Ver.	4.1	UNKNOWN
Optical Delay	600.015094	Delta X		0.078125	Sweeps	1	Scan Rate	0/0
Coordinates	Axis 1	NaN	Axis 2	NaN	Axis 3	NaN	Axis 4	NaN	Axis 5	NaN	Axis 6	0.000000
TX Power	0.000000	RX Power	0.000000

600.015	0.0153699
600.093	0.0153725
600.171	0.0153276
600.249	0.0155242
600.328	0.0153993
600.406	0.0154281
600.484	0.0153850
600.562	0.0153487
600.640	0.0153971
600.718	0.0153842
600.796	0.0154467
600.874	0.0154072
600.953	0.0153432
601.031	0.0154331
601.109	0.0152690
601.187	0.0153625
601.265	0.0153262
601.343	0.0152060
601.421	0.0152438
601.499	0.0153806
601.578	0.0152535
601.656	0.0153327
601.734	0.0153228
601.812	0.0153401
601.890	0.0153618
601.968	0.0151674
602.046	0.0152379
602.124	0.0152974
602.203	0.0154076
602.281	0.0154678
602.359	0.0153460
602.437	0.0154736
602.515	0.0152655
602.593	0.0152401
602.671	0.0154163
602.749	0.0153426
602.828	0.0154359
602.906	0.0153440
602.984	0.0152956
603.062	0.0153549
603.140	0.0152731
603.218	0.0153217
603.296	0.0153631
603.374	0.0153939
603.453	0.0152962
603.531	0.0153920
603.609	0.0153267
603.687	0.0153814
603.765	0.0153764
603.843	0.0152967
603.921	0.0152161
603.999	0.0153553
604.078	0.0152438
604.156	0.0153097
604.234	0.0153147
604.312	0.0152906
604.390	0.0152819
604.468	0.0152998
604.546	0.0153062
604.624	0.0153439
604.703	0.0153532
604.781	0.0152626
604.859	0.0153167
604.937	0.0153686
605.015	0.0154901
605.093	0.0155249
605.171	0.0153342
605.249	0.0152717
605.328	0.0153876
605.406	0.0153198
605.484	0.0152737
605.562	0.0152808
605.640	0.0153512
605.718	0.0153330
605.796	0.0152143
605.874	0.0152356
605.953	0.0151415
606.031	0.0152420
606.109	0.0154382
606.187	0.0152812
606.265	0.0154118
606.343	0.0153568
606.421	0.0153457
606.499	0.0151884
606.578	0.0152838
606.656	0.0152904
606.734	0.0152468
606.812	0.0152374
606.890	0.0153967
606.968	0.0152556
607.046	0.0152108
607.124	0.0151630
607.203	0.0152831
607.281	0.0153400
607.359	0.0151870
607.437	0.0152373
607.515	0.0152608
607.593	0.0152746
607.671	0.0152311
607.749	0.0152768
607.828	0.0152188
607.906	0.0152151
607.984	0.0152160
608.062	0.0153822
608.140	0.0153277
608.218	0.0152626
608.296	0.0151713
608.374	0.0153043
608.453	0.0152821
608.531	0.0151829
608.609	0.0152896
608.687	0.0152852
608.765	0.0152820
608.843	0.0152519
608.921	0.0151366
608.999	0.0152000
609.078	0.0151843
609.156	0.0152219
609.234	0.0153447
609.312	0.0154347
609.390	0.0151685
609.468	0.0153098
609.546	0.0153820
609.624	0.0153119
609.703	0.0152854
609.781	0.0151921
609.859	0.0153171
609.937	0.0153595
610.015	0.0153704
610.093	0.0152886
610.171	0.0153121
610.249	0.0153245
610.328	0.0151933
610.406	0.0153156
610.484	0.0153531
610.562	0.0153384
610.640	0.0151706
610.718	0.0152737
610.796	0.0152215
610.874	0.0152702
610.953	0.0150404
611.031	0.0152387
611.109	0.0153341
611.187	0.0151720
611.265	0.0152188
611.343	0.0152369
611.421	0.0153607
611.499	0.0153750
611.578	0.0152082
611.656	0.0152386
611.734	0.0154110
611.812	0.0153919
611.890	0.0152679
611.968	0.0152389
612.046	0.0153008
612.124	0.0152460
612.203	0.0151960
612.281	0.0152802
612.359	0.0152663
612.437	0.0153421
612.515	0.0151727
612.593	0.0153596
612.671	0.0153230
612.749	0.0153114
612.828	0.0153974
612.906	0.0153334
612.984	0.0154842
613.062	0.0154359
613.140	0.0152953
613.218	0.0152303
613.296	0.0154295
613.374	0.0154213
613.453	0.0153996
613.531	0.0153638
613.609	0.0153796
613.687	0.0152802
613.765	0.0154494
613.843	0.0154484
613.921	0.0155182
613.999	0.0155282
614.078	0.0153940
614.156	0.0153892
614.234	0.0153815
614.312	0.0154873
614.390	0.0154210
614.468	0.0153951
614.546	0.0153206
614.624	0.0152841
614.703	0.0152899
614.781	0.0152864
614.859	0.0154317
614.937	0.0153246
615.015	0.0153160
615.093	0.0152792
615.171	0.0154510
615.249	0.0153639
615.328	0.0152766
615.406	0.0152541
615.484	0.0155277
615.562	0.0154091
615.640	0.0154305
615.718	0.0154472
615.796	0.0154636
615.874	0.0154763
615.953	0.0154933
616.031	0.0155082
616.109	0.0154531
616.187	0.0155227
616.265	0.0154266
616.343	0.0154146
616.421	0.0154765
616.499	0.0154097
616.578	0.0153949
616.656	0.0154043
616.734	0.0153072
616.812	0.0154129
616.890	0.0154387
616.968	0.0153852
617.046	0.0152281
617.124	0.0153920
617.203	0.0153812
617.281	0.0153884
617.359	0.0152840
617.437	0.0153437
617.515	0.0152374
617.593	0.0154020
617.671	0.0153461
617.749	0.0154225
617.828	0.0152811
617.906	0.0152870
617.984	0.0154942
618.062	0.0153958
618.140	0.0153767
618.218	0.0153740
618.296	0.0154420
618.374	0.0153613
618.453	0.0155540
618.531	0.0154581
618.609	0.0154576
618.687	0.0153909
618.765	0.0154968
618.843	0.0153992
618.921	0.0154063
618.999	0.0154645
619.078	0.0154842
619.156	0.0155654
619.234	0.0153855
619.312	0.0154568
619.390	0.0153606
619.468	0.0154852
619.546	0.0153638
619.624	0.0154381
619.703	0.0153361
619.781	0.0155249
619.859	0.0152669
619.937	0.0152798
620.015	0.0152412
620.093	0.0153481
620.171	0.0152118
620.249	0.0152518
620.328	0.0151859
620.406	0.0152888
620.484	0.0152508
620.562	0.0152088
620.640	0.0152316
620.718	0.0152619
620.796	0.0152197
620.874	0.0152300
620.953	0.0152161
621.031	0.0152380
621.109	0.0152194
621.187	0.0152729
621.265	0.0152589
621.343	0.0153311
621.421	0.0153510
621.499	0.0153488
621.578	0.0152724
621.656	0.0152945
621.734	0.0154259
621.812	0.0153851
621.890	0.0153534
621.968	0.0152227
622.046	0.0153912
622.124	0.0153542
622.203	0.0153726
622.281	0.0153712
622.359	0.0152962
622.437	0.0153958
622.515	0.0152899
622.593	0.0152816
622.671	0.0154278
622.749	0.0154919
622.828	0.0153192
622.906	0.0152192
622.984	0.0153215
623.062	0.0152675
623.140	0.0153149
623.218	0.0153079
623.296	0.0152132
623.374	0.0153194
623.453	0.0154626
623.531	0.0152407
623.609	0.0153287
623.687	0.0154083
623.765	0.0155163
623.843	0.0154115
623.921	0.0152721
623.999	0.0153653
624.078	0.0153314
624.156	0.0153049
624.234	0.0153478
624.312	0.0152396
624.390	0.0152517
624.468	0.0152923
624.546	0.0153754
624.624	0.0152471
624.703	0.0152421
624.781	0.0152835
624.859	0.0152805
624.937	0.0152496
625.015	0.0152599
625.093	0.0152506
625.171	0.0151237
625.249	0.0152661
625.328	0.0152459
625.406	0.0152203
625.484	0.0152005
625.562	0.0152041
625.640	0.0153000
625.718	0.0153080
625.796	0.0152071
625.874	0.0151785
625.953	0.0151612
626.031	0.0152012
626.109	0.0152597
626.187	0.0151791
626.265	0.0152377
626.343	0.0154199
626.421	0.0153970
626.499	0.0153345
626.578	0.0152742
626.656	0.0153184
626.734	0.0153672
626.812	0.0153286
626.890	0.0153757
626.968	0.0154063
627.046	0.0152951
627.124	0.0154601
627.203	0.0153705
627.281	0.0153915
627.359	0.0152007
627.437	0.0153880
627.515	0.0153584
627.593	0.0153437
627.671	0.0154118
627.749	0.0153250
627.828	0.0152132
627.906	0.0151839
627.984	0.0153981
628.062	0.0153284
628.140	0.0154084
628.218	0.0152551
628.296	0.0154740
628.374	0.0153912
628.453	0.0153680
628.531	0.0153089
628.609	0.0153119
628.687	0.0152840
628.765	0.0153767
628.843	0.0154609
628.921	0.0153100
628.999	0.0152472
629.078	0.0152596
629.156	0.0151302
629.234	0.0151547
629.312	0.0150593
629.390	0.0152184
629.468	0.0150521
629.546	0.0150729
629.624	0.0151530
629.703	0.0152316
629.781	0.0151173
629.859	0.0152556
629.937	0.0151051
630.015	0.0152583
630.093	0.0153420
630.171	0.0153378
630.249	0.0153436
630.328	0.0152815
630.406	0.0154807
630.484	0.0154978
630.562	0.0155597
630.640	0.0156367
630.718	0.0157028
630.796	0.0156345
630.874	0.0157684
630.953	0.0155997
631.031	0.0155540
631.109	0.0156534
631.187	0.0154501
631.265	0.0155095
631.343	0.0154301
631.421	0.0154130
631.499	0.0153220
631.578	0.0154021
631.656	0.0153607
631.734	0.0152837
631.812	0.0152042
631.890	0.0152100
631.968	0.0152309
632.046	0.0151507
632.124	0.0151201
632.203	0.0152488
632.281	0.0152660
632.359	0.0152437
632.437	0.0152112
632.515	0.0153815
632.593	0.0153746
632.671	0.0152203
632.749	0.0152785
632.828	0.0153735
632.906	0.0153226
632.984	0.0152690
633.062	0.0154507
633.140	0.0153369
633.218	0.0153288
633.296	0.0153549
633.374	0.0153588
633.453	0.0155228
633.531	0.0156600
633.609	0.0155527
633.687	0.0156723
633.765	0.0156979
633.843	0.0156148
633.921	0.0156877
633.999	0.0156160
634.078	0.0157491
634.156	0.0155302
634.234	0.0157207
634.312	0.0155983
634.390	0.0155600
634.468	0.0156152
634.546	0.0153626
634.624	0.0153832
634.703	0.0153379
634.781	0.0153810
634.859	0.0153386
634.937	0.0152269
635.015	0.0152535
635.093	0.0152847
635.171	0.0151266
635.249	0.0154086
635.328	0.0153180
635.406	0.0153204
635.484	0.0151466
635.562	0.0150922
635.640	0.0152289
635.718	0.0152048
635.796	0.0152190
635.874	0.0151209
635.953	0.0151279
636.031	0.0151608
636.109	0.0151105
636.187	0.0150933
636.265	0.0151468
636.343	0.0151613
636.421	0.0150662
636.499	0.0151976
636.578	0.0152926
636.656	0.0154812
636.734	0.0155959
636.812	0.0155421
636.890	0.0157115
636.968	0.0157113
637.046	0.0157172
637.124	0.0157738
637.203	0.0158437
637.281	0.0158723
637.359	0.0158406
637.437	0.0159611
637.515	0.0158337
637.593	0.0157438
637.671	0.0157603
637.749	0.0157004
637.828	0.0156561
637.906	0.0155148
637.984	0.0156114
638.062	0.0155142
638.140	0.0154935
638.218	0.0155093
638.296	0.0154236
638.374	0.0154128
638.453	0.0153964
638.531	0.0152107
638.609	0.0151958
638.687	0.0151469
638.765	0.0151079
638.843	0.0149493
638.921	0.0150068
638.999	0.0150324
639.078	0.0149377
639.156	0.0149375
639.234	0.0147657
639.312	0.0147519
639.390	0.0147451
639.468	0.0147911
639.546	0.0149821
639.624	0.0148808
639.703	0.0148552
639.781	0.0150080
639.859	0.0150102
639.937	0.0150202
640.015	0.0150374
640.093	0.0151331
640.171	0.0150820
640.249	0.0152577
640.328	0.0152879
640.406	0.0153330
640.484	0.0154401
640.562	0.0154103
640.640	0.0153205
640.718	0.0156193
640.796	0.0157148
640.874	0.0156415
640.953	0.0158324
641.031	0.0157362
641.109	0.0159380
641.187	0.0158910
641.265	0.0158523
641.343	0.0159320
641.421	0.0158298
641.499	0.0158177
641.578	0.0159502
641.656	0.0159467
641.734	0.0158020
641.812	0.0157897
641.890	0.0159449
641.968	0.0157939
642.046	0.0156294
642.124	0.0155280
642.203	0.0153742
642.281	0.0154113
642.359	0.0153306
642.437	0.0152707
642.515	0.0151898
642.593	0.0151909
642.671	0.0150434
642.749	0.0149278
642.828	0.0149586
642.906	0.0148024
642.984	0.0149020
643.062	0.0146983
643.140	0.0147630
643.218	0.0148015
643.296	0.0145930
643.374	0.0148122
643.453	0.0145881
643.531	0.0145813
643.609	0.0146812
643.687	0.0147357
643.765	0.0147755
643.843	0.0147652
643.921	0.0147475
643.999	0.0149303
644.078	0.0150214
644.156	0.0150365
644.234	0.0151511
644.312	0.0152726
644.390	0.0155014
644.468	0.0154465
644.546	0.0156160
644.624	0.0155988
644.703	0.0156905
644.781	0.0159957
644.859	0.0159666
644.937	0.0160629
645.015	0.0161458
645.093	0.0162585
645.171	0.0161402
645.249	0.0162254
645.328	0.0162886
645.406	0.0164049
645.484	0.0163705
645.562	0.0162625
645.640	0.0163137
645.718	0.0163809
645.796	0.0163823
645.874	0.0163480
645.953	0.0161282
646.031	0.0160038
646.109	0.0158847
646.187	0.0157436
646.265	0.0156395
646.343	0.0155966
646.421	0.0154707
646.499	0.0153526
646.578	0.0150002
646.656	0.0150692
646.734	0.0149673
646.812	0.0147598
646.890	0.0147080
646.968	0.0147508
647.046	0.0145123
647.124	0.0143746
647.203	0.0143124
647.281	0.0143027
647.359	0.0142796
647.437	0.0142287
647.515	0.0142290
647.593	0.0140726
647.671	0.0142431
647.749	0.0142207
647.828	0.0143598
647.906	0.0143293
647.984	0.0143888
648.062	0.0145145
648.140	0.0146853
648.218	0.0149798
648.296	0.0151307
648.374	0.0153152
648.453	0.0154802
648.531	0.0157245
648.609	0.0158602
648.687	0.0160246
648.765	0.0162254
648.843	0.0162218
648.921	0.0163908
648.999	0.0164673
649.078	0.0165030
649.156	0.0164896
649.234	0.0164703
649.312	0.0165076
649.390	0.0164236
649.468	0.0163770
649.546	0.0164991
649.624	0.0164397
649.703	0.0163598
649.781	0.0164015
649.859	0.0163304
649.937	0.0163122
650.015	0.0161220
650.093	0.0159930
650.171	0.0158817
650.249	0.0158770
650.328	0.0156258
650.406	0.0154830
650.484	0.0152732
650.562	0.0151726
650.640	0.0149510
650.718	0.0148180
650.796	0.0147427
650.874	0.0146585
650.953	0.0145373
651.031	0.0144942
651.109	0.0143944
651.187	0.0144001
651.265	0.0143328
651.343	0.0142879
651.421	0.0143279
651.499	0.0143005
651.578	0.0143474
651.656	0.0142990
651.734	0.0142180
651.812	0.0143912
651.890	0.0143819
651.968	0.0143502
652.046	0.0144568
652.124	0.0146476
652.203	0.0147321
652.281	0.0148163
652.359	0.0150443
652.437	0.0151028
652.515	0.0153927
652.593	0.0155511
652.671	0.0157115
652.749	0.0158062
652.828	0.0159627
652.906	0.0162006
652.984	0.0162503
653.062	0.0163913
653.140	0.0164113
653.218	0.0165194
653.296	0.0165575
653.374	0.0165357
653.453	0.0165305
653.531	0.0163647
653.609	0.0164889
653.687	0.0163645
653.765	0.0163509
653.843	0.0163872
653.921	0.0162655
653.999	0.0159885
654.078	0.0158979
654.156	0.0158666
654.234	0.0158160
654.312	0.0156747
654.390	0.0156041
654.468	0.0155204
654.546	0.0153220
654.624	0.0152141
654.703	0.0150750
654.781	0.0151026
654.859	0.0149059
654.937	0.0149639
655.015	0.0147672
655.093	0.0147201
655.171	0.0145819
655.249	0.0147390
655.328	0.0146247
655.406	0.0145368
655.484	0.0146012
655.562	0.0146230
655.640	0.0145881
655.718	0.0144936
655.796	0.0145327
655.874	0.0146315
655.953	0.0146022
656.031	0.0146505
656.109	0.0147521
656.187	0.0148059
656.265	0.0148530
656.343	0.0149760
656.421	0.0150008
656.499	0.0153573
656.578	0.0155975
656.656	0.0155900
656.734	0.0156765
656.812	0.0157831
656.890	0.0158999
656.968	0.0158451
657.046	0.0158070
657.124	0.0159251
657.203	0.0160556
657.281	0.0160410
657.359	0.0160892
657.437	0.0160937
657.515	0.0161205
657.593	0.0161428
657.671	0.0160391
657.749	0.0160948
657.828	0.0161539
657.906	0.0161127
657.984	0.0158968
658.062	0.0160175
658.140	0.0158341
658.218	0.0157707
658.296	0.0156868
658.374	0.0157346
658.453	0.0155204
658.531	0.0153803
658.609	0.0153326
658.687	0.0153922
658.765	0.0152386
658.843	0.0149115
658.921	0.0149584
658.999	0.0149871
659.078	0.0148846
659.156	0.0147325
659.234	0.0146053
659.312	0.0146043
659.390	0.0145551
659.468	0.0146577
659.546	0.0143990
659.624	0.0144693
659.703	0.0145052
659.781	0.0145941
659.859	0.0147405
659.937	0.0146803
660.015	0.0148965
660.093	0.0148918
660.171	0.0149875
660.249	0.0153004
660.328	0.0153282
660.406	0.0154355
660.484	0.0155110
660.562	0.0156360
660.640	0.0157475
660.718	0.0158115
660.796	0.0158454
660.874	0.0159017
660.953	0.0160004
661.031	0.0161952
661.109	0.0160934
661.187	0.0160817
661.265	0.0161546
661.343	0.0161214
661.421	0.0162095
661.499	0.0161290
661.578	0.0160267
661.656	0.0161307
661.734	0.0160246
661.812	0.0159331
661.890	0.0158624
661.968	0.0156234
662.046	0.0155284
662.124	0.0154446
662.203	0.0153893
662.281	0.0152873
662.359	0.0152131
662.437	0.0149576
662.515	0.0149997
662.593	0.0148773
662.671	0.0148957
662.749	0.0147531
662.828	0.0146532
662.906	0.0146439
662.984	0.0146171
663.062	0.0146629
663.140	0.0146540
663.218	0.0145860
663.296	0.0146003
663.374	0.0145741
663.453	0.0148071
663.531	0.0146955
663.609	0.0146707
663.687	0.0149550
663.765	0.0148911
663.843	0.0151609
663.921	0.0152107
663.999	0.0153310
664.078	0.0154537
664.156	0.0155802
664.234	0.0156651
664.312	0.0158761
664.390	0.0158756
664.468	0.0159027
664.546	0.0159438
664.624	0.0160843
664.703	0.0160963
664.781	0.0162388
664.859	0.0160830
664.937	0.0161470
665.015	0.0159924
665.093	0.0158389
665.171	0.0159189
665.249	0.0158365
665.328	0.0159240
665.406	0.0155519
665.484	0.0154202
665.562	0.0155046
665.640	0.0155895
665.718	0.0155482
665.796	0.0153539
665.874	0.0152266
665.953	0.0151551
666.031	0.0151833
666.109	0.0151012
666.187	0.0150230
666.265	0.0148813
666.343	0.0148058
666.421	0.0148397
666.499	0.0146535
666.578	0.0147892
666.656	0.0147510
666.734	0.0146539
666.812	0.0146433
666.890	0.0146003
666.968	0.0144894
667.046	0.0147129
667.124	0.0146887
667.203	0.0146088
667.281	0.0145528
667.359	0.0145806
667.437	0.0145673
667.515	0.0147168
667.593	0.0148380
667.671	0.0148577
667.749	0.0150824
667.828	0.0152135
667.906	0.0152517
667.984	0.0153564
668.062	0.0153515
668.140	0.0157125
668.218	0.0157861
668.296	0.0159691
668.374	0.0159322
668.453	0.0161381
668.531	0.0161334
668.609	0.0162726
668.687	0.0162948
668.765	0.0161539
668.843	0.0162691
668.921	0.0162765
668.999	0.0162959
669.078	0.0160412
669.156	0.0159780
669.234	0.0160633
669.312	0.0159796
669.390	0.0157688
669.468	0.0156831
669.546	0.0155963
669.624	0.0154852
669.703	0.0152912
669.781	0.0153014
669.859	0.0151367
669.937	0.0150456
670.015	0.0151486
670.093	0.0150061
670.171	0.0149725
670.249	0.0148689
670.328	0.0148407
670.406	0.0148101
670.484	0.0147881
670.562	0.0148080
670.640	0.0146944
670.718	0.0146556
670.796	0.0145142
670.874	0.0146970
670.953	0.0146766
671.031	0.0146542
671.109	0.0145393
671.187	0.0145593
671.265	0.0146674
671.343	0.0144936
671.421	0.0146429
671.499	0.0148827
671.578	0.0148013
671.656	0.0148820
671.734	0.0151147
671.812	0.0151027
671.890	0.0152484
671.968	0.0153967
672.046	0.0155686
672.124	0.0155875
672.203	0.0156861
672.281	0.0158727
672.359	0.0159740
672.437	0.0159518
672.515	0.0160858
672.593	0.0162040
672.671	0.0162724
672.749	0.0162299
672.828	0.0161523
672.906	0.0161381
672.984	0.0161546
673.062	0.0163104
673.140	0.0160973
673.218	0.0160427
673.296	0.0160814
673.374	0.0159306
673.453	0.0159951
673.531	0.0160448
673.609	0.0159019
673.687	0.0157544
673.765	0.0156551
673.843	0.0156555
673.921	0.0155040
673.999	0.0153973
674.078	0.0151801
674.156	0.0151140
674.234	0.0150629
674.312	0.0149641
674.390	0.0148396
674.468	0.0146461
674.546	0.0145673
674.624	0.0145978
674.703	0.0146812
674.781	0.0145142
674.859	0.0146384
674.937	0.0146439
675.015	0.0145562
675.093	0.0146108
675.171	0.0145586
675.249	0.0145937
675.328	0.0146912
675.406	0.0147878
675.484	0.0148494
675.562	0.0149132
675.640	0.0150354
675.718	0.0151192
675.796	0.0153490
675.874	0.0153222
675.953	0.0154851
676.031	0.0156335
676.109	0.0156645
676.187	0.0157129
676.265	0.0160101
676.343	0.0159930
676.421	0.0159716
676.499	0.0159508
676.578	0.0161981
676.656	0.0162113
676.734	0.0161888
676.812	0.0161871
676.890	0.0162224
676.968	0.0161275
677.046	0.0161697
677.124	0.0160450
677.203	0.0160199
677.281	0.0159097
677.359	0.0160430
677.437	0.0159861
677.515	0.0157844
677.593	0.0156367
677.671	0.0155384
677.749	0.0155989
677.828	0.0154235
677.906	0.0152386
677.984	0.0152937
678.062	0.0150436
678.140	0.0149953
678.218	0.0149003
678.296	0.0146857
678.374	0.0147993
678.453	0.0146056
678.531	0.0148336
678.609	0.0146308
678.687	0.0146358
678.765	0.0146667
678.843	0.0147379
678.921	0.0148309
678.999	0.0147915
679.078	0.0148543
679.156	0.0150267
679.234	0.0149082
679.312	0.0148426
679.390	0.0151477
679.468	0.0151158
679.546	0.0151143
679.624	0.0151456
679.703	0.0151809
679.781	0.0152463
679.859	0.0152380
679.937	0.0153996
680.015	0.0156013
680.093	0.0157498
680.171	0.0156944
680.249	0.0156604
680.328	0.0157496
680.406	0.0157044
680.484	0.0159067
680.562	0.0159435
680.640	0.0160191
680.718	0.0159626
680.796	0.0160422
680.874	0.0160932
680.953	0.0159555
681.031	0.0160662
681.109	0.0159489
681.187	0.0158475
681.265	0.0158961
681.343	0.0157415
681.421	0.0156149
681.499	0.0157417
681.578	0.0154936
681.656	0.0154315
681.734	0.0152499
681.812	0.0151675
681.890	0.0151678
681.968	0.0150922
682.046	0.0148904
682.124	0.0150078
682.203	0.0149821
682.281	0.0148524
682.359	0.0148064
682.437	0.0147076
682.515	0.0146457
682.593	0.0146894
682.671	0.0146866
682.749	0.0146570
682.828	0.0148009
682.906	0.0147055
682.984	0.0148873
683.062	0.0148857
683.140	0.0148248
683.218	0.0151389
683.296	0.0150552
683.374	0.0149644
683.453	0.0151920
683.531	0.0152061
683.609	0.0153910
683.687	0.0153503
683.765	0.0154343
683.843	0.0155400
683.921	0.0156293
683.999	0.0155904
684.078	0.0156390
684.156	0.0155482
684.234	0.0155859
684.312	0.0157613
684.390	0.0157429
684.468	0.0157568
684.546	0.0158377
684.624	0.0157896
684.703	0.0157732
684.781	0.0156769
684.859	0.0157523
684.937	0.0157312
685.015	0.0154811
685.093	0.0156435
685.171	0.0155408
685.249	0.0155038
685.328	0.0156361
685.406	0.0155355
685.484	0.0153211
685.562	0.0153999
685.640	0.0152499
685.718	0.0152312
685.796	0.0153520
685.874	0.0152096
685.953	0.0151923
686.031	0.0150806
686.109	0.0150439
686.187	0.0151194
686.265	0.0149751
686.343	0.0149489
686.421	0.0149699
686.499	0.0149368
686.578	0.0148016
686.656	0.0148615
686.734	0.0149898
686.812	0.0149331
686.890	0.0148161
686.968	0.0149375
687.046	0.0150622
687.124	0.0150417
687.203	0.0150956
687.281	0.0151910
687.359	0.0150751
687.437	0.0151601
687.515	0.0153455
687.593	0.0153423
687.671	0.0155318
687.749	0.0156747
687.828	0.0154816
687.906	0.0156575
687.984	0.0156727
688.062	0.0158061
688.140	0.0157357
688.218	0.0158743
688.296	0.0158138
688.374	0.0158488
688.453	0.0157833
688.531	0.0157540
688.609	0.0157198
688.687	0.0157092
688.765	0.0156673
688.843	0.0155309
688.921	0.0155878
688.999	0.0155166
689.078	0.0156490
689.156	0.0154527
689.234	0.0153233
689.312	0.0153515
689.390	0.0152853
689.468	0.0154385
689.546	0.0153804
689.624	0.0150968
689.703	0.0150442
689.781	0.0150825
689.859	0.0149000
689.937	0.0149956
690.015	0.0148020
690.093	0.0149694
690.171	0.0148579
690.249	0.0149356
690.328	0.0147623
690.406	0.0148338
690.484	0.0148635
690.562	0.0148682
690.640	0.0149447
690.718	0.0151342
690.796	0.0151294
690.874	0.0150756
690.953	0.0152769
691.031	0.0151257
691.109	0.0152280
691.187	0.0152712
691.265	0.0154179
691.343	0.0153770
691.421	0.0152151
691.499	0.0155787
691.578	0.0156329
691.656	0.0157178
691.734	0.0156509
691.812	0.0157587
691.890	0.0156826
691.968	0.0156471
692.046	0.0155203
692.124	0.0156434
692.203	0.0157199
692.281	0.0157191
692.359	0.0156526
692.437	0.0155669
692.515	0.0155068
692.593	0.0156556
692.671	0.0155426
692.749	0.0154749
692.828	0.0153590
692.906	0.0153996
692.984	0.0154903
693.062	0.0152880
693.140	0.0154134
693.218	0.0153053
693.296	0.0153570
693.374	0.0153571
693.453	0.0152517
693.531	0.0152136
693.609	0.0152795
693.687	0.0151955
693.765	0.0150407
693.843	0.0150166
693.921	0.0150620
693.999	0.0150221
694.078	0.0151507
694.156	0.0151304
694.234	0.0150368
694.312	0.0149177
694.390	0.0150038
694.468	0.0150577
694.546	0.0149892
694.624	0.0151405
694.703	0.0151472
694.781	0.0151315
694.859	0.0151637
694.937	0.0151356
695.015	0.0149777
695.093	0.0150488
695.171	0.0151151
695.249	0.0151974
695.328	0.0152252
695.406	0.0152608
695.484	0.0151939
695.562	0.0150742
695.640	0.0153014
695.718	0.0154728
695.796	0.0155753
695.874	0.0155109
695.953	0.0156365
696.031	0.0154912
696.109	0.0155593
696.187	0.0157931
696.265	0.0157066
696.343	0.0156026
696.421	0.0157482
696.499	0.0157458
696.578	0.0156323
696.656	0.0156967
696.734	0.0155289
696.812	0.0155936
696.890	0.0154567
696.968	0.0155272
697.046	0.0154572
697.124	0.0154835
697.203	0.0153481
697.281	0.0153355
697.359	0.0151315
697.437	0.0152909
697.515	0.0152271
697.593	0.0150529
697.671	0.0150657
697.749	0.0148982
697.828	0.0149766
697.906	0.0149552
697.984	0.0150452
698.062	0.0150548
698.140	0.0149143
698.218	0.0150064
698.296	0.0149029
698.374	0.0149041
698.453	0.0149801
698.531	0.0151504
698.609	0.0150538
698.687	0.0149861
698.765	0.0150793
698.843	0.0153032
698.921	0.0153501
698.999	0.0152788
699.078	0.0152123
699.156	0.0152029
699.234	0.0153681
699.312	0.0153556
699.390	0.0153047
699.468	0.0154174
699.546	0.0155316
699.624	0.0155071
699.703	0.0155955
699.781	0.0157289
699.859	0.0156639
699.937	0.0155933
700.015	0.0156873
700.093	0.0158224
700.171	0.0156598
700.249	0.0156950
700.328	0.0157987
700.406	0.0157062
700.484	0.0155794
700.562	0.0156397
700.640	0.0156207
700.718	0.0155703
700.796	0.0155029
700.874	0.0154276
700.953	0.0154324
701.031	0.0154261
701.109	0.0153964
701.187	0.0153276
701.265	0.0151969
701.343	0.0151588
701.421	0.0151042
701.499	0.0150906
701.578	0.0150675
701.656	0.0151074
701.734	0.0149972
701.812	0.0150822
701.890	0.0151183
701.968	0.0150561
702.046	0.0149967
702.124	0.0150623
702.203	0.0151129
702.281	0.0150435
702.359	0.0151559
702.437	0.0152310
702.515	0.0151398
702.593	0.0151489
702.671	0.0153230
702.749	0.0152277
702.828	0.0152768
702.906	0.0152627
702.984	0.0152923
703.062	0.0154436
703.140	0.0153944
703.218	0.0153616
703.296	0.0153984
703.374	0.0154831
703.453	0.0154269
703.531	0.0154950
703.609	0.0154335
703.687	0.0155269
703.765	0.0156474
703.843	0.0154661
703.921	0.0156025
703.999	0.0155717
704.078	0.0155878
704.156	0.0155168
704.234	0.0155188
704.312	0.0156066
704.390	0.0156219
704.468	0.0154622
704.546	0.0155679
704.624	0.0155948
704.703	0.0154215
704.781	0.0154619
704.859	0.0153770
704.937	0.0152074
705.015	0.0153240
705.093	0.0154333
705.171	0.0152908
705.249	0.0152672
705.328	0.0152134
705.406	0.0152316
705.484	0.0152032
705.562	0.0152406
705.640	0.0153562
705.718	0.0152868
705.796	0.0153012
705.874	0.0152750
705.953	0.0150748
706.031	0.0151082
706.109	0.0151714
706.187	0.0151781
706.265	0.0151527
706.343	0.0151156
706.421	0.0151736
706.499	0.0152506
706.578	0.0152495
706.656	0.0151109
706.734	0.0152168
706.812	0.0152311
706.890	0.0153012
706.968	0.0153401
707.046	0.0151957
707.124	0.0152068
707.203	0.0154619
707.281	0.0153642
707.359	0.0154520
707.437	0.0154247
707.515	0.0152944
707.593	0.0156160
707.671	0.0155241
707.749	0.0155614
707.828	0.0155294
707.906	0.0154362
707.984	0.0152982
708.062	0.0153914
708.140	0.0155124
708.218	0.0154377
708.296	0.0155350
708.374	0.0154812
708.453	0.0153265
708.531	0.0153431
708.609	0.0153551
708.687	0.0152702
708.765	0.0153316
708.843	0.0153285
708.921	0.0152495
708.999	0.0153040
709.078	0.0153010
709.156	0.0153152
709.234	0.0153762
709.312	0.0153483
709.390	0.0153176
709.468	0.0154619
709.546	0.0154182
709.624	0.0154491
709.703	0.0151618
709.781	0.0153391
709.859	0.0153585
709.937	0.0153789
710.015	0.0152913
710.093	0.0152957
710.171	0.0151637
710.249	0.0152862
710.328	0.0152769
710.406	0.0151934
710.484	0.0153159
710.562	0.0153588
710.640	0.0152679
710.718	0.0152567
710.796	0.0153632
710.874	0.0152922
710.953	0.0153776
711.031	0.0155317
711.109	0.0154637
711.187	0.0153637
711.265	0.0155833
711.343	0.0155839
711.421	0.0155145
711.499	0.0155290
711.578	0.0154787
711.656	0.0156931
711.734	0.0156120
711.812	0.0155002
711.890	0.0155473
711.968	0.0154927
712.046	0.0156383
712.124	0.0155286
712.203	0.0155058
712.281	0.0154197
712.359	0.0153613
712.437	0.0154076
712.515	0.0154552
712.593	0.0154292
712.671	0.0154729
712.749	0.0153651
712.828	0.0152303
712.906	0.0153165
712.984	0.0152164
713.062	0.0153683
713.140	0.0153526
713.218	0.0153143
713.296	0.0152918
713.374	0.0152792
713.453	0.0152808
713.531	0.0153429
713.609	0.0152376
713.687	0.0153397
713.765	0.0153690
713.843	0.0153010
713.921	0.0152566
713.999	0.0153336
714.078	0.0154138
714.156	0.0154342
714.234	0.0152044
714.312	0.0152715
714.390	0.0154727
714.468	0.0153432
714.546	0.0152602
714.624	0.0154131
714.703	0.0153048
714.781	0.0152482
714.859	0.0154285
714.937	0.0152805
715.015	0.0153358
715.093	0.0153310
715.171	0.0153690
715.249	0.0153216
715.328	0.0155353
715.406	0.0154517
715.484	0.0153078
715.562	0.0154693
715.640	0.0155315
715.718	0.0155338
715.796	0.0156528
715.874	0.0153086
715.953	0.0154587
716.031	0.0155109
716.109	0.0155153
716.187	0.0154278
716.265	0.0155525
716.343	0.0153985
716.421	0.0154283
716.499	0.0154321
716.578	0.0154309
716.656	0.0154068
716.734	0.0153803
716.812	0.0151888
716.890	0.0153333
716.968	0.0153725
717.046	0.0153031
717.124	0.0152901
717.203	0.0153763
717.281	0.0153349
717.359	0.0153555
717.437	0.0153985
717.515	0.0153999
717.593	0.0152756
717.671	0.0153283
717.749	0.0152792
717.828	0.0154272
717.906	0.0154102
717.984	0.0154351
718.062	0.0153677
718.140	0.0153371
718.218	0.0154285
718.296	0.0152431
718.374	0.0152287
718.453	0.0152681
718.531	0.0152386
718.609	0.0152809
718.687	0.0152651
718.765	0.0152087
718.843	0.0153607
718.921	0.0153220
718.999	0.0154018
719.078	0.0152668
719.156	0.0153706
719.234	0.0153976
719.312	0.0155047
719.390	0.0153558
719.468	0.0153620
719.546	0.0154087
719.624	0.0153714
719.703	0.0152831
719.781	0.0152688
719.859	0.0152991
719.937	0.0151677
720.015	0.0152122
720.093	0.0153004
720.171	0.0152697
720.249	0.0153188
720.328	0.0151521
720.406	0.0152320
720.484	0.0153333
720.562	0.0152525
720.640	0.0153796
720.718	0.0152999
720.796	0.0154098
720.874	0.0153552
720.953	0.0153042
721.031	0.0153924
721.109	0.0154539
721.187	0.0154510
721.265	0.0152821
721.343	0.0152882
721.421	0.0154680
721.499	0.0155193
721.578	0.0153712
721.656	0.0152733
721.734	0.0153814
721.812	0.0154782
721.890	0.0153711
721.968	0.0153455
722.046	0.0154118
722.124	0.0152650
722.203	0.0152504
722.281	0.0152420
722.359	0.0152916
722.437	0.0152109
722.515	0.0152857
722.593	0.0152962
722.671	0.0153082
722.749	0.0153821
722.828	0.0152828
722.906	0.0152316
722.984	0.0151530
723.062	0.0153935
723.140	0.0154396
723.218	0.0154052
723.296	0.0153237
723.374	0.0153438
723.453	0.0153140
723.531	0.0154608
723.609	0.0154298
723.687	0.0154044
723.765	0.0153721
723.843	0.0153654
723.921	0.0155167
723.999	0.0156629
724.078	0.0153383
724.156	0.0153770
724.234	0.0153819
724.312	0.0154893
724.390	0.0154380
724.468	0.0153578
724.546	0.0154330
724.624	0.0155111
724.703	0.0155254
724.781	0.0155582
724.859	0.0154941
724.937	0.0155467
725.015	0.0154174
725.093	0.0154622
725.171	0.0153104
725.249	0.0153841
725.328	0.0154127
725.406	0.0152761
725.484	0.0153647
725.562	0.0153834
725.640	0.0152951
725.718	0.0152184
725.796	0.0153352
725.874	0.0152393
725.953	0.0151917
726.031	0.0153970
726.109	0.0152171
726.187	0.0153403
726.265	0.0153984
726.343	0.0154076
726.421	0.0152737
726.499	0.0152565
726.578	0.0154136
726.656	0.0153631
726.734	0.0153363
726.812	0.0155647
726.890	0.0154523
726.968	0.0155052
727.046	0.0155357
727.124	0.0154005
727.203	0.0154842
727.281	0.0156246
727.359	0.0154688
727.437	0.0154874
727.515	0.0155025
727.593	0.0155609
727.671	0.0154265
727.749	0.0154131
727.828	0.0154741
727.906	0.0155048
727.984	0.0154227
728.062	0.0153416
728.140	0.0155412
728.218	0.0154993
728.296	0.0154667
728.374	0.0153308
728.453	0.0153967
728.531	0.0153310
728.609	0.0154494
728.687	0.0153032
728.765	0.0153690
728.843	0.0153457
728.921	0.0154128
728.999	0.0153132
729.078	0.0153763
729.156	0.0151238
729.234	0.0153342
729.312	0.0153731
729.390	0.0153801
729.468	0.0152973
729.546	0.0154093
729.624	0.0153166
729.703	0.0155176
729.781	0.0153805
729.859	0.0153683
729.937	0.0155937
730.015	0.0154794
730.093	0.0154579
730.171	0.0153581
730.249	0.0154570
730.328	0.0153604
730.406	0.0154605
730.484	0.0155270
730.562	0.0154523
730.640	0.0153542
730.718	0.0154254
730.796	0.0153588
730.874	0.0153973
730.953	0.0153932
731.031	0.0154852
731.109	0.0153319
731.187	0.0153942
731.265	0.0154711
731.343	0.0153213
731.421	0.0152515
731.499	0.0154353
731.578	0.0154252
731.656	0.0154121
731.734	0.0153662
731.812	0.0154719
731.890	0.0155296
731.968	0.0156179
732.046	0.0155311
732.124	0.0155167
732.203	0.0154783
732.281	0.0154021
732.359	0.0154100
732.437	0.0154366
732.515	0.0153581
732.593	0.0154204
732.671	0.0155598
732.749	0.0154832
732.828	0.0155231
732.906	0.0154424
732.984	0.0155041
733.062	0.0155832
733.140	0.0154947
733.218	0.0154146
733.296	0.0154570
733.374	0.0153885
733.453	0.0154527
733.531	0.0154026
733.609	0.0153990
733.687	0.0154827
733.765	0.0154214
733.843	0.0154469
733.921	0.0154156
733.999	0.0152888
734.078	0.0151581
734.156	0.0153065
734.234	0.0152454
734.312	0.0152172
734.390	0.0152860
734.468	0.0152356
734.546	0.0152673
734.624	0.0152779
734.703	0.0152667
734.781	0.0152699
734.859	0.0153462
734.937	0.0153994
735.015	0.0153306
735.093	0.0153387
735.171	0.0154007
735.249	0.0154215
735.328	0.0154826
735.406	0.0154865
735.484	0.0154215
735.562	0.0153773
735.640	0.0153976
735.718	0.0155078
735.796	0.0154047
735.874	0.0153223
735.953	0.0154305
736.031	0.0153963
736.109	0.0154029
736.187	0.0153429
736.265	0.0153112
736.343	0.0153416
736.421	0.0152842
736.499	0.0153638
736.578	0.0152894
736.656	0.0153626
736.734	0.0153353
736.812	0.0153632
736.890	0.0152255
736.968	0.0154954
737.046	0.0153712
737.124	0.0153727
737.203	0.0152328
737.281	0.0155156
737.359	0.0152935
737.437	0.0153557
737.515	0.0152345
737.593	0.0154499
737.671	0.0154124
737.749	0.0153817
737.828	0.0153377
737.906	0.0153679
737.984	0.0154518
738.062	0.0154306
738.140	0.0154031
738.218	0.0154277
738.296	0.0153368
738.374	0.0154549
738.453	0.0153532
738.531	0.0154047
738.609	0.0154308
738.687	0.0154280
738.765	0.0154527
738.843	0.0154128
738.921	0.0154729
738.999	0.0155656
739.078	0.0153949
739.156	0.0154016
739.234	0.0154446
739.312	0.0153819
739.390	0.0152840
739.468	0.0155363
739.546	0.0154185
739.624	0.0152949
739.703	0.0153117
739.781	0.0153880
739.859	0.0153104
739.937	0.0153828
740.015	0.0152419
740.093	0.0153037
740.171	0.0153415
740.249	0.0154425
740.328	0.0153894
740.406	0.0152975
740.484	0.0153327
740.562	0.0153811
740.640	0.0153130
740.718	0.0154521
740.796	0.0155212
740.874	0.0154559
740.953	0.0154956
741.031	0.0153966
741.109	0.0154008
741.187	0.0154153
741.265	0.0155144
741.343	0.0155405
741.421	0.0154116
741.499	0.0155392
741.578	0.0153481
741.656	0.0154055
741.734	0.0154191
741.812	0.0155708
741.890	0.0156290
741.968	0.0154150
742.046	0.0155052
742.124	0.0155396
742.203	0.0155411
742.281	0.0153905
742.359	0.0154050
742.437	0.0154864
742.515	0.0153504
742.593	0.0153458
742.671	0.0154562
742.749	0.0154424
742.828	0.0153827
742.906	0.0153703
742.984	0.0153806
743.062	0.0154049
743.140	0.0154496
743.218	0.0154200
743.296	0.0153831
743.374	0.0153116
743.453	0.0153157
743.531	0.0152991
743.609	0.0151553
743.687	0.0152467
743.765	0.0153120
743.843	0.0154018
743.921	0.0153064
743.999	0.0154110
744.078	0.0152594
744.156	0.0154260
744.234	0.0153458
744.312	0.0152867
744.390	0.0152855
744.468	0.0153873
744.546	0.0152838
744.624	0.0152850
744.703	0.0153496
744.781	0.0152406
744.859	0.0153856
744.937	0.0154796
745.015	0.0154234
745.093	0.0154028
745.171	0.0153773
745.249	0.0155048
745.328	0.0155444
745.406	0.0154620
745.484	0.0154929
745.562	0.0155566
745.640	0.0154936
745.718	0.0154274
745.796	0.0154569
745.874	0.0154884
745.953	0.0155642
746.031	0.0154586
746.109	0.0155556
746.187	0.0154552
746.265	0.0155537
746.343	0.0155274
746.421	0.0156665
746.499	0.0155745
746.578	0.0155991
746.656	0.0155827
746.734	0.0154888
746.812	0.0155422
746.890	0.0156046
746.968	0.0154869
747.046	0.0155166
747.124	0.0156097
747.203	0.0153484
747.281	0.0153043
747.359	0.0153203
747.437	0.0153657
747.515	0.0152972
747.593	0.0153738
747.671	0.0152275
747.749	0.0152999
747.828	0.0153455
747.906	0.0151960
747.984	0.0152208
748.062	0.0150968
748.140	0.0151343
748.218	0.0152861
748.296	0.0153275
748.374	0.0152255
748.453	0.0153049
748.531	0.0152027
748.609	0.0152808
748.687	0.0153568
748.765	0.0153368
748.843	0.0153896
748.921	0.0153027
748.999	0.0153783
749.078	0.0153634
749.156	0.0155588
749.234	0.0155223
749.312	0.0154326
749.390	0.0154083
749.468	0.0153277
749.546	0.0155001
749.624	0.0154572
749.703	0.0154818
749.781	0.0154574
749.859	0.0155344
749.937	0.0154626
750.015	0.0155998
750.093	0.0154706
750.171	0.0156409
750.249	0.0155150
750.328	0.0153254
750.406	0.0154004
750.484	0.0156282
750.562	0.0155685
750.640	0.0154177
750.718	0.0156034
750.796	0.0155804
750.874	0.0154910
750.953	0.0155122
751.031	0.0155795
751.109	0.0155981
751.187	0.0154435
751.265	0.0154136
751.343	0.0154420
751.421	0.0154501
751.499	0.0153349
751.578	0.0153473
751.656	0.0153412
751.734	0.0152182
751.812	0.0153124
751.890	0.0153278
751.968	0.0152337
752.046	0.0154387
752.124	0.0152495
752.203	0.0152611
752.281	0.0152777
752.359	0.0154137
752.437	0.0153246
752.515	0.0153979
752.593	0.0153682
752.671	0.0153362
752.749	0.0153797
752.828	0.0152807
752.906	0.0151951
752.984	0.0153550
753.062	0.0153758
753.140	0.0151114
753.218	0.0152094
753.296	0.0151687
753.374	0.0152460
753.453	0.0153228
753.531	0.0153139
753.609	0.0154287
753.687	0.0153123
753.765	0.0153223
753.843	0.0153580
753.921	0.0154215
753.999	0.0152620
754.078	0.0154000
754.156	0.0154701
754.234	0.0152653
754.312	0.0153675
754.390	0.0156577
754.468	0.0155624
754.546	0.0155876
754.624	0.0154662
754.703	0.0154943
754.781	0.0154907
754.859	0.0156898
754.937	0.0155378
755.015	0.0155533
755.093	0.0154360
755.171	0.0154309
755.249	0.0155053
755.328	0.0154930
755.406	0.0154287
755.484	0.0153655
755.562	0.0154166
755.640	0.0152702
755.718	0.0152232
755.796	0.0153912
755.874	0.0153166
755.953	0.0152500
756.031	0.0152995
756.109	0.0154257
756.187	0.0151973
756.265	0.0152074
756.343	0.0153373
756.421	0.0153809
756.499	0.0153476
756.578	0.0153111
756.656	0.0153349
756.734	0.0154218
756.812	0.0153831
756.890	0.0154105
756.968	0.0152792
757.046	0.0153692
757.124	0.0152921
757.203	0.0152628
757.281	0.0153386
757.359	0.0153051
757.437	0.0151868
757.515	0.0152755
757.593	0.0154407
757.671	0.0153403
757.749	0.0153122
757.828	0.0154925
757.906	0.0154241
757.984	0.0153594
758.062	0.0154189
758.140	0.0156551
758.218	0.0155868
758.296	0.0154038
758.374	0.0153898
758.453	0.0155500
758.531	0.0155702
758.609	0.0156289
758.687	0.0154794
758.765	0.0156546
758.843	0.0156065
758.921	0.0155579
758.999	0.0155342
759.078	0.0154456
759.156	0.0153498
759.234	0.0153116
759.312	0.0153133
759.390	0.0150935
759.468	0.0152297
759.546	0.0152286
759.624	0.0150562
759.703	0.0151782
759.781	0.0152596
759.859	0.0151357
759.937	0.0151690
760.015	0.0153521
760.093	0.0152024
760.171	0.0151588
760.249	0.0152202
760.328	0.0152285
760.406	0.0153880
760.484	0.0153506
760.562	0.0153187
760.640	0.0152608
760.718	0.0153505
760.796	0.0154647
760.874	0.0153721
760.953	0.0152434
761.031	0.0153348
761.109	0.0153420
761.187	0.0153265
761.265	0.0153642
761.343	0.0153700
761.421	0.0153278
761.499	0.0151679
761.578	0.0153387
761.656	0.0151908
761.734	0.0151686
761.812	0.0151847
761.890	0.0153091
761.968	0.0153718
762.046	0.0151740
762.124	0.0152804
762.203	0.0153040
762.281	0.0153973
762.359	0.0155506
762.437	0.0154731
762.515	0.0154903
762.593	0.0154002
762.671	0.0155981
762.749	0.0155495
762.828	0.0155475
762.906	0.0154379
762.984	0.0153773
763.062	0.0155122
763.140	0.0154025
763.218	0.0154335
763.296	0.0154716
763.374	0.0152982
763.453	0.0153255
763.531	0.0152682
763.609	0.0152122
763.687	0.0152539
763.765	0.0151727
763.843	0.0150313
763.921	0.0151704
763.999	0.0151646
764.078	0.0152361
764.156	0.0150095
764.234	0.0150993
764.312	0.0151373
764.390	0.0151814
764.468	0.0152008
764.546	0.0153717
764.624	0.0153222
764.703	0.0152057
764.781	0.0153296
764.859	0.0153813
764.937	0.0153262
765.015	0.0153336
765.093	0.0155233
765.171	0.0153484
765.249	0.0153243
765.328	0.0152769
765.406	0.0152687
765.484	0.0153949
765.562	0.0153664
765.640	0.0153650
765.718	0.0155119
765.796	0.0154960
765.874	0.0153560
765.953	0.0151855
766.031	0.0153516
766.109	0.0153146
766.187	0.0153960
766.265	0.0154573
766.343	0.0154332
766.421	0.0152751
766.499	0.0151850
766.578	0.0154416
766.656	0.0155086
766.734	0.0154475
766.812	0.0152856
766.890	0.0155925
766.968	0.0155344
767.046	0.0154095
767.124	0.0155096
767.203	0.0154195
767.281	0.0155567
767.359	0.0156289
767.437	0.0155451
767.515	0.0154790
767.593	0.0154767
767.671	0.0152805
767.749	0.0153146
767.828	0.0153767
767.906	0.0153425
767.984	0.0152036
768.062	0.0151703
768.140	0.0150972
768.218	0.0151017
768.296	0.0151455
768.374	0.0150981
768.453	0.0152692
768.531	0.0150868
768.609	0.0150779
768.687	0.0151292
768.765	0.0152459
768.843	0.0152966
768.921	0.0153770
768.999	0.0152342
769.078	0.0152578
769.156	0.0153430
769.234	0.0153706
769.312	0.0155079
769.390	0.0154050
769.468	0.0155934
769.546	0.0155222
769.624	0.0155728
769.703	0.0155103
769.781	0.0155172
769.859	0.0154960
769.937	0.0155750
770.015	0.0154997
770.093	0.0154919
770.171	0.0153837
770.249	0.0154253
770.328	0.0155024
770.406	0.0154845
770.484	0.0153316
770.562	0.0155212
770.640	0.0154145
770.718	0.0153394
770.796	0.0152753
770.874	0.0153727
770.953	0.0152921
771.031	0.0152839
771.109	0.0153951
771.187	0.0154900
771.265	0.0153165
771.343	0.0155138
771.421	0.0153268
771.499	0.0154993
771.578	0.0154657
771.656	0.0154616
771.734	0.0154000
771.812	0.0155010
771.890	0.0153638
771.968	0.0153694
772.046	0.0154269
772.124	0.0153880
772.203	0.0153126
772.281	0.0153038
772.359	0.0153488
772.437	0.0152285
772.515	0.0151026
772.593	0.0150466
772.671	0.0151887
772.749	0.0152610
772.828	0.0151613
772.906	0.0152393
772.984	0.0152756
773.062	0.0153685
773.140	0.0153856
773.218	0.0154557
773.296	0.0155930
773.374	0.0155409
773.453	0.0155851
773.531	0.0155503
773.609	0.0156517
773.687	0.0156956
773.765	0.0156616
773.843	0.0157249
773.921	0.0157105
773.999	0.0155844
774.078	0.0156011
774.156	0.0155493
774.234	0.0155546
774.312	0.0155021
774.390	0.0153973
774.468	0.0153238
774.546	0.0152775
774.624	0.0153429
774.703	0.0152932
774.781	0.0153445
774.859	0.0153664
774.937	0.0152456
775.015	0.0154253
775.093	0.0152593
775.171	0.0152783
775.249	0.0153841
775.328	0.0153708
775.406	0.0151904
775.484	0.0153395
775.562	0.0153737
775.640	0.0154046
775.718	0.0153310
775.796	0.0154219
775.874	0.0153665
775.953	0.0154041
776.031	0.0153997
776.109	0.0153323
776.187	0.0154832
776.265	0.0152547
776.343	0.0153735
776.421	0.0153201
776.499	0.0152677
776.578	0.0151553
776.656	0.0151598
776.734	0.0152763
776.812	0.0152055
776.890	0.0152841
776.968	0.0151946
777.046	0.0152172
777.124	0.0151796
777.203	0.0151019
777.281	0.0152134
777.359	0.0152630
777.437	0.0153239
777.515	0.0152991
777.593	0.0153341
777.671	0.0153122
777.749	0.0153121
777.828	0.0153783
777.906	0.0153908
777.984	0.0155060
778.062	0.0154424
778.140	0.0154349
778.218	0.0155726
778.296	0.0156104
778.374	0.0155180
778.453	0.0154794
778.531	0.0154221
778.609	0.0154326
778.687	0.0155203
778.765	0.0153934
778.843	0.0154913
778.921	0.0152884
778.999	0.0151725
779.078	0.0151708
779.156	0.0151082
779.234	0.0153009
779.312	0.0152464
779.390	0.0151503
779.468	0.0150611
779.546	0.0149779
779.624	0.0152703
779.703	0.0152225
779.781	0.0151633
779.859	0.0150993
779.937	0.0152847
780.015	0.0153159
780.093	0.0153259
780.171	0.0153088
780.249	0.0153737
780.328	0.0153772
780.406	0.0152760
780.484	0.0152792
780.562	0.0152442
780.640	0.0153558
780.718	0.0154163
780.796	0.0152676
780.874	0.0152475
780.953	0.0153364
781.031	0.0153083
781.109	0.0152120
781.187	0.0151620
781.265	0.0151447
781.343	0.0151989
781.421	0.0151842
781.499	0.0151733
781.578	0.0151251
781.656	0.0151446
781.734	0.0151840
781.812	0.0151038
781.890	0.0152201
781.968	0.0152551
782.046	0.0154179
782.124	0.0154770
782.203	0.0154491
782.281	0.0154726
782.359	0.0154937
782.437	0.0156019
782.515	0.0156750
782.593	0.0154652
782.671	0.0153932
782.749	0.0155349
782.828	0.0154764
782.906	0.0154503
782.984	0.0153964
783.062	0.0153613
783.140	0.0153271
783.218	0.0151020
783.296	0.0150974
783.374	0.0151122
783.453	0.0151060
783.531	0.0150890
783.609	0.0149783
783.687	0.0149593
783.765	0.0150630
783.843	0.0150384
783.921	0.0150871
783.999	0.0151105
784.078	0.0151713
784.156	0.0151963
784.234	0.0152526
784.312	0.0153795
784.390	0.0153207
784.468	0.0155363
784.546	0.0154671
784.624	0.0154890
784.703	0.0154058
784.781	0.0155025
784.859	0.0154469
784.937	0.0153767
785.015	0.0153738
785.093	0.0152659
785.171	0.0151880
785.249	0.0152174
785.328	0.0152096
785.406	0.0152467
785.484	0.0150612
785.562	0.0150835
785.640	0.0153028
785.718	0.0152248
785.796	0.0151732
785.874	0.0151737
785.953	0.0152579
786.031	0.0152995
786.109	0.0154675
786.187	0.0154172
786.265	0.0155257
786.343	0.0154910
786.421	0.0155681
786.499	0.0156305
786.578	0.0153887
786.656	0.0154421
786.734	0.0154182
786.812	0.0154436
786.890	0.0153580
786.968	0.0154193
787.046	0.0152927
787.124	0.0153271
787.203	0.0151498
787.281	0.0151775
787.359	0.0152632
787.437	0.0152768
787.515	0.0151038
787.593	0.0150867
787.671	0.0151830
787.749	0.0150167
787.828	0.0150540
787.906	0.0151498
787.984	0.0152146
788.062	0.0151761
788.140	0.0153477
788.218	0.0153281
788.296	0.0153445
788.374	0.0154444
788.453	0.0153723
788.531	0.0154247
788.609	0.0153523
788.687	0.0154863
788.765	0.0154744
788.843	0.0155380
788.921	0.0154890
788.999	0.0152747
789.078	0.0153329
789.156	0.0153664
789.234	0.0152756
789.312	0.0151757
789.390	0.0153016
789.468	0.0152742
789.546	0.0150511
789.624	0.0152403
789.703	0.0153264
789.781	0.0152398
789.859	0.0151620
789.937	0.0153115
790.015	0.0153436
790.093	0.0151926
790.171	0.0152782
790.249	0.0153835
790.328	0.0154212
790.406	0.0154736
790.484	0.0155048
790.562	0.0154874
790.640	0.0155336
790.718	0.0154760
790.796	0.0154383
790.874	0.0154699
790.953	0.0154506
791.031	0.0154062
791.109	0.0151696
791.187	0.0152155
791.265	0.0152333
791.343	0.0152750
791.421	0.0151510
791.499	0.0153670
791.578	0.0152519
791.656	0.0151168
791.734	0.0152195
791.812	0.0152058
791.890	0.0152758
791.968	0.0153768
792.046	0.0152493
792.124	0.0153368
792.203	0.0151871
792.281	0.0152586
792.359	0.0153289
792.437	0.0152998
792.515	0.0153761
792.593	0.0153008
792.671	0.0153037
792.749	0.0153198
792.828	0.0154687
792.906	0.0152470
792.984	0.0153642
793.062	0.0153807
793.140	0.0152586
793.218	0.0152406
793.296	0.0154189
793.374	0.0153861
793.453	0.0152184
793.531	0.0152879
793.609	0.0154121
793.687	0.0152911
793.765	0.0154151
793.843	0.0154480
793.921	0.0153960
793.999	0.0153092
794.078	0.0153317
794.156	0.0154784
794.234	0.0153637
794.312	0.0153612
794.390	0.0154575
794.468	0.0153188
794.546	0.0152557
794.624	0.0151524
794.703	0.0152504
794.781	0.0153236
794.859	0.0152048
794.937	0.0152703
795.015	0.0152474
795.093	0.0152054
795.171	0.0152402
795.249	0.0153248
795.328	0.0153745
795.406	0.0153645
795.484	0.0154400
795.562	0.0153777
795.640	0.0154761
795.718	0.0153699
795.796	0.0153551
795.874	0.0154607
795.953	0.0152502
796.031	0.0151527
796.109	0.0152682
796.187	0.0152110
796.265	0.0153052
796.343	0.0153030
796.421	0.0152004
796.499	0.0152189
796.578	0.0152243
796.656	0.0153182
796.734	0.0152838
796.812	0.0153649
796.890	0.0152337
796.968	0.0153423
797.046	0.0153746
797.124	0.0154074
797.203	0.0154385
797.281	0.0153983
797.359	0.0155022
797.437	0.0154727
797.515	0.0155000
797.593	0.0153555
797.671	0.0154950
797.749	0.0154539
797.828	0.0152647
797.906	0.0154167
797.984	0.0154019
798.062	0.0152584
798.140	0.0152452
798.218	0.0151923
798.296	0.0151695
798.374	0.0152323
798.453	0.0152274
798.531	0.0151373
798.609	0.0152946
798.687	0.0150661
798.765	0.0151675
798.843	0.0154085
798.921	0.0153742
798.999	0.0153947
799.078	0.0152823
799.156	0.0153083
799.234	0.0153562
799.312	0.0153123
799.390	0.0153271
799.468	0.0153578
799.546	0.0153920
799.624	0.0154753
799.703	0.0153742
799.781	0.0154033
799.859	0.0153603
799.937	0.0152678
800.015	0.0154176
800.093	0.0152911
800.171	0.0153906
800.249	0.0153796
800.328	0.0152171
800.406	0.0152734
800.484	0.0150697
800.562	0.0152459
800.640	0.0154584
800.718	0.0152950
800.796	0.0152462
800.874	0.0154286
800.953	0.0153137
801.031	0.0154327
801.109	0.0153573
801.187	0.0154175
801.265	0.0154163
801.343	0.0153468
801.421	0.0155834
801.499	0.0154729
801.578	0.0153410
801.656	0.0153162
801.734	0.0153147
801.812	0.0153584
801.890	0.0153659
801.968	0.0152907
802.046	0.0151595
802.124	0.0152892
802.203	0.0152234
802.281	0.0151579
802.359	0.0153355
802.437	0.0151614
802.515	0.0151621
802.593	0.0151507
802.671	0.0152286
802.749	0.0152768
802.828	0.0152671
802.906	0.0153694
802.984	0.0153788
803.062	0.0154146
803.140	0.0153646
803.218	0.0152144
803.296	0.0152510
803.374	0.0153634
803.453	0.0152963
803.531	0.0153682
803.609	0.0153307
803.687	0.0151993
803.765	0.0152381
803.843	0.0151395
803.921	0.0152074
803.999	0.0151881
804.078	0.0152130
804.156	0.0152520
804.234	0.0153349
804.312	0.0152938
804.390	0.0151912
804.468	0.0151136
804.546	0.0151886
804.624	0.0152957
804.703	0.0151875
804.781	0.0151618
804.859	0.0153078
804.937	0.0151151
805.015	0.0152110
805.093	0.0153041
805.171	0.0151673
805.249	0.0153482
805.328	0.0153097
805.406	0.0152759
805.484	0.0152261
805.562	0.0153675
805.640	0.0153366
805.718	0.0154434
805.796	0.0154441
805.874	0.0153643
805.953	0.0154212
806.031	0.0154430
806.109	0.0152743
806.187	0.0153181
806.265	0.0152892
806.343	0.0154240
806.421	0.0153226
806.499	0.0154910
806.578	0.0153322
806.656	0.0153891
806.734	0.0153922
806.812	0.0153168
806.890	0.0152681
806.968	0.0152834
807.046	0.0153790
807.124	0.0153195
807.203	0.0154388
807.281	0.0153733
807.359	0.0152555
807.437	0.0154659
807.515	0.0153446
807.593	0.0153409
807.671	0.0153265
807.749	0.0152364
807.828	0.0154682
807.906	0.0153621
807.984	0.0153893
808.062	0.0153212
808.140	0.0153516
808.218	0.0154659
808.296	0.0155214
808.374	0.0153941
808.453	0.0153466
808.531	0.0153751
808.609	0.0153696
808.687	0.0153165
808.765	0.0152716
808.843	0.0153717
808.921	0.0154826
808.999	0.0153468
809.078	0.0154202
809.156	0.0152393
809.234	0.0152712
809.312	0.0151614
809.390	0.0152634
809.468	0.0153109
809.546	0.0152626
809.624	0.0152287
809.703	0.0153604
809.781	0.0152802
809.859	0.0152646
809.937	0.0154292
810.015	0.0153516
810.093	0.0153605
810.171	0.0154778
810.249	0.0153978
810.328	0.0154447
810.406	0.0153172
810.484	0.0154477
810.562	0.0155602
810.640	0.0153572
810.718	0.0153298
810.796	0.0154447
810.874	0.0153277
810.953	0.0154742
811.031	0.0153099
811.109	0.0153247
811.187	0.0153317
811.265	0.0152930
811.343	0.0152330
811.421	0.0154005
811.499	0.0152251
811.578	0.0152320
811.656	0.0152168
811.734	0.0153163
811.812	0.0152966
811.890	0.0152682
811.968	0.0152214
812.046	0.0152145
812.124	0.0152980
812.203	0.0153526
812.281	0.0153973
812.359	0.0153339
812.437	0.0153865
812.515	0.0154185
812.593	0.0152996
812.671	0.0153873
812.749	0.0153603
812.828	0.0153184
812.906	0.0154105
812.984	0.0153286
813.062	0.0152119
813.140	0.0152426
813.218	0.0153664
813.296	0.0154672
813.374	0.0153424
813.453	0.0152839
813.531	0.0152898
813.609	0.0153079
813.687	0.0154076
813.765	0.0154626
813.843	0.0152171
813.921	0.0152989
813.999	0.0153329
814.078	0.0154836
814.156	0.0153613
814.234	0.0153111
814.312	0.0152219
814.390	0.0153423
814.468	0.0152678
814.546	0.0153279
814.624	0.0152869
814.703	0.0152406
814.781	0.0153281
814.859	0.0153354
814.937	0.0152472
815.015	0.0152312
815.093	0.0152057
815.171	0.0153017
815.249	0.0153468
815.328	0.0152470
815.406	0.0151766
815.484	0.0152068
815.562	0.0152834
815.640	0.0152557
815.718	0.0153033
815.796	0.0153618
815.874	0.0153545
815.953	0.0153106
816.031	0.0154290
816.109	0.0154591
816.187	0.0153636
816.265	0.0153420
816.343	0.0152034
816.421	0.0153924
816.499	0.0154509
816.578	0.0153995
816.656	0.0153814
816.734	0.0155455
816.812	0.0154503
816.890	0.0153677
816.968	0.0154576
817.046	0.0153918
817.124	0.0153386
817.203	0.0152596
817.281	0.0154650
817.359	0.0154771
817.437	0.0153692
817.515	0.0154045
817.593	0.0153456
817.671	0.0154493
817.749	0.0153535
817.828	0.0154259
817.906	0.0153166
817.984	0.0152777
818.062	0.0153495
818.140	0.0151283
818.218	0.0153131
818.296	0.0154364
818.374	0.0154240
818.453	0.0153006
818.531	0.0153509
818.609	0.0153270
818.687	0.0153358
818.765	0.0153596
818.843	0.0152960
818.921	0.0153696
818.999	0.0153300
819.078	0.0152598
819.156	0.0153142
819.234	0.0154892
819.312	0.0153432
819.390	0.0152523
819.468	0.0152497
819.546	0.0152595
819.624	0.0153941
819.703	0.0153125
819.781	0.0152477
819.859	0.0153165
819.937	0.0153358
820.015	0.0153291
820.093	0.0154124
820.171	0.0152541
820.249	0.0152110
820.328	0.0153111
820.406	0.0152917
820.484	0.0153830
820.562	0.0154013
820.640	0.0153093
820.718	0.0153878
820.796	0.0154284
820.874	0.0153999
820.953	0.0153996
821.031	0.0152879
821.109	0.0154473
821.187	0.0154631
821.265	0.0153802
821.343	0.0152735
821.421	0.0154232
821.499	0.0153640
821.578	0.0153387
821.656	0.0153149
821.734	0.0154012
821.812	0.0154189
821.890	0.0152604
821.968	0.0152405
822.046	0.0152135
822.124	0.0151894
822.203	0.0152081
822.281	0.0152389
822.359	0.0153854
822.437	0.0152905
822.515	0.0152734
822.593	0.0150993
822.671	0.0151654
822.749	0.0152380
822.828	0.0152433
822.906	0.0152085
822.984	0.0150153
823.062	0.0152877
823.140	0.0153513
823.218	0.0152535
823.296	0.0152645
823.374	0.0152061
823.453	0.0152165
823.531	0.0151809
823.609	0.0151398
823.687	0.0151374
823.765	0.0152386
823.843	0.0153252
823.921	0.0152393
823.999	0.0153678
824.078	0.0152978
824.156	0.0152391
824.234	0.0153466
824.312	0.0155151
824.390	0.0153530
824.468	0.0154344
824.546	0.0154417
824.624	0.0154405
824.703	0.0154105
824.781	0.0153531
824.859	0.0153872
824.937	0.0152808
825.015	0.0154393
825.093	0.0155256
825.171	0.0154684
825.249	0.0154281
825.328	0.0153283
825.406	0.0154133
825.484	0.0155174
825.562	0.0154720
825.640	0.0153689
825.718	0.0153681
825.796	0.0154666
825.874	0.0154388
825.953	0.0156095
826.031	0.0153331
826.109	0.0154729
826.187	0.0155036
826.265	0.0153277
826.343	0.0153121
826.421	0.0153178
826.499	0.0152377
826.578	0.0153915
826.656	0.0153034
826.734	0.0153526
826.812	0.0153303
826.890	0.0152325
826.968	0.0153174
827.046	0.0151729
827.124	0.0151916
827.203	0.0152878
827.281	0.0152518
827.359	0.0152690
827.437	0.0152680
827.515	0.0152605
827.593	0.0152686
827.671	0.0153349
827.749	0.0154228
827.828	0.0152958
827.906	0.0153259
827.984	0.0152667
828.062	0.0152805
828.140	0.0153886
828.218	0.0153339
828.296	0.0153376
828.374	0.0152963
828.453	0.0154318
828.531	0.0153545
828.609	0.0154514
828.687	0.0153280
828.765	0.0154977
828.843	0.0153772
828.921	0.0153652
828.999	0.0153059
829.078	0.0153889
829.156	0.0155261
829.234	0.0153875
829.312	0.0155151
829.390	0.0154739
829.468	0.0153848
829.546	0.0153906
829.624	0.0154405
829.703	0.0154198
829.781	0.0153620
829.859	0.0153543
829.937	0.0154854
830.015	0.0153333
830.093	0.0154561
830.171	0.0155417
830.249	0.0154425
830.328	0.0154237
830.406	0.0153200
830.484	0.0153116
830.562	0.0153062
830.640	0.0153072
830.718	0.0152853
830.796	0.0153069
830.874	0.0151978
830.953	0.0152821
831.031	0.0153007
831.109	0.0153197
831.187	0.0152754
831.265	0.0153192
831.343	0.0154080
831.421	0.0154844
831.499	0.0153351
831.578	0.0153043
831.656	0.0153181
831.734	0.0152039
831.812	0.0154140
831.890	0.0154429
831.968	0.0153199
832.046	0.0152341
832.124	0.0153978
832.203	0.0154349
832.281	0.0154577
832.359	0.0156013
832.437	0.0154720
832.515	0.0155104
832.593	0.0153956
832.671	0.0153371
832.749	0.0153979
832.828	0.0155550
832.906	0.0154445
832.984	0.0154377
833.062	0.0154390
833.140	0.0155714
833.218	0.0153806
833.296	0.0154382
833.374	0.0153817
833.453	0.0154568
833.531	0.0154404
833.609	0.0153236
833.687	0.0154099
833.765	0.0153976
833.843	0.0153403
833.921	0.0153115
833.999	0.0153253
834.078	0.0153086
834.156	0.0153227
834.234	0.0152465
834.312	0.0152721
834.390	0.0153244
834.468	0.0152760
834.546	0.0152797
834.624	0.0152872
834.703	0.0152197
834.781	0.0154166
834.859	0.0152845
834.937	0.0152894
835.015	0.0152994
835.093	0.0152987
835.171	0.0153931
835.249	0.0151828
835.328	0.0152811
835.406	0.0152768
835.484	0.0153461
835.562	0.0154277
835.640	0.0154041
835.718	0.0152672
835.796	0.0153037
835.874	0.0152941
835.953	0.0154223
836.031	0.0153398
836.109	0.0155921
836.187	0.0154365
836.265	0.0153894
836.343	0.0153284
836.421	0.0154572
836.499	0.0153112
836.578	0.0154342
836.656	0.0153846
836.734	0.0152969
836.812	0.0153661
836.890	0.0154261
836.968	0.0153134
837.046	0.0155049
837.124	0.0154249
837.203	0.0153275
837.281	0.0153286
837.359	0.0154472
837.437	0.0154500
837.515	0.0154028
837.593	0.0152843
837.671	0.0153470
837.749	0.0152985
837.828	0.0152465
837.906	0.0152397
837.984	0.0152337
838.062	0.0153357
838.140	0.0153001
838.218	0.0152895
838.296	0.0153028
838.374	0.0153359
838.453	0.0152884
838.531	0.0152272
838.609	0.0152319
838.687	0.0152081
838.765	0.0153295
838.843	0.0153414
838.921	0.0152628
838.999	0.0152260
839.078	0.0151255
839.156	0.0153781
839.234	0.0153514
839.312	0.0152333
839.390	0.0152108
839.468	0.0152964
839.546	0.0153465
839.624	0.0154077
839.703	0.0155156
839.781	0.0154015
839.859	0.0153304
839.937	0.0154130
840.015	0.0154462
840.093	0.0156479
840.171	0.0155787
840.249	0.0155959
840.328	0.0155779
840.406	0.0155174
840.484	0.0155139
840.562	0.0154998
840.640	0.0155466
840.718	0.0153850
840.796	0.0155150
840.874	0.0154713
840.953	0.0153934
841.031	0.0154437
841.109	0.0152458
841.187	0.0152909
841.265	0.0153161
841.343	0.0153546
841.421	0.0153281
841.499	0.0154116
841.578	0.0151783
841.656	0.0153714
841.734	0.0154929
841.812	0.0152808
841.890	0.0153201
841.968	0.0153271
842.046	0.0152586
842.124	0.0152160
842.203	0.0153912
842.281	0.0152724
842.359	0.0151311
842.437	0.0153606
842.515	0.0152545
842.593	0.0151434
842.671	0.0152083
842.749	0.0151715
842.828	0.0153481
842.906	0.0152341
842.984	0.0152924
843.062	0.0152778
843.140	0.0153646
843.218	0.0153143
843.296	0.0153436
843.374	0.0153663
843.453	0.0153013
843.531	0.0153166
843.609	0.0153136
843.687	0.0152689
843.765	0.0153348
843.843	0.0153366
843.921	0.0153378
843.999	0.0154435
844.078	0.0153791
844.156	0.0152981
844.234	0.0152322
844.312	0.0153930
844.390	0.0153413
844.468	0.0153525
844.546	0.0154372
844.624	0.0153888
844.703	0.0154428
844.781	0.0154362
844.859	0.0154790
844.937	0.0154647
845.015	0.0155277
845.093	0.0155101
845.171	0.0155720
845.249	0.0153950
845.328	0.0153539
845.406	0.0154970
845.484	0.0154915
845.562	0.0153748
845.640	0.0154778
845.718	0.0153307
845.796	0.0153467
845.874	0.0154062
845.953	0.0153229
846.031	0.0153210
846.109	0.0153790
846.187	0.0153910
846.265	0.0153425
846.343	0.0152390
846.421	0.0153535
846.499	0.0154140
846.578	0.0153934
846.656	0.0153808
846.734	0.0154002
846.812	0.0154211
846.890	0.0154691
846.968	0.0154468
847.046	0.0154905
847.124	0.0154420
847.203	0.0154481
847.281	0.0154727
847.359	0.0154218
847.437	0.0153448
847.515	0.0154754
847.593	0.0153202
847.671	0.0154749
847.749	0.0154935
847.828	0.0153595
847.906	0.0154353
847.984	0.0154742
848.062	0.0155161
848.140	0.0152805
848.218	0.0153658
848.296	0.0154192
848.374	0.0153478
848.453	0.0154460
848.531	0.0154506
848.609	0.0155479
848.687	0.0154252
848.765	0.0153902
848.843	0.0153021
848.921	0.0153899
848.999	0.0154476
849.078	0.0155349
849.156	0.0154094
849.234	0.0154409
849.312	0.0153316
849.390	0.0152985
849.468	0.0153239
849.546	0.0152722
849.624	0.0153712
849.703	0.0153100
849.781	0.0152488
849.859	0.0153919
849.937	0.0151891
850.015	0.0153857
850.093	0.0152081
850.171	0.0152270
850.249	0.0153254
850.328	0.0153580
850.406	0.0153440
850.484	0.0151978
850.562	0.0152489
850.640	0.0153371
850.718	0.0152695
850.796	0.0152429
850.874	0.0154469
850.953	0.0154608
851.031	0.0155080
851.109	0.0153506
851.187	0.0151245
851.265	0.0154855
851.343	0.0153673
851.421	0.0153878
851.499	0.0153321
851.578	0.0152267
851.656	0.0153609
851.734	0.0153342
851.812	0.0153741
851.890	0.0154443
851.968	0.0154638
852.046	0.0154272
852.124	0.0153831
852.203	0.0154751
852.281	0.0152654
852.359	0.0153863
852.437	0.0154532
852.515	0.0154139
852.593	0.0152513
852.671	0.0152298
852.749	0.0153447
852.828	0.0152328
852.906	0.0152500
852.984	0.0152815
853.062	0.0152370
853.140	0.0151832
853.218	0.0152962
853.296	0.0152523
853.374	0.0153532
853.453	0.0151462
853.531	0.0151972
853.609	0.0153528
853.687	0.0152106
853.765	0.0151464
853.843	0.0152639
853.921	0.0152572
853.999	0.0151800
854.078	0.0151400
854.156	0.0151936
854.234	0.0152957
854.312	0.0151875
854.390	0.0152536
854.468	0.0151392
854.546	0.0152601
854.624	0.0152588
854.703	0.0153057
854.781	0.0152171
854.859	0.0152729
854.937	0.0151669
855.015	0.0152824
855.093	0.0152923
855.171	0.0153332
855.249	0.0152280
855.328	0.0152319
855.406	0.0152672
855.484	0.0152911
855.562	0.0152586
855.640	0.0152349
855.718	0.0153192
855.796	0.0153098
855.874	0.0153910
855.953	0.0152618
856.031	0.0152061
856.109	0.0152576
856.187	0.0154164
856.265	0.0152803
856.343	0.0153064
856.421	0.0154159
856.499	0.0152535
856.578	0.0153599
856.656	0.0152862
856.734	0.0154139
856.812	0.0152479
856.890	0.0152309
856.968	0.0153275
857.046	0.0153772
857.124	0.0152865
857.203	0.0152891
857.281	0.0154385
857.359	0.0153487
857.437	0.0153202
857.515	0.0152213
857.593	0.0153107
857.671	0.0153371
857.749	0.0154301
857.828	0.0152892
857.906	0.0153674
857.984	0.0153296
858.062	0.0154120
858.140	0.0154398
858.218	0.0153378
858.296	0.0152328
858.374	0.0153548
858.453	0.0154260
858.531	0.0154096
858.609	0.0153605
858.687	0.0154156
858.765	0.0155687
858.843	0.0154329
858.921	0.0153572
858.999	0.0154219
859.078	0.0154597
859.156	0.0154428
859.234	0.0153989
859.312	0.0154246
859.390	0.0155260
859.468	0.0153803
859.546	0.0154250
859.624	0.0152820
859.703	0.0153893
859.781	0.0153539
859.859	0.0154200
859.937	0.0154544
860.015	0.0153886
860.093	0.0154681
860.171	0.0152773
860.249	0.0154127
860.328	0.0153767
860.406	0.0155045
860.484	0.0152736
860.562	0.0154007
860.640	0.0152734
860.718	0.0153848
860.796	0.0152969
860.874	0.0152444
860.953	0.0153009
861.031	0.0153169
861.109	0.0152361
861.187	0.0151653
861.265	0.0152272
861.343	0.0152021
861.421	0.0152531
861.499	0.0151584
861.578	0.0151656
861.656	0.0153695
861.734	0.0154343
861.812	0.0153479
861.890	0.0152229
861.968	0.0152305
862.046	0.0153867
862.124	0.0153647
862.203	0.0152739
862.281	0.0152512
862.359	0.0152683
862.437	0.0153068
862.515	0.0155408
862.593	0.0153138
862.671	0.0153368
862.749	0.0151937
862.828	0.0153360
862.906	0.0154455
862.984	0.0155022
863.062	0.0155159
863.140	0.0155534
863.218	0.0153465
863.296	0.0154478
863.374	0.0153661
863.453	0.0154165
863.531	0.0154224
863.609	0.0155282
863.687	0.0155576
863.765	0.0155548
863.843	0.0155077
863.921	0.0155372
863.999	0.0155079
864.078	0.0156185
864.156	0.0154861
864.234	0.0154413
864.312	0.0154638
864.390	0.0154027
864.468	0.0155346
864.546	0.0155839
864.624	0.0153462
864.703	0.0154717
864.781	0.0152582
864.859	0.0152008
864.937	0.0153577
865.015	0.0153274
865.093	0.0152237
865.171	0.0153125
865.249	0.0152592
865.328	0.0150559
865.406	0.0152240
865.484	0.0152509
865.562	0.0151836
865.640	0.0152602
865.718	0.0151205
865.796	0.0153068
865.874	0.0153265
865.953	0.0153496
866.031	0.0153651
866.109	0.0152555
866.187	0.0151649
866.265	0.0153389
866.343	0.0154130
866.421	0.0153164
866.499	0.0153122
866.578	0.0153901
866.656	0.0153439
866.734	0.0153585
866.812	0.0153687
866.890	0.0154093
866.968	0.0155593
867.046	0.0154398
867.124	0.0153949
867.203	0.0154541
867.281	0.0153950
867.359	0.0153662
867.437	0.0152966
867.515	0.0154405
867.593	0.0155170
867.671	0.0155495
867.749	0.0154869
867.828	0.0153569
867.906	0.0155254
867.984	0.0154111
868.062	0.0153705
868.140	0.0154987
868.218	0.0154922
868.296	0.0153876
868.374	0.0152762
868.453	0.0153965
868.531	0.0153866
868.609	0.0153241
868.687	0.0152279
868.765	0.0152707
868.843	0.0153901
868.921	0.0153735
868.999	0.0152231
869.078	0.0152960
869.156	0.0152396
869.234	0.0152111
869.312	0.0152356
869.390	0.0153493
869.468	0.0153527
869.546	0.0153036
869.624	0.0153422
869.703	0.0153922
869.781	0.0152734
869.859	0.0154660
869.937	0.0153881
870.015	0.0152824
870.093	0.0152733
870.171	0.0153089
870.249	0.0153199
870.328	0.0152917
870.406	0.0151640
870.484	0.0153786
870.562	0.0153910
870.640	0.0153387
870.718	0.0154074
870.796	0.0153304
870.874	0.0153946
870.953	0.0153323
871.031	0.0153518
871.109	0.0153893
871.187	0.0152985
871.265	0.0153368
871.343	0.0154086
871.421	0.0153425
871.499	0.0153665
871.578	0.0153276
871.656	0.0153137
871.734	0.0153909
871.812	0.0155164
871.890	0.0153350
871.968	0.0154382
872.046	0.0154630
872.124	0.0152657
872.203	0.0153860
872.281	0.0153983
872.359	0.0152523
872.437	0.0151125
872.515	0.0152846
872.593	0.0153519
872.671	0.0153777
872.749	0.0153777
872.828	0.0152834
872.906	0.0153045
872.984	0.0152132
873.062	0.0151734
873.140	0.0152435
873.218	0.0153941
873.296	0.0151967
873.374	0.0151846
873.453	0.0151202
873.531	0.0152840
873.609	0.0152052
873.687	0.0152415
873.765	0.0152385
873.843	0.0151775
873.921	0.0152888
873.999	0.0152393
874.078	0.0152628
874.156	0.0151419
874.234	0.0150747
874.312	0.0152840
874.390	0.0154684
874.468	0.0153608
874.546	0.0152250
874.624	0.0152692
874.703	0.0152318
874.781	0.0152480
874.859	0.0153949
874.937	0.0154588
875.015	0.0153338
875.093	0.0153753
875.171	0.0153726
875.249	0.0153170
875.328	0.0152920
875.406	0.0153691
875.484	0.0153899
875.562	0.0153016
875.640	0.0152023
875.718	0.0154964
875.796	0.0153356
875.874	0.0152982
875.953	0.0153218
876.031	0.0152308
876.109	0.0153148
876.187	0.0151957
876.265	0.0152170
876.343	0.0152618
876.421	0.0152706
876.499	0.0151498
876.578	0.0152316
876.656	0.0153299
876.734	0.0153662
876.812	0.0152467
876.890	0.0152808
876.968	0.0152943
877.046	0.0153139
877.124	0.0152612
877.203	0.0152608
877.281	0.0152374
877.359	0.0152045
877.437	0.0153331
877.515	0.0151539
877.593	0.0153807
877.671	0.0153160
877.749	0.0152251
877.828	0.0151584
877.906	0.0152228
877.984	0.0153089
878.062	0.0152771
878.140	0.0152721
878.218	0.0152179
878.296	0.0152785
878.374	0.0152815
878.453	0.0152374
878.531	0.0153211
878.609	0.0153062
878.687	0.0152459
878.765	0.0152628
878.843	0.0153565
878.921	0.0152507
878.999	0.0153072
879.078	0.0152327
879.156	0.0152235
879.234	0.0153948
879.312	0.0152968
879.390	0.0152914
879.468	0.0152788
879.546	0.0151953
879.624	0.0152125
879.703	0.0151216
879.781	0.0152078
879.859	0.0152818
879.937	0.0152127
880.015	0.0151274
880.093	0.0151720
880.171	0.0152232
880.249	0.0150728
880.328	0.0151678
880.406	0.0151516
880.484	0.0151539
880.562	0.0151786
880.640	0.0151404
880.718	0.0151230
880.796	0.0152293
880.874	0.0152693
880.953	0.0150889
881.031	0.0151084
881.109	0.0151582
881.187	0.0153301
881.265	0.0151130
881.343	0.0152086
881.421	0.0152540
881.499	0.0152949
881.578	0.0153389
881.656	0.0152316
881.734	0.0153620
881.812	0.0152442
881.890	0.0151356
881.968	0.0152431
882.046	0.0151731
882.124	0.0153475
882.203	0.0153159
882.281	0.0152647
882.359	0.0152370
882.437	0.0152818
882.515	0.0153442
882.593	0.0152356
882.671	0.0153563
882.749	0.0153300
882.828	0.0152576
882.906	0.0153275
882.984	0.0152031
883.062	0.0152407
883.140	0.0151442
883.218	0.0151192
883.296	0.0153331
883.374	0.0152020
883.453	0.0153915
883.531	0.0152988
883.609	0.0152951
883.687	0.0153316
883.765	0.0151708
883.843	0.0152935
883.921	0.0154573
883.999	0.0154139
884.078	0.0153610
884.156	0.0152370
884.234	0.0152400
884.312	0.0153631
884.390	0.0153485
884.468	0.0153799
884.546	0.0154412
884.624	0.0152644
884.703	0.0153481
884.781	0.0153517
884.859	0.0153348
884.937	0.0153080
885.015	0.0152805
885.093	0.0154169
885.171	0.0154021
885.249	0.0152790
885.328	0.0154936
885.406	0.0154081
885.484	0.0153793
885.562	0.0153665
885.640	0.0154198
885.718	0.0152566
885.796	0.0153147
885.874	0.0152501
885.953	0.0154073
886.031	0.0153889
886.109	0.0152847
886.187	0.0153139
886.265	0.0153261
886.343	0.0153497
886.421	0.0153995
886.499	0.0153780
886.578	0.0153090
886.656	0.0153618
886.734	0.0152968
886.812	0.0153035
886.890	0.0153802
886.968	0.0153480
887.046	0.0152831
887.124	0.0154987
887.203	0.0153721
887.281	0.0153113
887.359	0.0152536
887.437	0.0152925
887.515	0.0153838
887.593	0.0155052
887.671	0.0152257
887.749	0.0155850
887.828	0.0154573
887.906	0.0153368
887.984	0.0153514
888.062	0.0154235
888.140	0.0154855
888.218	0.0153403
888.296	0.0154337
888.374	0.0152297
888.453	0.0152980
888.531	0.0152399
888.609	0.0153410
888.687	0.0153650
888.765	0.0153202
888.843	0.0153208
888.921	0.0154086
888.999	0.0153107
889.078	0.0152975
889.156	0.0153823
889.234	0.0153617
889.312	0.0152995
889.390	0.0152113
889.468	0.0153518
889.546	0.0154177
889.624	0.0153692
889.703	0.0153719
889.781	0.0155203
889.859	0.0155823
889.937	0.0154698
890.015	0.0155322
890.093	0.0153812
890.171	0.0154816
890.249	0.0153469
890.328	0.0155307
890.406	0.0155687
890.484	0.0154035
890.562	0.0155125
890.640	0.0153680
890.718	0.0153384
890.796	0.0154202
890.874	0.0153651
890.953	0.0154098
891.031	0.0153243
891.109	0.0154401
891.187	0.0154606
891.265	0.0153403
891.343	0.0154442
891.421	0.0154385
891.499	0.0154070
891.578	0.0154369
891.656	0.0155577
891.734	0.0154125
891.812	0.0154501
891.890	0.0154140
891.968	0.0154157
892.046	0.0155340
892.124	0.0154038
892.203	0.0152743
892.281	0.0154530
892.359	0.0154453
892.437	0.0155198
892.515	0.0155927
892.593	0.0154406
892.671	0.0153131
892.749	0.0151990
892.828	0.0155364
892.906	0.0153355
892.984	0.0153858
893.062	0.0154211
893.140	0.0153449
893.218	0.0154740
893.296	0.0152509
893.374	0.0152905
893.453	0.0152791
893.531	0.0152995
893.609	0.0154408
893.687	0.0153907
893.765	0.0152793
893.843	0.0152682
893.921	0.0154140
893.999	0.0153433
894.078	0.0151540
894.156	0.0152492
894.234	0.0154099
894.312	0.0154306
894.390	0.0152402
894.468	0.0152651
894.546	0.0153522
894.624	0.0153858
894.703	0.0153888
894.781	0.0153093
894.859	0.0153126
894.937	0.0152728
895.015	0.0151952
895.093	0.0154173
895.171	0.0152499
895.249	0.0151295
895.328	0.0152693
895.406	0.0154362
895.484	0.0153550
895.562	0.0153807
895.640	0.0152847
895.718	0.0152322
895.796	0.0150735
895.874	0.0152385
895.953	0.0152193
896.031	0.0153098
896.109	0.0153109
896.187	0.0153258
896.265	0.0151224
896.343	0.0152505
896.421	0.0151397
896.499	0.0152816
896.578	0.0153647
896.656	0.0152988
896.734	0.0152768
896.812	0.0153120
896.890	0.0152778
896.968	0.0152550
897.046	0.0152234
897.124	0.0153613
897.203	0.0153812
897.281	0.0153503
897.359	0.0152350
897.437	0.0152372
897.515	0.0153044
897.593	0.0153096
897.671	0.0153307
897.749	0.0154010
897.828	0.0152337
897.906	0.0152670
897.984	0.0153775
898.062	0.0153448
898.140	0.0153728
898.218	0.0152842
898.296	0.0154128
898.374	0.0152456
898.453	0.0153007
898.531	0.0155093
898.609	0.0153600
898.687	0.0153729
898.765	0.0152872
898.843	0.0153202
898.921	0.0154036
898.999	0.0152634
899.078	0.0154385
899.156	0.0154193
899.234	0.0154198
899.312	0.0152093
899.390	0.0152156
899.468	0.0154775
899.546	0.0154017
899.624	0.0151788
899.703	0.0152349
899.781	0.0153177
899.859	0.0153757
899.937	0.0155121
900.015	0.0152367
900.093	0.0152399
900.171	0.0153423
900.249	0.0153074
900.328	0.0151901
900.406	0.0153555
900.484	0.0152595
900.562	0.0153747
900.640	0.0153763
900.718	0.0151937
900.796	0.0153001
900.874	0.0154367
900.953	0.0153308
901.031	0.0154266
901.109	0.0154218
901.187	0.0151975
901.265	0.0154465
901.343	0.0153928
901.421	0.0154498
901.499	0.0152620
901.578	0.0152737
901.656	0.0153396
901.734	0.0153109
901.812	0.0151571
901.890	0.0152663
901.968	0.0153490
902.046	0.0153327
902.124	0.0151591
902.203	0.0153170
902.281	0.0152837
902.359	0.0152349
902.437	0.0152654
902.515	0.0153121
902.593	0.0152789
902.671	0.0152946
902.749	0.0152427
902.828	0.0153942
902.906	0.0153265
902.984	0.0153230
903.062	0.0153959
903.140	0.0154165
903.218	0.0153417
903.296	0.0153355
903.374	0.0152909
903.453	0.0153913
903.531	0.0153613
903.609	0.0153600
903.687	0.0153368
903.765	0.0152133
903.843	0.0152763
903.921	0.0153444
903.999	0.0153813
904.078	0.0153127
904.156	0.0152522
904.234	0.0152077
904.312	0.0153215
904.390	0.0154546
904.468	0.0153026
904.546	0.0152802
904.624	0.0153278
904.703	0.0153396
904.781	0.0153573
904.859	0.0153335
904.937	0.0153154
905.015	0.0153780
905.093	0.0153110
905.171	0.0154359
905.249	0.0153545
905.328	0.0152156
905.406	0.0153606
905.484	0.0154298
905.562	0.0152995
905.640	0.0152828
905.718	0.0153449
905.796	0.0152979
905.874	0.0151675
905.953	0.0153811
906.031	0.0154509
906.109	0.0152501
906.187	0.0153617
906.265	0.0152478
906.343	0.0151694
906.421	0.0153295
906.499	0.0153907
906.578	0.0151993
906.656	0.0151670
906.734	0.0152383
906.812	0.0150623
906.890	0.0152339
906.968	0.0154124
907.046	0.0153020
907.124	0.0153107
907.203	0.0153683
907.281	0.0153362
907.359	0.0152952
907.437	0.0152917
907.515	0.0153728
907.593	0.0152424
907.671	0.0154667
907.749	0.0155701
907.828	0.0153931
907.906	0.0153548
907.984	0.0153719
908.062	0.0155352
908.140	0.0154353
908.218	0.0154490
908.296	0.0155569
908.374	0.0155358
908.453	0.0153922
908.531	0.0154035
908.609	0.0155022
908.687	0.0154282
908.765	0.0153159
908.843	0.0155431
908.921	0.0154198
908.999	0.0153922
909.078	0.0154405
909.156	0.0154606
909.234	0.0154549
909.312	0.0154775
909.390	0.0154018
909.468	0.0152920
909.546	0.0152805
909.624	0.0153712
909.703	0.0152209
909.781	0.0154350
909.859	0.0153990
909.937	0.0154018
910.015	0.0153994
910.093	0.0153836
910.171	0.0153269
910.249	0.0153578
910.328	0.0153558
910.406	0.0153127
910.484	0.0152962
910.562	0.0152517
910.640	0.0154314
910.718	0.0151878
910.796	0.0151802
910.874	0.0151856
910.953	0.0152898
911.031	0.0152413
911.109	0.0153440
911.187	0.0154116
911.265	0.0153254
911.343	0.0153377
911.421	0.0154135
911.499	0.0153709
911.578	0.0152388
911.656	0.0152460
911.734	0.0153414
911.812	0.0153876
911.890	0.0152688
911.968	0.0153571
912.046	0.0154940
912.124	0.0153518
912.203	0.0152773
912.281	0.0154247
912.359	0.0153369
912.437	0.0153817
912.515	0.0153291
912.593	0.0153641
912.671	0.0153164
912.749	0.0152698
912.828	0.0153365
912.906	0.0153729
912.984	0.0153617
913.062	0.0154507
913.140	0.0153703
913.218	0.0153041
913.296	0.0152943
913.374	0.0154652
913.453	0.0155225
913.531	0.0154664
913.609	0.0153004
913.687	0.0154894
913.765	0.0155573
913.843	0.0154708
913.921	0.0153038
913.999	0.0153500
914.078	0.0153635
914.156	0.0152447
914.234	0.0154674
914.312	0.0153565
914.390	0.0153667
914.468	0.0152891
914.546	0.0154709
914.624	0.0152504
914.703	0.0153378
914.781	0.0153117
914.859	0.0152316
914.937	0.0153033
915.015	0.0152356
915.093	0.0154202
915.171	0.0154191
915.249	0.0153627
915.328	0.0152737
915.406	0.0152531
915.484	0.0152152
915.562	0.0153101
915.640	0.0154247
915.718	0.0152731
915.796	0.0152825
915.874	0.0154052
915.953	0.0153457
916.031	0.0153156
916.109	0.0154321
916.187	0.0152347
916.265	0.0153088
916.343	0.0154271
916.421	0.0152304
916.499	0.0152814
916.578	0.0154101
916.656	0.0153768
916.734	0.0154301
916.812	0.0153860
916.890	0.0154234
916.968	0.0153444
917.046	0.0154013
917.124	0.0154984
917.203	0.0153845
917.281	0.0152435
917.359	0.0153521
917.437	0.0154625
917.515	0.0154387
917.593	0.0153871
917.671	0.0152944
917.749	0.0153787
917.828	0.0153163
917.906	0.0153992
917.984	0.0153907
918.062	0.0153133
918.140	0.0154704
918.218	0.0153577
918.296	0.0153391
918.374	0.0154799
918.453	0.0153776
918.531	0.0154178
918.609	0.0153946
918.687	0.0152548
918.765	0.0153170
918.843	0.0152530
918.921	0.0152232
918.999	0.0151930
919.078	0.0154005
919.156	0.0153934
919.234	0.0154236
919.312	0.0153604
919.390	0.0152723
919.468	0.0153019
919.546	0.0152637
919.624	0.0153441
919.703	0.0153936
919.781	0.0151476
919.859	0.0153401
919.937	0.0153967
