05/06/2022	19:23:20	Ver.	4.1	UNKNOWN
Optical Delay	600.015094	Delta X		0.078125	Sweeps	1	Scan Rate	0/0
Coordinates	Axis 1	NaN	Axis 2	NaN	Axis 3	NaN	Axis 4	NaN	Axis 5	NaN	Axis 6	0.000000
TX Power	0.000000	RX Power	0.000000

600.015	0.0151382
600.093	0.0151723
600.171	0.0150948
600.249	0.0151826
600.328	0.0152027
600.406	0.0152361
600.484	0.0152172
600.562	0.0152793
600.640	0.0150871
600.718	0.0153105
600.796	0.0152484
600.874	0.0151905
600.953	0.0151779
601.031	0.0151867
601.109	0.0152172
601.187	0.0153281
601.265	0.0151633
601.343	0.0151604
601.421	0.0151464
601.499	0.0151966
601.578	0.0152836
601.656	0.0151218
601.734	0.0150231
601.812	0.0149915
601.890	0.0153139
601.968	0.0152174
602.046	0.0150889
602.124	0.0150887
602.203	0.0151267
602.281	0.0150709
602.359	0.0151727
602.437	0.0152187
602.515	0.0152059
602.593	0.0152065
602.671	0.0151447
602.749	0.0153528
602.828	0.0153663
602.906	0.0152274
602.984	0.0153624
603.062	0.0152541
603.140	0.0151783
603.218	0.0154004
603.296	0.0152811
603.374	0.0152600
603.453	0.0151151
603.531	0.0151764
603.609	0.0153436
603.687	0.0150642
603.765	0.0151440
603.843	0.0151882
603.921	0.0151218
603.999	0.0152119
604.078	0.0150455
604.156	0.0151629
604.234	0.0150890
604.312	0.0151279
604.390	0.0152155
604.468	0.0154080
604.546	0.0152305
604.624	0.0151434
604.703	0.0151370
604.781	0.0151607
604.859	0.0151124
604.937	0.0151498
605.015	0.0150879
605.093	0.0152805
605.171	0.0153561
605.249	0.0152198
605.328	0.0151627
605.406	0.0152080
605.484	0.0152052
605.562	0.0152065
605.640	0.0152219
605.718	0.0152177
605.796	0.0151870
605.874	0.0151155
605.953	0.0152627
606.031	0.0150860
606.109	0.0151442
606.187	0.0152256
606.265	0.0152213
606.343	0.0152425
606.421	0.0153381
606.499	0.0152738
606.578	0.0152238
606.656	0.0153397
606.734	0.0152853
606.812	0.0153307
606.890	0.0152872
606.968	0.0152915
607.046	0.0152747
607.124	0.0151599
607.203	0.0153623
607.281	0.0152785
607.359	0.0151876
607.437	0.0152593
607.515	0.0153762
607.593	0.0153713
607.671	0.0152834
607.749	0.0153230
607.828	0.0153352
607.906	0.0154752
607.984	0.0152990
608.062	0.0152611
608.140	0.0153717
608.218	0.0152422
608.296	0.0152757
608.374	0.0153782
608.453	0.0152312
608.531	0.0152128
608.609	0.0153324
608.687	0.0151865
608.765	0.0151446
608.843	0.0152600
608.921	0.0152393
608.999	0.0151707
609.078	0.0151949
609.156	0.0152827
609.234	0.0152766
609.312	0.0152275
609.390	0.0153599
609.468	0.0153233
609.546	0.0151198
609.624	0.0151440
609.703	0.0153481
609.781	0.0152267
609.859	0.0151462
609.937	0.0151248
610.015	0.0150953
610.093	0.0152560
610.171	0.0150971
610.249	0.0151366
610.328	0.0152778
610.406	0.0151929
610.484	0.0151357
610.562	0.0153378
610.640	0.0152418
610.718	0.0151485
610.796	0.0152003
610.874	0.0154013
610.953	0.0152721
611.031	0.0152808
611.109	0.0153288
611.187	0.0152193
611.265	0.0153602
611.343	0.0153513
611.421	0.0151188
611.499	0.0152502
611.578	0.0152780
611.656	0.0151632
611.734	0.0152978
611.812	0.0151759
611.890	0.0152271
611.968	0.0152433
612.046	0.0151783
612.124	0.0152859
612.203	0.0152204
612.281	0.0150240
612.359	0.0151326
612.437	0.0150407
612.515	0.0152309
612.593	0.0152209
612.671	0.0151579
612.749	0.0150673
612.828	0.0150063
612.906	0.0150008
612.984	0.0149664
613.062	0.0150832
613.140	0.0151585
613.218	0.0149914
613.296	0.0150526
613.374	0.0152040
613.453	0.0150867
613.531	0.0150625
613.609	0.0153108
613.687	0.0151878
613.765	0.0151170
613.843	0.0152205
613.921	0.0151769
613.999	0.0152761
614.078	0.0153802
614.156	0.0153279
614.234	0.0152051
614.312	0.0150957
614.390	0.0152434
614.468	0.0153271
614.546	0.0151285
614.624	0.0151205
614.703	0.0150689
614.781	0.0150629
614.859	0.0150294
614.937	0.0150492
615.015	0.0150778
615.093	0.0151797
615.171	0.0152099
615.249	0.0152331
615.328	0.0151402
615.406	0.0150227
615.484	0.0151575
615.562	0.0150598
615.640	0.0151407
615.718	0.0150726
615.796	0.0150335
615.874	0.0151573
615.953	0.0150385
616.031	0.0150805
616.109	0.0152354
616.187	0.0151733
616.265	0.0150188
616.343	0.0149806
616.421	0.0151046
616.499	0.0152357
616.578	0.0151377
616.656	0.0152451
616.734	0.0152283
616.812	0.0152320
616.890	0.0151719
616.968	0.0152832
617.046	0.0152802
617.124	0.0152415
617.203	0.0153123
617.281	0.0152504
617.359	0.0153960
617.437	0.0152498
617.515	0.0151685
617.593	0.0151558
617.671	0.0150038
617.749	0.0152287
617.828	0.0150969
617.906	0.0150064
617.984	0.0150998
618.062	0.0150818
618.140	0.0152208
618.218	0.0150304
618.296	0.0149092
618.374	0.0150257
618.453	0.0152174
618.531	0.0150954
618.609	0.0150820
618.687	0.0149997
618.765	0.0149982
618.843	0.0150813
618.921	0.0150323
618.999	0.0151389
619.078	0.0149168
619.156	0.0150958
619.234	0.0150018
619.312	0.0150465
619.390	0.0150804
619.468	0.0150748
619.546	0.0151394
619.624	0.0151595
619.703	0.0150471
619.781	0.0151620
619.859	0.0152743
619.937	0.0150879
620.015	0.0152390
620.093	0.0151636
620.171	0.0152188
620.249	0.0152330
620.328	0.0151375
620.406	0.0152196
620.484	0.0150526
620.562	0.0151606
620.640	0.0152395
620.718	0.0152246
620.796	0.0152295
620.874	0.0152212
620.953	0.0153025
621.031	0.0151593
621.109	0.0151280
621.187	0.0151688
621.265	0.0153430
621.343	0.0151839
621.421	0.0150539
621.499	0.0152317
621.578	0.0151632
621.656	0.0152106
621.734	0.0152361
621.812	0.0152287
621.890	0.0152481
621.968	0.0152441
622.046	0.0152721
622.124	0.0151516
622.203	0.0153502
622.281	0.0152316
622.359	0.0153535
622.437	0.0152827
622.515	0.0152639
622.593	0.0153511
622.671	0.0152206
622.749	0.0152663
622.828	0.0152671
622.906	0.0153057
622.984	0.0151505
623.062	0.0152287
623.140	0.0151890
623.218	0.0152502
623.296	0.0152505
623.374	0.0151038
623.453	0.0151469
623.531	0.0152254
623.609	0.0152832
623.687	0.0152174
623.765	0.0151814
623.843	0.0151019
623.921	0.0152085
623.999	0.0150928
624.078	0.0151352
624.156	0.0150861
624.234	0.0151041
624.312	0.0152751
624.390	0.0152072
624.468	0.0150680
624.546	0.0152221
624.624	0.0151467
624.703	0.0151635
624.781	0.0152191
624.859	0.0152814
624.937	0.0153225
625.015	0.0153615
625.093	0.0153984
625.171	0.0153642
625.249	0.0152470
625.328	0.0152982
625.406	0.0154130
625.484	0.0153157
625.562	0.0153316
625.640	0.0152542
625.718	0.0153207
625.796	0.0152790
625.874	0.0152003
625.953	0.0152634
626.031	0.0151652
626.109	0.0152770
626.187	0.0152082
626.265	0.0152692
626.343	0.0153772
626.421	0.0152589
626.499	0.0153142
626.578	0.0153903
626.656	0.0153294
626.734	0.0151325
626.812	0.0152704
626.890	0.0153407
626.968	0.0152762
627.046	0.0151025
627.124	0.0151186
627.203	0.0151363
627.281	0.0152435
627.359	0.0153706
627.437	0.0152852
627.515	0.0153043
627.593	0.0152225
627.671	0.0151559
627.749	0.0152264
627.828	0.0151708
627.906	0.0150867
627.984	0.0151826
628.062	0.0150071
628.140	0.0150522
628.218	0.0152827
628.296	0.0151665
628.374	0.0151596
628.453	0.0151448
628.531	0.0150756
628.609	0.0151141
628.687	0.0151550
628.765	0.0151185
628.843	0.0151051
628.921	0.0151904
628.999	0.0152454
629.078	0.0153289
629.156	0.0153043
629.234	0.0153603
629.312	0.0153637
629.390	0.0153076
629.468	0.0153635
629.546	0.0153183
629.624	0.0154286
629.703	0.0153109
629.781	0.0154653
629.859	0.0153409
629.937	0.0153362
630.015	0.0153105
630.093	0.0153329
630.171	0.0152977
630.249	0.0153176
630.328	0.0151472
630.406	0.0152340
630.484	0.0149884
630.562	0.0151321
630.640	0.0150450
630.718	0.0150132
630.796	0.0150068
630.874	0.0150402
630.953	0.0150037
631.031	0.0149911
631.109	0.0150581
631.187	0.0149696
631.265	0.0148801
631.343	0.0150376
631.421	0.0151265
631.499	0.0150179
631.578	0.0151157
631.656	0.0151717
631.734	0.0151238
631.812	0.0150780
631.890	0.0151683
631.968	0.0151468
632.046	0.0151998
632.124	0.0153737
632.203	0.0154278
632.281	0.0153010
632.359	0.0153054
632.437	0.0153438
632.515	0.0155702
632.593	0.0155990
632.671	0.0154189
632.749	0.0155074
632.828	0.0154649
632.906	0.0155020
632.984	0.0155296
633.062	0.0155077
633.140	0.0154185
633.218	0.0152299
633.296	0.0152145
633.374	0.0152964
633.453	0.0151218
633.531	0.0152077
633.609	0.0150969
633.687	0.0148794
633.765	0.0150500
633.843	0.0149221
633.921	0.0150133
633.999	0.0149475
634.078	0.0148927
634.156	0.0149666
634.234	0.0149868
634.312	0.0148874
634.390	0.0150116
634.468	0.0150223
634.546	0.0149374
634.624	0.0148797
634.703	0.0149550
634.781	0.0149692
634.859	0.0149799
634.937	0.0150590
635.015	0.0149024
635.093	0.0148358
635.171	0.0149662
635.249	0.0151334
635.328	0.0150742
635.406	0.0152655
635.484	0.0152485
635.562	0.0153687
635.640	0.0154194
635.718	0.0155188
635.796	0.0157365
635.874	0.0155515
635.953	0.0156380
636.031	0.0157639
636.109	0.0157178
636.187	0.0157542
636.265	0.0158082
636.343	0.0156688
636.421	0.0157323
636.499	0.0157898
636.578	0.0154874
636.656	0.0154637
636.734	0.0153691
636.812	0.0151538
636.890	0.0152345
636.968	0.0151257
637.046	0.0151241
637.124	0.0150414
637.203	0.0150464
637.281	0.0151221
637.359	0.0150288
637.437	0.0151051
637.515	0.0150761
637.593	0.0151061
637.671	0.0150367
637.749	0.0149827
637.828	0.0148390
637.906	0.0148748
637.984	0.0148037
638.062	0.0148267
638.140	0.0147728
638.218	0.0148249
638.296	0.0148375
638.374	0.0146928
638.453	0.0148087
638.531	0.0147858
638.609	0.0148903
638.687	0.0149189
638.765	0.0148827
638.843	0.0149460
638.921	0.0149954
638.999	0.0151846
639.078	0.0152924
639.156	0.0154221
639.234	0.0152917
639.312	0.0154292
639.390	0.0154338
639.468	0.0154536
639.546	0.0156779
639.624	0.0156200
639.703	0.0155851
639.781	0.0155894
639.859	0.0155723
639.937	0.0157924
640.015	0.0157145
640.093	0.0158358
640.171	0.0157735
640.249	0.0158555
640.328	0.0159396
640.406	0.0157676
640.484	0.0157056
640.562	0.0156332
640.640	0.0156660
640.718	0.0155080
640.796	0.0154742
640.874	0.0155404
640.953	0.0154496
641.031	0.0152501
641.109	0.0150660
641.187	0.0150388
641.265	0.0149548
641.343	0.0149059
641.421	0.0147536
641.499	0.0148468
641.578	0.0147093
641.656	0.0147061
641.734	0.0145940
641.812	0.0145646
641.890	0.0146131
641.968	0.0145142
642.046	0.0146148
642.124	0.0145702
642.203	0.0145586
642.281	0.0146788
642.359	0.0146037
642.437	0.0146146
642.515	0.0145112
642.593	0.0145321
642.671	0.0146057
642.749	0.0146825
642.828	0.0146625
642.906	0.0148310
642.984	0.0148588
643.062	0.0148528
643.140	0.0151101
643.218	0.0152973
643.296	0.0152783
643.374	0.0153635
643.453	0.0155084
643.531	0.0157123
643.609	0.0157060
643.687	0.0157150
643.765	0.0160010
643.843	0.0159225
643.921	0.0159495
643.999	0.0159338
644.078	0.0159098
644.156	0.0160278
644.234	0.0159962
644.312	0.0159122
644.390	0.0159536
644.468	0.0159332
644.546	0.0158120
644.624	0.0158549
644.703	0.0159625
644.781	0.0159583
644.859	0.0157420
644.937	0.0158811
645.015	0.0155834
645.093	0.0155699
645.171	0.0155025
645.249	0.0152383
645.328	0.0151986
645.406	0.0149210
645.484	0.0149219
645.562	0.0147177
645.640	0.0146477
645.718	0.0145442
645.796	0.0144170
645.874	0.0142757
645.953	0.0142615
646.031	0.0141718
646.109	0.0140397
646.187	0.0140929
646.265	0.0141232
646.343	0.0141587
646.421	0.0142168
646.499	0.0141806
646.578	0.0143581
646.656	0.0144444
646.734	0.0143851
646.812	0.0145241
646.890	0.0146555
646.968	0.0145780
647.046	0.0146482
647.124	0.0148022
647.203	0.0149464
647.281	0.0150977
647.359	0.0152042
647.437	0.0152271
647.515	0.0154311
647.593	0.0156763
647.671	0.0159530
647.749	0.0160323
647.828	0.0161092
647.906	0.0161371
647.984	0.0163157
648.062	0.0163390
648.140	0.0165659
648.218	0.0165539
648.296	0.0165546
648.374	0.0164378
648.453	0.0163327
648.531	0.0162545
648.609	0.0163481
648.687	0.0162238
648.765	0.0160596
648.843	0.0158082
648.921	0.0158132
648.999	0.0158088
649.078	0.0156109
649.156	0.0154533
649.234	0.0153757
649.312	0.0152699
649.390	0.0152623
649.468	0.0149091
649.546	0.0146433
649.624	0.0147131
649.703	0.0146645
649.781	0.0144421
649.859	0.0142922
649.937	0.0140869
650.015	0.0140199
650.093	0.0139961
650.171	0.0138673
650.249	0.0137440
650.328	0.0138021
650.406	0.0138537
650.484	0.0139358
650.562	0.0138710
650.640	0.0140202
650.718	0.0140549
650.796	0.0140675
650.874	0.0141772
650.953	0.0143506
651.031	0.0144888
651.109	0.0146892
651.187	0.0148192
651.265	0.0149854
651.343	0.0149910
651.421	0.0151528
651.499	0.0154457
651.578	0.0156673
651.656	0.0157561
651.734	0.0158470
651.812	0.0159921
651.890	0.0160995
651.968	0.0162483
652.046	0.0162605
652.124	0.0163081
652.203	0.0165525
652.281	0.0165408
652.359	0.0164838
652.437	0.0163200
652.515	0.0163936
652.593	0.0164216
652.671	0.0163605
652.749	0.0164227
652.828	0.0162032
652.906	0.0160166
652.984	0.0159386
653.062	0.0158298
653.140	0.0157121
653.218	0.0154923
653.296	0.0153538
653.374	0.0153410
653.453	0.0151112
653.531	0.0151061
653.609	0.0148771
653.687	0.0148543
653.765	0.0146752
653.843	0.0147539
653.921	0.0145379
653.999	0.0144399
654.078	0.0144033
654.156	0.0144456
654.234	0.0144813
654.312	0.0142362
654.390	0.0143153
654.468	0.0141224
654.546	0.0141287
654.624	0.0142201
654.703	0.0142626
654.781	0.0142771
654.859	0.0142312
654.937	0.0144096
655.015	0.0143657
655.093	0.0143469
655.171	0.0145929
655.249	0.0149062
655.328	0.0149432
655.406	0.0148844
655.484	0.0150424
655.562	0.0152174
655.640	0.0152892
655.718	0.0154289
655.796	0.0156093
655.874	0.0155267
655.953	0.0157022
656.031	0.0159133
656.109	0.0157893
656.187	0.0158379
656.265	0.0161283
656.343	0.0161749
656.421	0.0160921
656.499	0.0160739
656.578	0.0161367
656.656	0.0161031
656.734	0.0160603
656.812	0.0161405
656.890	0.0160775
656.968	0.0161405
657.046	0.0161146
657.124	0.0159106
657.203	0.0158261
657.281	0.0157906
657.359	0.0156833
657.437	0.0155824
657.515	0.0154496
657.593	0.0151552
657.671	0.0151485
657.749	0.0148966
657.828	0.0149551
657.906	0.0148830
657.984	0.0146716
658.062	0.0146347
658.140	0.0145018
658.218	0.0146654
658.296	0.0144118
658.374	0.0144457
658.453	0.0144340
658.531	0.0143565
658.609	0.0143941
658.687	0.0143075
658.765	0.0145168
658.843	0.0144791
658.921	0.0146382
658.999	0.0146262
659.078	0.0145047
659.156	0.0146022
659.234	0.0148319
659.312	0.0149426
659.390	0.0149464
659.468	0.0150317
659.546	0.0149883
659.624	0.0152342
659.703	0.0151400
659.781	0.0154276
659.859	0.0155698
659.937	0.0156109
660.015	0.0158151
660.093	0.0159213
660.171	0.0158368
660.249	0.0158239
660.328	0.0158361
660.406	0.0159451
660.484	0.0159457
660.562	0.0158693
660.640	0.0158188
660.718	0.0156793
660.796	0.0156114
660.874	0.0155845
660.953	0.0155689
661.031	0.0155525
661.109	0.0154700
661.187	0.0154060
661.265	0.0154899
661.343	0.0152859
661.421	0.0152507
661.499	0.0152166
661.578	0.0151076
661.656	0.0149666
661.734	0.0149593
661.812	0.0149464
661.890	0.0148260
661.968	0.0147675
662.046	0.0147417
662.124	0.0146077
662.203	0.0145128
662.281	0.0144676
662.359	0.0144702
662.437	0.0143329
662.515	0.0143443
662.593	0.0144524
662.671	0.0145010
662.749	0.0145310
662.828	0.0145205
662.906	0.0146513
662.984	0.0145515
663.062	0.0146861
663.140	0.0147643
663.218	0.0148312
663.296	0.0149329
663.374	0.0151067
663.453	0.0152190
663.531	0.0152229
663.609	0.0153844
663.687	0.0154088
663.765	0.0155252
663.843	0.0157471
663.921	0.0156960
663.999	0.0157474
664.078	0.0158227
664.156	0.0158158
664.234	0.0158562
664.312	0.0156695
664.390	0.0156931
664.468	0.0157541
664.546	0.0155463
664.624	0.0155573
664.703	0.0156035
664.781	0.0155692
664.859	0.0154650
664.937	0.0152668
665.015	0.0152980
665.093	0.0152616
665.171	0.0152262
665.249	0.0151693
665.328	0.0151596
665.406	0.0150894
665.484	0.0149294
665.562	0.0149115
665.640	0.0148862
665.718	0.0147958
665.796	0.0147044
665.874	0.0147621
665.953	0.0147083
666.031	0.0146642
666.109	0.0145415
666.187	0.0145393
666.265	0.0147707
666.343	0.0146217
666.421	0.0146133
666.499	0.0145097
666.578	0.0145583
666.656	0.0147514
666.734	0.0147430
666.812	0.0148808
666.890	0.0148737
666.968	0.0147298
667.046	0.0146947
667.124	0.0147107
667.203	0.0149286
667.281	0.0148845
667.359	0.0149219
667.437	0.0150452
667.515	0.0152847
667.593	0.0153129
667.671	0.0154005
667.749	0.0155202
667.828	0.0155981
667.906	0.0156110
667.984	0.0157337
668.062	0.0158158
668.140	0.0159090
668.218	0.0158704
668.296	0.0158424
668.374	0.0159647
668.453	0.0158817
668.531	0.0158324
668.609	0.0156259
668.687	0.0157137
668.765	0.0155151
668.843	0.0155494
668.921	0.0155438
668.999	0.0154571
669.078	0.0153051
669.156	0.0152955
669.234	0.0152632
669.312	0.0152294
669.390	0.0150961
669.468	0.0152002
669.546	0.0150127
669.624	0.0151246
669.703	0.0148797
669.781	0.0146473
669.859	0.0147701
669.937	0.0147330
670.015	0.0148570
670.093	0.0146867
670.171	0.0145857
670.249	0.0146065
670.328	0.0146157
670.406	0.0146781
670.484	0.0146752
670.562	0.0146895
670.640	0.0147076
670.718	0.0146546
670.796	0.0147103
670.874	0.0147688
670.953	0.0148075
671.031	0.0147816
671.109	0.0148442
671.187	0.0149317
671.265	0.0151505
671.343	0.0149615
671.421	0.0151244
671.499	0.0149879
671.578	0.0150345
671.656	0.0151782
671.734	0.0152662
671.812	0.0151645
671.890	0.0151511
671.968	0.0154059
672.046	0.0154594
672.124	0.0156305
672.203	0.0155669
672.281	0.0156324
672.359	0.0156953
672.437	0.0156719
672.515	0.0158019
672.593	0.0158413
672.671	0.0157523
672.749	0.0157572
672.828	0.0158437
672.906	0.0158382
672.984	0.0156512
673.062	0.0155415
673.140	0.0155321
673.218	0.0154037
673.296	0.0152917
673.374	0.0152776
673.453	0.0151263
673.531	0.0149923
673.609	0.0150807
673.687	0.0148145
673.765	0.0150137
673.843	0.0148453
673.921	0.0147034
673.999	0.0147171
674.078	0.0146272
674.156	0.0145718
674.234	0.0145730
674.312	0.0146684
674.390	0.0146490
674.468	0.0144658
674.546	0.0144907
674.624	0.0144860
674.703	0.0145959
674.781	0.0145596
674.859	0.0145825
674.937	0.0145186
675.015	0.0144960
675.093	0.0146126
675.171	0.0148059
675.249	0.0147599
675.328	0.0148692
675.406	0.0148075
675.484	0.0148943
675.562	0.0151382
675.640	0.0151287
675.718	0.0152573
675.796	0.0153030
675.874	0.0153422
675.953	0.0154160
676.031	0.0154486
676.109	0.0156407
676.187	0.0154754
676.265	0.0155242
676.343	0.0157266
676.421	0.0155723
676.499	0.0154739
676.578	0.0156330
676.656	0.0157256
676.734	0.0157360
676.812	0.0157933
676.890	0.0156965
676.968	0.0157126
677.046	0.0155834
677.124	0.0155476
677.203	0.0156002
677.281	0.0155210
677.359	0.0153737
677.437	0.0152583
677.515	0.0151698
677.593	0.0151511
677.671	0.0150614
677.749	0.0149892
677.828	0.0149508
677.906	0.0149054
677.984	0.0149177
678.062	0.0147652
678.140	0.0146059
678.218	0.0148409
678.296	0.0147474
678.374	0.0145646
678.453	0.0146400
678.531	0.0146178
678.609	0.0145105
678.687	0.0146426
678.765	0.0144769
678.843	0.0144222
678.921	0.0146210
678.999	0.0145194
679.078	0.0145023
679.156	0.0146456
679.234	0.0145641
679.312	0.0146100
679.390	0.0146918
679.468	0.0148327
679.546	0.0149986
679.624	0.0149854
679.703	0.0151286
679.781	0.0152164
679.859	0.0154364
679.937	0.0154514
680.015	0.0154990
680.093	0.0156468
680.171	0.0157401
680.249	0.0158105
680.328	0.0156924
680.406	0.0157275
680.484	0.0158841
680.562	0.0157857
680.640	0.0156632
680.718	0.0156446
680.796	0.0156198
680.874	0.0155082
680.953	0.0156094
681.031	0.0153770
681.109	0.0154911
681.187	0.0154384
681.265	0.0154974
681.343	0.0155000
681.421	0.0155614
681.499	0.0154098
681.578	0.0154440
681.656	0.0153029
681.734	0.0152710
681.812	0.0151036
681.890	0.0151150
681.968	0.0151704
682.046	0.0151546
682.124	0.0149654
682.203	0.0147691
682.281	0.0147700
682.359	0.0145010
682.437	0.0146236
682.515	0.0146571
682.593	0.0145671
682.671	0.0146060
682.749	0.0145045
682.828	0.0145036
682.906	0.0146255
682.984	0.0145804
683.062	0.0143490
683.140	0.0145858
683.218	0.0148091
683.296	0.0149406
683.374	0.0149489
683.453	0.0149614
683.531	0.0150941
683.609	0.0152006
683.687	0.0151886
683.765	0.0153883
683.843	0.0152625
683.921	0.0153440
683.999	0.0155244
684.078	0.0154518
684.156	0.0155486
684.234	0.0154994
684.312	0.0156072
684.390	0.0156348
684.468	0.0156397
684.546	0.0157877
684.624	0.0156929
684.703	0.0156167
684.781	0.0155154
684.859	0.0155447
684.937	0.0155205
685.015	0.0154600
685.093	0.0156736
685.171	0.0155703
685.249	0.0154665
685.328	0.0154973
685.406	0.0155556
685.484	0.0155579
685.562	0.0154996
685.640	0.0153707
685.718	0.0154148
685.796	0.0152699
685.874	0.0151237
685.953	0.0150380
686.031	0.0150948
686.109	0.0149445
686.187	0.0147942
686.265	0.0147662
686.343	0.0146680
686.421	0.0146564
686.499	0.0145313
686.578	0.0146249
686.656	0.0146722
686.734	0.0145732
686.812	0.0147441
686.890	0.0146497
686.968	0.0146926
687.046	0.0146558
687.124	0.0147572
687.203	0.0148245
687.281	0.0148013
687.359	0.0149249
687.437	0.0148930
687.515	0.0150357
687.593	0.0149640
687.671	0.0150333
687.749	0.0151476
687.828	0.0151455
687.906	0.0152030
687.984	0.0151980
688.062	0.0152137
688.140	0.0153239
688.218	0.0153996
688.296	0.0154150
688.374	0.0154313
688.453	0.0156154
688.531	0.0156087
688.609	0.0156948
688.687	0.0156290
688.765	0.0156423
688.843	0.0156873
688.921	0.0157378
688.999	0.0156026
689.078	0.0157099
689.156	0.0155076
689.234	0.0155200
689.312	0.0153947
689.390	0.0155183
689.468	0.0153724
689.546	0.0153191
689.624	0.0151533
689.703	0.0153281
689.781	0.0151697
689.859	0.0150286
689.937	0.0148169
690.015	0.0148955
690.093	0.0147741
690.171	0.0148756
690.249	0.0148090
690.328	0.0147968
690.406	0.0147840
690.484	0.0147706
690.562	0.0147318
690.640	0.0146656
690.718	0.0146892
690.796	0.0146436
690.874	0.0148085
690.953	0.0148109
691.031	0.0147361
691.109	0.0147293
691.187	0.0146523
691.265	0.0147655
691.343	0.0148081
691.421	0.0149226
691.499	0.0150740
691.578	0.0149158
691.656	0.0152053
691.734	0.0153506
691.812	0.0152441
691.890	0.0154883
691.968	0.0154288
692.046	0.0156085
692.124	0.0155823
692.203	0.0156487
692.281	0.0156773
692.359	0.0157543
692.437	0.0156335
692.515	0.0157346
692.593	0.0157929
692.671	0.0157751
692.749	0.0157829
692.828	0.0157419
692.906	0.0157310
692.984	0.0155727
693.062	0.0155054
693.140	0.0155113
693.218	0.0153574
693.296	0.0152974
693.374	0.0152520
693.453	0.0152003
693.531	0.0149905
693.609	0.0151043
693.687	0.0150368
693.765	0.0149746
693.843	0.0148376
693.921	0.0150064
693.999	0.0149836
694.078	0.0147839
694.156	0.0146798
694.234	0.0148112
694.312	0.0148717
694.390	0.0148887
694.468	0.0147673
694.546	0.0147965
694.624	0.0147262
694.703	0.0148457
694.781	0.0147336
694.859	0.0148473
694.937	0.0148702
695.015	0.0147955
695.093	0.0147466
695.171	0.0147948
695.249	0.0146878
695.328	0.0149597
695.406	0.0149859
695.484	0.0149556
695.562	0.0150678
695.640	0.0151672
695.718	0.0151677
695.796	0.0152496
695.874	0.0153786
695.953	0.0154871
696.031	0.0155421
696.109	0.0156502
696.187	0.0156033
696.265	0.0155923
696.343	0.0156861
696.421	0.0156567
696.499	0.0156741
696.578	0.0156467
696.656	0.0156833
696.734	0.0157568
696.812	0.0157027
696.890	0.0156095
696.968	0.0156297
697.046	0.0156703
697.124	0.0154736
697.203	0.0153600
697.281	0.0155861
697.359	0.0153196
697.437	0.0153077
697.515	0.0152303
697.593	0.0151311
697.671	0.0151210
697.749	0.0152185
697.828	0.0151267
697.906	0.0149949
697.984	0.0150348
698.062	0.0150124
698.140	0.0149300
698.218	0.0148561
698.296	0.0149998
698.374	0.0149463
698.453	0.0148322
698.531	0.0148037
698.609	0.0147865
698.687	0.0147624
698.765	0.0147466
698.843	0.0148381
698.921	0.0148400
698.999	0.0148311
699.078	0.0147715
699.156	0.0149106
699.234	0.0149791
699.312	0.0149178
699.390	0.0150740
699.468	0.0151095
699.546	0.0149994
699.624	0.0150616
699.703	0.0151917
699.781	0.0151803
699.859	0.0153127
699.937	0.0152177
700.015	0.0154269
700.093	0.0155461
700.171	0.0154330
700.249	0.0154337
700.328	0.0154295
700.406	0.0153562
700.484	0.0154355
700.562	0.0154941
700.640	0.0155250
700.718	0.0153342
700.796	0.0155260
700.874	0.0154916
700.953	0.0154312
701.031	0.0153897
701.109	0.0154632
701.187	0.0154809
701.265	0.0154303
701.343	0.0153004
701.421	0.0152358
701.499	0.0153478
701.578	0.0151994
701.656	0.0152168
701.734	0.0151065
701.812	0.0149376
701.890	0.0149146
701.968	0.0148917
702.046	0.0148553
702.124	0.0148959
702.203	0.0148223
702.281	0.0147579
702.359	0.0148031
702.437	0.0148154
702.515	0.0148355
702.593	0.0148106
702.671	0.0148874
702.749	0.0148754
702.828	0.0149142
702.906	0.0149959
702.984	0.0149763
703.062	0.0150903
703.140	0.0150385
703.218	0.0150706
703.296	0.0151265
703.374	0.0150768
703.453	0.0150605
703.531	0.0152435
703.609	0.0153912
703.687	0.0152248
703.765	0.0152200
703.843	0.0154376
703.921	0.0154713
703.999	0.0153865
704.078	0.0152821
704.156	0.0155429
704.234	0.0154978
704.312	0.0153787
704.390	0.0153755
704.468	0.0155909
704.546	0.0156173
704.624	0.0153662
704.703	0.0155065
704.781	0.0154977
704.859	0.0154039
704.937	0.0154799
705.015	0.0152985
705.093	0.0152587
705.171	0.0153787
705.249	0.0153269
705.328	0.0153425
705.406	0.0153460
705.484	0.0153792
705.562	0.0153825
705.640	0.0152721
705.718	0.0154031
705.796	0.0153024
705.874	0.0152080
705.953	0.0152358
706.031	0.0150785
706.109	0.0150599
706.187	0.0150403
706.265	0.0148479
706.343	0.0149782
706.421	0.0149837
706.499	0.0148428
706.578	0.0148871
706.656	0.0148426
706.734	0.0148624
706.812	0.0147803
706.890	0.0148405
706.968	0.0148044
707.046	0.0148651
707.124	0.0148338
707.203	0.0149883
707.281	0.0149615
707.359	0.0149625
707.437	0.0149561
707.515	0.0149587
707.593	0.0151435
707.671	0.0150253
707.749	0.0152868
707.828	0.0152119
707.906	0.0153032
707.984	0.0152994
708.062	0.0154062
708.140	0.0153989
708.218	0.0154546
708.296	0.0155663
708.374	0.0154151
708.453	0.0155669
708.531	0.0155463
708.609	0.0154893
708.687	0.0153730
708.765	0.0154729
708.843	0.0154311
708.921	0.0155807
708.999	0.0155498
709.078	0.0153110
709.156	0.0152863
709.234	0.0154131
709.312	0.0154590
709.390	0.0152972
709.468	0.0152545
709.546	0.0152442
709.624	0.0151855
709.703	0.0152654
709.781	0.0152266
709.859	0.0150913
709.937	0.0151460
710.015	0.0150667
710.093	0.0150557
710.171	0.0151075
710.249	0.0150709
710.328	0.0150015
710.406	0.0150819
710.484	0.0150769
710.562	0.0150879
710.640	0.0149904
710.718	0.0149922
710.796	0.0151036
710.874	0.0150310
710.953	0.0151417
711.031	0.0149646
711.109	0.0148183
711.187	0.0149335
711.265	0.0149433
711.343	0.0150166
711.421	0.0150231
711.499	0.0149679
711.578	0.0149220
711.656	0.0151422
711.734	0.0151488
711.812	0.0151670
711.890	0.0150973
711.968	0.0151795
712.046	0.0151910
712.124	0.0152830
712.203	0.0152988
712.281	0.0153487
712.359	0.0154681
712.437	0.0154338
712.515	0.0155864
712.593	0.0154603
712.671	0.0154730
712.749	0.0154501
712.828	0.0155005
712.906	0.0154791
712.984	0.0154014
713.062	0.0153872
713.140	0.0154393
713.218	0.0153033
713.296	0.0152592
713.374	0.0152639
713.453	0.0152542
713.531	0.0152649
713.609	0.0151849
713.687	0.0152100
713.765	0.0151393
713.843	0.0151201
713.921	0.0151162
713.999	0.0151730
714.078	0.0149135
714.156	0.0149638
714.234	0.0150872
714.312	0.0150417
714.390	0.0150634
714.468	0.0151328
714.546	0.0151117
714.624	0.0151007
714.703	0.0151731
714.781	0.0150092
714.859	0.0151546
714.937	0.0151698
715.015	0.0152129
715.093	0.0150552
715.171	0.0151273
715.249	0.0152212
715.328	0.0150639
715.406	0.0151019
715.484	0.0153159
715.562	0.0151676
715.640	0.0149920
715.718	0.0151099
715.796	0.0150770
715.874	0.0150544
715.953	0.0152230
716.031	0.0152588
716.109	0.0151488
716.187	0.0150568
716.265	0.0152740
716.343	0.0152478
716.421	0.0151940
716.499	0.0150796
716.578	0.0154594
716.656	0.0153403
716.734	0.0152085
716.812	0.0150995
716.890	0.0153570
716.968	0.0155005
717.046	0.0153751
717.124	0.0153516
717.203	0.0153744
717.281	0.0153611
717.359	0.0153698
717.437	0.0153587
717.515	0.0152615
717.593	0.0152540
717.671	0.0153922
717.749	0.0153480
717.828	0.0151411
717.906	0.0152956
717.984	0.0152864
718.062	0.0153314
718.140	0.0152135
718.218	0.0152293
718.296	0.0153693
718.374	0.0153706
718.453	0.0153157
718.531	0.0153224
718.609	0.0152466
718.687	0.0152188
718.765	0.0151820
718.843	0.0151318
718.921	0.0151143
718.999	0.0151616
719.078	0.0151048
719.156	0.0151584
719.234	0.0151083
719.312	0.0152529
719.390	0.0151168
719.468	0.0151131
719.546	0.0150652
719.624	0.0150577
719.703	0.0151730
719.781	0.0151440
719.859	0.0150336
719.937	0.0150376
720.015	0.0150867
720.093	0.0152818
720.171	0.0152316
720.249	0.0151112
720.328	0.0152058
720.406	0.0154366
720.484	0.0153646
720.562	0.0153196
720.640	0.0153619
720.718	0.0154422
720.796	0.0153167
720.874	0.0153300
720.953	0.0154519
721.031	0.0152933
721.109	0.0153921
721.187	0.0154323
721.265	0.0154488
721.343	0.0152349
721.421	0.0153135
721.499	0.0153093
721.578	0.0152762
721.656	0.0153784
721.734	0.0152794
721.812	0.0152728
721.890	0.0153875
721.968	0.0152132
722.046	0.0152456
722.124	0.0151663
722.203	0.0151838
722.281	0.0151781
722.359	0.0151399
722.437	0.0152345
722.515	0.0151150
722.593	0.0151780
722.671	0.0150400
722.749	0.0150170
722.828	0.0150240
722.906	0.0151437
722.984	0.0149651
723.062	0.0148161
723.140	0.0150319
723.218	0.0151137
723.296	0.0149350
723.374	0.0151136
723.453	0.0152432
723.531	0.0152430
723.609	0.0151019
723.687	0.0153040
723.765	0.0152106
723.843	0.0151199
723.921	0.0150541
723.999	0.0150748
724.078	0.0152486
724.156	0.0155038
724.234	0.0152605
724.312	0.0151646
724.390	0.0151345
724.468	0.0153127
724.546	0.0152357
724.624	0.0150034
724.703	0.0152135
724.781	0.0151361
724.859	0.0151263
724.937	0.0151705
725.015	0.0153130
725.093	0.0152802
725.171	0.0151652
725.249	0.0152338
725.328	0.0153214
725.406	0.0154112
725.484	0.0152438
725.562	0.0153396
725.640	0.0153851
725.718	0.0153617
725.796	0.0153854
725.874	0.0154749
725.953	0.0153829
726.031	0.0153983
726.109	0.0153254
726.187	0.0154450
726.265	0.0154251
726.343	0.0153070
726.421	0.0153720
726.499	0.0152991
726.578	0.0152463
726.656	0.0153458
726.734	0.0152254
726.812	0.0151864
726.890	0.0151963
726.968	0.0152220
727.046	0.0151824
727.124	0.0152087
727.203	0.0152423
727.281	0.0150678
727.359	0.0150479
727.437	0.0151543
727.515	0.0151822
727.593	0.0151376
727.671	0.0152890
727.749	0.0152495
727.828	0.0152344
727.906	0.0151951
727.984	0.0151421
728.062	0.0151904
728.140	0.0151622
728.218	0.0151248
728.296	0.0151157
728.374	0.0152481
728.453	0.0151776
728.531	0.0152672
728.609	0.0151431
728.687	0.0151610
728.765	0.0152151
728.843	0.0152515
728.921	0.0151641
728.999	0.0151852
729.078	0.0153226
729.156	0.0151872
729.234	0.0151963
729.312	0.0152597
729.390	0.0152554
729.468	0.0153169
729.546	0.0152663
729.624	0.0152063
729.703	0.0153241
729.781	0.0153580
729.859	0.0153514
729.937	0.0154042
730.015	0.0152082
730.093	0.0151562
730.171	0.0151800
730.249	0.0152357
730.328	0.0151479
730.406	0.0153098
730.484	0.0152112
730.562	0.0150038
730.640	0.0151127
730.718	0.0150881
730.796	0.0151226
730.874	0.0150887
730.953	0.0151301
731.031	0.0151662
731.109	0.0149342
731.187	0.0150356
731.265	0.0149912
731.343	0.0149511
731.421	0.0150637
731.499	0.0150721
731.578	0.0148342
731.656	0.0150503
731.734	0.0151205
731.812	0.0149918
731.890	0.0151531
731.968	0.0151797
732.046	0.0152936
732.124	0.0151930
732.203	0.0151864
732.281	0.0152090
732.359	0.0152572
732.437	0.0153407
732.515	0.0154541
732.593	0.0155278
732.671	0.0152412
732.749	0.0154523
732.828	0.0153604
732.906	0.0154823
732.984	0.0154371
733.062	0.0152897
733.140	0.0153693
733.218	0.0154029
733.296	0.0155722
733.374	0.0152402
733.453	0.0152707
733.531	0.0153122
733.609	0.0153927
733.687	0.0153460
733.765	0.0152485
733.843	0.0152461
733.921	0.0152816
733.999	0.0152555
734.078	0.0152074
734.156	0.0152407
734.234	0.0152838
734.312	0.0150831
734.390	0.0151807
734.468	0.0151865
734.546	0.0151420
734.624	0.0151327
734.703	0.0152212
734.781	0.0152441
734.859	0.0150964
734.937	0.0151504
735.015	0.0150891
735.093	0.0149593
735.171	0.0150865
735.249	0.0150481
735.328	0.0150417
735.406	0.0150459
735.484	0.0152451
735.562	0.0150467
735.640	0.0151186
735.718	0.0151649
735.796	0.0152760
735.874	0.0150063
735.953	0.0150261
736.031	0.0151740
736.109	0.0152992
736.187	0.0152209
736.265	0.0152722
736.343	0.0153098
736.421	0.0152728
736.499	0.0152817
736.578	0.0152586
736.656	0.0151671
736.734	0.0151130
736.812	0.0152554
736.890	0.0152725
736.968	0.0151180
737.046	0.0152379
737.124	0.0152460
737.203	0.0151953
737.281	0.0151319
737.359	0.0152632
737.437	0.0153394
737.515	0.0152393
737.593	0.0151099
737.671	0.0150961
737.749	0.0152369
737.828	0.0152699
737.906	0.0152603
737.984	0.0152354
738.062	0.0151919
738.140	0.0150025
738.218	0.0151385
738.296	0.0151858
738.374	0.0151179
738.453	0.0151416
738.531	0.0149757
738.609	0.0152417
738.687	0.0150531
738.765	0.0150945
738.843	0.0150315
738.921	0.0150213
738.999	0.0150360
739.078	0.0149905
739.156	0.0150115
739.234	0.0150947
739.312	0.0149770
739.390	0.0149757
739.468	0.0150123
739.546	0.0149734
739.624	0.0150389
739.703	0.0150003
739.781	0.0149763
739.859	0.0150733
739.937	0.0150144
740.015	0.0149784
740.093	0.0151040
740.171	0.0151143
740.249	0.0151473
740.328	0.0151048
740.406	0.0152315
740.484	0.0151234
740.562	0.0150433
740.640	0.0153231
740.718	0.0153291
740.796	0.0151384
740.874	0.0151862
740.953	0.0152974
741.031	0.0152630
741.109	0.0151400
741.187	0.0152315
741.265	0.0153728
741.343	0.0153686
741.421	0.0153222
741.499	0.0153690
741.578	0.0153910
741.656	0.0153423
741.734	0.0152653
741.812	0.0153867
741.890	0.0153791
741.968	0.0152615
742.046	0.0152873
742.124	0.0153448
742.203	0.0152340
742.281	0.0150461
742.359	0.0152801
742.437	0.0151781
742.515	0.0151383
742.593	0.0149771
742.671	0.0150346
742.749	0.0150733
742.828	0.0149462
742.906	0.0150894
742.984	0.0149678
743.062	0.0150504
743.140	0.0149117
743.218	0.0149522
743.296	0.0150109
743.374	0.0150774
743.453	0.0150787
743.531	0.0149142
743.609	0.0150609
743.687	0.0150867
743.765	0.0151235
743.843	0.0152659
743.921	0.0151912
743.999	0.0151388
744.078	0.0151031
744.156	0.0154298
744.234	0.0151852
744.312	0.0152968
744.390	0.0152654
744.468	0.0153542
744.546	0.0153503
744.624	0.0154902
744.703	0.0153205
744.781	0.0152863
744.859	0.0153815
744.937	0.0153284
745.015	0.0153085
745.093	0.0154455
745.171	0.0153831
745.249	0.0153678
745.328	0.0154075
745.406	0.0151947
745.484	0.0152498
745.562	0.0154161
745.640	0.0152727
745.718	0.0152979
745.796	0.0152360
745.874	0.0153018
745.953	0.0152091
746.031	0.0152271
746.109	0.0151486
746.187	0.0151241
746.265	0.0152515
746.343	0.0150527
746.421	0.0150060
746.499	0.0150172
746.578	0.0149191
746.656	0.0150792
746.734	0.0149651
746.812	0.0148053
746.890	0.0149177
746.968	0.0148531
747.046	0.0149985
747.124	0.0149310
747.203	0.0148927
747.281	0.0149960
747.359	0.0148991
747.437	0.0148434
747.515	0.0148887
747.593	0.0150301
747.671	0.0148993
747.749	0.0149870
747.828	0.0150323
747.906	0.0151691
747.984	0.0150393
748.062	0.0149087
748.140	0.0151924
748.218	0.0150324
748.296	0.0152357
748.374	0.0152634
748.453	0.0152776
748.531	0.0153117
748.609	0.0152174
748.687	0.0151798
748.765	0.0153152
748.843	0.0153358
748.921	0.0153619
748.999	0.0153834
749.078	0.0153952
749.156	0.0152747
749.234	0.0153998
749.312	0.0154753
749.390	0.0154492
749.468	0.0153894
749.546	0.0153542
749.624	0.0152826
749.703	0.0153226
749.781	0.0151456
749.859	0.0153471
749.937	0.0153207
750.015	0.0152567
750.093	0.0151984
750.171	0.0152310
750.249	0.0152386
750.328	0.0153061
750.406	0.0150748
750.484	0.0151356
750.562	0.0150595
750.640	0.0151654
750.718	0.0151475
750.796	0.0150360
750.874	0.0151046
750.953	0.0150707
751.031	0.0149828
751.109	0.0149789
751.187	0.0149227
751.265	0.0150120
751.343	0.0148636
751.421	0.0148409
751.499	0.0148620
751.578	0.0148137
751.656	0.0149476
751.734	0.0150713
751.812	0.0150103
751.890	0.0150034
751.968	0.0149413
752.046	0.0149767
752.124	0.0151246
752.203	0.0150715
752.281	0.0150229
752.359	0.0150846
752.437	0.0151783
752.515	0.0151597
752.593	0.0152092
752.671	0.0151582
752.749	0.0153699
752.828	0.0153172
752.906	0.0152694
752.984	0.0152888
753.062	0.0153209
753.140	0.0153558
753.218	0.0154963
753.296	0.0154420
753.374	0.0152747
753.453	0.0154431
753.531	0.0153780
753.609	0.0154878
753.687	0.0153669
753.765	0.0155045
753.843	0.0155357
753.921	0.0155057
753.999	0.0153182
754.078	0.0154230
754.156	0.0152995
754.234	0.0154154
754.312	0.0154213
754.390	0.0153036
754.468	0.0151643
754.546	0.0151228
754.624	0.0152251
754.703	0.0152560
754.781	0.0150687
754.859	0.0151081
754.937	0.0152065
755.015	0.0150903
755.093	0.0151283
755.171	0.0151100
755.249	0.0150771
755.328	0.0149618
755.406	0.0150146
755.484	0.0149664
755.562	0.0150674
755.640	0.0149946
755.718	0.0150764
755.796	0.0151678
755.874	0.0150387
755.953	0.0150950
756.031	0.0151315
756.109	0.0152502
756.187	0.0152318
756.265	0.0152534
756.343	0.0151676
756.421	0.0151981
756.499	0.0151611
756.578	0.0150885
756.656	0.0151659
756.734	0.0151775
756.812	0.0151114
756.890	0.0151583
756.968	0.0150915
757.046	0.0151202
757.124	0.0151144
757.203	0.0152415
757.281	0.0151814
757.359	0.0152099
757.437	0.0153498
757.515	0.0152336
757.593	0.0151424
757.671	0.0153189
757.749	0.0154319
757.828	0.0153793
757.906	0.0152420
757.984	0.0154073
758.062	0.0155106
758.140	0.0152973
758.218	0.0150813
758.296	0.0152834
758.374	0.0152455
758.453	0.0151000
758.531	0.0150135
758.609	0.0150191
758.687	0.0148917
758.765	0.0149886
758.843	0.0150015
758.921	0.0150108
758.999	0.0150803
759.078	0.0148842
759.156	0.0149204
759.234	0.0149236
759.312	0.0149482
759.390	0.0150449
759.468	0.0150295
759.546	0.0151875
759.624	0.0150919
759.703	0.0151763
759.781	0.0151749
759.859	0.0150143
759.937	0.0150262
760.015	0.0152020
760.093	0.0151111
760.171	0.0150892
760.249	0.0151309
760.328	0.0151593
760.406	0.0151483
760.484	0.0150574
760.562	0.0149862
760.640	0.0152077
760.718	0.0153505
760.796	0.0150677
760.874	0.0150804
760.953	0.0151751
761.031	0.0152242
761.109	0.0151910
761.187	0.0151543
761.265	0.0150198
761.343	0.0151992
761.421	0.0152363
761.499	0.0151913
761.578	0.0151793
761.656	0.0151223
761.734	0.0151071
761.812	0.0153153
761.890	0.0152946
761.968	0.0153850
762.046	0.0152199
762.124	0.0152949
762.203	0.0152274
762.281	0.0151942
762.359	0.0151138
762.437	0.0151157
762.515	0.0151122
762.593	0.0150938
762.671	0.0149541
762.749	0.0149588
762.828	0.0150045
762.906	0.0148749
762.984	0.0148604
763.062	0.0149512
763.140	0.0148963
763.218	0.0148381
763.296	0.0150055
763.374	0.0149542
763.453	0.0150314
763.531	0.0149779
763.609	0.0151399
763.687	0.0151974
763.765	0.0150759
763.843	0.0151542
763.921	0.0152787
763.999	0.0152097
764.078	0.0153088
764.156	0.0153406
764.234	0.0152551
764.312	0.0151883
764.390	0.0151797
764.468	0.0152959
764.546	0.0152149
764.624	0.0150335
764.703	0.0150448
764.781	0.0150046
764.859	0.0150297
764.937	0.0151892
765.015	0.0152591
765.093	0.0151595
765.171	0.0150189
765.249	0.0152012
765.328	0.0150073
765.406	0.0152717
765.484	0.0152451
765.562	0.0152442
765.640	0.0152726
765.718	0.0153368
765.796	0.0153070
765.874	0.0153789
765.953	0.0153147
766.031	0.0153683
766.109	0.0155078
766.187	0.0153359
766.265	0.0152562
766.343	0.0152956
766.421	0.0151369
766.499	0.0151171
766.578	0.0151801
766.656	0.0151376
766.734	0.0151307
766.812	0.0150313
766.890	0.0150258
766.968	0.0148824
767.046	0.0149480
767.124	0.0149581
767.203	0.0149271
767.281	0.0149612
767.359	0.0149956
767.437	0.0148122
767.515	0.0148894
767.593	0.0149284
767.671	0.0149835
767.749	0.0150973
767.828	0.0151155
767.906	0.0150592
767.984	0.0150244
768.062	0.0151261
768.140	0.0150700
768.218	0.0151073
768.296	0.0151375
768.374	0.0150887
768.453	0.0151982
768.531	0.0152567
768.609	0.0152002
768.687	0.0151259
768.765	0.0150555
768.843	0.0150533
768.921	0.0151625
768.999	0.0152245
769.078	0.0150385
769.156	0.0151516
769.234	0.0151168
769.312	0.0150832
769.390	0.0150896
769.468	0.0152482
769.546	0.0153008
769.624	0.0151144
769.703	0.0152396
769.781	0.0152988
769.859	0.0152057
769.937	0.0154014
770.015	0.0153114
770.093	0.0154017
770.171	0.0152752
770.249	0.0152261
770.328	0.0152853
770.406	0.0154452
770.484	0.0152032
770.562	0.0150200
770.640	0.0150727
770.718	0.0150871
770.796	0.0150422
770.874	0.0149619
770.953	0.0149619
771.031	0.0150925
771.109	0.0149135
771.187	0.0149297
771.265	0.0150207
771.343	0.0149673
771.421	0.0151956
771.499	0.0150516
771.578	0.0150175
771.656	0.0151104
771.734	0.0151510
771.812	0.0150970
771.890	0.0151364
771.968	0.0151923
772.046	0.0151079
772.124	0.0150238
772.203	0.0149773
772.281	0.0151270
772.359	0.0150356
772.437	0.0151645
772.515	0.0151156
772.593	0.0152792
772.671	0.0151851
772.749	0.0150836
772.828	0.0152726
772.906	0.0151499
772.984	0.0151720
773.062	0.0153624
773.140	0.0152278
773.218	0.0152707
773.296	0.0152032
773.374	0.0152193
773.453	0.0151437
773.531	0.0150872
773.609	0.0152462
773.687	0.0151041
773.765	0.0153323
773.843	0.0152214
773.921	0.0151868
773.999	0.0152763
774.078	0.0154137
774.156	0.0153451
774.234	0.0153899
774.312	0.0154199
774.390	0.0152990
774.468	0.0151878
774.546	0.0153980
774.624	0.0151932
774.703	0.0151154
774.781	0.0150732
774.859	0.0151389
774.937	0.0149980
775.015	0.0149924
775.093	0.0150498
775.171	0.0149496
775.249	0.0149210
775.328	0.0148672
775.406	0.0148756
775.484	0.0148225
775.562	0.0148093
775.640	0.0148235
775.718	0.0149104
775.796	0.0151315
775.874	0.0151124
775.953	0.0150932
776.031	0.0151489
776.109	0.0151567
776.187	0.0151813
776.265	0.0151719
776.343	0.0152603
776.421	0.0153300
776.499	0.0152173
776.578	0.0153349
776.656	0.0152053
776.734	0.0152888
776.812	0.0153325
776.890	0.0152032
776.968	0.0150786
777.046	0.0151481
777.124	0.0150509
777.203	0.0151530
777.281	0.0151037
777.359	0.0151276
777.437	0.0152795
777.515	0.0150922
777.593	0.0152228
777.671	0.0153119
777.749	0.0151348
777.828	0.0153799
777.906	0.0153606
777.984	0.0154213
778.062	0.0153532
778.140	0.0152228
778.218	0.0154340
778.296	0.0153133
778.374	0.0153391
778.453	0.0153799
778.531	0.0152547
778.609	0.0150986
778.687	0.0151475
778.765	0.0150328
778.843	0.0150618
778.921	0.0150793
778.999	0.0150995
779.078	0.0149716
779.156	0.0149944
779.234	0.0150469
779.312	0.0150195
779.390	0.0149643
779.468	0.0149452
779.546	0.0150124
779.624	0.0151199
779.703	0.0149683
779.781	0.0152190
779.859	0.0151537
779.937	0.0150220
780.015	0.0151202
780.093	0.0152627
780.171	0.0150603
780.249	0.0151400
780.328	0.0151389
780.406	0.0152856
780.484	0.0151038
780.562	0.0151578
780.640	0.0151508
780.718	0.0150326
780.796	0.0151082
780.874	0.0150391
780.953	0.0150660
781.031	0.0150429
781.109	0.0150636
781.187	0.0150869
781.265	0.0152119
781.343	0.0150497
781.421	0.0150247
781.499	0.0152495
781.578	0.0152855
781.656	0.0152734
781.734	0.0154635
781.812	0.0153321
781.890	0.0153189
781.968	0.0152647
782.046	0.0155338
782.124	0.0154133
782.203	0.0153735
782.281	0.0153179
782.359	0.0154187
782.437	0.0152991
782.515	0.0151012
782.593	0.0152719
782.671	0.0151643
782.749	0.0150591
782.828	0.0149390
782.906	0.0150085
782.984	0.0151157
783.062	0.0149332
783.140	0.0148601
783.218	0.0149157
783.296	0.0149210
783.374	0.0149743
783.453	0.0150525
783.531	0.0149898
783.609	0.0151726
783.687	0.0151166
783.765	0.0150796
783.843	0.0152283
783.921	0.0151904
783.999	0.0151413
784.078	0.0150164
784.156	0.0149893
784.234	0.0151617
784.312	0.0148547
784.390	0.0148261
784.468	0.0150754
784.546	0.0151158
784.624	0.0150092
784.703	0.0151399
784.781	0.0150048
784.859	0.0151106
784.937	0.0150739
785.015	0.0152038
785.093	0.0151539
785.171	0.0151044
785.249	0.0151540
785.328	0.0152050
785.406	0.0151434
785.484	0.0150788
785.562	0.0154235
785.640	0.0153792
785.718	0.0153693
785.796	0.0153781
785.874	0.0152600
785.953	0.0153171
786.031	0.0154359
786.109	0.0152584
786.187	0.0152637
786.265	0.0152135
786.343	0.0151868
786.421	0.0152239
786.499	0.0152463
786.578	0.0152801
786.656	0.0151575
786.734	0.0151056
786.812	0.0150995
786.890	0.0151828
786.968	0.0151308
787.046	0.0151353
787.124	0.0150612
787.203	0.0152182
787.281	0.0152965
787.359	0.0151243
787.437	0.0151295
787.515	0.0151555
787.593	0.0152142
787.671	0.0150648
787.749	0.0150733
787.828	0.0152161
787.906	0.0151192
787.984	0.0150471
788.062	0.0151443
788.140	0.0151463
788.218	0.0150856
788.296	0.0150914
788.374	0.0152844
788.453	0.0151273
788.531	0.0151796
788.609	0.0150707
788.687	0.0151223
788.765	0.0152057
788.843	0.0152215
788.921	0.0151991
788.999	0.0151118
789.078	0.0153300
789.156	0.0152323
789.234	0.0152714
789.312	0.0153896
789.390	0.0154517
789.468	0.0152374
789.546	0.0153197
789.624	0.0154006
789.703	0.0153755
789.781	0.0151408
789.859	0.0152680
789.937	0.0153628
790.015	0.0151497
790.093	0.0151485
790.171	0.0152718
790.249	0.0151498
790.328	0.0151425
790.406	0.0151280
790.484	0.0152470
790.562	0.0152344
790.640	0.0150595
790.718	0.0151850
790.796	0.0151412
790.874	0.0151012
790.953	0.0152831
791.031	0.0150667
791.109	0.0152074
791.187	0.0152087
791.265	0.0150922
791.343	0.0152446
791.421	0.0152025
791.499	0.0151641
791.578	0.0152602
791.656	0.0152142
791.734	0.0152245
791.812	0.0152853
791.890	0.0151594
791.968	0.0151751
792.046	0.0152773
792.124	0.0152313
792.203	0.0151963
792.281	0.0151550
792.359	0.0151161
792.437	0.0151780
792.515	0.0152052
792.593	0.0151392
792.671	0.0150111
792.749	0.0151107
792.828	0.0151083
792.906	0.0150397
792.984	0.0151262
793.062	0.0150468
793.140	0.0150652
793.218	0.0151535
793.296	0.0152631
793.374	0.0151157
793.453	0.0152846
793.531	0.0151537
793.609	0.0152466
793.687	0.0151891
793.765	0.0153294
793.843	0.0151893
793.921	0.0152715
793.999	0.0152956
794.078	0.0153908
794.156	0.0153858
794.234	0.0152599
794.312	0.0151843
794.390	0.0152571
794.468	0.0151929
794.546	0.0153314
794.624	0.0151188
794.703	0.0153063
794.781	0.0153368
794.859	0.0152695
794.937	0.0153075
795.015	0.0152033
795.093	0.0150649
795.171	0.0152017
795.249	0.0150897
795.328	0.0150466
795.406	0.0150387
795.484	0.0152149
795.562	0.0151385
795.640	0.0150611
795.718	0.0151683
795.796	0.0151044
795.874	0.0151834
795.953	0.0150145
796.031	0.0151821
796.109	0.0151077
796.187	0.0153188
796.265	0.0150533
796.343	0.0150105
796.421	0.0151458
796.499	0.0151677
796.578	0.0149822
796.656	0.0149937
796.734	0.0149815
796.812	0.0149705
796.890	0.0151169
796.968	0.0151903
797.046	0.0149713
797.124	0.0150743
797.203	0.0152616
797.281	0.0152792
797.359	0.0152087
797.437	0.0153094
797.515	0.0151408
797.593	0.0152711
797.671	0.0153026
797.749	0.0151485
797.828	0.0152999
797.906	0.0152463
797.984	0.0152013
798.062	0.0153080
798.140	0.0152103
798.218	0.0153474
798.296	0.0152525
798.374	0.0151849
798.453	0.0152953
798.531	0.0152327
798.609	0.0152851
798.687	0.0152027
798.765	0.0150787
798.843	0.0152322
798.921	0.0151502
798.999	0.0151875
799.078	0.0152877
799.156	0.0152257
799.234	0.0150328
799.312	0.0152638
799.390	0.0151794
799.468	0.0151453
799.546	0.0151542
799.624	0.0152316
799.703	0.0152625
799.781	0.0150930
799.859	0.0152689
799.937	0.0152847
800.015	0.0151021
800.093	0.0151550
800.171	0.0151460
800.249	0.0149934
800.328	0.0150158
800.406	0.0151823
800.484	0.0150511
800.562	0.0150544
800.640	0.0151201
800.718	0.0150646
800.796	0.0151334
800.874	0.0150869
800.953	0.0151801
801.031	0.0150688
801.109	0.0150077
801.187	0.0150668
801.265	0.0152126
801.343	0.0151186
801.421	0.0151637
801.499	0.0152371
801.578	0.0152759
801.656	0.0152512
801.734	0.0152998
801.812	0.0151680
801.890	0.0154134
801.968	0.0152985
802.046	0.0151971
802.124	0.0151514
802.203	0.0153126
802.281	0.0151775
802.359	0.0152485
802.437	0.0151994
802.515	0.0152741
802.593	0.0152147
802.671	0.0150768
802.749	0.0150974
802.828	0.0151993
802.906	0.0152550
802.984	0.0153632
803.062	0.0152134
803.140	0.0152533
803.218	0.0151759
803.296	0.0152048
803.374	0.0151591
803.453	0.0150816
803.531	0.0150221
803.609	0.0149890
803.687	0.0152709
803.765	0.0152139
803.843	0.0150551
803.921	0.0151553
803.999	0.0150996
804.078	0.0150847
804.156	0.0150282
804.234	0.0150551
804.312	0.0151112
804.390	0.0151443
804.468	0.0151651
804.546	0.0151032
804.624	0.0152265
804.703	0.0151460
804.781	0.0151911
804.859	0.0152619
804.937	0.0152776
805.015	0.0152268
805.093	0.0151634
805.171	0.0152441
805.249	0.0151313
805.328	0.0151601
805.406	0.0150671
805.484	0.0151045
805.562	0.0151836
805.640	0.0153150
805.718	0.0151045
805.796	0.0150979
805.874	0.0152412
805.953	0.0151705
806.031	0.0151590
806.109	0.0152282
806.187	0.0153511
806.265	0.0153152
806.343	0.0152684
806.421	0.0153246
806.499	0.0153433
806.578	0.0153115
806.656	0.0152113
806.734	0.0152831
806.812	0.0153923
806.890	0.0153067
806.968	0.0152293
807.046	0.0151918
807.124	0.0153262
807.203	0.0151843
807.281	0.0152841
807.359	0.0151714
807.437	0.0151641
807.515	0.0152544
807.593	0.0152730
807.671	0.0151477
807.749	0.0152804
807.828	0.0152741
807.906	0.0151266
807.984	0.0150713
808.062	0.0152370
808.140	0.0152192
808.218	0.0152759
808.296	0.0151204
808.374	0.0151134
808.453	0.0151856
808.531	0.0151890
808.609	0.0151989
808.687	0.0152219
808.765	0.0151914
808.843	0.0151782
808.921	0.0151533
808.999	0.0151899
809.078	0.0151069
809.156	0.0151178
809.234	0.0151382
809.312	0.0152003
809.390	0.0151889
809.468	0.0152647
809.546	0.0151278
809.624	0.0151514
809.703	0.0151765
809.781	0.0152359
809.859	0.0152856
809.937	0.0150983
810.015	0.0153127
810.093	0.0153493
810.171	0.0152267
810.249	0.0152791
810.328	0.0151762
810.406	0.0152941
810.484	0.0152215
810.562	0.0152599
810.640	0.0151852
810.718	0.0151601
810.796	0.0152273
810.874	0.0150902
810.953	0.0151580
811.031	0.0152151
811.109	0.0152306
811.187	0.0151381
811.265	0.0152245
811.343	0.0152110
811.421	0.0152448
811.499	0.0153179
811.578	0.0151828
811.656	0.0151160
811.734	0.0150919
811.812	0.0152397
811.890	0.0152341
811.968	0.0152034
812.046	0.0152905
812.124	0.0151337
812.203	0.0152052
812.281	0.0152110
812.359	0.0152139
812.437	0.0152946
812.515	0.0150218
812.593	0.0150777
812.671	0.0151573
812.749	0.0151984
812.828	0.0151321
812.906	0.0152258
812.984	0.0151297
813.062	0.0151472
813.140	0.0152285
813.218	0.0151539
813.296	0.0152112
813.374	0.0151705
813.453	0.0151929
813.531	0.0154507
813.609	0.0153095
813.687	0.0153796
813.765	0.0151112
813.843	0.0151682
813.921	0.0154426
813.999	0.0152619
814.078	0.0152982
814.156	0.0151402
814.234	0.0151385
814.312	0.0151211
814.390	0.0152406
814.468	0.0151538
814.546	0.0152077
814.624	0.0153716
814.703	0.0152142
814.781	0.0152417
814.859	0.0151968
814.937	0.0151263
815.015	0.0152482
815.093	0.0152773
815.171	0.0151795
815.249	0.0153466
815.328	0.0154003
815.406	0.0152975
815.484	0.0152005
815.562	0.0152139
815.640	0.0152647
815.718	0.0154055
815.796	0.0151877
815.874	0.0151614
815.953	0.0151234
816.031	0.0151215
816.109	0.0149859
816.187	0.0151065
816.265	0.0151657
816.343	0.0152409
816.421	0.0151844
816.499	0.0151370
816.578	0.0151362
816.656	0.0152288
816.734	0.0150815
816.812	0.0149564
816.890	0.0151768
816.968	0.0151859
817.046	0.0150650
817.124	0.0151768
817.203	0.0152785
817.281	0.0152089
817.359	0.0150977
817.437	0.0150826
817.515	0.0152104
817.593	0.0152440
817.671	0.0151339
817.749	0.0152779
817.828	0.0151791
817.906	0.0151055
817.984	0.0151741
818.062	0.0151524
818.140	0.0151953
818.218	0.0150967
818.296	0.0151752
818.374	0.0152898
818.453	0.0152475
818.531	0.0152061
818.609	0.0153457
818.687	0.0154136
818.765	0.0153178
818.843	0.0152132
818.921	0.0151789
818.999	0.0153559
819.078	0.0152168
819.156	0.0152291
819.234	0.0152295
819.312	0.0152969
819.390	0.0152187
819.468	0.0151841
819.546	0.0152093
819.624	0.0152278
819.703	0.0153244
819.781	0.0153007
819.859	0.0151596
819.937	0.0151810
820.015	0.0152052
820.093	0.0152728
820.171	0.0151858
820.249	0.0152173
820.328	0.0151753
820.406	0.0150923
820.484	0.0150596
820.562	0.0151486
820.640	0.0152393
820.718	0.0151705
820.796	0.0151933
820.874	0.0151552
820.953	0.0152449
821.031	0.0152946
821.109	0.0151908
821.187	0.0150203
821.265	0.0152953
821.343	0.0151434
821.421	0.0152248
821.499	0.0150923
821.578	0.0150821
821.656	0.0152687
821.734	0.0151669
821.812	0.0151785
821.890	0.0150642
821.968	0.0151626
822.046	0.0151911
822.124	0.0150253
822.203	0.0150539
822.281	0.0151527
822.359	0.0151843
822.437	0.0152481
822.515	0.0151815
822.593	0.0151546
822.671	0.0150668
822.749	0.0150878
822.828	0.0152409
822.906	0.0151898
822.984	0.0151691
823.062	0.0152388
823.140	0.0151444
823.218	0.0151509
823.296	0.0152316
823.374	0.0152245
823.453	0.0152055
823.531	0.0152839
823.609	0.0152285
823.687	0.0153999
823.765	0.0153384
823.843	0.0152460
823.921	0.0152007
823.999	0.0151670
824.078	0.0152338
824.156	0.0151756
824.234	0.0151428
824.312	0.0151350
824.390	0.0151715
824.468	0.0152000
824.546	0.0152043
824.624	0.0150285
824.703	0.0151144
824.781	0.0151108
824.859	0.0149561
824.937	0.0151575
825.015	0.0150784
825.093	0.0151387
825.171	0.0150941
825.249	0.0152121
825.328	0.0152006
825.406	0.0150650
825.484	0.0152819
825.562	0.0150255
825.640	0.0152301
825.718	0.0150945
825.796	0.0150735
825.874	0.0149952
825.953	0.0152463
826.031	0.0150329
826.109	0.0151067
826.187	0.0150719
826.265	0.0151217
826.343	0.0149355
826.421	0.0150754
826.499	0.0150306
826.578	0.0152378
826.656	0.0151768
826.734	0.0151256
826.812	0.0152190
826.890	0.0151991
826.968	0.0150237
827.046	0.0149723
827.124	0.0151118
827.203	0.0150607
827.281	0.0152014
827.359	0.0152744
827.437	0.0152538
827.515	0.0151599
827.593	0.0150809
827.671	0.0151595
827.749	0.0151617
827.828	0.0151488
827.906	0.0152858
827.984	0.0153125
828.062	0.0151987
828.140	0.0152957
828.218	0.0151665
828.296	0.0150458
828.374	0.0151952
828.453	0.0152837
828.531	0.0152579
828.609	0.0151491
828.687	0.0152087
828.765	0.0152785
828.843	0.0152403
828.921	0.0151507
828.999	0.0151202
829.078	0.0152544
829.156	0.0154706
829.234	0.0152663
829.312	0.0151586
829.390	0.0152825
829.468	0.0152742
829.546	0.0152045
829.624	0.0151639
829.703	0.0151772
829.781	0.0151439
829.859	0.0153159
829.937	0.0151949
830.015	0.0151030
830.093	0.0151649
830.171	0.0150562
830.249	0.0151708
830.328	0.0151007
830.406	0.0148897
830.484	0.0151214
830.562	0.0152599
830.640	0.0150739
830.718	0.0151579
830.796	0.0151352
830.874	0.0151777
830.953	0.0151109
831.031	0.0151524
831.109	0.0152045
831.187	0.0152852
831.265	0.0151175
831.343	0.0151479
831.421	0.0152435
831.499	0.0152573
831.578	0.0151040
831.656	0.0150063
831.734	0.0152139
831.812	0.0151599
831.890	0.0151822
831.968	0.0151423
832.046	0.0150436
832.124	0.0150282
832.203	0.0152453
832.281	0.0152559
832.359	0.0151926
832.437	0.0151713
832.515	0.0151473
832.593	0.0153416
832.671	0.0154016
832.749	0.0152973
832.828	0.0151293
832.906	0.0152479
832.984	0.0151847
833.062	0.0152077
833.140	0.0152083
833.218	0.0152957
833.296	0.0152885
833.374	0.0151598
833.453	0.0151546
833.531	0.0152835
833.609	0.0151648
833.687	0.0151556
833.765	0.0151851
833.843	0.0151601
833.921	0.0150481
833.999	0.0151756
834.078	0.0152969
834.156	0.0152795
834.234	0.0153752
834.312	0.0153194
834.390	0.0151778
834.468	0.0152026
834.546	0.0152144
834.624	0.0152867
834.703	0.0153146
834.781	0.0152171
834.859	0.0152106
834.937	0.0153522
835.015	0.0152625
835.093	0.0153802
835.171	0.0152776
835.249	0.0154284
835.328	0.0153214
835.406	0.0152292
835.484	0.0154126
835.562	0.0154248
835.640	0.0152979
835.718	0.0154343
835.796	0.0153149
835.874	0.0151850
835.953	0.0153812
836.031	0.0151069
836.109	0.0152938
836.187	0.0151409
836.265	0.0151466
836.343	0.0150806
836.421	0.0150674
836.499	0.0151863
836.578	0.0151901
836.656	0.0150981
836.734	0.0150652
836.812	0.0151271
836.890	0.0152011
836.968	0.0151168
837.046	0.0151413
837.124	0.0149673
837.203	0.0149368
837.281	0.0149394
837.359	0.0150109
837.437	0.0151447
837.515	0.0151706
837.593	0.0150886
837.671	0.0150835
837.749	0.0151120
837.828	0.0151611
837.906	0.0150142
837.984	0.0152387
838.062	0.0151218
838.140	0.0151479
838.218	0.0152351
838.296	0.0152313
838.374	0.0152935
838.453	0.0151881
838.531	0.0152824
838.609	0.0152257
838.687	0.0152877
838.765	0.0151167
838.843	0.0153011
838.921	0.0152276
838.999	0.0152591
839.078	0.0151937
839.156	0.0153533
839.234	0.0152689
839.312	0.0152295
839.390	0.0152888
839.468	0.0152296
839.546	0.0153365
839.624	0.0153661
839.703	0.0151933
839.781	0.0153895
839.859	0.0153459
839.937	0.0152773
840.015	0.0151829
840.093	0.0151298
840.171	0.0152518
840.249	0.0152546
840.328	0.0151805
840.406	0.0150920
840.484	0.0151942
840.562	0.0151857
840.640	0.0151208
840.718	0.0150478
840.796	0.0150757
840.874	0.0150648
840.953	0.0150179
841.031	0.0151171
841.109	0.0150335
841.187	0.0150930
841.265	0.0150934
841.343	0.0150092
841.421	0.0151636
841.499	0.0150046
841.578	0.0150076
841.656	0.0152245
841.734	0.0149914
841.812	0.0151096
841.890	0.0151376
841.968	0.0151449
842.046	0.0150262
842.124	0.0151218
842.203	0.0151873
842.281	0.0152430
842.359	0.0151062
842.437	0.0150734
842.515	0.0151485
842.593	0.0151844
842.671	0.0151188
842.749	0.0151258
842.828	0.0151230
842.906	0.0151489
842.984	0.0152079
843.062	0.0151321
843.140	0.0151866
843.218	0.0151731
843.296	0.0152497
843.374	0.0152232
843.453	0.0151472
843.531	0.0152428
843.609	0.0152199
843.687	0.0153510
843.765	0.0151615
843.843	0.0150708
843.921	0.0151739
843.999	0.0151821
844.078	0.0153732
844.156	0.0153992
844.234	0.0151540
844.312	0.0152615
844.390	0.0151701
844.468	0.0151777
844.546	0.0151318
844.624	0.0151601
844.703	0.0153294
844.781	0.0151769
844.859	0.0151200
844.937	0.0151938
845.015	0.0153413
845.093	0.0152080
845.171	0.0149661
845.249	0.0150670
845.328	0.0151884
845.406	0.0151553
845.484	0.0152537
845.562	0.0150608
845.640	0.0151472
845.718	0.0152391
845.796	0.0151920
845.874	0.0151396
845.953	0.0151855
846.031	0.0151886
846.109	0.0152245
846.187	0.0151585
846.265	0.0151418
846.343	0.0152158
846.421	0.0152045
846.499	0.0151867
846.578	0.0152039
846.656	0.0152187
846.734	0.0152317
846.812	0.0151042
846.890	0.0152804
846.968	0.0150957
847.046	0.0153101
847.124	0.0153011
847.203	0.0151951
847.281	0.0151842
847.359	0.0151439
847.437	0.0152586
847.515	0.0154149
847.593	0.0151921
847.671	0.0152219
847.749	0.0151908
847.828	0.0152132
847.906	0.0151353
847.984	0.0153025
848.062	0.0153420
848.140	0.0151829
848.218	0.0152744
848.296	0.0152695
848.374	0.0153114
848.453	0.0151426
848.531	0.0151476
848.609	0.0153535
848.687	0.0152281
848.765	0.0152316
848.843	0.0151703
848.921	0.0152316
848.999	0.0151481
849.078	0.0152129
849.156	0.0151464
849.234	0.0151608
849.312	0.0151659
849.390	0.0150298
849.468	0.0151824
849.546	0.0151529
849.624	0.0151739
849.703	0.0150926
849.781	0.0150755
849.859	0.0151849
849.937	0.0150946
850.015	0.0151601
850.093	0.0151922
850.171	0.0151202
850.249	0.0152528
850.328	0.0152136
850.406	0.0153716
850.484	0.0152397
850.562	0.0153815
850.640	0.0152122
850.718	0.0151966
850.796	0.0151788
850.874	0.0153571
850.953	0.0153133
851.031	0.0151634
851.109	0.0150669
851.187	0.0150932
851.265	0.0152181
851.343	0.0151546
851.421	0.0151942
851.499	0.0151862
851.578	0.0152760
851.656	0.0152633
851.734	0.0152544
851.812	0.0152285
851.890	0.0153265
851.968	0.0153643
852.046	0.0151340
852.124	0.0152281
852.203	0.0152463
852.281	0.0152496
852.359	0.0151818
852.437	0.0151627
852.515	0.0152681
852.593	0.0151796
852.671	0.0152454
852.749	0.0151472
852.828	0.0151495
852.906	0.0151216
852.984	0.0152030
853.062	0.0151155
853.140	0.0151219
853.218	0.0151769
853.296	0.0150993
853.374	0.0150676
853.453	0.0151128
853.531	0.0152448
853.609	0.0151377
853.687	0.0150755
853.765	0.0151185
853.843	0.0151003
853.921	0.0150407
853.999	0.0151269
854.078	0.0151899
854.156	0.0152420
854.234	0.0150796
854.312	0.0151731
854.390	0.0152017
854.468	0.0151982
854.546	0.0151046
854.624	0.0152058
854.703	0.0152283
854.781	0.0151965
854.859	0.0151825
854.937	0.0152244
855.015	0.0152022
855.093	0.0151327
855.171	0.0150797
855.249	0.0152627
855.328	0.0152092
855.406	0.0152714
855.484	0.0152849
855.562	0.0151646
855.640	0.0152113
855.718	0.0152775
855.796	0.0153879
855.874	0.0152503
855.953	0.0153486
856.031	0.0152953
856.109	0.0152225
856.187	0.0152480
856.265	0.0153551
856.343	0.0151997
856.421	0.0150899
856.499	0.0151637
856.578	0.0151067
856.656	0.0150760
856.734	0.0151950
856.812	0.0151717
856.890	0.0151872
856.968	0.0151126
857.046	0.0150982
857.124	0.0151707
857.203	0.0150446
857.281	0.0151425
857.359	0.0151285
857.437	0.0151670
857.515	0.0150656
857.593	0.0149807
857.671	0.0151096
857.749	0.0151513
857.828	0.0151009
857.906	0.0151010
857.984	0.0152169
858.062	0.0150735
858.140	0.0150718
858.218	0.0150748
858.296	0.0151546
858.374	0.0149990
858.453	0.0150871
858.531	0.0151254
858.609	0.0151599
858.687	0.0150280
858.765	0.0151016
858.843	0.0153040
858.921	0.0150106
858.999	0.0150437
859.078	0.0151537
859.156	0.0151194
859.234	0.0152752
859.312	0.0151064
859.390	0.0151773
859.468	0.0153105
859.546	0.0151806
859.624	0.0151842
859.703	0.0149854
859.781	0.0153039
859.859	0.0153541
859.937	0.0151433
860.015	0.0152151
860.093	0.0151467
860.171	0.0151482
860.249	0.0151977
860.328	0.0152391
860.406	0.0151414
860.484	0.0150740
860.562	0.0150930
860.640	0.0151566
860.718	0.0151765
860.796	0.0152182
860.874	0.0151665
860.953	0.0151038
861.031	0.0150650
861.109	0.0151147
861.187	0.0153326
861.265	0.0151030
861.343	0.0151031
861.421	0.0150587
861.499	0.0150356
861.578	0.0151681
861.656	0.0151163
861.734	0.0151517
861.812	0.0151131
861.890	0.0151646
861.968	0.0150510
862.046	0.0150554
862.124	0.0150511
862.203	0.0152249
862.281	0.0151057
862.359	0.0150353
862.437	0.0151350
862.515	0.0150436
862.593	0.0150806
862.671	0.0151195
862.749	0.0151615
862.828	0.0151498
862.906	0.0150460
862.984	0.0150312
863.062	0.0151521
863.140	0.0151294
863.218	0.0150061
863.296	0.0149807
863.374	0.0150235
863.453	0.0151795
863.531	0.0151767
863.609	0.0151196
863.687	0.0151075
863.765	0.0151595
863.843	0.0151474
863.921	0.0152421
863.999	0.0151015
864.078	0.0151577
864.156	0.0151824
864.234	0.0152021
864.312	0.0150889
864.390	0.0151432
864.468	0.0152364
864.546	0.0151859
864.624	0.0151086
864.703	0.0151729
864.781	0.0152122
864.859	0.0151360
864.937	0.0150552
865.015	0.0151212
865.093	0.0151362
865.171	0.0151961
865.249	0.0152119
865.328	0.0150548
865.406	0.0150356
865.484	0.0151052
865.562	0.0151131
865.640	0.0151450
865.718	0.0151485
865.796	0.0151715
865.874	0.0150821
865.953	0.0150846
866.031	0.0151498
866.109	0.0150938
866.187	0.0150389
866.265	0.0151524
866.343	0.0151125
866.421	0.0150280
866.499	0.0150205
866.578	0.0150861
866.656	0.0151551
866.734	0.0150256
866.812	0.0150519
866.890	0.0152651
866.968	0.0152644
867.046	0.0152995
867.124	0.0151695
867.203	0.0152721
867.281	0.0153068
867.359	0.0151278
867.437	0.0152676
867.515	0.0152811
867.593	0.0153876
867.671	0.0152701
867.749	0.0152457
867.828	0.0153466
867.906	0.0152077
867.984	0.0151270
868.062	0.0153070
868.140	0.0151235
868.218	0.0150627
868.296	0.0152100
868.374	0.0151663
868.453	0.0152055
868.531	0.0153839
868.609	0.0152605
868.687	0.0152705
868.765	0.0152151
868.843	0.0152046
868.921	0.0152908
868.999	0.0151649
869.078	0.0151888
869.156	0.0152650
869.234	0.0152038
869.312	0.0152595
869.390	0.0151112
869.468	0.0151986
869.546	0.0151330
869.624	0.0150555
869.703	0.0152636
869.781	0.0151736
869.859	0.0151274
869.937	0.0150677
870.015	0.0151405
870.093	0.0149658
870.171	0.0150044
870.249	0.0150699
870.328	0.0152189
870.406	0.0151727
870.484	0.0150487
870.562	0.0150268
870.640	0.0151744
870.718	0.0151551
870.796	0.0150780
870.874	0.0151161
870.953	0.0151810
871.031	0.0152058
871.109	0.0151781
871.187	0.0151676
871.265	0.0152310
871.343	0.0152887
871.421	0.0152264
871.499	0.0152381
871.578	0.0153385
871.656	0.0154012
871.734	0.0153495
871.812	0.0152718
871.890	0.0152283
871.968	0.0152779
872.046	0.0151746
872.124	0.0152103
872.203	0.0152812
872.281	0.0153639
872.359	0.0151671
872.437	0.0151677
872.515	0.0151103
872.593	0.0153001
872.671	0.0151649
872.749	0.0150668
872.828	0.0151423
872.906	0.0152558
872.984	0.0151926
873.062	0.0151395
873.140	0.0151188
873.218	0.0152487
873.296	0.0151871
873.374	0.0151683
873.453	0.0151969
873.531	0.0151020
873.609	0.0152596
873.687	0.0153372
873.765	0.0151700
873.843	0.0152576
873.921	0.0152880
873.999	0.0152213
874.078	0.0151353
874.156	0.0151859
874.234	0.0152808
874.312	0.0151600
874.390	0.0151682
874.468	0.0152329
874.546	0.0153336
874.624	0.0152701
874.703	0.0151778
874.781	0.0151698
874.859	0.0151565
874.937	0.0151173
875.015	0.0152291
875.093	0.0152244
875.171	0.0151964
875.249	0.0150362
875.328	0.0153613
875.406	0.0152103
875.484	0.0152681
875.562	0.0152812
875.640	0.0151884
875.718	0.0151580
875.796	0.0152954
875.874	0.0150483
875.953	0.0150933
876.031	0.0152502
876.109	0.0152641
876.187	0.0151199
876.265	0.0151202
876.343	0.0151299
876.421	0.0151706
876.499	0.0151215
876.578	0.0150494
876.656	0.0150778
876.734	0.0151793
876.812	0.0150088
876.890	0.0150315
876.968	0.0152074
877.046	0.0150820
877.124	0.0150625
877.203	0.0152168
877.281	0.0150302
877.359	0.0151307
877.437	0.0149811
877.515	0.0151756
877.593	0.0151566
877.671	0.0150757
877.749	0.0151927
877.828	0.0151679
877.906	0.0150733
877.984	0.0151589
878.062	0.0150869
878.140	0.0150926
878.218	0.0150610
878.296	0.0151254
878.374	0.0153532
878.453	0.0151321
878.531	0.0150887
878.609	0.0151694
878.687	0.0151678
878.765	0.0150854
878.843	0.0151293
878.921	0.0152554
878.999	0.0151135
879.078	0.0151523
879.156	0.0152615
879.234	0.0153124
879.312	0.0151318
879.390	0.0151303
879.468	0.0152670
879.546	0.0151785
879.624	0.0151757
879.703	0.0152166
879.781	0.0152911
879.859	0.0153035
879.937	0.0151268
880.015	0.0151247
880.093	0.0152846
880.171	0.0152335
880.249	0.0152225
880.328	0.0150636
880.406	0.0151979
880.484	0.0152850
880.562	0.0151705
880.640	0.0151379
880.718	0.0151837
880.796	0.0152067
880.874	0.0152098
880.953	0.0151175
881.031	0.0151628
881.109	0.0151492
881.187	0.0152041
881.265	0.0151978
881.343	0.0152577
881.421	0.0152148
881.499	0.0150932
881.578	0.0151601
881.656	0.0151726
881.734	0.0151782
881.812	0.0151238
881.890	0.0151447
881.968	0.0151617
882.046	0.0151437
882.124	0.0151121
882.203	0.0150469
882.281	0.0151929
882.359	0.0151379
882.437	0.0152020
882.515	0.0151648
882.593	0.0150635
882.671	0.0152306
882.749	0.0151480
882.828	0.0152842
882.906	0.0151183
882.984	0.0151917
883.062	0.0151043
883.140	0.0151447
883.218	0.0151755
883.296	0.0151740
883.374	0.0153138
883.453	0.0152685
883.531	0.0152293
883.609	0.0151083
883.687	0.0149010
883.765	0.0151639
883.843	0.0152127
883.921	0.0150612
883.999	0.0149926
884.078	0.0151565
884.156	0.0152048
884.234	0.0150807
884.312	0.0153127
884.390	0.0152991
884.468	0.0151855
884.546	0.0151611
884.624	0.0151727
884.703	0.0152608
884.781	0.0151414
884.859	0.0151170
884.937	0.0151669
885.015	0.0151641
885.093	0.0151837
885.171	0.0150776
885.249	0.0151808
885.328	0.0150974
885.406	0.0151050
885.484	0.0151357
885.562	0.0151447
885.640	0.0150682
885.718	0.0151546
885.796	0.0150509
885.874	0.0150317
885.953	0.0150945
886.031	0.0152823
886.109	0.0152187
886.187	0.0151295
886.265	0.0151015
886.343	0.0151589
886.421	0.0151736
886.499	0.0150727
886.578	0.0152442
886.656	0.0152000
886.734	0.0150923
886.812	0.0153288
886.890	0.0151968
886.968	0.0151510
887.046	0.0151270
887.124	0.0151890
887.203	0.0151193
887.281	0.0151184
887.359	0.0152158
887.437	0.0151827
887.515	0.0151857
887.593	0.0152068
887.671	0.0151286
887.749	0.0150678
887.828	0.0152116
887.906	0.0151889
887.984	0.0150737
888.062	0.0150995
888.140	0.0150690
888.218	0.0150892
888.296	0.0151502
888.374	0.0150935
888.453	0.0150748
888.531	0.0152543
888.609	0.0152061
888.687	0.0151066
888.765	0.0152312
888.843	0.0151520
888.921	0.0151198
888.999	0.0151215
889.078	0.0150643
889.156	0.0152099
889.234	0.0153033
889.312	0.0152557
889.390	0.0151122
889.468	0.0153085
889.546	0.0152711
889.624	0.0151629
889.703	0.0151905
889.781	0.0152648
889.859	0.0152536
889.937	0.0152240
890.015	0.0151038
890.093	0.0151486
890.171	0.0152161
890.249	0.0151057
890.328	0.0151652
890.406	0.0151332
890.484	0.0150862
890.562	0.0150716
890.640	0.0151009
890.718	0.0152191
890.796	0.0152337
890.874	0.0152513
890.953	0.0151869
891.031	0.0151107
891.109	0.0151883
891.187	0.0152570
891.265	0.0151309
891.343	0.0151543
891.421	0.0151505
891.499	0.0151950
891.578	0.0150256
891.656	0.0152291
891.734	0.0150857
891.812	0.0151820
891.890	0.0150555
891.968	0.0151379
892.046	0.0151185
892.124	0.0151171
892.203	0.0151839
892.281	0.0151904
892.359	0.0151769
892.437	0.0152608
892.515	0.0151144
892.593	0.0151667
892.671	0.0152591
892.749	0.0151748
892.828	0.0151807
892.906	0.0152485
892.984	0.0150903
893.062	0.0151591
893.140	0.0152139
893.218	0.0152158
893.296	0.0151687
893.374	0.0153129
893.453	0.0151746
893.531	0.0152069
893.609	0.0152253
893.687	0.0152666
893.765	0.0152557
893.843	0.0152148
893.921	0.0150735
893.999	0.0153262
894.078	0.0152920
894.156	0.0152717
894.234	0.0152979
894.312	0.0152739
894.390	0.0153387
894.468	0.0152883
894.546	0.0150899
894.624	0.0152408
894.703	0.0153839
894.781	0.0151646
894.859	0.0153024
894.937	0.0153142
895.015	0.0151575
895.093	0.0151508
895.171	0.0151754
895.249	0.0151132
895.328	0.0152927
895.406	0.0152525
895.484	0.0150845
895.562	0.0152882
895.640	0.0150791
895.718	0.0152218
895.796	0.0152106
895.874	0.0151682
895.953	0.0151423
896.031	0.0151425
896.109	0.0150653
896.187	0.0151567
896.265	0.0150923
896.343	0.0151626
896.421	0.0150272
896.499	0.0150775
896.578	0.0151035
896.656	0.0152486
896.734	0.0151076
896.812	0.0151382
896.890	0.0151492
896.968	0.0151809
897.046	0.0151538
897.124	0.0151975
897.203	0.0152036
897.281	0.0151257
897.359	0.0152836
897.437	0.0151836
897.515	0.0151315
897.593	0.0152163
897.671	0.0153209
897.749	0.0151982
897.828	0.0152084
897.906	0.0151820
897.984	0.0152443
898.062	0.0151570
898.140	0.0151188
898.218	0.0152739
898.296	0.0152672
898.374	0.0152798
898.453	0.0150714
898.531	0.0151919
898.609	0.0152065
898.687	0.0153736
898.765	0.0152045
898.843	0.0153329
898.921	0.0152449
898.999	0.0150784
899.078	0.0151902
899.156	0.0153060
899.234	0.0152398
899.312	0.0150805
899.390	0.0152367
899.468	0.0152802
899.546	0.0151614
899.624	0.0152422
899.703	0.0150339
899.781	0.0150986
899.859	0.0151302
899.937	0.0152073
900.015	0.0150763
900.093	0.0149201
900.171	0.0151366
900.249	0.0152334
900.328	0.0150193
900.406	0.0150339
900.484	0.0150301
900.562	0.0150164
900.640	0.0150865
900.718	0.0151064
900.796	0.0150394
900.874	0.0150828
900.953	0.0151533
901.031	0.0151379
901.109	0.0149300
901.187	0.0151086
901.265	0.0149005
901.343	0.0150976
901.421	0.0150201
901.499	0.0150372
901.578	0.0151592
901.656	0.0150867
901.734	0.0151439
901.812	0.0150259
901.890	0.0151871
901.968	0.0151502
902.046	0.0151844
902.124	0.0151792
902.203	0.0150188
902.281	0.0152126
902.359	0.0152259
902.437	0.0151978
902.515	0.0151827
902.593	0.0152077
902.671	0.0151572
902.749	0.0151876
902.828	0.0151389
902.906	0.0152054
902.984	0.0151720
903.062	0.0151634
903.140	0.0150933
903.218	0.0151540
903.296	0.0152118
903.374	0.0151733
903.453	0.0150571
903.531	0.0153452
903.609	0.0151922
903.687	0.0151421
903.765	0.0152023
903.843	0.0152490
903.921	0.0151608
903.999	0.0153214
904.078	0.0152184
904.156	0.0151615
904.234	0.0152772
904.312	0.0151635
904.390	0.0150215
904.468	0.0151406
904.546	0.0151070
904.624	0.0150909
904.703	0.0152567
904.781	0.0152003
904.859	0.0151405
904.937	0.0151526
905.015	0.0150954
905.093	0.0151472
905.171	0.0152469
905.249	0.0150546
905.328	0.0149975
905.406	0.0150909
905.484	0.0151309
905.562	0.0151095
905.640	0.0151942
905.718	0.0151166
905.796	0.0150935
905.874	0.0152876
905.953	0.0151180
906.031	0.0153967
906.109	0.0153487
906.187	0.0151760
906.265	0.0153248
906.343	0.0151371
906.421	0.0151393
906.499	0.0152625
906.578	0.0151884
906.656	0.0151366
906.734	0.0152767
906.812	0.0154568
906.890	0.0153034
906.968	0.0152543
907.046	0.0152941
907.124	0.0153097
907.203	0.0152924
907.281	0.0152335
907.359	0.0152380
907.437	0.0150943
907.515	0.0152068
907.593	0.0152259
907.671	0.0151338
907.749	0.0152212
907.828	0.0152657
907.906	0.0150463
907.984	0.0152407
908.062	0.0152500
908.140	0.0151479
908.218	0.0151897
908.296	0.0152020
908.374	0.0150954
908.453	0.0150912
908.531	0.0152282
908.609	0.0151162
908.687	0.0150909
908.765	0.0151942
908.843	0.0151711
908.921	0.0152376
908.999	0.0152589
909.078	0.0152547
909.156	0.0152006
909.234	0.0152874
909.312	0.0152599
909.390	0.0151999
909.468	0.0152206
909.546	0.0151561
909.624	0.0152530
909.703	0.0154363
909.781	0.0152329
909.859	0.0152380
909.937	0.0152668
910.015	0.0152399
910.093	0.0151880
910.171	0.0153259
910.249	0.0153619
910.328	0.0151913
910.406	0.0151688
910.484	0.0152801
910.562	0.0153129
910.640	0.0152151
910.718	0.0151349
910.796	0.0152968
910.874	0.0153509
910.953	0.0151717
911.031	0.0152039
911.109	0.0150533
911.187	0.0151273
911.265	0.0151719
911.343	0.0151171
911.421	0.0151057
911.499	0.0151671
911.578	0.0153628
911.656	0.0150653
911.734	0.0150327
911.812	0.0152461
911.890	0.0151875
911.968	0.0152964
912.046	0.0152175
912.124	0.0152599
912.203	0.0151429
912.281	0.0152931
912.359	0.0152657
912.437	0.0152195
912.515	0.0152654
912.593	0.0153481
912.671	0.0152444
912.749	0.0151526
912.828	0.0151627
912.906	0.0152653
912.984	0.0151929
913.062	0.0152406
913.140	0.0151809
913.218	0.0152558
913.296	0.0151711
913.374	0.0151160
913.453	0.0151738
913.531	0.0151845
913.609	0.0152521
913.687	0.0151666
913.765	0.0151852
913.843	0.0151383
913.921	0.0152905
913.999	0.0152738
914.078	0.0151567
914.156	0.0152258
914.234	0.0152255
914.312	0.0153149
914.390	0.0151364
914.468	0.0151951
914.546	0.0153528
914.624	0.0153310
914.703	0.0152644
914.781	0.0152254
914.859	0.0151478
914.937	0.0151569
915.015	0.0152868
915.093	0.0153091
915.171	0.0152282
915.249	0.0153132
915.328	0.0153360
915.406	0.0151949
915.484	0.0153478
915.562	0.0153529
915.640	0.0152457
915.718	0.0151824
915.796	0.0150497
915.874	0.0152139
915.953	0.0152103
916.031	0.0152206
916.109	0.0152822
916.187	0.0152730
916.265	0.0152654
916.343	0.0152513
916.421	0.0149943
916.499	0.0151423
916.578	0.0152311
916.656	0.0151894
916.734	0.0151662
916.812	0.0152576
916.890	0.0153555
916.968	0.0152602
917.046	0.0151166
917.124	0.0151846
917.203	0.0153323
917.281	0.0152321
917.359	0.0153051
917.437	0.0152317
917.515	0.0153390
917.593	0.0151906
917.671	0.0152130
917.749	0.0153400
917.828	0.0153024
917.906	0.0152362
917.984	0.0153066
918.062	0.0153292
918.140	0.0152023
918.218	0.0152447
918.296	0.0152653
918.374	0.0151730
918.453	0.0151978
918.531	0.0153043
918.609	0.0152955
918.687	0.0151592
918.765	0.0153570
918.843	0.0150912
918.921	0.0152112
918.999	0.0152620
919.078	0.0150529
919.156	0.0151396
919.234	0.0151503
919.312	0.0150623
919.390	0.0151829
919.468	0.0152661
919.546	0.0151746
919.624	0.0151644
919.703	0.0151868
919.781	0.0151603
919.859	0.0152434
919.937	0.0152383
