05/06/2022	19:24:15	Ver.	4.1	UNKNOWN
Optical Delay	600.015094	Delta X		0.078125	Sweeps	1	Scan Rate	0/0
Coordinates	Axis 1	NaN	Axis 2	NaN	Axis 3	NaN	Axis 4	NaN	Axis 5	NaN	Axis 6	0.000000
TX Power	0.000000	RX Power	0.000000

600.015	0.0151624
600.093	0.0152031
600.171	0.0151434
600.249	0.0151639
600.328	0.0149544
600.406	0.0150607
600.484	0.0152868
600.562	0.0149977
600.640	0.0151050
600.718	0.0151331
600.796	0.0151954
600.874	0.0151290
600.953	0.0151889
601.031	0.0150948
601.109	0.0152029
601.187	0.0151744
601.265	0.0152098
601.343	0.0151118
601.421	0.0150272
601.499	0.0150455
601.578	0.0151875
601.656	0.0151852
601.734	0.0150116
601.812	0.0149817
601.890	0.0149706
601.968	0.0150217
602.046	0.0150804
602.124	0.0150845
602.203	0.0150414
602.281	0.0150911
602.359	0.0151350
602.437	0.0150615
602.515	0.0151081
602.593	0.0150513
602.671	0.0151232
602.749	0.0149193
602.828	0.0150932
602.906	0.0151220
602.984	0.0150353
603.062	0.0150003
603.140	0.0150351
603.218	0.0150085
603.296	0.0150700
603.374	0.0150686
603.453	0.0150826
603.531	0.0150924
603.609	0.0150157
603.687	0.0150302
603.765	0.0151097
603.843	0.0151279
603.921	0.0152296
603.999	0.0150131
604.078	0.0150307
604.156	0.0150793
604.234	0.0150140
604.312	0.0151069
604.390	0.0150261
604.468	0.0150686
604.546	0.0151585
604.624	0.0152062
604.703	0.0151432
604.781	0.0151718
604.859	0.0152648
604.937	0.0151435
605.015	0.0152680
605.093	0.0151048
605.171	0.0150684
605.249	0.0150664
605.328	0.0152149
605.406	0.0149615
605.484	0.0150697
605.562	0.0151566
605.640	0.0150743
605.718	0.0150589
605.796	0.0150618
605.874	0.0152619
605.953	0.0152861
606.031	0.0150790
606.109	0.0152924
606.187	0.0152393
606.265	0.0151748
606.343	0.0151399
606.421	0.0149162
606.499	0.0151655
606.578	0.0149316
606.656	0.0149951
606.734	0.0150179
606.812	0.0149239
606.890	0.0149625
606.968	0.0150835
607.046	0.0150053
607.124	0.0150526
607.203	0.0149918
607.281	0.0150117
607.359	0.0151799
607.437	0.0150926
607.515	0.0148874
607.593	0.0152125
607.671	0.0150532
607.749	0.0149692
607.828	0.0151949
607.906	0.0149483
607.984	0.0151062
608.062	0.0150594
608.140	0.0150311
608.218	0.0150491
608.296	0.0150890
608.374	0.0149615
608.453	0.0151195
608.531	0.0150021
608.609	0.0149674
608.687	0.0149378
608.765	0.0149432
608.843	0.0149046
608.921	0.0151011
608.999	0.0151372
609.078	0.0150993
609.156	0.0150984
609.234	0.0150912
609.312	0.0151783
609.390	0.0151708
609.468	0.0150568
609.546	0.0151225
609.624	0.0151839
609.703	0.0151372
609.781	0.0151909
609.859	0.0151254
609.937	0.0150676
610.015	0.0150998
610.093	0.0149963
610.171	0.0151220
610.249	0.0151237
610.328	0.0150179
610.406	0.0151733
610.484	0.0151431
610.562	0.0150770
610.640	0.0151068
610.718	0.0150877
610.796	0.0150988
610.874	0.0149653
610.953	0.0149929
611.031	0.0150359
611.109	0.0150966
611.187	0.0150352
611.265	0.0150531
611.343	0.0150534
611.421	0.0149196
611.499	0.0149416
611.578	0.0151582
611.656	0.0151454
611.734	0.0150317
611.812	0.0150736
611.890	0.0152232
611.968	0.0152390
612.046	0.0150498
612.124	0.0152090
612.203	0.0151140
612.281	0.0151797
612.359	0.0152694
612.437	0.0151356
612.515	0.0152833
612.593	0.0152399
612.671	0.0151246
612.749	0.0150791
612.828	0.0152422
612.906	0.0152485
612.984	0.0152557
613.062	0.0151398
613.140	0.0150468
613.218	0.0150709
613.296	0.0151156
613.374	0.0150882
613.453	0.0150761
613.531	0.0150768
613.609	0.0150996
613.687	0.0150666
613.765	0.0150330
613.843	0.0150766
613.921	0.0149493
613.999	0.0150674
614.078	0.0150018
614.156	0.0150030
614.234	0.0151368
614.312	0.0149952
614.390	0.0150423
614.468	0.0150925
614.546	0.0150867
614.624	0.0151630
614.703	0.0151620
614.781	0.0151343
614.859	0.0151347
614.937	0.0152405
615.015	0.0150680
615.093	0.0152399
615.171	0.0152650
615.249	0.0152720
615.328	0.0152823
615.406	0.0152196
615.484	0.0152682
615.562	0.0152194
615.640	0.0152980
615.718	0.0152694
615.796	0.0152924
615.874	0.0152291
615.953	0.0153014
616.031	0.0151766
616.109	0.0151579
616.187	0.0152195
616.265	0.0152318
616.343	0.0151852
616.421	0.0152016
616.499	0.0152405
616.578	0.0151763
616.656	0.0149947
616.734	0.0150552
616.812	0.0151658
616.890	0.0151265
616.968	0.0150819
617.046	0.0150945
617.124	0.0151682
617.203	0.0152171
617.281	0.0151701
617.359	0.0150566
617.437	0.0151002
617.515	0.0150375
617.593	0.0150693
617.671	0.0152020
617.749	0.0150705
617.828	0.0152305
617.906	0.0151208
617.984	0.0152001
618.062	0.0151504
618.140	0.0149397
618.218	0.0151987
618.296	0.0151716
618.374	0.0151504
618.453	0.0150362
618.531	0.0152271
618.609	0.0151937
618.687	0.0150529
618.765	0.0152834
618.843	0.0151716
618.921	0.0152033
618.999	0.0152901
619.078	0.0152506
619.156	0.0152061
619.234	0.0151183
619.312	0.0151389
619.390	0.0152122
619.468	0.0151709
619.546	0.0151054
619.624	0.0151295
619.703	0.0151197
619.781	0.0152632
619.859	0.0151104
619.937	0.0151418
620.015	0.0151697
620.093	0.0151136
620.171	0.0150764
620.249	0.0151032
620.328	0.0150645
620.406	0.0151097
620.484	0.0152299
620.562	0.0150825
620.640	0.0150605
620.718	0.0151803
620.796	0.0150858
620.874	0.0151600
620.953	0.0150575
621.031	0.0151865
621.109	0.0152144
621.187	0.0152077
621.265	0.0151236
621.343	0.0151387
621.421	0.0152441
621.499	0.0150651
621.578	0.0151797
621.656	0.0151833
621.734	0.0150050
621.812	0.0152258
621.890	0.0149996
621.968	0.0149780
622.046	0.0150003
622.124	0.0149332
622.203	0.0151094
622.281	0.0148198
622.359	0.0150584
622.437	0.0149151
622.515	0.0150327
622.593	0.0151637
622.671	0.0150900
622.749	0.0150744
622.828	0.0151264
622.906	0.0150449
622.984	0.0151673
623.062	0.0151669
623.140	0.0151596
623.218	0.0151696
623.296	0.0150636
623.374	0.0151934
623.453	0.0151958
623.531	0.0150069
623.609	0.0149976
623.687	0.0149828
623.765	0.0151056
623.843	0.0151535
623.921	0.0151588
623.999	0.0152098
624.078	0.0150787
624.156	0.0151149
624.234	0.0152959
624.312	0.0153082
624.390	0.0151117
624.468	0.0152415
624.546	0.0153027
624.624	0.0152553
624.703	0.0152876
624.781	0.0151566
624.859	0.0152251
624.937	0.0151254
625.015	0.0152904
625.093	0.0151511
625.171	0.0150710
625.249	0.0151547
625.328	0.0151028
625.406	0.0151416
625.484	0.0150858
625.562	0.0150971
625.640	0.0149978
625.718	0.0150698
625.796	0.0150688
625.874	0.0151368
625.953	0.0151219
626.031	0.0149845
626.109	0.0150606
626.187	0.0151118
626.265	0.0152196
626.343	0.0151099
626.421	0.0151684
626.499	0.0151343
626.578	0.0150383
626.656	0.0150555
626.734	0.0151079
626.812	0.0152081
626.890	0.0150000
626.968	0.0150661
627.046	0.0151206
627.124	0.0149390
627.203	0.0150466
627.281	0.0151055
627.359	0.0149846
627.437	0.0149963
627.515	0.0150920
627.593	0.0149912
627.671	0.0151513
627.749	0.0151275
627.828	0.0151008
627.906	0.0151370
627.984	0.0150862
628.062	0.0150822
628.140	0.0151462
628.218	0.0151805
628.296	0.0153661
628.374	0.0152156
628.453	0.0153142
628.531	0.0153604
628.609	0.0152166
628.687	0.0153723
628.765	0.0154880
628.843	0.0154337
628.921	0.0152662
628.999	0.0152034
629.078	0.0153027
629.156	0.0152374
629.234	0.0151938
629.312	0.0153140
629.390	0.0151188
629.468	0.0149731
629.546	0.0150626
629.624	0.0150035
629.703	0.0149166
629.781	0.0148370
629.859	0.0148016
629.937	0.0147481
630.015	0.0147355
630.093	0.0147394
630.171	0.0149433
630.249	0.0149641
630.328	0.0148418
630.406	0.0148991
630.484	0.0150240
630.562	0.0149015
630.640	0.0148827
630.718	0.0151205
630.796	0.0150520
630.874	0.0151723
630.953	0.0151363
631.031	0.0151942
631.109	0.0153207
631.187	0.0153047
631.265	0.0152364
631.343	0.0152464
631.421	0.0154034
631.499	0.0154420
631.578	0.0153787
631.656	0.0155251
631.734	0.0154731
631.812	0.0154781
631.890	0.0155442
631.968	0.0153889
632.046	0.0154533
632.124	0.0154076
632.203	0.0153178
632.281	0.0151425
632.359	0.0150697
632.437	0.0151579
632.515	0.0152140
632.593	0.0150014
632.671	0.0148772
632.749	0.0148568
632.828	0.0147903
632.906	0.0147636
632.984	0.0146711
633.062	0.0148075
633.140	0.0147804
633.218	0.0147839
633.296	0.0146388
633.374	0.0147658
633.453	0.0147730
633.531	0.0147303
633.609	0.0147232
633.687	0.0148527
633.765	0.0148153
633.843	0.0148342
633.921	0.0149038
633.999	0.0149586
634.078	0.0149878
634.156	0.0149631
634.234	0.0150198
634.312	0.0150877
634.390	0.0150687
634.468	0.0152252
634.546	0.0152268
634.624	0.0151583
634.703	0.0153242
634.781	0.0152370
634.859	0.0153402
634.937	0.0153776
635.015	0.0154369
635.093	0.0155088
635.171	0.0155260
635.249	0.0153476
635.328	0.0154812
635.406	0.0155379
635.484	0.0153323
635.562	0.0152435
635.640	0.0151389
635.718	0.0152158
635.796	0.0150635
635.874	0.0151025
635.953	0.0151421
636.031	0.0148503
636.109	0.0148236
636.187	0.0148405
636.265	0.0148468
636.343	0.0146494
636.421	0.0147309
636.499	0.0148540
636.578	0.0147694
636.656	0.0148937
636.734	0.0146883
636.812	0.0147157
636.890	0.0147540
636.968	0.0148295
637.046	0.0147264
637.124	0.0147691
637.203	0.0146526
637.281	0.0146775
637.359	0.0146532
637.437	0.0148179
637.515	0.0146558
637.593	0.0146019
637.671	0.0145834
637.749	0.0148045
637.828	0.0147267
637.906	0.0146639
637.984	0.0148874
638.062	0.0148370
638.140	0.0151037
638.218	0.0152186
638.296	0.0150894
638.374	0.0152530
638.453	0.0153378
638.531	0.0155143
638.609	0.0155096
638.687	0.0155335
638.765	0.0155154
638.843	0.0156840
638.921	0.0154774
638.999	0.0156210
639.078	0.0155968
639.156	0.0155157
639.234	0.0155251
639.312	0.0154058
639.390	0.0154925
639.468	0.0155231
639.546	0.0154894
639.624	0.0153056
639.703	0.0153359
639.781	0.0154340
639.859	0.0153202
639.937	0.0153072
640.015	0.0152119
640.093	0.0151874
640.171	0.0150833
640.249	0.0149825
640.328	0.0148196
640.406	0.0147466
640.484	0.0147812
640.562	0.0146008
640.640	0.0146092
640.718	0.0145517
640.796	0.0145318
640.874	0.0144552
640.953	0.0143552
641.031	0.0145058
641.109	0.0143752
641.187	0.0144104
641.265	0.0146272
641.343	0.0147124
641.421	0.0146519
641.499	0.0146365
641.578	0.0146320
641.656	0.0147246
641.734	0.0148428
641.812	0.0149171
641.890	0.0148025
641.968	0.0148755
642.046	0.0148549
642.124	0.0150617
642.203	0.0150272
642.281	0.0150849
642.359	0.0151472
642.437	0.0151892
642.515	0.0154309
642.593	0.0153745
642.671	0.0155387
642.749	0.0155991
642.828	0.0158113
642.906	0.0158437
642.984	0.0158752
643.062	0.0157993
643.140	0.0159099
643.218	0.0158276
643.296	0.0158574
643.374	0.0159750
643.453	0.0157726
643.531	0.0156977
643.609	0.0157706
643.687	0.0157402
643.765	0.0155692
643.843	0.0155150
643.921	0.0153808
643.999	0.0152534
644.078	0.0154924
644.156	0.0152621
644.234	0.0153020
644.312	0.0151446
644.390	0.0150282
644.468	0.0147623
644.546	0.0147491
644.624	0.0145625
644.703	0.0145313
644.781	0.0145497
644.859	0.0143771
644.937	0.0142017
645.015	0.0141785
645.093	0.0143579
645.171	0.0143090
645.249	0.0140467
645.328	0.0141775
645.406	0.0141157
645.484	0.0141069
645.562	0.0141012
645.640	0.0141700
645.718	0.0143682
645.796	0.0143722
645.874	0.0144536
645.953	0.0148233
646.031	0.0147585
646.109	0.0148544
646.187	0.0149380
646.265	0.0150932
646.343	0.0151451
646.421	0.0152048
646.499	0.0153651
646.578	0.0154014
646.656	0.0154794
646.734	0.0155830
646.812	0.0158769
646.890	0.0157882
646.968	0.0159048
647.046	0.0161044
647.124	0.0160735
647.203	0.0160767
647.281	0.0160931
647.359	0.0161732
647.437	0.0162127
647.515	0.0162882
647.593	0.0162667
647.671	0.0160954
647.749	0.0160945
647.828	0.0160329
647.906	0.0159100
647.984	0.0158796
648.062	0.0154829
648.140	0.0155729
648.218	0.0153631
648.296	0.0151261
648.374	0.0149123
648.453	0.0148907
648.531	0.0147157
648.609	0.0144854
648.687	0.0144302
648.765	0.0142027
648.843	0.0141459
648.921	0.0141351
648.999	0.0140382
649.078	0.0140491
649.156	0.0138638
649.234	0.0139676
649.312	0.0139300
649.390	0.0138537
649.468	0.0138811
649.546	0.0140150
649.624	0.0139938
649.703	0.0140877
649.781	0.0141990
649.859	0.0142079
649.937	0.0142402
650.015	0.0142922
650.093	0.0144305
650.171	0.0145090
650.249	0.0148273
650.328	0.0149886
650.406	0.0149313
650.484	0.0150878
650.562	0.0153800
650.640	0.0155515
650.718	0.0155467
650.796	0.0157050
650.874	0.0159846
650.953	0.0160916
651.031	0.0160820
651.109	0.0161320
651.187	0.0162685
651.265	0.0160696
651.343	0.0161011
651.421	0.0162535
651.499	0.0162424
651.578	0.0161619
651.656	0.0161166
651.734	0.0160838
651.812	0.0160837
651.890	0.0158849
651.968	0.0158531
652.046	0.0159444
652.124	0.0157561
652.203	0.0156404
652.281	0.0156371
652.359	0.0155996
652.437	0.0153392
652.515	0.0151995
652.593	0.0151115
652.671	0.0150154
652.749	0.0149266
652.828	0.0148026
652.906	0.0146873
652.984	0.0145459
653.062	0.0144469
653.140	0.0142522
653.218	0.0142053
653.296	0.0141356
653.374	0.0140529
653.453	0.0140862
653.531	0.0140701
653.609	0.0141037
653.687	0.0140609
653.765	0.0140498
653.843	0.0140486
653.921	0.0141303
653.999	0.0140298
654.078	0.0141384
654.156	0.0141216
654.234	0.0144018
654.312	0.0142074
654.390	0.0144041
654.468	0.0144537
654.546	0.0147208
654.624	0.0148754
654.703	0.0149389
654.781	0.0151340
654.859	0.0151346
654.937	0.0152455
655.015	0.0154687
655.093	0.0155092
655.171	0.0156761
655.249	0.0157500
655.328	0.0157021
655.406	0.0158286
655.484	0.0160316
655.562	0.0159703
655.640	0.0159571
655.718	0.0162004
655.796	0.0158869
655.874	0.0158954
655.953	0.0159061
656.031	0.0156982
656.109	0.0156638
656.187	0.0155819
656.265	0.0155997
656.343	0.0156135
656.421	0.0155392
656.499	0.0154417
656.578	0.0153973
656.656	0.0153522
656.734	0.0151214
656.812	0.0150787
656.890	0.0150780
656.968	0.0149263
657.046	0.0148992
657.124	0.0147148
657.203	0.0147256
657.281	0.0144866
657.359	0.0143665
657.437	0.0142798
657.515	0.0140903
657.593	0.0142602
657.671	0.0140316
657.749	0.0140604
657.828	0.0141127
657.906	0.0142757
657.984	0.0143124
658.062	0.0141586
658.140	0.0144004
658.218	0.0145390
658.296	0.0145430
658.374	0.0146457
658.453	0.0146636
658.531	0.0147190
658.609	0.0148795
658.687	0.0146949
658.765	0.0148569
658.843	0.0150909
658.921	0.0150730
658.999	0.0151477
659.078	0.0152621
659.156	0.0152741
659.234	0.0151834
659.312	0.0154390
659.390	0.0155193
659.468	0.0154675
659.546	0.0155370
659.624	0.0155460
659.703	0.0156716
659.781	0.0157247
659.859	0.0156728
659.937	0.0156161
660.015	0.0155946
660.093	0.0155264
660.171	0.0156052
660.249	0.0155392
660.328	0.0153173
660.406	0.0155224
660.484	0.0153956
660.562	0.0153713
660.640	0.0152845
660.718	0.0151182
660.796	0.0151180
660.874	0.0151755
660.953	0.0150659
661.031	0.0149530
661.109	0.0149489
661.187	0.0149385
661.265	0.0150391
661.343	0.0147514
661.421	0.0145911
661.499	0.0147255
661.578	0.0147063
661.656	0.0145942
661.734	0.0145132
661.812	0.0146001
661.890	0.0144275
661.968	0.0145007
662.046	0.0145180
662.124	0.0146642
662.203	0.0146912
662.281	0.0144212
662.359	0.0145350
662.437	0.0145728
662.515	0.0146423
662.593	0.0148541
662.671	0.0147918
662.749	0.0149191
662.828	0.0149390
662.906	0.0150293
662.984	0.0150266
663.062	0.0149655
663.140	0.0151780
663.218	0.0153073
663.296	0.0152058
663.374	0.0153714
663.453	0.0153046
663.531	0.0153864
663.609	0.0155122
663.687	0.0155304
663.765	0.0155688
663.843	0.0154838
663.921	0.0154594
663.999	0.0153546
664.078	0.0155212
664.156	0.0155298
664.234	0.0154333
664.312	0.0153072
664.390	0.0153758
664.468	0.0153328
664.546	0.0153246
664.624	0.0153027
664.703	0.0152962
664.781	0.0151313
664.859	0.0151579
664.937	0.0152161
665.015	0.0151656
665.093	0.0149941
665.171	0.0150286
665.249	0.0149053
665.328	0.0148132
665.406	0.0147345
665.484	0.0146426
665.562	0.0146290
665.640	0.0145444
665.718	0.0144479
665.796	0.0144344
665.874	0.0144608
665.953	0.0143880
666.031	0.0144534
666.109	0.0146690
666.187	0.0146136
666.265	0.0146241
666.343	0.0147329
666.421	0.0148068
666.499	0.0146505
666.578	0.0147784
666.656	0.0149242
666.734	0.0149378
666.812	0.0149310
666.890	0.0151095
666.968	0.0151094
667.046	0.0150419
667.124	0.0151545
667.203	0.0151481
667.281	0.0152011
667.359	0.0153069
667.437	0.0153411
667.515	0.0153844
667.593	0.0153626
667.671	0.0154787
667.749	0.0155881
667.828	0.0155352
667.906	0.0154042
667.984	0.0156000
668.062	0.0155884
668.140	0.0154750
668.218	0.0155274
668.296	0.0155161
668.374	0.0154161
668.453	0.0153953
668.531	0.0154020
668.609	0.0154443
668.687	0.0153075
668.765	0.0152097
668.843	0.0152607
668.921	0.0152545
668.999	0.0151269
669.078	0.0150796
669.156	0.0149866
669.234	0.0149611
669.312	0.0149451
669.390	0.0150475
669.468	0.0148640
669.546	0.0149477
669.624	0.0149057
669.703	0.0149731
669.781	0.0148675
669.859	0.0148103
669.937	0.0147509
670.015	0.0147681
670.093	0.0147543
670.171	0.0146990
670.249	0.0144778
670.328	0.0146000
670.406	0.0145605
670.484	0.0145576
670.562	0.0146266
670.640	0.0146554
670.718	0.0145464
670.796	0.0145176
670.874	0.0146607
670.953	0.0148199
671.031	0.0148266
671.109	0.0147953
671.187	0.0149945
671.265	0.0150586
671.343	0.0151431
671.421	0.0151349
671.499	0.0152566
671.578	0.0153526
671.656	0.0152668
671.734	0.0154341
671.812	0.0155194
671.890	0.0154119
671.968	0.0155675
672.046	0.0156100
672.124	0.0157011
672.203	0.0156695
672.281	0.0157139
672.359	0.0158571
672.437	0.0157262
672.515	0.0158195
672.593	0.0156674
672.671	0.0156790
672.749	0.0157451
672.828	0.0156368
672.906	0.0156934
672.984	0.0155377
673.062	0.0154855
673.140	0.0154882
673.218	0.0152595
673.296	0.0153954
673.374	0.0152309
673.453	0.0150465
673.531	0.0150591
673.609	0.0150410
673.687	0.0150145
673.765	0.0148402
673.843	0.0146835
673.921	0.0148006
673.999	0.0145588
674.078	0.0146235
674.156	0.0145124
674.234	0.0146284
674.312	0.0146514
674.390	0.0145527
674.468	0.0144873
674.546	0.0145022
674.624	0.0147070
674.703	0.0146651
674.781	0.0146535
674.859	0.0149443
674.937	0.0147869
675.015	0.0149489
675.093	0.0148825
675.171	0.0148771
675.249	0.0150957
675.328	0.0151109
675.406	0.0151115
675.484	0.0151616
675.562	0.0150954
675.640	0.0153306
675.718	0.0153175
675.796	0.0153629
675.874	0.0154118
675.953	0.0153807
676.031	0.0154390
676.109	0.0155825
676.187	0.0154061
676.265	0.0155003
676.343	0.0156184
676.421	0.0156376
676.499	0.0156515
676.578	0.0154263
676.656	0.0155201
676.734	0.0154992
676.812	0.0155943
676.890	0.0155474
676.968	0.0156581
677.046	0.0156293
677.124	0.0156256
677.203	0.0157375
677.281	0.0155846
677.359	0.0155305
677.437	0.0155984
677.515	0.0154100
677.593	0.0153793
677.671	0.0152480
677.749	0.0150057
677.828	0.0150273
677.906	0.0148226
677.984	0.0147532
678.062	0.0145657
678.140	0.0146523
678.218	0.0143922
678.296	0.0143785
678.374	0.0143372
678.453	0.0143913
678.531	0.0144006
678.609	0.0141570
678.687	0.0143728
678.765	0.0144332
678.843	0.0144772
678.921	0.0146407
678.999	0.0146167
679.078	0.0147501
679.156	0.0147479
679.234	0.0147997
679.312	0.0148778
679.390	0.0148447
679.468	0.0150271
679.546	0.0150663
679.624	0.0150124
679.703	0.0150023
679.781	0.0153890
679.859	0.0152783
679.937	0.0153712
680.015	0.0151921
680.093	0.0153397
680.171	0.0156059
680.249	0.0154350
680.328	0.0155842
680.406	0.0156120
680.484	0.0156625
680.562	0.0156586
680.640	0.0156817
680.718	0.0154291
680.796	0.0155154
680.874	0.0154875
680.953	0.0155511
681.031	0.0154973
681.109	0.0153220
681.187	0.0153290
681.265	0.0152887
681.343	0.0151816
681.421	0.0151240
681.499	0.0151775
681.578	0.0151020
681.656	0.0150375
681.734	0.0149683
681.812	0.0149398
681.890	0.0149809
681.968	0.0149129
682.046	0.0147563
682.124	0.0147348
682.203	0.0146739
682.281	0.0147573
682.359	0.0146755
682.437	0.0144472
682.515	0.0145195
682.593	0.0143664
682.671	0.0145149
682.749	0.0144402
682.828	0.0143412
682.906	0.0144297
682.984	0.0144215
683.062	0.0145863
683.140	0.0144728
683.218	0.0144103
683.296	0.0146878
683.374	0.0146113
683.453	0.0146813
683.531	0.0147578
683.609	0.0148624
683.687	0.0149711
683.765	0.0151470
683.843	0.0151448
683.921	0.0151608
683.999	0.0151658
684.078	0.0154084
684.156	0.0154057
684.234	0.0155637
684.312	0.0155362
684.390	0.0155672
684.468	0.0155865
684.546	0.0157231
684.624	0.0156210
684.703	0.0157055
684.781	0.0156105
684.859	0.0156069
684.937	0.0155135
685.015	0.0154537
685.093	0.0154567
685.171	0.0155047
685.249	0.0152997
685.328	0.0152741
685.406	0.0151744
685.484	0.0151735
685.562	0.0150797
685.640	0.0149410
685.718	0.0149673
685.796	0.0149240
685.874	0.0148803
685.953	0.0147285
686.031	0.0147779
686.109	0.0147397
686.187	0.0148402
686.265	0.0147908
686.343	0.0148442
686.421	0.0148378
686.499	0.0147885
686.578	0.0147883
686.656	0.0148404
686.734	0.0148078
686.812	0.0146850
686.890	0.0146902
686.968	0.0147446
687.046	0.0145684
687.124	0.0146465
687.203	0.0146231
687.281	0.0145617
687.359	0.0146647
687.437	0.0146965
687.515	0.0146780
687.593	0.0149955
687.671	0.0148771
687.749	0.0149944
687.828	0.0150812
687.906	0.0152026
687.984	0.0150619
688.062	0.0151311
688.140	0.0151949
688.218	0.0153185
688.296	0.0154044
688.374	0.0154906
688.453	0.0155197
688.531	0.0154910
688.609	0.0154989
688.687	0.0156142
688.765	0.0156663
688.843	0.0156119
688.921	0.0156387
688.999	0.0156967
689.078	0.0157817
689.156	0.0157462
689.234	0.0155555
689.312	0.0154834
689.390	0.0153973
689.468	0.0154117
689.546	0.0153090
689.624	0.0152301
689.703	0.0151509
689.781	0.0151772
689.859	0.0150636
689.937	0.0150894
690.015	0.0150279
690.093	0.0147345
690.171	0.0147989
690.249	0.0148428
690.328	0.0147758
690.406	0.0146133
690.484	0.0147987
690.562	0.0146206
690.640	0.0144723
690.718	0.0146523
690.796	0.0146105
690.874	0.0145923
690.953	0.0146844
691.031	0.0148021
691.109	0.0146364
691.187	0.0146578
691.265	0.0148164
691.343	0.0147708
691.421	0.0148578
691.499	0.0149766
691.578	0.0149957
691.656	0.0150505
691.734	0.0151678
691.812	0.0153172
691.890	0.0152748
691.968	0.0151446
692.046	0.0152169
692.124	0.0154108
692.203	0.0153998
692.281	0.0153965
692.359	0.0155720
692.437	0.0155029
692.515	0.0155342
692.593	0.0155691
692.671	0.0155899
692.749	0.0154759
692.828	0.0156317
692.906	0.0156471
692.984	0.0153538
693.062	0.0153739
693.140	0.0156120
693.218	0.0155759
693.296	0.0154427
693.374	0.0153710
693.453	0.0153400
693.531	0.0154229
693.609	0.0152175
693.687	0.0151075
693.765	0.0151697
693.843	0.0150345
693.921	0.0149921
693.999	0.0149728
694.078	0.0150557
694.156	0.0148962
694.234	0.0148692
694.312	0.0148158
694.390	0.0147152
694.468	0.0147967
694.546	0.0148411
694.624	0.0147365
694.703	0.0145822
694.781	0.0147066
694.859	0.0147715
694.937	0.0146944
695.015	0.0147746
695.093	0.0149941
695.171	0.0148235
695.249	0.0149440
695.328	0.0149287
695.406	0.0147698
695.484	0.0150037
695.562	0.0151519
695.640	0.0151791
695.718	0.0151450
695.796	0.0151759
695.874	0.0152518
695.953	0.0153637
696.031	0.0152557
696.109	0.0153025
696.187	0.0154984
696.265	0.0154322
696.343	0.0153371
696.421	0.0154051
696.499	0.0156258
696.578	0.0155634
696.656	0.0154241
696.734	0.0152856
696.812	0.0152724
696.890	0.0154083
696.968	0.0154190
697.046	0.0153326
697.124	0.0152895
697.203	0.0154736
697.281	0.0153251
697.359	0.0153241
697.437	0.0152705
697.515	0.0152348
697.593	0.0152232
697.671	0.0151717
697.749	0.0152657
697.828	0.0151682
697.906	0.0149702
697.984	0.0151018
698.062	0.0151051
698.140	0.0150341
698.218	0.0149834
698.296	0.0149863
698.374	0.0151715
698.453	0.0148769
698.531	0.0149372
698.609	0.0150334
698.687	0.0150912
698.765	0.0149235
698.843	0.0148801
698.921	0.0149169
698.999	0.0149908
699.078	0.0149187
699.156	0.0149532
699.234	0.0150429
699.312	0.0149342
699.390	0.0148886
699.468	0.0149815
699.546	0.0148248
699.624	0.0150597
699.703	0.0151151
699.781	0.0150459
699.859	0.0150522
699.937	0.0151479
700.015	0.0152441
700.093	0.0151426
700.171	0.0151093
700.249	0.0151420
700.328	0.0152955
700.406	0.0152931
700.484	0.0152920
700.562	0.0152711
700.640	0.0152612
700.718	0.0151979
700.796	0.0153683
700.874	0.0153504
700.953	0.0154618
701.031	0.0153837
701.109	0.0153506
701.187	0.0152441
701.265	0.0153962
701.343	0.0153562
701.421	0.0153082
701.499	0.0154243
701.578	0.0152385
701.656	0.0152336
701.734	0.0152895
701.812	0.0150906
701.890	0.0151691
701.968	0.0152351
702.046	0.0150978
702.124	0.0152699
702.203	0.0151520
702.281	0.0151514
702.359	0.0150595
702.437	0.0149092
702.515	0.0152026
702.593	0.0150426
702.671	0.0150401
702.749	0.0149915
702.828	0.0149413
702.906	0.0150500
702.984	0.0149509
703.062	0.0149214
703.140	0.0148872
703.218	0.0149267
703.296	0.0149802
703.374	0.0149749
703.453	0.0150677
703.531	0.0149249
703.609	0.0149051
703.687	0.0149466
703.765	0.0149825
703.843	0.0150516
703.921	0.0150311
703.999	0.0149485
704.078	0.0150290
704.156	0.0151704
704.234	0.0149343
704.312	0.0149856
704.390	0.0151848
704.468	0.0151696
704.546	0.0151565
704.624	0.0152896
704.703	0.0153118
704.781	0.0153307
704.859	0.0152107
704.937	0.0154179
705.015	0.0152740
705.093	0.0155179
705.171	0.0152708
705.249	0.0152499
705.328	0.0154454
705.406	0.0153860
705.484	0.0153252
705.562	0.0153088
705.640	0.0151778
705.718	0.0152362
705.796	0.0151852
705.874	0.0151671
705.953	0.0149743
706.031	0.0149229
706.109	0.0149918
706.187	0.0149487
706.265	0.0150906
706.343	0.0150281
706.421	0.0148727
706.499	0.0148885
706.578	0.0150164
706.656	0.0149972
706.734	0.0150122
706.812	0.0149477
706.890	0.0150121
706.968	0.0150880
707.046	0.0151546
707.124	0.0150243
707.203	0.0149763
707.281	0.0150737
707.359	0.0150194
707.437	0.0150649
707.515	0.0150233
707.593	0.0150838
707.671	0.0149165
707.749	0.0150547
707.828	0.0150248
707.906	0.0150451
707.984	0.0151057
708.062	0.0151394
708.140	0.0151789
708.218	0.0151520
708.296	0.0151545
708.374	0.0151105
708.453	0.0150070
708.531	0.0151579
708.609	0.0152744
708.687	0.0152754
708.765	0.0152577
708.843	0.0151400
708.921	0.0152204
708.999	0.0153656
709.078	0.0152854
709.156	0.0152123
709.234	0.0152020
709.312	0.0152538
709.390	0.0152290
709.468	0.0151883
709.546	0.0152277
709.624	0.0153490
709.703	0.0151684
709.781	0.0152390
709.859	0.0150579
709.937	0.0151794
710.015	0.0151818
710.093	0.0149737
710.171	0.0149892
710.249	0.0151689
710.328	0.0150644
710.406	0.0150240
710.484	0.0151676
710.562	0.0152338
710.640	0.0151411
710.718	0.0151501
710.796	0.0151567
710.874	0.0151470
710.953	0.0150472
711.031	0.0150555
711.109	0.0150662
711.187	0.0150219
711.265	0.0149986
711.343	0.0151472
711.421	0.0150896
711.499	0.0149824
711.578	0.0151156
711.656	0.0149918
711.734	0.0150615
711.812	0.0150352
711.890	0.0151163
711.968	0.0150039
712.046	0.0149733
712.124	0.0152148
712.203	0.0151469
712.281	0.0151242
712.359	0.0151179
712.437	0.0152872
712.515	0.0153059
712.593	0.0152068
712.671	0.0151856
712.749	0.0153518
712.828	0.0151733
712.906	0.0151820
712.984	0.0152424
713.062	0.0152447
713.140	0.0151555
713.218	0.0151627
713.296	0.0151917
713.374	0.0152572
713.453	0.0152238
713.531	0.0151724
713.609	0.0153292
713.687	0.0154176
713.765	0.0152665
713.843	0.0152393
713.921	0.0152336
713.999	0.0153207
714.078	0.0154327
714.156	0.0151447
714.234	0.0152518
714.312	0.0153267
714.390	0.0153555
714.468	0.0153746
714.546	0.0152357
714.624	0.0151592
714.703	0.0151952
714.781	0.0152298
714.859	0.0149992
714.937	0.0150439
715.015	0.0151572
715.093	0.0150182
715.171	0.0150879
715.249	0.0151596
715.328	0.0149028
715.406	0.0148952
715.484	0.0149532
715.562	0.0150873
715.640	0.0150129
715.718	0.0151411
715.796	0.0151051
715.874	0.0152087
715.953	0.0151859
716.031	0.0151125
716.109	0.0151567
716.187	0.0150984
716.265	0.0149901
716.343	0.0149487
716.421	0.0152407
716.499	0.0150610
716.578	0.0151693
716.656	0.0151614
716.734	0.0151997
716.812	0.0151825
716.890	0.0152554
716.968	0.0152592
717.046	0.0151849
717.124	0.0153133
717.203	0.0153583
717.281	0.0153830
717.359	0.0153731
717.437	0.0153589
717.515	0.0153441
717.593	0.0153406
717.671	0.0151930
717.749	0.0153107
717.828	0.0153807
717.906	0.0152386
717.984	0.0152494
718.062	0.0152077
718.140	0.0151397
718.218	0.0151113
718.296	0.0150047
718.374	0.0151406
718.453	0.0152433
718.531	0.0151646
718.609	0.0149818
718.687	0.0151482
718.765	0.0150784
718.843	0.0150128
718.921	0.0151375
718.999	0.0151134
719.078	0.0151204
719.156	0.0151485
719.234	0.0151357
719.312	0.0152487
719.390	0.0151573
719.468	0.0151382
719.546	0.0150692
719.624	0.0150323
719.703	0.0151204
719.781	0.0151272
719.859	0.0151682
719.937	0.0149386
720.015	0.0149645
720.093	0.0147788
720.171	0.0149739
720.249	0.0151077
720.328	0.0149654
720.406	0.0147571
720.484	0.0150189
720.562	0.0151150
720.640	0.0149496
720.718	0.0150865
720.796	0.0150908
720.874	0.0150684
720.953	0.0151815
721.031	0.0150701
721.109	0.0151204
721.187	0.0153051
721.265	0.0152167
721.343	0.0151941
721.421	0.0153133
721.499	0.0153454
721.578	0.0152893
721.656	0.0152926
721.734	0.0152745
721.812	0.0152610
721.890	0.0153366
721.968	0.0152638
722.046	0.0151789
722.124	0.0152953
722.203	0.0151507
722.281	0.0150874
722.359	0.0152622
722.437	0.0150432
722.515	0.0150812
722.593	0.0150155
722.671	0.0149708
722.749	0.0151356
722.828	0.0150963
722.906	0.0150630
722.984	0.0150430
723.062	0.0150959
723.140	0.0149962
723.218	0.0151748
723.296	0.0151691
723.374	0.0150146
723.453	0.0151347
723.531	0.0151068
723.609	0.0149722
723.687	0.0149772
723.765	0.0151524
723.843	0.0151532
723.921	0.0150463
723.999	0.0152037
724.078	0.0150174
724.156	0.0150140
724.234	0.0150486
724.312	0.0151122
724.390	0.0150423
724.468	0.0150492
724.546	0.0152169
724.624	0.0152006
724.703	0.0151676
724.781	0.0152003
724.859	0.0151043
724.937	0.0152299
725.015	0.0152262
725.093	0.0152326
725.171	0.0153374
725.249	0.0152276
725.328	0.0152011
725.406	0.0152541
725.484	0.0153167
725.562	0.0152277
725.640	0.0153439
725.718	0.0152055
725.796	0.0151902
725.874	0.0152904
725.953	0.0154023
726.031	0.0153096
726.109	0.0152363
726.187	0.0152633
726.265	0.0150719
726.343	0.0152306
726.421	0.0151796
726.499	0.0151573
726.578	0.0151743
726.656	0.0151002
726.734	0.0152106
726.812	0.0151769
726.890	0.0150019
726.968	0.0152266
727.046	0.0151385
727.124	0.0151701
727.203	0.0151977
727.281	0.0150589
727.359	0.0151355
727.437	0.0151102
727.515	0.0150233
727.593	0.0150212
727.671	0.0149946
727.749	0.0149679
727.828	0.0150575
727.906	0.0151459
727.984	0.0149446
728.062	0.0149369
728.140	0.0151509
728.218	0.0149599
728.296	0.0151112
728.374	0.0152036
728.453	0.0150723
728.531	0.0150977
728.609	0.0151144
728.687	0.0151605
728.765	0.0153480
728.843	0.0150697
728.921	0.0150690
728.999	0.0151016
729.078	0.0150131
729.156	0.0151752
729.234	0.0152036
729.312	0.0151155
729.390	0.0152131
729.468	0.0151464
729.546	0.0150158
729.624	0.0151090
729.703	0.0150584
729.781	0.0151342
729.859	0.0152202
729.937	0.0151612
730.015	0.0151436
730.093	0.0151157
730.171	0.0150017
730.249	0.0151182
730.328	0.0151646
730.406	0.0151677
730.484	0.0150529
730.562	0.0149777
730.640	0.0150414
730.718	0.0152379
730.796	0.0151900
730.874	0.0150803
730.953	0.0151840
731.031	0.0151288
731.109	0.0151972
731.187	0.0150932
731.265	0.0149461
731.343	0.0150956
731.421	0.0150988
731.499	0.0152232
731.578	0.0151430
731.656	0.0149537
731.734	0.0151579
731.812	0.0151849
731.890	0.0149772
731.968	0.0149639
732.046	0.0151103
732.124	0.0150264
732.203	0.0150045
732.281	0.0151016
732.359	0.0150876
732.437	0.0149995
732.515	0.0151506
732.593	0.0151032
732.671	0.0150990
732.749	0.0151759
732.828	0.0150225
732.906	0.0149657
732.984	0.0150585
733.062	0.0151279
733.140	0.0150035
733.218	0.0151788
733.296	0.0150740
733.374	0.0150742
733.453	0.0151819
733.531	0.0149570
733.609	0.0151334
733.687	0.0151482
733.765	0.0150840
733.843	0.0150249
733.921	0.0150856
733.999	0.0151797
734.078	0.0150378
734.156	0.0149390
734.234	0.0151115
734.312	0.0151110
734.390	0.0149829
734.468	0.0149901
734.546	0.0150650
734.624	0.0150121
734.703	0.0150856
734.781	0.0150681
734.859	0.0151220
734.937	0.0151315
735.015	0.0150204
735.093	0.0150984
735.171	0.0152158
735.249	0.0151575
735.328	0.0150780
735.406	0.0151056
735.484	0.0151146
735.562	0.0150918
735.640	0.0149803
735.718	0.0152145
735.796	0.0151884
735.874	0.0151950
735.953	0.0152727
736.031	0.0151080
736.109	0.0151434
736.187	0.0152557
736.265	0.0151096
736.343	0.0151964
736.421	0.0152999
736.499	0.0152039
736.578	0.0153163
736.656	0.0151726
736.734	0.0151712
736.812	0.0151255
736.890	0.0151931
736.968	0.0152686
737.046	0.0150983
737.124	0.0150803
737.203	0.0151689
737.281	0.0151172
737.359	0.0150832
737.437	0.0150896
737.515	0.0151096
737.593	0.0150593
737.671	0.0151895
737.749	0.0151199
737.828	0.0150838
737.906	0.0149744
737.984	0.0148937
738.062	0.0149837
738.140	0.0149991
738.218	0.0150124
738.296	0.0150159
738.374	0.0149993
738.453	0.0150629
738.531	0.0150208
738.609	0.0150698
738.687	0.0149355
738.765	0.0151187
738.843	0.0149770
738.921	0.0148978
738.999	0.0149398
739.078	0.0150042
739.156	0.0151514
739.234	0.0151032
739.312	0.0150534
739.390	0.0149863
739.468	0.0151273
739.546	0.0151335
739.624	0.0151385
739.703	0.0151891
739.781	0.0151054
739.859	0.0152198
739.937	0.0151395
740.015	0.0151208
740.093	0.0151305
740.171	0.0150431
740.249	0.0151363
740.328	0.0152039
740.406	0.0150317
740.484	0.0150387
740.562	0.0151077
740.640	0.0150693
740.718	0.0152042
740.796	0.0152161
740.874	0.0152567
740.953	0.0152328
741.031	0.0151374
741.109	0.0151998
741.187	0.0151765
741.265	0.0151322
741.343	0.0150161
741.421	0.0150101
741.499	0.0151584
741.578	0.0150993
741.656	0.0151223
741.734	0.0151094
741.812	0.0150768
741.890	0.0150461
741.968	0.0149442
742.046	0.0150314
742.124	0.0150932
742.203	0.0149339
742.281	0.0150613
742.359	0.0149423
742.437	0.0150671
742.515	0.0149342
742.593	0.0149636
742.671	0.0147823
742.749	0.0149854
742.828	0.0149211
742.906	0.0149389
742.984	0.0149248
743.062	0.0149144
743.140	0.0149311
743.218	0.0149261
743.296	0.0149652
743.374	0.0148914
743.453	0.0149244
743.531	0.0149248
743.609	0.0149973
743.687	0.0149809
743.765	0.0150742
743.843	0.0150346
743.921	0.0151177
743.999	0.0151992
744.078	0.0151234
744.156	0.0149699
744.234	0.0151378
744.312	0.0151317
744.390	0.0151356
744.468	0.0152052
744.546	0.0151752
744.624	0.0152197
744.703	0.0151056
744.781	0.0150877
744.859	0.0151707
744.937	0.0150915
745.015	0.0150343
745.093	0.0150298
745.171	0.0151134
745.249	0.0151119
745.328	0.0150752
745.406	0.0151058
745.484	0.0149770
745.562	0.0149360
745.640	0.0148566
745.718	0.0148882
745.796	0.0149068
745.874	0.0147574
745.953	0.0148735
746.031	0.0147875
746.109	0.0148430
746.187	0.0149125
746.265	0.0147677
746.343	0.0148301
746.421	0.0148231
746.499	0.0147976
746.578	0.0149805
746.656	0.0148383
746.734	0.0147983
746.812	0.0149203
746.890	0.0149822
746.968	0.0150215
747.046	0.0150693
747.124	0.0150436
747.203	0.0151202
747.281	0.0151007
747.359	0.0150705
747.437	0.0151473
747.515	0.0151174
747.593	0.0152948
747.671	0.0151722
747.749	0.0151581
747.828	0.0151137
747.906	0.0151321
747.984	0.0153100
748.062	0.0152168
748.140	0.0152025
748.218	0.0151372
748.296	0.0152601
748.374	0.0151723
748.453	0.0151763
748.531	0.0152776
748.609	0.0152214
748.687	0.0151183
748.765	0.0150625
748.843	0.0151469
748.921	0.0151424
748.999	0.0150867
749.078	0.0150723
749.156	0.0152511
749.234	0.0151569
749.312	0.0151067
749.390	0.0150465
749.468	0.0150742
749.546	0.0149014
749.624	0.0149611
749.703	0.0151256
749.781	0.0149944
749.859	0.0149173
749.937	0.0150774
750.015	0.0150112
750.093	0.0148764
750.171	0.0148377
750.249	0.0148865
750.328	0.0148068
750.406	0.0149089
750.484	0.0147976
750.562	0.0148277
750.640	0.0149005
750.718	0.0149557
750.796	0.0149107
750.874	0.0148597
750.953	0.0148921
751.031	0.0148644
751.109	0.0148878
751.187	0.0149686
751.265	0.0149667
751.343	0.0149297
751.421	0.0149020
751.499	0.0150300
751.578	0.0151279
751.656	0.0150175
751.734	0.0150795
751.812	0.0150854
751.890	0.0150790
751.968	0.0150685
752.046	0.0150758
752.124	0.0151795
752.203	0.0151789
752.281	0.0152671
752.359	0.0151077
752.437	0.0152847
752.515	0.0153265
752.593	0.0151226
752.671	0.0151360
752.749	0.0153796
752.828	0.0152940
752.906	0.0151798
752.984	0.0151413
753.062	0.0151531
753.140	0.0151611
753.218	0.0152132
753.296	0.0152504
753.374	0.0151091
753.453	0.0149583
753.531	0.0151508
753.609	0.0152885
753.687	0.0151364
753.765	0.0150107
753.843	0.0151185
753.921	0.0150349
753.999	0.0150429
754.078	0.0151308
754.156	0.0150121
754.234	0.0149653
754.312	0.0150027
754.390	0.0149625
754.468	0.0149787
754.546	0.0148392
754.624	0.0148862
754.703	0.0149262
754.781	0.0148787
754.859	0.0149406
754.937	0.0149133
755.015	0.0148563
755.093	0.0149229
755.171	0.0149290
755.249	0.0149174
755.328	0.0148163
755.406	0.0149994
755.484	0.0150463
755.562	0.0150893
755.640	0.0151791
755.718	0.0150566
755.796	0.0149796
755.874	0.0150890
755.953	0.0149963
756.031	0.0150886
756.109	0.0150455
756.187	0.0151813
756.265	0.0152256
756.343	0.0151759
756.421	0.0150954
756.499	0.0150992
756.578	0.0150240
756.656	0.0152000
756.734	0.0152557
756.812	0.0149935
756.890	0.0151429
756.968	0.0151940
757.046	0.0152038
757.124	0.0150581
757.203	0.0151941
757.281	0.0151801
757.359	0.0151790
757.437	0.0152018
757.515	0.0153180
757.593	0.0151923
757.671	0.0151604
757.749	0.0151818
757.828	0.0152492
757.906	0.0150520
757.984	0.0151240
758.062	0.0150851
758.140	0.0149739
758.218	0.0149661
758.296	0.0147252
758.374	0.0150365
758.453	0.0150542
758.531	0.0148343
758.609	0.0149548
758.687	0.0148945
758.765	0.0147941
758.843	0.0150040
758.921	0.0149139
758.999	0.0149512
759.078	0.0148736
759.156	0.0149046
759.234	0.0149815
759.312	0.0150474
759.390	0.0150660
759.468	0.0150109
759.546	0.0151629
759.624	0.0151247
759.703	0.0150599
759.781	0.0150359
759.859	0.0150065
759.937	0.0150043
760.015	0.0150665
760.093	0.0149591
760.171	0.0149973
760.249	0.0148940
760.328	0.0149395
760.406	0.0149581
760.484	0.0149802
760.562	0.0150506
760.640	0.0149829
760.718	0.0150527
760.796	0.0151512
760.874	0.0151250
760.953	0.0153056
761.031	0.0153032
761.109	0.0151643
761.187	0.0150865
761.265	0.0151205
761.343	0.0150999
761.421	0.0151265
761.499	0.0151689
761.578	0.0150685
761.656	0.0151542
761.734	0.0151380
761.812	0.0149786
761.890	0.0150686
761.968	0.0149170
762.046	0.0149413
762.124	0.0149114
762.203	0.0148389
762.281	0.0149982
762.359	0.0147300
762.437	0.0149159
762.515	0.0149028
762.593	0.0148795
762.671	0.0149706
762.749	0.0149372
762.828	0.0150892
762.906	0.0150404
762.984	0.0151660
763.062	0.0151236
763.140	0.0150568
763.218	0.0151366
763.296	0.0150587
763.374	0.0150522
763.453	0.0150005
763.531	0.0150216
763.609	0.0149705
763.687	0.0149861
763.765	0.0149702
763.843	0.0148737
763.921	0.0149192
763.999	0.0149653
764.078	0.0149467
764.156	0.0148304
764.234	0.0149535
764.312	0.0150145
764.390	0.0150113
764.468	0.0150287
764.546	0.0151165
764.624	0.0150375
764.703	0.0150683
764.781	0.0150896
764.859	0.0152020
764.937	0.0152411
765.015	0.0152907
765.093	0.0152511
765.171	0.0150324
765.249	0.0151489
765.328	0.0152148
765.406	0.0151632
765.484	0.0151007
765.562	0.0150848
765.640	0.0151211
765.718	0.0150338
765.796	0.0149286
765.874	0.0149831
765.953	0.0149738
766.031	0.0148791
766.109	0.0150073
766.187	0.0148833
766.265	0.0149810
766.343	0.0149928
766.421	0.0148671
766.499	0.0150864
766.578	0.0151737
766.656	0.0150329
766.734	0.0149896
766.812	0.0151521
766.890	0.0151105
766.968	0.0151244
767.046	0.0149357
767.124	0.0150438
767.203	0.0151415
767.281	0.0149549
767.359	0.0149638
767.437	0.0149297
767.515	0.0149879
767.593	0.0150010
767.671	0.0148763
767.749	0.0149548
767.828	0.0150674
767.906	0.0150781
767.984	0.0148348
768.062	0.0149675
768.140	0.0150912
768.218	0.0150718
768.296	0.0150967
768.374	0.0149954
768.453	0.0150594
768.531	0.0149125
768.609	0.0151359
768.687	0.0153003
768.765	0.0152555
768.843	0.0153471
768.921	0.0152751
768.999	0.0153156
769.078	0.0152028
769.156	0.0151069
769.234	0.0151784
769.312	0.0152148
769.390	0.0151588
769.468	0.0151155
769.546	0.0152867
769.624	0.0150582
769.703	0.0151108
769.781	0.0151460
769.859	0.0151615
769.937	0.0151138
770.015	0.0150110
770.093	0.0151015
770.171	0.0150153
770.249	0.0149503
770.328	0.0151019
770.406	0.0150524
770.484	0.0150890
770.562	0.0150291
770.640	0.0151126
770.718	0.0151140
770.796	0.0150865
770.874	0.0151265
770.953	0.0150384
771.031	0.0149882
771.109	0.0150077
771.187	0.0149006
771.265	0.0149042
771.343	0.0149214
771.421	0.0148952
771.499	0.0148225
771.578	0.0149730
771.656	0.0148870
771.734	0.0148483
771.812	0.0149442
771.890	0.0148186
771.968	0.0149474
772.046	0.0150627
772.124	0.0150610
772.203	0.0150783
772.281	0.0151118
772.359	0.0150944
772.437	0.0151210
772.515	0.0152219
772.593	0.0151385
772.671	0.0152096
772.749	0.0151363
772.828	0.0152232
772.906	0.0150957
772.984	0.0151707
773.062	0.0151446
773.140	0.0151340
773.218	0.0150038
773.296	0.0151858
773.374	0.0151073
773.453	0.0150938
773.531	0.0150414
773.609	0.0151785
773.687	0.0151833
773.765	0.0150908
773.843	0.0151184
773.921	0.0152020
773.999	0.0151919
774.078	0.0151645
774.156	0.0151325
774.234	0.0151033
774.312	0.0150502
774.390	0.0151624
774.468	0.0151489
774.546	0.0151239
774.624	0.0150559
774.703	0.0151144
774.781	0.0149992
774.859	0.0150032
774.937	0.0149849
775.015	0.0149323
775.093	0.0149017
775.171	0.0149760
775.249	0.0150265
775.328	0.0149992
775.406	0.0150542
775.484	0.0151397
775.562	0.0150700
775.640	0.0149940
775.718	0.0151385
775.796	0.0150684
775.874	0.0151883
775.953	0.0151892
776.031	0.0150856
776.109	0.0152703
776.187	0.0151445
776.265	0.0152126
776.343	0.0152033
776.421	0.0150722
776.499	0.0150985
776.578	0.0151413
776.656	0.0151664
776.734	0.0152551
776.812	0.0150819
776.890	0.0150852
776.968	0.0153681
777.046	0.0152639
777.124	0.0151187
777.203	0.0151129
777.281	0.0150368
777.359	0.0150835
777.437	0.0151910
777.515	0.0153239
777.593	0.0152522
777.671	0.0151842
777.749	0.0151161
777.828	0.0151838
777.906	0.0151514
777.984	0.0151668
778.062	0.0151498
778.140	0.0152135
778.218	0.0150729
778.296	0.0151957
778.374	0.0152889
778.453	0.0150786
778.531	0.0150879
778.609	0.0150382
778.687	0.0150769
778.765	0.0150833
778.843	0.0150813
778.921	0.0150954
778.999	0.0150461
779.078	0.0149458
779.156	0.0149673
779.234	0.0149353
779.312	0.0150012
779.390	0.0149809
779.468	0.0149968
779.546	0.0150023
779.624	0.0149302
779.703	0.0150906
779.781	0.0150470
779.859	0.0149644
779.937	0.0149893
780.015	0.0152575
780.093	0.0150921
780.171	0.0151997
780.249	0.0151149
780.328	0.0150563
780.406	0.0150372
780.484	0.0151572
780.562	0.0151419
780.640	0.0150527
780.718	0.0149622
780.796	0.0150148
780.874	0.0149786
780.953	0.0151260
781.031	0.0150387
781.109	0.0150843
781.187	0.0151884
781.265	0.0150381
781.343	0.0149776
781.421	0.0150160
781.499	0.0151281
781.578	0.0151517
781.656	0.0150727
781.734	0.0150900
781.812	0.0151333
781.890	0.0151535
781.968	0.0151736
782.046	0.0151424
782.124	0.0150776
782.203	0.0150301
782.281	0.0150841
782.359	0.0150385
782.437	0.0149888
782.515	0.0149658
782.593	0.0149074
782.671	0.0148490
782.749	0.0148535
782.828	0.0149940
782.906	0.0147671
782.984	0.0149580
783.062	0.0149799
783.140	0.0149438
783.218	0.0149788
783.296	0.0149621
783.374	0.0149428
783.453	0.0149835
783.531	0.0149281
783.609	0.0151812
783.687	0.0149991
783.765	0.0150574
783.843	0.0151338
783.921	0.0150897
783.999	0.0150651
784.078	0.0150175
784.156	0.0149873
784.234	0.0149583
784.312	0.0150500
784.390	0.0150062
784.468	0.0150127
784.546	0.0148534
784.624	0.0149598
784.703	0.0150444
784.781	0.0150985
784.859	0.0149502
784.937	0.0150454
785.015	0.0152034
785.093	0.0151507
785.171	0.0150681
785.249	0.0152146
785.328	0.0153467
785.406	0.0153220
785.484	0.0151476
785.562	0.0151860
785.640	0.0154008
785.718	0.0152162
785.796	0.0152236
785.874	0.0152387
785.953	0.0150120
786.031	0.0150874
786.109	0.0150620
786.187	0.0150085
786.265	0.0148946
786.343	0.0149072
786.421	0.0149595
786.499	0.0150491
786.578	0.0151327
786.656	0.0149297
786.734	0.0150372
786.812	0.0150219
786.890	0.0150944
786.968	0.0150793
787.046	0.0152071
787.124	0.0151152
787.203	0.0149413
787.281	0.0150277
787.359	0.0150007
787.437	0.0150264
787.515	0.0148666
787.593	0.0149243
787.671	0.0149721
787.749	0.0150162
787.828	0.0149384
787.906	0.0147621
787.984	0.0148040
788.062	0.0149009
788.140	0.0148518
788.218	0.0149653
788.296	0.0150508
788.374	0.0150524
788.453	0.0149505
788.531	0.0150562
788.609	0.0149605
788.687	0.0152234
788.765	0.0152183
788.843	0.0152774
788.921	0.0152701
788.999	0.0152081
789.078	0.0151740
789.156	0.0152635
789.234	0.0152549
789.312	0.0151617
789.390	0.0151462
789.468	0.0150735
789.546	0.0149881
789.624	0.0149585
789.703	0.0150832
789.781	0.0151257
789.859	0.0149472
789.937	0.0151066
790.015	0.0152026
790.093	0.0151122
790.171	0.0151077
790.249	0.0152266
790.328	0.0152271
790.406	0.0152561
790.484	0.0152535
790.562	0.0152518
790.640	0.0152013
790.718	0.0151322
790.796	0.0150033
790.874	0.0150611
790.953	0.0149815
791.031	0.0151299
791.109	0.0150327
791.187	0.0148720
791.265	0.0149632
791.343	0.0150301
791.421	0.0148930
791.499	0.0148315
791.578	0.0149259
791.656	0.0148872
791.734	0.0150101
791.812	0.0149821
791.890	0.0150053
791.968	0.0151345
792.046	0.0150101
792.124	0.0152520
792.203	0.0152066
792.281	0.0150386
792.359	0.0150408
792.437	0.0151550
792.515	0.0151723
792.593	0.0151900
792.671	0.0151513
792.749	0.0150878
792.828	0.0150026
792.906	0.0151160
792.984	0.0150249
793.062	0.0151281
793.140	0.0150259
793.218	0.0151982
793.296	0.0151920
793.374	0.0151620
793.453	0.0153339
793.531	0.0151996
793.609	0.0153365
793.687	0.0152988
793.765	0.0150719
793.843	0.0152123
793.921	0.0152288
793.999	0.0150385
794.078	0.0151299
794.156	0.0151241
794.234	0.0151080
794.312	0.0149364
794.390	0.0151389
794.468	0.0150256
794.546	0.0150051
794.624	0.0150110
794.703	0.0152151
794.781	0.0151750
794.859	0.0151163
794.937	0.0153044
795.015	0.0151669
795.093	0.0151751
795.171	0.0152633
795.249	0.0151940
795.328	0.0152032
795.406	0.0152964
795.484	0.0152154
795.562	0.0152335
795.640	0.0150060
795.718	0.0150462
795.796	0.0149969
795.874	0.0150232
795.953	0.0149374
796.031	0.0149962
796.109	0.0148781
796.187	0.0148540
796.265	0.0148260
796.343	0.0149271
796.421	0.0151070
796.499	0.0151467
796.578	0.0150964
796.656	0.0151515
796.734	0.0151764
796.812	0.0153048
796.890	0.0152055
796.968	0.0151617
797.046	0.0150913
797.124	0.0153358
797.203	0.0152847
797.281	0.0151394
797.359	0.0151373
797.437	0.0152068
797.515	0.0151627
797.593	0.0150948
797.671	0.0150543
797.749	0.0150854
797.828	0.0152415
797.906	0.0151603
797.984	0.0151671
798.062	0.0149110
798.140	0.0150800
798.218	0.0151682
798.296	0.0150069
798.374	0.0152134
798.453	0.0152364
798.531	0.0151382
798.609	0.0152402
798.687	0.0152203
798.765	0.0151647
798.843	0.0153302
798.921	0.0151827
798.999	0.0151879
799.078	0.0151504
799.156	0.0151611
799.234	0.0150702
799.312	0.0150394
799.390	0.0150230
799.468	0.0151633
799.546	0.0151471
799.624	0.0149448
799.703	0.0150372
799.781	0.0149556
799.859	0.0149545
799.937	0.0150893
800.015	0.0149018
800.093	0.0150519
800.171	0.0151764
800.249	0.0150257
800.328	0.0150455
800.406	0.0150034
800.484	0.0151503
800.562	0.0151450
800.640	0.0152037
800.718	0.0152332
800.796	0.0152712
800.874	0.0151651
800.953	0.0151302
801.031	0.0149905
801.109	0.0151572
801.187	0.0151720
801.265	0.0151019
801.343	0.0150177
801.421	0.0150423
801.499	0.0151197
801.578	0.0150333
801.656	0.0151537
801.734	0.0151660
801.812	0.0152287
801.890	0.0152008
801.968	0.0152951
802.046	0.0152554
802.124	0.0152132
802.203	0.0152549
802.281	0.0151698
802.359	0.0150986
802.437	0.0151876
802.515	0.0150714
802.593	0.0150536
802.671	0.0150838
802.749	0.0150889
802.828	0.0151340
802.906	0.0151928
802.984	0.0151676
803.062	0.0151234
803.140	0.0150228
803.218	0.0151295
803.296	0.0151455
803.374	0.0149619
803.453	0.0150749
803.531	0.0151019
803.609	0.0149136
803.687	0.0150174
803.765	0.0149278
803.843	0.0150906
803.921	0.0150858
803.999	0.0150757
804.078	0.0150836
804.156	0.0150922
804.234	0.0151113
804.312	0.0151387
804.390	0.0151404
804.468	0.0150850
804.546	0.0151166
804.624	0.0150683
804.703	0.0150612
804.781	0.0151496
804.859	0.0150413
804.937	0.0152201
805.015	0.0151154
805.093	0.0150114
805.171	0.0151248
805.249	0.0149792
805.328	0.0150745
805.406	0.0150113
805.484	0.0150804
805.562	0.0150976
805.640	0.0151231
805.718	0.0151881
805.796	0.0150805
805.874	0.0151577
805.953	0.0151828
806.031	0.0149940
806.109	0.0151199
806.187	0.0152137
806.265	0.0151906
806.343	0.0151100
806.421	0.0152323
806.499	0.0151467
806.578	0.0151780
806.656	0.0151898
806.734	0.0152361
806.812	0.0151248
806.890	0.0150860
806.968	0.0151828
807.046	0.0153402
807.124	0.0151360
807.203	0.0151398
807.281	0.0152544
807.359	0.0151931
807.437	0.0151826
807.515	0.0151692
807.593	0.0153724
807.671	0.0152653
807.749	0.0151246
807.828	0.0151569
807.906	0.0152334
807.984	0.0152174
808.062	0.0151488
808.140	0.0151482
808.218	0.0152538
808.296	0.0150547
808.374	0.0150461
808.453	0.0150841
808.531	0.0152312
808.609	0.0150658
808.687	0.0150545
808.765	0.0151718
808.843	0.0153137
808.921	0.0150004
808.999	0.0151797
809.078	0.0151021
809.156	0.0151524
809.234	0.0151318
809.312	0.0150927
809.390	0.0151283
809.468	0.0151426
809.546	0.0151237
809.624	0.0152261
809.703	0.0152698
809.781	0.0151945
809.859	0.0152171
809.937	0.0151464
810.015	0.0152609
810.093	0.0152762
810.171	0.0151802
810.249	0.0152322
810.328	0.0151743
810.406	0.0151833
810.484	0.0151294
810.562	0.0150368
810.640	0.0151434
810.718	0.0153181
810.796	0.0151043
810.874	0.0152164
810.953	0.0150842
811.031	0.0150706
811.109	0.0152039
811.187	0.0152293
811.265	0.0151129
811.343	0.0151318
811.421	0.0152755
811.499	0.0152214
811.578	0.0151803
811.656	0.0151138
811.734	0.0151630
811.812	0.0151783
811.890	0.0150508
811.968	0.0150156
812.046	0.0149782
812.124	0.0150187
812.203	0.0150140
812.281	0.0149323
812.359	0.0149799
812.437	0.0151453
812.515	0.0149761
812.593	0.0149443
812.671	0.0149393
812.749	0.0149747
812.828	0.0150165
812.906	0.0150274
812.984	0.0150359
813.062	0.0149284
813.140	0.0150538
813.218	0.0150586
813.296	0.0148210
813.374	0.0148450
813.453	0.0149918
813.531	0.0149897
813.609	0.0149093
813.687	0.0151882
813.765	0.0151254
813.843	0.0151318
813.921	0.0150521
813.999	0.0149583
814.078	0.0150387
814.156	0.0150574
814.234	0.0152106
814.312	0.0153285
814.390	0.0151332
814.468	0.0151540
814.546	0.0150957
814.624	0.0150543
814.703	0.0150383
814.781	0.0151101
814.859	0.0150488
814.937	0.0150157
815.015	0.0149651
815.093	0.0152455
815.171	0.0150408
815.249	0.0150092
815.328	0.0150935
815.406	0.0151205
815.484	0.0151034
815.562	0.0150561
815.640	0.0151293
815.718	0.0151031
815.796	0.0150447
815.874	0.0150751
815.953	0.0150048
816.031	0.0150873
816.109	0.0149892
816.187	0.0150746
816.265	0.0149550
816.343	0.0151073
816.421	0.0149720
816.499	0.0149767
816.578	0.0150546
816.656	0.0151561
816.734	0.0150274
816.812	0.0149822
816.890	0.0148980
816.968	0.0149695
817.046	0.0150747
817.124	0.0149144
817.203	0.0149512
817.281	0.0149461
817.359	0.0148601
817.437	0.0150501
817.515	0.0151380
817.593	0.0150819
817.671	0.0151618
817.749	0.0150845
817.828	0.0151402
817.906	0.0150243
817.984	0.0150746
818.062	0.0150856
818.140	0.0151474
818.218	0.0150691
818.296	0.0152298
818.374	0.0150766
818.453	0.0151972
818.531	0.0151617
818.609	0.0150461
818.687	0.0150060
818.765	0.0151539
818.843	0.0152272
818.921	0.0152064
818.999	0.0151396
819.078	0.0151289
819.156	0.0152692
819.234	0.0151641
819.312	0.0149606
819.390	0.0152079
819.468	0.0151855
819.546	0.0152135
819.624	0.0149714
819.703	0.0151112
819.781	0.0152608
819.859	0.0151559
819.937	0.0149900
820.015	0.0150755
820.093	0.0150763
820.171	0.0149957
820.249	0.0151225
820.328	0.0149819
820.406	0.0151047
820.484	0.0151662
820.562	0.0150456
820.640	0.0150154
820.718	0.0151556
820.796	0.0151113
820.874	0.0150925
820.953	0.0150069
821.031	0.0150879
821.109	0.0151085
821.187	0.0150963
821.265	0.0149309
821.343	0.0150983
821.421	0.0150337
821.499	0.0149625
821.578	0.0150831
821.656	0.0149749
821.734	0.0149616
821.812	0.0150639
821.890	0.0150958
821.968	0.0149674
822.046	0.0149625
822.124	0.0148765
822.203	0.0149158
822.281	0.0150693
822.359	0.0151765
822.437	0.0149567
822.515	0.0150536
822.593	0.0151240
822.671	0.0150936
822.749	0.0151983
822.828	0.0151227
822.906	0.0151323
822.984	0.0153194
823.062	0.0151470
823.140	0.0153366
823.218	0.0153040
823.296	0.0151355
823.374	0.0151249
823.453	0.0152838
823.531	0.0152124
823.609	0.0151006
823.687	0.0151093
823.765	0.0152472
823.843	0.0150393
823.921	0.0150764
823.999	0.0151908
824.078	0.0150827
824.156	0.0149010
824.234	0.0151672
824.312	0.0151316
824.390	0.0149670
824.468	0.0151450
824.546	0.0151992
824.624	0.0150951
824.703	0.0150639
824.781	0.0150715
824.859	0.0150691
824.937	0.0151016
825.015	0.0149867
825.093	0.0150260
825.171	0.0151053
825.249	0.0151571
825.328	0.0150963
825.406	0.0150204
825.484	0.0151139
825.562	0.0150012
825.640	0.0150243
825.718	0.0151411
825.796	0.0150641
825.874	0.0151431
825.953	0.0152065
826.031	0.0151322
826.109	0.0151595
826.187	0.0152116
826.265	0.0151469
826.343	0.0150060
826.421	0.0151458
826.499	0.0151297
826.578	0.0151682
826.656	0.0152794
826.734	0.0151962
826.812	0.0151160
826.890	0.0152196
826.968	0.0152066
827.046	0.0150912
827.124	0.0152097
827.203	0.0151252
827.281	0.0152434
827.359	0.0150964
827.437	0.0151113
827.515	0.0151900
827.593	0.0152647
827.671	0.0151473
827.749	0.0150671
827.828	0.0150811
827.906	0.0151344
827.984	0.0151598
828.062	0.0151308
828.140	0.0151010
828.218	0.0151783
828.296	0.0152062
828.374	0.0151589
828.453	0.0151423
828.531	0.0150671
828.609	0.0150877
828.687	0.0152066
828.765	0.0151225
828.843	0.0152513
828.921	0.0151397
828.999	0.0152119
829.078	0.0151901
829.156	0.0150301
829.234	0.0151280
829.312	0.0152251
829.390	0.0151560
829.468	0.0150715
829.546	0.0150629
829.624	0.0150523
829.703	0.0150625
829.781	0.0150394
829.859	0.0150047
829.937	0.0150637
830.015	0.0151608
830.093	0.0150500
830.171	0.0150628
830.249	0.0151315
830.328	0.0150822
830.406	0.0149228
830.484	0.0150623
830.562	0.0151827
830.640	0.0151176
830.718	0.0151194
830.796	0.0150894
830.874	0.0151934
830.953	0.0151616
831.031	0.0151191
831.109	0.0150648
831.187	0.0150675
831.265	0.0150788
831.343	0.0151813
831.421	0.0152058
831.499	0.0150244
831.578	0.0151687
831.656	0.0150832
831.734	0.0151962
831.812	0.0151264
831.890	0.0150942
831.968	0.0150985
832.046	0.0151984
832.124	0.0150845
832.203	0.0150179
832.281	0.0150208
832.359	0.0150043
832.437	0.0151168
832.515	0.0150790
832.593	0.0150434
832.671	0.0150267
832.749	0.0150496
832.828	0.0150718
832.906	0.0152393
832.984	0.0149875
833.062	0.0148724
833.140	0.0150752
833.218	0.0149364
833.296	0.0150703
833.374	0.0150027
833.453	0.0150816
833.531	0.0149929
833.609	0.0149017
833.687	0.0150527
833.765	0.0150473
833.843	0.0150193
833.921	0.0149653
833.999	0.0150748
834.078	0.0150215
834.156	0.0150988
834.234	0.0151057
834.312	0.0151061
834.390	0.0151361
834.468	0.0150379
834.546	0.0151155
834.624	0.0152496
834.703	0.0151697
834.781	0.0150989
834.859	0.0150136
834.937	0.0151767
835.015	0.0152651
835.093	0.0152882
835.171	0.0151494
835.249	0.0151419
835.328	0.0151939
835.406	0.0150819
835.484	0.0151517
835.562	0.0151611
835.640	0.0150328
835.718	0.0149579
835.796	0.0150306
835.874	0.0149851
835.953	0.0150353
836.031	0.0149999
836.109	0.0149133
836.187	0.0150141
836.265	0.0150683
836.343	0.0148817
836.421	0.0149679
836.499	0.0149419
836.578	0.0151234
836.656	0.0150533
836.734	0.0150282
836.812	0.0149374
836.890	0.0149660
836.968	0.0149008
837.046	0.0150520
837.124	0.0150941
837.203	0.0150811
837.281	0.0150306
837.359	0.0151130
837.437	0.0149642
837.515	0.0151385
837.593	0.0151105
837.671	0.0150546
837.749	0.0151173
837.828	0.0151431
837.906	0.0150996
837.984	0.0150995
838.062	0.0150681
838.140	0.0150631
838.218	0.0151358
838.296	0.0151879
838.374	0.0150100
838.453	0.0152254
838.531	0.0152828
838.609	0.0152402
838.687	0.0151710
838.765	0.0152450
838.843	0.0151752
838.921	0.0151394
838.999	0.0151344
839.078	0.0151530
839.156	0.0150156
839.234	0.0150937
839.312	0.0152540
839.390	0.0151826
839.468	0.0151006
839.546	0.0151272
839.624	0.0151450
839.703	0.0152016
839.781	0.0152226
839.859	0.0152698
839.937	0.0152284
840.015	0.0152746
840.093	0.0150426
840.171	0.0151303
840.249	0.0151300
840.328	0.0151270
840.406	0.0150547
840.484	0.0150868
840.562	0.0150473
840.640	0.0150903
840.718	0.0149453
840.796	0.0150865
840.874	0.0150426
840.953	0.0149838
841.031	0.0149345
841.109	0.0150348
841.187	0.0151157
841.265	0.0149911
841.343	0.0150968
841.421	0.0151129
841.499	0.0151144
841.578	0.0150368
841.656	0.0150539
841.734	0.0150590
841.812	0.0149230
841.890	0.0150933
841.968	0.0151376
842.046	0.0149424
842.124	0.0148601
842.203	0.0151215
842.281	0.0150760
842.359	0.0149860
842.437	0.0148853
842.515	0.0150157
842.593	0.0151289
842.671	0.0150014
842.749	0.0149783
842.828	0.0148203
842.906	0.0150343
842.984	0.0150440
843.062	0.0150316
843.140	0.0150283
843.218	0.0149899
843.296	0.0150446
843.374	0.0151499
843.453	0.0150815
843.531	0.0149988
843.609	0.0149847
843.687	0.0151219
843.765	0.0151758
843.843	0.0151374
843.921	0.0150309
843.999	0.0151037
844.078	0.0149632
844.156	0.0150257
844.234	0.0150801
844.312	0.0150774
844.390	0.0149174
844.468	0.0150815
844.546	0.0151205
844.624	0.0149307
844.703	0.0149973
844.781	0.0150593
844.859	0.0150211
844.937	0.0149666
845.015	0.0150616
845.093	0.0151204
845.171	0.0150423
845.249	0.0149107
845.328	0.0149020
845.406	0.0149807
845.484	0.0149654
845.562	0.0150214
845.640	0.0149358
845.718	0.0151369
845.796	0.0150239
845.874	0.0150667
845.953	0.0150555
846.031	0.0150666
846.109	0.0149787
846.187	0.0150726
846.265	0.0150861
846.343	0.0151051
846.421	0.0150536
846.499	0.0151278
846.578	0.0149711
846.656	0.0151252
846.734	0.0152267
846.812	0.0151353
846.890	0.0151008
846.968	0.0150716
847.046	0.0150770
847.124	0.0151230
847.203	0.0151712
847.281	0.0151385
847.359	0.0151791
847.437	0.0150566
847.515	0.0151452
847.593	0.0150841
847.671	0.0151718
847.749	0.0150429
847.828	0.0150292
847.906	0.0150406
847.984	0.0152300
848.062	0.0151080
848.140	0.0150784
848.218	0.0151675
848.296	0.0151984
848.374	0.0151620
848.453	0.0151213
848.531	0.0152756
848.609	0.0152337
848.687	0.0150153
848.765	0.0149871
848.843	0.0151753
848.921	0.0151272
848.999	0.0150698
849.078	0.0150006
849.156	0.0149544
849.234	0.0149708
849.312	0.0150196
849.390	0.0151174
849.468	0.0151146
849.546	0.0151228
849.624	0.0150075
849.703	0.0151258
849.781	0.0151118
849.859	0.0151065
849.937	0.0151093
850.015	0.0150377
850.093	0.0151073
850.171	0.0151768
850.249	0.0151160
850.328	0.0149989
850.406	0.0151728
850.484	0.0149816
850.562	0.0150069
850.640	0.0149808
850.718	0.0150462
850.796	0.0149776
850.874	0.0150996
850.953	0.0149855
851.031	0.0150015
851.109	0.0151061
851.187	0.0151131
851.265	0.0150757
851.343	0.0150793
851.421	0.0151479
851.499	0.0151061
851.578	0.0150225
851.656	0.0152399
851.734	0.0152596
851.812	0.0151717
851.890	0.0150404
851.968	0.0151720
852.046	0.0151586
852.124	0.0150919
852.203	0.0150242
852.281	0.0151137
852.359	0.0152494
852.437	0.0152377
852.515	0.0151123
852.593	0.0151796
852.671	0.0152167
852.749	0.0150754
852.828	0.0152067
852.906	0.0151373
852.984	0.0151530
853.062	0.0151897
853.140	0.0152181
853.218	0.0153189
853.296	0.0150917
853.374	0.0152602
853.453	0.0151256
853.531	0.0150999
853.609	0.0151442
853.687	0.0150490
853.765	0.0149022
853.843	0.0149572
853.921	0.0150546
853.999	0.0150905
854.078	0.0151215
854.156	0.0151821
854.234	0.0151112
854.312	0.0152270
854.390	0.0150761
854.468	0.0150789
854.546	0.0151929
854.624	0.0152091
854.703	0.0151839
854.781	0.0151487
854.859	0.0151012
854.937	0.0151363
855.015	0.0152003
855.093	0.0151913
855.171	0.0151930
855.249	0.0152109
855.328	0.0150900
855.406	0.0151157
855.484	0.0153767
855.562	0.0151836
855.640	0.0152340
855.718	0.0152072
855.796	0.0152345
855.874	0.0151250
855.953	0.0151826
856.031	0.0151631
856.109	0.0152007
856.187	0.0152460
856.265	0.0150949
856.343	0.0151630
856.421	0.0151082
856.499	0.0151083
856.578	0.0150314
856.656	0.0151286
856.734	0.0150355
856.812	0.0149931
856.890	0.0150449
856.968	0.0150148
857.046	0.0149702
857.124	0.0149680
857.203	0.0150638
857.281	0.0149953
857.359	0.0150195
857.437	0.0150323
857.515	0.0150243
857.593	0.0149145
857.671	0.0150226
857.749	0.0150351
857.828	0.0150233
857.906	0.0150208
857.984	0.0149683
858.062	0.0149281
858.140	0.0150839
858.218	0.0149850
858.296	0.0149232
858.374	0.0150642
858.453	0.0150730
858.531	0.0149218
858.609	0.0149921
858.687	0.0150046
858.765	0.0150603
858.843	0.0149858
858.921	0.0149626
858.999	0.0150228
859.078	0.0149906
859.156	0.0150569
859.234	0.0150305
859.312	0.0151083
859.390	0.0150748
859.468	0.0151031
859.546	0.0152139
859.624	0.0151357
859.703	0.0150614
859.781	0.0151086
859.859	0.0151591
859.937	0.0152361
860.015	0.0150402
860.093	0.0151391
860.171	0.0149857
860.249	0.0149413
860.328	0.0149058
860.406	0.0152016
860.484	0.0150937
860.562	0.0151428
860.640	0.0151746
860.718	0.0151080
860.796	0.0150587
860.874	0.0149808
860.953	0.0150634
861.031	0.0151134
861.109	0.0152151
861.187	0.0150484
861.265	0.0150226
861.343	0.0151023
861.421	0.0150488
861.499	0.0150981
861.578	0.0150507
861.656	0.0149449
861.734	0.0150397
861.812	0.0150411
861.890	0.0149476
861.968	0.0149873
862.046	0.0149822
862.124	0.0149612
862.203	0.0151649
862.281	0.0150247
862.359	0.0148830
862.437	0.0149328
862.515	0.0151370
862.593	0.0150617
862.671	0.0151150
862.749	0.0151934
862.828	0.0150606
862.906	0.0150632
862.984	0.0151548
863.062	0.0151228
863.140	0.0150703
863.218	0.0149234
863.296	0.0149831
863.374	0.0149992
863.453	0.0152682
863.531	0.0151412
863.609	0.0151180
863.687	0.0150336
863.765	0.0150777
863.843	0.0151780
863.921	0.0150884
863.999	0.0150737
864.078	0.0151187
864.156	0.0150186
864.234	0.0151659
864.312	0.0151319
864.390	0.0150018
864.468	0.0149967
864.546	0.0152457
864.624	0.0151070
864.703	0.0150808
864.781	0.0151238
864.859	0.0151223
864.937	0.0150508
865.015	0.0149074
865.093	0.0149038
865.171	0.0150146
865.249	0.0148642
865.328	0.0149867
865.406	0.0149444
865.484	0.0149137
865.562	0.0150255
865.640	0.0151109
865.718	0.0149737
865.796	0.0151044
865.874	0.0148445
865.953	0.0149088
866.031	0.0150790
866.109	0.0151430
866.187	0.0151572
866.265	0.0151424
866.343	0.0150637
866.421	0.0149434
866.499	0.0149761
866.578	0.0151107
866.656	0.0151128
866.734	0.0150014
866.812	0.0151411
866.890	0.0150890
866.968	0.0151012
867.046	0.0150543
867.124	0.0151456
867.203	0.0151693
867.281	0.0151393
867.359	0.0151842
867.437	0.0152956
867.515	0.0151470
867.593	0.0151938
867.671	0.0151486
867.749	0.0151447
867.828	0.0151555
867.906	0.0151196
867.984	0.0151801
868.062	0.0152670
868.140	0.0151138
868.218	0.0150440
868.296	0.0151154
868.374	0.0151041
868.453	0.0151756
868.531	0.0151236
868.609	0.0150350
868.687	0.0151580
868.765	0.0151571
868.843	0.0150679
868.921	0.0151357
868.999	0.0151394
869.078	0.0150520
869.156	0.0150690
869.234	0.0150894
869.312	0.0152011
869.390	0.0151159
869.468	0.0150198
869.546	0.0150319
869.624	0.0150063
869.703	0.0149799
869.781	0.0151295
869.859	0.0150151
869.937	0.0150185
870.015	0.0150644
870.093	0.0150029
870.171	0.0151975
870.249	0.0151321
870.328	0.0151009
870.406	0.0151212
870.484	0.0150931
870.562	0.0150218
870.640	0.0151542
870.718	0.0152493
870.796	0.0151328
870.874	0.0152193
870.953	0.0151415
871.031	0.0150864
871.109	0.0152162
871.187	0.0152045
871.265	0.0152156
871.343	0.0150406
871.421	0.0151323
871.499	0.0150791
871.578	0.0150581
871.656	0.0151044
871.734	0.0150224
871.812	0.0150816
871.890	0.0151619
871.968	0.0151263
872.046	0.0151694
872.124	0.0151856
872.203	0.0151864
872.281	0.0151443
872.359	0.0150979
872.437	0.0152716
872.515	0.0151503
872.593	0.0152060
872.671	0.0151354
872.749	0.0150031
872.828	0.0151003
872.906	0.0150410
872.984	0.0152670
873.062	0.0150648
873.140	0.0151167
873.218	0.0151527
873.296	0.0150565
873.374	0.0150463
873.453	0.0151575
873.531	0.0152010
873.609	0.0151075
873.687	0.0151881
873.765	0.0151493
873.843	0.0151541
873.921	0.0151007
873.999	0.0150596
874.078	0.0151875
874.156	0.0151031
874.234	0.0150555
874.312	0.0152311
874.390	0.0151404
874.468	0.0149177
874.546	0.0149686
874.624	0.0151008
874.703	0.0150113
874.781	0.0151266
874.859	0.0151038
874.937	0.0150204
875.015	0.0152166
875.093	0.0151939
875.171	0.0151688
875.249	0.0151309
875.328	0.0152357
875.406	0.0151310
875.484	0.0151929
875.562	0.0151368
875.640	0.0152487
875.718	0.0151945
875.796	0.0150036
875.874	0.0151752
875.953	0.0152340
876.031	0.0151842
876.109	0.0151311
876.187	0.0151386
876.265	0.0150980
876.343	0.0150993
876.421	0.0151098
876.499	0.0151609
876.578	0.0151326
876.656	0.0151151
876.734	0.0150739
876.812	0.0151890
876.890	0.0151347
876.968	0.0152290
877.046	0.0151122
877.124	0.0151914
877.203	0.0151993
877.281	0.0151793
877.359	0.0152683
877.437	0.0150184
877.515	0.0151280
877.593	0.0152106
877.671	0.0150806
877.749	0.0149206
877.828	0.0151580
877.906	0.0151656
877.984	0.0151392
878.062	0.0150706
878.140	0.0149785
878.218	0.0152564
878.296	0.0152059
878.374	0.0151987
878.453	0.0152049
878.531	0.0151166
878.609	0.0151350
878.687	0.0151006
878.765	0.0152377
878.843	0.0151730
878.921	0.0152415
878.999	0.0152416
879.078	0.0150797
879.156	0.0151701
879.234	0.0151141
879.312	0.0151369
879.390	0.0150146
879.468	0.0151594
879.546	0.0151490
879.624	0.0151884
879.703	0.0152569
879.781	0.0152425
879.859	0.0152665
879.937	0.0151389
880.015	0.0152292
880.093	0.0152993
880.171	0.0151226
880.249	0.0150523
880.328	0.0150706
880.406	0.0152095
880.484	0.0153531
880.562	0.0151311
880.640	0.0151047
880.718	0.0152294
880.796	0.0150526
880.874	0.0150565
880.953	0.0150362
881.031	0.0152089
881.109	0.0151627
881.187	0.0151315
881.265	0.0150395
881.343	0.0150869
881.421	0.0151057
881.499	0.0151236
881.578	0.0151019
881.656	0.0151157
881.734	0.0151797
881.812	0.0150986
881.890	0.0150909
881.968	0.0151987
882.046	0.0150706
882.124	0.0150018
882.203	0.0150159
882.281	0.0149822
882.359	0.0150963
882.437	0.0150541
882.515	0.0150014
882.593	0.0149904
882.671	0.0150312
882.749	0.0149902
882.828	0.0148887
882.906	0.0151089
882.984	0.0151101
883.062	0.0150626
883.140	0.0149727
883.218	0.0150794
883.296	0.0150171
883.374	0.0150717
883.453	0.0150189
883.531	0.0149934
883.609	0.0151559
883.687	0.0151001
883.765	0.0151216
883.843	0.0149381
883.921	0.0149406
883.999	0.0148586
884.078	0.0149130
884.156	0.0149857
884.234	0.0148830
884.312	0.0150421
884.390	0.0151214
884.468	0.0150591
884.546	0.0150684
884.624	0.0150797
884.703	0.0150516
884.781	0.0149812
884.859	0.0150520
884.937	0.0151721
885.015	0.0151060
885.093	0.0151401
885.171	0.0150938
885.249	0.0150471
885.328	0.0149728
885.406	0.0150816
885.484	0.0150930
885.562	0.0152312
885.640	0.0151425
885.718	0.0151278
885.796	0.0149659
885.874	0.0151887
885.953	0.0151466
886.031	0.0152388
886.109	0.0152834
886.187	0.0151347
886.265	0.0151357
886.343	0.0151785
886.421	0.0150761
886.499	0.0151117
886.578	0.0151488
886.656	0.0151398
886.734	0.0151917
886.812	0.0151453
886.890	0.0150433
886.968	0.0150420
887.046	0.0151366
887.124	0.0153070
887.203	0.0151474
887.281	0.0150377
887.359	0.0150574
887.437	0.0150556
887.515	0.0151782
887.593	0.0149333
887.671	0.0151143
887.749	0.0149428
887.828	0.0151705
887.906	0.0151208
887.984	0.0151332
888.062	0.0151065
888.140	0.0151317
888.218	0.0151337
888.296	0.0151158
888.374	0.0151144
888.453	0.0152102
888.531	0.0151380
888.609	0.0150601
888.687	0.0150433
888.765	0.0150520
888.843	0.0150268
888.921	0.0150687
888.999	0.0149990
889.078	0.0151432
889.156	0.0150137
889.234	0.0151337
889.312	0.0151823
889.390	0.0151827
889.468	0.0151204
889.546	0.0151463
889.624	0.0152039
889.703	0.0152572
889.781	0.0151459
889.859	0.0152702
889.937	0.0152231
890.015	0.0150886
890.093	0.0151580
890.171	0.0151797
890.249	0.0150613
890.328	0.0151733
890.406	0.0151968
890.484	0.0152271
890.562	0.0150550
890.640	0.0152277
890.718	0.0152686
890.796	0.0151017
890.874	0.0149477
890.953	0.0150307
891.031	0.0152363
891.109	0.0152005
891.187	0.0150359
891.265	0.0151250
891.343	0.0151511
891.421	0.0150295
891.499	0.0151898
891.578	0.0150808
891.656	0.0150526
891.734	0.0150868
891.812	0.0150746
891.890	0.0151327
891.968	0.0151431
892.046	0.0150976
892.124	0.0150390
892.203	0.0150711
892.281	0.0150967
892.359	0.0149707
892.437	0.0151431
892.515	0.0152667
892.593	0.0151816
892.671	0.0150391
892.749	0.0150565
892.828	0.0150698
892.906	0.0150440
892.984	0.0150161
893.062	0.0150634
893.140	0.0150220
893.218	0.0150782
893.296	0.0151346
893.374	0.0149720
893.453	0.0149659
893.531	0.0150356
893.609	0.0150549
893.687	0.0150842
893.765	0.0151815
893.843	0.0152478
893.921	0.0151942
893.999	0.0150105
894.078	0.0151649
894.156	0.0153098
894.234	0.0152328
894.312	0.0151066
894.390	0.0152366
894.468	0.0152305
894.546	0.0151381
894.624	0.0150014
894.703	0.0151500
894.781	0.0151723
894.859	0.0150478
894.937	0.0150784
895.015	0.0150007
895.093	0.0149578
895.171	0.0150655
895.249	0.0149784
895.328	0.0150163
895.406	0.0150716
895.484	0.0148767
895.562	0.0149250
895.640	0.0150163
895.718	0.0149110
895.796	0.0150536
895.874	0.0149248
895.953	0.0148705
896.031	0.0149760
896.109	0.0150535
896.187	0.0150893
896.265	0.0151898
896.343	0.0149938
896.421	0.0150011
896.499	0.0151315
896.578	0.0149863
896.656	0.0150071
896.734	0.0150118
896.812	0.0150516
896.890	0.0150885
896.968	0.0151415
897.046	0.0151544
897.124	0.0151349
897.203	0.0151440
897.281	0.0150992
897.359	0.0151688
897.437	0.0150977
897.515	0.0151301
897.593	0.0150756
897.671	0.0152143
897.749	0.0150851
897.828	0.0152361
897.906	0.0150952
897.984	0.0150487
898.062	0.0151518
898.140	0.0151662
898.218	0.0152119
898.296	0.0151801
898.374	0.0152484
898.453	0.0152227
898.531	0.0151097
898.609	0.0151557
898.687	0.0153308
898.765	0.0151407
898.843	0.0152228
898.921	0.0151580
898.999	0.0150604
899.078	0.0150784
899.156	0.0152516
899.234	0.0151865
899.312	0.0151741
899.390	0.0151098
899.468	0.0151107
899.546	0.0151336
899.624	0.0151958
899.703	0.0149943
899.781	0.0149792
899.859	0.0152188
899.937	0.0151926
900.015	0.0151035
900.093	0.0151012
900.171	0.0150312
900.249	0.0151492
900.328	0.0150784
900.406	0.0151252
900.484	0.0151169
900.562	0.0151693
900.640	0.0151289
900.718	0.0150426
900.796	0.0150932
900.874	0.0151189
900.953	0.0151605
901.031	0.0151368
901.109	0.0151193
901.187	0.0152589
901.265	0.0150936
901.343	0.0151777
901.421	0.0151424
901.499	0.0152403
901.578	0.0152558
901.656	0.0151135
901.734	0.0152723
901.812	0.0152109
901.890	0.0152348
901.968	0.0152562
902.046	0.0152294
902.124	0.0150006
902.203	0.0151302
902.281	0.0152197
902.359	0.0152837
902.437	0.0152261
902.515	0.0151237
902.593	0.0153010
902.671	0.0152197
902.749	0.0151031
902.828	0.0151915
902.906	0.0150523
902.984	0.0150298
903.062	0.0150375
903.140	0.0152921
903.218	0.0152080
903.296	0.0149693
903.374	0.0150407
903.453	0.0150793
903.531	0.0150329
903.609	0.0151455
903.687	0.0152160
903.765	0.0151601
903.843	0.0151387
903.921	0.0151897
903.999	0.0150070
904.078	0.0150249
904.156	0.0150356
904.234	0.0149367
904.312	0.0150223
904.390	0.0151036
904.468	0.0149548
904.546	0.0150953
904.624	0.0152115
904.703	0.0149329
904.781	0.0149963
904.859	0.0150660
904.937	0.0150484
905.015	0.0149603
905.093	0.0149518
905.171	0.0151022
905.249	0.0150269
905.328	0.0149444
905.406	0.0149540
905.484	0.0150978
905.562	0.0151139
905.640	0.0150249
905.718	0.0150304
905.796	0.0149653
905.874	0.0150586
905.953	0.0152142
906.031	0.0150542
906.109	0.0151199
906.187	0.0150643
906.265	0.0151144
906.343	0.0150624
906.421	0.0151517
906.499	0.0149949
906.578	0.0150647
906.656	0.0149729
906.734	0.0150459
906.812	0.0149440
906.890	0.0150640
906.968	0.0150016
907.046	0.0151108
907.124	0.0150198
907.203	0.0151162
907.281	0.0151338
907.359	0.0150409
907.437	0.0149773
907.515	0.0149384
907.593	0.0150852
907.671	0.0151415
907.749	0.0150833
907.828	0.0150648
907.906	0.0150330
907.984	0.0151048
908.062	0.0151350
908.140	0.0149654
908.218	0.0148817
908.296	0.0150018
908.374	0.0151269
908.453	0.0150475
908.531	0.0150208
908.609	0.0150603
908.687	0.0151409
908.765	0.0149957
908.843	0.0150306
908.921	0.0149932
908.999	0.0151131
909.078	0.0151177
909.156	0.0149917
909.234	0.0150436
909.312	0.0149277
909.390	0.0149687
909.468	0.0151094
909.546	0.0151131
909.624	0.0149268
909.703	0.0149529
909.781	0.0149558
909.859	0.0147376
909.937	0.0150616
910.015	0.0148960
910.093	0.0151360
910.171	0.0151933
910.249	0.0151050
910.328	0.0151514
910.406	0.0150470
910.484	0.0151236
910.562	0.0150827
910.640	0.0149558
910.718	0.0150031
910.796	0.0151254
910.874	0.0151012
910.953	0.0150926
911.031	0.0151059
911.109	0.0151080
911.187	0.0150095
911.265	0.0150468
911.343	0.0151012
911.421	0.0149789
911.499	0.0150063
911.578	0.0150030
911.656	0.0150620
911.734	0.0152010
911.812	0.0150858
911.890	0.0149317
911.968	0.0149694
912.046	0.0150083
912.124	0.0150990
912.203	0.0151376
912.281	0.0149870
912.359	0.0151079
912.437	0.0149085
912.515	0.0150484
912.593	0.0151301
912.671	0.0150471
912.749	0.0150522
912.828	0.0151621
912.906	0.0151289
912.984	0.0151126
913.062	0.0152262
913.140	0.0151502
913.218	0.0151086
913.296	0.0151760
913.374	0.0152081
913.453	0.0149568
913.531	0.0150957
913.609	0.0150922
913.687	0.0151319
913.765	0.0151613
913.843	0.0152030
913.921	0.0150572
913.999	0.0151550
914.078	0.0150748
914.156	0.0151552
914.234	0.0150567
914.312	0.0150659
914.390	0.0151057
914.468	0.0150968
914.546	0.0151711
914.624	0.0150811
914.703	0.0151595
914.781	0.0151145
914.859	0.0151311
914.937	0.0151599
915.015	0.0151392
915.093	0.0151174
915.171	0.0151143
915.249	0.0151837
915.328	0.0150941
915.406	0.0150707
915.484	0.0148802
915.562	0.0150534
915.640	0.0150637
915.718	0.0151131
915.796	0.0150333
915.874	0.0149381
915.953	0.0150978
916.031	0.0150505
916.109	0.0151241
916.187	0.0151846
916.265	0.0151352
916.343	0.0151458
916.421	0.0151968
916.499	0.0151399
916.578	0.0151225
916.656	0.0149885
916.734	0.0150497
916.812	0.0150407
916.890	0.0149673
916.968	0.0150006
917.046	0.0151112
917.124	0.0150298
917.203	0.0149589
917.281	0.0150792
917.359	0.0149828
917.437	0.0149934
917.515	0.0150947
917.593	0.0151226
917.671	0.0151453
917.749	0.0151008
917.828	0.0151347
917.906	0.0151455
917.984	0.0150553
918.062	0.0148664
918.140	0.0149959
918.218	0.0149545
918.296	0.0150835
918.374	0.0151247
918.453	0.0149945
918.531	0.0149494
918.609	0.0150150
918.687	0.0150124
918.765	0.0150190
918.843	0.0150259
918.921	0.0149427
918.999	0.0150382
919.078	0.0150639
919.156	0.0149652
919.234	0.0150542
919.312	0.0149601
919.390	0.0150150
919.468	0.0149637
919.546	0.0150555
919.624	0.0151055
919.703	0.0148933
919.781	0.0149709
919.859	0.0148914
919.937	0.0151324
