05/06/2022	18:41:48	Ver.	4.1	UNKNOWN
Optical Delay	600.015094	Delta X		0.078125	Sweeps	1	Scan Rate	0/0
Coordinates	Axis 1	NaN	Axis 2	NaN	Axis 3	NaN	Axis 4	NaN	Axis 5	NaN	Axis 6	0.000000
TX Power	0.000000	RX Power	0.000000

600.015	0.0136063
600.093	0.0135549
600.171	0.0134359
600.249	0.0136039
600.328	0.0135681
600.406	0.0135960
600.484	0.0134568
600.562	0.0136002
600.640	0.0136279
600.718	0.0136408
600.796	0.0137182
600.874	0.0136209
600.953	0.0135684
601.031	0.0135403
601.109	0.0134990
601.187	0.0137531
601.265	0.0135390
601.343	0.0135060
601.421	0.0136298
601.499	0.0135492
601.578	0.0134737
601.656	0.0137046
601.734	0.0136740
601.812	0.0136216
601.890	0.0136192
601.968	0.0134681
602.046	0.0135432
602.124	0.0136054
602.203	0.0136509
602.281	0.0135430
602.359	0.0136014
602.437	0.0135245
602.515	0.0135313
602.593	0.0136260
602.671	0.0135679
602.749	0.0136232
602.828	0.0136169
602.906	0.0136260
602.984	0.0135529
603.062	0.0134446
603.140	0.0136571
603.218	0.0136342
603.296	0.0137099
603.374	0.0136396
603.453	0.0136697
603.531	0.0137583
603.609	0.0135883
603.687	0.0135690
603.765	0.0136672
603.843	0.0135912
603.921	0.0134650
603.999	0.0136473
604.078	0.0136520
604.156	0.0137081
604.234	0.0135139
604.312	0.0136176
604.390	0.0136708
604.468	0.0136608
604.546	0.0136102
604.624	0.0136380
604.703	0.0137733
604.781	0.0135450
604.859	0.0137101
604.937	0.0135864
605.015	0.0137042
605.093	0.0137271
605.171	0.0135933
605.249	0.0136028
605.328	0.0136555
605.406	0.0135946
605.484	0.0136462
605.562	0.0136835
605.640	0.0137464
605.718	0.0135470
605.796	0.0135593
605.874	0.0134847
605.953	0.0135616
606.031	0.0136150
606.109	0.0134720
606.187	0.0136082
606.265	0.0136739
606.343	0.0136528
606.421	0.0135029
606.499	0.0135950
606.578	0.0135619
606.656	0.0135442
606.734	0.0135909
606.812	0.0134609
606.890	0.0135642
606.968	0.0135872
607.046	0.0135500
607.124	0.0136079
607.203	0.0135725
607.281	0.0136143
607.359	0.0135181
607.437	0.0135649
607.515	0.0135217
607.593	0.0135290
607.671	0.0136314
607.749	0.0135951
607.828	0.0135307
607.906	0.0136172
607.984	0.0134593
608.062	0.0135873
608.140	0.0135604
608.218	0.0135934
608.296	0.0135790
608.374	0.0136011
608.453	0.0134996
608.531	0.0136893
608.609	0.0136967
608.687	0.0134730
608.765	0.0135114
608.843	0.0135962
608.921	0.0136325
608.999	0.0137414
609.078	0.0135994
609.156	0.0136084
609.234	0.0136127
609.312	0.0136156
609.390	0.0136274
609.468	0.0135480
609.546	0.0136192
609.624	0.0135726
609.703	0.0134840
609.781	0.0135994
609.859	0.0135851
609.937	0.0135916
610.015	0.0136644
610.093	0.0136121
610.171	0.0136452
610.249	0.0135806
610.328	0.0136211
610.406	0.0136112
610.484	0.0137280
610.562	0.0136877
610.640	0.0136409
610.718	0.0136146
610.796	0.0136463
610.874	0.0135287
610.953	0.0136458
611.031	0.0135921
611.109	0.0136231
611.187	0.0136161
611.265	0.0136078
611.343	0.0135488
611.421	0.0136087
611.499	0.0135590
611.578	0.0136064
611.656	0.0136633
611.734	0.0137175
611.812	0.0135091
611.890	0.0135215
611.968	0.0135176
612.046	0.0135793
612.124	0.0136550
612.203	0.0136295
612.281	0.0135244
612.359	0.0135172
612.437	0.0135162
612.515	0.0135742
612.593	0.0134554
612.671	0.0135934
612.749	0.0134743
612.828	0.0134799
612.906	0.0135756
612.984	0.0135298
613.062	0.0136293
613.140	0.0136269
613.218	0.0135028
613.296	0.0137406
613.374	0.0137005
613.453	0.0135329
613.531	0.0135976
613.609	0.0135979
613.687	0.0134874
613.765	0.0135110
613.843	0.0135889
613.921	0.0135548
613.999	0.0136489
614.078	0.0135526
614.156	0.0136481
614.234	0.0134407
614.312	0.0135678
614.390	0.0136667
614.468	0.0134881
614.546	0.0134540
614.624	0.0135448
614.703	0.0134721
614.781	0.0136343
614.859	0.0134824
614.937	0.0135358
615.015	0.0134682
615.093	0.0135165
615.171	0.0135020
615.249	0.0135002
615.328	0.0134989
615.406	0.0134915
615.484	0.0136365
615.562	0.0136053
615.640	0.0135614
615.718	0.0134631
615.796	0.0136298
615.874	0.0136192
615.953	0.0136325
616.031	0.0134191
616.109	0.0134166
616.187	0.0135872
616.265	0.0135687
616.343	0.0135634
616.421	0.0136022
616.499	0.0135114
616.578	0.0136391
616.656	0.0135749
616.734	0.0134769
616.812	0.0134831
616.890	0.0136561
616.968	0.0136143
617.046	0.0134590
617.124	0.0136953
617.203	0.0136436
617.281	0.0134635
617.359	0.0135664
617.437	0.0135794
617.515	0.0136237
617.593	0.0135627
617.671	0.0135191
617.749	0.0137003
617.828	0.0135003
617.906	0.0135858
617.984	0.0135213
618.062	0.0135551
618.140	0.0136658
618.218	0.0135520
618.296	0.0135374
618.374	0.0136477
618.453	0.0136055
618.531	0.0134673
618.609	0.0136107
618.687	0.0134930
618.765	0.0135565
618.843	0.0136385
618.921	0.0136065
618.999	0.0135241
619.078	0.0135899
619.156	0.0135863
619.234	0.0134897
619.312	0.0135352
619.390	0.0135558
619.468	0.0135219
619.546	0.0135886
619.624	0.0135233
619.703	0.0134953
619.781	0.0136471
619.859	0.0136181
619.937	0.0133788
620.015	0.0135821
620.093	0.0134406
620.171	0.0134599
620.249	0.0137723
620.328	0.0134533
620.406	0.0136268
620.484	0.0136445
620.562	0.0136936
620.640	0.0135332
620.718	0.0134876
620.796	0.0135735
620.874	0.0136089
620.953	0.0137366
621.031	0.0136288
621.109	0.0135563
621.187	0.0135880
621.265	0.0134994
621.343	0.0137796
621.421	0.0136731
621.499	0.0135484
621.578	0.0135928
621.656	0.0136198
621.734	0.0135556
621.812	0.0136173
621.890	0.0136088
621.968	0.0135741
622.046	0.0134668
622.124	0.0135254
622.203	0.0136217
622.281	0.0136518
622.359	0.0135629
622.437	0.0134589
622.515	0.0135278
622.593	0.0137392
622.671	0.0134620
622.749	0.0135600
622.828	0.0137057
622.906	0.0136674
622.984	0.0135610
623.062	0.0136602
623.140	0.0136741
623.218	0.0136666
623.296	0.0135478
623.374	0.0136552
623.453	0.0137024
623.531	0.0136597
623.609	0.0135624
623.687	0.0135845
623.765	0.0136516
623.843	0.0136618
623.921	0.0136186
623.999	0.0135065
624.078	0.0135418
624.156	0.0135909
624.234	0.0135239
624.312	0.0135278
624.390	0.0135815
624.468	0.0136214
624.546	0.0137228
624.624	0.0137503
624.703	0.0135890
624.781	0.0135233
624.859	0.0135658
624.937	0.0135295
625.015	0.0136605
625.093	0.0136191
625.171	0.0136224
625.249	0.0135361
625.328	0.0136036
625.406	0.0136284
625.484	0.0136145
625.562	0.0135780
625.640	0.0136029
625.718	0.0135651
625.796	0.0137436
625.874	0.0135754
625.953	0.0136163
626.031	0.0137194
626.109	0.0135465
626.187	0.0137111
626.265	0.0136375
626.343	0.0135481
626.421	0.0137138
626.499	0.0136165
626.578	0.0135651
626.656	0.0136641
626.734	0.0136063
626.812	0.0135667
626.890	0.0136852
626.968	0.0135905
627.046	0.0137047
627.124	0.0134957
627.203	0.0135480
627.281	0.0136416
627.359	0.0135335
627.437	0.0135439
627.515	0.0134972
627.593	0.0135413
627.671	0.0136054
627.749	0.0136044
627.828	0.0135266
627.906	0.0136544
627.984	0.0136424
628.062	0.0135616
628.140	0.0137313
628.218	0.0134891
628.296	0.0135827
628.374	0.0136808
628.453	0.0136141
628.531	0.0135298
628.609	0.0134717
628.687	0.0134549
628.765	0.0135455
628.843	0.0135913
628.921	0.0136311
628.999	0.0135783
629.078	0.0136339
629.156	0.0135703
629.234	0.0136157
629.312	0.0136436
629.390	0.0134956
629.468	0.0136372
629.546	0.0137603
629.624	0.0135149
629.703	0.0136461
629.781	0.0136137
629.859	0.0136865
629.937	0.0134165
630.015	0.0135355
630.093	0.0136805
630.171	0.0136143
630.249	0.0135471
630.328	0.0135418
630.406	0.0136828
630.484	0.0135590
630.562	0.0135461
630.640	0.0135641
630.718	0.0135406
630.796	0.0135460
630.874	0.0136214
630.953	0.0136237
631.031	0.0134967
631.109	0.0136002
631.187	0.0135633
631.265	0.0135583
631.343	0.0136313
631.421	0.0135455
631.499	0.0135949
631.578	0.0135668
631.656	0.0135155
631.734	0.0137002
631.812	0.0136536
631.890	0.0135513
631.968	0.0135863
632.046	0.0137531
632.124	0.0136342
632.203	0.0136027
632.281	0.0136581
632.359	0.0135716
632.437	0.0135454
632.515	0.0137193
632.593	0.0135687
632.671	0.0135111
632.749	0.0136389
632.828	0.0135315
632.906	0.0134566
632.984	0.0135721
633.062	0.0135744
633.140	0.0135628
633.218	0.0135066
633.296	0.0135220
633.374	0.0134606
633.453	0.0137019
633.531	0.0136256
633.609	0.0136054
633.687	0.0136433
633.765	0.0135756
633.843	0.0135496
633.921	0.0136795
633.999	0.0136746
634.078	0.0134972
634.156	0.0136028
634.234	0.0135192
634.312	0.0134869
634.390	0.0135905
634.468	0.0135757
634.546	0.0135645
634.624	0.0135212
634.703	0.0134986
634.781	0.0135604
634.859	0.0135318
634.937	0.0135551
635.015	0.0134757
635.093	0.0135617
635.171	0.0136109
635.249	0.0137216
635.328	0.0135709
635.406	0.0136346
635.484	0.0134698
635.562	0.0135826
635.640	0.0134934
635.718	0.0135595
635.796	0.0135642
635.874	0.0135203
635.953	0.0135363
636.031	0.0134639
636.109	0.0137543
636.187	0.0135699
636.265	0.0133940
636.343	0.0135345
636.421	0.0135206
636.499	0.0135757
636.578	0.0136217
636.656	0.0134837
636.734	0.0136072
636.812	0.0136086
636.890	0.0135143
636.968	0.0134875
637.046	0.0135753
637.124	0.0135818
637.203	0.0135412
637.281	0.0135432
637.359	0.0136270
637.437	0.0136134
637.515	0.0135909
637.593	0.0136761
637.671	0.0135802
637.749	0.0135190
637.828	0.0135915
637.906	0.0136495
637.984	0.0135470
638.062	0.0135461
638.140	0.0136233
638.218	0.0136239
638.296	0.0135947
638.374	0.0135818
638.453	0.0136081
638.531	0.0136389
638.609	0.0136274
638.687	0.0133810
638.765	0.0135239
638.843	0.0136214
638.921	0.0136515
638.999	0.0136597
639.078	0.0135056
639.156	0.0136174
639.234	0.0136581
639.312	0.0136903
639.390	0.0135493
639.468	0.0134358
639.546	0.0136563
639.624	0.0136388
639.703	0.0135820
639.781	0.0136047
639.859	0.0135543
639.937	0.0135958
640.015	0.0135783
640.093	0.0136145
640.171	0.0134679
640.249	0.0135493
640.328	0.0135645
640.406	0.0135158
640.484	0.0134932
640.562	0.0136323
640.640	0.0136082
640.718	0.0135580
640.796	0.0135585
640.874	0.0135275
640.953	0.0136958
641.031	0.0136320
641.109	0.0136325
641.187	0.0135340
641.265	0.0134150
641.343	0.0135259
641.421	0.0136629
641.499	0.0135535
641.578	0.0136143
641.656	0.0135949
641.734	0.0135947
641.812	0.0136374
641.890	0.0134784
641.968	0.0136645
642.046	0.0135333
642.124	0.0135541
642.203	0.0135954
642.281	0.0134643
642.359	0.0135457
642.437	0.0135461
642.515	0.0135957
642.593	0.0135706
642.671	0.0135058
642.749	0.0135348
642.828	0.0134869
642.906	0.0135530
642.984	0.0135789
643.062	0.0136081
643.140	0.0135419
643.218	0.0135770
643.296	0.0134892
643.374	0.0135601
643.453	0.0136911
643.531	0.0136113
643.609	0.0135934
643.687	0.0135031
643.765	0.0135584
643.843	0.0135234
643.921	0.0136031
643.999	0.0136109
644.078	0.0135387
644.156	0.0137492
644.234	0.0135904
644.312	0.0135936
644.390	0.0136069
644.468	0.0135841
644.546	0.0136235
644.624	0.0135596
644.703	0.0137052
644.781	0.0137267
644.859	0.0136139
644.937	0.0135881
645.015	0.0135632
645.093	0.0135706
645.171	0.0135790
645.249	0.0134985
645.328	0.0136594
645.406	0.0135789
645.484	0.0136034
645.562	0.0136173
645.640	0.0135401
645.718	0.0135690
645.796	0.0136960
645.874	0.0136813
645.953	0.0134356
646.031	0.0135381
646.109	0.0134733
646.187	0.0134811
646.265	0.0135702
646.343	0.0136296
646.421	0.0134338
646.499	0.0136230
646.578	0.0135686
646.656	0.0134431
646.734	0.0136852
646.812	0.0135257
646.890	0.0135085
646.968	0.0136057
647.046	0.0136015
647.124	0.0135461
647.203	0.0135975
647.281	0.0134843
647.359	0.0134515
647.437	0.0137199
647.515	0.0135162
647.593	0.0136582
647.671	0.0136695
647.749	0.0136264
647.828	0.0136100
647.906	0.0135276
647.984	0.0136518
648.062	0.0137504
648.140	0.0135010
648.218	0.0135120
648.296	0.0134859
648.374	0.0136556
648.453	0.0135390
648.531	0.0135330
648.609	0.0137013
648.687	0.0135939
648.765	0.0135396
648.843	0.0136898
648.921	0.0136524
648.999	0.0134606
649.078	0.0135415
649.156	0.0135857
649.234	0.0135530
649.312	0.0136815
649.390	0.0135960
649.468	0.0134376
649.546	0.0136212
649.624	0.0136519
649.703	0.0138081
649.781	0.0137349
649.859	0.0135871
649.937	0.0135969
650.015	0.0135203
650.093	0.0137353
650.171	0.0135990
650.249	0.0136041
650.328	0.0135618
650.406	0.0134318
650.484	0.0136818
650.562	0.0136979
650.640	0.0136494
650.718	0.0136052
650.796	0.0136431
650.874	0.0136050
650.953	0.0137075
651.031	0.0135184
651.109	0.0134784
651.187	0.0135979
651.265	0.0137324
651.343	0.0134983
651.421	0.0136108
651.499	0.0135632
651.578	0.0135290
651.656	0.0137640
651.734	0.0136649
651.812	0.0136255
651.890	0.0136304
651.968	0.0134219
652.046	0.0136253
652.124	0.0136238
652.203	0.0135525
652.281	0.0135841
652.359	0.0134796
652.437	0.0135998
652.515	0.0136523
652.593	0.0136417
652.671	0.0137295
652.749	0.0136512
652.828	0.0134969
652.906	0.0135963
652.984	0.0137290
653.062	0.0135205
653.140	0.0134978
653.218	0.0136875
653.296	0.0136858
653.374	0.0135206
653.453	0.0135772
653.531	0.0136362
653.609	0.0136016
653.687	0.0136111
653.765	0.0135223
653.843	0.0135637
653.921	0.0137054
653.999	0.0136409
654.078	0.0136166
654.156	0.0136322
654.234	0.0135938
654.312	0.0135404
654.390	0.0136316
654.468	0.0135420
654.546	0.0137261
654.624	0.0136580
654.703	0.0135950
654.781	0.0135085
654.859	0.0135953
654.937	0.0134216
655.015	0.0136102
655.093	0.0136663
655.171	0.0136449
655.249	0.0136208
655.328	0.0135736
655.406	0.0134940
655.484	0.0135371
655.562	0.0135307
655.640	0.0134891
655.718	0.0136353
655.796	0.0136700
655.874	0.0136398
655.953	0.0135133
656.031	0.0134966
656.109	0.0135986
656.187	0.0136524
656.265	0.0136146
656.343	0.0136591
656.421	0.0135208
656.499	0.0136517
656.578	0.0136096
656.656	0.0136107
656.734	0.0135783
656.812	0.0135543
656.890	0.0135332
656.968	0.0136001
657.046	0.0136980
657.124	0.0135632
657.203	0.0134863
657.281	0.0135983
657.359	0.0136789
657.437	0.0136648
657.515	0.0134727
657.593	0.0134296
657.671	0.0136665
657.749	0.0135868
657.828	0.0135258
657.906	0.0136366
657.984	0.0135841
658.062	0.0136014
658.140	0.0135944
658.218	0.0136037
658.296	0.0136569
658.374	0.0136975
658.453	0.0137397
658.531	0.0136031
658.609	0.0134736
658.687	0.0135397
658.765	0.0135804
658.843	0.0137093
658.921	0.0135559
658.999	0.0134475
659.078	0.0137098
659.156	0.0135209
659.234	0.0136317
659.312	0.0136224
659.390	0.0137695
659.468	0.0136313
659.546	0.0135504
659.624	0.0135789
659.703	0.0136637
659.781	0.0136875
659.859	0.0135815
659.937	0.0135217
660.015	0.0136337
660.093	0.0135074
660.171	0.0136002
660.249	0.0137345
660.328	0.0134889
660.406	0.0135188
660.484	0.0137601
660.562	0.0136057
660.640	0.0135635
660.718	0.0135274
660.796	0.0136333
660.874	0.0135273
660.953	0.0135881
661.031	0.0135748
661.109	0.0135129
661.187	0.0134937
661.265	0.0136646
661.343	0.0136063
661.421	0.0135069
661.499	0.0136389
661.578	0.0135820
661.656	0.0136180
661.734	0.0135298
661.812	0.0136318
661.890	0.0136720
661.968	0.0136676
662.046	0.0135893
662.124	0.0134676
662.203	0.0134617
662.281	0.0136205
662.359	0.0136597
662.437	0.0136160
662.515	0.0136608
662.593	0.0136268
662.671	0.0136543
662.749	0.0134632
662.828	0.0135099
662.906	0.0135642
662.984	0.0136681
663.062	0.0136354
663.140	0.0136027
663.218	0.0135957
663.296	0.0135528
663.374	0.0135170
663.453	0.0135760
663.531	0.0136732
663.609	0.0136122
663.687	0.0135102
663.765	0.0135555
663.843	0.0134957
663.921	0.0135432
663.999	0.0134740
664.078	0.0134933
664.156	0.0137143
664.234	0.0135630
664.312	0.0135706
664.390	0.0136327
664.468	0.0135805
664.546	0.0134841
664.624	0.0136371
664.703	0.0134049
664.781	0.0135921
664.859	0.0135088
664.937	0.0135973
665.015	0.0135323
665.093	0.0136711
665.171	0.0135971
665.249	0.0135567
665.328	0.0135522
665.406	0.0136305
665.484	0.0135223
665.562	0.0134370
665.640	0.0134307
665.718	0.0135461
665.796	0.0136433
665.874	0.0134875
665.953	0.0135232
666.031	0.0134961
666.109	0.0134639
666.187	0.0135319
666.265	0.0135470
666.343	0.0135957
666.421	0.0134111
666.499	0.0134036
666.578	0.0136266
666.656	0.0134603
666.734	0.0135442
666.812	0.0135153
666.890	0.0135065
666.968	0.0134311
667.046	0.0135783
667.124	0.0135709
667.203	0.0134579
667.281	0.0134579
667.359	0.0135532
667.437	0.0136363
667.515	0.0134824
667.593	0.0136176
667.671	0.0136494
667.749	0.0135464
667.828	0.0134134
667.906	0.0135355
667.984	0.0135830
668.062	0.0135698
668.140	0.0135529
668.218	0.0135528
668.296	0.0134942
668.374	0.0136240
668.453	0.0136893
668.531	0.0134797
668.609	0.0135345
668.687	0.0135493
668.765	0.0134821
668.843	0.0135266
668.921	0.0135490
668.999	0.0133551
669.078	0.0135902
669.156	0.0135197
669.234	0.0135976
669.312	0.0135079
669.390	0.0135905
669.468	0.0134523
669.546	0.0135704
669.624	0.0135275
669.703	0.0136024
669.781	0.0136423
669.859	0.0135292
669.937	0.0137003
670.015	0.0137025
670.093	0.0134432
670.171	0.0135841
670.249	0.0136411
670.328	0.0134509
670.406	0.0134671
670.484	0.0135542
670.562	0.0136611
670.640	0.0135185
670.718	0.0136008
670.796	0.0136554
670.874	0.0135143
670.953	0.0134727
671.031	0.0135549
671.109	0.0135307
671.187	0.0135279
671.265	0.0136961
671.343	0.0135408
671.421	0.0135634
671.499	0.0136464
671.578	0.0136798
671.656	0.0136804
671.734	0.0135959
671.812	0.0135386
671.890	0.0134283
671.968	0.0135657
672.046	0.0137517
672.124	0.0135383
672.203	0.0135689
672.281	0.0135289
672.359	0.0135453
672.437	0.0135065
672.515	0.0135056
672.593	0.0136684
672.671	0.0137798
672.749	0.0136409
672.828	0.0136365
672.906	0.0135718
672.984	0.0136890
673.062	0.0136878
673.140	0.0136528
673.218	0.0138011
673.296	0.0138364
673.374	0.0136687
673.453	0.0136587
673.531	0.0136251
673.609	0.0137465
673.687	0.0136876
673.765	0.0135825
673.843	0.0137337
673.921	0.0137444
673.999	0.0135664
674.078	0.0137856
674.156	0.0136395
674.234	0.0135137
674.312	0.0135751
674.390	0.0136463
674.468	0.0137344
674.546	0.0137773
674.624	0.0136089
674.703	0.0136182
674.781	0.0137106
674.859	0.0138465
674.937	0.0137592
675.015	0.0136687
675.093	0.0135829
675.171	0.0137415
675.249	0.0136824
675.328	0.0136021
675.406	0.0135278
675.484	0.0135493
675.562	0.0136478
675.640	0.0136602
675.718	0.0136758
675.796	0.0136377
675.874	0.0135666
675.953	0.0136932
676.031	0.0136962
676.109	0.0137858
676.187	0.0135619
676.265	0.0135011
676.343	0.0136208
676.421	0.0135979
676.499	0.0136983
676.578	0.0137152
676.656	0.0134787
676.734	0.0136262
676.812	0.0135263
676.890	0.0136936
676.968	0.0135761
677.046	0.0136060
677.124	0.0136433
677.203	0.0136625
677.281	0.0136913
677.359	0.0137411
677.437	0.0136504
677.515	0.0137542
677.593	0.0136756
677.671	0.0136790
677.749	0.0136209
677.828	0.0135036
677.906	0.0136144
677.984	0.0135997
678.062	0.0136543
678.140	0.0135937
678.218	0.0134296
678.296	0.0135317
678.374	0.0136970
678.453	0.0135756
678.531	0.0135956
678.609	0.0135536
678.687	0.0136225
678.765	0.0135208
678.843	0.0135635
678.921	0.0135590
678.999	0.0135827
679.078	0.0133924
679.156	0.0135046
679.234	0.0136150
679.312	0.0135004
679.390	0.0134543
679.468	0.0136085
679.546	0.0136157
679.624	0.0135413
679.703	0.0135657
679.781	0.0136000
679.859	0.0134431
679.937	0.0134514
680.015	0.0136017
680.093	0.0135397
680.171	0.0135938
680.249	0.0133601
680.328	0.0135030
680.406	0.0133760
680.484	0.0136173
680.562	0.0137141
680.640	0.0137238
680.718	0.0135670
680.796	0.0134104
680.874	0.0136359
680.953	0.0136668
681.031	0.0135453
681.109	0.0135001
681.187	0.0136048
681.265	0.0135270
681.343	0.0135703
681.421	0.0136303
681.499	0.0135033
681.578	0.0136372
681.656	0.0136580
681.734	0.0135848
681.812	0.0136109
681.890	0.0135889
681.968	0.0136319
682.046	0.0137427
682.124	0.0136207
682.203	0.0134375
682.281	0.0136583
682.359	0.0135584
682.437	0.0135974
682.515	0.0136017
682.593	0.0136107
682.671	0.0134798
682.749	0.0135883
682.828	0.0134567
682.906	0.0136722
682.984	0.0137678
683.062	0.0136800
683.140	0.0136282
683.218	0.0136220
683.296	0.0136180
683.374	0.0136749
683.453	0.0136660
683.531	0.0135622
683.609	0.0134328
683.687	0.0135620
683.765	0.0136511
683.843	0.0136573
683.921	0.0136978
683.999	0.0135446
684.078	0.0135858
684.156	0.0137524
684.234	0.0136394
684.312	0.0135774
684.390	0.0136252
684.468	0.0136461
684.546	0.0136732
684.624	0.0137029
684.703	0.0135027
684.781	0.0135901
684.859	0.0136397
684.937	0.0136897
685.015	0.0136447
685.093	0.0136530
685.171	0.0136842
685.249	0.0136942
685.328	0.0137106
685.406	0.0136129
685.484	0.0135826
685.562	0.0135881
685.640	0.0134883
685.718	0.0135387
685.796	0.0134524
685.874	0.0135041
685.953	0.0136335
686.031	0.0135832
686.109	0.0136760
686.187	0.0137254
686.265	0.0136915
686.343	0.0138971
686.421	0.0139191
686.499	0.0138446
686.578	0.0138008
686.656	0.0138182
686.734	0.0135788
686.812	0.0133456
686.890	0.0131521
686.968	0.0130847
687.046	0.0129032
687.124	0.0127029
687.203	0.0128333
687.281	0.0128759
687.359	0.0130107
687.437	0.0132239
687.515	0.0133533
687.593	0.0135848
687.671	0.0137997
687.749	0.0141556
687.828	0.0144306
687.906	0.0144503
687.984	0.0144344
688.062	0.0145515
688.140	0.0143476
688.218	0.0141079
688.296	0.0139193
688.374	0.0138638
688.453	0.0135172
688.531	0.0133456
688.609	0.0130695
688.687	0.0130233
688.765	0.0127357
688.843	0.0127542
688.921	0.0127904
688.999	0.0130469
689.078	0.0131594
689.156	0.0131475
689.234	0.0133066
689.312	0.0135220
689.390	0.0137677
689.468	0.0137965
689.546	0.0140832
689.624	0.0142403
689.703	0.0142072
689.781	0.0142524
689.859	0.0141747
689.937	0.0140595
690.015	0.0138847
690.093	0.0138025
690.171	0.0136954
690.249	0.0136497
690.328	0.0135358
690.406	0.0134961
690.484	0.0133894
690.562	0.0133427
690.640	0.0133113
690.718	0.0134741
690.796	0.0135705
690.874	0.0134225
690.953	0.0134513
691.031	0.0136301
691.109	0.0135933
691.187	0.0136099
691.265	0.0135540
691.343	0.0135034
691.421	0.0134705
691.499	0.0132430
691.578	0.0131406
691.656	0.0130609
691.734	0.0131168
691.812	0.0130846
691.890	0.0130054
691.968	0.0130006
692.046	0.0129707
692.124	0.0131602
692.203	0.0132799
692.281	0.0134229
692.359	0.0134609
692.437	0.0134834
692.515	0.0136088
692.593	0.0137829
692.671	0.0138775
692.749	0.0138155
692.828	0.0138634
692.906	0.0136136
692.984	0.0137569
693.062	0.0135918
693.140	0.0137375
693.218	0.0137018
693.296	0.0135217
693.374	0.0133167
693.453	0.0133562
693.531	0.0137240
693.609	0.0136600
693.687	0.0136437
693.765	0.0137270
693.843	0.0137063
693.921	0.0137774
693.999	0.0137670
694.078	0.0135406
694.156	0.0136629
694.234	0.0135392
694.312	0.0135490
694.390	0.0133961
694.468	0.0133936
694.546	0.0134663
694.624	0.0132507
694.703	0.0132258
694.781	0.0133537
694.859	0.0134810
694.937	0.0134612
695.015	0.0135329
695.093	0.0136653
695.171	0.0136635
695.249	0.0137108
695.328	0.0137824
695.406	0.0137827
695.484	0.0137875
695.562	0.0137192
695.640	0.0138586
695.718	0.0135660
695.796	0.0135797
695.874	0.0135774
695.953	0.0135303
696.031	0.0135565
696.109	0.0134430
696.187	0.0135506
696.265	0.0135283
696.343	0.0134233
696.421	0.0134589
696.499	0.0134798
696.578	0.0135096
696.656	0.0134243
696.734	0.0134792
696.812	0.0135177
696.890	0.0135105
696.968	0.0133910
697.046	0.0132184
697.124	0.0131036
697.203	0.0132777
697.281	0.0132608
697.359	0.0134028
697.437	0.0132903
697.515	0.0133704
697.593	0.0133706
697.671	0.0135450
697.749	0.0136887
697.828	0.0135388
697.906	0.0137454
697.984	0.0138963
698.062	0.0138991
698.140	0.0139689
698.218	0.0140537
698.296	0.0140626
698.374	0.0140682
698.453	0.0140264
698.531	0.0141409
698.609	0.0140649
698.687	0.0138841
698.765	0.0138707
698.843	0.0138131
698.921	0.0136224
698.999	0.0133604
699.078	0.0134550
699.156	0.0133547
699.234	0.0132170
699.312	0.0133349
699.390	0.0132014
699.468	0.0130413
699.546	0.0131805
699.624	0.0132265
699.703	0.0133598
699.781	0.0132650
699.859	0.0133537
699.937	0.0134146
700.015	0.0134567
700.093	0.0134359
700.171	0.0135256
700.249	0.0135728
700.328	0.0134205
700.406	0.0135271
700.484	0.0136713
700.562	0.0135733
700.640	0.0135115
700.718	0.0134155
700.796	0.0134048
700.874	0.0134708
700.953	0.0134993
701.031	0.0135735
701.109	0.0135889
701.187	0.0136215
701.265	0.0135488
701.343	0.0135555
701.421	0.0136304
701.499	0.0137231
701.578	0.0136241
701.656	0.0136424
701.734	0.0138113
701.812	0.0137904
701.890	0.0137277
701.968	0.0138335
702.046	0.0137235
702.124	0.0136977
702.203	0.0135873
702.281	0.0134901
702.359	0.0136480
702.437	0.0134789
702.515	0.0135398
702.593	0.0133955
702.671	0.0134251
702.749	0.0134791
702.828	0.0135416
702.906	0.0135952
702.984	0.0136990
703.062	0.0138060
703.140	0.0137149
703.218	0.0138148
703.296	0.0138026
703.374	0.0138805
703.453	0.0138461
703.531	0.0139205
703.609	0.0139745
703.687	0.0138635
703.765	0.0139739
703.843	0.0137739
703.921	0.0137838
703.999	0.0137292
704.078	0.0137573
704.156	0.0137190
704.234	0.0136322
704.312	0.0134776
704.390	0.0135683
704.468	0.0136146
704.546	0.0135579
704.624	0.0134080
704.703	0.0135666
704.781	0.0135278
704.859	0.0134178
704.937	0.0135410
705.015	0.0135219
705.093	0.0134654
705.171	0.0134864
705.249	0.0134809
705.328	0.0133796
705.406	0.0134896
705.484	0.0135147
705.562	0.0134775
705.640	0.0133978
705.718	0.0134367
705.796	0.0134528
705.874	0.0134496
705.953	0.0136455
706.031	0.0135598
706.109	0.0135405
706.187	0.0133720
706.265	0.0134995
706.343	0.0135377
706.421	0.0136322
706.499	0.0136666
706.578	0.0137080
706.656	0.0136794
706.734	0.0137409
706.812	0.0139712
706.890	0.0138960
706.968	0.0141418
707.046	0.0140860
707.124	0.0141711
707.203	0.0141544
707.281	0.0142411
707.359	0.0141669
707.437	0.0138660
707.515	0.0137895
707.593	0.0139662
707.671	0.0140174
707.749	0.0138338
707.828	0.0135935
707.906	0.0136231
707.984	0.0135056
708.062	0.0134569
708.140	0.0133532
708.218	0.0132262
708.296	0.0132819
708.374	0.0130455
708.453	0.0131267
708.531	0.0130702
708.609	0.0129727
708.687	0.0131277
708.765	0.0131321
708.843	0.0131618
708.921	0.0131306
708.999	0.0130971
709.078	0.0131785
709.156	0.0132677
709.234	0.0133907
709.312	0.0132691
709.390	0.0133958
709.468	0.0136773
709.546	0.0136256
709.624	0.0134575
709.703	0.0136944
709.781	0.0137472
709.859	0.0138136
709.937	0.0138051
710.015	0.0137368
710.093	0.0138087
710.171	0.0138297
710.249	0.0137521
710.328	0.0138113
710.406	0.0138549
710.484	0.0138421
710.562	0.0135923
710.640	0.0135252
710.718	0.0135044
710.796	0.0136392
710.874	0.0134715
710.953	0.0135682
711.031	0.0135205
711.109	0.0134438
711.187	0.0134616
711.265	0.0135054
711.343	0.0136214
711.421	0.0136578
711.499	0.0137128
711.578	0.0138258
711.656	0.0138689
711.734	0.0139315
711.812	0.0139742
711.890	0.0140799
711.968	0.0139529
712.046	0.0140479
712.124	0.0140939
712.203	0.0140513
712.281	0.0139938
712.359	0.0140621
712.437	0.0140401
712.515	0.0139382
712.593	0.0139121
712.671	0.0137125
712.749	0.0138631
712.828	0.0138109
712.906	0.0136990
712.984	0.0136017
713.062	0.0135497
713.140	0.0134651
713.218	0.0134502
713.296	0.0133506
713.374	0.0133800
713.453	0.0133778
713.531	0.0133501
713.609	0.0134045
713.687	0.0135008
713.765	0.0133316
713.843	0.0134177
713.921	0.0133826
713.999	0.0135494
714.078	0.0137035
714.156	0.0135784
714.234	0.0135228
714.312	0.0135378
714.390	0.0135324
714.468	0.0136405
714.546	0.0135853
714.624	0.0135803
714.703	0.0134991
714.781	0.0134438
714.859	0.0134193
714.937	0.0135423
715.015	0.0133581
715.093	0.0135262
715.171	0.0134093
715.249	0.0135381
715.328	0.0134666
715.406	0.0134341
715.484	0.0134851
715.562	0.0136671
715.640	0.0135616
715.718	0.0135678
715.796	0.0135008
715.874	0.0136532
715.953	0.0136194
716.031	0.0136322
716.109	0.0135507
716.187	0.0137524
716.265	0.0137237
716.343	0.0136595
716.421	0.0138443
716.499	0.0138390
716.578	0.0137640
716.656	0.0138257
716.734	0.0136545
716.812	0.0137041
716.890	0.0137519
716.968	0.0136301
717.046	0.0134662
717.124	0.0137219
717.203	0.0136704
717.281	0.0135999
717.359	0.0135590
717.437	0.0136185
717.515	0.0134636
717.593	0.0134945
717.671	0.0135628
717.749	0.0135126
717.828	0.0134312
717.906	0.0134106
717.984	0.0134438
718.062	0.0135201
718.140	0.0133353
718.218	0.0135218
718.296	0.0134426
718.374	0.0134008
718.453	0.0134354
718.531	0.0136949
718.609	0.0134826
718.687	0.0134189
718.765	0.0134048
718.843	0.0135144
718.921	0.0136518
718.999	0.0135243
719.078	0.0134875
719.156	0.0135080
719.234	0.0134991
719.312	0.0134037
719.390	0.0133981
719.468	0.0134651
719.546	0.0132961
719.624	0.0134572
719.703	0.0132995
719.781	0.0132017
719.859	0.0135052
719.937	0.0134982
720.015	0.0135839
720.093	0.0134525
720.171	0.0135607
720.249	0.0136114
720.328	0.0136058
720.406	0.0135416
720.484	0.0136452
720.562	0.0135577
720.640	0.0133986
720.718	0.0135259
720.796	0.0135462
720.874	0.0136895
720.953	0.0136398
721.031	0.0135697
721.109	0.0136781
721.187	0.0135696
721.265	0.0136501
721.343	0.0136980
721.421	0.0135888
721.499	0.0137066
721.578	0.0136201
721.656	0.0136434
721.734	0.0135934
721.812	0.0136948
721.890	0.0136457
721.968	0.0135360
722.046	0.0135758
722.124	0.0134254
722.203	0.0136561
722.281	0.0135365
722.359	0.0134431
722.437	0.0134723
722.515	0.0134659
722.593	0.0134361
722.671	0.0134870
722.749	0.0135123
722.828	0.0135435
722.906	0.0134180
722.984	0.0136536
723.062	0.0134252
723.140	0.0133494
723.218	0.0133309
723.296	0.0134129
723.374	0.0134959
723.453	0.0135047
723.531	0.0135214
723.609	0.0133598
723.687	0.0134100
723.765	0.0135085
723.843	0.0132928
723.921	0.0133891
723.999	0.0133724
724.078	0.0134190
724.156	0.0133579
724.234	0.0134717
724.312	0.0132376
724.390	0.0134087
724.468	0.0134961
724.546	0.0135180
724.624	0.0135634
724.703	0.0137270
724.781	0.0136641
724.859	0.0135496
724.937	0.0136221
725.015	0.0136129
725.093	0.0136774
725.171	0.0135221
725.249	0.0135892
725.328	0.0135729
725.406	0.0136790
725.484	0.0136358
725.562	0.0136901
725.640	0.0135963
725.718	0.0135741
725.796	0.0135632
725.874	0.0136053
725.953	0.0137142
726.031	0.0135389
726.109	0.0136911
726.187	0.0137371
726.265	0.0136892
726.343	0.0135612
726.421	0.0135593
726.499	0.0136434
726.578	0.0136845
726.656	0.0137424
726.734	0.0136340
726.812	0.0136288
726.890	0.0136385
726.968	0.0136757
727.046	0.0137273
727.124	0.0135693
727.203	0.0134195
727.281	0.0134836
727.359	0.0136239
727.437	0.0135217
727.515	0.0135869
727.593	0.0136439
727.671	0.0135253
727.749	0.0135172
727.828	0.0136184
727.906	0.0135503
727.984	0.0135458
728.062	0.0136417
728.140	0.0136975
728.218	0.0136374
728.296	0.0134737
728.374	0.0136300
728.453	0.0136312
728.531	0.0134586
728.609	0.0135666
728.687	0.0136966
728.765	0.0136108
728.843	0.0136789
728.921	0.0135966
728.999	0.0135749
729.078	0.0135042
729.156	0.0134369
729.234	0.0133686
729.312	0.0134507
729.390	0.0135685
729.468	0.0134956
729.546	0.0134890
729.624	0.0135239
729.703	0.0135519
729.781	0.0135616
729.859	0.0134724
729.937	0.0134677
730.015	0.0133823
730.093	0.0135455
730.171	0.0135451
730.249	0.0135956
730.328	0.0135502
730.406	0.0135501
730.484	0.0134772
730.562	0.0134763
730.640	0.0137203
730.718	0.0136323
730.796	0.0135283
730.874	0.0135445
730.953	0.0135629
731.031	0.0135590
731.109	0.0136264
731.187	0.0135305
731.265	0.0135295
731.343	0.0135406
731.421	0.0136459
731.499	0.0135763
731.578	0.0135440
731.656	0.0135435
731.734	0.0135563
731.812	0.0136645
731.890	0.0135239
731.968	0.0135272
732.046	0.0135487
732.124	0.0135017
732.203	0.0135317
732.281	0.0134658
732.359	0.0134586
732.437	0.0134844
732.515	0.0134900
732.593	0.0135272
732.671	0.0135963
732.749	0.0135955
732.828	0.0136295
732.906	0.0135555
732.984	0.0135474
733.062	0.0136769
733.140	0.0137302
733.218	0.0138425
733.296	0.0135808
733.374	0.0137537
733.453	0.0137133
733.531	0.0136112
733.609	0.0136272
733.687	0.0135378
733.765	0.0135881
733.843	0.0135398
733.921	0.0135502
733.999	0.0135517
734.078	0.0135114
734.156	0.0135243
734.234	0.0134580
734.312	0.0135483
734.390	0.0134866
734.468	0.0135507
734.546	0.0136130
734.624	0.0135445
734.703	0.0136141
734.781	0.0136147
734.859	0.0134919
734.937	0.0136295
735.015	0.0137064
735.093	0.0136229
735.171	0.0136405
735.249	0.0136902
735.328	0.0137055
735.406	0.0136761
735.484	0.0135497
735.562	0.0135795
735.640	0.0136832
735.718	0.0136324
735.796	0.0134066
735.874	0.0135194
735.953	0.0134772
736.031	0.0134818
736.109	0.0134893
736.187	0.0135074
736.265	0.0133984
736.343	0.0133865
736.421	0.0134869
736.499	0.0133766
736.578	0.0134870
736.656	0.0134078
736.734	0.0135226
736.812	0.0134355
736.890	0.0135870
736.968	0.0135683
737.046	0.0136453
737.124	0.0134779
737.203	0.0135133
737.281	0.0136446
737.359	0.0137034
737.437	0.0136381
737.515	0.0136951
737.593	0.0136403
737.671	0.0135559
737.749	0.0136420
737.828	0.0136529
737.906	0.0135976
737.984	0.0138400
738.062	0.0136645
738.140	0.0137022
738.218	0.0135914
738.296	0.0136905
738.374	0.0136169
738.453	0.0134512
738.531	0.0135783
738.609	0.0135726
738.687	0.0136899
738.765	0.0137234
738.843	0.0134983
738.921	0.0135385
738.999	0.0135232
739.078	0.0134751
739.156	0.0135624
739.234	0.0134980
739.312	0.0135535
739.390	0.0135999
739.468	0.0134589
739.546	0.0135007
739.624	0.0136012
739.703	0.0136526
739.781	0.0135201
739.859	0.0133580
739.937	0.0137032
740.015	0.0135620
740.093	0.0136981
740.171	0.0137138
740.249	0.0136872
740.328	0.0137081
740.406	0.0136439
740.484	0.0137772
740.562	0.0137992
740.640	0.0138626
740.718	0.0136156
740.796	0.0136083
740.874	0.0136181
740.953	0.0135635
741.031	0.0137025
741.109	0.0135606
741.187	0.0136449
741.265	0.0135249
741.343	0.0136624
741.421	0.0134037
741.499	0.0135098
741.578	0.0135902
741.656	0.0134989
741.734	0.0133944
741.812	0.0135591
741.890	0.0134883
741.968	0.0135801
742.046	0.0134740
742.124	0.0135580
742.203	0.0137166
742.281	0.0136652
742.359	0.0136926
742.437	0.0136455
742.515	0.0137105
742.593	0.0137763
742.671	0.0136596
742.749	0.0136942
742.828	0.0136835
742.906	0.0137016
742.984	0.0136044
743.062	0.0136745
743.140	0.0135830
743.218	0.0136481
743.296	0.0135473
743.374	0.0137115
743.453	0.0136245
743.531	0.0135735
743.609	0.0135825
743.687	0.0137330
743.765	0.0136765
743.843	0.0135902
743.921	0.0136186
743.999	0.0135814
744.078	0.0136367
744.156	0.0138138
744.234	0.0135835
744.312	0.0138116
744.390	0.0137457
744.468	0.0135663
744.546	0.0136639
744.624	0.0135045
744.703	0.0134950
744.781	0.0134307
744.859	0.0135545
744.937	0.0135490
745.015	0.0135479
745.093	0.0135553
745.171	0.0133974
745.249	0.0134022
745.328	0.0134867
745.406	0.0134843
745.484	0.0133669
745.562	0.0133138
745.640	0.0136524
745.718	0.0134621
745.796	0.0134902
745.874	0.0135692
745.953	0.0135254
746.031	0.0134113
746.109	0.0134158
746.187	0.0135583
746.265	0.0134774
746.343	0.0135219
746.421	0.0135331
746.499	0.0134600
746.578	0.0134286
746.656	0.0134603
746.734	0.0135038
746.812	0.0134969
746.890	0.0135052
746.968	0.0136771
747.046	0.0136057
747.124	0.0136679
747.203	0.0136009
747.281	0.0136439
747.359	0.0135958
747.437	0.0137003
747.515	0.0136544
747.593	0.0137090
747.671	0.0136517
747.749	0.0136983
747.828	0.0137444
747.906	0.0136969
747.984	0.0135570
748.062	0.0136933
748.140	0.0138219
748.218	0.0137391
748.296	0.0135965
748.374	0.0136200
748.453	0.0136390
748.531	0.0136164
748.609	0.0136421
748.687	0.0135204
748.765	0.0137467
748.843	0.0135647
748.921	0.0134967
748.999	0.0134389
749.078	0.0135871
749.156	0.0134181
749.234	0.0132662
749.312	0.0135073
749.390	0.0135520
749.468	0.0133564
749.546	0.0135303
749.624	0.0134487
749.703	0.0134987
749.781	0.0135470
749.859	0.0134637
749.937	0.0135478
750.015	0.0134818
750.093	0.0135198
750.171	0.0135345
750.249	0.0133785
750.328	0.0134932
750.406	0.0135880
750.484	0.0135995
750.562	0.0135346
750.640	0.0135563
750.718	0.0135526
750.796	0.0135885
750.874	0.0135114
750.953	0.0134079
751.031	0.0135117
751.109	0.0135475
751.187	0.0136083
751.265	0.0136025
751.343	0.0135661
751.421	0.0137163
751.499	0.0134567
751.578	0.0135085
751.656	0.0135979
751.734	0.0135895
751.812	0.0134721
751.890	0.0135899
751.968	0.0135260
752.046	0.0135752
752.124	0.0135187
752.203	0.0135670
752.281	0.0135752
752.359	0.0134827
752.437	0.0135573
752.515	0.0135655
752.593	0.0137305
752.671	0.0135361
752.749	0.0136282
752.828	0.0135925
752.906	0.0137339
752.984	0.0137123
753.062	0.0136443
753.140	0.0136671
753.218	0.0136465
753.296	0.0136149
753.374	0.0136988
753.453	0.0136070
753.531	0.0135836
753.609	0.0136143
753.687	0.0135351
753.765	0.0135049
753.843	0.0135575
753.921	0.0136802
753.999	0.0134408
754.078	0.0135919
754.156	0.0134197
754.234	0.0135108
754.312	0.0135368
754.390	0.0134387
754.468	0.0134946
754.546	0.0135818
754.624	0.0135250
754.703	0.0135306
754.781	0.0133572
754.859	0.0135589
754.937	0.0134975
755.015	0.0134283
755.093	0.0135346
755.171	0.0136638
755.249	0.0135371
755.328	0.0136742
755.406	0.0135498
755.484	0.0134817
755.562	0.0135160
755.640	0.0134502
755.718	0.0135551
755.796	0.0135870
755.874	0.0135981
755.953	0.0136988
756.031	0.0136135
756.109	0.0136426
756.187	0.0135852
756.265	0.0135519
756.343	0.0135815
756.421	0.0136388
756.499	0.0135906
756.578	0.0135790
756.656	0.0136404
756.734	0.0136196
756.812	0.0137033
756.890	0.0136781
756.968	0.0136807
757.046	0.0137221
757.124	0.0136626
757.203	0.0135603
757.281	0.0137567
757.359	0.0136449
757.437	0.0136731
757.515	0.0137956
757.593	0.0136112
757.671	0.0135732
757.749	0.0135853
757.828	0.0135020
757.906	0.0134781
757.984	0.0134616
758.062	0.0134266
758.140	0.0134673
758.218	0.0134323
758.296	0.0134044
758.374	0.0133334
758.453	0.0133484
758.531	0.0133516
758.609	0.0134979
758.687	0.0135950
758.765	0.0135812
758.843	0.0134705
758.921	0.0136598
758.999	0.0134733
759.078	0.0134201
759.156	0.0135997
759.234	0.0136471
759.312	0.0135664
759.390	0.0136514
759.468	0.0136939
759.546	0.0134461
759.624	0.0136040
759.703	0.0136447
759.781	0.0136137
759.859	0.0136141
759.937	0.0135765
760.015	0.0137301
760.093	0.0136086
760.171	0.0136428
760.249	0.0137550
760.328	0.0135736
760.406	0.0135227
760.484	0.0136361
760.562	0.0136517
760.640	0.0135575
760.718	0.0135703
760.796	0.0135915
760.874	0.0137207
760.953	0.0135954
761.031	0.0134944
761.109	0.0136016
761.187	0.0135750
761.265	0.0134408
761.343	0.0135697
761.421	0.0135228
761.499	0.0134501
761.578	0.0134509
761.656	0.0136563
761.734	0.0136202
761.812	0.0135067
761.890	0.0135374
761.968	0.0134295
762.046	0.0135722
762.124	0.0136221
762.203	0.0136571
762.281	0.0136962
762.359	0.0138651
762.437	0.0136724
762.515	0.0137476
762.593	0.0136372
762.671	0.0136779
762.749	0.0137254
762.828	0.0137382
762.906	0.0136349
762.984	0.0137206
763.062	0.0135935
763.140	0.0136945
763.218	0.0136388
763.296	0.0136063
763.374	0.0136246
763.453	0.0135658
763.531	0.0134447
763.609	0.0135078
763.687	0.0136465
763.765	0.0137378
763.843	0.0136922
763.921	0.0135593
763.999	0.0135192
764.078	0.0136246
764.156	0.0137478
764.234	0.0136485
764.312	0.0137047
764.390	0.0136541
764.468	0.0136508
764.546	0.0136531
764.624	0.0135054
764.703	0.0135225
764.781	0.0135128
764.859	0.0136008
764.937	0.0135877
765.015	0.0135970
765.093	0.0136102
765.171	0.0135979
765.249	0.0135851
765.328	0.0136713
765.406	0.0136162
765.484	0.0136382
765.562	0.0137887
765.640	0.0136530
765.718	0.0137645
765.796	0.0137205
765.874	0.0136748
765.953	0.0136577
766.031	0.0135656
766.109	0.0136153
766.187	0.0137218
766.265	0.0136711
766.343	0.0135722
766.421	0.0135514
766.499	0.0135970
766.578	0.0136243
766.656	0.0135412
766.734	0.0135592
766.812	0.0135652
766.890	0.0136071
766.968	0.0136263
767.046	0.0135595
767.124	0.0135448
767.203	0.0137979
767.281	0.0137062
767.359	0.0136246
767.437	0.0136916
767.515	0.0137368
767.593	0.0135325
767.671	0.0135709
767.749	0.0135016
767.828	0.0136252
767.906	0.0134410
767.984	0.0134754
768.062	0.0135693
768.140	0.0134843
768.218	0.0136433
768.296	0.0134591
768.374	0.0135220
768.453	0.0135902
768.531	0.0134747
768.609	0.0134177
768.687	0.0134891
768.765	0.0134879
768.843	0.0135366
768.921	0.0135544
768.999	0.0134855
769.078	0.0133666
769.156	0.0135863
769.234	0.0135154
769.312	0.0136333
769.390	0.0135331
769.468	0.0135889
769.546	0.0136866
769.624	0.0137181
769.703	0.0137033
769.781	0.0137052
769.859	0.0136709
769.937	0.0136653
770.015	0.0137582
770.093	0.0137450
770.171	0.0135297
770.249	0.0136317
770.328	0.0135861
770.406	0.0136050
770.484	0.0136708
770.562	0.0136621
770.640	0.0135236
770.718	0.0135582
770.796	0.0134529
770.874	0.0135475
770.953	0.0136024
771.031	0.0136199
771.109	0.0136448
771.187	0.0134525
771.265	0.0134838
771.343	0.0134455
771.421	0.0134624
771.499	0.0133929
771.578	0.0137058
771.656	0.0136576
771.734	0.0136236
771.812	0.0136314
771.890	0.0135085
771.968	0.0134305
772.046	0.0136137
772.124	0.0135515
772.203	0.0135190
772.281	0.0136513
772.359	0.0135442
772.437	0.0134443
772.515	0.0135836
772.593	0.0136681
772.671	0.0134913
772.749	0.0136092
772.828	0.0136560
772.906	0.0135116
772.984	0.0135321
773.062	0.0136880
773.140	0.0136073
773.218	0.0137135
773.296	0.0136723
773.374	0.0136942
773.453	0.0136620
773.531	0.0137318
773.609	0.0137147
773.687	0.0137420
773.765	0.0137057
773.843	0.0137311
773.921	0.0138440
773.999	0.0136505
774.078	0.0137093
774.156	0.0135651
774.234	0.0135422
774.312	0.0135228
774.390	0.0136569
774.468	0.0136857
774.546	0.0134102
774.624	0.0136289
774.703	0.0135534
774.781	0.0135299
774.859	0.0134634
774.937	0.0135701
775.015	0.0135165
775.093	0.0135772
775.171	0.0134727
775.249	0.0135460
775.328	0.0135962
775.406	0.0134862
775.484	0.0135535
775.562	0.0136146
775.640	0.0136430
775.718	0.0137341
775.796	0.0136014
775.874	0.0135748
775.953	0.0136812
776.031	0.0136507
776.109	0.0137265
776.187	0.0136182
776.265	0.0138948
776.343	0.0136771
776.421	0.0136521
776.499	0.0136084
776.578	0.0136480
776.656	0.0137421
776.734	0.0136640
776.812	0.0135084
776.890	0.0135101
776.968	0.0136167
777.046	0.0137115
777.124	0.0136834
777.203	0.0136074
777.281	0.0136292
777.359	0.0135889
777.437	0.0135863
777.515	0.0135248
777.593	0.0136343
777.671	0.0136619
777.749	0.0134941
777.828	0.0135057
777.906	0.0136433
777.984	0.0137156
778.062	0.0136141
778.140	0.0136212
778.218	0.0136159
778.296	0.0136343
778.374	0.0136341
778.453	0.0137199
778.531	0.0136904
778.609	0.0136476
778.687	0.0135770
778.765	0.0136802
778.843	0.0136687
778.921	0.0135986
778.999	0.0136842
779.078	0.0137537
779.156	0.0136131
779.234	0.0135539
779.312	0.0135909
779.390	0.0136908
779.468	0.0137460
779.546	0.0136258
779.624	0.0137387
779.703	0.0136269
779.781	0.0136560
779.859	0.0136799
779.937	0.0137269
780.015	0.0136423
780.093	0.0135676
780.171	0.0134888
780.249	0.0136402
780.328	0.0135640
780.406	0.0135704
780.484	0.0135686
780.562	0.0136443
780.640	0.0134612
780.718	0.0134288
780.796	0.0136618
780.874	0.0135715
780.953	0.0135155
781.031	0.0134530
781.109	0.0134712
781.187	0.0134875
781.265	0.0136131
781.343	0.0136127
781.421	0.0134692
781.499	0.0135525
781.578	0.0135255
781.656	0.0134482
781.734	0.0135627
781.812	0.0136400
781.890	0.0136428
781.968	0.0135548
782.046	0.0136346
782.124	0.0135863
782.203	0.0136062
782.281	0.0136919
782.359	0.0136163
782.437	0.0136951
782.515	0.0136546
782.593	0.0137384
782.671	0.0137045
782.749	0.0136736
782.828	0.0135728
782.906	0.0136290
782.984	0.0137537
783.062	0.0136195
783.140	0.0135247
783.218	0.0135875
783.296	0.0136214
783.374	0.0134951
783.453	0.0136172
783.531	0.0136427
783.609	0.0135071
783.687	0.0134831
783.765	0.0134507
783.843	0.0134906
783.921	0.0134828
783.999	0.0135075
784.078	0.0135638
784.156	0.0136008
784.234	0.0135111
784.312	0.0137034
784.390	0.0136672
784.468	0.0136600
784.546	0.0135394
784.624	0.0136037
784.703	0.0135812
784.781	0.0136110
784.859	0.0138565
784.937	0.0135430
785.015	0.0135477
785.093	0.0137358
785.171	0.0135741
785.249	0.0135464
785.328	0.0134787
785.406	0.0136440
785.484	0.0136238
785.562	0.0136062
785.640	0.0135274
785.718	0.0136252
785.796	0.0133675
785.874	0.0135282
785.953	0.0135064
786.031	0.0135086
786.109	0.0135868
786.187	0.0135724
786.265	0.0135279
786.343	0.0136570
786.421	0.0135494
786.499	0.0136343
786.578	0.0135933
786.656	0.0136115
786.734	0.0135960
786.812	0.0136752
786.890	0.0136494
786.968	0.0135808
787.046	0.0135840
787.124	0.0134488
787.203	0.0136005
787.281	0.0135380
787.359	0.0134440
787.437	0.0134727
787.515	0.0134171
787.593	0.0134425
787.671	0.0134407
787.749	0.0135165
787.828	0.0134443
787.906	0.0135439
787.984	0.0135596
788.062	0.0135105
788.140	0.0133944
788.218	0.0137247
788.296	0.0135999
788.374	0.0136376
788.453	0.0134882
788.531	0.0135040
788.609	0.0134952
788.687	0.0135997
788.765	0.0136591
788.843	0.0135533
788.921	0.0136439
788.999	0.0136621
789.078	0.0135758
789.156	0.0135053
789.234	0.0134740
789.312	0.0134705
789.390	0.0135960
789.468	0.0135415
789.546	0.0135858
789.624	0.0135976
789.703	0.0136282
789.781	0.0134452
789.859	0.0135638
789.937	0.0134345
790.015	0.0135908
790.093	0.0134925
790.171	0.0136342
790.249	0.0135184
790.328	0.0134241
790.406	0.0136067
790.484	0.0135973
790.562	0.0134553
790.640	0.0134303
790.718	0.0135440
790.796	0.0136348
790.874	0.0136426
790.953	0.0135836
791.031	0.0135979
791.109	0.0134380
791.187	0.0135292
791.265	0.0136388
791.343	0.0136712
791.421	0.0135795
791.499	0.0135715
791.578	0.0135372
791.656	0.0136194
791.734	0.0136637
791.812	0.0135252
791.890	0.0136665
791.968	0.0135899
792.046	0.0135027
792.124	0.0134617
792.203	0.0135076
792.281	0.0136212
792.359	0.0134234
792.437	0.0134975
792.515	0.0136265
792.593	0.0135863
792.671	0.0136517
792.749	0.0137753
792.828	0.0137534
792.906	0.0136625
792.984	0.0136346
793.062	0.0137631
793.140	0.0137405
793.218	0.0136508
793.296	0.0135365
793.374	0.0134145
793.453	0.0134886
793.531	0.0134515
793.609	0.0135483
793.687	0.0134475
793.765	0.0135246
793.843	0.0134311
793.921	0.0136304
793.999	0.0135057
794.078	0.0134252
794.156	0.0135300
794.234	0.0134879
794.312	0.0135390
794.390	0.0136531
794.468	0.0135487
794.546	0.0137482
794.624	0.0136230
794.703	0.0135841
794.781	0.0137052
794.859	0.0136292
794.937	0.0135682
795.015	0.0137160
795.093	0.0136857
795.171	0.0135925
795.249	0.0136102
795.328	0.0136449
795.406	0.0136085
795.484	0.0135257
795.562	0.0134666
795.640	0.0135838
795.718	0.0135082
795.796	0.0133418
795.874	0.0134273
795.953	0.0135078
796.031	0.0135468
796.109	0.0134404
796.187	0.0135081
796.265	0.0134739
796.343	0.0134034
796.421	0.0135585
796.499	0.0136140
796.578	0.0134270
796.656	0.0134685
796.734	0.0135434
796.812	0.0135848
796.890	0.0136066
796.968	0.0135180
797.046	0.0135687
797.124	0.0135059
797.203	0.0135885
797.281	0.0136698
797.359	0.0137238
797.437	0.0136497
797.515	0.0135506
797.593	0.0136190
797.671	0.0136433
797.749	0.0134782
797.828	0.0134237
797.906	0.0133116
797.984	0.0134157
798.062	0.0134989
798.140	0.0134114
798.218	0.0134264
798.296	0.0134383
798.374	0.0133509
798.453	0.0131997
798.531	0.0132979
798.609	0.0134069
798.687	0.0133356
798.765	0.0134131
798.843	0.0132213
798.921	0.0133345
798.999	0.0136081
799.078	0.0136044
799.156	0.0135078
799.234	0.0134555
799.312	0.0134924
799.390	0.0135418
799.468	0.0135455
799.546	0.0134723
799.624	0.0137193
799.703	0.0137450
799.781	0.0135471
799.859	0.0136923
799.937	0.0136776
800.015	0.0135115
800.093	0.0138070
800.171	0.0135510
800.249	0.0136596
800.328	0.0136028
800.406	0.0135818
800.484	0.0136762
800.562	0.0136609
800.640	0.0137982
800.718	0.0136111
800.796	0.0137212
800.874	0.0136705
800.953	0.0137100
801.031	0.0137274
801.109	0.0138898
801.187	0.0138251
801.265	0.0139658
801.343	0.0138774
801.421	0.0138442
801.499	0.0137347
801.578	0.0137297
801.656	0.0139292
801.734	0.0137784
801.812	0.0137968
801.890	0.0137807
801.968	0.0136966
802.046	0.0136246
802.124	0.0135262
802.203	0.0136171
802.281	0.0136714
802.359	0.0135453
802.437	0.0136736
802.515	0.0133820
802.593	0.0134651
802.671	0.0134811
802.749	0.0136130
802.828	0.0133892
802.906	0.0133609
802.984	0.0134071
803.062	0.0133701
803.140	0.0136264
803.218	0.0135615
803.296	0.0134350
803.374	0.0133772
803.453	0.0135040
803.531	0.0135363
803.609	0.0134493
803.687	0.0134489
803.765	0.0134135
803.843	0.0135480
803.921	0.0135679
803.999	0.0135369
804.078	0.0134798
804.156	0.0133464
804.234	0.0134730
804.312	0.0134402
804.390	0.0135671
804.468	0.0134106
804.546	0.0134892
804.624	0.0134857
804.703	0.0134970
804.781	0.0134990
804.859	0.0134245
804.937	0.0134395
805.015	0.0134406
805.093	0.0134158
805.171	0.0135955
805.249	0.0135158
805.328	0.0135580
805.406	0.0135445
805.484	0.0135065
805.562	0.0135831
805.640	0.0135944
805.718	0.0134459
805.796	0.0136703
805.874	0.0137006
805.953	0.0136478
806.031	0.0135715
806.109	0.0134789
806.187	0.0135679
806.265	0.0135375
806.343	0.0136187
806.421	0.0135804
806.499	0.0135755
806.578	0.0135927
806.656	0.0135059
806.734	0.0137188
806.812	0.0137373
806.890	0.0137473
806.968	0.0135481
807.046	0.0137953
807.124	0.0136436
807.203	0.0135832
807.281	0.0135063
807.359	0.0136308
807.437	0.0135706
807.515	0.0135750
807.593	0.0135661
807.671	0.0136266
807.749	0.0136612
807.828	0.0137491
807.906	0.0135774
807.984	0.0135246
808.062	0.0135993
808.140	0.0135622
808.218	0.0136006
808.296	0.0135440
808.374	0.0135308
808.453	0.0136196
808.531	0.0137412
808.609	0.0136440
808.687	0.0136320
808.765	0.0135961
808.843	0.0136227
808.921	0.0136450
808.999	0.0136571
809.078	0.0136523
809.156	0.0136724
809.234	0.0135861
809.312	0.0136139
809.390	0.0135644
809.468	0.0136267
809.546	0.0134882
809.624	0.0135283
809.703	0.0134781
809.781	0.0134703
809.859	0.0135811
809.937	0.0136099
810.015	0.0136316
810.093	0.0134671
810.171	0.0135487
810.249	0.0135837
810.328	0.0135726
810.406	0.0135958
810.484	0.0135982
810.562	0.0136257
810.640	0.0136216
810.718	0.0136237
810.796	0.0135708
810.874	0.0135440
810.953	0.0134239
811.031	0.0136011
811.109	0.0136659
811.187	0.0136469
811.265	0.0135828
811.343	0.0137090
811.421	0.0136174
811.499	0.0137262
811.578	0.0136578
811.656	0.0135775
811.734	0.0135846
811.812	0.0135805
811.890	0.0136324
811.968	0.0135355
812.046	0.0135664
812.124	0.0134290
812.203	0.0137177
812.281	0.0136134
812.359	0.0135046
812.437	0.0135899
812.515	0.0136446
812.593	0.0136762
812.671	0.0137457
812.749	0.0137002
812.828	0.0136878
812.906	0.0136150
812.984	0.0137257
813.062	0.0137031
813.140	0.0135878
813.218	0.0135770
813.296	0.0136116
813.374	0.0137337
813.453	0.0136856
813.531	0.0136174
813.609	0.0135336
813.687	0.0136111
813.765	0.0135992
813.843	0.0135784
813.921	0.0135074
813.999	0.0134881
814.078	0.0136108
814.156	0.0135109
814.234	0.0134999
814.312	0.0136249
814.390	0.0134275
814.468	0.0133382
814.546	0.0134815
814.624	0.0134114
814.703	0.0136026
814.781	0.0133889
814.859	0.0133131
814.937	0.0134415
815.015	0.0135467
815.093	0.0134382
815.171	0.0134453
815.249	0.0134369
815.328	0.0132893
815.406	0.0136205
815.484	0.0136941
815.562	0.0135789
815.640	0.0135574
815.718	0.0136544
815.796	0.0136600
815.874	0.0136640
815.953	0.0135848
816.031	0.0138162
816.109	0.0137292
816.187	0.0136152
816.265	0.0135239
816.343	0.0136414
816.421	0.0136600
816.499	0.0137079
816.578	0.0135759
816.656	0.0136989
816.734	0.0137148
816.812	0.0135876
816.890	0.0135490
816.968	0.0135464
817.046	0.0137146
817.124	0.0136742
817.203	0.0135244
817.281	0.0136884
817.359	0.0137576
817.437	0.0137027
817.515	0.0137922
817.593	0.0136279
817.671	0.0136738
817.749	0.0136504
817.828	0.0135950
817.906	0.0137247
817.984	0.0136978
818.062	0.0136546
818.140	0.0136949
818.218	0.0134740
818.296	0.0135849
818.374	0.0135163
818.453	0.0135261
818.531	0.0135975
818.609	0.0134674
818.687	0.0135276
818.765	0.0137351
818.843	0.0137280
818.921	0.0135935
818.999	0.0135956
819.078	0.0135973
819.156	0.0136350
819.234	0.0135210
819.312	0.0136226
819.390	0.0135010
819.468	0.0135888
819.546	0.0135433
819.624	0.0134320
819.703	0.0135061
819.781	0.0135687
819.859	0.0134808
819.937	0.0134121
820.015	0.0133492
820.093	0.0134061
820.171	0.0135849
820.249	0.0135488
820.328	0.0134338
820.406	0.0133777
820.484	0.0134341
820.562	0.0134637
820.640	0.0135354
820.718	0.0135117
820.796	0.0135165
820.874	0.0134921
820.953	0.0135978
821.031	0.0133992
821.109	0.0132896
821.187	0.0134536
821.265	0.0134264
821.343	0.0134740
821.421	0.0134748
821.499	0.0135493
821.578	0.0135898
821.656	0.0134025
821.734	0.0134459
821.812	0.0134264
821.890	0.0134904
821.968	0.0134413
822.046	0.0134945
822.124	0.0134945
822.203	0.0134554
822.281	0.0135802
822.359	0.0135078
822.437	0.0135209
822.515	0.0136190
822.593	0.0135008
822.671	0.0135461
822.749	0.0136986
822.828	0.0134763
822.906	0.0135303
822.984	0.0135415
823.062	0.0135774
823.140	0.0136132
823.218	0.0136964
823.296	0.0136990
823.374	0.0136101
823.453	0.0137167
823.531	0.0136559
823.609	0.0135593
823.687	0.0136305
823.765	0.0136272
823.843	0.0137632
823.921	0.0137236
823.999	0.0136677
824.078	0.0137093
824.156	0.0137126
824.234	0.0135509
824.312	0.0135552
824.390	0.0135773
824.468	0.0136089
824.546	0.0136084
824.624	0.0135147
824.703	0.0135860
824.781	0.0135548
824.859	0.0135466
824.937	0.0134901
825.015	0.0135644
825.093	0.0135542
825.171	0.0135411
825.249	0.0135410
825.328	0.0135997
825.406	0.0134454
825.484	0.0134651
825.562	0.0134586
825.640	0.0135210
825.718	0.0136287
825.796	0.0135707
825.874	0.0134912
825.953	0.0134740
826.031	0.0134650
826.109	0.0134354
826.187	0.0135033
826.265	0.0134657
826.343	0.0133656
826.421	0.0134949
826.499	0.0134827
826.578	0.0135275
826.656	0.0133951
826.734	0.0134489
826.812	0.0132873
826.890	0.0135265
826.968	0.0134042
827.046	0.0134015
827.124	0.0136539
827.203	0.0133520
827.281	0.0135690
827.359	0.0136450
827.437	0.0137180
827.515	0.0136176
827.593	0.0134347
827.671	0.0136554
827.749	0.0136190
827.828	0.0134504
827.906	0.0134945
827.984	0.0135555
828.062	0.0135766
828.140	0.0136877
828.218	0.0136076
828.296	0.0135744
828.374	0.0135451
828.453	0.0136161
828.531	0.0137192
828.609	0.0134848
828.687	0.0135822
828.765	0.0135681
828.843	0.0135651
828.921	0.0135802
828.999	0.0135935
829.078	0.0136234
829.156	0.0136807
829.234	0.0135539
829.312	0.0135235
829.390	0.0135971
829.468	0.0135564
829.546	0.0135877
829.624	0.0136647
829.703	0.0137016
829.781	0.0136301
829.859	0.0135412
829.937	0.0135867
830.015	0.0136498
830.093	0.0135631
830.171	0.0134732
830.249	0.0137167
830.328	0.0135078
830.406	0.0135329
830.484	0.0134981
830.562	0.0135748
830.640	0.0135471
830.718	0.0136794
830.796	0.0137887
830.874	0.0136980
830.953	0.0137173
831.031	0.0138360
831.109	0.0136803
831.187	0.0136105
831.265	0.0136137
831.343	0.0136504
831.421	0.0135111
831.499	0.0137994
831.578	0.0136702
831.656	0.0136757
831.734	0.0137035
831.812	0.0136850
831.890	0.0136797
831.968	0.0137148
832.046	0.0137392
832.124	0.0138462
832.203	0.0137428
832.281	0.0138210
832.359	0.0136617
832.437	0.0138612
832.515	0.0137430
832.593	0.0136799
832.671	0.0136766
832.749	0.0137242
832.828	0.0138376
832.906	0.0137119
832.984	0.0135979
833.062	0.0137828
833.140	0.0136752
833.218	0.0137608
833.296	0.0136344
833.374	0.0136752
833.453	0.0137579
833.531	0.0137434
833.609	0.0136868
833.687	0.0136465
833.765	0.0137013
833.843	0.0137095
833.921	0.0136241
833.999	0.0136933
834.078	0.0135925
834.156	0.0136742
834.234	0.0135814
834.312	0.0136441
834.390	0.0137650
834.468	0.0138073
834.546	0.0135976
834.624	0.0136050
834.703	0.0137218
834.781	0.0137257
834.859	0.0136305
834.937	0.0136330
835.015	0.0137146
835.093	0.0138239
835.171	0.0136854
835.249	0.0135040
835.328	0.0136341
835.406	0.0135796
835.484	0.0136150
835.562	0.0137386
835.640	0.0134849
835.718	0.0136443
835.796	0.0135403
835.874	0.0136533
835.953	0.0136459
836.031	0.0135861
836.109	0.0136545
836.187	0.0136932
836.265	0.0135904
836.343	0.0135212
836.421	0.0135531
836.499	0.0135741
836.578	0.0136636
836.656	0.0136614
836.734	0.0135137
836.812	0.0136272
836.890	0.0136339
836.968	0.0136519
837.046	0.0135340
837.124	0.0136172
837.203	0.0137562
837.281	0.0137127
837.359	0.0137090
837.437	0.0136966
837.515	0.0135829
837.593	0.0136848
837.671	0.0135376
837.749	0.0135071
837.828	0.0135139
837.906	0.0133936
837.984	0.0135749
838.062	0.0134909
838.140	0.0135476
838.218	0.0135323
838.296	0.0136253
838.374	0.0136398
838.453	0.0136610
838.531	0.0136987
838.609	0.0137587
838.687	0.0136622
838.765	0.0136619
838.843	0.0135769
838.921	0.0137689
838.999	0.0137141
839.078	0.0136633
839.156	0.0136451
839.234	0.0136884
839.312	0.0136937
839.390	0.0136537
839.468	0.0134852
839.546	0.0135889
839.624	0.0135431
839.703	0.0136335
839.781	0.0135661
839.859	0.0135599
839.937	0.0136677
840.015	0.0136730
840.093	0.0137039
840.171	0.0136925
840.249	0.0136172
840.328	0.0136660
840.406	0.0136473
840.484	0.0137280
840.562	0.0137131
840.640	0.0136182
840.718	0.0137035
840.796	0.0136644
840.874	0.0136868
840.953	0.0136203
841.031	0.0136173
841.109	0.0135423
841.187	0.0136539
841.265	0.0137343
841.343	0.0137258
841.421	0.0136806
841.499	0.0136206
841.578	0.0136201
841.656	0.0137450
841.734	0.0136287
841.812	0.0136406
841.890	0.0136377
841.968	0.0136416
842.046	0.0136341
842.124	0.0136504
842.203	0.0135291
842.281	0.0135803
842.359	0.0136737
842.437	0.0135772
842.515	0.0135492
842.593	0.0136127
842.671	0.0135560
842.749	0.0136018
842.828	0.0135976
842.906	0.0135606
842.984	0.0136543
843.062	0.0135520
843.140	0.0135724
843.218	0.0135759
843.296	0.0137317
843.374	0.0136942
843.453	0.0137527
843.531	0.0136356
843.609	0.0137137
843.687	0.0136356
843.765	0.0136775
843.843	0.0136726
843.921	0.0136077
843.999	0.0136713
844.078	0.0137701
844.156	0.0136149
844.234	0.0134695
844.312	0.0135909
844.390	0.0135743
844.468	0.0135927
844.546	0.0135773
844.624	0.0134732
844.703	0.0135398
844.781	0.0135778
844.859	0.0136577
844.937	0.0136013
845.015	0.0136084
845.093	0.0136990
845.171	0.0137704
845.249	0.0134953
845.328	0.0137048
845.406	0.0136257
845.484	0.0136185
845.562	0.0135178
845.640	0.0135545
845.718	0.0135907
845.796	0.0135173
845.874	0.0135558
845.953	0.0135361
846.031	0.0135844
846.109	0.0136587
846.187	0.0134677
846.265	0.0136493
846.343	0.0134899
846.421	0.0134760
846.499	0.0135253
846.578	0.0137315
846.656	0.0136726
846.734	0.0135720
846.812	0.0136121
846.890	0.0135638
846.968	0.0134717
847.046	0.0136433
847.124	0.0136073
847.203	0.0135418
847.281	0.0136733
847.359	0.0136704
847.437	0.0135844
847.515	0.0135143
847.593	0.0136577
847.671	0.0136721
847.749	0.0136921
847.828	0.0135481
847.906	0.0136370
847.984	0.0137062
848.062	0.0135835
848.140	0.0135677
848.218	0.0135672
848.296	0.0136916
848.374	0.0135789
848.453	0.0137772
848.531	0.0136658
848.609	0.0136549
848.687	0.0136613
848.765	0.0137265
848.843	0.0136568
848.921	0.0136744
848.999	0.0136040
849.078	0.0136131
849.156	0.0135943
849.234	0.0136493
849.312	0.0135491
849.390	0.0136842
849.468	0.0135382
849.546	0.0135802
849.624	0.0136803
849.703	0.0137193
849.781	0.0136798
849.859	0.0135923
849.937	0.0136469
850.015	0.0135281
850.093	0.0136140
850.171	0.0136611
850.249	0.0136170
850.328	0.0136921
850.406	0.0137032
850.484	0.0136906
850.562	0.0135583
850.640	0.0136430
850.718	0.0136481
850.796	0.0135229
850.874	0.0135950
850.953	0.0136667
851.031	0.0137167
851.109	0.0135884
851.187	0.0135517
851.265	0.0136511
851.343	0.0136388
851.421	0.0134315
851.499	0.0136317
851.578	0.0135417
851.656	0.0135553
851.734	0.0136511
851.812	0.0134728
851.890	0.0137724
851.968	0.0136585
852.046	0.0134166
852.124	0.0135529
852.203	0.0135686
852.281	0.0134789
852.359	0.0136600
852.437	0.0137460
852.515	0.0137025
852.593	0.0136089
852.671	0.0136150
852.749	0.0136474
852.828	0.0135474
852.906	0.0137276
852.984	0.0136858
853.062	0.0136147
853.140	0.0137364
853.218	0.0135768
853.296	0.0136996
853.374	0.0136566
853.453	0.0136904
853.531	0.0139307
853.609	0.0139530
853.687	0.0137164
853.765	0.0136520
853.843	0.0136039
853.921	0.0136362
853.999	0.0138312
854.078	0.0136491
854.156	0.0136845
854.234	0.0136429
854.312	0.0136700
854.390	0.0135849
854.468	0.0135680
854.546	0.0136482
854.624	0.0137569
854.703	0.0134770
854.781	0.0135125
854.859	0.0137502
854.937	0.0136954
855.015	0.0137288
855.093	0.0136788
855.171	0.0135027
855.249	0.0136369
855.328	0.0137233
855.406	0.0136075
855.484	0.0136222
855.562	0.0135178
855.640	0.0135251
855.718	0.0135947
855.796	0.0135458
855.874	0.0135232
855.953	0.0136246
856.031	0.0135522
856.109	0.0134186
856.187	0.0135326
856.265	0.0136044
856.343	0.0135707
856.421	0.0135709
856.499	0.0134782
856.578	0.0137141
856.656	0.0135342
856.734	0.0136145
856.812	0.0136445
856.890	0.0134504
856.968	0.0135396
857.046	0.0136250
857.124	0.0137354
857.203	0.0137263
857.281	0.0135739
857.359	0.0137161
857.437	0.0136891
857.515	0.0135781
857.593	0.0136870
857.671	0.0137355
857.749	0.0136198
857.828	0.0136076
857.906	0.0135482
857.984	0.0135409
858.062	0.0135598
858.140	0.0135394
858.218	0.0135513
858.296	0.0136090
858.374	0.0136887
858.453	0.0136205
858.531	0.0134937
858.609	0.0135109
858.687	0.0136057
858.765	0.0136589
858.843	0.0136313
858.921	0.0136036
858.999	0.0136584
859.078	0.0136243
859.156	0.0136740
859.234	0.0136483
859.312	0.0135519
859.390	0.0137274
859.468	0.0136908
859.546	0.0135306
859.624	0.0136140
859.703	0.0136120
859.781	0.0135668
859.859	0.0136123
859.937	0.0136314
860.015	0.0135616
860.093	0.0135579
860.171	0.0136096
860.249	0.0136641
860.328	0.0135845
860.406	0.0135371
860.484	0.0136629
860.562	0.0135963
860.640	0.0135633
860.718	0.0137215
860.796	0.0137238
860.874	0.0136490
860.953	0.0135672
861.031	0.0137168
861.109	0.0137287
861.187	0.0138235
861.265	0.0136030
861.343	0.0137422
861.421	0.0137918
861.499	0.0135948
861.578	0.0136644
861.656	0.0138019
861.734	0.0137546
861.812	0.0136761
861.890	0.0137281
861.968	0.0135385
862.046	0.0136471
862.124	0.0135890
862.203	0.0135786
862.281	0.0136116
862.359	0.0137531
862.437	0.0136518
862.515	0.0137424
862.593	0.0136670
862.671	0.0136327
862.749	0.0137428
862.828	0.0135862
862.906	0.0136478
862.984	0.0137223
863.062	0.0136522
863.140	0.0136681
863.218	0.0137354
863.296	0.0136360
863.374	0.0136087
863.453	0.0136311
863.531	0.0135520
863.609	0.0134681
863.687	0.0134390
863.765	0.0136316
863.843	0.0134711
863.921	0.0135316
863.999	0.0135717
864.078	0.0136030
864.156	0.0134315
864.234	0.0135635
864.312	0.0134726
864.390	0.0134523
864.468	0.0134760
864.546	0.0134491
864.624	0.0134825
864.703	0.0134749
864.781	0.0135094
864.859	0.0135657
864.937	0.0136012
865.015	0.0135612
865.093	0.0135410
865.171	0.0136173
865.249	0.0135571
865.328	0.0134702
865.406	0.0137263
865.484	0.0137521
865.562	0.0135601
865.640	0.0136366
865.718	0.0137083
865.796	0.0135764
865.874	0.0135358
865.953	0.0136298
866.031	0.0136020
866.109	0.0135126
866.187	0.0135413
866.265	0.0134944
866.343	0.0135762
866.421	0.0135563
866.499	0.0136555
866.578	0.0136292
866.656	0.0135281
866.734	0.0136553
866.812	0.0134133
866.890	0.0134906
866.968	0.0136950
867.046	0.0137463
867.124	0.0135728
867.203	0.0136078
867.281	0.0136173
867.359	0.0136385
867.437	0.0136691
867.515	0.0135976
867.593	0.0136324
867.671	0.0137140
867.749	0.0134900
867.828	0.0135245
867.906	0.0135503
867.984	0.0135091
868.062	0.0136670
868.140	0.0134490
868.218	0.0135126
868.296	0.0135590
868.374	0.0135924
868.453	0.0134141
868.531	0.0135617
868.609	0.0137337
868.687	0.0136764
868.765	0.0135832
868.843	0.0135391
868.921	0.0136683
868.999	0.0136449
869.078	0.0136281
869.156	0.0136436
869.234	0.0137130
869.312	0.0136263
869.390	0.0136284
869.468	0.0138272
869.546	0.0137505
869.624	0.0136294
869.703	0.0136376
869.781	0.0137239
869.859	0.0136953
869.937	0.0137818
870.015	0.0136044
870.093	0.0137177
870.171	0.0136762
870.249	0.0136189
870.328	0.0136394
870.406	0.0137146
870.484	0.0135974
870.562	0.0136819
870.640	0.0136572
870.718	0.0136349
870.796	0.0136706
870.874	0.0135726
870.953	0.0135874
871.031	0.0136718
871.109	0.0137332
871.187	0.0135188
871.265	0.0137437
871.343	0.0138119
871.421	0.0137910
871.499	0.0137128
871.578	0.0136234
871.656	0.0137341
871.734	0.0136614
871.812	0.0136420
871.890	0.0136274
871.968	0.0137170
872.046	0.0136555
872.124	0.0136076
872.203	0.0136127
872.281	0.0136268
872.359	0.0135170
872.437	0.0136250
872.515	0.0135304
872.593	0.0135915
872.671	0.0136733
872.749	0.0135437
872.828	0.0136417
872.906	0.0135889
872.984	0.0136356
873.062	0.0135588
873.140	0.0136171
873.218	0.0136766
873.296	0.0135506
873.374	0.0136769
873.453	0.0137623
873.531	0.0136724
873.609	0.0135768
873.687	0.0135409
873.765	0.0137010
873.843	0.0135952
873.921	0.0136188
873.999	0.0136466
874.078	0.0136107
874.156	0.0135197
874.234	0.0135594
874.312	0.0135569
874.390	0.0135754
874.468	0.0134065
874.546	0.0134904
874.624	0.0135411
874.703	0.0136765
874.781	0.0135220
874.859	0.0134881
874.937	0.0135117
875.015	0.0135921
875.093	0.0136097
875.171	0.0134709
875.249	0.0134616
875.328	0.0136579
875.406	0.0136901
875.484	0.0135654
875.562	0.0135108
875.640	0.0136311
875.718	0.0136546
875.796	0.0134962
875.874	0.0134202
875.953	0.0135374
876.031	0.0135960
876.109	0.0135342
876.187	0.0135150
876.265	0.0134908
876.343	0.0134364
876.421	0.0134511
876.499	0.0135092
876.578	0.0133677
876.656	0.0135275
876.734	0.0135004
876.812	0.0134726
876.890	0.0135148
876.968	0.0134459
877.046	0.0134499
877.124	0.0134355
877.203	0.0134357
877.281	0.0134251
877.359	0.0134313
877.437	0.0135970
877.515	0.0134447
877.593	0.0134245
877.671	0.0134764
877.749	0.0135474
877.828	0.0134861
877.906	0.0134966
877.984	0.0133971
878.062	0.0135079
878.140	0.0137055
878.218	0.0135604
878.296	0.0136526
878.374	0.0135601
878.453	0.0135120
878.531	0.0136263
878.609	0.0134778
878.687	0.0134248
878.765	0.0136319
878.843	0.0134568
878.921	0.0135789
878.999	0.0136201
879.078	0.0134995
879.156	0.0137233
879.234	0.0135256
879.312	0.0136043
879.390	0.0137148
879.468	0.0136198
879.546	0.0136724
879.624	0.0137669
879.703	0.0137303
879.781	0.0136703
879.859	0.0135961
879.937	0.0135829
880.015	0.0133800
880.093	0.0135258
880.171	0.0134354
880.249	0.0135085
880.328	0.0133429
880.406	0.0133582
880.484	0.0132829
880.562	0.0132968
880.640	0.0134816
880.718	0.0134598
880.796	0.0135150
880.874	0.0134778
880.953	0.0133293
881.031	0.0136452
881.109	0.0136934
881.187	0.0135173
881.265	0.0135751
881.343	0.0136465
881.421	0.0135167
881.499	0.0134654
881.578	0.0136118
881.656	0.0134520
881.734	0.0134164
881.812	0.0135249
881.890	0.0134994
881.968	0.0133546
882.046	0.0134544
882.124	0.0136205
882.203	0.0133663
882.281	0.0135413
882.359	0.0135075
882.437	0.0135744
882.515	0.0136274
882.593	0.0135428
882.671	0.0135414
882.749	0.0137093
882.828	0.0135574
882.906	0.0135726
882.984	0.0135829
883.062	0.0136732
883.140	0.0137362
883.218	0.0135580
883.296	0.0134847
883.374	0.0136348
883.453	0.0135352
883.531	0.0135189
883.609	0.0136186
883.687	0.0136008
883.765	0.0136084
883.843	0.0137489
883.921	0.0135909
883.999	0.0136168
884.078	0.0137296
884.156	0.0137328
884.234	0.0136601
884.312	0.0137447
884.390	0.0137293
884.468	0.0135438
884.546	0.0136226
884.624	0.0136823
884.703	0.0137127
884.781	0.0135554
884.859	0.0136498
884.937	0.0136503
885.015	0.0136904
885.093	0.0137753
885.171	0.0136130
885.249	0.0136367
885.328	0.0136156
885.406	0.0135042
885.484	0.0136421
885.562	0.0135031
885.640	0.0134263
885.718	0.0135937
885.796	0.0134792
885.874	0.0135631
885.953	0.0135168
886.031	0.0134663
886.109	0.0134751
886.187	0.0135172
886.265	0.0135732
886.343	0.0135386
886.421	0.0135111
886.499	0.0135635
886.578	0.0134424
886.656	0.0134337
886.734	0.0137041
886.812	0.0135602
886.890	0.0135146
886.968	0.0136468
887.046	0.0136523
887.124	0.0135176
887.203	0.0135862
887.281	0.0136668
887.359	0.0134677
887.437	0.0136319
887.515	0.0135800
887.593	0.0136039
887.671	0.0134765
887.749	0.0134078
887.828	0.0134424
887.906	0.0134004
887.984	0.0134798
888.062	0.0136069
888.140	0.0134512
888.218	0.0134870
888.296	0.0135842
888.374	0.0136732
888.453	0.0136433
888.531	0.0134135
888.609	0.0134766
888.687	0.0134875
888.765	0.0135046
888.843	0.0134789
888.921	0.0134525
888.999	0.0134822
889.078	0.0136323
889.156	0.0136120
889.234	0.0136359
889.312	0.0135373
889.390	0.0134949
889.468	0.0136005
889.546	0.0136636
889.624	0.0137017
889.703	0.0137085
889.781	0.0136849
889.859	0.0136990
889.937	0.0135928
890.015	0.0134916
890.093	0.0133794
890.171	0.0134882
890.249	0.0134170
890.328	0.0135223
890.406	0.0133621
890.484	0.0135230
890.562	0.0133749
890.640	0.0134026
890.718	0.0134354
890.796	0.0134074
890.874	0.0134308
890.953	0.0134408
891.031	0.0134297
891.109	0.0132664
891.187	0.0134134
891.265	0.0133196
891.343	0.0134446
891.421	0.0133799
891.499	0.0136117
891.578	0.0134320
891.656	0.0133567
891.734	0.0135189
891.812	0.0135131
891.890	0.0134489
891.968	0.0134528
892.046	0.0135711
892.124	0.0134858
892.203	0.0134675
892.281	0.0135822
892.359	0.0135471
892.437	0.0134312
892.515	0.0134499
892.593	0.0134270
892.671	0.0134674
892.749	0.0133907
892.828	0.0134748
892.906	0.0134939
892.984	0.0135175
893.062	0.0134817
893.140	0.0135316
893.218	0.0135111
893.296	0.0133517
893.374	0.0135474
893.453	0.0135343
893.531	0.0133981
893.609	0.0133674
893.687	0.0134757
893.765	0.0134144
893.843	0.0134070
893.921	0.0134307
893.999	0.0134429
894.078	0.0134550
894.156	0.0133937
894.234	0.0135331
894.312	0.0136258
894.390	0.0135275
894.468	0.0135192
894.546	0.0135125
894.624	0.0135023
894.703	0.0135818
894.781	0.0134988
894.859	0.0134742
894.937	0.0137006
895.015	0.0135712
895.093	0.0134782
895.171	0.0135306
895.249	0.0133509
895.328	0.0135245
895.406	0.0135558
895.484	0.0135316
895.562	0.0134036
895.640	0.0135979
895.718	0.0135884
895.796	0.0135527
895.874	0.0135032
895.953	0.0135195
896.031	0.0134470
896.109	0.0136034
896.187	0.0136626
896.265	0.0135327
896.343	0.0137536
896.421	0.0136005
896.499	0.0135463
896.578	0.0135455
896.656	0.0136362
896.734	0.0135351
896.812	0.0136197
896.890	0.0134115
896.968	0.0133485
897.046	0.0135424
897.124	0.0135384
897.203	0.0136435
897.281	0.0135243
897.359	0.0136840
897.437	0.0136309
897.515	0.0135976
897.593	0.0135931
897.671	0.0136437
897.749	0.0136287
897.828	0.0133737
897.906	0.0135096
897.984	0.0136035
898.062	0.0135714
898.140	0.0134650
898.218	0.0133939
898.296	0.0133914
898.374	0.0135159
898.453	0.0133478
898.531	0.0134875
898.609	0.0133918
898.687	0.0133327
898.765	0.0134469
898.843	0.0133865
898.921	0.0134707
898.999	0.0133879
899.078	0.0135828
899.156	0.0137012
899.234	0.0136097
899.312	0.0135376
899.390	0.0135577
899.468	0.0134888
899.546	0.0136390
899.624	0.0135571
899.703	0.0136856
899.781	0.0135306
899.859	0.0134804
899.937	0.0135114
900.015	0.0133608
900.093	0.0133995
900.171	0.0134200
900.249	0.0133488
900.328	0.0133472
900.406	0.0136069
900.484	0.0133613
900.562	0.0135042
900.640	0.0135233
900.718	0.0133165
900.796	0.0135010
900.874	0.0136753
900.953	0.0136124
901.031	0.0136340
901.109	0.0135392
901.187	0.0135031
901.265	0.0134734
901.343	0.0134570
901.421	0.0136141
901.499	0.0135851
901.578	0.0136635
901.656	0.0136144
901.734	0.0134368
901.812	0.0135474
901.890	0.0135766
901.968	0.0137285
902.046	0.0136872
902.124	0.0136917
902.203	0.0135143
902.281	0.0135589
902.359	0.0135919
902.437	0.0135791
902.515	0.0135380
902.593	0.0134461
902.671	0.0134946
902.749	0.0135373
902.828	0.0135146
902.906	0.0135332
902.984	0.0136092
903.062	0.0135466
903.140	0.0135234
903.218	0.0135941
903.296	0.0135979
903.374	0.0136901
903.453	0.0136146
903.531	0.0136880
903.609	0.0135771
903.687	0.0136104
903.765	0.0137459
903.843	0.0135122
903.921	0.0135780
903.999	0.0136176
904.078	0.0134727
904.156	0.0135122
904.234	0.0135195
904.312	0.0135732
904.390	0.0134609
904.468	0.0134957
904.546	0.0135351
904.624	0.0134617
904.703	0.0135163
904.781	0.0134325
904.859	0.0134928
904.937	0.0136525
905.015	0.0135201
905.093	0.0135239
905.171	0.0135128
905.249	0.0135072
905.328	0.0135142
905.406	0.0136417
905.484	0.0135442
905.562	0.0135739
905.640	0.0136398
905.718	0.0135789
905.796	0.0136831
905.874	0.0136499
905.953	0.0135777
906.031	0.0135985
906.109	0.0136086
906.187	0.0135780
906.265	0.0136623
906.343	0.0135258
906.421	0.0135396
906.499	0.0135023
906.578	0.0135890
906.656	0.0135287
906.734	0.0135618
906.812	0.0133838
906.890	0.0134643
906.968	0.0135015
907.046	0.0134083
907.124	0.0135169
907.203	0.0133973
907.281	0.0134830
907.359	0.0136473
907.437	0.0135252
907.515	0.0134978
907.593	0.0133619
907.671	0.0135701
907.749	0.0136694
907.828	0.0136893
907.906	0.0136574
907.984	0.0135272
908.062	0.0136472
908.140	0.0137188
908.218	0.0138550
908.296	0.0136864
908.374	0.0136329
908.453	0.0135749
908.531	0.0135591
908.609	0.0136566
908.687	0.0135948
908.765	0.0136357
908.843	0.0135942
908.921	0.0135111
908.999	0.0136201
909.078	0.0135598
909.156	0.0135699
909.234	0.0135846
909.312	0.0135294
909.390	0.0135268
909.468	0.0135219
909.546	0.0135374
909.624	0.0135389
909.703	0.0135060
909.781	0.0135777
909.859	0.0135253
909.937	0.0135583
910.015	0.0136618
910.093	0.0134657
910.171	0.0135156
910.249	0.0135722
910.328	0.0135744
910.406	0.0137753
910.484	0.0134666
910.562	0.0135792
910.640	0.0136037
910.718	0.0138071
910.796	0.0136798
910.874	0.0136880
910.953	0.0138098
911.031	0.0135138
911.109	0.0135540
911.187	0.0135939
911.265	0.0137357
911.343	0.0137498
911.421	0.0135612
911.499	0.0134966
911.578	0.0135563
911.656	0.0135429
911.734	0.0135178
911.812	0.0135489
911.890	0.0134817
911.968	0.0135019
912.046	0.0135868
912.124	0.0134399
912.203	0.0134356
912.281	0.0134307
912.359	0.0135419
912.437	0.0136491
912.515	0.0135767
912.593	0.0133800
912.671	0.0133246
912.749	0.0136053
912.828	0.0136780
912.906	0.0136719
912.984	0.0136994
913.062	0.0135406
913.140	0.0136185
913.218	0.0135735
913.296	0.0136579
913.374	0.0135143
913.453	0.0135570
913.531	0.0135989
913.609	0.0135089
913.687	0.0134801
913.765	0.0135084
913.843	0.0134991
913.921	0.0135767
913.999	0.0135243
914.078	0.0136292
914.156	0.0133951
914.234	0.0135040
914.312	0.0135474
914.390	0.0135950
914.468	0.0135462
914.546	0.0134111
914.624	0.0133985
914.703	0.0135136
914.781	0.0134266
914.859	0.0135010
914.937	0.0134122
915.015	0.0135351
915.093	0.0135131
915.171	0.0133444
915.249	0.0134561
915.328	0.0134245
915.406	0.0134612
915.484	0.0134344
915.562	0.0136034
915.640	0.0134398
915.718	0.0133628
915.796	0.0135044
915.874	0.0134876
915.953	0.0134872
916.031	0.0135732
916.109	0.0134941
916.187	0.0134402
916.265	0.0134898
916.343	0.0137324
916.421	0.0136048
916.499	0.0135802
916.578	0.0135399
916.656	0.0135707
916.734	0.0135690
916.812	0.0135544
916.890	0.0135918
916.968	0.0135362
917.046	0.0135065
917.124	0.0135879
917.203	0.0135384
917.281	0.0134286
917.359	0.0134075
917.437	0.0135933
917.515	0.0135985
917.593	0.0134746
917.671	0.0135079
917.749	0.0134784
917.828	0.0135099
917.906	0.0134281
917.984	0.0134798
918.062	0.0134779
918.140	0.0134265
918.218	0.0134399
918.296	0.0135342
918.374	0.0134838
918.453	0.0136781
918.531	0.0136041
918.609	0.0134710
918.687	0.0135275
918.765	0.0136416
918.843	0.0134969
918.921	0.0136187
918.999	0.0137029
919.078	0.0135939
919.156	0.0135329
919.234	0.0134772
919.312	0.0134052
919.390	0.0134634
919.468	0.0135416
919.546	0.0135266
919.624	0.0134628
919.703	0.0135263
919.781	0.0135872
919.859	0.0135032
919.937	0.0134892
