05/06/2022	19:26:01	Ver.	4.1	UNKNOWN
Optical Delay	600.015094	Delta X		0.078125	Sweeps	1	Scan Rate	0/0
Coordinates	Axis 1	NaN	Axis 2	NaN	Axis 3	NaN	Axis 4	NaN	Axis 5	NaN	Axis 6	0.000000
TX Power	0.000000	RX Power	0.000000

600.015	0.0151322
600.093	0.0152220
600.171	0.0152119
600.249	0.0151791
600.328	0.0151360
600.406	0.0152299
600.484	0.0152746
600.562	0.0153132
600.640	0.0154482
600.718	0.0151436
600.796	0.0150759
600.874	0.0150859
600.953	0.0150481
601.031	0.0151748
601.109	0.0152299
601.187	0.0151781
601.265	0.0150157
601.343	0.0152403
601.421	0.0151750
601.499	0.0151844
601.578	0.0152376
601.656	0.0151987
601.734	0.0151598
601.812	0.0152235
601.890	0.0151155
601.968	0.0151318
602.046	0.0151761
602.124	0.0150893
602.203	0.0149780
602.281	0.0150183
602.359	0.0151151
602.437	0.0151096
602.515	0.0151463
602.593	0.0149338
602.671	0.0149307
602.749	0.0149832
602.828	0.0150815
602.906	0.0149817
602.984	0.0149814
603.062	0.0150010
603.140	0.0149968
603.218	0.0150552
603.296	0.0151249
603.374	0.0149699
603.453	0.0150256
603.531	0.0152448
603.609	0.0150690
603.687	0.0151280
603.765	0.0150687
603.843	0.0151215
603.921	0.0149857
603.999	0.0151484
604.078	0.0150017
604.156	0.0151261
604.234	0.0151017
604.312	0.0151408
604.390	0.0151349
604.468	0.0150691
604.546	0.0149960
604.624	0.0149819
604.703	0.0150924
604.781	0.0151405
604.859	0.0149381
604.937	0.0150275
605.015	0.0151660
605.093	0.0150642
605.171	0.0151949
605.249	0.0151710
605.328	0.0151596
605.406	0.0150782
605.484	0.0150570
605.562	0.0152335
605.640	0.0150410
605.718	0.0151467
605.796	0.0150425
605.874	0.0149531
605.953	0.0148183
606.031	0.0148103
606.109	0.0150269
606.187	0.0150817
606.265	0.0150217
606.343	0.0150945
606.421	0.0150352
606.499	0.0150654
606.578	0.0150465
606.656	0.0150282
606.734	0.0149716
606.812	0.0151553
606.890	0.0148776
606.968	0.0150660
607.046	0.0149576
607.124	0.0149956
607.203	0.0149751
607.281	0.0151033
607.359	0.0151200
607.437	0.0151086
607.515	0.0152016
607.593	0.0149673
607.671	0.0149920
607.749	0.0150593
607.828	0.0151324
607.906	0.0150963
607.984	0.0150932
608.062	0.0150582
608.140	0.0150448
608.218	0.0151730
608.296	0.0150887
608.374	0.0150871
608.453	0.0151224
608.531	0.0151971
608.609	0.0151467
608.687	0.0151733
608.765	0.0152010
608.843	0.0151251
608.921	0.0151494
608.999	0.0151465
609.078	0.0150936
609.156	0.0152236
609.234	0.0149712
609.312	0.0152198
609.390	0.0148705
609.468	0.0148613
609.546	0.0149545
609.624	0.0152203
609.703	0.0150847
609.781	0.0151707
609.859	0.0151243
609.937	0.0150399
610.015	0.0150412
610.093	0.0150901
610.171	0.0150165
610.249	0.0150372
610.328	0.0149932
610.406	0.0151393
610.484	0.0151200
610.562	0.0151426
610.640	0.0151696
610.718	0.0150751
610.796	0.0149677
610.874	0.0152112
610.953	0.0149744
611.031	0.0152293
611.109	0.0151153
611.187	0.0150178
611.265	0.0151268
611.343	0.0151694
611.421	0.0150111
611.499	0.0151523
611.578	0.0151714
611.656	0.0150710
611.734	0.0151836
611.812	0.0152222
611.890	0.0150941
611.968	0.0150589
612.046	0.0151228
612.124	0.0151229
612.203	0.0151202
612.281	0.0151562
612.359	0.0149953
612.437	0.0149833
612.515	0.0150269
612.593	0.0149839
612.671	0.0149337
612.749	0.0149648
612.828	0.0149049
612.906	0.0149650
612.984	0.0148685
613.062	0.0149953
613.140	0.0149043
613.218	0.0147952
613.296	0.0149219
613.374	0.0148181
613.453	0.0148604
613.531	0.0149445
613.609	0.0150213
613.687	0.0148399
613.765	0.0149857
613.843	0.0150662
613.921	0.0150018
613.999	0.0150356
614.078	0.0151595
614.156	0.0151474
614.234	0.0152456
614.312	0.0151508
614.390	0.0151028
614.468	0.0152206
614.546	0.0152645
614.624	0.0151623
614.703	0.0151075
614.781	0.0152166
614.859	0.0152351
614.937	0.0152061
615.015	0.0149635
615.093	0.0150819
615.171	0.0151728
615.249	0.0150589
615.328	0.0152650
615.406	0.0150805
615.484	0.0149418
615.562	0.0150874
615.640	0.0149900
615.718	0.0149773
615.796	0.0150951
615.874	0.0150115
615.953	0.0150139
616.031	0.0149646
616.109	0.0149549
616.187	0.0150346
616.265	0.0149756
616.343	0.0150516
616.421	0.0150799
616.499	0.0151594
616.578	0.0151138
616.656	0.0150385
616.734	0.0150942
616.812	0.0150274
616.890	0.0150534
616.968	0.0149711
617.046	0.0150070
617.124	0.0149600
617.203	0.0150661
617.281	0.0150745
617.359	0.0150419
617.437	0.0150612
617.515	0.0150821
617.593	0.0151342
617.671	0.0151509
617.749	0.0150478
617.828	0.0150121
617.906	0.0152045
617.984	0.0152245
618.062	0.0151216
618.140	0.0150180
618.218	0.0149088
618.296	0.0152007
618.374	0.0151545
618.453	0.0151216
618.531	0.0151521
618.609	0.0151489
618.687	0.0150838
618.765	0.0151987
618.843	0.0151319
618.921	0.0152372
618.999	0.0150428
619.078	0.0151452
619.156	0.0150063
619.234	0.0149997
619.312	0.0151381
619.390	0.0151570
619.468	0.0152020
619.546	0.0152518
619.624	0.0150634
619.703	0.0151308
619.781	0.0152933
619.859	0.0153544
619.937	0.0151595
620.015	0.0151378
620.093	0.0152751
620.171	0.0153927
620.249	0.0153246
620.328	0.0152707
620.406	0.0152100
620.484	0.0151908
620.562	0.0151910
620.640	0.0152547
620.718	0.0151932
620.796	0.0152330
620.874	0.0151984
620.953	0.0151263
621.031	0.0151684
621.109	0.0152238
621.187	0.0151119
621.265	0.0150877
621.343	0.0151154
621.421	0.0151622
621.499	0.0150382
621.578	0.0149511
621.656	0.0152493
621.734	0.0149739
621.812	0.0148592
621.890	0.0149483
621.968	0.0150002
622.046	0.0149947
622.124	0.0149984
622.203	0.0149587
622.281	0.0150596
622.359	0.0150282
622.437	0.0150146
622.515	0.0150265
622.593	0.0150219
622.671	0.0150278
622.749	0.0150479
622.828	0.0152161
622.906	0.0152207
622.984	0.0152304
623.062	0.0151834
623.140	0.0152357
623.218	0.0150723
623.296	0.0151962
623.374	0.0150889
623.453	0.0150537
623.531	0.0150658
623.609	0.0149512
623.687	0.0151858
623.765	0.0151486
623.843	0.0150070
623.921	0.0150408
623.999	0.0149473
624.078	0.0148985
624.156	0.0149656
624.234	0.0151094
624.312	0.0149383
624.390	0.0149179
624.468	0.0148710
624.546	0.0147874
624.624	0.0148666
624.703	0.0148293
624.781	0.0149814
624.859	0.0150101
624.937	0.0149496
625.015	0.0149179
625.093	0.0151099
625.171	0.0150989
625.249	0.0150460
625.328	0.0151240
625.406	0.0150961
625.484	0.0152824
625.562	0.0152809
625.640	0.0151089
625.718	0.0152084
625.796	0.0154307
625.874	0.0153167
625.953	0.0153516
626.031	0.0153325
626.109	0.0151714
626.187	0.0151248
626.265	0.0152069
626.343	0.0151344
626.421	0.0149619
626.499	0.0149268
626.578	0.0148819
626.656	0.0147590
626.734	0.0148353
626.812	0.0145073
626.890	0.0146846
626.968	0.0145746
627.046	0.0146177
627.124	0.0146499
627.203	0.0144608
627.281	0.0147041
627.359	0.0148642
627.437	0.0148145
627.515	0.0148872
627.593	0.0150359
627.671	0.0152117
627.749	0.0151102
627.828	0.0152342
627.906	0.0152876
627.984	0.0153640
628.062	0.0154140
628.140	0.0154454
628.218	0.0156187
628.296	0.0154495
628.374	0.0154691
628.453	0.0154987
628.531	0.0155227
628.609	0.0155501
628.687	0.0154274
628.765	0.0153928
628.843	0.0153022
628.921	0.0152258
628.999	0.0152794
629.078	0.0153355
629.156	0.0152445
629.234	0.0152753
629.312	0.0150700
629.390	0.0150716
629.468	0.0150657
629.546	0.0149724
629.624	0.0147655
629.703	0.0147282
629.781	0.0148351
629.859	0.0146012
629.937	0.0146268
630.015	0.0146426
630.093	0.0145188
630.171	0.0145094
630.249	0.0144220
630.328	0.0145288
630.406	0.0146930
630.484	0.0146506
630.562	0.0146164
630.640	0.0148038
630.718	0.0149915
630.796	0.0150265
630.874	0.0149861
630.953	0.0149770
631.031	0.0150728
631.109	0.0152331
631.187	0.0152435
631.265	0.0152020
631.343	0.0151414
631.421	0.0152261
631.499	0.0153452
631.578	0.0153822
631.656	0.0154518
631.734	0.0153577
631.812	0.0152259
631.890	0.0153169
631.968	0.0151667
632.046	0.0151831
632.124	0.0152332
632.203	0.0151721
632.281	0.0151196
632.359	0.0150894
632.437	0.0150643
632.515	0.0151468
632.593	0.0150590
632.671	0.0151634
632.749	0.0151201
632.828	0.0151484
632.906	0.0151472
632.984	0.0149842
633.062	0.0149342
633.140	0.0150439
633.218	0.0149343
633.296	0.0150197
633.374	0.0147820
633.453	0.0148650
633.531	0.0148509
633.609	0.0147717
633.687	0.0148171
633.765	0.0146504
633.843	0.0147360
633.921	0.0147510
633.999	0.0148346
634.078	0.0148419
634.156	0.0148791
634.234	0.0148430
634.312	0.0148127
634.390	0.0148154
634.468	0.0147192
634.546	0.0146875
634.624	0.0148816
634.703	0.0147583
634.781	0.0148383
634.859	0.0146957
634.937	0.0146410
635.015	0.0147282
635.093	0.0148929
635.171	0.0149295
635.249	0.0150590
635.328	0.0149401
635.406	0.0151032
635.484	0.0152031
635.562	0.0151698
635.640	0.0153642
635.718	0.0152515
635.796	0.0154807
635.874	0.0155273
635.953	0.0154374
636.031	0.0156551
636.109	0.0156075
636.187	0.0156142
636.265	0.0155242
636.343	0.0156236
636.421	0.0156282
636.499	0.0155206
636.578	0.0153272
636.656	0.0153860
636.734	0.0151702
636.812	0.0150732
636.890	0.0150219
636.968	0.0150679
637.046	0.0148918
637.124	0.0147466
637.203	0.0147100
637.281	0.0148009
637.359	0.0148235
637.437	0.0148692
637.515	0.0147182
637.593	0.0147311
637.671	0.0146958
637.749	0.0146414
637.828	0.0146248
637.906	0.0146957
637.984	0.0147209
638.062	0.0147450
638.140	0.0147296
638.218	0.0148144
638.296	0.0145805
638.374	0.0147248
638.453	0.0147588
638.531	0.0147316
638.609	0.0145647
638.687	0.0147351
638.765	0.0148058
638.843	0.0147955
638.921	0.0148380
638.999	0.0149933
639.078	0.0151077
639.156	0.0151276
639.234	0.0150421
639.312	0.0153731
639.390	0.0154047
639.468	0.0153172
639.546	0.0154575
639.624	0.0155453
639.703	0.0155208
639.781	0.0155090
639.859	0.0155015
639.937	0.0155461
640.015	0.0156067
640.093	0.0154088
640.171	0.0155337
640.249	0.0155606
640.328	0.0157328
640.406	0.0155966
640.484	0.0156316
640.562	0.0156429
640.640	0.0156181
640.718	0.0156810
640.796	0.0155349
640.874	0.0153716
640.953	0.0154465
641.031	0.0152968
641.109	0.0153838
641.187	0.0153115
641.265	0.0150701
641.343	0.0149970
641.421	0.0148155
641.499	0.0148376
641.578	0.0146215
641.656	0.0145574
641.734	0.0144918
641.812	0.0142780
641.890	0.0144437
641.968	0.0143465
642.046	0.0142020
642.124	0.0141210
642.203	0.0141671
642.281	0.0142205
642.359	0.0142136
642.437	0.0143985
642.515	0.0143762
642.593	0.0143388
642.671	0.0145097
642.749	0.0145795
642.828	0.0147710
642.906	0.0148718
642.984	0.0147580
643.062	0.0148904
643.140	0.0151704
643.218	0.0150996
643.296	0.0151149
643.374	0.0153132
643.453	0.0153670
643.531	0.0153344
643.609	0.0154363
643.687	0.0153790
643.765	0.0154122
643.843	0.0155302
643.921	0.0155753
643.999	0.0155680
644.078	0.0156705
644.156	0.0156338
644.234	0.0156469
644.312	0.0157057
644.390	0.0157359
644.468	0.0158018
644.546	0.0156966
644.624	0.0156470
644.703	0.0156850
644.781	0.0157500
644.859	0.0157679
644.937	0.0156961
645.015	0.0156219
645.093	0.0157337
645.171	0.0155041
645.249	0.0154585
645.328	0.0153728
645.406	0.0153530
645.484	0.0153788
645.562	0.0152010
645.640	0.0150666
645.718	0.0150341
645.796	0.0147703
645.874	0.0148400
645.953	0.0146713
646.031	0.0145573
646.109	0.0145211
646.187	0.0144128
646.265	0.0143360
646.343	0.0141428
646.421	0.0142493
646.499	0.0140777
646.578	0.0139809
646.656	0.0138290
646.734	0.0138702
646.812	0.0138882
646.890	0.0139085
646.968	0.0138761
647.046	0.0139717
647.124	0.0140711
647.203	0.0141496
647.281	0.0143256
647.359	0.0146443
647.437	0.0146916
647.515	0.0148351
647.593	0.0150536
647.671	0.0152541
647.749	0.0154391
647.828	0.0154257
647.906	0.0155171
647.984	0.0156166
648.062	0.0159061
648.140	0.0160303
648.218	0.0159881
648.296	0.0159422
648.374	0.0160010
648.453	0.0159602
648.531	0.0160544
648.609	0.0161529
648.687	0.0160957
648.765	0.0160905
648.843	0.0159563
648.921	0.0159856
648.999	0.0158797
649.078	0.0158183
649.156	0.0157838
649.234	0.0156052
649.312	0.0155524
649.390	0.0153394
649.468	0.0154372
649.546	0.0152298
649.624	0.0149732
649.703	0.0150142
649.781	0.0150981
649.859	0.0148985
649.937	0.0149116
650.015	0.0147733
650.093	0.0147311
650.171	0.0146082
650.249	0.0146175
650.328	0.0146652
650.406	0.0145730
650.484	0.0145362
650.562	0.0145721
650.640	0.0145168
650.718	0.0143932
650.796	0.0143787
650.874	0.0142418
650.953	0.0143178
651.031	0.0142825
651.109	0.0141068
651.187	0.0141869
651.265	0.0143188
651.343	0.0143610
651.421	0.0142844
651.499	0.0143851
651.578	0.0143893
651.656	0.0145011
651.734	0.0146580
651.812	0.0145264
651.890	0.0146062
651.968	0.0147720
652.046	0.0149094
652.124	0.0149022
652.203	0.0151057
652.281	0.0151511
652.359	0.0152349
652.437	0.0153902
652.515	0.0154514
652.593	0.0154438
652.671	0.0155757
652.749	0.0157554
652.828	0.0157207
652.906	0.0158061
652.984	0.0158954
653.062	0.0159068
653.140	0.0159406
653.218	0.0159099
653.296	0.0157581
653.374	0.0159566
653.453	0.0158173
653.531	0.0157924
653.609	0.0159055
653.687	0.0157603
653.765	0.0156532
653.843	0.0156944
653.921	0.0155846
653.999	0.0155737
654.078	0.0153310
654.156	0.0152087
654.234	0.0152916
654.312	0.0149590
654.390	0.0148246
654.468	0.0147802
654.546	0.0147692
654.624	0.0146194
654.703	0.0145164
654.781	0.0144664
654.859	0.0144812
654.937	0.0144839
655.015	0.0143941
655.093	0.0142937
655.171	0.0142900
655.249	0.0143066
655.328	0.0143236
655.406	0.0144356
655.484	0.0143565
655.562	0.0143897
655.640	0.0144822
655.718	0.0143611
655.796	0.0143956
655.874	0.0144324
655.953	0.0144992
656.031	0.0143791
656.109	0.0145917
656.187	0.0146026
656.265	0.0146200
656.343	0.0148586
656.421	0.0148156
656.499	0.0148906
656.578	0.0148752
656.656	0.0149011
656.734	0.0148909
656.812	0.0150971
656.890	0.0150786
656.968	0.0151440
657.046	0.0153437
657.124	0.0153452
657.203	0.0153955
657.281	0.0154640
657.359	0.0154911
657.437	0.0155962
657.515	0.0155869
657.593	0.0157255
657.671	0.0157572
657.749	0.0156451
657.828	0.0157766
657.906	0.0157629
657.984	0.0157383
658.062	0.0157163
658.140	0.0157831
658.218	0.0156361
658.296	0.0157086
658.374	0.0156963
658.453	0.0154982
658.531	0.0153606
658.609	0.0154316
658.687	0.0153677
658.765	0.0152831
658.843	0.0149621
658.921	0.0150363
658.999	0.0151734
659.078	0.0149793
659.156	0.0149268
659.234	0.0147434
659.312	0.0147592
659.390	0.0147023
659.468	0.0144939
659.546	0.0146339
659.624	0.0145706
659.703	0.0144720
659.781	0.0143160
659.859	0.0144341
659.937	0.0143797
660.015	0.0144727
660.093	0.0144657
660.171	0.0145930
660.249	0.0143414
660.328	0.0145245
660.406	0.0145286
660.484	0.0146175
660.562	0.0146073
660.640	0.0147967
660.718	0.0147205
660.796	0.0147882
660.874	0.0149598
660.953	0.0149889
661.031	0.0149586
661.109	0.0151731
661.187	0.0151035
661.265	0.0152284
661.343	0.0152419
661.421	0.0151283
661.499	0.0151585
661.578	0.0152351
661.656	0.0151744
661.734	0.0153732
661.812	0.0152502
661.890	0.0151566
661.968	0.0153728
662.046	0.0151276
662.124	0.0153389
662.203	0.0152909
662.281	0.0154250
662.359	0.0155824
662.437	0.0155113
662.515	0.0154628
662.593	0.0155109
662.671	0.0155815
662.749	0.0156193
662.828	0.0155746
662.906	0.0156998
662.984	0.0155506
663.062	0.0154787
663.140	0.0154928
663.218	0.0152979
663.296	0.0153462
663.374	0.0151469
663.453	0.0148511
663.531	0.0148928
663.609	0.0149465
663.687	0.0147005
663.765	0.0146942
663.843	0.0146645
663.921	0.0145058
663.999	0.0144235
664.078	0.0144567
664.156	0.0142756
664.234	0.0142829
664.312	0.0142206
664.390	0.0142367
664.468	0.0143939
664.546	0.0143221
664.624	0.0142832
664.703	0.0144061
664.781	0.0143562
664.859	0.0146049
664.937	0.0146159
665.015	0.0148508
665.093	0.0148838
665.171	0.0148106
665.249	0.0149931
665.328	0.0151744
665.406	0.0151246
665.484	0.0153316
665.562	0.0152738
665.640	0.0154222
665.718	0.0154475
665.796	0.0155644
665.874	0.0155676
665.953	0.0156190
666.031	0.0156106
666.109	0.0156264
666.187	0.0157924
666.265	0.0156063
666.343	0.0156514
666.421	0.0155685
666.499	0.0156308
666.578	0.0155251
666.656	0.0155089
666.734	0.0154039
666.812	0.0153130
666.890	0.0154330
666.968	0.0152099
667.046	0.0152557
667.124	0.0152471
667.203	0.0152811
667.281	0.0151479
667.359	0.0151756
667.437	0.0151340
667.515	0.0153197
667.593	0.0152079
667.671	0.0152488
667.749	0.0151573
667.828	0.0152614
667.906	0.0153624
667.984	0.0151283
668.062	0.0150141
668.140	0.0150406
668.218	0.0149618
668.296	0.0149229
668.374	0.0147662
668.453	0.0148029
668.531	0.0147530
668.609	0.0146918
668.687	0.0144260
668.765	0.0144520
668.843	0.0143736
668.921	0.0144198
668.999	0.0143085
669.078	0.0143210
669.156	0.0143666
669.234	0.0144443
669.312	0.0145114
669.390	0.0146092
669.468	0.0146767
669.546	0.0148380
669.624	0.0150028
669.703	0.0151274
669.781	0.0149065
669.859	0.0152513
669.937	0.0153423
670.015	0.0152908
670.093	0.0154436
670.171	0.0156126
670.249	0.0155933
670.328	0.0154964
670.406	0.0156703
670.484	0.0157381
670.562	0.0156287
670.640	0.0157812
670.718	0.0157487
670.796	0.0156722
670.874	0.0156704
670.953	0.0156332
671.031	0.0156051
671.109	0.0157124
671.187	0.0155149
671.265	0.0154655
671.343	0.0154706
671.421	0.0153828
671.499	0.0153332
671.578	0.0152066
671.656	0.0151831
671.734	0.0151561
671.812	0.0150981
671.890	0.0150467
671.968	0.0150411
672.046	0.0148833
672.124	0.0149696
672.203	0.0148883
672.281	0.0147459
672.359	0.0148399
672.437	0.0149268
672.515	0.0148952
672.593	0.0147883
672.671	0.0148029
672.749	0.0146974
672.828	0.0147971
672.906	0.0147340
672.984	0.0146914
673.062	0.0148446
673.140	0.0147071
673.218	0.0146037
673.296	0.0147401
673.374	0.0145664
673.453	0.0145272
673.531	0.0147216
673.609	0.0146552
673.687	0.0146538
673.765	0.0145712
673.843	0.0145008
673.921	0.0147543
673.999	0.0149364
674.078	0.0149140
674.156	0.0149389
674.234	0.0149332
674.312	0.0151705
674.390	0.0153046
674.468	0.0153667
674.546	0.0154625
674.624	0.0155717
674.703	0.0155622
674.781	0.0156603
674.859	0.0157395
674.937	0.0157296
675.015	0.0157291
675.093	0.0157622
675.171	0.0157118
675.249	0.0158543
675.328	0.0157295
675.406	0.0156930
675.484	0.0156892
675.562	0.0155032
675.640	0.0153349
675.718	0.0153833
675.796	0.0153181
675.874	0.0153299
675.953	0.0152728
676.031	0.0150713
676.109	0.0150601
676.187	0.0150784
676.265	0.0151404
676.343	0.0150955
676.421	0.0150236
676.499	0.0150045
676.578	0.0149533
676.656	0.0148051
676.734	0.0148334
676.812	0.0149264
676.890	0.0150466
676.968	0.0148303
677.046	0.0148957
677.124	0.0147723
677.203	0.0147582
677.281	0.0148558
677.359	0.0147176
677.437	0.0146940
677.515	0.0146826
677.593	0.0147145
677.671	0.0146747
677.749	0.0146273
677.828	0.0146225
677.906	0.0146121
677.984	0.0145401
678.062	0.0145670
678.140	0.0145502
678.218	0.0146842
678.296	0.0145189
678.374	0.0146794
678.453	0.0148825
678.531	0.0146912
678.609	0.0147367
678.687	0.0149444
678.765	0.0149234
678.843	0.0149287
678.921	0.0150187
678.999	0.0150370
679.078	0.0151502
679.156	0.0152682
679.234	0.0152402
679.312	0.0154662
679.390	0.0154548
679.468	0.0154805
679.546	0.0154488
679.624	0.0154881
679.703	0.0156221
679.781	0.0154780
679.859	0.0156206
679.937	0.0157003
680.015	0.0157461
680.093	0.0157675
680.171	0.0156573
680.249	0.0155565
680.328	0.0155319
680.406	0.0155199
680.484	0.0155125
680.562	0.0154227
680.640	0.0153410
680.718	0.0153152
680.796	0.0151743
680.874	0.0151686
680.953	0.0150036
681.031	0.0149567
681.109	0.0149689
681.187	0.0148157
681.265	0.0147849
681.343	0.0148906
681.421	0.0145573
681.499	0.0146601
681.578	0.0146057
681.656	0.0145608
681.734	0.0145767
681.812	0.0145027
681.890	0.0145142
681.968	0.0145993
682.046	0.0146303
682.124	0.0145672
682.203	0.0145914
682.281	0.0147122
682.359	0.0148743
682.437	0.0149202
682.515	0.0149371
682.593	0.0148344
682.671	0.0150666
682.749	0.0151652
682.828	0.0150455
682.906	0.0151534
682.984	0.0152179
683.062	0.0150586
683.140	0.0151656
683.218	0.0152554
683.296	0.0151161
683.374	0.0152316
683.453	0.0152140
683.531	0.0151648
683.609	0.0153975
683.687	0.0153253
683.765	0.0152610
683.843	0.0154073
683.921	0.0152784
683.999	0.0153141
684.078	0.0154153
684.156	0.0152287
684.234	0.0153590
684.312	0.0153332
684.390	0.0153985
684.468	0.0154265
684.546	0.0153999
684.624	0.0153876
684.703	0.0155425
684.781	0.0154433
684.859	0.0154175
684.937	0.0153693
685.015	0.0155324
685.093	0.0153951
685.171	0.0152917
685.249	0.0152706
685.328	0.0152785
685.406	0.0151573
685.484	0.0150627
685.562	0.0150316
685.640	0.0148890
685.718	0.0149629
685.796	0.0148632
685.874	0.0148141
685.953	0.0148332
686.031	0.0146364
686.109	0.0146552
686.187	0.0146713
686.265	0.0146660
686.343	0.0147103
686.421	0.0145890
686.499	0.0146423
686.578	0.0145914
686.656	0.0146501
686.734	0.0147407
686.812	0.0145914
686.890	0.0147990
686.968	0.0148033
687.046	0.0149157
687.124	0.0149611
687.203	0.0148975
687.281	0.0150184
687.359	0.0150063
687.437	0.0152917
687.515	0.0153723
687.593	0.0153712
687.671	0.0152097
687.749	0.0152866
687.828	0.0153500
687.906	0.0154570
687.984	0.0154351
688.062	0.0151868
688.140	0.0154727
688.218	0.0153320
688.296	0.0152449
688.374	0.0151300
688.453	0.0153986
688.531	0.0152765
688.609	0.0151701
688.687	0.0153968
688.765	0.0152786
688.843	0.0152010
688.921	0.0152770
688.999	0.0152130
689.078	0.0152348
689.156	0.0151479
689.234	0.0152414
689.312	0.0153420
689.390	0.0152300
689.468	0.0152439
689.546	0.0152437
689.624	0.0152539
689.703	0.0151223
689.781	0.0151000
689.859	0.0150630
689.937	0.0150319
690.015	0.0152076
690.093	0.0148691
690.171	0.0149445
690.249	0.0150720
690.328	0.0147453
690.406	0.0147176
690.484	0.0146523
690.562	0.0149028
690.640	0.0148492
690.718	0.0148792
690.796	0.0147706
690.874	0.0148323
690.953	0.0147938
691.031	0.0147422
691.109	0.0146864
691.187	0.0147254
691.265	0.0148450
691.343	0.0147676
691.421	0.0148549
691.499	0.0148348
691.578	0.0148395
691.656	0.0150331
691.734	0.0148775
691.812	0.0150167
691.890	0.0152802
691.968	0.0152149
692.046	0.0152543
692.124	0.0152840
692.203	0.0153478
692.281	0.0153149
692.359	0.0153258
692.437	0.0154680
692.515	0.0155231
692.593	0.0155344
692.671	0.0154897
692.749	0.0154222
692.828	0.0154893
692.906	0.0156336
692.984	0.0154716
693.062	0.0153862
693.140	0.0154234
693.218	0.0152370
693.296	0.0153793
693.374	0.0153299
693.453	0.0152053
693.531	0.0150311
693.609	0.0152487
693.687	0.0152192
693.765	0.0149813
693.843	0.0150396
693.921	0.0149950
693.999	0.0150497
694.078	0.0149624
694.156	0.0149604
694.234	0.0150026
694.312	0.0150190
694.390	0.0148236
694.468	0.0150782
694.546	0.0148343
694.624	0.0148616
694.703	0.0149847
694.781	0.0149502
694.859	0.0147925
694.937	0.0148759
695.015	0.0148396
695.093	0.0148019
695.171	0.0147834
695.249	0.0147471
695.328	0.0147769
695.406	0.0148590
695.484	0.0147908
695.562	0.0147647
695.640	0.0148273
695.718	0.0148091
695.796	0.0150592
695.874	0.0150970
695.953	0.0149847
696.031	0.0150681
696.109	0.0151387
696.187	0.0151978
696.265	0.0153143
696.343	0.0152572
696.421	0.0151986
696.499	0.0151286
696.578	0.0153638
696.656	0.0152531
696.734	0.0154079
696.812	0.0152782
696.890	0.0152895
696.968	0.0152965
697.046	0.0153765
697.124	0.0154666
697.203	0.0154620
697.281	0.0154093
697.359	0.0153654
697.437	0.0153197
697.515	0.0153395
697.593	0.0153243
697.671	0.0152596
697.749	0.0152497
697.828	0.0152533
697.906	0.0151505
697.984	0.0151080
698.062	0.0151304
698.140	0.0150874
698.218	0.0151710
698.296	0.0148975
698.374	0.0150446
698.453	0.0150261
698.531	0.0149615
698.609	0.0150986
698.687	0.0150430
698.765	0.0150507
698.843	0.0150645
698.921	0.0150092
698.999	0.0150720
699.078	0.0149700
699.156	0.0149522
699.234	0.0148920
699.312	0.0148317
699.390	0.0150004
699.468	0.0149653
699.546	0.0149371
699.624	0.0149583
699.703	0.0148894
699.781	0.0147884
699.859	0.0148697
699.937	0.0149052
700.015	0.0150390
700.093	0.0149728
700.171	0.0149024
700.249	0.0150041
700.328	0.0151108
700.406	0.0150832
700.484	0.0150283
700.562	0.0150958
700.640	0.0151591
700.718	0.0152259
700.796	0.0151601
700.874	0.0152896
700.953	0.0153515
701.031	0.0153331
701.109	0.0152924
701.187	0.0152011
701.265	0.0153287
701.343	0.0153620
701.421	0.0152531
701.499	0.0152647
701.578	0.0153140
701.656	0.0152240
701.734	0.0151863
701.812	0.0151058
701.890	0.0152468
701.968	0.0151767
702.046	0.0152508
702.124	0.0152238
702.203	0.0151794
702.281	0.0151040
702.359	0.0149650
702.437	0.0151174
702.515	0.0150266
702.593	0.0149229
702.671	0.0150918
702.749	0.0149485
702.828	0.0149512
702.906	0.0148597
702.984	0.0148146
703.062	0.0149442
703.140	0.0149705
703.218	0.0146946
703.296	0.0147634
703.374	0.0148759
703.453	0.0148903
703.531	0.0149577
703.609	0.0148820
703.687	0.0147891
703.765	0.0150001
703.843	0.0149041
703.921	0.0148560
703.999	0.0148454
704.078	0.0147946
704.156	0.0150046
704.234	0.0150493
704.312	0.0150834
704.390	0.0150020
704.468	0.0150609
704.546	0.0151761
704.624	0.0151417
704.703	0.0150373
704.781	0.0150952
704.859	0.0151754
704.937	0.0151387
705.015	0.0149563
705.093	0.0150662
705.171	0.0151420
705.249	0.0151295
705.328	0.0151963
705.406	0.0151402
705.484	0.0151777
705.562	0.0151643
705.640	0.0150844
705.718	0.0151240
705.796	0.0151967
705.874	0.0151896
705.953	0.0152020
706.031	0.0151547
706.109	0.0151276
706.187	0.0151450
706.265	0.0151444
706.343	0.0152520
706.421	0.0151186
706.499	0.0151326
706.578	0.0152372
706.656	0.0152489
706.734	0.0151202
706.812	0.0150890
706.890	0.0150290
706.968	0.0151839
707.046	0.0151173
707.124	0.0151335
707.203	0.0150980
707.281	0.0150387
707.359	0.0150790
707.437	0.0150486
707.515	0.0147828
707.593	0.0148654
707.671	0.0149267
707.749	0.0149432
707.828	0.0147844
707.906	0.0148177
707.984	0.0148692
708.062	0.0148434
708.140	0.0148782
708.218	0.0148686
708.296	0.0148453
708.374	0.0148387
708.453	0.0149586
708.531	0.0149658
708.609	0.0149951
708.687	0.0149451
708.765	0.0149007
708.843	0.0150236
708.921	0.0150983
708.999	0.0150043
709.078	0.0150358
709.156	0.0150687
709.234	0.0150204
709.312	0.0150321
709.390	0.0150305
709.468	0.0151943
709.546	0.0150750
709.624	0.0150592
709.703	0.0150201
709.781	0.0151366
709.859	0.0151453
709.937	0.0152879
710.015	0.0150981
710.093	0.0151752
710.171	0.0150471
710.249	0.0150314
710.328	0.0151697
710.406	0.0150419
710.484	0.0150901
710.562	0.0150430
710.640	0.0151945
710.718	0.0150034
710.796	0.0150597
710.874	0.0150964
710.953	0.0151272
711.031	0.0150792
711.109	0.0151427
711.187	0.0150408
711.265	0.0148744
711.343	0.0150808
711.421	0.0150034
711.499	0.0149587
711.578	0.0149530
711.656	0.0150147
711.734	0.0150714
711.812	0.0151134
711.890	0.0149072
711.968	0.0148508
712.046	0.0149474
712.124	0.0149722
712.203	0.0148669
712.281	0.0148885
712.359	0.0148545
712.437	0.0148009
712.515	0.0147929
712.593	0.0147833
712.671	0.0148274
712.749	0.0147506
712.828	0.0147606
712.906	0.0149323
712.984	0.0148945
713.062	0.0148366
713.140	0.0148940
713.218	0.0149377
713.296	0.0150928
713.374	0.0151097
713.453	0.0151369
713.531	0.0152700
713.609	0.0151745
713.687	0.0150601
713.765	0.0150572
713.843	0.0150838
713.921	0.0149944
713.999	0.0151818
714.078	0.0150854
714.156	0.0149618
714.234	0.0151915
714.312	0.0150791
714.390	0.0150580
714.468	0.0152257
714.546	0.0150467
714.624	0.0150788
714.703	0.0151186
714.781	0.0151823
714.859	0.0150979
714.937	0.0149689
715.015	0.0150661
715.093	0.0149647
715.171	0.0150060
715.249	0.0150499
715.328	0.0149423
715.406	0.0149035
715.484	0.0150674
715.562	0.0149511
715.640	0.0149394
715.718	0.0149935
715.796	0.0150703
715.874	0.0150448
715.953	0.0150565
716.031	0.0151597
716.109	0.0151057
716.187	0.0151231
716.265	0.0152129
716.343	0.0151509
716.421	0.0149739
716.499	0.0148576
716.578	0.0148698
716.656	0.0150308
716.734	0.0150608
716.812	0.0148993
716.890	0.0147777
716.968	0.0148241
717.046	0.0149303
717.124	0.0147687
717.203	0.0147235
717.281	0.0148851
717.359	0.0147220
717.437	0.0147980
717.515	0.0148127
717.593	0.0150124
717.671	0.0148808
717.749	0.0148230
717.828	0.0148238
717.906	0.0149966
717.984	0.0149166
718.062	0.0149735
718.140	0.0149641
718.218	0.0148273
718.296	0.0149010
718.374	0.0150752
718.453	0.0150359
718.531	0.0150272
718.609	0.0150362
718.687	0.0150202
718.765	0.0151109
718.843	0.0151086
718.921	0.0151524
718.999	0.0150120
719.078	0.0151607
719.156	0.0152433
719.234	0.0151596
719.312	0.0150397
719.390	0.0151794
719.468	0.0151630
719.546	0.0151041
719.624	0.0150858
719.703	0.0149640
719.781	0.0148371
719.859	0.0148544
719.937	0.0149911
720.015	0.0150241
720.093	0.0147909
720.171	0.0148460
720.249	0.0148537
720.328	0.0147986
720.406	0.0148817
720.484	0.0146544
720.562	0.0147215
720.640	0.0148251
720.718	0.0148299
720.796	0.0149500
720.874	0.0147899
720.953	0.0148962
721.031	0.0149575
721.109	0.0148381
721.187	0.0149425
721.265	0.0150131
721.343	0.0149525
721.421	0.0149918
721.499	0.0151462
721.578	0.0151372
721.656	0.0150395
721.734	0.0150985
721.812	0.0150239
721.890	0.0149341
721.968	0.0149768
722.046	0.0149003
722.124	0.0150537
722.203	0.0149199
722.281	0.0149513
722.359	0.0150290
722.437	0.0150566
722.515	0.0151545
722.593	0.0149384
722.671	0.0149666
722.749	0.0149986
722.828	0.0150597
722.906	0.0150448
722.984	0.0151060
723.062	0.0150796
723.140	0.0150194
723.218	0.0150359
723.296	0.0151469
723.374	0.0152446
723.453	0.0151865
723.531	0.0151554
723.609	0.0151726
723.687	0.0150864
723.765	0.0149915
723.843	0.0151883
723.921	0.0152725
723.999	0.0152187
724.078	0.0151443
724.156	0.0151118
724.234	0.0151380
724.312	0.0149697
724.390	0.0151519
724.468	0.0149937
724.546	0.0149232
724.624	0.0150201
724.703	0.0149461
724.781	0.0149178
724.859	0.0148843
724.937	0.0149663
725.015	0.0148978
725.093	0.0148885
725.171	0.0149323
725.249	0.0149311
725.328	0.0148679
725.406	0.0148563
725.484	0.0149162
725.562	0.0148999
725.640	0.0149256
725.718	0.0148530
725.796	0.0147778
725.874	0.0148437
725.953	0.0148473
726.031	0.0148532
726.109	0.0149683
726.187	0.0149694
726.265	0.0149000
726.343	0.0149908
726.421	0.0150278
726.499	0.0150372
726.578	0.0151266
726.656	0.0150956
726.734	0.0149828
726.812	0.0150159
726.890	0.0150562
726.968	0.0150323
727.046	0.0151052
727.124	0.0149082
727.203	0.0149658
727.281	0.0150706
727.359	0.0150446
727.437	0.0149309
727.515	0.0150369
727.593	0.0149751
727.671	0.0148833
727.749	0.0150205
727.828	0.0151122
727.906	0.0151432
727.984	0.0150090
728.062	0.0149480
728.140	0.0150516
728.218	0.0151001
728.296	0.0152134
728.374	0.0150325
728.453	0.0150032
728.531	0.0150851
728.609	0.0149914
728.687	0.0149892
728.765	0.0150504
728.843	0.0149935
728.921	0.0150736
728.999	0.0150759
729.078	0.0149536
729.156	0.0150479
729.234	0.0150240
729.312	0.0150130
729.390	0.0149702
729.468	0.0149734
729.546	0.0149421
729.624	0.0149922
729.703	0.0149689
729.781	0.0149783
729.859	0.0150050
729.937	0.0150237
730.015	0.0149269
730.093	0.0148193
730.171	0.0150017
730.249	0.0149764
730.328	0.0148528
730.406	0.0149045
730.484	0.0150643
730.562	0.0148674
730.640	0.0149394
730.718	0.0149200
730.796	0.0148818
730.874	0.0148534
730.953	0.0151933
731.031	0.0149042
731.109	0.0148804
731.187	0.0148232
731.265	0.0150192
731.343	0.0148322
731.421	0.0148081
731.499	0.0149930
731.578	0.0149587
731.656	0.0149165
731.734	0.0150057
731.812	0.0149011
731.890	0.0150027
731.968	0.0148795
732.046	0.0147333
732.124	0.0149239
732.203	0.0148663
732.281	0.0149310
732.359	0.0150423
732.437	0.0150269
732.515	0.0150009
732.593	0.0150130
732.671	0.0150805
732.749	0.0151182
732.828	0.0150752
732.906	0.0151311
732.984	0.0151740
733.062	0.0151763
733.140	0.0151131
733.218	0.0151107
733.296	0.0151507
733.374	0.0151183
733.453	0.0152121
733.531	0.0150530
733.609	0.0151702
733.687	0.0151641
733.765	0.0150824
733.843	0.0149619
733.921	0.0149657
733.999	0.0151115
734.078	0.0150849
734.156	0.0151412
734.234	0.0150083
734.312	0.0150625
734.390	0.0149545
734.468	0.0150849
734.546	0.0149941
734.624	0.0150480
734.703	0.0150439
734.781	0.0148735
734.859	0.0149912
734.937	0.0148920
735.015	0.0150222
735.093	0.0150199
735.171	0.0150208
735.249	0.0151395
735.328	0.0150403
735.406	0.0150478
735.484	0.0149438
735.562	0.0149458
735.640	0.0149687
735.718	0.0150995
735.796	0.0151099
735.874	0.0151153
735.953	0.0151587
736.031	0.0150488
736.109	0.0151463
736.187	0.0151488
736.265	0.0152618
736.343	0.0151872
736.421	0.0151875
736.499	0.0152133
736.578	0.0153645
736.656	0.0151851
736.734	0.0150353
736.812	0.0152677
736.890	0.0152061
736.968	0.0152641
737.046	0.0151610
737.124	0.0151196
737.203	0.0151298
737.281	0.0151676
737.359	0.0151049
737.437	0.0152603
737.515	0.0152863
737.593	0.0151772
737.671	0.0150934
737.749	0.0151504
737.828	0.0150580
737.906	0.0152107
737.984	0.0149907
738.062	0.0150677
738.140	0.0151076
738.218	0.0148230
738.296	0.0149864
738.374	0.0150084
738.453	0.0148801
738.531	0.0150075
738.609	0.0148702
738.687	0.0150256
738.765	0.0150164
738.843	0.0149469
738.921	0.0148232
738.999	0.0148877
739.078	0.0149529
739.156	0.0149589
739.234	0.0148830
739.312	0.0147801
739.390	0.0149935
739.468	0.0150188
739.546	0.0148235
739.624	0.0149670
739.703	0.0149244
739.781	0.0149977
739.859	0.0151859
739.937	0.0151469
740.015	0.0150178
740.093	0.0149236
740.171	0.0149404
740.249	0.0150267
740.328	0.0150319
740.406	0.0150774
740.484	0.0150383
740.562	0.0151218
740.640	0.0150546
740.718	0.0149801
740.796	0.0149547
740.874	0.0151093
740.953	0.0150948
741.031	0.0150698
741.109	0.0150792
741.187	0.0150555
741.265	0.0150937
741.343	0.0151013
741.421	0.0151084
741.499	0.0149574
741.578	0.0150146
741.656	0.0150964
741.734	0.0149819
741.812	0.0149223
741.890	0.0149418
741.968	0.0148899
742.046	0.0149773
742.124	0.0149759
742.203	0.0148830
742.281	0.0149920
742.359	0.0149294
742.437	0.0149167
742.515	0.0149669
742.593	0.0149473
742.671	0.0148867
742.749	0.0149178
742.828	0.0148540
742.906	0.0148695
742.984	0.0148185
743.062	0.0148882
743.140	0.0147598
743.218	0.0147708
743.296	0.0148280
743.374	0.0146953
743.453	0.0148672
743.531	0.0149747
743.609	0.0148962
743.687	0.0147583
743.765	0.0149348
743.843	0.0149352
743.921	0.0148260
743.999	0.0149648
744.078	0.0147833
744.156	0.0150162
744.234	0.0148516
744.312	0.0149352
744.390	0.0149789
744.468	0.0149084
744.546	0.0148917
744.624	0.0149486
744.703	0.0149565
744.781	0.0150455
744.859	0.0152340
744.937	0.0150227
745.015	0.0150108
745.093	0.0150294
745.171	0.0151266
745.249	0.0151793
745.328	0.0151075
745.406	0.0153020
745.484	0.0151400
745.562	0.0151399
745.640	0.0149990
745.718	0.0150683
745.796	0.0150431
745.874	0.0151540
745.953	0.0151731
746.031	0.0150874
746.109	0.0150782
746.187	0.0149431
746.265	0.0149843
746.343	0.0150220
746.421	0.0150080
746.499	0.0150941
746.578	0.0149662
746.656	0.0150519
746.734	0.0151299
746.812	0.0150825
746.890	0.0150483
746.968	0.0150094
747.046	0.0148021
747.124	0.0149004
747.203	0.0149397
747.281	0.0147765
747.359	0.0148857
747.437	0.0149426
747.515	0.0148995
747.593	0.0148888
747.671	0.0148845
747.749	0.0147493
747.828	0.0149001
747.906	0.0148874
747.984	0.0148215
748.062	0.0148550
748.140	0.0149832
748.218	0.0148248
748.296	0.0148128
748.374	0.0149299
748.453	0.0150512
748.531	0.0149995
748.609	0.0149660
748.687	0.0150726
748.765	0.0150423
748.843	0.0149929
748.921	0.0151138
748.999	0.0150226
749.078	0.0150842
749.156	0.0151265
749.234	0.0151877
749.312	0.0150670
749.390	0.0152072
749.468	0.0151849
749.546	0.0151939
749.624	0.0151985
749.703	0.0151469
749.781	0.0152268
749.859	0.0152050
749.937	0.0151826
750.015	0.0152673
750.093	0.0152734
750.171	0.0151160
750.249	0.0151963
750.328	0.0150967
750.406	0.0151844
750.484	0.0151537
750.562	0.0152306
750.640	0.0150266
750.718	0.0151103
750.796	0.0150084
750.874	0.0150568
750.953	0.0151305
751.031	0.0150549
751.109	0.0151342
751.187	0.0151070
751.265	0.0149712
751.343	0.0149977
751.421	0.0149860
751.499	0.0149108
751.578	0.0149666
751.656	0.0150467
751.734	0.0150798
751.812	0.0148932
751.890	0.0150060
751.968	0.0150183
752.046	0.0148827
752.124	0.0150185
752.203	0.0151674
752.281	0.0149185
752.359	0.0149118
752.437	0.0148847
752.515	0.0149865
752.593	0.0150876
752.671	0.0149821
752.749	0.0150273
752.828	0.0149126
752.906	0.0150500
752.984	0.0150588
753.062	0.0150151
753.140	0.0151058
753.218	0.0149991
753.296	0.0150154
753.374	0.0150921
753.453	0.0150361
753.531	0.0150111
753.609	0.0150990
753.687	0.0150934
753.765	0.0150426
753.843	0.0150427
753.921	0.0151608
753.999	0.0149178
754.078	0.0150355
754.156	0.0152588
754.234	0.0151311
754.312	0.0152500
754.390	0.0153402
754.468	0.0152530
754.546	0.0152993
754.624	0.0152377
754.703	0.0151201
754.781	0.0150923
754.859	0.0152815
754.937	0.0151630
755.015	0.0151234
755.093	0.0150829
755.171	0.0151747
755.249	0.0151584
755.328	0.0151854
755.406	0.0151939
755.484	0.0150970
755.562	0.0150706
755.640	0.0150313
755.718	0.0149539
755.796	0.0150417
755.874	0.0151031
755.953	0.0151659
756.031	0.0149482
756.109	0.0150806
756.187	0.0151366
756.265	0.0150585
756.343	0.0151350
756.421	0.0150150
756.499	0.0149277
756.578	0.0148949
756.656	0.0148679
756.734	0.0150104
756.812	0.0150346
756.890	0.0149570
756.968	0.0149593
757.046	0.0149824
757.124	0.0149120
757.203	0.0148762
757.281	0.0149700
757.359	0.0149615
757.437	0.0150905
757.515	0.0150687
757.593	0.0150790
757.671	0.0152655
757.749	0.0152009
757.828	0.0151373
757.906	0.0151765
757.984	0.0152141
758.062	0.0153053
758.140	0.0151703
758.218	0.0151975
758.296	0.0151338
758.374	0.0151254
758.453	0.0151286
758.531	0.0151785
758.609	0.0152695
758.687	0.0150842
758.765	0.0152331
758.843	0.0151903
758.921	0.0152175
758.999	0.0151296
759.078	0.0152149
759.156	0.0151876
759.234	0.0151776
759.312	0.0152665
759.390	0.0151486
759.468	0.0151344
759.546	0.0152585
759.624	0.0151723
759.703	0.0151031
759.781	0.0152962
759.859	0.0152937
759.937	0.0151395
760.015	0.0150957
760.093	0.0150943
760.171	0.0149594
760.249	0.0150060
760.328	0.0150472
760.406	0.0149219
760.484	0.0150488
760.562	0.0150594
760.640	0.0149908
760.718	0.0149480
760.796	0.0149717
760.874	0.0149509
760.953	0.0150733
761.031	0.0151108
761.109	0.0151265
761.187	0.0149823
761.265	0.0150378
761.343	0.0149833
761.421	0.0150656
761.499	0.0151751
761.578	0.0150331
761.656	0.0151871
761.734	0.0149773
761.812	0.0150259
761.890	0.0149797
761.968	0.0148856
762.046	0.0148860
762.124	0.0151218
762.203	0.0150009
762.281	0.0150612
762.359	0.0151428
762.437	0.0151782
762.515	0.0150456
762.593	0.0150704
762.671	0.0150716
762.749	0.0150974
762.828	0.0152070
762.906	0.0151043
762.984	0.0150164
763.062	0.0151236
763.140	0.0150191
763.218	0.0150388
763.296	0.0149965
763.374	0.0149110
763.453	0.0149717
763.531	0.0149786
763.609	0.0149458
763.687	0.0149656
763.765	0.0147474
763.843	0.0148459
763.921	0.0149700
763.999	0.0150806
764.078	0.0150523
764.156	0.0150023
764.234	0.0151577
764.312	0.0150701
764.390	0.0151183
764.468	0.0151416
764.546	0.0152110
764.624	0.0151042
764.703	0.0150323
764.781	0.0150129
764.859	0.0150005
764.937	0.0148368
765.015	0.0150003
765.093	0.0148409
765.171	0.0148087
765.249	0.0149894
765.328	0.0150217
765.406	0.0148363
765.484	0.0150108
765.562	0.0149620
765.640	0.0150043
765.718	0.0151352
765.796	0.0151429
765.874	0.0151809
765.953	0.0150353
766.031	0.0152108
766.109	0.0150854
766.187	0.0151382
766.265	0.0151615
766.343	0.0151197
766.421	0.0150623
766.499	0.0150085
766.578	0.0151566
766.656	0.0149606
766.734	0.0151173
766.812	0.0152671
766.890	0.0150108
766.968	0.0151011
767.046	0.0151746
767.124	0.0152090
767.203	0.0153484
767.281	0.0153824
767.359	0.0152606
767.437	0.0154224
767.515	0.0154068
767.593	0.0152028
767.671	0.0152951
767.749	0.0152076
767.828	0.0151904
767.906	0.0150679
767.984	0.0151415
768.062	0.0151336
768.140	0.0151120
768.218	0.0149410
768.296	0.0150526
768.374	0.0150352
768.453	0.0150937
768.531	0.0152004
768.609	0.0150582
768.687	0.0151080
768.765	0.0152063
768.843	0.0150481
768.921	0.0151858
768.999	0.0152701
769.078	0.0151087
769.156	0.0150983
769.234	0.0151444
769.312	0.0150358
769.390	0.0151406
769.468	0.0152128
769.546	0.0149426
769.624	0.0150484
769.703	0.0151433
769.781	0.0150198
769.859	0.0151439
769.937	0.0151725
770.015	0.0150874
770.093	0.0151805
770.171	0.0150906
770.249	0.0150658
770.328	0.0151157
770.406	0.0150944
770.484	0.0151323
770.562	0.0150779
770.640	0.0151105
770.718	0.0151060
770.796	0.0151806
770.874	0.0150686
770.953	0.0151744
771.031	0.0151885
771.109	0.0151924
771.187	0.0151935
771.265	0.0152209
771.343	0.0151322
771.421	0.0152331
771.499	0.0151333
771.578	0.0152346
771.656	0.0152935
771.734	0.0150434
771.812	0.0150624
771.890	0.0152454
771.968	0.0150298
772.046	0.0151508
772.124	0.0151469
772.203	0.0151450
772.281	0.0151733
772.359	0.0151462
772.437	0.0150606
772.515	0.0150090
772.593	0.0152748
772.671	0.0151657
772.749	0.0151640
772.828	0.0150639
772.906	0.0151093
772.984	0.0150561
773.062	0.0151295
773.140	0.0151479
773.218	0.0149662
773.296	0.0149946
773.374	0.0150941
773.453	0.0150858
773.531	0.0149566
773.609	0.0149414
773.687	0.0150027
773.765	0.0150675
773.843	0.0150742
773.921	0.0151443
773.999	0.0149738
774.078	0.0150607
774.156	0.0149502
774.234	0.0151233
774.312	0.0150089
774.390	0.0150838
774.468	0.0150758
774.546	0.0150995
774.624	0.0150367
774.703	0.0150324
774.781	0.0152204
774.859	0.0152359
774.937	0.0151139
775.015	0.0151562
775.093	0.0152982
775.171	0.0150952
775.249	0.0151605
775.328	0.0152650
775.406	0.0151673
775.484	0.0151441
775.562	0.0151914
775.640	0.0151051
775.718	0.0151064
775.796	0.0150439
775.874	0.0150272
775.953	0.0149805
776.031	0.0150624
776.109	0.0150364
776.187	0.0150868
776.265	0.0150867
776.343	0.0151474
776.421	0.0151029
776.499	0.0151248
776.578	0.0151151
776.656	0.0151108
776.734	0.0152185
776.812	0.0151530
776.890	0.0153544
776.968	0.0151952
777.046	0.0151723
777.124	0.0150986
777.203	0.0151647
777.281	0.0151659
777.359	0.0150719
777.437	0.0151246
777.515	0.0150740
777.593	0.0151131
777.671	0.0149409
777.749	0.0151282
777.828	0.0150056
777.906	0.0151810
777.984	0.0152268
778.062	0.0151631
778.140	0.0152573
778.218	0.0152893
778.296	0.0151328
778.374	0.0151759
778.453	0.0151609
778.531	0.0152100
778.609	0.0151161
778.687	0.0151210
778.765	0.0150072
778.843	0.0150164
778.921	0.0150082
778.999	0.0149879
779.078	0.0149696
779.156	0.0150641
779.234	0.0151590
779.312	0.0149326
779.390	0.0149801
779.468	0.0151839
779.546	0.0152267
779.624	0.0152020
779.703	0.0152026
779.781	0.0151763
779.859	0.0150736
779.937	0.0150854
780.015	0.0152966
780.093	0.0151551
780.171	0.0150303
780.249	0.0150259
780.328	0.0151230
780.406	0.0152025
780.484	0.0152157
780.562	0.0151273
780.640	0.0153072
780.718	0.0151445
780.796	0.0152001
780.874	0.0153553
780.953	0.0152574
781.031	0.0152022
781.109	0.0153864
781.187	0.0153111
781.265	0.0151997
781.343	0.0150147
781.421	0.0151606
781.499	0.0151067
781.578	0.0151834
781.656	0.0150310
781.734	0.0150098
781.812	0.0149119
781.890	0.0149872
781.968	0.0150158
782.046	0.0150632
782.124	0.0152302
782.203	0.0151911
782.281	0.0153265
782.359	0.0151820
782.437	0.0151797
782.515	0.0151908
782.593	0.0150888
782.671	0.0152533
782.749	0.0151597
782.828	0.0151150
782.906	0.0150796
782.984	0.0151025
783.062	0.0150433
783.140	0.0151729
783.218	0.0151250
783.296	0.0151797
783.374	0.0149962
783.453	0.0151368
783.531	0.0150546
783.609	0.0151559
783.687	0.0151514
783.765	0.0150848
783.843	0.0151562
783.921	0.0151992
783.999	0.0151522
784.078	0.0150861
784.156	0.0151534
784.234	0.0150109
784.312	0.0151105
784.390	0.0150253
784.468	0.0150385
784.546	0.0150673
784.624	0.0149987
784.703	0.0149516
784.781	0.0148914
784.859	0.0150172
784.937	0.0150558
785.015	0.0150768
785.093	0.0151418
785.171	0.0150129
785.249	0.0150716
785.328	0.0150256
785.406	0.0150865
785.484	0.0150008
785.562	0.0149063
785.640	0.0150240
785.718	0.0151215
785.796	0.0150220
785.874	0.0150291
785.953	0.0149964
786.031	0.0150452
786.109	0.0149352
786.187	0.0150494
786.265	0.0150594
786.343	0.0151296
786.421	0.0151209
786.499	0.0151208
786.578	0.0150025
786.656	0.0151914
786.734	0.0150140
786.812	0.0150725
786.890	0.0150922
786.968	0.0150499
787.046	0.0151053
787.124	0.0150889
787.203	0.0150748
787.281	0.0150953
787.359	0.0149588
787.437	0.0148633
787.515	0.0149180
787.593	0.0148801
787.671	0.0148991
787.749	0.0149280
787.828	0.0150368
787.906	0.0148993
787.984	0.0151293
788.062	0.0151201
788.140	0.0150392
788.218	0.0151716
788.296	0.0149697
788.374	0.0149870
788.453	0.0150925
788.531	0.0150365
788.609	0.0151654
788.687	0.0149604
788.765	0.0151638
788.843	0.0151473
788.921	0.0151098
788.999	0.0151562
789.078	0.0150652
789.156	0.0151601
789.234	0.0152148
789.312	0.0150822
789.390	0.0149250
789.468	0.0150581
789.546	0.0150776
789.624	0.0150244
789.703	0.0151048
789.781	0.0150704
789.859	0.0150737
789.937	0.0151407
790.015	0.0151687
790.093	0.0152187
790.171	0.0151008
790.249	0.0151065
790.328	0.0150744
790.406	0.0151845
790.484	0.0150201
790.562	0.0151736
790.640	0.0150659
790.718	0.0152222
790.796	0.0151263
790.874	0.0149760
790.953	0.0150539
791.031	0.0151405
791.109	0.0151484
791.187	0.0152003
791.265	0.0151849
791.343	0.0149847
791.421	0.0150540
791.499	0.0150027
791.578	0.0150430
791.656	0.0150577
791.734	0.0150508
791.812	0.0152738
791.890	0.0152848
791.968	0.0151947
792.046	0.0152232
792.124	0.0151468
792.203	0.0152090
792.281	0.0152153
792.359	0.0150360
792.437	0.0150767
792.515	0.0150986
792.593	0.0150359
792.671	0.0151333
792.749	0.0149468
792.828	0.0150784
792.906	0.0150173
792.984	0.0151010
793.062	0.0150267
793.140	0.0150796
793.218	0.0150821
793.296	0.0150235
793.374	0.0150542
793.453	0.0150237
793.531	0.0151077
793.609	0.0152151
793.687	0.0151947
793.765	0.0152587
793.843	0.0151185
793.921	0.0150751
793.999	0.0150162
794.078	0.0149903
794.156	0.0150486
794.234	0.0151155
794.312	0.0150372
794.390	0.0150210
794.468	0.0151178
794.546	0.0150031
794.624	0.0150497
794.703	0.0151241
794.781	0.0150281
794.859	0.0150601
794.937	0.0151057
795.015	0.0151463
795.093	0.0152133
795.171	0.0152447
795.249	0.0152482
795.328	0.0152001
795.406	0.0150125
795.484	0.0152047
795.562	0.0151096
795.640	0.0151851
795.718	0.0152609
795.796	0.0151154
795.874	0.0150623
795.953	0.0150642
796.031	0.0150756
796.109	0.0150456
796.187	0.0150252
796.265	0.0149887
796.343	0.0152257
796.421	0.0150835
796.499	0.0150678
796.578	0.0149711
796.656	0.0152080
796.734	0.0150843
796.812	0.0151000
796.890	0.0149870
796.968	0.0150642
797.046	0.0151561
797.124	0.0150501
797.203	0.0150799
797.281	0.0151553
797.359	0.0150573
797.437	0.0150701
797.515	0.0150322
797.593	0.0151446
797.671	0.0151715
797.749	0.0151936
797.828	0.0151128
797.906	0.0150410
797.984	0.0150310
798.062	0.0150610
798.140	0.0151590
798.218	0.0150868
798.296	0.0148653
798.374	0.0150331
798.453	0.0151088
798.531	0.0150031
798.609	0.0149950
798.687	0.0148713
798.765	0.0148924
798.843	0.0149559
798.921	0.0149605
798.999	0.0149645
799.078	0.0150266
799.156	0.0150604
799.234	0.0150191
799.312	0.0150385
799.390	0.0149396
799.468	0.0150561
799.546	0.0151292
799.624	0.0150369
799.703	0.0149621
799.781	0.0149429
799.859	0.0149445
799.937	0.0150110
800.015	0.0151560
800.093	0.0151894
800.171	0.0149994
800.249	0.0150127
800.328	0.0150845
800.406	0.0151174
800.484	0.0149006
800.562	0.0149973
800.640	0.0150632
800.718	0.0150994
800.796	0.0150206
800.874	0.0150404
800.953	0.0150166
801.031	0.0150788
801.109	0.0151476
801.187	0.0151654
801.265	0.0151006
801.343	0.0150511
801.421	0.0150293
801.499	0.0150838
801.578	0.0149500
801.656	0.0151278
801.734	0.0151031
801.812	0.0150481
801.890	0.0150085
801.968	0.0149353
802.046	0.0149992
802.124	0.0150155
802.203	0.0149643
802.281	0.0148826
802.359	0.0149719
802.437	0.0148540
802.515	0.0149820
802.593	0.0149788
802.671	0.0149554
802.749	0.0149265
802.828	0.0149807
802.906	0.0149845
802.984	0.0148917
803.062	0.0150121
803.140	0.0150456
803.218	0.0150459
803.296	0.0150100
803.374	0.0149711
803.453	0.0150236
803.531	0.0151013
803.609	0.0151226
803.687	0.0151061
803.765	0.0150593
803.843	0.0150025
803.921	0.0150996
803.999	0.0149655
804.078	0.0149732
804.156	0.0149039
804.234	0.0152237
804.312	0.0151586
804.390	0.0150519
804.468	0.0151392
804.546	0.0151904
804.624	0.0151723
804.703	0.0150062
804.781	0.0150040
804.859	0.0149899
804.937	0.0150642
805.015	0.0150534
805.093	0.0150919
805.171	0.0150840
805.249	0.0148926
805.328	0.0150369
805.406	0.0149445
805.484	0.0149994
805.562	0.0149973
805.640	0.0151373
805.718	0.0150000
805.796	0.0150323
805.874	0.0150734
805.953	0.0151725
806.031	0.0151699
806.109	0.0150571
806.187	0.0149478
806.265	0.0150576
806.343	0.0151832
806.421	0.0151405
806.499	0.0150491
806.578	0.0150366
806.656	0.0151928
806.734	0.0151360
806.812	0.0151122
806.890	0.0150372
806.968	0.0151399
807.046	0.0150293
807.124	0.0151057
807.203	0.0150714
807.281	0.0149854
807.359	0.0150210
807.437	0.0150095
807.515	0.0151006
807.593	0.0149835
807.671	0.0150079
807.749	0.0150219
807.828	0.0152129
807.906	0.0150864
807.984	0.0152008
808.062	0.0150628
808.140	0.0151498
808.218	0.0152566
808.296	0.0150971
808.374	0.0150568
808.453	0.0150141
808.531	0.0149780
808.609	0.0151390
808.687	0.0152342
808.765	0.0151320
808.843	0.0149455
808.921	0.0150214
808.999	0.0151189
809.078	0.0151406
809.156	0.0150404
809.234	0.0151379
809.312	0.0150967
809.390	0.0151062
809.468	0.0152181
809.546	0.0150430
809.624	0.0150677
809.703	0.0150823
809.781	0.0150658
809.859	0.0150964
809.937	0.0150456
810.015	0.0149671
810.093	0.0150274
810.171	0.0149592
810.249	0.0151366
810.328	0.0149792
810.406	0.0150433
810.484	0.0151608
810.562	0.0151078
810.640	0.0151133
810.718	0.0150406
810.796	0.0151364
810.874	0.0150041
810.953	0.0150132
811.031	0.0151570
811.109	0.0150735
811.187	0.0148786
811.265	0.0150979
811.343	0.0152040
811.421	0.0150463
811.499	0.0149843
811.578	0.0149886
811.656	0.0149737
811.734	0.0149802
811.812	0.0150811
811.890	0.0151151
811.968	0.0150336
812.046	0.0149084
812.124	0.0149609
812.203	0.0151880
812.281	0.0151591
812.359	0.0151382
812.437	0.0149008
812.515	0.0150849
812.593	0.0150661
812.671	0.0149924
812.749	0.0150566
812.828	0.0150793
812.906	0.0149632
812.984	0.0150907
813.062	0.0152582
813.140	0.0151384
813.218	0.0149460
813.296	0.0149873
813.374	0.0150340
813.453	0.0151661
813.531	0.0151451
813.609	0.0150989
813.687	0.0149675
813.765	0.0150450
813.843	0.0150543
813.921	0.0149357
813.999	0.0151183
814.078	0.0151794
814.156	0.0149240
814.234	0.0149677
814.312	0.0149820
814.390	0.0150666
814.468	0.0148875
814.546	0.0149299
814.624	0.0149228
814.703	0.0150552
814.781	0.0149738
814.859	0.0150828
814.937	0.0151442
815.015	0.0149765
815.093	0.0148853
815.171	0.0148908
815.249	0.0150558
815.328	0.0148686
815.406	0.0149752
815.484	0.0150697
815.562	0.0149479
815.640	0.0150506
815.718	0.0150844
815.796	0.0150748
815.874	0.0150630
815.953	0.0150512
816.031	0.0150862
816.109	0.0151909
816.187	0.0151123
816.265	0.0151505
816.343	0.0151015
816.421	0.0150691
816.499	0.0151012
816.578	0.0151328
816.656	0.0150826
816.734	0.0150423
816.812	0.0150445
816.890	0.0151557
816.968	0.0152519
817.046	0.0150330
817.124	0.0150324
817.203	0.0150372
817.281	0.0151466
817.359	0.0149631
817.437	0.0151241
817.515	0.0151079
817.593	0.0150539
817.671	0.0150818
817.749	0.0151362
817.828	0.0151098
817.906	0.0150893
817.984	0.0150477
818.062	0.0151718
818.140	0.0150749
818.218	0.0150642
818.296	0.0151823
818.374	0.0151947
818.453	0.0151272
818.531	0.0149882
818.609	0.0151171
818.687	0.0151272
818.765	0.0150117
818.843	0.0149640
818.921	0.0150977
818.999	0.0149764
819.078	0.0150601
819.156	0.0151849
819.234	0.0150151
819.312	0.0150334
819.390	0.0150990
819.468	0.0151065
819.546	0.0151272
819.624	0.0150874
819.703	0.0152442
819.781	0.0151973
819.859	0.0150584
819.937	0.0151834
820.015	0.0151704
820.093	0.0151055
820.171	0.0152422
820.249	0.0149782
820.328	0.0150800
820.406	0.0151492
820.484	0.0150337
820.562	0.0152100
820.640	0.0150199
820.718	0.0149438
820.796	0.0150931
820.874	0.0150359
820.953	0.0149319
821.031	0.0149796
821.109	0.0149191
821.187	0.0149241
821.265	0.0150296
821.343	0.0149602
821.421	0.0149366
821.499	0.0151077
821.578	0.0149310
821.656	0.0149227
821.734	0.0149744
821.812	0.0149967
821.890	0.0149885
821.968	0.0150300
822.046	0.0149289
822.124	0.0149462
822.203	0.0149298
822.281	0.0149484
822.359	0.0149073
822.437	0.0150011
822.515	0.0149765
822.593	0.0150524
822.671	0.0148540
822.749	0.0150464
822.828	0.0151622
822.906	0.0150469
822.984	0.0148863
823.062	0.0150701
823.140	0.0150304
823.218	0.0150914
823.296	0.0150679
823.374	0.0150269
823.453	0.0149957
823.531	0.0148138
823.609	0.0149390
823.687	0.0149709
823.765	0.0150211
823.843	0.0150199
823.921	0.0148893
823.999	0.0149935
824.078	0.0150368
824.156	0.0148151
824.234	0.0148842
824.312	0.0148720
824.390	0.0149356
824.468	0.0148888
824.546	0.0148701
824.624	0.0150166
824.703	0.0149642
824.781	0.0151073
824.859	0.0149760
824.937	0.0150425
825.015	0.0149693
825.093	0.0150423
825.171	0.0151723
825.249	0.0150416
825.328	0.0150232
825.406	0.0151831
825.484	0.0150155
825.562	0.0152082
825.640	0.0150539
825.718	0.0149235
825.796	0.0150610
825.874	0.0149327
825.953	0.0149181
826.031	0.0150594
826.109	0.0151817
826.187	0.0151563
826.265	0.0149807
826.343	0.0150643
826.421	0.0150687
826.499	0.0151271
826.578	0.0149827
826.656	0.0151190
826.734	0.0149572
826.812	0.0149541
826.890	0.0149284
826.968	0.0150592
827.046	0.0151305
827.124	0.0150500
827.203	0.0150895
827.281	0.0150680
827.359	0.0150442
827.437	0.0151292
827.515	0.0150847
827.593	0.0150311
827.671	0.0150489
827.749	0.0150031
827.828	0.0151616
827.906	0.0152028
827.984	0.0148878
828.062	0.0150279
828.140	0.0150829
828.218	0.0150311
828.296	0.0150788
828.374	0.0149577
828.453	0.0151481
828.531	0.0149854
828.609	0.0151709
828.687	0.0149790
828.765	0.0151035
828.843	0.0151846
828.921	0.0150811
828.999	0.0150938
829.078	0.0151189
829.156	0.0150678
829.234	0.0149564
829.312	0.0150496
829.390	0.0151520
829.468	0.0151862
829.546	0.0150418
829.624	0.0149847
829.703	0.0150118
829.781	0.0150552
829.859	0.0150912
829.937	0.0150758
830.015	0.0150129
830.093	0.0150666
830.171	0.0151173
830.249	0.0151344
830.328	0.0150173
830.406	0.0151099
830.484	0.0151019
830.562	0.0150377
830.640	0.0150362
830.718	0.0149684
830.796	0.0151686
830.874	0.0151488
830.953	0.0149737
831.031	0.0149371
831.109	0.0150317
831.187	0.0150549
831.265	0.0150670
831.343	0.0151061
831.421	0.0150791
831.499	0.0151122
831.578	0.0150883
831.656	0.0151100
831.734	0.0151120
831.812	0.0151884
831.890	0.0149722
831.968	0.0150195
832.046	0.0150528
832.124	0.0151276
832.203	0.0149840
832.281	0.0149763
832.359	0.0149657
832.437	0.0148930
832.515	0.0150267
832.593	0.0149593
832.671	0.0149590
832.749	0.0151105
832.828	0.0149810
832.906	0.0150476
832.984	0.0150569
833.062	0.0150049
833.140	0.0150308
833.218	0.0149516
833.296	0.0151010
833.374	0.0150671
833.453	0.0149540
833.531	0.0150117
833.609	0.0150150
833.687	0.0150131
833.765	0.0150247
833.843	0.0150667
833.921	0.0150513
833.999	0.0150178
834.078	0.0150747
834.156	0.0149791
834.234	0.0151939
834.312	0.0151920
834.390	0.0151330
834.468	0.0151014
834.546	0.0151495
834.624	0.0151974
834.703	0.0150706
834.781	0.0149744
834.859	0.0149111
834.937	0.0150799
835.015	0.0149067
835.093	0.0149857
835.171	0.0151299
835.249	0.0149167
835.328	0.0149899
835.406	0.0150676
835.484	0.0149693
835.562	0.0149881
835.640	0.0150530
835.718	0.0151463
835.796	0.0151086
835.874	0.0150259
835.953	0.0151008
836.031	0.0150472
836.109	0.0149298
836.187	0.0150037
836.265	0.0149694
836.343	0.0150779
836.421	0.0150746
836.499	0.0149131
836.578	0.0152006
836.656	0.0149784
836.734	0.0150764
836.812	0.0150786
836.890	0.0151083
836.968	0.0150131
837.046	0.0150608
837.124	0.0150846
837.203	0.0150802
837.281	0.0151273
837.359	0.0150964
837.437	0.0151345
837.515	0.0150028
837.593	0.0149597
837.671	0.0151391
837.749	0.0151834
837.828	0.0149792
837.906	0.0150756
837.984	0.0150928
838.062	0.0151215
838.140	0.0152615
838.218	0.0151451
838.296	0.0149934
838.374	0.0148907
838.453	0.0151920
838.531	0.0149913
838.609	0.0150088
838.687	0.0151115
838.765	0.0153101
838.843	0.0152621
838.921	0.0149542
838.999	0.0150266
839.078	0.0151667
839.156	0.0150723
839.234	0.0151608
839.312	0.0150262
839.390	0.0150759
839.468	0.0149940
839.546	0.0152384
839.624	0.0150115
839.703	0.0150290
839.781	0.0150656
839.859	0.0150728
839.937	0.0150744
840.015	0.0149921
840.093	0.0150816
840.171	0.0150307
840.249	0.0149769
840.328	0.0150148
840.406	0.0150475
840.484	0.0151035
840.562	0.0149944
840.640	0.0150301
840.718	0.0150072
840.796	0.0150027
840.874	0.0150285
840.953	0.0150054
841.031	0.0149524
841.109	0.0149561
841.187	0.0151468
841.265	0.0150817
841.343	0.0151523
841.421	0.0150374
841.499	0.0150017
841.578	0.0150722
841.656	0.0149934
841.734	0.0150086
841.812	0.0150782
841.890	0.0151010
841.968	0.0150970
842.046	0.0149438
842.124	0.0150921
842.203	0.0151581
842.281	0.0151007
842.359	0.0150824
842.437	0.0150657
842.515	0.0150752
842.593	0.0151231
842.671	0.0150607
842.749	0.0150322
842.828	0.0150727
842.906	0.0151121
842.984	0.0150063
843.062	0.0151631
843.140	0.0150266
843.218	0.0151260
843.296	0.0151090
843.374	0.0151993
843.453	0.0150422
843.531	0.0152178
843.609	0.0150928
843.687	0.0149619
843.765	0.0150773
843.843	0.0150948
843.921	0.0151556
843.999	0.0152335
844.078	0.0152419
844.156	0.0151443
844.234	0.0150488
844.312	0.0150573
844.390	0.0150626
844.468	0.0151124
844.546	0.0151264
844.624	0.0150384
844.703	0.0151293
844.781	0.0150703
844.859	0.0151962
844.937	0.0151749
845.015	0.0151093
845.093	0.0152068
845.171	0.0151465
845.249	0.0150397
845.328	0.0151332
845.406	0.0152023
845.484	0.0151683
845.562	0.0151882
845.640	0.0150636
845.718	0.0150703
845.796	0.0151377
845.874	0.0150858
845.953	0.0151412
846.031	0.0151250
846.109	0.0151751
846.187	0.0150665
846.265	0.0150633
846.343	0.0150569
846.421	0.0151415
846.499	0.0149120
846.578	0.0148384
846.656	0.0149506
846.734	0.0149725
846.812	0.0149198
846.890	0.0149083
846.968	0.0150478
847.046	0.0148518
847.124	0.0149752
847.203	0.0148867
847.281	0.0149905
847.359	0.0150048
847.437	0.0150463
847.515	0.0148859
847.593	0.0150197
847.671	0.0151122
847.749	0.0150936
847.828	0.0150608
847.906	0.0150046
847.984	0.0149935
848.062	0.0150562
848.140	0.0149984
848.218	0.0150246
848.296	0.0152135
848.374	0.0150678
848.453	0.0150066
848.531	0.0150739
848.609	0.0151196
848.687	0.0149426
848.765	0.0150857
848.843	0.0150459
848.921	0.0149370
848.999	0.0150561
849.078	0.0151325
849.156	0.0150017
849.234	0.0149586
849.312	0.0150237
849.390	0.0150282
849.468	0.0150501
849.546	0.0150757
849.624	0.0150785
849.703	0.0150458
849.781	0.0150687
849.859	0.0150174
849.937	0.0150254
850.015	0.0151223
850.093	0.0151367
850.171	0.0149994
850.249	0.0149902
850.328	0.0149919
850.406	0.0150172
850.484	0.0151215
850.562	0.0149203
850.640	0.0151235
850.718	0.0151010
850.796	0.0149404
850.874	0.0150282
850.953	0.0150789
851.031	0.0150536
851.109	0.0149996
851.187	0.0151073
851.265	0.0151352
851.343	0.0150950
851.421	0.0149820
851.499	0.0151126
851.578	0.0150401
851.656	0.0150497
851.734	0.0150245
851.812	0.0151340
851.890	0.0150266
851.968	0.0151407
852.046	0.0151501
852.124	0.0150086
852.203	0.0151831
852.281	0.0152676
852.359	0.0151967
852.437	0.0151865
852.515	0.0151630
852.593	0.0151992
852.671	0.0152145
852.749	0.0152187
852.828	0.0151273
852.906	0.0152721
852.984	0.0151661
853.062	0.0151998
853.140	0.0150726
853.218	0.0151288
853.296	0.0150407
853.374	0.0151832
853.453	0.0151421
853.531	0.0149732
853.609	0.0150826
853.687	0.0150031
853.765	0.0151628
853.843	0.0149712
853.921	0.0150037
853.999	0.0151233
854.078	0.0150644
854.156	0.0148702
854.234	0.0151417
854.312	0.0150639
854.390	0.0150499
854.468	0.0150385
854.546	0.0150216
854.624	0.0150071
854.703	0.0148843
854.781	0.0149540
854.859	0.0150530
854.937	0.0151535
855.015	0.0150564
855.093	0.0151836
855.171	0.0151147
855.249	0.0151728
855.328	0.0150694
855.406	0.0151796
855.484	0.0151125
855.562	0.0149988
855.640	0.0149979
855.718	0.0150206
855.796	0.0150787
855.874	0.0151292
855.953	0.0150700
856.031	0.0150522
856.109	0.0150433
856.187	0.0150035
856.265	0.0151578
856.343	0.0151711
856.421	0.0150391
856.499	0.0150742
856.578	0.0152184
856.656	0.0151796
856.734	0.0150981
856.812	0.0151941
856.890	0.0151865
856.968	0.0150859
857.046	0.0151688
857.124	0.0150913
857.203	0.0149884
857.281	0.0150893
857.359	0.0151561
857.437	0.0151266
857.515	0.0150717
857.593	0.0150536
857.671	0.0152079
857.749	0.0151228
857.828	0.0150459
857.906	0.0151144
857.984	0.0150410
858.062	0.0149653
858.140	0.0151320
858.218	0.0148746
858.296	0.0150819
858.374	0.0150404
858.453	0.0149973
858.531	0.0151080
858.609	0.0150743
858.687	0.0150420
858.765	0.0149734
858.843	0.0149905
858.921	0.0151641
858.999	0.0150520
859.078	0.0151907
859.156	0.0150232
859.234	0.0151408
859.312	0.0151193
859.390	0.0150541
859.468	0.0150288
859.546	0.0151037
859.624	0.0150656
859.703	0.0151873
859.781	0.0151241
859.859	0.0150585
859.937	0.0152051
860.015	0.0150362
860.093	0.0151410
860.171	0.0151441
860.249	0.0151242
860.328	0.0151066
860.406	0.0151263
860.484	0.0150227
860.562	0.0149906
860.640	0.0150934
860.718	0.0150427
860.796	0.0151792
860.874	0.0152380
860.953	0.0152567
861.031	0.0150577
861.109	0.0150329
861.187	0.0151534
861.265	0.0151983
861.343	0.0150474
861.421	0.0150799
861.499	0.0152158
861.578	0.0152360
861.656	0.0152728
861.734	0.0151650
861.812	0.0151379
861.890	0.0152001
861.968	0.0152830
862.046	0.0152322
862.124	0.0152074
862.203	0.0151035
862.281	0.0152038
862.359	0.0151003
862.437	0.0150254
862.515	0.0151106
862.593	0.0151192
862.671	0.0151524
862.749	0.0152308
862.828	0.0152105
862.906	0.0149804
862.984	0.0151462
863.062	0.0150253
863.140	0.0150990
863.218	0.0150563
863.296	0.0150105
863.374	0.0150195
863.453	0.0149606
863.531	0.0150045
863.609	0.0149893
863.687	0.0149569
863.765	0.0149220
863.843	0.0149458
863.921	0.0151320
863.999	0.0150628
864.078	0.0150347
864.156	0.0151402
864.234	0.0150336
864.312	0.0150175
864.390	0.0150081
864.468	0.0150394
864.546	0.0149553
864.624	0.0149580
864.703	0.0151273
864.781	0.0151504
864.859	0.0151981
864.937	0.0151357
865.015	0.0152148
865.093	0.0152645
865.171	0.0151244
865.249	0.0151804
865.328	0.0151863
865.406	0.0151822
865.484	0.0150564
865.562	0.0150829
865.640	0.0150137
865.718	0.0152099
865.796	0.0152146
865.874	0.0151472
865.953	0.0151641
866.031	0.0152228
866.109	0.0150977
866.187	0.0150813
866.265	0.0153074
866.343	0.0153725
866.421	0.0151009
866.499	0.0151680
866.578	0.0151709
866.656	0.0150034
866.734	0.0151398
866.812	0.0151846
866.890	0.0150940
866.968	0.0150397
867.046	0.0150240
867.124	0.0150906
867.203	0.0150344
867.281	0.0152561
867.359	0.0151380
867.437	0.0150510
867.515	0.0149941
867.593	0.0151523
867.671	0.0151109
867.749	0.0152084
867.828	0.0152555
867.906	0.0150798
867.984	0.0150651
868.062	0.0151600
868.140	0.0151534
868.218	0.0150165
868.296	0.0151312
868.374	0.0150968
868.453	0.0151145
868.531	0.0150844
868.609	0.0151311
868.687	0.0152022
868.765	0.0151456
868.843	0.0151144
868.921	0.0152464
868.999	0.0152479
869.078	0.0152070
869.156	0.0150011
869.234	0.0152106
869.312	0.0151665
869.390	0.0151576
869.468	0.0151192
869.546	0.0150806
869.624	0.0151793
869.703	0.0152548
869.781	0.0151147
869.859	0.0149782
869.937	0.0152483
870.015	0.0150601
870.093	0.0151105
870.171	0.0151575
870.249	0.0151939
870.328	0.0151135
870.406	0.0150420
870.484	0.0152158
870.562	0.0151115
870.640	0.0151762
870.718	0.0153408
870.796	0.0152453
870.874	0.0151517
870.953	0.0150548
871.031	0.0150632
871.109	0.0150538
871.187	0.0150848
871.265	0.0150813
871.343	0.0149053
871.421	0.0148985
871.499	0.0150662
871.578	0.0151912
871.656	0.0149982
871.734	0.0149867
871.812	0.0150552
871.890	0.0149311
871.968	0.0149194
872.046	0.0150133
872.124	0.0149282
872.203	0.0149284
872.281	0.0151002
872.359	0.0150593
872.437	0.0150271
872.515	0.0149411
872.593	0.0149259
872.671	0.0149429
872.749	0.0152399
872.828	0.0150857
872.906	0.0148927
872.984	0.0150553
873.062	0.0152153
873.140	0.0149710
873.218	0.0150982
873.296	0.0150562
873.374	0.0150076
873.453	0.0149319
873.531	0.0150034
873.609	0.0151050
873.687	0.0151498
873.765	0.0151039
873.843	0.0149825
873.921	0.0150007
873.999	0.0151069
874.078	0.0149254
874.156	0.0150290
874.234	0.0149718
874.312	0.0149966
874.390	0.0150642
874.468	0.0150484
874.546	0.0150204
874.624	0.0151174
874.703	0.0150903
874.781	0.0151185
874.859	0.0149883
874.937	0.0151553
875.015	0.0151270
875.093	0.0150689
875.171	0.0149429
875.249	0.0150724
875.328	0.0151239
875.406	0.0150458
875.484	0.0149870
875.562	0.0151213
875.640	0.0149168
875.718	0.0150890
875.796	0.0150404
875.874	0.0150840
875.953	0.0148920
876.031	0.0149950
876.109	0.0150821
876.187	0.0149647
876.265	0.0150595
876.343	0.0149936
876.421	0.0149753
876.499	0.0148658
876.578	0.0151049
876.656	0.0150063
876.734	0.0150665
876.812	0.0150492
876.890	0.0150627
876.968	0.0149228
877.046	0.0150022
877.124	0.0151308
877.203	0.0151272
877.281	0.0151340
877.359	0.0151073
877.437	0.0151653
877.515	0.0150915
877.593	0.0151006
877.671	0.0151511
877.749	0.0151806
877.828	0.0152164
877.906	0.0151147
877.984	0.0151885
878.062	0.0151352
878.140	0.0151252
878.218	0.0151291
878.296	0.0151717
878.374	0.0150755
878.453	0.0150842
878.531	0.0152444
878.609	0.0150507
878.687	0.0150751
878.765	0.0151524
878.843	0.0150696
878.921	0.0151334
878.999	0.0151273
879.078	0.0150266
879.156	0.0150002
879.234	0.0150280
879.312	0.0148967
879.390	0.0151048
879.468	0.0152184
879.546	0.0151025
879.624	0.0150204
879.703	0.0151144
879.781	0.0151559
879.859	0.0150706
879.937	0.0151151
880.015	0.0151163
880.093	0.0151085
880.171	0.0149966
880.249	0.0151288
880.328	0.0150340
880.406	0.0149134
880.484	0.0149538
880.562	0.0150256
880.640	0.0150961
880.718	0.0149660
880.796	0.0150346
880.874	0.0149852
880.953	0.0150961
881.031	0.0150376
881.109	0.0151047
881.187	0.0150489
881.265	0.0150391
881.343	0.0151055
881.421	0.0151984
881.499	0.0149287
881.578	0.0151378
881.656	0.0150508
881.734	0.0151521
881.812	0.0150214
881.890	0.0150480
881.968	0.0150493
882.046	0.0151656
882.124	0.0149603
882.203	0.0149639
882.281	0.0149984
882.359	0.0150246
882.437	0.0152290
882.515	0.0150691
882.593	0.0151544
882.671	0.0152258
882.749	0.0149923
882.828	0.0149945
882.906	0.0150401
882.984	0.0152184
883.062	0.0151404
883.140	0.0151091
883.218	0.0150340
883.296	0.0150480
883.374	0.0149825
883.453	0.0151820
883.531	0.0150470
883.609	0.0150831
883.687	0.0151266
883.765	0.0150855
883.843	0.0150372
883.921	0.0151514
883.999	0.0152183
884.078	0.0150338
884.156	0.0149544
884.234	0.0151326
884.312	0.0150709
884.390	0.0151318
884.468	0.0150307
884.546	0.0149895
884.624	0.0151163
884.703	0.0149907
884.781	0.0150269
884.859	0.0150260
884.937	0.0148788
885.015	0.0150589
885.093	0.0150638
885.171	0.0149182
885.249	0.0150935
885.328	0.0150827
885.406	0.0150371
885.484	0.0149532
885.562	0.0151605
885.640	0.0150863
885.718	0.0149463
885.796	0.0149735
885.874	0.0150844
885.953	0.0149136
886.031	0.0150941
886.109	0.0151533
886.187	0.0149611
886.265	0.0150068
886.343	0.0149953
886.421	0.0152395
886.499	0.0150751
886.578	0.0149049
886.656	0.0150280
886.734	0.0151720
886.812	0.0151818
886.890	0.0151795
886.968	0.0150253
887.046	0.0150724
887.124	0.0151783
887.203	0.0150436
887.281	0.0150895
887.359	0.0151067
887.437	0.0150549
887.515	0.0151901
887.593	0.0152104
887.671	0.0151586
887.749	0.0151879
887.828	0.0150522
887.906	0.0151028
887.984	0.0150130
888.062	0.0151523
888.140	0.0150974
888.218	0.0150684
888.296	0.0150983
888.374	0.0149816
888.453	0.0150699
888.531	0.0149651
888.609	0.0150930
888.687	0.0149896
888.765	0.0150523
888.843	0.0151141
888.921	0.0151658
888.999	0.0151350
889.078	0.0151157
889.156	0.0150183
889.234	0.0150449
889.312	0.0151011
889.390	0.0150352
889.468	0.0151859
889.546	0.0151339
889.624	0.0150123
889.703	0.0148773
889.781	0.0151247
889.859	0.0150925
889.937	0.0151805
890.015	0.0150324
890.093	0.0150355
890.171	0.0150517
890.249	0.0150182
890.328	0.0150106
890.406	0.0150337
890.484	0.0150626
890.562	0.0150822
890.640	0.0151740
890.718	0.0149652
890.796	0.0150472
890.874	0.0150203
890.953	0.0149668
891.031	0.0150590
891.109	0.0150634
891.187	0.0150676
891.265	0.0150591
891.343	0.0150494
891.421	0.0150526
891.499	0.0151292
891.578	0.0150576
891.656	0.0151383
891.734	0.0152844
891.812	0.0152898
891.890	0.0150647
891.968	0.0151323
892.046	0.0151609
892.124	0.0151019
892.203	0.0150918
892.281	0.0151175
892.359	0.0151306
892.437	0.0151129
892.515	0.0149545
892.593	0.0151537
892.671	0.0151656
892.749	0.0151183
892.828	0.0148651
892.906	0.0151423
892.984	0.0149997
893.062	0.0150452
893.140	0.0150213
893.218	0.0150233
893.296	0.0150430
893.374	0.0150780
893.453	0.0150305
893.531	0.0150652
893.609	0.0150310
893.687	0.0150836
893.765	0.0151598
893.843	0.0151358
893.921	0.0151117
893.999	0.0150946
894.078	0.0150341
894.156	0.0150390
894.234	0.0151048
894.312	0.0150082
894.390	0.0150587
894.468	0.0150867
894.546	0.0150314
894.624	0.0150478
894.703	0.0151892
894.781	0.0151125
894.859	0.0150424
894.937	0.0150614
895.015	0.0149731
895.093	0.0150735
895.171	0.0151074
895.249	0.0151604
895.328	0.0150083
895.406	0.0150530
895.484	0.0151308
895.562	0.0150945
895.640	0.0150518
895.718	0.0150192
895.796	0.0150464
895.874	0.0149640
895.953	0.0149636
896.031	0.0150629
896.109	0.0150228
896.187	0.0149113
896.265	0.0151232
896.343	0.0151131
896.421	0.0151834
896.499	0.0150893
896.578	0.0152361
896.656	0.0151147
896.734	0.0150549
896.812	0.0151754
896.890	0.0150010
896.968	0.0151757
897.046	0.0151289
897.124	0.0150964
897.203	0.0151882
897.281	0.0151998
897.359	0.0151118
897.437	0.0151765
897.515	0.0152802
897.593	0.0151361
897.671	0.0150426
897.749	0.0151674
897.828	0.0150281
897.906	0.0150452
897.984	0.0152181
898.062	0.0151652
898.140	0.0151270
898.218	0.0149318
898.296	0.0151392
898.374	0.0151177
898.453	0.0152036
898.531	0.0151065
898.609	0.0150969
898.687	0.0151002
898.765	0.0150247
898.843	0.0150522
898.921	0.0150918
898.999	0.0148974
899.078	0.0149448
899.156	0.0148698
899.234	0.0148630
899.312	0.0150002
899.390	0.0150862
899.468	0.0149937
899.546	0.0150017
899.624	0.0150134
899.703	0.0151260
899.781	0.0151395
899.859	0.0151133
899.937	0.0150195
900.015	0.0149933
900.093	0.0149818
900.171	0.0149001
900.249	0.0150405
900.328	0.0149840
900.406	0.0150304
900.484	0.0150719
900.562	0.0150278
900.640	0.0150218
900.718	0.0150047
900.796	0.0150691
900.874	0.0152853
900.953	0.0151643
901.031	0.0150830
901.109	0.0151422
901.187	0.0151028
901.265	0.0149436
901.343	0.0150632
901.421	0.0150973
901.499	0.0150362
901.578	0.0150456
901.656	0.0151466
901.734	0.0151065
901.812	0.0150995
901.890	0.0149435
901.968	0.0149863
902.046	0.0149672
902.124	0.0151070
902.203	0.0149945
902.281	0.0149236
902.359	0.0150530
902.437	0.0150124
902.515	0.0150471
902.593	0.0150404
902.671	0.0149706
902.749	0.0151542
902.828	0.0150990
902.906	0.0151115
902.984	0.0149883
903.062	0.0150529
903.140	0.0151109
903.218	0.0151253
903.296	0.0150996
903.374	0.0151058
903.453	0.0149558
903.531	0.0149252
903.609	0.0150544
903.687	0.0150291
903.765	0.0149930
903.843	0.0151005
903.921	0.0151347
903.999	0.0150938
904.078	0.0151496
904.156	0.0150047
904.234	0.0150410
904.312	0.0151228
904.390	0.0150132
904.468	0.0151281
904.546	0.0150652
904.624	0.0152229
904.703	0.0149651
904.781	0.0151132
904.859	0.0152203
904.937	0.0152499
905.015	0.0152198
905.093	0.0151069
905.171	0.0152657
905.249	0.0152584
905.328	0.0151759
905.406	0.0151079
905.484	0.0151392
905.562	0.0150544
905.640	0.0152048
905.718	0.0151637
905.796	0.0152882
905.874	0.0152824
905.953	0.0152733
906.031	0.0152209
906.109	0.0151221
906.187	0.0152406
906.265	0.0150722
906.343	0.0151262
906.421	0.0151749
906.499	0.0150948
906.578	0.0149989
906.656	0.0150672
906.734	0.0151476
906.812	0.0151014
906.890	0.0150061
906.968	0.0151241
907.046	0.0151524
907.124	0.0151020
907.203	0.0151119
907.281	0.0150753
907.359	0.0151024
907.437	0.0150351
907.515	0.0149535
907.593	0.0151294
907.671	0.0149992
907.749	0.0151273
907.828	0.0151489
907.906	0.0150442
907.984	0.0152227
908.062	0.0150977
908.140	0.0149598
908.218	0.0150627
908.296	0.0151303
908.374	0.0150851
908.453	0.0150494
908.531	0.0149837
908.609	0.0152047
908.687	0.0151368
908.765	0.0150565
908.843	0.0150437
908.921	0.0150733
908.999	0.0151334
909.078	0.0150600
909.156	0.0150013
909.234	0.0149465
909.312	0.0150530
909.390	0.0151146
909.468	0.0150557
909.546	0.0151057
909.624	0.0150728
909.703	0.0151223
909.781	0.0151104
909.859	0.0150871
909.937	0.0151665
910.015	0.0151051
910.093	0.0152486
910.171	0.0151132
910.249	0.0150755
910.328	0.0151901
910.406	0.0150301
910.484	0.0151568
910.562	0.0151246
910.640	0.0151630
910.718	0.0152367
910.796	0.0150745
910.874	0.0150231
910.953	0.0151425
911.031	0.0151260
911.109	0.0150365
911.187	0.0151089
911.265	0.0151161
911.343	0.0151949
911.421	0.0150671
911.499	0.0150852
911.578	0.0150576
911.656	0.0150772
911.734	0.0150271
911.812	0.0150812
911.890	0.0151663
911.968	0.0151642
912.046	0.0151281
912.124	0.0150277
912.203	0.0152628
912.281	0.0151263
912.359	0.0151646
912.437	0.0152059
912.515	0.0151701
912.593	0.0149985
912.671	0.0150372
912.749	0.0151632
912.828	0.0151817
912.906	0.0151402
912.984	0.0151261
913.062	0.0151080
913.140	0.0152772
913.218	0.0152844
913.296	0.0152005
913.374	0.0152454
913.453	0.0152316
913.531	0.0152080
913.609	0.0151366
913.687	0.0150565
913.765	0.0152238
913.843	0.0151382
913.921	0.0151310
913.999	0.0150571
914.078	0.0151254
914.156	0.0150304
914.234	0.0151145
914.312	0.0150493
914.390	0.0149902
914.468	0.0149068
914.546	0.0151916
914.624	0.0150400
914.703	0.0150219
914.781	0.0151781
914.859	0.0151069
914.937	0.0150854
915.015	0.0151784
915.093	0.0151376
915.171	0.0150328
915.249	0.0152250
915.328	0.0151538
915.406	0.0151366
915.484	0.0151611
915.562	0.0150719
915.640	0.0150449
915.718	0.0150259
915.796	0.0150742
915.874	0.0150858
915.953	0.0149422
916.031	0.0149959
916.109	0.0150106
916.187	0.0150906
916.265	0.0150239
916.343	0.0149175
916.421	0.0151269
916.499	0.0151553
916.578	0.0150575
916.656	0.0150747
916.734	0.0150126
916.812	0.0151135
916.890	0.0150436
916.968	0.0150076
917.046	0.0149137
917.124	0.0149680
917.203	0.0150817
917.281	0.0151667
917.359	0.0150631
917.437	0.0150265
917.515	0.0151109
917.593	0.0149386
917.671	0.0150252
917.749	0.0150618
917.828	0.0151948
917.906	0.0150351
917.984	0.0151165
918.062	0.0150732
918.140	0.0151436
918.218	0.0151888
918.296	0.0151894
918.374	0.0151485
918.453	0.0151987
918.531	0.0149094
918.609	0.0151147
918.687	0.0151086
918.765	0.0148653
918.843	0.0148589
918.921	0.0150672
918.999	0.0151770
919.078	0.0150687
919.156	0.0150185
919.234	0.0150293
919.312	0.0150056
919.390	0.0150227
919.468	0.0151408
919.546	0.0150423
919.624	0.0150580
919.703	0.0151447
919.781	0.0150974
919.859	0.0151379
919.937	0.0151060
