05/06/2022	19:26:16	Ver.	4.1	UNKNOWN
Optical Delay	600.015094	Delta X		0.078125	Sweeps	1	Scan Rate	0/0
Coordinates	Axis 1	NaN	Axis 2	NaN	Axis 3	NaN	Axis 4	NaN	Axis 5	NaN	Axis 6	0.000000
TX Power	0.000000	RX Power	0.000000

600.015	0.0154557
600.093	0.0154710
600.171	0.0154057
600.249	0.0153346
600.328	0.0154853
600.406	0.0154823
600.484	0.0154172
600.562	0.0152808
600.640	0.0154328
600.718	0.0154775
600.796	0.0154823
600.874	0.0153041
600.953	0.0154176
601.031	0.0154851
601.109	0.0154968
601.187	0.0154742
601.265	0.0154895
601.343	0.0155064
601.421	0.0154301
601.499	0.0152583
601.578	0.0154038
601.656	0.0153467
601.734	0.0154438
601.812	0.0153874
601.890	0.0154053
601.968	0.0154598
602.046	0.0153181
602.124	0.0153259
602.203	0.0154719
602.281	0.0153374
602.359	0.0152459
602.437	0.0153017
602.515	0.0154336
602.593	0.0154532
602.671	0.0153471
602.749	0.0152930
602.828	0.0151649
602.906	0.0153048
602.984	0.0151920
603.062	0.0153963
603.140	0.0153692
603.218	0.0153436
603.296	0.0152941
603.374	0.0154501
603.453	0.0152711
603.531	0.0153153
603.609	0.0153976
603.687	0.0155062
603.765	0.0155011
603.843	0.0153830
603.921	0.0154497
603.999	0.0154494
604.078	0.0154234
604.156	0.0154582
604.234	0.0155943
604.312	0.0153286
604.390	0.0153539
604.468	0.0154072
604.546	0.0153275
604.624	0.0154249
604.703	0.0153192
604.781	0.0153688
604.859	0.0153001
604.937	0.0154172
605.015	0.0153758
605.093	0.0153482
605.171	0.0154972
605.249	0.0154192
605.328	0.0154689
605.406	0.0154305
605.484	0.0154164
605.562	0.0155455
605.640	0.0153328
605.718	0.0153618
605.796	0.0154589
605.874	0.0152560
605.953	0.0153801
606.031	0.0152945
606.109	0.0154662
606.187	0.0153320
606.265	0.0153415
606.343	0.0153279
606.421	0.0153923
606.499	0.0152603
606.578	0.0151962
606.656	0.0152713
606.734	0.0154362
606.812	0.0152351
606.890	0.0153415
606.968	0.0152284
607.046	0.0152570
607.124	0.0153021
607.203	0.0153346
607.281	0.0154205
607.359	0.0153208
607.437	0.0153866
607.515	0.0152699
607.593	0.0153236
607.671	0.0154070
607.749	0.0153518
607.828	0.0153738
607.906	0.0153616
607.984	0.0153164
608.062	0.0153674
608.140	0.0154626
608.218	0.0153073
608.296	0.0153581
608.374	0.0155074
608.453	0.0154704
608.531	0.0154936
608.609	0.0155225
608.687	0.0155280
608.765	0.0154461
608.843	0.0154955
608.921	0.0153583
608.999	0.0155061
609.078	0.0154293
609.156	0.0154386
609.234	0.0153741
609.312	0.0154311
609.390	0.0154417
609.468	0.0153576
609.546	0.0152246
609.624	0.0152852
609.703	0.0154155
609.781	0.0152108
609.859	0.0153983
609.937	0.0151262
610.015	0.0151878
610.093	0.0153087
610.171	0.0152433
610.249	0.0154636
610.328	0.0153476
610.406	0.0152005
610.484	0.0153909
610.562	0.0154375
610.640	0.0152957
610.718	0.0151897
610.796	0.0152643
610.874	0.0153186
610.953	0.0152930
611.031	0.0154368
611.109	0.0153757
611.187	0.0154525
611.265	0.0154110
611.343	0.0153788
611.421	0.0153924
611.499	0.0153857
611.578	0.0154340
611.656	0.0154334
611.734	0.0154543
611.812	0.0154606
611.890	0.0154336
611.968	0.0155843
612.046	0.0154341
612.124	0.0155239
612.203	0.0154848
612.281	0.0153999
612.359	0.0154646
612.437	0.0155102
612.515	0.0153021
612.593	0.0153596
612.671	0.0153684
612.749	0.0153859
612.828	0.0152887
612.906	0.0153352
612.984	0.0152490
613.062	0.0151958
613.140	0.0152004
613.218	0.0151938
613.296	0.0152516
613.374	0.0152423
613.453	0.0151849
613.531	0.0151787
613.609	0.0151617
613.687	0.0153298
613.765	0.0153100
613.843	0.0151504
613.921	0.0151692
613.999	0.0153302
614.078	0.0154170
614.156	0.0153366
614.234	0.0153925
614.312	0.0153181
614.390	0.0155186
614.468	0.0155925
614.546	0.0154250
614.624	0.0155331
614.703	0.0155728
614.781	0.0154795
614.859	0.0154918
614.937	0.0156082
615.015	0.0154964
615.093	0.0154808
615.171	0.0155058
615.249	0.0154706
615.328	0.0154384
615.406	0.0155145
615.484	0.0154984
615.562	0.0154148
615.640	0.0153970
615.718	0.0154137
615.796	0.0153732
615.874	0.0152116
615.953	0.0153801
616.031	0.0154623
616.109	0.0154059
616.187	0.0153874
616.265	0.0153370
616.343	0.0153339
616.421	0.0153944
616.499	0.0153555
616.578	0.0154430
616.656	0.0153850
616.734	0.0153403
616.812	0.0153997
616.890	0.0154340
616.968	0.0153912
617.046	0.0154339
617.124	0.0154877
617.203	0.0152886
617.281	0.0151514
617.359	0.0154128
617.437	0.0154856
617.515	0.0153978
617.593	0.0154315
617.671	0.0153920
617.749	0.0153402
617.828	0.0154278
617.906	0.0155811
617.984	0.0154794
618.062	0.0154371
618.140	0.0153814
618.218	0.0155740
618.296	0.0154475
618.374	0.0153536
618.453	0.0155390
618.531	0.0155451
618.609	0.0154426
618.687	0.0154976
618.765	0.0153853
618.843	0.0154343
618.921	0.0154688
618.999	0.0154391
619.078	0.0154064
619.156	0.0155271
619.234	0.0154502
619.312	0.0154250
619.390	0.0154219
619.468	0.0152762
619.546	0.0154697
619.624	0.0153380
619.703	0.0154810
619.781	0.0154405
619.859	0.0154220
619.937	0.0154781
620.015	0.0154684
620.093	0.0155146
620.171	0.0153904
620.249	0.0154395
620.328	0.0155329
620.406	0.0154657
620.484	0.0156019
620.562	0.0154686
620.640	0.0154033
620.718	0.0156007
620.796	0.0154348
620.874	0.0154652
620.953	0.0155619
621.031	0.0152982
621.109	0.0153297
621.187	0.0153708
621.265	0.0153413
621.343	0.0154766
621.421	0.0153862
621.499	0.0153960
621.578	0.0153684
621.656	0.0152802
621.734	0.0153372
621.812	0.0152135
621.890	0.0152567
621.968	0.0152409
622.046	0.0153449
622.124	0.0151463
622.203	0.0151550
622.281	0.0153339
622.359	0.0151844
622.437	0.0152625
622.515	0.0153765
622.593	0.0153178
622.671	0.0152017
622.749	0.0152551
622.828	0.0153535
622.906	0.0154449
622.984	0.0153833
623.062	0.0154158
623.140	0.0153643
623.218	0.0154974
623.296	0.0156012
623.374	0.0154670
623.453	0.0155242
623.531	0.0154953
623.609	0.0155312
623.687	0.0154205
623.765	0.0155044
623.843	0.0154871
623.921	0.0154553
623.999	0.0152909
624.078	0.0152360
624.156	0.0152664
624.234	0.0151794
624.312	0.0152681
624.390	0.0153148
624.468	0.0152926
624.546	0.0152627
624.624	0.0151862
624.703	0.0152994
624.781	0.0152762
624.859	0.0153265
624.937	0.0152623
625.015	0.0153129
625.093	0.0153516
625.171	0.0151960
625.249	0.0153254
625.328	0.0154070
625.406	0.0154875
625.484	0.0156911
625.562	0.0156139
625.640	0.0155164
625.718	0.0156290
625.796	0.0154998
625.874	0.0155619
625.953	0.0157715
626.031	0.0155328
626.109	0.0157394
626.187	0.0157063
626.265	0.0157604
626.343	0.0156741
626.421	0.0155137
626.499	0.0155508
626.578	0.0154160
626.656	0.0155282
626.734	0.0153288
626.812	0.0151591
626.890	0.0150591
626.968	0.0150977
627.046	0.0149898
627.124	0.0149695
627.203	0.0148826
627.281	0.0149404
627.359	0.0150584
627.437	0.0149069
627.515	0.0149508
627.593	0.0149795
627.671	0.0150050
627.749	0.0149936
627.828	0.0152101
627.906	0.0152912
627.984	0.0153568
628.062	0.0153949
628.140	0.0153654
628.218	0.0156940
628.296	0.0156996
628.374	0.0156793
628.453	0.0158282
628.531	0.0157319
628.609	0.0155643
628.687	0.0156409
628.765	0.0158761
628.843	0.0158730
628.921	0.0157638
628.999	0.0155276
629.078	0.0156710
629.156	0.0155706
629.234	0.0156101
629.312	0.0155054
629.390	0.0155168
629.468	0.0154732
629.546	0.0154253
629.624	0.0153415
629.703	0.0151884
629.781	0.0153458
629.859	0.0152425
629.937	0.0151100
630.015	0.0150401
630.093	0.0150563
630.171	0.0149425
630.249	0.0148384
630.328	0.0148053
630.406	0.0148080
630.484	0.0149081
630.562	0.0149287
630.640	0.0148490
630.718	0.0147961
630.796	0.0148180
630.874	0.0150371
630.953	0.0150179
631.031	0.0150542
631.109	0.0151561
631.187	0.0154015
631.265	0.0153670
631.343	0.0152531
631.421	0.0153893
631.499	0.0156020
631.578	0.0155553
631.656	0.0156647
631.734	0.0156458
631.812	0.0158482
631.890	0.0156579
631.968	0.0154764
632.046	0.0155761
632.124	0.0155640
632.203	0.0154311
632.281	0.0154237
632.359	0.0154271
632.437	0.0152341
632.515	0.0152929
632.593	0.0154723
632.671	0.0154144
632.749	0.0153869
632.828	0.0153794
632.906	0.0153410
632.984	0.0153451
633.062	0.0152526
633.140	0.0154432
633.218	0.0152821
633.296	0.0152697
633.374	0.0152384
633.453	0.0153528
633.531	0.0154445
633.609	0.0153519
633.687	0.0153040
633.765	0.0151003
633.843	0.0151302
633.921	0.0151425
633.999	0.0151249
634.078	0.0150893
634.156	0.0152333
634.234	0.0152695
634.312	0.0150312
634.390	0.0150830
634.468	0.0149924
634.546	0.0150779
634.624	0.0151158
634.703	0.0150919
634.781	0.0152160
634.859	0.0150761
634.937	0.0150884
635.015	0.0150896
635.093	0.0150423
635.171	0.0150927
635.249	0.0151368
635.328	0.0151265
635.406	0.0151152
635.484	0.0151640
635.562	0.0152185
635.640	0.0152695
635.718	0.0151959
635.796	0.0153676
635.874	0.0154405
635.953	0.0155085
636.031	0.0157184
636.109	0.0156461
636.187	0.0158991
636.265	0.0158891
636.343	0.0158108
636.421	0.0159129
636.499	0.0160400
636.578	0.0158956
636.656	0.0160109
636.734	0.0159045
636.812	0.0157619
636.890	0.0158964
636.968	0.0157437
637.046	0.0156746
637.124	0.0155859
637.203	0.0153986
637.281	0.0153101
637.359	0.0153242
637.437	0.0149158
637.515	0.0149512
637.593	0.0149706
637.671	0.0148123
637.749	0.0149688
637.828	0.0148949
637.906	0.0150320
637.984	0.0149947
638.062	0.0148643
638.140	0.0148611
638.218	0.0150175
638.296	0.0150384
638.374	0.0150405
638.453	0.0149756
638.531	0.0149551
638.609	0.0151781
638.687	0.0150909
638.765	0.0149644
638.843	0.0150280
638.921	0.0149661
638.999	0.0149685
639.078	0.0150860
639.156	0.0149708
639.234	0.0153255
639.312	0.0153053
639.390	0.0150153
639.468	0.0153506
639.546	0.0154841
639.624	0.0155196
639.703	0.0156496
639.781	0.0155396
639.859	0.0157882
639.937	0.0157639
640.015	0.0158484
640.093	0.0157762
640.171	0.0158385
640.249	0.0157639
640.328	0.0157487
640.406	0.0158131
640.484	0.0158874
640.562	0.0158063
640.640	0.0157307
640.718	0.0158365
640.796	0.0159239
640.874	0.0157829
640.953	0.0159048
641.031	0.0158791
641.109	0.0160527
641.187	0.0158848
641.265	0.0158764
641.343	0.0158121
641.421	0.0157718
641.499	0.0157156
641.578	0.0156307
641.656	0.0155045
641.734	0.0153413
641.812	0.0153236
641.890	0.0151205
641.968	0.0150240
642.046	0.0149329
642.124	0.0148441
642.203	0.0147099
642.281	0.0146270
642.359	0.0146407
642.437	0.0145065
642.515	0.0146513
642.593	0.0145409
642.671	0.0145282
642.749	0.0145936
642.828	0.0146844
642.906	0.0148094
642.984	0.0148029
643.062	0.0149454
643.140	0.0150441
643.218	0.0150860
643.296	0.0153170
643.374	0.0152048
643.453	0.0153973
643.531	0.0155606
643.609	0.0155370
643.687	0.0155294
643.765	0.0156084
643.843	0.0158289
643.921	0.0155930
643.999	0.0157264
644.078	0.0158027
644.156	0.0157825
644.234	0.0158523
644.312	0.0159158
644.390	0.0158339
644.468	0.0159676
644.546	0.0158361
644.624	0.0159669
644.703	0.0158510
644.781	0.0159170
644.859	0.0159798
644.937	0.0160113
645.015	0.0159949
645.093	0.0160748
645.171	0.0160093
645.249	0.0160452
645.328	0.0159904
645.406	0.0159837
645.484	0.0159205
645.562	0.0158865
645.640	0.0159097
645.718	0.0156310
645.796	0.0156219
645.874	0.0155063
645.953	0.0155159
646.031	0.0152209
646.109	0.0152604
646.187	0.0152802
646.265	0.0150648
646.343	0.0149464
646.421	0.0148882
646.499	0.0148589
646.578	0.0148303
646.656	0.0146989
646.734	0.0146330
646.812	0.0145454
646.890	0.0144833
646.968	0.0144572
647.046	0.0143657
647.124	0.0143544
647.203	0.0144274
647.281	0.0142894
647.359	0.0143009
647.437	0.0146883
647.515	0.0146828
647.593	0.0148134
647.671	0.0147404
647.749	0.0149660
647.828	0.0150678
647.906	0.0152082
647.984	0.0153382
648.062	0.0155679
648.140	0.0158943
648.218	0.0159055
648.296	0.0158326
648.374	0.0160451
648.453	0.0162090
648.531	0.0162130
648.609	0.0162474
648.687	0.0163638
648.765	0.0162952
648.843	0.0164368
648.921	0.0164024
648.999	0.0164104
649.078	0.0163343
649.156	0.0162800
649.234	0.0163514
649.312	0.0162540
649.390	0.0162222
649.468	0.0160600
649.546	0.0160300
649.624	0.0160457
649.703	0.0157945
649.781	0.0156921
649.859	0.0156754
649.937	0.0155452
650.015	0.0153296
650.093	0.0152538
650.171	0.0151579
650.249	0.0153111
650.328	0.0150456
650.406	0.0149529
650.484	0.0149609
650.562	0.0150375
650.640	0.0149844
650.718	0.0149739
650.796	0.0148089
650.874	0.0150002
650.953	0.0149220
651.031	0.0148054
651.109	0.0147952
651.187	0.0147628
651.265	0.0146574
651.343	0.0147799
651.421	0.0146616
651.499	0.0146146
651.578	0.0146744
651.656	0.0145995
651.734	0.0146088
651.812	0.0146838
651.890	0.0147567
651.968	0.0147604
652.046	0.0147373
652.124	0.0148990
652.203	0.0148989
652.281	0.0149448
652.359	0.0150040
652.437	0.0150933
652.515	0.0152441
652.593	0.0154245
652.671	0.0153985
652.749	0.0154973
652.828	0.0157073
652.906	0.0158014
652.984	0.0159098
653.062	0.0159924
653.140	0.0159884
653.218	0.0161593
653.296	0.0161944
653.374	0.0162360
653.453	0.0162555
653.531	0.0162753
653.609	0.0161493
653.687	0.0163474
653.765	0.0162598
653.843	0.0162205
653.921	0.0162495
653.999	0.0160458
654.078	0.0161874
654.156	0.0160913
654.234	0.0159246
654.312	0.0159099
654.390	0.0158575
654.468	0.0155862
654.546	0.0156252
654.624	0.0155321
654.703	0.0155341
654.781	0.0154097
654.859	0.0151176
654.937	0.0150562
655.015	0.0151321
655.093	0.0150818
655.171	0.0148911
655.249	0.0149532
655.328	0.0148712
655.406	0.0148608
655.484	0.0146971
655.562	0.0147820
655.640	0.0146676
655.718	0.0146330
655.796	0.0146441
655.874	0.0146305
655.953	0.0147232
656.031	0.0146559
656.109	0.0146582
656.187	0.0147926
656.265	0.0149241
656.343	0.0148386
656.421	0.0149303
656.499	0.0149001
656.578	0.0149688
656.656	0.0150426
656.734	0.0150030
656.812	0.0153609
656.890	0.0152928
656.968	0.0153827
657.046	0.0153516
657.124	0.0154874
657.203	0.0154774
657.281	0.0155396
657.359	0.0155790
657.437	0.0155470
657.515	0.0156448
657.593	0.0156756
657.671	0.0156857
657.749	0.0158800
657.828	0.0159642
657.906	0.0159643
657.984	0.0159251
658.062	0.0159291
658.140	0.0159688
658.218	0.0160258
658.296	0.0161609
658.374	0.0161651
658.453	0.0161147
658.531	0.0160387
658.609	0.0161977
658.687	0.0160600
658.765	0.0158634
658.843	0.0159379
658.921	0.0157988
658.999	0.0156875
659.078	0.0157835
659.156	0.0155603
659.234	0.0156022
659.312	0.0153972
659.390	0.0152955
659.468	0.0152167
659.546	0.0151188
659.624	0.0149323
659.703	0.0149614
659.781	0.0150199
659.859	0.0149272
659.937	0.0148431
660.015	0.0147364
660.093	0.0146835
660.171	0.0146902
660.249	0.0148011
660.328	0.0147436
660.406	0.0149864
660.484	0.0148044
660.562	0.0148380
660.640	0.0147583
660.718	0.0148969
660.796	0.0148855
660.874	0.0148692
660.953	0.0149370
661.031	0.0151221
661.109	0.0150332
661.187	0.0151462
661.265	0.0150880
661.343	0.0152525
661.421	0.0153044
661.499	0.0155094
661.578	0.0154266
661.656	0.0155874
661.734	0.0156136
661.812	0.0156479
661.890	0.0156956
661.968	0.0157182
662.046	0.0159963
662.124	0.0158397
662.203	0.0158857
662.281	0.0157317
662.359	0.0156803
662.437	0.0157912
662.515	0.0157004
662.593	0.0158390
662.671	0.0157998
662.749	0.0159589
662.828	0.0158482
662.906	0.0158823
662.984	0.0159345
663.062	0.0160442
663.140	0.0159200
663.218	0.0159940
663.296	0.0160637
663.374	0.0159134
663.453	0.0159605
663.531	0.0158766
663.609	0.0159010
663.687	0.0158054
663.765	0.0157183
663.843	0.0156519
663.921	0.0154806
663.999	0.0153577
664.078	0.0153049
664.156	0.0152306
664.234	0.0151852
664.312	0.0149751
664.390	0.0148680
664.468	0.0147707
664.546	0.0147932
664.624	0.0147670
664.703	0.0145309
664.781	0.0145409
664.859	0.0147002
664.937	0.0145169
665.015	0.0147649
665.093	0.0148351
665.171	0.0148666
665.249	0.0150404
665.328	0.0151015
665.406	0.0151494
665.484	0.0152906
665.562	0.0153182
665.640	0.0153431
665.718	0.0154274
665.796	0.0156664
665.874	0.0156725
665.953	0.0157525
666.031	0.0158130
666.109	0.0158043
666.187	0.0159322
666.265	0.0160149
666.343	0.0159724
666.421	0.0160806
666.499	0.0160622
666.578	0.0159429
666.656	0.0161047
666.734	0.0160262
666.812	0.0158842
666.890	0.0160511
666.968	0.0159535
667.046	0.0158783
667.124	0.0158311
667.203	0.0158186
667.281	0.0156711
667.359	0.0155624
667.437	0.0154929
667.515	0.0153831
667.593	0.0153331
667.671	0.0154353
667.749	0.0155650
667.828	0.0155531
667.906	0.0154436
667.984	0.0154285
668.062	0.0154094
668.140	0.0154590
668.218	0.0155284
668.296	0.0155838
668.374	0.0154590
668.453	0.0155191
668.531	0.0153193
668.609	0.0153011
668.687	0.0153532
668.765	0.0151589
668.843	0.0152237
668.921	0.0152422
668.999	0.0149526
669.078	0.0149073
669.156	0.0150211
669.234	0.0148284
669.312	0.0147843
669.390	0.0147330
669.468	0.0146860
669.546	0.0146959
669.624	0.0149374
669.703	0.0149794
669.781	0.0149432
669.859	0.0149384
669.937	0.0150564
670.015	0.0151611
670.093	0.0153585
670.171	0.0153214
670.249	0.0155611
670.328	0.0155234
670.406	0.0156960
670.484	0.0157955
670.562	0.0158544
670.640	0.0159729
670.718	0.0161073
670.796	0.0159863
670.874	0.0160990
670.953	0.0161332
671.031	0.0161353
671.109	0.0160981
671.187	0.0160323
671.265	0.0160656
671.343	0.0160378
671.421	0.0160692
671.499	0.0159602
671.578	0.0159110
671.656	0.0158931
671.734	0.0157231
671.812	0.0156894
671.890	0.0156843
671.968	0.0156313
672.046	0.0157774
672.124	0.0156983
672.203	0.0155364
672.281	0.0155124
672.359	0.0154787
672.437	0.0153036
672.515	0.0153857
672.593	0.0151420
672.671	0.0151224
672.749	0.0151361
672.828	0.0151729
672.906	0.0152127
672.984	0.0151542
673.062	0.0152586
673.140	0.0151749
673.218	0.0151578
673.296	0.0150138
673.374	0.0149946
673.453	0.0150617
673.531	0.0152010
673.609	0.0150198
673.687	0.0149178
673.765	0.0150677
673.843	0.0148486
673.921	0.0149781
673.999	0.0148392
674.078	0.0148965
674.156	0.0148540
674.234	0.0149322
674.312	0.0149716
674.390	0.0148430
674.468	0.0149388
674.546	0.0150841
674.624	0.0150504
674.703	0.0151871
674.781	0.0154289
674.859	0.0153667
674.937	0.0155718
675.015	0.0156608
675.093	0.0156010
675.171	0.0157967
675.249	0.0158618
675.328	0.0158908
675.406	0.0161257
675.484	0.0161092
675.562	0.0159200
675.640	0.0159970
675.718	0.0160433
675.796	0.0161412
675.874	0.0159868
675.953	0.0160429
676.031	0.0158095
676.109	0.0159530
676.187	0.0159105
676.265	0.0157349
676.343	0.0157269
676.421	0.0156261
676.499	0.0155673
676.578	0.0154803
676.656	0.0154223
676.734	0.0152877
676.812	0.0153758
676.890	0.0152587
676.968	0.0152305
677.046	0.0152655
677.124	0.0152570
677.203	0.0150900
677.281	0.0152524
677.359	0.0151546
677.437	0.0150926
677.515	0.0150394
677.593	0.0151912
677.671	0.0150934
677.749	0.0151622
677.828	0.0151246
677.906	0.0149952
677.984	0.0151733
678.062	0.0151674
678.140	0.0151672
678.218	0.0151155
678.296	0.0151272
678.374	0.0151009
678.453	0.0150937
678.531	0.0151443
678.609	0.0150355
678.687	0.0151289
678.765	0.0150159
678.843	0.0150086
678.921	0.0151161
678.999	0.0151350
679.078	0.0152166
679.156	0.0151975
679.234	0.0151197
679.312	0.0152974
679.390	0.0153699
679.468	0.0153363
679.546	0.0155962
679.624	0.0155273
679.703	0.0155148
679.781	0.0157116
679.859	0.0157022
679.937	0.0158961
680.015	0.0159441
680.093	0.0158753
680.171	0.0160370
680.249	0.0160623
680.328	0.0161087
680.406	0.0160621
680.484	0.0162234
680.562	0.0160754
680.640	0.0160456
680.718	0.0159366
680.796	0.0160229
680.874	0.0159917
680.953	0.0159780
681.031	0.0159786
681.109	0.0157599
681.187	0.0157995
681.265	0.0157923
681.343	0.0157117
681.421	0.0156140
681.499	0.0155772
681.578	0.0153786
681.656	0.0153336
681.734	0.0153072
681.812	0.0151865
681.890	0.0150405
681.968	0.0152686
682.046	0.0149792
682.124	0.0148685
682.203	0.0148428
682.281	0.0147852
682.359	0.0149158
682.437	0.0148684
682.515	0.0147778
682.593	0.0148747
682.671	0.0150100
682.749	0.0149296
682.828	0.0150597
682.906	0.0150688
682.984	0.0150933
683.062	0.0151135
683.140	0.0152232
683.218	0.0153067
683.296	0.0152681
683.374	0.0153809
683.453	0.0153976
683.531	0.0154109
683.609	0.0154977
683.687	0.0154391
683.765	0.0155636
683.843	0.0154353
683.921	0.0155840
683.999	0.0155580
684.078	0.0156974
684.156	0.0156499
684.234	0.0154961
684.312	0.0157081
684.390	0.0156231
684.468	0.0155332
684.546	0.0157476
684.624	0.0158192
684.703	0.0158031
684.781	0.0156215
684.859	0.0157533
684.937	0.0157745
685.015	0.0157406
685.093	0.0157491
685.171	0.0157977
685.249	0.0158825
685.328	0.0156274
685.406	0.0157211
685.484	0.0158799
685.562	0.0157664
685.640	0.0157368
685.718	0.0158442
685.796	0.0156255
685.874	0.0156831
685.953	0.0156645
686.031	0.0154827
686.109	0.0154727
686.187	0.0153943
686.265	0.0152158
686.343	0.0153043
686.421	0.0151801
686.499	0.0151105
686.578	0.0149288
686.656	0.0147643
686.734	0.0148532
686.812	0.0149546
686.890	0.0149121
686.968	0.0148801
687.046	0.0149741
687.124	0.0149129
687.203	0.0149265
687.281	0.0149549
687.359	0.0150182
687.437	0.0148970
687.515	0.0149664
687.593	0.0149546
687.671	0.0152750
687.749	0.0153501
687.828	0.0153175
687.906	0.0154644
687.984	0.0154634
688.062	0.0155094
688.140	0.0156303
688.218	0.0156931
688.296	0.0158453
688.374	0.0157327
688.453	0.0159000
688.531	0.0158094
688.609	0.0158615
688.687	0.0156748
688.765	0.0158956
688.843	0.0158684
688.921	0.0156857
688.999	0.0157527
689.078	0.0155800
689.156	0.0156470
689.234	0.0157845
689.312	0.0154247
689.390	0.0154613
689.468	0.0155468
689.546	0.0155933
689.624	0.0156078
689.703	0.0155357
689.781	0.0155011
689.859	0.0154945
689.937	0.0154887
690.015	0.0155513
690.093	0.0154662
690.171	0.0154295
690.249	0.0154675
690.328	0.0154294
690.406	0.0154627
690.484	0.0154711
690.562	0.0156172
690.640	0.0153599
690.718	0.0154052
690.796	0.0152962
690.874	0.0152876
690.953	0.0152901
691.031	0.0152192
691.109	0.0153230
691.187	0.0151039
691.265	0.0151815
691.343	0.0150825
691.421	0.0151244
691.499	0.0151123
691.578	0.0150690
691.656	0.0150473
691.734	0.0151668
691.812	0.0152697
691.890	0.0151447
691.968	0.0151511
692.046	0.0151100
692.124	0.0151000
692.203	0.0152395
692.281	0.0153008
692.359	0.0151692
692.437	0.0153434
692.515	0.0153841
692.593	0.0154807
692.671	0.0155759
692.749	0.0156831
692.828	0.0156556
692.906	0.0156907
692.984	0.0157160
693.062	0.0156318
693.140	0.0157928
693.218	0.0158990
693.296	0.0158989
693.374	0.0158871
693.453	0.0158803
693.531	0.0158016
693.609	0.0158184
693.687	0.0157829
693.765	0.0156662
693.843	0.0156521
693.921	0.0155941
693.999	0.0154900
694.078	0.0154282
694.156	0.0154101
694.234	0.0154494
694.312	0.0154223
694.390	0.0153108
694.468	0.0153524
694.546	0.0151978
694.624	0.0152824
694.703	0.0153173
694.781	0.0152474
694.859	0.0151968
694.937	0.0152263
695.015	0.0154076
695.093	0.0152219
695.171	0.0153687
695.249	0.0153849
695.328	0.0152821
695.406	0.0152681
695.484	0.0152990
695.562	0.0152706
695.640	0.0152171
695.718	0.0151447
695.796	0.0151022
695.874	0.0151543
695.953	0.0152177
696.031	0.0151276
696.109	0.0150617
696.187	0.0151077
696.265	0.0150915
696.343	0.0151080
696.421	0.0152853
696.499	0.0151389
696.578	0.0152375
696.656	0.0152480
696.734	0.0154666
696.812	0.0155002
696.890	0.0155515
696.968	0.0154742
697.046	0.0154994
697.124	0.0155082
697.203	0.0155291
697.281	0.0157233
697.359	0.0155891
697.437	0.0156874
697.515	0.0156794
697.593	0.0155565
697.671	0.0157485
697.749	0.0156784
697.828	0.0155416
697.906	0.0156326
697.984	0.0157476
698.062	0.0155879
698.140	0.0156206
698.218	0.0155793
698.296	0.0156400
698.374	0.0155184
698.453	0.0155048
698.531	0.0153485
698.609	0.0155181
698.687	0.0155228
698.765	0.0154224
698.843	0.0152814
698.921	0.0154282
698.999	0.0153751
699.078	0.0153638
699.156	0.0153740
699.234	0.0154298
699.312	0.0153226
699.390	0.0152554
699.468	0.0153735
699.546	0.0153881
699.624	0.0152693
699.703	0.0152322
699.781	0.0152344
699.859	0.0150911
699.937	0.0151633
700.015	0.0152624
700.093	0.0152527
700.171	0.0153738
700.249	0.0153387
700.328	0.0152460
700.406	0.0152180
700.484	0.0152552
700.562	0.0153193
700.640	0.0152928
700.718	0.0153674
700.796	0.0153664
700.874	0.0152306
700.953	0.0153160
701.031	0.0154277
701.109	0.0154050
701.187	0.0153854
701.265	0.0154099
701.343	0.0154819
701.421	0.0154319
701.499	0.0154238
701.578	0.0155433
701.656	0.0155724
701.734	0.0155496
701.812	0.0155609
701.890	0.0155352
701.968	0.0156262
702.046	0.0156046
702.124	0.0156207
702.203	0.0156133
702.281	0.0155195
702.359	0.0156078
702.437	0.0155686
702.515	0.0155761
702.593	0.0155638
702.671	0.0155403
702.749	0.0154964
702.828	0.0152549
702.906	0.0156062
702.984	0.0154758
703.062	0.0153410
703.140	0.0153233
703.218	0.0153371
703.296	0.0154284
703.374	0.0154057
703.453	0.0153525
703.531	0.0152584
703.609	0.0153254
703.687	0.0151663
703.765	0.0152757
703.843	0.0152211
703.921	0.0151529
703.999	0.0151766
704.078	0.0151208
704.156	0.0153769
704.234	0.0152381
704.312	0.0152064
704.390	0.0152624
704.468	0.0152990
704.546	0.0152325
704.624	0.0151481
704.703	0.0151640
704.781	0.0151971
704.859	0.0153491
704.937	0.0154892
705.015	0.0153585
705.093	0.0154784
705.171	0.0154792
705.249	0.0153744
705.328	0.0154205
705.406	0.0154391
705.484	0.0155002
705.562	0.0153805
705.640	0.0153935
705.718	0.0154518
705.796	0.0154825
705.874	0.0155762
705.953	0.0153967
706.031	0.0155137
706.109	0.0153799
706.187	0.0153012
706.265	0.0153815
706.343	0.0153784
706.421	0.0154679
706.499	0.0155500
706.578	0.0153608
706.656	0.0154671
706.734	0.0153948
706.812	0.0154560
706.890	0.0154637
706.968	0.0155300
707.046	0.0154498
707.124	0.0156082
707.203	0.0155267
707.281	0.0155523
707.359	0.0155553
707.437	0.0155429
707.515	0.0154755
707.593	0.0154628
707.671	0.0154869
707.749	0.0155686
707.828	0.0154194
707.906	0.0153878
707.984	0.0154835
708.062	0.0153612
708.140	0.0152704
708.218	0.0154979
708.296	0.0153159
708.374	0.0153254
708.453	0.0152792
708.531	0.0153506
708.609	0.0150780
708.687	0.0151611
708.765	0.0153170
708.843	0.0152472
708.921	0.0152673
708.999	0.0152783
709.078	0.0151073
709.156	0.0152767
709.234	0.0153983
709.312	0.0152908
709.390	0.0153206
709.468	0.0152752
709.546	0.0151880
709.624	0.0151489
709.703	0.0152344
709.781	0.0153236
709.859	0.0154545
709.937	0.0154741
710.015	0.0155334
710.093	0.0153719
710.171	0.0154918
710.249	0.0154870
710.328	0.0155758
710.406	0.0155717
710.484	0.0155291
710.562	0.0154334
710.640	0.0155839
710.718	0.0155064
710.796	0.0154879
710.874	0.0153727
710.953	0.0154644
711.031	0.0154307
711.109	0.0154634
711.187	0.0155796
711.265	0.0154617
711.343	0.0153986
711.421	0.0155259
711.499	0.0154645
711.578	0.0152361
711.656	0.0154418
711.734	0.0154240
711.812	0.0154545
711.890	0.0155498
711.968	0.0154845
712.046	0.0153165
712.124	0.0155074
712.203	0.0155609
712.281	0.0154345
712.359	0.0154107
712.437	0.0152264
712.515	0.0153642
712.593	0.0154192
712.671	0.0153201
712.749	0.0151998
712.828	0.0153447
712.906	0.0152838
712.984	0.0152471
713.062	0.0151232
713.140	0.0152488
713.218	0.0152213
713.296	0.0152419
713.374	0.0151881
713.453	0.0152169
713.531	0.0151568
713.609	0.0153120
713.687	0.0153934
713.765	0.0151845
713.843	0.0151876
713.921	0.0153369
713.999	0.0152393
714.078	0.0153968
714.156	0.0152283
714.234	0.0151556
714.312	0.0153600
714.390	0.0153093
714.468	0.0153489
714.546	0.0153279
714.624	0.0153367
714.703	0.0153349
714.781	0.0155082
714.859	0.0153098
714.937	0.0154306
715.015	0.0155695
715.093	0.0153682
715.171	0.0151846
715.249	0.0154055
715.328	0.0154786
715.406	0.0152796
715.484	0.0153746
715.562	0.0153601
715.640	0.0152876
715.718	0.0152103
715.796	0.0151984
715.874	0.0152596
715.953	0.0153914
716.031	0.0153620
716.109	0.0153043
716.187	0.0153032
716.265	0.0153516
716.343	0.0154729
716.421	0.0153383
716.499	0.0153529
716.578	0.0154387
716.656	0.0155476
716.734	0.0154740
716.812	0.0154939
716.890	0.0154340
716.968	0.0154777
717.046	0.0154160
717.124	0.0153372
717.203	0.0153925
717.281	0.0154584
717.359	0.0154865
717.437	0.0153501
717.515	0.0154038
717.593	0.0152936
717.671	0.0152798
717.749	0.0152069
717.828	0.0152043
717.906	0.0151603
717.984	0.0151788
718.062	0.0151544
718.140	0.0150326
718.218	0.0151559
718.296	0.0150623
718.374	0.0150132
718.453	0.0150777
718.531	0.0152412
718.609	0.0151093
718.687	0.0152511
718.765	0.0150579
718.843	0.0152760
718.921	0.0152784
718.999	0.0151472
719.078	0.0152775
719.156	0.0152454
719.234	0.0152705
719.312	0.0153209
719.390	0.0153281
719.468	0.0153806
719.546	0.0154399
719.624	0.0154626
719.703	0.0153161
719.781	0.0154250
719.859	0.0155634
719.937	0.0155601
720.015	0.0155522
720.093	0.0156558
720.171	0.0154387
720.249	0.0154771
720.328	0.0154786
720.406	0.0154364
720.484	0.0154778
720.562	0.0153741
720.640	0.0152811
720.718	0.0153376
720.796	0.0153231
720.874	0.0151797
720.953	0.0151763
721.031	0.0152369
721.109	0.0153132
721.187	0.0152418
721.265	0.0151772
721.343	0.0152380
721.421	0.0152685
721.499	0.0152084
721.578	0.0151230
721.656	0.0151460
721.734	0.0153342
721.812	0.0153363
721.890	0.0153416
721.968	0.0152867
722.046	0.0153924
722.124	0.0153432
722.203	0.0154478
722.281	0.0154866
722.359	0.0154006
722.437	0.0153234
722.515	0.0152132
722.593	0.0152572
722.671	0.0153261
722.749	0.0152441
722.828	0.0151299
722.906	0.0153107
722.984	0.0151711
723.062	0.0151231
723.140	0.0151342
723.218	0.0150815
723.296	0.0152074
723.374	0.0153288
723.453	0.0152319
723.531	0.0151359
723.609	0.0152045
723.687	0.0152859
723.765	0.0151477
723.843	0.0152768
723.921	0.0152983
723.999	0.0153160
724.078	0.0153518
724.156	0.0152866
724.234	0.0154559
724.312	0.0155215
724.390	0.0154121
724.468	0.0154728
724.546	0.0154494
724.624	0.0154505
724.703	0.0154353
724.781	0.0154149
724.859	0.0155578
724.937	0.0155025
725.015	0.0153928
725.093	0.0154796
725.171	0.0153589
725.249	0.0154158
725.328	0.0153256
725.406	0.0153229
725.484	0.0153387
725.562	0.0152362
725.640	0.0151646
725.718	0.0152740
725.796	0.0151364
725.874	0.0152078
725.953	0.0151700
726.031	0.0150784
726.109	0.0152448
726.187	0.0152435
726.265	0.0152673
726.343	0.0153425
726.421	0.0153533
726.499	0.0153462
726.578	0.0152586
726.656	0.0152840
726.734	0.0152400
726.812	0.0153437
726.890	0.0152478
726.968	0.0153298
727.046	0.0155193
727.124	0.0153218
727.203	0.0154698
727.281	0.0152689
727.359	0.0153516
727.437	0.0154430
727.515	0.0154576
727.593	0.0153156
727.671	0.0152890
727.749	0.0154581
727.828	0.0154664
727.906	0.0153101
727.984	0.0154702
728.062	0.0154250
728.140	0.0152508
728.218	0.0154366
728.296	0.0155008
728.374	0.0154230
728.453	0.0153856
728.531	0.0154020
728.609	0.0154506
728.687	0.0154839
728.765	0.0153961
728.843	0.0154344
728.921	0.0153086
728.999	0.0153699
729.078	0.0155160
729.156	0.0154337
729.234	0.0152927
729.312	0.0153402
729.390	0.0154251
729.468	0.0155834
729.546	0.0154338
729.624	0.0153051
729.703	0.0152470
729.781	0.0154510
729.859	0.0154964
729.937	0.0152945
730.015	0.0154852
730.093	0.0152800
730.171	0.0152885
730.249	0.0152827
730.328	0.0154367
730.406	0.0154136
730.484	0.0153947
730.562	0.0154311
730.640	0.0153148
730.718	0.0153252
730.796	0.0152475
730.874	0.0154028
730.953	0.0154977
731.031	0.0151975
731.109	0.0152989
731.187	0.0153624
731.265	0.0154137
731.343	0.0153074
731.421	0.0153580
731.499	0.0153775
731.578	0.0153420
731.656	0.0154249
731.734	0.0154029
731.812	0.0154177
731.890	0.0154046
731.968	0.0152802
732.046	0.0153798
732.124	0.0153786
732.203	0.0153683
732.281	0.0154721
732.359	0.0153632
732.437	0.0155260
732.515	0.0155038
732.593	0.0154137
732.671	0.0153123
732.749	0.0154597
732.828	0.0154402
732.906	0.0154058
732.984	0.0154565
733.062	0.0154385
733.140	0.0153801
733.218	0.0152951
733.296	0.0154587
733.374	0.0155671
733.453	0.0154723
733.531	0.0154212
733.609	0.0155039
733.687	0.0154755
733.765	0.0156199
733.843	0.0154678
733.921	0.0154029
733.999	0.0155357
734.078	0.0156258
734.156	0.0154343
734.234	0.0154670
734.312	0.0154697
734.390	0.0154832
734.468	0.0154160
734.546	0.0153505
734.624	0.0152800
734.703	0.0152889
734.781	0.0152025
734.859	0.0152686
734.937	0.0152641
735.015	0.0153197
735.093	0.0151846
735.171	0.0152537
735.249	0.0151160
735.328	0.0151923
735.406	0.0151682
735.484	0.0151125
735.562	0.0151068
735.640	0.0151080
735.718	0.0152448
735.796	0.0152517
735.874	0.0151687
735.953	0.0153455
736.031	0.0152111
736.109	0.0152220
736.187	0.0151216
736.265	0.0151963
736.343	0.0151308
736.421	0.0152020
736.499	0.0152676
736.578	0.0152512
736.656	0.0153173
736.734	0.0154970
736.812	0.0155104
736.890	0.0153667
736.968	0.0152771
737.046	0.0155328
737.124	0.0154167
737.203	0.0153387
737.281	0.0154515
737.359	0.0154192
737.437	0.0153595
737.515	0.0153386
737.593	0.0154143
737.671	0.0154568
737.749	0.0155117
737.828	0.0155084
737.906	0.0153329
737.984	0.0153700
738.062	0.0154701
738.140	0.0153644
738.218	0.0153955
738.296	0.0153445
738.374	0.0151740
738.453	0.0153553
738.531	0.0153524
738.609	0.0151360
738.687	0.0153196
738.765	0.0153085
738.843	0.0152968
738.921	0.0152090
738.999	0.0151900
739.078	0.0154308
739.156	0.0153097
739.234	0.0151747
739.312	0.0152011
739.390	0.0150803
739.468	0.0150826
739.546	0.0151610
739.624	0.0151575
739.703	0.0151668
739.781	0.0152390
739.859	0.0152363
739.937	0.0151423
740.015	0.0152454
740.093	0.0152900
740.171	0.0152534
740.249	0.0153784
740.328	0.0152810
740.406	0.0153535
740.484	0.0153355
740.562	0.0153543
740.640	0.0153101
740.718	0.0153756
740.796	0.0153901
740.874	0.0154411
740.953	0.0153796
741.031	0.0153299
741.109	0.0153985
741.187	0.0153941
741.265	0.0153485
741.343	0.0153609
741.421	0.0153600
741.499	0.0154446
741.578	0.0154317
741.656	0.0154275
741.734	0.0155174
741.812	0.0152522
741.890	0.0154632
741.968	0.0153991
742.046	0.0154964
742.124	0.0153712
742.203	0.0155045
742.281	0.0152589
742.359	0.0153516
742.437	0.0152635
742.515	0.0154633
742.593	0.0152824
742.671	0.0152756
742.749	0.0151666
742.828	0.0152284
742.906	0.0152074
742.984	0.0152630
743.062	0.0152042
743.140	0.0153176
743.218	0.0153508
743.296	0.0153453
743.374	0.0151891
743.453	0.0152498
743.531	0.0152036
743.609	0.0152290
743.687	0.0152197
743.765	0.0152106
743.843	0.0153674
743.921	0.0152786
743.999	0.0152519
744.078	0.0152401
744.156	0.0151614
744.234	0.0152881
744.312	0.0152390
744.390	0.0153843
744.468	0.0152074
744.546	0.0152744
744.624	0.0154316
744.703	0.0153455
744.781	0.0153432
744.859	0.0153806
744.937	0.0153219
745.015	0.0154239
745.093	0.0154984
745.171	0.0153476
745.249	0.0154906
745.328	0.0154451
745.406	0.0155054
745.484	0.0155109
745.562	0.0154194
745.640	0.0155525
745.718	0.0155853
745.796	0.0155225
745.874	0.0155158
745.953	0.0154850
746.031	0.0156037
746.109	0.0156730
746.187	0.0156534
746.265	0.0153844
746.343	0.0155657
746.421	0.0155733
746.499	0.0155756
746.578	0.0154585
746.656	0.0154009
746.734	0.0154996
746.812	0.0154957
746.890	0.0156038
746.968	0.0155714
747.046	0.0155622
747.124	0.0156128
747.203	0.0155605
747.281	0.0155617
747.359	0.0153991
747.437	0.0153529
747.515	0.0154150
747.593	0.0154171
747.671	0.0153456
747.749	0.0153687
747.828	0.0153835
747.906	0.0153818
747.984	0.0153010
748.062	0.0152841
748.140	0.0152895
748.218	0.0151875
748.296	0.0153574
748.374	0.0152551
748.453	0.0153831
748.531	0.0153768
748.609	0.0152844
748.687	0.0152610
748.765	0.0153290
748.843	0.0154023
748.921	0.0154092
748.999	0.0153918
749.078	0.0153585
749.156	0.0152609
749.234	0.0153065
749.312	0.0153525
749.390	0.0154754
749.468	0.0153891
749.546	0.0153374
749.624	0.0154797
749.703	0.0154701
749.781	0.0155032
749.859	0.0154391
749.937	0.0155617
750.015	0.0155233
750.093	0.0156565
750.171	0.0155720
750.249	0.0154673
750.328	0.0154887
750.406	0.0154584
750.484	0.0155752
750.562	0.0155499
750.640	0.0156682
750.718	0.0154893
750.796	0.0155817
750.874	0.0154830
750.953	0.0154602
751.031	0.0154346
751.109	0.0154091
751.187	0.0155222
751.265	0.0152766
751.343	0.0153572
751.421	0.0153906
751.499	0.0154507
751.578	0.0154725
751.656	0.0153699
751.734	0.0154448
751.812	0.0153823
751.890	0.0153583
751.968	0.0153814
752.046	0.0153883
752.124	0.0153872
752.203	0.0153520
752.281	0.0152639
752.359	0.0152055
752.437	0.0153652
752.515	0.0152898
752.593	0.0152158
752.671	0.0153870
752.749	0.0152430
752.828	0.0152449
752.906	0.0155021
752.984	0.0153700
753.062	0.0153999
753.140	0.0153653
753.218	0.0153751
753.296	0.0154513
753.374	0.0154182
753.453	0.0154247
753.531	0.0155334
753.609	0.0155677
753.687	0.0155624
753.765	0.0155834
753.843	0.0154534
753.921	0.0153452
753.999	0.0155212
754.078	0.0154713
754.156	0.0155891
754.234	0.0153683
754.312	0.0153391
754.390	0.0155086
754.468	0.0154606
754.546	0.0154646
754.624	0.0154493
754.703	0.0155709
754.781	0.0156063
754.859	0.0156985
754.937	0.0155816
755.015	0.0153686
755.093	0.0156558
755.171	0.0155161
755.249	0.0155415
755.328	0.0155486
755.406	0.0154249
755.484	0.0155917
755.562	0.0154747
755.640	0.0154158
755.718	0.0154401
755.796	0.0154520
755.874	0.0154451
755.953	0.0155485
756.031	0.0155043
756.109	0.0154681
756.187	0.0154607
756.265	0.0154381
756.343	0.0154063
756.421	0.0152509
756.499	0.0153245
756.578	0.0154416
756.656	0.0154560
756.734	0.0153911
756.812	0.0153235
756.890	0.0154719
756.968	0.0152360
757.046	0.0153941
757.124	0.0153168
757.203	0.0153654
757.281	0.0151511
757.359	0.0152355
757.437	0.0153708
757.515	0.0151942
757.593	0.0152622
757.671	0.0154604
757.749	0.0153501
757.828	0.0153709
757.906	0.0153069
757.984	0.0152925
758.062	0.0154047
758.140	0.0153221
758.218	0.0152764
758.296	0.0154976
758.374	0.0153973
758.453	0.0154629
758.531	0.0153368
758.609	0.0154015
758.687	0.0155576
758.765	0.0154538
758.843	0.0154462
758.921	0.0155802
758.999	0.0154858
759.078	0.0154408
759.156	0.0155367
759.234	0.0154118
759.312	0.0155090
759.390	0.0153517
759.468	0.0153529
759.546	0.0154601
759.624	0.0153277
759.703	0.0151997
759.781	0.0152248
759.859	0.0153502
759.937	0.0154606
760.015	0.0154184
760.093	0.0153308
760.171	0.0154366
760.249	0.0153110
760.328	0.0153801
760.406	0.0153725
760.484	0.0152483
760.562	0.0153596
760.640	0.0153999
760.718	0.0153484
760.796	0.0152671
760.874	0.0153838
760.953	0.0152959
761.031	0.0153836
761.109	0.0152922
761.187	0.0151759
761.265	0.0151231
761.343	0.0151540
761.421	0.0152510
761.499	0.0152959
761.578	0.0152592
761.656	0.0152004
761.734	0.0152397
761.812	0.0152264
761.890	0.0153294
761.968	0.0154298
762.046	0.0152812
762.124	0.0152910
762.203	0.0153848
762.281	0.0154822
762.359	0.0153130
762.437	0.0153103
762.515	0.0153872
762.593	0.0155208
762.671	0.0155206
762.749	0.0154778
762.828	0.0155392
762.906	0.0154570
762.984	0.0154350
763.062	0.0155029
763.140	0.0154075
763.218	0.0154906
763.296	0.0153890
763.374	0.0156434
763.453	0.0155507
763.531	0.0154808
763.609	0.0153725
763.687	0.0155363
763.765	0.0154309
763.843	0.0154910
763.921	0.0154408
763.999	0.0153133
764.078	0.0152847
764.156	0.0153620
764.234	0.0152602
764.312	0.0152197
764.390	0.0150744
764.468	0.0152587
764.546	0.0153613
764.624	0.0153986
764.703	0.0153762
764.781	0.0153783
764.859	0.0153801
764.937	0.0154694
765.015	0.0155076
765.093	0.0154331
765.171	0.0154628
765.249	0.0155621
765.328	0.0155274
765.406	0.0155282
765.484	0.0154319
765.562	0.0155077
765.640	0.0153084
765.718	0.0154065
765.796	0.0153308
765.874	0.0152956
765.953	0.0152297
766.031	0.0152161
766.109	0.0153594
766.187	0.0151460
766.265	0.0152827
766.343	0.0153024
766.421	0.0154322
766.499	0.0153860
766.578	0.0154691
766.656	0.0156557
766.734	0.0155749
766.812	0.0154491
766.890	0.0155926
766.968	0.0155543
767.046	0.0155147
767.124	0.0155478
767.203	0.0154391
767.281	0.0154228
767.359	0.0153613
767.437	0.0153803
767.515	0.0153494
767.593	0.0153951
767.671	0.0155141
767.749	0.0154948
767.828	0.0154626
767.906	0.0154358
767.984	0.0155844
768.062	0.0156084
768.140	0.0154799
768.218	0.0156931
768.296	0.0156567
768.374	0.0154705
768.453	0.0154752
768.531	0.0154524
768.609	0.0154819
768.687	0.0153636
768.765	0.0153109
768.843	0.0152968
768.921	0.0153671
768.999	0.0153845
769.078	0.0153533
769.156	0.0154140
769.234	0.0153329
769.312	0.0154206
769.390	0.0154663
769.468	0.0154022
769.546	0.0154441
769.624	0.0153954
769.703	0.0155178
769.781	0.0155010
769.859	0.0154417
769.937	0.0154727
770.015	0.0155087
770.093	0.0153233
770.171	0.0153544
770.249	0.0153216
770.328	0.0154536
770.406	0.0154807
770.484	0.0153589
770.562	0.0153719
770.640	0.0154984
770.718	0.0154848
770.796	0.0154721
770.874	0.0154853
770.953	0.0154060
771.031	0.0154556
771.109	0.0155598
771.187	0.0155457
771.265	0.0155469
771.343	0.0154858
771.421	0.0153952
771.499	0.0153164
771.578	0.0152979
771.656	0.0154530
771.734	0.0154466
771.812	0.0153683
771.890	0.0154253
771.968	0.0153056
772.046	0.0154800
772.124	0.0155680
772.203	0.0155462
772.281	0.0154813
772.359	0.0156011
772.437	0.0154890
772.515	0.0155680
772.593	0.0155090
772.671	0.0156209
772.749	0.0154750
772.828	0.0155037
772.906	0.0154909
772.984	0.0154441
773.062	0.0154530
773.140	0.0152545
773.218	0.0154693
773.296	0.0152689
773.374	0.0155890
773.453	0.0155115
773.531	0.0156264
773.609	0.0154327
773.687	0.0154502
773.765	0.0155382
773.843	0.0154185
773.921	0.0154460
773.999	0.0154430
774.078	0.0154195
774.156	0.0153724
774.234	0.0154928
774.312	0.0153930
774.390	0.0153079
774.468	0.0154437
774.546	0.0152956
774.624	0.0155343
774.703	0.0153257
774.781	0.0153111
774.859	0.0152380
774.937	0.0153047
775.015	0.0152216
775.093	0.0153482
775.171	0.0154233
775.249	0.0154453
775.328	0.0155325
775.406	0.0156649
775.484	0.0155128
775.562	0.0154370
775.640	0.0154967
775.718	0.0155154
775.796	0.0155367
775.874	0.0154102
775.953	0.0153824
776.031	0.0154220
776.109	0.0154224
776.187	0.0154164
776.265	0.0153954
776.343	0.0154456
776.421	0.0153568
776.499	0.0154713
776.578	0.0154946
776.656	0.0153185
776.734	0.0153228
776.812	0.0154352
776.890	0.0151843
776.968	0.0153662
777.046	0.0155009
777.124	0.0154890
777.203	0.0154034
777.281	0.0155211
777.359	0.0155630
777.437	0.0156142
777.515	0.0156889
777.593	0.0156302
777.671	0.0154893
777.749	0.0155141
777.828	0.0155000
777.906	0.0154811
777.984	0.0155951
778.062	0.0155650
778.140	0.0154592
778.218	0.0154649
778.296	0.0154069
778.374	0.0154852
778.453	0.0154822
778.531	0.0153537
778.609	0.0154998
778.687	0.0155913
778.765	0.0155241
778.843	0.0154395
778.921	0.0155703
778.999	0.0153989
779.078	0.0154527
779.156	0.0153444
779.234	0.0154121
779.312	0.0153330
779.390	0.0154226
779.468	0.0153677
779.546	0.0152633
779.624	0.0151893
779.703	0.0154136
779.781	0.0153682
779.859	0.0152672
779.937	0.0154064
780.015	0.0153647
780.093	0.0152729
780.171	0.0153539
780.249	0.0153437
780.328	0.0154147
780.406	0.0153887
780.484	0.0154643
780.562	0.0154915
780.640	0.0154586
780.718	0.0154317
780.796	0.0153122
780.874	0.0152745
780.953	0.0153484
781.031	0.0153777
781.109	0.0153732
781.187	0.0153913
781.265	0.0152728
781.343	0.0154253
781.421	0.0154042
781.499	0.0155133
781.578	0.0155664
781.656	0.0154317
781.734	0.0154765
781.812	0.0155321
781.890	0.0155589
781.968	0.0153963
782.046	0.0153881
782.124	0.0154173
782.203	0.0154149
782.281	0.0152696
782.359	0.0152238
782.437	0.0153190
782.515	0.0153096
782.593	0.0152806
782.671	0.0151960
782.749	0.0152755
782.828	0.0153984
782.906	0.0154204
782.984	0.0154904
783.062	0.0154504
783.140	0.0154800
783.218	0.0153854
783.296	0.0154796
783.374	0.0155006
783.453	0.0154339
783.531	0.0153212
783.609	0.0152026
783.687	0.0152418
783.765	0.0153532
783.843	0.0152651
783.921	0.0154138
783.999	0.0152398
784.078	0.0152863
784.156	0.0153436
784.234	0.0153987
784.312	0.0154869
784.390	0.0154089
784.468	0.0153621
784.546	0.0153352
784.624	0.0153613
784.703	0.0155104
784.781	0.0154230
784.859	0.0152776
784.937	0.0155472
785.015	0.0153672
785.093	0.0152208
785.171	0.0151585
785.249	0.0152529
785.328	0.0153250
785.406	0.0152216
785.484	0.0153357
785.562	0.0153559
785.640	0.0153969
785.718	0.0154434
785.796	0.0154115
785.874	0.0154854
785.953	0.0154799
786.031	0.0154880
786.109	0.0155418
786.187	0.0154299
786.265	0.0154591
786.343	0.0153870
786.421	0.0155616
786.499	0.0154137
786.578	0.0153660
786.656	0.0153093
786.734	0.0153503
786.812	0.0153485
786.890	0.0152644
786.968	0.0153864
787.046	0.0155850
787.124	0.0153834
787.203	0.0153966
787.281	0.0154937
787.359	0.0156491
787.437	0.0154050
787.515	0.0154733
787.593	0.0155006
787.671	0.0155077
787.749	0.0154336
787.828	0.0154018
787.906	0.0154818
787.984	0.0155214
788.062	0.0155714
788.140	0.0153835
788.218	0.0152715
788.296	0.0153185
788.374	0.0152503
788.453	0.0153251
788.531	0.0153294
788.609	0.0153609
788.687	0.0155202
788.765	0.0153026
788.843	0.0153560
788.921	0.0156700
788.999	0.0154202
789.078	0.0153564
789.156	0.0154218
789.234	0.0154665
789.312	0.0154076
789.390	0.0154173
789.468	0.0154400
789.546	0.0153541
789.624	0.0153461
789.703	0.0153481
789.781	0.0152899
789.859	0.0154441
789.937	0.0153122
790.015	0.0154612
790.093	0.0154899
790.171	0.0153129
790.249	0.0154254
790.328	0.0155017
790.406	0.0154263
790.484	0.0155067
790.562	0.0154971
790.640	0.0155744
790.718	0.0154039
790.796	0.0155527
790.874	0.0154613
790.953	0.0155193
791.031	0.0154472
791.109	0.0153124
791.187	0.0153602
791.265	0.0153486
791.343	0.0154211
791.421	0.0154649
791.499	0.0153246
791.578	0.0153366
791.656	0.0154819
791.734	0.0153020
791.812	0.0153291
791.890	0.0153238
791.968	0.0154459
792.046	0.0153349
792.124	0.0153545
792.203	0.0155881
792.281	0.0153109
792.359	0.0154598
792.437	0.0155670
792.515	0.0153052
792.593	0.0155851
792.671	0.0154950
792.749	0.0154980
792.828	0.0154616
792.906	0.0154387
792.984	0.0154423
793.062	0.0153210
793.140	0.0153800
793.218	0.0154504
793.296	0.0155354
793.374	0.0153812
793.453	0.0154215
793.531	0.0154167
793.609	0.0154731
793.687	0.0153795
793.765	0.0155053
793.843	0.0154837
793.921	0.0153302
793.999	0.0154251
794.078	0.0154910
794.156	0.0155763
794.234	0.0154147
794.312	0.0153424
794.390	0.0153934
794.468	0.0152940
794.546	0.0152789
794.624	0.0154038
794.703	0.0154554
794.781	0.0154255
794.859	0.0154677
794.937	0.0155677
795.015	0.0155319
795.093	0.0153886
795.171	0.0154816
795.249	0.0156295
795.328	0.0155756
795.406	0.0154074
795.484	0.0154398
795.562	0.0153548
795.640	0.0155041
795.718	0.0153870
795.796	0.0153989
795.874	0.0154464
795.953	0.0154060
796.031	0.0151694
796.109	0.0152947
796.187	0.0152795
796.265	0.0154129
796.343	0.0154259
796.421	0.0152451
796.499	0.0152110
796.578	0.0153905
796.656	0.0152944
796.734	0.0153714
796.812	0.0155070
796.890	0.0154282
796.968	0.0153474
797.046	0.0153777
797.124	0.0154040
797.203	0.0154710
797.281	0.0153639
797.359	0.0152422
797.437	0.0150929
797.515	0.0153159
797.593	0.0152732
797.671	0.0152097
797.749	0.0152886
797.828	0.0151924
797.906	0.0151038
797.984	0.0152408
798.062	0.0154031
798.140	0.0152985
798.218	0.0153143
798.296	0.0152361
798.374	0.0153578
798.453	0.0153242
798.531	0.0153744
798.609	0.0152321
798.687	0.0152385
798.765	0.0151785
798.843	0.0153031
798.921	0.0152881
798.999	0.0151456
799.078	0.0152660
799.156	0.0152616
799.234	0.0154095
799.312	0.0152720
799.390	0.0151720
799.468	0.0151823
799.546	0.0152238
799.624	0.0152562
799.703	0.0152481
799.781	0.0152197
799.859	0.0153690
799.937	0.0151791
800.015	0.0153701
800.093	0.0152728
800.171	0.0153382
800.249	0.0152683
800.328	0.0152143
800.406	0.0153162
800.484	0.0154163
800.562	0.0154406
800.640	0.0153862
800.718	0.0153854
800.796	0.0154224
800.874	0.0154530
800.953	0.0152722
801.031	0.0153166
801.109	0.0153831
801.187	0.0154758
801.265	0.0153397
801.343	0.0155810
801.421	0.0154652
801.499	0.0154018
801.578	0.0154281
801.656	0.0154391
801.734	0.0154088
801.812	0.0154936
801.890	0.0155142
801.968	0.0153955
802.046	0.0153568
802.124	0.0154384
802.203	0.0152840
802.281	0.0153072
802.359	0.0155527
802.437	0.0155444
802.515	0.0153230
802.593	0.0153759
802.671	0.0153042
802.749	0.0153109
802.828	0.0153331
802.906	0.0153380
802.984	0.0153131
803.062	0.0155481
803.140	0.0155230
803.218	0.0154042
803.296	0.0154919
803.374	0.0154259
803.453	0.0153559
803.531	0.0154538
803.609	0.0153956
803.687	0.0154797
803.765	0.0154883
803.843	0.0153890
803.921	0.0153410
803.999	0.0153481
804.078	0.0155828
804.156	0.0155119
804.234	0.0154665
804.312	0.0153898
804.390	0.0152068
804.468	0.0153541
804.546	0.0153759
804.624	0.0154398
804.703	0.0153105
804.781	0.0154153
804.859	0.0155415
804.937	0.0155389
805.015	0.0154306
805.093	0.0154373
805.171	0.0153127
805.249	0.0154163
805.328	0.0154289
805.406	0.0153715
805.484	0.0153272
805.562	0.0155376
805.640	0.0155035
805.718	0.0154461
805.796	0.0154227
805.874	0.0155111
805.953	0.0154230
806.031	0.0152493
806.109	0.0154261
806.187	0.0153665
806.265	0.0153104
806.343	0.0152613
806.421	0.0152946
806.499	0.0154134
806.578	0.0154602
806.656	0.0154275
806.734	0.0153064
806.812	0.0152908
806.890	0.0153718
806.968	0.0152319
807.046	0.0153954
807.124	0.0153838
807.203	0.0153546
807.281	0.0153658
807.359	0.0155270
807.437	0.0155506
807.515	0.0151411
807.593	0.0153998
807.671	0.0154294
807.749	0.0154267
807.828	0.0152066
807.906	0.0152963
807.984	0.0154021
808.062	0.0153564
808.140	0.0153822
808.218	0.0152353
808.296	0.0153839
808.374	0.0153438
808.453	0.0153756
808.531	0.0153771
808.609	0.0153295
808.687	0.0153492
808.765	0.0153792
808.843	0.0153585
808.921	0.0154482
808.999	0.0153067
809.078	0.0153751
809.156	0.0154252
809.234	0.0153321
809.312	0.0153834
809.390	0.0154104
809.468	0.0154119
809.546	0.0153290
809.624	0.0153087
809.703	0.0153173
809.781	0.0152664
809.859	0.0152573
809.937	0.0154620
810.015	0.0152983
810.093	0.0153337
810.171	0.0153822
810.249	0.0153386
810.328	0.0153408
810.406	0.0152819
810.484	0.0151533
810.562	0.0153217
810.640	0.0153851
810.718	0.0153301
810.796	0.0154144
810.874	0.0153155
810.953	0.0153047
811.031	0.0153730
811.109	0.0153053
811.187	0.0153226
811.265	0.0155047
811.343	0.0154235
811.421	0.0153443
811.499	0.0151845
811.578	0.0153197
811.656	0.0152982
811.734	0.0153319
811.812	0.0154127
811.890	0.0154100
811.968	0.0153402
812.046	0.0153819
812.124	0.0153019
812.203	0.0152837
812.281	0.0154244
812.359	0.0153712
812.437	0.0152675
812.515	0.0153508
812.593	0.0154123
812.671	0.0153888
812.749	0.0154262
812.828	0.0154552
812.906	0.0154232
812.984	0.0154748
813.062	0.0153414
813.140	0.0154517
813.218	0.0154584
813.296	0.0153367
813.374	0.0153458
813.453	0.0153397
813.531	0.0153526
813.609	0.0152778
813.687	0.0154118
813.765	0.0152431
813.843	0.0152386
813.921	0.0153006
813.999	0.0151970
814.078	0.0151882
814.156	0.0154327
814.234	0.0153427
814.312	0.0152538
814.390	0.0151542
814.468	0.0152097
814.546	0.0152774
814.624	0.0153511
814.703	0.0153282
814.781	0.0151122
814.859	0.0153887
814.937	0.0154205
815.015	0.0152850
815.093	0.0154072
815.171	0.0153875
815.249	0.0153322
815.328	0.0152716
815.406	0.0153102
815.484	0.0153124
815.562	0.0152700
815.640	0.0153448
815.718	0.0152403
815.796	0.0154444
815.874	0.0154126
815.953	0.0154488
816.031	0.0153521
816.109	0.0153548
816.187	0.0153602
816.265	0.0154635
816.343	0.0153814
816.421	0.0153867
816.499	0.0154523
816.578	0.0154117
816.656	0.0154953
816.734	0.0155976
816.812	0.0154974
816.890	0.0154274
816.968	0.0155531
817.046	0.0154587
817.124	0.0154796
817.203	0.0154462
817.281	0.0154993
817.359	0.0154655
817.437	0.0155495
817.515	0.0154690
817.593	0.0153794
817.671	0.0152703
817.749	0.0152823
817.828	0.0153115
817.906	0.0152580
817.984	0.0153543
818.062	0.0152745
818.140	0.0153130
818.218	0.0153153
818.296	0.0152768
818.374	0.0152548
818.453	0.0152674
818.531	0.0153488
818.609	0.0153063
818.687	0.0150891
818.765	0.0152551
818.843	0.0153889
818.921	0.0153670
818.999	0.0153357
819.078	0.0151347
819.156	0.0153845
819.234	0.0153983
819.312	0.0154857
819.390	0.0153442
819.468	0.0152689
819.546	0.0154354
819.624	0.0155099
819.703	0.0154662
819.781	0.0154825
819.859	0.0154571
819.937	0.0153042
820.015	0.0153751
820.093	0.0154989
820.171	0.0153053
820.249	0.0152110
820.328	0.0154123
820.406	0.0153602
820.484	0.0153204
820.562	0.0154355
820.640	0.0154076
820.718	0.0153427
820.796	0.0153342
820.874	0.0153932
820.953	0.0153962
821.031	0.0152461
821.109	0.0152184
821.187	0.0152673
821.265	0.0152999
821.343	0.0152090
821.421	0.0153092
821.499	0.0152619
821.578	0.0152464
821.656	0.0151493
821.734	0.0151740
821.812	0.0152845
821.890	0.0151993
821.968	0.0153380
822.046	0.0153095
822.124	0.0152740
822.203	0.0153238
822.281	0.0153786
822.359	0.0152796
822.437	0.0151527
822.515	0.0154216
822.593	0.0152802
822.671	0.0151973
822.749	0.0153407
822.828	0.0153735
822.906	0.0153015
822.984	0.0153378
823.062	0.0152940
823.140	0.0152863
823.218	0.0151933
823.296	0.0154532
823.374	0.0153939
823.453	0.0153911
823.531	0.0152448
823.609	0.0153610
823.687	0.0153541
823.765	0.0153051
823.843	0.0153418
823.921	0.0154420
823.999	0.0153475
824.078	0.0153421
824.156	0.0152475
824.234	0.0153306
824.312	0.0154336
824.390	0.0153691
824.468	0.0152464
824.546	0.0153654
824.624	0.0152465
824.703	0.0152602
824.781	0.0152991
824.859	0.0152993
824.937	0.0153423
825.015	0.0152467
825.093	0.0153252
825.171	0.0152678
825.249	0.0153699
825.328	0.0152865
825.406	0.0153341
825.484	0.0152018
825.562	0.0154038
825.640	0.0153722
825.718	0.0152549
825.796	0.0154639
825.874	0.0152950
825.953	0.0152917
826.031	0.0152784
826.109	0.0153619
826.187	0.0153596
826.265	0.0154230
826.343	0.0153885
826.421	0.0154517
826.499	0.0152433
826.578	0.0152030
826.656	0.0153802
826.734	0.0153165
826.812	0.0152850
826.890	0.0152250
826.968	0.0153984
827.046	0.0154611
827.124	0.0153671
827.203	0.0152630
827.281	0.0152854
827.359	0.0152539
827.437	0.0154556
827.515	0.0153639
827.593	0.0152622
827.671	0.0153264
827.749	0.0153323
827.828	0.0155469
827.906	0.0152413
827.984	0.0152256
828.062	0.0154046
828.140	0.0154832
828.218	0.0153046
828.296	0.0152737
828.374	0.0154500
828.453	0.0153574
828.531	0.0154398
828.609	0.0154297
828.687	0.0153352
828.765	0.0154854
828.843	0.0153787
828.921	0.0152814
828.999	0.0154342
829.078	0.0152991
829.156	0.0153679
829.234	0.0154815
829.312	0.0153813
829.390	0.0153914
829.468	0.0152467
829.546	0.0154197
829.624	0.0153548
829.703	0.0153487
829.781	0.0154568
829.859	0.0152341
829.937	0.0152698
830.015	0.0152885
830.093	0.0153586
830.171	0.0152273
830.249	0.0152803
830.328	0.0153374
830.406	0.0153148
830.484	0.0154276
830.562	0.0154319
830.640	0.0153827
830.718	0.0153851
830.796	0.0152609
830.874	0.0154401
830.953	0.0154697
831.031	0.0153101
831.109	0.0154839
831.187	0.0154723
831.265	0.0154213
831.343	0.0154797
831.421	0.0153693
831.499	0.0154298
831.578	0.0154010
831.656	0.0154417
831.734	0.0154443
831.812	0.0153255
831.890	0.0155330
831.968	0.0153480
832.046	0.0152726
832.124	0.0154395
832.203	0.0154130
832.281	0.0154733
832.359	0.0153612
832.437	0.0153822
832.515	0.0153699
832.593	0.0153711
832.671	0.0153699
832.749	0.0153169
832.828	0.0153139
832.906	0.0153750
832.984	0.0154212
833.062	0.0153656
833.140	0.0153565
833.218	0.0153184
833.296	0.0153868
833.374	0.0153703
833.453	0.0154565
833.531	0.0155090
833.609	0.0153426
833.687	0.0153949
833.765	0.0153334
833.843	0.0153914
833.921	0.0153571
833.999	0.0153059
834.078	0.0153468
834.156	0.0152907
834.234	0.0153091
834.312	0.0153257
834.390	0.0153902
834.468	0.0153252
834.546	0.0154350
834.624	0.0154151
834.703	0.0152441
834.781	0.0152897
834.859	0.0153611
834.937	0.0155547
835.015	0.0153956
835.093	0.0153994
835.171	0.0155700
835.249	0.0155508
835.328	0.0154968
835.406	0.0153432
835.484	0.0154362
835.562	0.0155771
835.640	0.0154604
835.718	0.0154251
835.796	0.0155354
835.874	0.0153864
835.953	0.0154188
836.031	0.0153221
836.109	0.0155306
836.187	0.0155354
836.265	0.0152962
836.343	0.0154249
836.421	0.0153979
836.499	0.0154643
836.578	0.0153910
836.656	0.0154421
836.734	0.0154062
836.812	0.0153755
836.890	0.0154925
836.968	0.0155451
837.046	0.0155843
837.124	0.0153111
837.203	0.0154147
837.281	0.0153436
837.359	0.0152299
837.437	0.0152380
837.515	0.0154112
837.593	0.0154576
837.671	0.0152927
837.749	0.0153608
837.828	0.0152337
837.906	0.0153004
837.984	0.0153148
838.062	0.0155251
838.140	0.0152927
838.218	0.0154485
838.296	0.0153571
838.374	0.0153616
838.453	0.0152782
838.531	0.0153151
838.609	0.0154240
838.687	0.0153732
838.765	0.0152670
838.843	0.0154571
838.921	0.0154180
838.999	0.0153885
839.078	0.0152523
839.156	0.0153444
839.234	0.0153056
839.312	0.0153842
839.390	0.0153223
839.468	0.0153587
839.546	0.0155127
839.624	0.0154707
839.703	0.0153874
839.781	0.0153498
839.859	0.0155499
839.937	0.0154379
840.015	0.0153648
840.093	0.0153841
840.171	0.0154729
840.249	0.0154614
840.328	0.0153481
840.406	0.0154681
840.484	0.0154350
840.562	0.0154734
840.640	0.0154826
840.718	0.0154303
840.796	0.0155221
840.874	0.0154496
840.953	0.0155172
841.031	0.0154573
841.109	0.0154251
841.187	0.0153712
841.265	0.0153889
841.343	0.0154440
841.421	0.0154716
841.499	0.0154781
841.578	0.0154270
841.656	0.0153483
841.734	0.0153602
841.812	0.0154043
841.890	0.0153383
841.968	0.0154559
842.046	0.0154459
842.124	0.0154130
842.203	0.0154609
842.281	0.0154365
842.359	0.0154259
842.437	0.0155539
842.515	0.0154524
842.593	0.0154057
842.671	0.0153533
842.749	0.0154819
842.828	0.0152762
842.906	0.0155206
842.984	0.0152807
843.062	0.0154852
843.140	0.0153809
843.218	0.0152788
843.296	0.0155207
843.374	0.0154446
843.453	0.0153412
843.531	0.0153519
843.609	0.0153368
843.687	0.0153449
843.765	0.0154027
843.843	0.0153541
843.921	0.0153101
843.999	0.0154662
844.078	0.0153564
844.156	0.0154366
844.234	0.0154305
844.312	0.0153835
844.390	0.0152917
844.468	0.0153500
844.546	0.0155386
844.624	0.0155406
844.703	0.0154818
844.781	0.0154297
844.859	0.0154063
844.937	0.0154961
845.015	0.0155085
845.093	0.0155469
845.171	0.0154755
845.249	0.0154681
845.328	0.0153286
845.406	0.0154412
845.484	0.0155161
845.562	0.0153117
845.640	0.0154506
845.718	0.0155392
845.796	0.0155198
845.874	0.0153441
845.953	0.0153647
846.031	0.0154111
846.109	0.0154491
846.187	0.0154363
846.265	0.0154466
846.343	0.0154040
846.421	0.0153259
846.499	0.0154002
846.578	0.0153125
846.656	0.0152660
846.734	0.0152799
846.812	0.0153249
846.890	0.0153854
846.968	0.0153416
847.046	0.0154240
847.124	0.0152752
847.203	0.0153222
847.281	0.0152272
847.359	0.0154255
847.437	0.0153599
847.515	0.0152748
847.593	0.0153965
847.671	0.0153327
847.749	0.0153284
847.828	0.0153566
847.906	0.0153158
847.984	0.0155432
848.062	0.0153526
848.140	0.0154021
848.218	0.0154387
848.296	0.0153780
848.374	0.0154888
848.453	0.0156052
848.531	0.0156858
848.609	0.0154530
848.687	0.0154276
848.765	0.0154631
848.843	0.0154733
848.921	0.0154363
848.999	0.0155828
849.078	0.0155418
849.156	0.0153614
849.234	0.0154537
849.312	0.0155407
849.390	0.0155970
849.468	0.0154915
849.546	0.0153744
849.624	0.0154079
849.703	0.0154738
849.781	0.0153863
849.859	0.0154916
849.937	0.0154310
850.015	0.0153444
850.093	0.0154941
850.171	0.0156271
850.249	0.0153661
850.328	0.0154120
850.406	0.0155360
850.484	0.0155120
850.562	0.0154496
850.640	0.0154361
850.718	0.0154227
850.796	0.0154754
850.874	0.0154274
850.953	0.0153608
851.031	0.0153033
851.109	0.0153659
851.187	0.0154440
851.265	0.0153439
851.343	0.0153134
851.421	0.0154064
851.499	0.0154311
851.578	0.0153533
851.656	0.0153741
851.734	0.0155486
851.812	0.0153879
851.890	0.0155140
851.968	0.0155000
852.046	0.0154507
852.124	0.0154297
852.203	0.0153327
852.281	0.0155226
852.359	0.0153200
852.437	0.0154900
852.515	0.0154541
852.593	0.0155032
852.671	0.0154664
852.749	0.0155196
852.828	0.0155022
852.906	0.0154118
852.984	0.0155619
853.062	0.0155263
853.140	0.0156738
853.218	0.0156611
853.296	0.0156541
853.374	0.0155137
853.453	0.0156582
853.531	0.0155136
853.609	0.0154522
853.687	0.0154707
853.765	0.0155176
853.843	0.0154670
853.921	0.0154594
853.999	0.0152792
854.078	0.0153523
854.156	0.0153595
854.234	0.0153555
854.312	0.0154613
854.390	0.0154565
854.468	0.0152298
854.546	0.0154011
854.624	0.0154545
854.703	0.0153344
854.781	0.0153551
854.859	0.0152460
854.937	0.0152423
855.015	0.0154443
855.093	0.0153465
855.171	0.0154451
855.249	0.0153458
855.328	0.0153179
855.406	0.0154527
855.484	0.0153889
855.562	0.0153495
855.640	0.0153032
855.718	0.0155276
855.796	0.0154227
855.874	0.0153606
855.953	0.0153984
856.031	0.0154735
856.109	0.0155014
856.187	0.0155269
856.265	0.0154707
856.343	0.0154875
856.421	0.0154411
856.499	0.0153722
856.578	0.0152855
856.656	0.0155795
856.734	0.0154659
856.812	0.0155138
856.890	0.0154686
856.968	0.0152932
857.046	0.0154140
857.124	0.0154401
857.203	0.0156097
857.281	0.0155685
857.359	0.0155054
857.437	0.0155379
857.515	0.0155154
857.593	0.0155141
857.671	0.0154829
857.749	0.0155496
857.828	0.0156207
857.906	0.0155034
857.984	0.0154791
858.062	0.0153644
858.140	0.0154876
858.218	0.0154183
858.296	0.0153948
858.374	0.0152253
858.453	0.0153808
858.531	0.0152814
858.609	0.0152685
858.687	0.0154236
858.765	0.0154211
858.843	0.0154071
858.921	0.0153383
858.999	0.0153656
859.078	0.0151982
859.156	0.0154260
859.234	0.0155727
859.312	0.0153598
859.390	0.0152594
859.468	0.0153947
859.546	0.0153225
859.624	0.0153606
859.703	0.0153876
859.781	0.0154799
859.859	0.0153661
859.937	0.0154558
860.015	0.0155422
860.093	0.0155032
860.171	0.0153995
860.249	0.0154171
860.328	0.0155396
860.406	0.0155286
860.484	0.0155307
860.562	0.0152781
860.640	0.0153741
860.718	0.0154607
860.796	0.0152602
860.874	0.0153186
860.953	0.0154324
861.031	0.0153133
861.109	0.0154971
861.187	0.0155729
861.265	0.0152744
861.343	0.0154449
861.421	0.0153059
861.499	0.0154128
861.578	0.0154735
861.656	0.0155368
861.734	0.0153625
861.812	0.0154034
861.890	0.0155099
861.968	0.0155215
862.046	0.0154198
862.124	0.0153062
862.203	0.0154458
862.281	0.0154972
862.359	0.0154527
862.437	0.0153913
862.515	0.0155119
862.593	0.0154929
862.671	0.0153328
862.749	0.0156122
862.828	0.0155069
862.906	0.0154467
862.984	0.0154684
863.062	0.0154328
863.140	0.0154400
863.218	0.0154969
863.296	0.0154366
863.374	0.0153055
863.453	0.0153410
863.531	0.0154558
863.609	0.0153848
863.687	0.0153301
863.765	0.0154490
863.843	0.0154327
863.921	0.0153032
863.999	0.0154702
864.078	0.0153655
864.156	0.0153192
864.234	0.0155405
864.312	0.0153992
864.390	0.0155085
864.468	0.0155602
864.546	0.0154715
864.624	0.0154354
864.703	0.0154218
864.781	0.0155115
864.859	0.0154684
864.937	0.0156380
865.015	0.0154527
865.093	0.0155290
865.171	0.0155286
865.249	0.0156321
865.328	0.0154994
865.406	0.0156767
865.484	0.0156775
865.562	0.0155775
865.640	0.0155003
865.718	0.0154927
865.796	0.0156038
865.874	0.0155100
865.953	0.0155700
866.031	0.0155569
866.109	0.0155728
866.187	0.0154466
866.265	0.0154383
866.343	0.0155005
866.421	0.0155390
866.499	0.0155022
866.578	0.0155144
866.656	0.0156176
866.734	0.0155397
866.812	0.0156037
866.890	0.0155018
866.968	0.0154304
867.046	0.0155107
867.124	0.0154877
867.203	0.0156058
867.281	0.0156268
867.359	0.0155882
867.437	0.0155841
867.515	0.0155124
867.593	0.0155687
867.671	0.0155534
867.749	0.0153408
867.828	0.0155298
867.906	0.0156007
867.984	0.0154921
868.062	0.0154030
868.140	0.0155151
868.218	0.0154459
868.296	0.0155737
868.374	0.0155235
868.453	0.0154353
868.531	0.0154852
868.609	0.0154058
868.687	0.0154119
868.765	0.0154102
868.843	0.0154776
868.921	0.0153291
868.999	0.0154247
869.078	0.0154929
869.156	0.0154461
869.234	0.0154168
869.312	0.0154986
869.390	0.0154000
869.468	0.0153566
869.546	0.0154920
869.624	0.0155489
869.703	0.0155315
869.781	0.0154541
869.859	0.0153365
869.937	0.0153623
870.015	0.0154488
870.093	0.0155051
870.171	0.0154401
870.249	0.0153490
870.328	0.0154216
870.406	0.0153963
870.484	0.0154447
870.562	0.0153802
870.640	0.0154211
870.718	0.0154154
870.796	0.0154254
870.874	0.0154015
870.953	0.0153925
871.031	0.0153902
871.109	0.0153418
871.187	0.0153692
871.265	0.0153566
871.343	0.0153846
871.421	0.0154698
871.499	0.0153349
871.578	0.0154576
871.656	0.0155534
871.734	0.0153917
871.812	0.0152912
871.890	0.0153630
871.968	0.0154109
872.046	0.0152707
872.124	0.0152898
872.203	0.0153887
872.281	0.0154394
872.359	0.0153452
872.437	0.0155048
872.515	0.0155158
872.593	0.0153570
872.671	0.0153111
872.749	0.0154125
872.828	0.0154242
872.906	0.0154057
872.984	0.0154087
873.062	0.0152569
873.140	0.0154324
873.218	0.0153992
873.296	0.0153944
873.374	0.0152045
873.453	0.0154779
873.531	0.0155251
873.609	0.0152814
873.687	0.0153223
873.765	0.0154307
873.843	0.0154411
873.921	0.0152842
873.999	0.0153360
874.078	0.0152500
874.156	0.0154377
874.234	0.0154777
874.312	0.0154094
874.390	0.0154549
874.468	0.0154340
874.546	0.0153329
874.624	0.0154896
874.703	0.0154680
874.781	0.0152841
874.859	0.0153290
874.937	0.0154569
875.015	0.0153645
875.093	0.0154163
875.171	0.0154752
875.249	0.0153660
875.328	0.0155166
875.406	0.0154778
875.484	0.0155852
875.562	0.0154516
875.640	0.0153594
875.718	0.0153627
875.796	0.0154615
875.874	0.0155083
875.953	0.0154084
876.031	0.0153010
876.109	0.0153551
876.187	0.0153646
876.265	0.0155399
876.343	0.0153251
876.421	0.0155048
876.499	0.0153689
876.578	0.0153214
876.656	0.0152656
876.734	0.0154243
876.812	0.0153712
876.890	0.0153585
876.968	0.0154219
877.046	0.0154339
877.124	0.0154594
877.203	0.0154879
877.281	0.0153832
877.359	0.0153566
877.437	0.0152570
877.515	0.0154234
877.593	0.0154467
877.671	0.0154446
877.749	0.0153741
877.828	0.0154343
877.906	0.0154076
877.984	0.0155241
878.062	0.0155411
878.140	0.0155418
878.218	0.0153968
878.296	0.0153914
878.374	0.0154464
878.453	0.0153575
878.531	0.0155055
878.609	0.0154295
878.687	0.0154489
878.765	0.0153646
878.843	0.0152825
878.921	0.0153765
878.999	0.0155251
879.078	0.0154582
879.156	0.0154462
879.234	0.0154047
879.312	0.0153380
879.390	0.0154366
879.468	0.0154424
879.546	0.0154702
879.624	0.0153437
879.703	0.0154567
879.781	0.0154135
879.859	0.0154102
879.937	0.0153961
880.015	0.0153706
880.093	0.0154269
880.171	0.0154922
880.249	0.0155007
880.328	0.0153740
880.406	0.0154727
880.484	0.0153695
880.562	0.0153501
880.640	0.0155147
880.718	0.0153139
880.796	0.0153838
880.874	0.0153950
880.953	0.0153807
881.031	0.0154131
881.109	0.0154452
881.187	0.0153638
881.265	0.0153601
881.343	0.0155542
881.421	0.0153445
881.499	0.0155670
881.578	0.0154270
881.656	0.0154429
881.734	0.0154352
881.812	0.0153323
881.890	0.0153802
881.968	0.0153728
882.046	0.0153976
882.124	0.0153679
882.203	0.0154549
882.281	0.0154169
882.359	0.0155052
882.437	0.0153919
882.515	0.0152863
882.593	0.0154452
882.671	0.0153680
882.749	0.0154167
882.828	0.0153078
882.906	0.0152209
882.984	0.0154118
883.062	0.0153867
883.140	0.0153136
883.218	0.0152074
883.296	0.0153750
883.374	0.0153400
883.453	0.0152650
883.531	0.0153640
883.609	0.0154538
883.687	0.0153512
883.765	0.0152316
883.843	0.0153718
883.921	0.0153298
883.999	0.0154377
884.078	0.0153334
884.156	0.0153190
884.234	0.0154656
884.312	0.0155215
884.390	0.0153822
884.468	0.0153563
884.546	0.0154772
884.624	0.0153757
884.703	0.0155441
884.781	0.0152953
884.859	0.0153092
884.937	0.0153556
885.015	0.0154538
885.093	0.0153551
885.171	0.0153709
885.249	0.0153025
885.328	0.0154828
885.406	0.0152199
885.484	0.0152939
885.562	0.0152434
885.640	0.0153633
885.718	0.0154066
885.796	0.0154585
885.874	0.0153411
885.953	0.0153275
886.031	0.0153053
886.109	0.0153519
886.187	0.0153072
886.265	0.0153447
886.343	0.0153133
886.421	0.0153767
886.499	0.0153761
886.578	0.0153190
886.656	0.0153324
886.734	0.0154234
886.812	0.0153745
886.890	0.0154755
886.968	0.0154592
887.046	0.0153509
887.124	0.0153025
887.203	0.0153042
887.281	0.0154343
887.359	0.0153537
887.437	0.0153915
887.515	0.0154864
887.593	0.0154476
887.671	0.0154601
887.749	0.0154534
887.828	0.0153407
887.906	0.0153715
887.984	0.0153648
888.062	0.0153555
888.140	0.0152430
888.218	0.0154066
888.296	0.0154497
888.374	0.0153899
888.453	0.0152943
888.531	0.0153140
888.609	0.0154263
888.687	0.0153880
888.765	0.0154298
888.843	0.0154100
888.921	0.0154738
888.999	0.0153998
889.078	0.0153870
889.156	0.0155169
889.234	0.0154017
889.312	0.0154158
889.390	0.0154555
889.468	0.0155179
889.546	0.0155175
889.624	0.0155438
889.703	0.0153746
889.781	0.0154675
889.859	0.0154847
889.937	0.0154385
890.015	0.0154470
890.093	0.0154967
890.171	0.0153515
890.249	0.0155345
890.328	0.0154418
890.406	0.0154969
890.484	0.0154504
890.562	0.0154447
890.640	0.0153873
890.718	0.0153728
890.796	0.0153587
890.874	0.0153883
890.953	0.0153288
891.031	0.0153973
891.109	0.0154255
891.187	0.0154745
891.265	0.0153548
891.343	0.0152515
891.421	0.0154476
891.499	0.0152801
891.578	0.0153466
891.656	0.0153584
891.734	0.0153800
891.812	0.0152784
891.890	0.0153620
891.968	0.0153756
892.046	0.0153427
892.124	0.0153432
892.203	0.0154150
892.281	0.0153576
892.359	0.0154387
892.437	0.0154505
892.515	0.0153750
892.593	0.0153091
892.671	0.0155277
892.749	0.0155087
892.828	0.0153399
892.906	0.0155219
892.984	0.0155048
893.062	0.0153542
893.140	0.0154437
893.218	0.0153976
893.296	0.0154386
893.374	0.0154158
893.453	0.0153260
893.531	0.0153386
893.609	0.0153789
893.687	0.0152128
893.765	0.0152592
893.843	0.0152963
893.921	0.0153492
893.999	0.0153716
894.078	0.0153896
894.156	0.0152195
894.234	0.0154609
894.312	0.0153690
894.390	0.0154609
894.468	0.0153405
894.546	0.0153922
894.624	0.0153430
894.703	0.0154520
894.781	0.0154849
894.859	0.0154720
894.937	0.0154030
895.015	0.0152408
895.093	0.0152563
895.171	0.0153288
895.249	0.0153837
895.328	0.0153156
895.406	0.0152318
895.484	0.0153928
895.562	0.0153112
895.640	0.0153629
895.718	0.0153956
895.796	0.0153527
895.874	0.0154613
895.953	0.0153455
896.031	0.0153699
896.109	0.0153245
896.187	0.0154392
896.265	0.0154385
896.343	0.0154283
896.421	0.0154303
896.499	0.0154063
896.578	0.0153114
896.656	0.0153888
896.734	0.0154538
896.812	0.0153809
896.890	0.0153777
896.968	0.0155225
897.046	0.0153519
897.124	0.0154259
897.203	0.0154033
897.281	0.0153883
897.359	0.0154881
897.437	0.0154823
897.515	0.0155423
897.593	0.0154027
897.671	0.0154360
897.749	0.0156565
897.828	0.0154985
897.906	0.0154040
897.984	0.0155157
898.062	0.0153255
898.140	0.0154206
898.218	0.0154383
898.296	0.0153548
898.374	0.0153478
898.453	0.0153333
898.531	0.0152491
898.609	0.0154874
898.687	0.0154396
898.765	0.0153931
898.843	0.0153182
898.921	0.0152909
898.999	0.0153714
899.078	0.0152924
899.156	0.0154161
899.234	0.0153906
899.312	0.0153948
899.390	0.0153108
899.468	0.0153688
899.546	0.0153888
899.624	0.0153743
899.703	0.0153383
899.781	0.0153236
899.859	0.0153155
899.937	0.0153600
900.015	0.0152553
900.093	0.0151609
900.171	0.0153208
900.249	0.0153838
900.328	0.0153345
900.406	0.0153284
900.484	0.0153078
900.562	0.0154005
900.640	0.0155222
900.718	0.0153460
900.796	0.0153336
900.874	0.0154243
900.953	0.0153557
901.031	0.0154318
901.109	0.0155425
901.187	0.0154090
901.265	0.0153114
901.343	0.0154095
901.421	0.0154098
901.499	0.0154434
901.578	0.0154342
901.656	0.0154327
901.734	0.0152933
901.812	0.0153049
901.890	0.0154046
901.968	0.0154285
902.046	0.0155584
902.124	0.0155202
902.203	0.0153916
902.281	0.0154076
902.359	0.0153678
902.437	0.0153944
902.515	0.0154046
902.593	0.0154333
902.671	0.0153652
902.749	0.0153268
902.828	0.0154366
902.906	0.0155009
902.984	0.0154871
903.062	0.0154613
903.140	0.0154755
903.218	0.0153009
903.296	0.0154278
903.374	0.0153643
903.453	0.0153455
903.531	0.0154060
903.609	0.0155067
903.687	0.0154058
903.765	0.0153742
903.843	0.0153282
903.921	0.0153405
903.999	0.0154711
904.078	0.0153838
904.156	0.0154182
904.234	0.0154833
904.312	0.0154568
904.390	0.0153932
904.468	0.0154392
904.546	0.0153385
904.624	0.0153731
904.703	0.0153819
904.781	0.0154672
904.859	0.0154659
904.937	0.0154086
905.015	0.0153062
905.093	0.0153384
905.171	0.0154797
905.249	0.0154644
905.328	0.0153626
905.406	0.0153761
905.484	0.0153419
905.562	0.0154213
905.640	0.0153544
905.718	0.0153030
905.796	0.0153944
905.874	0.0153303
905.953	0.0153329
906.031	0.0154373
906.109	0.0153590
906.187	0.0152579
906.265	0.0153996
906.343	0.0153054
906.421	0.0154077
906.499	0.0154314
906.578	0.0155140
906.656	0.0152789
906.734	0.0153689
906.812	0.0153777
906.890	0.0155576
906.968	0.0153403
907.046	0.0153437
907.124	0.0155535
907.203	0.0153097
907.281	0.0153920
907.359	0.0153390
907.437	0.0153706
907.515	0.0154477
907.593	0.0154407
907.671	0.0152748
907.749	0.0153387
907.828	0.0154048
907.906	0.0154617
907.984	0.0154415
908.062	0.0152802
908.140	0.0154508
908.218	0.0155177
908.296	0.0152891
908.374	0.0152914
908.453	0.0154297
908.531	0.0153445
908.609	0.0153703
908.687	0.0153852
908.765	0.0154112
908.843	0.0154366
908.921	0.0153439
908.999	0.0154596
909.078	0.0153177
909.156	0.0153207
909.234	0.0153223
909.312	0.0153946
909.390	0.0153130
909.468	0.0153712
909.546	0.0153928
909.624	0.0153540
909.703	0.0154327
909.781	0.0153775
909.859	0.0154844
909.937	0.0154429
910.015	0.0154410
910.093	0.0153856
910.171	0.0154119
910.249	0.0155602
910.328	0.0153960
910.406	0.0155676
910.484	0.0155540
910.562	0.0155929
910.640	0.0153903
910.718	0.0155099
910.796	0.0154902
910.874	0.0155010
910.953	0.0155650
911.031	0.0154790
911.109	0.0154475
911.187	0.0155230
911.265	0.0155346
911.343	0.0155246
911.421	0.0154143
911.499	0.0153543
911.578	0.0154253
911.656	0.0155629
911.734	0.0153413
911.812	0.0154382
911.890	0.0154100
911.968	0.0152845
912.046	0.0153680
912.124	0.0153277
912.203	0.0154263
912.281	0.0154199
912.359	0.0152988
912.437	0.0153983
912.515	0.0152696
912.593	0.0152668
912.671	0.0154136
912.749	0.0152585
912.828	0.0153035
912.906	0.0154115
912.984	0.0153792
913.062	0.0153334
913.140	0.0154154
913.218	0.0151959
913.296	0.0153759
913.374	0.0153744
913.453	0.0152959
913.531	0.0153870
913.609	0.0153622
913.687	0.0153368
913.765	0.0153561
913.843	0.0152028
913.921	0.0153764
913.999	0.0154107
914.078	0.0154469
914.156	0.0153126
914.234	0.0151868
914.312	0.0154659
914.390	0.0153133
914.468	0.0153143
914.546	0.0153540
914.624	0.0153807
914.703	0.0152940
914.781	0.0153196
914.859	0.0151957
914.937	0.0153453
915.015	0.0153387
915.093	0.0154777
915.171	0.0153262
915.249	0.0153436
915.328	0.0153432
915.406	0.0153698
915.484	0.0154499
915.562	0.0153127
915.640	0.0153072
915.718	0.0152412
915.796	0.0155041
915.874	0.0153980
915.953	0.0153618
916.031	0.0154040
916.109	0.0152412
916.187	0.0153699
916.265	0.0153023
916.343	0.0153079
916.421	0.0153192
916.499	0.0153273
916.578	0.0152914
916.656	0.0152613
916.734	0.0152541
916.812	0.0152467
916.890	0.0152219
916.968	0.0152746
917.046	0.0152537
917.124	0.0151753
917.203	0.0152256
917.281	0.0153722
917.359	0.0152795
917.437	0.0152972
917.515	0.0152355
917.593	0.0153104
917.671	0.0152418
917.749	0.0152852
917.828	0.0153587
917.906	0.0154025
917.984	0.0153587
918.062	0.0153521
918.140	0.0154260
918.218	0.0154092
918.296	0.0153419
918.374	0.0155515
918.453	0.0154034
918.531	0.0153406
918.609	0.0153338
918.687	0.0153682
918.765	0.0153979
918.843	0.0154004
918.921	0.0153838
918.999	0.0153144
919.078	0.0154173
919.156	0.0154362
919.234	0.0153883
919.312	0.0154499
919.390	0.0154560
919.468	0.0153728
919.546	0.0154782
919.624	0.0153464
919.703	0.0155820
919.781	0.0155494
919.859	0.0153542
919.937	0.0155146
