05/06/2022	19:33:36	Ver.	4.1	UNKNOWN
Optical Delay	600.015094	Delta X		0.078125	Sweeps	1	Scan Rate	0/0
Coordinates	Axis 1	NaN	Axis 2	NaN	Axis 3	NaN	Axis 4	NaN	Axis 5	NaN	Axis 6	0.000000
TX Power	0.000000	RX Power	0.000000

600.015	0.0149687
600.093	0.0149971
600.171	0.0151315
600.249	0.0150641
600.328	0.0149443
600.406	0.0150410
600.484	0.0150188
600.562	0.0149840
600.640	0.0149542
600.718	0.0149869
600.796	0.0149887
600.874	0.0150894
600.953	0.0149651
601.031	0.0150227
601.109	0.0148699
601.187	0.0149654
601.265	0.0150288
601.343	0.0149759
601.421	0.0151691
601.499	0.0149722
601.578	0.0150334
601.656	0.0150663
601.734	0.0149935
601.812	0.0149487
601.890	0.0148944
601.968	0.0149597
602.046	0.0150139
602.124	0.0149837
602.203	0.0150329
602.281	0.0149750
602.359	0.0149788
602.437	0.0151611
602.515	0.0149326
602.593	0.0149270
602.671	0.0150652
602.749	0.0150421
602.828	0.0148840
602.906	0.0149904
602.984	0.0149594
603.062	0.0149765
603.140	0.0149560
603.218	0.0149137
603.296	0.0149447
603.374	0.0149617
603.453	0.0151572
603.531	0.0149136
603.609	0.0152454
603.687	0.0151250
603.765	0.0152315
603.843	0.0151842
603.921	0.0151682
603.999	0.0152189
604.078	0.0150334
604.156	0.0152651
604.234	0.0150964
604.312	0.0152065
604.390	0.0151415
604.468	0.0152360
604.546	0.0151241
604.624	0.0151347
604.703	0.0151240
604.781	0.0151175
604.859	0.0151054
604.937	0.0152232
605.015	0.0152756
605.093	0.0151023
605.171	0.0150880
605.249	0.0152201
605.328	0.0150626
605.406	0.0149898
605.484	0.0150986
605.562	0.0151478
605.640	0.0150704
605.718	0.0150325
605.796	0.0150499
605.874	0.0150783
605.953	0.0150627
606.031	0.0151810
606.109	0.0150432
606.187	0.0150616
606.265	0.0149574
606.343	0.0149487
606.421	0.0150085
606.499	0.0148110
606.578	0.0150019
606.656	0.0149371
606.734	0.0148440
606.812	0.0149979
606.890	0.0148759
606.968	0.0147871
607.046	0.0149045
607.124	0.0147130
607.203	0.0148013
607.281	0.0148547
607.359	0.0148867
607.437	0.0149054
607.515	0.0148889
607.593	0.0148650
607.671	0.0149349
607.749	0.0148777
607.828	0.0148409
607.906	0.0150446
607.984	0.0149986
608.062	0.0150053
608.140	0.0149217
608.218	0.0150101
608.296	0.0150661
608.374	0.0148864
608.453	0.0150693
608.531	0.0149859
608.609	0.0151372
608.687	0.0150713
608.765	0.0150868
608.843	0.0151893
608.921	0.0149789
608.999	0.0150156
609.078	0.0150296
609.156	0.0148906
609.234	0.0149970
609.312	0.0149266
609.390	0.0148336
609.468	0.0149109
609.546	0.0148491
609.624	0.0147689
609.703	0.0148056
609.781	0.0149010
609.859	0.0146937
609.937	0.0146938
610.015	0.0146741
610.093	0.0147713
610.171	0.0148226
610.249	0.0147878
610.328	0.0147501
610.406	0.0148666
610.484	0.0149139
610.562	0.0148968
610.640	0.0148137
610.718	0.0149313
610.796	0.0149718
610.874	0.0150047
610.953	0.0149235
611.031	0.0149789
611.109	0.0150409
611.187	0.0150258
611.265	0.0150392
611.343	0.0150057
611.421	0.0150507
611.499	0.0150269
611.578	0.0148830
611.656	0.0150694
611.734	0.0150971
611.812	0.0150762
611.890	0.0150947
611.968	0.0151128
612.046	0.0149654
612.124	0.0151073
612.203	0.0151023
612.281	0.0149041
612.359	0.0149614
612.437	0.0150120
612.515	0.0148150
612.593	0.0148194
612.671	0.0147769
612.749	0.0147672
612.828	0.0147380
612.906	0.0146902
612.984	0.0147088
613.062	0.0147623
613.140	0.0145428
613.218	0.0145939
613.296	0.0145492
613.374	0.0147640
613.453	0.0148385
613.531	0.0148355
613.609	0.0147939
613.687	0.0148417
613.765	0.0149177
613.843	0.0147440
613.921	0.0148672
613.999	0.0150230
614.078	0.0149038
614.156	0.0150029
614.234	0.0149974
614.312	0.0149847
614.390	0.0150116
614.468	0.0150141
614.546	0.0149108
614.624	0.0150480
614.703	0.0150230
614.781	0.0150820
614.859	0.0150784
614.937	0.0150324
615.015	0.0149503
615.093	0.0152926
615.171	0.0150159
615.249	0.0150108
615.328	0.0151398
615.406	0.0150782
615.484	0.0150715
615.562	0.0150993
615.640	0.0151248
615.718	0.0151389
615.796	0.0148899
615.874	0.0149197
615.953	0.0149869
616.031	0.0147929
616.109	0.0149464
616.187	0.0149734
616.265	0.0148429
616.343	0.0148216
616.421	0.0149937
616.499	0.0147783
616.578	0.0147929
616.656	0.0148849
616.734	0.0147650
616.812	0.0147562
616.890	0.0148161
616.968	0.0148014
617.046	0.0148052
617.124	0.0148227
617.203	0.0149382
617.281	0.0148828
617.359	0.0149201
617.437	0.0150311
617.515	0.0151060
617.593	0.0149982
617.671	0.0150352
617.749	0.0149375
617.828	0.0150925
617.906	0.0149321
617.984	0.0149308
618.062	0.0148067
618.140	0.0150457
618.218	0.0148553
618.296	0.0147784
618.374	0.0148721
618.453	0.0147805
618.531	0.0147686
618.609	0.0148004
618.687	0.0147023
618.765	0.0147543
618.843	0.0147825
618.921	0.0148358
618.999	0.0147159
619.078	0.0149245
619.156	0.0149216
619.234	0.0149273
619.312	0.0149022
619.390	0.0147977
619.468	0.0149896
619.546	0.0149059
619.624	0.0149935
619.703	0.0148682
619.781	0.0148626
619.859	0.0150694
619.937	0.0149152
620.015	0.0149515
620.093	0.0149986
620.171	0.0149511
620.249	0.0151015
620.328	0.0150426
620.406	0.0152312
620.484	0.0151029
620.562	0.0151875
620.640	0.0150394
620.718	0.0151048
620.796	0.0151992
620.874	0.0151797
620.953	0.0150644
621.031	0.0151254
621.109	0.0150802
621.187	0.0148949
621.265	0.0149772
621.343	0.0150065
621.421	0.0150524
621.499	0.0148235
621.578	0.0150200
621.656	0.0150616
621.734	0.0149023
621.812	0.0149391
621.890	0.0148184
621.968	0.0149065
622.046	0.0149268
622.124	0.0147888
622.203	0.0148016
622.281	0.0147996
622.359	0.0150414
622.437	0.0150449
622.515	0.0148873
622.593	0.0148946
622.671	0.0149639
622.749	0.0149603
622.828	0.0150066
622.906	0.0152206
622.984	0.0150014
623.062	0.0151347
623.140	0.0151539
623.218	0.0150047
623.296	0.0150311
623.374	0.0150587
623.453	0.0150448
623.531	0.0151078
623.609	0.0150938
623.687	0.0150179
623.765	0.0150372
623.843	0.0149136
623.921	0.0150033
623.999	0.0150301
624.078	0.0150755
624.156	0.0150423
624.234	0.0150900
624.312	0.0151505
624.390	0.0151788
624.468	0.0150806
624.546	0.0151007
624.624	0.0152035
624.703	0.0149444
624.781	0.0149377
624.859	0.0148112
624.937	0.0148437
625.015	0.0148740
625.093	0.0149348
625.171	0.0147437
625.249	0.0147507
625.328	0.0147628
625.406	0.0148202
625.484	0.0148943
625.562	0.0149184
625.640	0.0149807
625.718	0.0151848
625.796	0.0152534
625.874	0.0153078
625.953	0.0152843
626.031	0.0154635
626.109	0.0154579
626.187	0.0154823
626.265	0.0154036
626.343	0.0156229
626.421	0.0154650
626.499	0.0153947
626.578	0.0154749
626.656	0.0154738
626.734	0.0152382
626.812	0.0152155
626.890	0.0152894
626.968	0.0151222
627.046	0.0149374
627.124	0.0148606
627.203	0.0147935
627.281	0.0149561
627.359	0.0146825
627.437	0.0145175
627.515	0.0146323
627.593	0.0144484
627.671	0.0143818
627.749	0.0145113
627.828	0.0144178
627.906	0.0145331
627.984	0.0144098
628.062	0.0142677
628.140	0.0143208
628.218	0.0144352
628.296	0.0144405
628.374	0.0144086
628.453	0.0144506
628.531	0.0146791
628.609	0.0145750
628.687	0.0146133
628.765	0.0146732
628.843	0.0148093
628.921	0.0149023
628.999	0.0150320
629.078	0.0150581
629.156	0.0149877
629.234	0.0152473
629.312	0.0151900
629.390	0.0152621
629.468	0.0153249
629.546	0.0154324
629.624	0.0154524
629.703	0.0153920
629.781	0.0153285
629.859	0.0154209
629.937	0.0154559
630.015	0.0153188
630.093	0.0153782
630.171	0.0153500
630.249	0.0150879
630.328	0.0152128
630.406	0.0150634
630.484	0.0149944
630.562	0.0149613
630.640	0.0149075
630.718	0.0150076
630.796	0.0148707
630.874	0.0148824
630.953	0.0147697
631.031	0.0147171
631.109	0.0146288
631.187	0.0147325
631.265	0.0147092
631.343	0.0144730
631.421	0.0146188
631.499	0.0146662
631.578	0.0145820
631.656	0.0145114
631.734	0.0146645
631.812	0.0146967
631.890	0.0147591
631.968	0.0147127
632.046	0.0148255
632.124	0.0148336
632.203	0.0147408
632.281	0.0146478
632.359	0.0147016
632.437	0.0147945
632.515	0.0147638
632.593	0.0147578
632.671	0.0148726
632.749	0.0146247
632.828	0.0146959
632.906	0.0148252
632.984	0.0148252
633.062	0.0148566
633.140	0.0147980
633.218	0.0150526
633.296	0.0150542
633.374	0.0151247
633.453	0.0151693
633.531	0.0153086
633.609	0.0151722
633.687	0.0154053
633.765	0.0153271
633.843	0.0153770
633.921	0.0153983
633.999	0.0154166
634.078	0.0153768
634.156	0.0154999
634.234	0.0155198
634.312	0.0154333
634.390	0.0152476
634.468	0.0154719
634.546	0.0154269
634.624	0.0153629
634.703	0.0153153
634.781	0.0153094
634.859	0.0153149
634.937	0.0152985
635.015	0.0151277
635.093	0.0150330
635.171	0.0148938
635.249	0.0149068
635.328	0.0147111
635.406	0.0146015
635.484	0.0147134
635.562	0.0144346
635.640	0.0143668
635.718	0.0144234
635.796	0.0143879
635.874	0.0143204
635.953	0.0143110
636.031	0.0143636
636.109	0.0143813
636.187	0.0143729
636.265	0.0144712
636.343	0.0145449
636.421	0.0147076
636.499	0.0147179
636.578	0.0147266
636.656	0.0148006
636.734	0.0148221
636.812	0.0149465
636.890	0.0148502
636.968	0.0149850
637.046	0.0149966
637.124	0.0151112
637.203	0.0152377
637.281	0.0150980
637.359	0.0151107
637.437	0.0152161
637.515	0.0152571
637.593	0.0152042
637.671	0.0153279
637.749	0.0152493
637.828	0.0152625
637.906	0.0153787
637.984	0.0152008
638.062	0.0153782
638.140	0.0152360
638.218	0.0152269
638.296	0.0153103
638.374	0.0151987
638.453	0.0151723
638.531	0.0151662
638.609	0.0151164
638.687	0.0150756
638.765	0.0150880
638.843	0.0149634
638.921	0.0149251
638.999	0.0149963
639.078	0.0148332
639.156	0.0148976
639.234	0.0148293
639.312	0.0149200
639.390	0.0148261
639.468	0.0148132
639.546	0.0147735
639.624	0.0146874
639.703	0.0147485
639.781	0.0146545
639.859	0.0145163
639.937	0.0145037
640.015	0.0144776
640.093	0.0143903
640.171	0.0144171
640.249	0.0143342
640.328	0.0142516
640.406	0.0142120
640.484	0.0143747
640.562	0.0143663
640.640	0.0144561
640.718	0.0145547
640.796	0.0145004
640.874	0.0145588
640.953	0.0146190
641.031	0.0148042
641.109	0.0148917
641.187	0.0149041
641.265	0.0149083
641.343	0.0149644
641.421	0.0150388
641.499	0.0152810
641.578	0.0152970
641.656	0.0152827
641.734	0.0153527
641.812	0.0153963
641.890	0.0154928
641.968	0.0155433
642.046	0.0156375
642.124	0.0154455
642.203	0.0155085
642.281	0.0156146
642.359	0.0157084
642.437	0.0155963
642.515	0.0156012
642.593	0.0155762
642.671	0.0153955
642.749	0.0153427
642.828	0.0153821
642.906	0.0155409
642.984	0.0153261
643.062	0.0151829
643.140	0.0152213
643.218	0.0150553
643.296	0.0149761
643.374	0.0150851
643.453	0.0149366
643.531	0.0148280
643.609	0.0149569
643.687	0.0148743
643.765	0.0149046
643.843	0.0148586
643.921	0.0147456
643.999	0.0147800
644.078	0.0145121
644.156	0.0146742
644.234	0.0147224
644.312	0.0145640
644.390	0.0147148
644.468	0.0146491
644.546	0.0145966
644.624	0.0145927
644.703	0.0146305
644.781	0.0146688
644.859	0.0145533
644.937	0.0146425
645.015	0.0146866
645.093	0.0147561
645.171	0.0146004
645.249	0.0148331
645.328	0.0148359
645.406	0.0149092
645.484	0.0150064
645.562	0.0150564
645.640	0.0150877
645.718	0.0151439
645.796	0.0150663
645.874	0.0153407
645.953	0.0153092
646.031	0.0151604
646.109	0.0153465
646.187	0.0152914
646.265	0.0152595
646.343	0.0152568
646.421	0.0152544
646.499	0.0152313
646.578	0.0152042
646.656	0.0151920
646.734	0.0151049
646.812	0.0151988
646.890	0.0151398
646.968	0.0152508
647.046	0.0151302
647.124	0.0152386
647.203	0.0152271
647.281	0.0152036
647.359	0.0151727
647.437	0.0152236
647.515	0.0151891
647.593	0.0151288
647.671	0.0152269
647.749	0.0153157
647.828	0.0153389
647.906	0.0152205
647.984	0.0149320
648.062	0.0150883
648.140	0.0149875
648.218	0.0149241
648.296	0.0149809
648.374	0.0148558
648.453	0.0147981
648.531	0.0146622
648.609	0.0147253
648.687	0.0146709
648.765	0.0145657
648.843	0.0144712
648.921	0.0145520
648.999	0.0144312
649.078	0.0144832
649.156	0.0144049
649.234	0.0144517
649.312	0.0144865
649.390	0.0145119
649.468	0.0144990
649.546	0.0145498
649.624	0.0146699
649.703	0.0145348
649.781	0.0147241
649.859	0.0147504
649.937	0.0146976
650.015	0.0149035
650.093	0.0148809
650.171	0.0149483
650.249	0.0149763
650.328	0.0150974
650.406	0.0151132
650.484	0.0151425
650.562	0.0152481
650.640	0.0151893
650.718	0.0154040
650.796	0.0154543
650.874	0.0152248
650.953	0.0152545
651.031	0.0153157
651.109	0.0154189
651.187	0.0152007
651.265	0.0152721
651.343	0.0153857
651.421	0.0152523
651.499	0.0154196
651.578	0.0154109
651.656	0.0152248
651.734	0.0152384
651.812	0.0151997
651.890	0.0151718
651.968	0.0152893
652.046	0.0153735
652.124	0.0154350
652.203	0.0152898
652.281	0.0154424
652.359	0.0153438
652.437	0.0153906
652.515	0.0154124
652.593	0.0154777
652.671	0.0152313
652.749	0.0154186
652.828	0.0154520
652.906	0.0152575
652.984	0.0152544
653.062	0.0150867
653.140	0.0150768
653.218	0.0149546
653.296	0.0148441
653.374	0.0149335
653.453	0.0147511
653.531	0.0148549
653.609	0.0147103
653.687	0.0145393
653.765	0.0145139
653.843	0.0144382
653.921	0.0143814
653.999	0.0145915
654.078	0.0142741
654.156	0.0144111
654.234	0.0143399
654.312	0.0143427
654.390	0.0141156
654.468	0.0141888
654.546	0.0144012
654.624	0.0145498
654.703	0.0145335
654.781	0.0145794
654.859	0.0146251
654.937	0.0147377
655.015	0.0150349
655.093	0.0150742
655.171	0.0150501
655.249	0.0153201
655.328	0.0153359
655.406	0.0153271
655.484	0.0154588
655.562	0.0155452
655.640	0.0155033
655.718	0.0156369
655.796	0.0155527
655.874	0.0155711
655.953	0.0155772
656.031	0.0154259
656.109	0.0156051
656.187	0.0155834
656.265	0.0156256
656.343	0.0154802
656.421	0.0153820
656.499	0.0153246
656.578	0.0153932
656.656	0.0151641
656.734	0.0152688
656.812	0.0154234
656.890	0.0151718
656.968	0.0152260
657.046	0.0153993
657.124	0.0151386
657.203	0.0151434
657.281	0.0150832
657.359	0.0150619
657.437	0.0150225
657.515	0.0151703
657.593	0.0151262
657.671	0.0149863
657.749	0.0149972
657.828	0.0150289
657.906	0.0149181
657.984	0.0148289
658.062	0.0146542
658.140	0.0145838
658.218	0.0145721
658.296	0.0145914
658.374	0.0145465
658.453	0.0145269
658.531	0.0145797
658.609	0.0145832
658.687	0.0144164
658.765	0.0143617
658.843	0.0143107
658.921	0.0144264
658.999	0.0143774
659.078	0.0143638
659.156	0.0144771
659.234	0.0146244
659.312	0.0145864
659.390	0.0146756
659.468	0.0146051
659.546	0.0148887
659.624	0.0147628
659.703	0.0149129
659.781	0.0151573
659.859	0.0152570
659.937	0.0152647
660.015	0.0152694
660.093	0.0152808
660.171	0.0152966
660.249	0.0155096
660.328	0.0155412
660.406	0.0155024
660.484	0.0154929
660.562	0.0154058
660.640	0.0153316
660.718	0.0153197
660.796	0.0153149
660.874	0.0152976
660.953	0.0152808
661.031	0.0153360
661.109	0.0152132
661.187	0.0151641
661.265	0.0153287
661.343	0.0152452
661.421	0.0152962
661.499	0.0151617
661.578	0.0150919
661.656	0.0150713
661.734	0.0151840
661.812	0.0149110
661.890	0.0149001
661.968	0.0148398
662.046	0.0148804
662.124	0.0148766
662.203	0.0148296
662.281	0.0148940
662.359	0.0147552
662.437	0.0147330
662.515	0.0147011
662.593	0.0147297
662.671	0.0147726
662.749	0.0146768
662.828	0.0147763
662.906	0.0147787
662.984	0.0147137
663.062	0.0148577
663.140	0.0148270
663.218	0.0147448
663.296	0.0148535
663.374	0.0149123
663.453	0.0148338
663.531	0.0147038
663.609	0.0148098
663.687	0.0147105
663.765	0.0148200
663.843	0.0148769
663.921	0.0146809
663.999	0.0146968
664.078	0.0148948
664.156	0.0149636
664.234	0.0149937
664.312	0.0149685
664.390	0.0150927
664.468	0.0150617
664.546	0.0151076
664.624	0.0152267
664.703	0.0153724
664.781	0.0153947
664.859	0.0153972
664.937	0.0154370
665.015	0.0154000
665.093	0.0155564
665.171	0.0154749
665.249	0.0154786
665.328	0.0154234
665.406	0.0155519
665.484	0.0153722
665.562	0.0153547
665.640	0.0153789
665.718	0.0154652
665.796	0.0154293
665.874	0.0152019
665.953	0.0151894
666.031	0.0152015
666.109	0.0151539
666.187	0.0151178
666.265	0.0151118
666.343	0.0150283
666.421	0.0151134
666.499	0.0150173
666.578	0.0149207
666.656	0.0150786
666.734	0.0150258
666.812	0.0148737
666.890	0.0149599
666.968	0.0150030
667.046	0.0148983
667.124	0.0148582
667.203	0.0148600
667.281	0.0148174
667.359	0.0147720
667.437	0.0148067
667.515	0.0147603
667.593	0.0149025
667.671	0.0147722
667.749	0.0147126
667.828	0.0147734
667.906	0.0145192
667.984	0.0145411
668.062	0.0146141
668.140	0.0146533
668.218	0.0147232
668.296	0.0147205
668.374	0.0146548
668.453	0.0148198
668.531	0.0148952
668.609	0.0149732
668.687	0.0148837
668.765	0.0150754
668.843	0.0148727
668.921	0.0150922
668.999	0.0151308
669.078	0.0152139
669.156	0.0150308
669.234	0.0151298
669.312	0.0151865
669.390	0.0150578
669.468	0.0150154
669.546	0.0151826
669.624	0.0149157
669.703	0.0149309
669.781	0.0150040
669.859	0.0150465
669.937	0.0150206
670.015	0.0149448
670.093	0.0151981
670.171	0.0151300
670.249	0.0149847
670.328	0.0150906
670.406	0.0152067
670.484	0.0150767
670.562	0.0151214
670.640	0.0152770
670.718	0.0152875
670.796	0.0152480
670.874	0.0152996
670.953	0.0153030
671.031	0.0151420
671.109	0.0152045
671.187	0.0151546
671.265	0.0151650
671.343	0.0151460
671.421	0.0150443
671.499	0.0149585
671.578	0.0148782
671.656	0.0147509
671.734	0.0147102
671.812	0.0146899
671.890	0.0145720
671.968	0.0146724
672.046	0.0146252
672.124	0.0146481
672.203	0.0146401
672.281	0.0146352
672.359	0.0145827
672.437	0.0144689
672.515	0.0145869
672.593	0.0144478
672.671	0.0145302
672.749	0.0145203
672.828	0.0145725
672.906	0.0142983
672.984	0.0145418
673.062	0.0144316
673.140	0.0145947
673.218	0.0145425
673.296	0.0147649
673.374	0.0147435
673.453	0.0149260
673.531	0.0148717
673.609	0.0149068
673.687	0.0150687
673.765	0.0152406
673.843	0.0151871
673.921	0.0154089
673.999	0.0156553
674.078	0.0155807
674.156	0.0155101
674.234	0.0155636
674.312	0.0156156
674.390	0.0156008
674.468	0.0156757
674.546	0.0155122
674.624	0.0156190
674.703	0.0153852
674.781	0.0153281
674.859	0.0152637
674.937	0.0152281
675.015	0.0152403
675.093	0.0152351
675.171	0.0151740
675.249	0.0152409
675.328	0.0151067
675.406	0.0150943
675.484	0.0152227
675.562	0.0151775
675.640	0.0151784
675.718	0.0151797
675.796	0.0151939
675.874	0.0150217
675.953	0.0151180
676.031	0.0152308
676.109	0.0151301
676.187	0.0151521
676.265	0.0150517
676.343	0.0149313
676.421	0.0150352
676.499	0.0147781
676.578	0.0147079
676.656	0.0147783
676.734	0.0146687
676.812	0.0145959
676.890	0.0147430
676.968	0.0146118
677.046	0.0145513
677.124	0.0146576
677.203	0.0147337
677.281	0.0146538
677.359	0.0146014
677.437	0.0146381
677.515	0.0147196
677.593	0.0147685
677.671	0.0148607
677.749	0.0149435
677.828	0.0147766
677.906	0.0147842
677.984	0.0148743
678.062	0.0151182
678.140	0.0149281
678.218	0.0149561
678.296	0.0151709
678.374	0.0152267
678.453	0.0151189
678.531	0.0151971
678.609	0.0153322
678.687	0.0153400
678.765	0.0155051
678.843	0.0155151
678.921	0.0155822
678.999	0.0156232
679.078	0.0155347
679.156	0.0155376
679.234	0.0154948
679.312	0.0157214
679.390	0.0155645
679.468	0.0155123
679.546	0.0156479
679.624	0.0154833
679.703	0.0153368
679.781	0.0154214
679.859	0.0154050
679.937	0.0151785
680.015	0.0152652
680.093	0.0151941
680.171	0.0151291
680.249	0.0151771
680.328	0.0151637
680.406	0.0150773
680.484	0.0150159
680.562	0.0149795
680.640	0.0150427
680.718	0.0150719
680.796	0.0149920
680.874	0.0151648
680.953	0.0150973
681.031	0.0150342
681.109	0.0148442
681.187	0.0149850
681.265	0.0149254
681.343	0.0148031
681.421	0.0148978
681.499	0.0149068
681.578	0.0147805
681.656	0.0148262
681.734	0.0145996
681.812	0.0146886
681.890	0.0145338
681.968	0.0145371
682.046	0.0146108
682.124	0.0146521
682.203	0.0144739
682.281	0.0144324
682.359	0.0144790
682.437	0.0144676
682.515	0.0145819
682.593	0.0145467
682.671	0.0146631
682.749	0.0148493
682.828	0.0146336
682.906	0.0146936
682.984	0.0148953
683.062	0.0150423
683.140	0.0148932
683.218	0.0150955
683.296	0.0152215
683.374	0.0151888
683.453	0.0151625
683.531	0.0153017
683.609	0.0153735
683.687	0.0154630
683.765	0.0153861
683.843	0.0154344
683.921	0.0155325
683.999	0.0155065
684.078	0.0154716
684.156	0.0154005
684.234	0.0155162
684.312	0.0154965
684.390	0.0153232
684.468	0.0153535
684.546	0.0152900
684.624	0.0150414
684.703	0.0151295
684.781	0.0150658
684.859	0.0148542
684.937	0.0149074
685.015	0.0150585
685.093	0.0148959
685.171	0.0148484
685.249	0.0148492
685.328	0.0147775
685.406	0.0147540
685.484	0.0147719
685.562	0.0148703
685.640	0.0147042
685.718	0.0147305
685.796	0.0148502
685.874	0.0147810
685.953	0.0149541
686.031	0.0149287
686.109	0.0147558
686.187	0.0147848
686.265	0.0147707
686.343	0.0147856
686.421	0.0148444
686.499	0.0148715
686.578	0.0146950
686.656	0.0146514
686.734	0.0147878
686.812	0.0147817
686.890	0.0148872
686.968	0.0147343
687.046	0.0148091
687.124	0.0147107
687.203	0.0147321
687.281	0.0147742
687.359	0.0147636
687.437	0.0148289
687.515	0.0148730
687.593	0.0151596
687.671	0.0151280
687.749	0.0150769
687.828	0.0151486
687.906	0.0151544
687.984	0.0151349
688.062	0.0153483
688.140	0.0152992
688.218	0.0152996
688.296	0.0153008
688.374	0.0152849
688.453	0.0154290
688.531	0.0153205
688.609	0.0153381
688.687	0.0153392
688.765	0.0152813
688.843	0.0152847
688.921	0.0152811
688.999	0.0152932
689.078	0.0153281
689.156	0.0151443
689.234	0.0152232
689.312	0.0152129
689.390	0.0153091
689.468	0.0152164
689.546	0.0151971
689.624	0.0151183
689.703	0.0150703
689.781	0.0151035
689.859	0.0149876
689.937	0.0150182
690.015	0.0149639
690.093	0.0147997
690.171	0.0149728
690.249	0.0148788
690.328	0.0147372
690.406	0.0147062
690.484	0.0146977
690.562	0.0146448
690.640	0.0146645
690.718	0.0145923
690.796	0.0147620
690.874	0.0147784
690.953	0.0147907
691.031	0.0146751
691.109	0.0146146
691.187	0.0148637
691.265	0.0148338
691.343	0.0148922
691.421	0.0148627
691.499	0.0148730
691.578	0.0148443
691.656	0.0147424
691.734	0.0149004
691.812	0.0148292
691.890	0.0148236
691.968	0.0147563
692.046	0.0148086
692.124	0.0147245
692.203	0.0146320
692.281	0.0146100
692.359	0.0147984
692.437	0.0147646
692.515	0.0146987
692.593	0.0148748
692.671	0.0147491
692.749	0.0148429
692.828	0.0149557
692.906	0.0149113
692.984	0.0149727
693.062	0.0149666
693.140	0.0150605
693.218	0.0149964
693.296	0.0151086
693.374	0.0150176
693.453	0.0151473
693.531	0.0150098
693.609	0.0151923
693.687	0.0150604
693.765	0.0151800
693.843	0.0151829
693.921	0.0150201
693.999	0.0150723
694.078	0.0150745
694.156	0.0152058
694.234	0.0151679
694.312	0.0152095
694.390	0.0152274
694.468	0.0151996
694.546	0.0151499
694.624	0.0152152
694.703	0.0150800
694.781	0.0151329
694.859	0.0150708
694.937	0.0150153
695.015	0.0149808
695.093	0.0150066
695.171	0.0148805
695.249	0.0147137
695.328	0.0147832
695.406	0.0147833
695.484	0.0147299
695.562	0.0145880
695.640	0.0145967
695.718	0.0146270
695.796	0.0143858
695.874	0.0144274
695.953	0.0144964
696.031	0.0143909
696.109	0.0144435
696.187	0.0144832
696.265	0.0145474
696.343	0.0146513
696.421	0.0145504
696.499	0.0146735
696.578	0.0146873
696.656	0.0146764
696.734	0.0149080
696.812	0.0149614
696.890	0.0151421
696.968	0.0148802
697.046	0.0149754
697.124	0.0150978
697.203	0.0150233
697.281	0.0152081
697.359	0.0151493
697.437	0.0152840
697.515	0.0151508
697.593	0.0153156
697.671	0.0151945
697.749	0.0151461
697.828	0.0151729
697.906	0.0151075
697.984	0.0150707
698.062	0.0150212
698.140	0.0151752
698.218	0.0150469
698.296	0.0150099
698.374	0.0150611
698.453	0.0151081
698.531	0.0149717
698.609	0.0150055
698.687	0.0151330
698.765	0.0148713
698.843	0.0149624
698.921	0.0149329
698.999	0.0149508
699.078	0.0148962
699.156	0.0148711
699.234	0.0149064
699.312	0.0148820
699.390	0.0149289
699.468	0.0148698
699.546	0.0147287
699.624	0.0146958
699.703	0.0147839
699.781	0.0146719
699.859	0.0147533
699.937	0.0147681
700.015	0.0146301
700.093	0.0147754
700.171	0.0146399
700.249	0.0147115
700.328	0.0144997
700.406	0.0146777
700.484	0.0146498
700.562	0.0145926
700.640	0.0146494
700.718	0.0146188
700.796	0.0146007
700.874	0.0149072
700.953	0.0148759
701.031	0.0148949
701.109	0.0148877
701.187	0.0149400
701.265	0.0149030
701.343	0.0150954
701.421	0.0151101
701.499	0.0150565
701.578	0.0151490
701.656	0.0151635
701.734	0.0151690
701.812	0.0151510
701.890	0.0152492
701.968	0.0152899
702.046	0.0152922
702.124	0.0153951
702.203	0.0154498
702.281	0.0152425
702.359	0.0153110
702.437	0.0154807
702.515	0.0153617
702.593	0.0153750
702.671	0.0152463
702.749	0.0152430
702.828	0.0152740
702.906	0.0152519
702.984	0.0151141
703.062	0.0150298
703.140	0.0150446
703.218	0.0149850
703.296	0.0151379
703.374	0.0149108
703.453	0.0149049
703.531	0.0148622
703.609	0.0148976
703.687	0.0149029
703.765	0.0149018
703.843	0.0148985
703.921	0.0150239
703.999	0.0149080
704.078	0.0149046
704.156	0.0148206
704.234	0.0148927
704.312	0.0147925
704.390	0.0148180
704.468	0.0149222
704.546	0.0149332
704.624	0.0149273
704.703	0.0148882
704.781	0.0150083
704.859	0.0150443
704.937	0.0149339
705.015	0.0149620
705.093	0.0148673
705.171	0.0148888
705.249	0.0148166
705.328	0.0148676
705.406	0.0148862
705.484	0.0149068
705.562	0.0149602
705.640	0.0149208
705.718	0.0149715
705.796	0.0151105
705.874	0.0151537
705.953	0.0150724
706.031	0.0150175
706.109	0.0149276
706.187	0.0150619
706.265	0.0149871
706.343	0.0150727
706.421	0.0150081
706.499	0.0149429
706.578	0.0149074
706.656	0.0150726
706.734	0.0150955
706.812	0.0150709
706.890	0.0149426
706.968	0.0148992
707.046	0.0149081
707.124	0.0148865
707.203	0.0149789
707.281	0.0150133
707.359	0.0150536
707.437	0.0149232
707.515	0.0148977
707.593	0.0148510
707.671	0.0150730
707.749	0.0147521
707.828	0.0147405
707.906	0.0148428
707.984	0.0148981
708.062	0.0148843
708.140	0.0148802
708.218	0.0147134
708.296	0.0147713
708.374	0.0148806
708.453	0.0147263
708.531	0.0149233
708.609	0.0148148
708.687	0.0148729
708.765	0.0148045
708.843	0.0147904
708.921	0.0150092
708.999	0.0148811
709.078	0.0150178
709.156	0.0150395
709.234	0.0149875
709.312	0.0149689
709.390	0.0149947
709.468	0.0150580
709.546	0.0151149
709.624	0.0149677
709.703	0.0149425
709.781	0.0150469
709.859	0.0149636
709.937	0.0148463
710.015	0.0149440
710.093	0.0149065
710.171	0.0148811
710.249	0.0148819
710.328	0.0147800
710.406	0.0148263
710.484	0.0147856
710.562	0.0148141
710.640	0.0148927
710.718	0.0148767
710.796	0.0149227
710.874	0.0150008
710.953	0.0149303
711.031	0.0148709
711.109	0.0150521
711.187	0.0150201
711.265	0.0149477
711.343	0.0150767
711.421	0.0150462
711.499	0.0150135
711.578	0.0150129
711.656	0.0149142
711.734	0.0149375
711.812	0.0149024
711.890	0.0148869
711.968	0.0149727
712.046	0.0150352
712.124	0.0150009
712.203	0.0148569
712.281	0.0148904
712.359	0.0148135
712.437	0.0149616
712.515	0.0148071
712.593	0.0149171
712.671	0.0148548
712.749	0.0148505
712.828	0.0149468
712.906	0.0149364
712.984	0.0149222
713.062	0.0149515
713.140	0.0149141
713.218	0.0147850
713.296	0.0148439
713.374	0.0150320
713.453	0.0149675
713.531	0.0148347
713.609	0.0148238
713.687	0.0148184
713.765	0.0149273
713.843	0.0149113
713.921	0.0148418
713.999	0.0148060
714.078	0.0149666
714.156	0.0148106
714.234	0.0147174
714.312	0.0148459
714.390	0.0148750
714.468	0.0147659
714.546	0.0147797
714.624	0.0148002
714.703	0.0149512
714.781	0.0148039
714.859	0.0146989
714.937	0.0149809
715.015	0.0149343
715.093	0.0148296
715.171	0.0148940
715.249	0.0149518
715.328	0.0149714
715.406	0.0149015
715.484	0.0150131
715.562	0.0150407
715.640	0.0150261
715.718	0.0149968
715.796	0.0150011
715.874	0.0150548
715.953	0.0150668
716.031	0.0151059
716.109	0.0150777
716.187	0.0151684
716.265	0.0152141
716.343	0.0151823
716.421	0.0151249
716.499	0.0151506
716.578	0.0150867
716.656	0.0150475
716.734	0.0151588
716.812	0.0150161
716.890	0.0150500
716.968	0.0151339
717.046	0.0150644
717.124	0.0149564
717.203	0.0148938
717.281	0.0150863
717.359	0.0151525
717.437	0.0148293
717.515	0.0151157
717.593	0.0150629
717.671	0.0149870
717.749	0.0148664
717.828	0.0148649
717.906	0.0149389
717.984	0.0148531
718.062	0.0148032
718.140	0.0148414
718.218	0.0149343
718.296	0.0149416
718.374	0.0148120
718.453	0.0148414
718.531	0.0149467
718.609	0.0149330
718.687	0.0147445
718.765	0.0150232
718.843	0.0149060
718.921	0.0149781
718.999	0.0150499
719.078	0.0149678
719.156	0.0150082
719.234	0.0149671
719.312	0.0150262
719.390	0.0150686
719.468	0.0150652
719.546	0.0151069
719.624	0.0149651
719.703	0.0149567
719.781	0.0150769
719.859	0.0150730
719.937	0.0151428
720.015	0.0151747
720.093	0.0150922
720.171	0.0150778
720.249	0.0151806
720.328	0.0151249
720.406	0.0150130
720.484	0.0150603
720.562	0.0152417
720.640	0.0150061
720.718	0.0150274
720.796	0.0149844
720.874	0.0150484
720.953	0.0150307
721.031	0.0150104
721.109	0.0148767
721.187	0.0148734
721.265	0.0147624
721.343	0.0148171
721.421	0.0148532
721.499	0.0148967
721.578	0.0148737
721.656	0.0149596
721.734	0.0148173
721.812	0.0149935
721.890	0.0148477
721.968	0.0149145
722.046	0.0150340
722.124	0.0149271
722.203	0.0149641
722.281	0.0148232
722.359	0.0149112
722.437	0.0148997
722.515	0.0148804
722.593	0.0148269
722.671	0.0149162
722.749	0.0148174
722.828	0.0147606
722.906	0.0148017
722.984	0.0147594
723.062	0.0146813
723.140	0.0147313
723.218	0.0148223
723.296	0.0148543
723.374	0.0147580
723.453	0.0146295
723.531	0.0146974
723.609	0.0147052
723.687	0.0148446
723.765	0.0147856
723.843	0.0147175
723.921	0.0148716
723.999	0.0149024
724.078	0.0147974
724.156	0.0146597
724.234	0.0149476
724.312	0.0150096
724.390	0.0149045
724.468	0.0149328
724.546	0.0150658
724.624	0.0150253
724.703	0.0149812
724.781	0.0149464
724.859	0.0150446
724.937	0.0150790
725.015	0.0150021
725.093	0.0150348
725.171	0.0151456
725.249	0.0151428
725.328	0.0149974
725.406	0.0151524
725.484	0.0151743
725.562	0.0151070
725.640	0.0150794
725.718	0.0150743
725.796	0.0148393
725.874	0.0150464
725.953	0.0150060
726.031	0.0148228
726.109	0.0150703
726.187	0.0149908
726.265	0.0149947
726.343	0.0150138
726.421	0.0149278
726.499	0.0150523
726.578	0.0149668
726.656	0.0150636
726.734	0.0149504
726.812	0.0150532
726.890	0.0151205
726.968	0.0151542
727.046	0.0151627
727.124	0.0150451
727.203	0.0150803
727.281	0.0151949
727.359	0.0149464
727.437	0.0150388
727.515	0.0150747
727.593	0.0150974
727.671	0.0150172
727.749	0.0149805
727.828	0.0149625
727.906	0.0150420
727.984	0.0148376
728.062	0.0149281
728.140	0.0150459
728.218	0.0150327
728.296	0.0149191
728.374	0.0149814
728.453	0.0147538
728.531	0.0149773
728.609	0.0148482
728.687	0.0146672
728.765	0.0148262
728.843	0.0150354
728.921	0.0149825
728.999	0.0147977
729.078	0.0150231
729.156	0.0149319
729.234	0.0149710
729.312	0.0149056
729.390	0.0147449
729.468	0.0149061
729.546	0.0149390
729.624	0.0150097
729.703	0.0149591
729.781	0.0149869
729.859	0.0150446
729.937	0.0150273
730.015	0.0150352
730.093	0.0150287
730.171	0.0150538
730.249	0.0150362
730.328	0.0150887
730.406	0.0151481
730.484	0.0150446
730.562	0.0150504
730.640	0.0150520
730.718	0.0149818
730.796	0.0150877
730.874	0.0150449
730.953	0.0149538
731.031	0.0150481
731.109	0.0149310
731.187	0.0149498
731.265	0.0150829
731.343	0.0151596
731.421	0.0149650
731.499	0.0149745
731.578	0.0150899
731.656	0.0149332
731.734	0.0149583
731.812	0.0150378
731.890	0.0149843
731.968	0.0149164
732.046	0.0148594
732.124	0.0150219
732.203	0.0149022
732.281	0.0147536
732.359	0.0148360
732.437	0.0148922
732.515	0.0149337
732.593	0.0147561
732.671	0.0148678
732.749	0.0148921
732.828	0.0149830
732.906	0.0149125
732.984	0.0147915
733.062	0.0148281
733.140	0.0148027
733.218	0.0148611
733.296	0.0148341
733.374	0.0148064
733.453	0.0150198
733.531	0.0149833
733.609	0.0148476
733.687	0.0148618
733.765	0.0150600
733.843	0.0149032
733.921	0.0150502
733.999	0.0149443
734.078	0.0148957
734.156	0.0150353
734.234	0.0150846
734.312	0.0150780
734.390	0.0151096
734.468	0.0150685
734.546	0.0151698
734.624	0.0151755
734.703	0.0151848
734.781	0.0151381
734.859	0.0151391
734.937	0.0150122
735.015	0.0151088
735.093	0.0150047
735.171	0.0151337
735.249	0.0151370
735.328	0.0150555
735.406	0.0151080
735.484	0.0150710
735.562	0.0151447
735.640	0.0151859
735.718	0.0151847
735.796	0.0152805
735.874	0.0152686
735.953	0.0153735
736.031	0.0151856
736.109	0.0151477
736.187	0.0153257
736.265	0.0152522
736.343	0.0152480
736.421	0.0153866
736.499	0.0152630
736.578	0.0152125
736.656	0.0154058
736.734	0.0151239
736.812	0.0150820
736.890	0.0151079
736.968	0.0150399
737.046	0.0151084
737.124	0.0150999
737.203	0.0150906
737.281	0.0152067
737.359	0.0149982
737.437	0.0151553
737.515	0.0149644
737.593	0.0148520
737.671	0.0150549
737.749	0.0150977
737.828	0.0150737
737.906	0.0151306
737.984	0.0148660
738.062	0.0150838
738.140	0.0149946
738.218	0.0149172
738.296	0.0150745
738.374	0.0151102
738.453	0.0151211
738.531	0.0151321
738.609	0.0151588
738.687	0.0151086
738.765	0.0151361
738.843	0.0151227
738.921	0.0150899
738.999	0.0151402
739.078	0.0152409
739.156	0.0150984
739.234	0.0152144
739.312	0.0151826
739.390	0.0151049
739.468	0.0149990
739.546	0.0151270
739.624	0.0150854
739.703	0.0149776
739.781	0.0150187
739.859	0.0148997
739.937	0.0148701
740.015	0.0148940
740.093	0.0147634
740.171	0.0148121
740.249	0.0148238
740.328	0.0148978
740.406	0.0148820
740.484	0.0147847
740.562	0.0147912
740.640	0.0147954
740.718	0.0148264
740.796	0.0148907
740.874	0.0149712
740.953	0.0148631
741.031	0.0149503
741.109	0.0149365
741.187	0.0149084
741.265	0.0149617
741.343	0.0149249
741.421	0.0149179
741.499	0.0148936
741.578	0.0149907
741.656	0.0150269
741.734	0.0148290
741.812	0.0149529
741.890	0.0149741
741.968	0.0149551
742.046	0.0149141
742.124	0.0148582
742.203	0.0149425
742.281	0.0149301
742.359	0.0150187
742.437	0.0150846
742.515	0.0149659
742.593	0.0148196
742.671	0.0148823
742.749	0.0150130
742.828	0.0150288
742.906	0.0150885
742.984	0.0149624
743.062	0.0149784
743.140	0.0149595
743.218	0.0150865
743.296	0.0151758
743.374	0.0151644
743.453	0.0150584
743.531	0.0151587
743.609	0.0150546
743.687	0.0151402
743.765	0.0151135
743.843	0.0151149
743.921	0.0151167
743.999	0.0152103
744.078	0.0151196
744.156	0.0151621
744.234	0.0151618
744.312	0.0151720
744.390	0.0152185
744.468	0.0151646
744.546	0.0150205
744.624	0.0149563
744.703	0.0150247
744.781	0.0150781
744.859	0.0149889
744.937	0.0151451
745.015	0.0151974
745.093	0.0150624
745.171	0.0150018
745.249	0.0148521
745.328	0.0150423
745.406	0.0150934
745.484	0.0149444
745.562	0.0149824
745.640	0.0150145
745.718	0.0150909
745.796	0.0150456
745.874	0.0149293
745.953	0.0148459
746.031	0.0149751
746.109	0.0150045
746.187	0.0149207
746.265	0.0149770
746.343	0.0149394
746.421	0.0150816
746.499	0.0149220
746.578	0.0150076
746.656	0.0150147
746.734	0.0149515
746.812	0.0151966
746.890	0.0150014
746.968	0.0148775
747.046	0.0151227
747.124	0.0150864
747.203	0.0150112
747.281	0.0150509
747.359	0.0151410
747.437	0.0150010
747.515	0.0150736
747.593	0.0151561
747.671	0.0151823
747.749	0.0151001
747.828	0.0150190
747.906	0.0151324
747.984	0.0149181
748.062	0.0150864
748.140	0.0149577
748.218	0.0150787
748.296	0.0150610
748.374	0.0151006
748.453	0.0151347
748.531	0.0151502
748.609	0.0151943
748.687	0.0152643
748.765	0.0151151
748.843	0.0151473
748.921	0.0151402
748.999	0.0150845
749.078	0.0151335
749.156	0.0151299
749.234	0.0150723
749.312	0.0150681
749.390	0.0149440
749.468	0.0151292
749.546	0.0150520
749.624	0.0149746
749.703	0.0149986
749.781	0.0149079
749.859	0.0149929
749.937	0.0149732
750.015	0.0149996
750.093	0.0151248
750.171	0.0151791
750.249	0.0149799
750.328	0.0151330
750.406	0.0150004
750.484	0.0150027
750.562	0.0149726
750.640	0.0149541
750.718	0.0149282
750.796	0.0149106
750.874	0.0148801
750.953	0.0148861
751.031	0.0149135
751.109	0.0147817
751.187	0.0148322
751.265	0.0150935
751.343	0.0149838
751.421	0.0150078
751.499	0.0150406
751.578	0.0148994
751.656	0.0150043
751.734	0.0149525
751.812	0.0150077
751.890	0.0150273
751.968	0.0150325
752.046	0.0149588
752.124	0.0150067
752.203	0.0151158
752.281	0.0149366
752.359	0.0148434
752.437	0.0149729
752.515	0.0151510
752.593	0.0148597
752.671	0.0149082
752.749	0.0150581
752.828	0.0149158
752.906	0.0150193
752.984	0.0150737
753.062	0.0148398
753.140	0.0151488
753.218	0.0149421
753.296	0.0148724
753.374	0.0149787
753.453	0.0148638
753.531	0.0149078
753.609	0.0149799
753.687	0.0149660
753.765	0.0148631
753.843	0.0148827
753.921	0.0149658
753.999	0.0149094
754.078	0.0149844
754.156	0.0150243
754.234	0.0149432
754.312	0.0149226
754.390	0.0149367
754.468	0.0149784
754.546	0.0149284
754.624	0.0148067
754.703	0.0149014
754.781	0.0149878
754.859	0.0148460
754.937	0.0148490
755.015	0.0147339
755.093	0.0149265
755.171	0.0150603
755.249	0.0149078
755.328	0.0149879
755.406	0.0149330
755.484	0.0148744
755.562	0.0148672
755.640	0.0150005
755.718	0.0149542
755.796	0.0149809
755.874	0.0148362
755.953	0.0149934
756.031	0.0149729
756.109	0.0148849
756.187	0.0149289
756.265	0.0149329
756.343	0.0149685
756.421	0.0150037
756.499	0.0150089
756.578	0.0150968
756.656	0.0149827
756.734	0.0150935
756.812	0.0149802
756.890	0.0151274
756.968	0.0151627
757.046	0.0151298
757.124	0.0150835
757.203	0.0150741
757.281	0.0151582
757.359	0.0151382
757.437	0.0150420
757.515	0.0151199
757.593	0.0151859
757.671	0.0151148
757.749	0.0150758
757.828	0.0150430
757.906	0.0151377
757.984	0.0151240
758.062	0.0151849
758.140	0.0150954
758.218	0.0151632
758.296	0.0153749
758.374	0.0151347
758.453	0.0152365
758.531	0.0151731
758.609	0.0151283
758.687	0.0153069
758.765	0.0150116
758.843	0.0151235
758.921	0.0152209
758.999	0.0151717
759.078	0.0150935
759.156	0.0150133
759.234	0.0151293
759.312	0.0153442
759.390	0.0151162
759.468	0.0151663
759.546	0.0151596
759.624	0.0151917
759.703	0.0151187
759.781	0.0151329
759.859	0.0149859
759.937	0.0151244
760.015	0.0151236
760.093	0.0149512
760.171	0.0149282
760.249	0.0150153
760.328	0.0150762
760.406	0.0150188
760.484	0.0149534
760.562	0.0151163
760.640	0.0149763
760.718	0.0151372
760.796	0.0149918
760.874	0.0150693
760.953	0.0150890
761.031	0.0150080
761.109	0.0150751
761.187	0.0150058
761.265	0.0150932
761.343	0.0151039
761.421	0.0149906
761.499	0.0151102
761.578	0.0151415
761.656	0.0149370
761.734	0.0150602
761.812	0.0152068
761.890	0.0152147
761.968	0.0152247
762.046	0.0150488
762.124	0.0149999
762.203	0.0151499
762.281	0.0152807
762.359	0.0152314
762.437	0.0152184
762.515	0.0151656
762.593	0.0150297
762.671	0.0152119
762.749	0.0149838
762.828	0.0150630
762.906	0.0150900
762.984	0.0150887
763.062	0.0150988
763.140	0.0150451
763.218	0.0150546
763.296	0.0150502
763.374	0.0150146
763.453	0.0149116
763.531	0.0149918
763.609	0.0150993
763.687	0.0151160
763.765	0.0150355
763.843	0.0150520
763.921	0.0149236
763.999	0.0149171
764.078	0.0148484
764.156	0.0150351
764.234	0.0149530
764.312	0.0149403
764.390	0.0150340
764.468	0.0148140
764.546	0.0148856
764.624	0.0150108
764.703	0.0149806
764.781	0.0149609
764.859	0.0149796
764.937	0.0149355
765.015	0.0150340
765.093	0.0150094
765.171	0.0149400
765.249	0.0150397
765.328	0.0151268
765.406	0.0149692
765.484	0.0150046
765.562	0.0151488
765.640	0.0150208
765.718	0.0150809
765.796	0.0151525
765.874	0.0151617
765.953	0.0150647
766.031	0.0150441
766.109	0.0150956
766.187	0.0151093
766.265	0.0151176
766.343	0.0151018
766.421	0.0150208
766.499	0.0150790
766.578	0.0150417
766.656	0.0149265
766.734	0.0151005
766.812	0.0150125
766.890	0.0151160
766.968	0.0150301
767.046	0.0151327
767.124	0.0150583
767.203	0.0149870
767.281	0.0150668
767.359	0.0149908
767.437	0.0150399
767.515	0.0150017
767.593	0.0150243
767.671	0.0148280
767.749	0.0150481
767.828	0.0151571
767.906	0.0149969
767.984	0.0149660
768.062	0.0149400
768.140	0.0149535
768.218	0.0148373
768.296	0.0149921
768.374	0.0147775
768.453	0.0149535
768.531	0.0148879
768.609	0.0148647
768.687	0.0148370
768.765	0.0147768
768.843	0.0150098
768.921	0.0149377
768.999	0.0148943
769.078	0.0148565
769.156	0.0148048
769.234	0.0148108
769.312	0.0149860
769.390	0.0148637
769.468	0.0148963
769.546	0.0149924
769.624	0.0149205
769.703	0.0148690
769.781	0.0147996
769.859	0.0149011
769.937	0.0148234
770.015	0.0148956
770.093	0.0149064
770.171	0.0148633
770.249	0.0149995
770.328	0.0150163
770.406	0.0151176
770.484	0.0149936
770.562	0.0150369
770.640	0.0151627
770.718	0.0149991
770.796	0.0149542
770.874	0.0150864
770.953	0.0149892
771.031	0.0150085
771.109	0.0149866
771.187	0.0150341
771.265	0.0149541
771.343	0.0150073
771.421	0.0149858
771.499	0.0149754
771.578	0.0148919
771.656	0.0149294
771.734	0.0149860
771.812	0.0149293
771.890	0.0150869
771.968	0.0149608
772.046	0.0150725
772.124	0.0151365
772.203	0.0150022
772.281	0.0150600
772.359	0.0148914
772.437	0.0148569
772.515	0.0148817
772.593	0.0149957
772.671	0.0149262
772.749	0.0149541
772.828	0.0149160
772.906	0.0149512
772.984	0.0149490
773.062	0.0150240
773.140	0.0150555
773.218	0.0148029
773.296	0.0148499
773.374	0.0149696
773.453	0.0148904
773.531	0.0150744
773.609	0.0149726
773.687	0.0149728
773.765	0.0150280
773.843	0.0148605
773.921	0.0149081
773.999	0.0149981
774.078	0.0148468
774.156	0.0150185
774.234	0.0150087
774.312	0.0148569
774.390	0.0149238
774.468	0.0148875
774.546	0.0148180
774.624	0.0149706
774.703	0.0150117
774.781	0.0150626
774.859	0.0149266
774.937	0.0147703
775.015	0.0149605
775.093	0.0148855
775.171	0.0149884
775.249	0.0151038
775.328	0.0149958
775.406	0.0150172
775.484	0.0150429
775.562	0.0150053
775.640	0.0148544
775.718	0.0150182
775.796	0.0150743
775.874	0.0150299
775.953	0.0150951
776.031	0.0151590
776.109	0.0150272
776.187	0.0150893
776.265	0.0150903
776.343	0.0150929
776.421	0.0149703
776.499	0.0150514
776.578	0.0151403
776.656	0.0151571
776.734	0.0150449
776.812	0.0151122
776.890	0.0149680
776.968	0.0150105
777.046	0.0149976
777.124	0.0150349
777.203	0.0149429
777.281	0.0150332
777.359	0.0148811
777.437	0.0151552
777.515	0.0150532
777.593	0.0148439
777.671	0.0150924
777.749	0.0150454
777.828	0.0150687
777.906	0.0151279
777.984	0.0149587
778.062	0.0150483
778.140	0.0151302
778.218	0.0150793
778.296	0.0150368
778.374	0.0149073
778.453	0.0149030
778.531	0.0151201
778.609	0.0149453
778.687	0.0149050
778.765	0.0149184
778.843	0.0150601
778.921	0.0149703
778.999	0.0150127
779.078	0.0150933
779.156	0.0151382
779.234	0.0150190
779.312	0.0149845
779.390	0.0149799
779.468	0.0149059
779.546	0.0149443
779.624	0.0150735
779.703	0.0150622
779.781	0.0151524
779.859	0.0150286
779.937	0.0149912
780.015	0.0151192
780.093	0.0152202
780.171	0.0151504
780.249	0.0149940
780.328	0.0150778
780.406	0.0151169
780.484	0.0150803
780.562	0.0151426
780.640	0.0150639
780.718	0.0149809
780.796	0.0151604
780.874	0.0149852
780.953	0.0149777
781.031	0.0149981
781.109	0.0150964
781.187	0.0151752
781.265	0.0150580
781.343	0.0149673
781.421	0.0150436
781.499	0.0150259
781.578	0.0150482
781.656	0.0148907
781.734	0.0150489
781.812	0.0150603
781.890	0.0150013
781.968	0.0149820
782.046	0.0150000
782.124	0.0151218
782.203	0.0150900
782.281	0.0151115
782.359	0.0151453
782.437	0.0150620
782.515	0.0151221
782.593	0.0149677
782.671	0.0150620
782.749	0.0150604
782.828	0.0149695
782.906	0.0148373
782.984	0.0148068
783.062	0.0147874
783.140	0.0147318
783.218	0.0149474
783.296	0.0148367
783.374	0.0147259
783.453	0.0149298
783.531	0.0148743
783.609	0.0149357
783.687	0.0148876
783.765	0.0149029
783.843	0.0150426
783.921	0.0150628
783.999	0.0150582
784.078	0.0150842
784.156	0.0149471
784.234	0.0149444
784.312	0.0147965
784.390	0.0150261
784.468	0.0149417
784.546	0.0149146
784.624	0.0149191
784.703	0.0149431
784.781	0.0148019
784.859	0.0149957
784.937	0.0149577
785.015	0.0149992
785.093	0.0150665
785.171	0.0149625
785.249	0.0150718
785.328	0.0149103
785.406	0.0150011
785.484	0.0150693
785.562	0.0150400
785.640	0.0151106
785.718	0.0149459
785.796	0.0149751
785.874	0.0149845
785.953	0.0149747
786.031	0.0148283
786.109	0.0149355
786.187	0.0149689
786.265	0.0149214
786.343	0.0149757
786.421	0.0148765
786.499	0.0148851
786.578	0.0147334
786.656	0.0150826
786.734	0.0149625
786.812	0.0149403
786.890	0.0148486
786.968	0.0148405
787.046	0.0148351
787.124	0.0149107
787.203	0.0150035
787.281	0.0149918
787.359	0.0149384
787.437	0.0149532
787.515	0.0148395
787.593	0.0149533
787.671	0.0148971
787.749	0.0149907
787.828	0.0151226
787.906	0.0151327
787.984	0.0149064
788.062	0.0150046
788.140	0.0149804
788.218	0.0149895
788.296	0.0149123
788.374	0.0148358
788.453	0.0147929
788.531	0.0146103
788.609	0.0146790
788.687	0.0149449
788.765	0.0147455
788.843	0.0146870
788.921	0.0147601
788.999	0.0146149
789.078	0.0148477
789.156	0.0148765
789.234	0.0147540
789.312	0.0148550
789.390	0.0148215
789.468	0.0148444
789.546	0.0149323
789.624	0.0150162
789.703	0.0149543
789.781	0.0149435
789.859	0.0148925
789.937	0.0149417
790.015	0.0149563
790.093	0.0148206
790.171	0.0150515
790.249	0.0149938
790.328	0.0148414
790.406	0.0148151
790.484	0.0149165
790.562	0.0149073
790.640	0.0147748
790.718	0.0147672
790.796	0.0148560
790.874	0.0148129
790.953	0.0148837
791.031	0.0148473
791.109	0.0148687
791.187	0.0149179
791.265	0.0147988
791.343	0.0150141
791.421	0.0149922
791.499	0.0149906
791.578	0.0148887
791.656	0.0148317
791.734	0.0149850
791.812	0.0149584
791.890	0.0149506
791.968	0.0147890
792.046	0.0148420
792.124	0.0148793
792.203	0.0149014
792.281	0.0149152
792.359	0.0148867
792.437	0.0148520
792.515	0.0148769
792.593	0.0148513
792.671	0.0149040
792.749	0.0148528
792.828	0.0148405
792.906	0.0149613
792.984	0.0148836
793.062	0.0148090
793.140	0.0148843
793.218	0.0147284
793.296	0.0148808
793.374	0.0149010
793.453	0.0148992
793.531	0.0147748
793.609	0.0149817
793.687	0.0149807
793.765	0.0149361
793.843	0.0149264
793.921	0.0149292
793.999	0.0149204
794.078	0.0149516
794.156	0.0149136
794.234	0.0148875
794.312	0.0149815
794.390	0.0149101
794.468	0.0149004
794.546	0.0149847
794.624	0.0146978
794.703	0.0147520
794.781	0.0148544
794.859	0.0149839
794.937	0.0149921
795.015	0.0148013
795.093	0.0147564
795.171	0.0147879
795.249	0.0147810
795.328	0.0148290
795.406	0.0146382
795.484	0.0147342
795.562	0.0147141
795.640	0.0148180
795.718	0.0147811
795.796	0.0148016
795.874	0.0146913
795.953	0.0147775
796.031	0.0150127
796.109	0.0150125
796.187	0.0147205
796.265	0.0146552
796.343	0.0147466
796.421	0.0148353
796.499	0.0148006
796.578	0.0146526
796.656	0.0147768
796.734	0.0148179
796.812	0.0147591
796.890	0.0146539
796.968	0.0148487
797.046	0.0150166
797.124	0.0149561
797.203	0.0148885
797.281	0.0149188
797.359	0.0149358
797.437	0.0148591
797.515	0.0149154
797.593	0.0149052
797.671	0.0151172
797.749	0.0149717
797.828	0.0149869
797.906	0.0148096
797.984	0.0147604
798.062	0.0149194
798.140	0.0149335
798.218	0.0147896
798.296	0.0149160
798.374	0.0149213
798.453	0.0148112
798.531	0.0149818
798.609	0.0150013
798.687	0.0147837
798.765	0.0151016
798.843	0.0150311
798.921	0.0151199
798.999	0.0150198
799.078	0.0150260
799.156	0.0151651
799.234	0.0151452
799.312	0.0150681
799.390	0.0150581
799.468	0.0150607
799.546	0.0150796
799.624	0.0150729
799.703	0.0149980
799.781	0.0152014
799.859	0.0151362
799.937	0.0152119
800.015	0.0151403
800.093	0.0151415
800.171	0.0150189
800.249	0.0151284
800.328	0.0151005
800.406	0.0151308
800.484	0.0151439
800.562	0.0150870
800.640	0.0153155
800.718	0.0150715
800.796	0.0150371
800.874	0.0151119
800.953	0.0150938
801.031	0.0151598
801.109	0.0152184
801.187	0.0150729
801.265	0.0151020
801.343	0.0150602
801.421	0.0150398
801.499	0.0149323
801.578	0.0149858
801.656	0.0151841
801.734	0.0150822
801.812	0.0149891
801.890	0.0149037
801.968	0.0150004
802.046	0.0149391
802.124	0.0149459
802.203	0.0150084
802.281	0.0151098
802.359	0.0150564
802.437	0.0149793
802.515	0.0150636
802.593	0.0151651
802.671	0.0151038
802.749	0.0150850
802.828	0.0149657
802.906	0.0149870
802.984	0.0150588
803.062	0.0150645
803.140	0.0149422
803.218	0.0149686
803.296	0.0148193
803.374	0.0148647
803.453	0.0148634
803.531	0.0149232
803.609	0.0149831
803.687	0.0148714
803.765	0.0148843
803.843	0.0149697
803.921	0.0148799
803.999	0.0149824
804.078	0.0149918
804.156	0.0149076
804.234	0.0148335
804.312	0.0149617
804.390	0.0151072
804.468	0.0151022
804.546	0.0149476
804.624	0.0150842
804.703	0.0151064
804.781	0.0152155
804.859	0.0152178
804.937	0.0151225
805.015	0.0152139
805.093	0.0152299
805.171	0.0151160
805.249	0.0151252
805.328	0.0152272
805.406	0.0151635
805.484	0.0151518
805.562	0.0151317
805.640	0.0151135
805.718	0.0151299
805.796	0.0150027
805.874	0.0150525
805.953	0.0150199
806.031	0.0150014
806.109	0.0150275
806.187	0.0151197
806.265	0.0151083
806.343	0.0149570
806.421	0.0150577
806.499	0.0151642
806.578	0.0149794
806.656	0.0149339
806.734	0.0149922
806.812	0.0149387
806.890	0.0148638
806.968	0.0148596
807.046	0.0149532
807.124	0.0148141
807.203	0.0147941
807.281	0.0150099
807.359	0.0149593
807.437	0.0149467
807.515	0.0148495
807.593	0.0148670
807.671	0.0149409
807.749	0.0148763
807.828	0.0147496
807.906	0.0148462
807.984	0.0149248
808.062	0.0147961
808.140	0.0148162
808.218	0.0148842
808.296	0.0148450
808.374	0.0149464
808.453	0.0148912
808.531	0.0147528
808.609	0.0147654
808.687	0.0148857
808.765	0.0147496
808.843	0.0149081
808.921	0.0149592
808.999	0.0148999
809.078	0.0148032
809.156	0.0148228
809.234	0.0148378
809.312	0.0149007
809.390	0.0148024
809.468	0.0149574
809.546	0.0149829
809.624	0.0148891
809.703	0.0149960
809.781	0.0148997
809.859	0.0148488
809.937	0.0149403
810.015	0.0148534
810.093	0.0148911
810.171	0.0149310
810.249	0.0149619
810.328	0.0149342
810.406	0.0149361
810.484	0.0147601
810.562	0.0148584
810.640	0.0149270
810.718	0.0148588
810.796	0.0148430
810.874	0.0148833
810.953	0.0149698
811.031	0.0147926
811.109	0.0148730
811.187	0.0147505
811.265	0.0147659
811.343	0.0148456
811.421	0.0149789
811.499	0.0147147
811.578	0.0148570
811.656	0.0149282
811.734	0.0148398
811.812	0.0148811
811.890	0.0148443
811.968	0.0150146
812.046	0.0149129
812.124	0.0149051
812.203	0.0148724
812.281	0.0149148
812.359	0.0150345
812.437	0.0149342
812.515	0.0150089
812.593	0.0148757
812.671	0.0150681
812.749	0.0150811
812.828	0.0149256
812.906	0.0148687
812.984	0.0149361
813.062	0.0150343
813.140	0.0149438
813.218	0.0148258
813.296	0.0149482
813.374	0.0149165
813.453	0.0148743
813.531	0.0149278
813.609	0.0148569
813.687	0.0146319
813.765	0.0148574
813.843	0.0147665
813.921	0.0147878
813.999	0.0149493
814.078	0.0148228
814.156	0.0148461
814.234	0.0147850
814.312	0.0148138
814.390	0.0148835
814.468	0.0149415
814.546	0.0148737
814.624	0.0149799
814.703	0.0149207
814.781	0.0149680
814.859	0.0147673
814.937	0.0150001
815.015	0.0149538
815.093	0.0149829
815.171	0.0149911
815.249	0.0149666
815.328	0.0148315
815.406	0.0148702
815.484	0.0149327
815.562	0.0149820
815.640	0.0148773
815.718	0.0149693
815.796	0.0149114
815.874	0.0148920
815.953	0.0148158
816.031	0.0148407
816.109	0.0149525
816.187	0.0148524
816.265	0.0149083
816.343	0.0148241
816.421	0.0149599
816.499	0.0149239
816.578	0.0148093
816.656	0.0147196
816.734	0.0148520
816.812	0.0150428
816.890	0.0149139
816.968	0.0148907
817.046	0.0148514
817.124	0.0150865
817.203	0.0150748
817.281	0.0149597
817.359	0.0148808
817.437	0.0149348
817.515	0.0149156
817.593	0.0149639
817.671	0.0149715
817.749	0.0150275
817.828	0.0149417
817.906	0.0148949
817.984	0.0150018
818.062	0.0149473
818.140	0.0149406
818.218	0.0149317
818.296	0.0149195
818.374	0.0148249
818.453	0.0150147
818.531	0.0149840
818.609	0.0149787
818.687	0.0149536
818.765	0.0150059
818.843	0.0148581
818.921	0.0147906
818.999	0.0148045
819.078	0.0148486
819.156	0.0148388
819.234	0.0149139
819.312	0.0149104
819.390	0.0147601
819.468	0.0148782
819.546	0.0147808
819.624	0.0148525
819.703	0.0149891
819.781	0.0146708
819.859	0.0148952
819.937	0.0149619
820.015	0.0148405
820.093	0.0149800
820.171	0.0150179
820.249	0.0150377
820.328	0.0148370
820.406	0.0150449
820.484	0.0148814
820.562	0.0148491
820.640	0.0149486
820.718	0.0149635
820.796	0.0151046
820.874	0.0150342
820.953	0.0148837
821.031	0.0149863
821.109	0.0151364
821.187	0.0149390
821.265	0.0151329
821.343	0.0149868
821.421	0.0149770
821.499	0.0149499
821.578	0.0149179
821.656	0.0149961
821.734	0.0151469
821.812	0.0149710
821.890	0.0150928
821.968	0.0149309
822.046	0.0148633
822.124	0.0149875
822.203	0.0149669
822.281	0.0149794
822.359	0.0149078
822.437	0.0148769
822.515	0.0150691
822.593	0.0150258
822.671	0.0150410
822.749	0.0149330
822.828	0.0150102
822.906	0.0150378
822.984	0.0150710
823.062	0.0149975
823.140	0.0151178
823.218	0.0150339
823.296	0.0150494
823.374	0.0150386
823.453	0.0150826
823.531	0.0151730
823.609	0.0151703
823.687	0.0151776
823.765	0.0151409
823.843	0.0150316
823.921	0.0150618
823.999	0.0150530
824.078	0.0151244
824.156	0.0149682
824.234	0.0150748
824.312	0.0151583
824.390	0.0149698
824.468	0.0149318
824.546	0.0148916
824.624	0.0150669
824.703	0.0149891
824.781	0.0150886
824.859	0.0151389
824.937	0.0150285
825.015	0.0150417
825.093	0.0149809
825.171	0.0150775
825.249	0.0149291
825.328	0.0150432
825.406	0.0150860
825.484	0.0150879
825.562	0.0150642
825.640	0.0150584
825.718	0.0150642
825.796	0.0150198
825.874	0.0150916
825.953	0.0150908
826.031	0.0150646
826.109	0.0151395
826.187	0.0150906
826.265	0.0149778
826.343	0.0151156
826.421	0.0151681
826.499	0.0149645
826.578	0.0149641
826.656	0.0149464
826.734	0.0150786
826.812	0.0151000
826.890	0.0149138
826.968	0.0150240
827.046	0.0148907
827.124	0.0149366
827.203	0.0150076
827.281	0.0149446
827.359	0.0148652
827.437	0.0150961
827.515	0.0149612
827.593	0.0149191
827.671	0.0148764
827.749	0.0150351
827.828	0.0149634
827.906	0.0149870
827.984	0.0150079
828.062	0.0150013
828.140	0.0150172
828.218	0.0150360
828.296	0.0151168
828.374	0.0150491
828.453	0.0150426
828.531	0.0151967
828.609	0.0151513
828.687	0.0151224
828.765	0.0150111
828.843	0.0151804
828.921	0.0151198
828.999	0.0150459
829.078	0.0149257
829.156	0.0151173
829.234	0.0149969
829.312	0.0150796
829.390	0.0151773
829.468	0.0152203
829.546	0.0150243
829.624	0.0150239
829.703	0.0150755
829.781	0.0148908
829.859	0.0149054
829.937	0.0149709
830.015	0.0149731
830.093	0.0148023
830.171	0.0148380
830.249	0.0150633
830.328	0.0148380
830.406	0.0149516
830.484	0.0149403
830.562	0.0149419
830.640	0.0149712
830.718	0.0150796
830.796	0.0149559
830.874	0.0151265
830.953	0.0150476
831.031	0.0149209
831.109	0.0149580
831.187	0.0150616
831.265	0.0149876
831.343	0.0150983
831.421	0.0149867
831.499	0.0149734
831.578	0.0149356
831.656	0.0149227
831.734	0.0148809
831.812	0.0149532
831.890	0.0149180
831.968	0.0148752
832.046	0.0150523
832.124	0.0150141
832.203	0.0149191
832.281	0.0150485
832.359	0.0150555
832.437	0.0149442
832.515	0.0148750
832.593	0.0149590
832.671	0.0152287
832.749	0.0150652
832.828	0.0149980
832.906	0.0149351
832.984	0.0150420
833.062	0.0150341
833.140	0.0150432
833.218	0.0151042
833.296	0.0149768
833.374	0.0149883
833.453	0.0149836
833.531	0.0149875
833.609	0.0150984
833.687	0.0150592
833.765	0.0149728
833.843	0.0149844
833.921	0.0150803
833.999	0.0149715
834.078	0.0149039
834.156	0.0149059
834.234	0.0149939
834.312	0.0148822
834.390	0.0149915
834.468	0.0149619
834.546	0.0149260
834.624	0.0149001
834.703	0.0150169
834.781	0.0148629
834.859	0.0148961
834.937	0.0149468
835.015	0.0150523
835.093	0.0150229
835.171	0.0151134
835.249	0.0150286
835.328	0.0149757
835.406	0.0149847
835.484	0.0149100
835.562	0.0149285
835.640	0.0149113
835.718	0.0149149
835.796	0.0150195
835.874	0.0149840
835.953	0.0150443
836.031	0.0149641
836.109	0.0148599
836.187	0.0149088
836.265	0.0148226
836.343	0.0148968
836.421	0.0148902
836.499	0.0150491
836.578	0.0149007
836.656	0.0147481
836.734	0.0147687
836.812	0.0149020
836.890	0.0148910
836.968	0.0147318
837.046	0.0148935
837.124	0.0148698
837.203	0.0147606
837.281	0.0147745
837.359	0.0148456
837.437	0.0148851
837.515	0.0149686
837.593	0.0149463
837.671	0.0147884
837.749	0.0149699
837.828	0.0149551
837.906	0.0149036
837.984	0.0148257
838.062	0.0149151
838.140	0.0149263
838.218	0.0148397
838.296	0.0147421
838.374	0.0148579
838.453	0.0148539
838.531	0.0148271
838.609	0.0150063
838.687	0.0149834
838.765	0.0149102
838.843	0.0149324
838.921	0.0151087
838.999	0.0147453
839.078	0.0148997
839.156	0.0148416
839.234	0.0148958
839.312	0.0150282
839.390	0.0150797
839.468	0.0147621
839.546	0.0149195
839.624	0.0149932
839.703	0.0148933
839.781	0.0150537
839.859	0.0150768
839.937	0.0149679
840.015	0.0150072
840.093	0.0149638
840.171	0.0151299
840.249	0.0151855
840.328	0.0150576
840.406	0.0149091
840.484	0.0150130
840.562	0.0150816
840.640	0.0152428
840.718	0.0151051
840.796	0.0152768
840.874	0.0150080
840.953	0.0150114
841.031	0.0151421
841.109	0.0150085
841.187	0.0150757
841.265	0.0150716
841.343	0.0151175
841.421	0.0151375
841.499	0.0149876
841.578	0.0150340
841.656	0.0150928
841.734	0.0151174
841.812	0.0149850
841.890	0.0150163
841.968	0.0151020
842.046	0.0150603
842.124	0.0151057
842.203	0.0150809
842.281	0.0148714
842.359	0.0149139
842.437	0.0150462
842.515	0.0150536
842.593	0.0150770
842.671	0.0150301
842.749	0.0149591
842.828	0.0151044
842.906	0.0149248
842.984	0.0149294
843.062	0.0150079
843.140	0.0149889
843.218	0.0150059
843.296	0.0150361
843.374	0.0150325
843.453	0.0148972
843.531	0.0150095
843.609	0.0149540
843.687	0.0149863
843.765	0.0150590
843.843	0.0149306
843.921	0.0149783
843.999	0.0149200
844.078	0.0148415
844.156	0.0149906
844.234	0.0150770
844.312	0.0150082
844.390	0.0150967
844.468	0.0152863
844.546	0.0150782
844.624	0.0149137
844.703	0.0150698
844.781	0.0149902
844.859	0.0150312
844.937	0.0149976
845.015	0.0149287
845.093	0.0149168
845.171	0.0149749
845.249	0.0150106
845.328	0.0149538
845.406	0.0149929
845.484	0.0149900
845.562	0.0150072
845.640	0.0149876
845.718	0.0149476
845.796	0.0150278
845.874	0.0150032
845.953	0.0149067
846.031	0.0150253
846.109	0.0150311
846.187	0.0150591
846.265	0.0150497
846.343	0.0150209
846.421	0.0150300
846.499	0.0152209
846.578	0.0151702
846.656	0.0151811
846.734	0.0151825
846.812	0.0151891
846.890	0.0153238
846.968	0.0152226
847.046	0.0151513
847.124	0.0153128
847.203	0.0151330
847.281	0.0150557
847.359	0.0152368
847.437	0.0152686
847.515	0.0152013
847.593	0.0151833
847.671	0.0151716
847.749	0.0151721
847.828	0.0151360
847.906	0.0151385
847.984	0.0151540
848.062	0.0152285
848.140	0.0151401
848.218	0.0150755
848.296	0.0151503
848.374	0.0151209
848.453	0.0150425
848.531	0.0150827
848.609	0.0152408
848.687	0.0150791
848.765	0.0151079
848.843	0.0149386
848.921	0.0150039
848.999	0.0150860
849.078	0.0150866
849.156	0.0150796
849.234	0.0150297
849.312	0.0151376
849.390	0.0151623
849.468	0.0150236
849.546	0.0150950
849.624	0.0150160
849.703	0.0150061
849.781	0.0147862
849.859	0.0150027
849.937	0.0150437
850.015	0.0150143
850.093	0.0149339
850.171	0.0149752
850.249	0.0149146
850.328	0.0147647
850.406	0.0150778
850.484	0.0150673
850.562	0.0149290
850.640	0.0149903
850.718	0.0150171
850.796	0.0148608
850.874	0.0149635
850.953	0.0148965
851.031	0.0148959
851.109	0.0149416
851.187	0.0148519
851.265	0.0150437
851.343	0.0149377
851.421	0.0148551
851.499	0.0150014
851.578	0.0149331
851.656	0.0149987
851.734	0.0148932
851.812	0.0150118
851.890	0.0149350
851.968	0.0149841
852.046	0.0149853
852.124	0.0148031
852.203	0.0148509
852.281	0.0148351
852.359	0.0148840
852.437	0.0148942
852.515	0.0148293
852.593	0.0148638
852.671	0.0148638
852.749	0.0148763
852.828	0.0147834
852.906	0.0148516
852.984	0.0149985
853.062	0.0147958
853.140	0.0147759
853.218	0.0148820
853.296	0.0147908
853.374	0.0148572
853.453	0.0149294
853.531	0.0148631
853.609	0.0148455
853.687	0.0148742
853.765	0.0148311
853.843	0.0148738
853.921	0.0149543
853.999	0.0149682
854.078	0.0149173
854.156	0.0149081
854.234	0.0149615
854.312	0.0148791
854.390	0.0149419
854.468	0.0150012
854.546	0.0149063
854.624	0.0147704
854.703	0.0148876
854.781	0.0149653
854.859	0.0150800
854.937	0.0148420
855.015	0.0149073
855.093	0.0148803
855.171	0.0149084
855.249	0.0150223
855.328	0.0149690
855.406	0.0149740
855.484	0.0149452
855.562	0.0148618
855.640	0.0147845
855.718	0.0148048
855.796	0.0149141
855.874	0.0149163
855.953	0.0149456
856.031	0.0149181
856.109	0.0149053
856.187	0.0149767
856.265	0.0150356
856.343	0.0148727
856.421	0.0149511
856.499	0.0149072
856.578	0.0149884
856.656	0.0149327
856.734	0.0149331
856.812	0.0149368
856.890	0.0149903
856.968	0.0149027
857.046	0.0148634
857.124	0.0149294
857.203	0.0147892
857.281	0.0147788
857.359	0.0149240
857.437	0.0148939
857.515	0.0148963
857.593	0.0148271
857.671	0.0147372
857.749	0.0148041
857.828	0.0148410
857.906	0.0150102
857.984	0.0147415
858.062	0.0148066
858.140	0.0148636
858.218	0.0148758
858.296	0.0148822
858.374	0.0150005
858.453	0.0148918
858.531	0.0149290
858.609	0.0150487
858.687	0.0148598
858.765	0.0150358
858.843	0.0149498
858.921	0.0150078
858.999	0.0148804
859.078	0.0149470
859.156	0.0148143
859.234	0.0149438
859.312	0.0148439
859.390	0.0147626
859.468	0.0150001
859.546	0.0150114
859.624	0.0149406
859.703	0.0150048
859.781	0.0148510
859.859	0.0148103
859.937	0.0149399
860.015	0.0150896
860.093	0.0150548
860.171	0.0150890
860.249	0.0148497
860.328	0.0150424
860.406	0.0151215
860.484	0.0149339
860.562	0.0150990
860.640	0.0149488
860.718	0.0149822
860.796	0.0150550
860.874	0.0149378
860.953	0.0150882
861.031	0.0149361
861.109	0.0150253
861.187	0.0149271
861.265	0.0149957
861.343	0.0149760
861.421	0.0148775
861.499	0.0149403
861.578	0.0149726
861.656	0.0148730
861.734	0.0150454
861.812	0.0150049
861.890	0.0148853
861.968	0.0150436
862.046	0.0150233
862.124	0.0148769
862.203	0.0149313
862.281	0.0151299
862.359	0.0150251
862.437	0.0150140
862.515	0.0150758
862.593	0.0150229
862.671	0.0151098
862.749	0.0150701
862.828	0.0150926
862.906	0.0150394
862.984	0.0152189
863.062	0.0150731
863.140	0.0149109
863.218	0.0149146
863.296	0.0150493
863.374	0.0151304
863.453	0.0149149
863.531	0.0148466
863.609	0.0150108
863.687	0.0150049
863.765	0.0149663
863.843	0.0150056
863.921	0.0150333
863.999	0.0150706
864.078	0.0150140
864.156	0.0149969
864.234	0.0150340
864.312	0.0148970
864.390	0.0150772
864.468	0.0152165
864.546	0.0151234
864.624	0.0150733
864.703	0.0150443
864.781	0.0150820
864.859	0.0152274
864.937	0.0149969
865.015	0.0149917
865.093	0.0151745
865.171	0.0151398
865.249	0.0151760
865.328	0.0151778
865.406	0.0150597
865.484	0.0150648
865.562	0.0150717
865.640	0.0152572
865.718	0.0151685
865.796	0.0151312
865.874	0.0150782
865.953	0.0150304
866.031	0.0149984
866.109	0.0151267
866.187	0.0150740
866.265	0.0150970
866.343	0.0151154
866.421	0.0150568
866.499	0.0149681
866.578	0.0149315
866.656	0.0149685
866.734	0.0151300
866.812	0.0150188
866.890	0.0149916
866.968	0.0150153
867.046	0.0150210
867.124	0.0150772
867.203	0.0150364
867.281	0.0150941
867.359	0.0150974
867.437	0.0153130
867.515	0.0152016
867.593	0.0150784
867.671	0.0151656
867.749	0.0150837
867.828	0.0150926
867.906	0.0151120
867.984	0.0151302
868.062	0.0151550
868.140	0.0150436
868.218	0.0150245
868.296	0.0151211
868.374	0.0149970
868.453	0.0149692
868.531	0.0151453
868.609	0.0150070
868.687	0.0150972
868.765	0.0152264
868.843	0.0150374
868.921	0.0150179
868.999	0.0150393
869.078	0.0150589
869.156	0.0150098
869.234	0.0151490
869.312	0.0151189
869.390	0.0150956
869.468	0.0149734
869.546	0.0150335
869.624	0.0150196
869.703	0.0149877
869.781	0.0148780
869.859	0.0149730
869.937	0.0150200
870.015	0.0148894
870.093	0.0149268
870.171	0.0149824
870.249	0.0149033
870.328	0.0148565
870.406	0.0148776
870.484	0.0150526
870.562	0.0149435
870.640	0.0149145
870.718	0.0149345
870.796	0.0149052
870.874	0.0148808
870.953	0.0148678
871.031	0.0148159
871.109	0.0148540
871.187	0.0148680
871.265	0.0146893
871.343	0.0146937
871.421	0.0147495
871.499	0.0147822
871.578	0.0148348
871.656	0.0149022
871.734	0.0148029
871.812	0.0147746
871.890	0.0148132
871.968	0.0147881
872.046	0.0148455
872.124	0.0147980
872.203	0.0148027
872.281	0.0148415
872.359	0.0150211
872.437	0.0148489
872.515	0.0151722
872.593	0.0148096
872.671	0.0147682
872.749	0.0149166
872.828	0.0148483
872.906	0.0149189
872.984	0.0149194
873.062	0.0148992
873.140	0.0149226
873.218	0.0150603
873.296	0.0150047
873.374	0.0148958
873.453	0.0149349
873.531	0.0149586
873.609	0.0149132
873.687	0.0151154
873.765	0.0149795
873.843	0.0149453
873.921	0.0150838
873.999	0.0150247
874.078	0.0149680
874.156	0.0147820
874.234	0.0149831
874.312	0.0150444
874.390	0.0148582
874.468	0.0149880
874.546	0.0151036
874.624	0.0150330
874.703	0.0149484
874.781	0.0149508
874.859	0.0150281
874.937	0.0151015
875.015	0.0150320
875.093	0.0150574
875.171	0.0150443
875.249	0.0150274
875.328	0.0150848
875.406	0.0150273
875.484	0.0150757
875.562	0.0149513
875.640	0.0151005
875.718	0.0149877
875.796	0.0149270
875.874	0.0148927
875.953	0.0150033
876.031	0.0148525
876.109	0.0148765
876.187	0.0149736
876.265	0.0149319
876.343	0.0148513
876.421	0.0149822
876.499	0.0151267
876.578	0.0150463
876.656	0.0149173
876.734	0.0149291
876.812	0.0150543
876.890	0.0149385
876.968	0.0151429
877.046	0.0150956
877.124	0.0150497
877.203	0.0150285
877.281	0.0150684
877.359	0.0151463
877.437	0.0150590
877.515	0.0150846
877.593	0.0150996
877.671	0.0148940
877.749	0.0149413
877.828	0.0148598
877.906	0.0151020
877.984	0.0149992
878.062	0.0149918
878.140	0.0148905
878.218	0.0148798
878.296	0.0150103
878.374	0.0148923
878.453	0.0149165
878.531	0.0150356
878.609	0.0148013
878.687	0.0147717
878.765	0.0148042
878.843	0.0148840
878.921	0.0147671
878.999	0.0148209
879.078	0.0147742
879.156	0.0147905
879.234	0.0149130
879.312	0.0149269
879.390	0.0149357
879.468	0.0149244
879.546	0.0147432
879.624	0.0148217
879.703	0.0149295
879.781	0.0148244
879.859	0.0148729
879.937	0.0148698
880.015	0.0148962
880.093	0.0148411
880.171	0.0148434
880.249	0.0148174
880.328	0.0149938
880.406	0.0149789
880.484	0.0149809
880.562	0.0148907
880.640	0.0149743
880.718	0.0149660
880.796	0.0148982
880.874	0.0149004
880.953	0.0149232
881.031	0.0148648
881.109	0.0149556
881.187	0.0150114
881.265	0.0150488
881.343	0.0150070
881.421	0.0150001
881.499	0.0151902
881.578	0.0150375
881.656	0.0150048
881.734	0.0149850
881.812	0.0151062
881.890	0.0150339
881.968	0.0150064
882.046	0.0151199
882.124	0.0151482
882.203	0.0149536
882.281	0.0149261
882.359	0.0150385
882.437	0.0150578
882.515	0.0149174
882.593	0.0149796
882.671	0.0150113
882.749	0.0148672
882.828	0.0149702
882.906	0.0149961
882.984	0.0149748
883.062	0.0150028
883.140	0.0149425
883.218	0.0149618
883.296	0.0149725
883.374	0.0149509
883.453	0.0148907
883.531	0.0149557
883.609	0.0148495
883.687	0.0149797
883.765	0.0149522
883.843	0.0148823
883.921	0.0149605
883.999	0.0149654
884.078	0.0148572
884.156	0.0147268
884.234	0.0149480
884.312	0.0148886
884.390	0.0149566
884.468	0.0149422
884.546	0.0148420
884.624	0.0148269
884.703	0.0147843
884.781	0.0149897
884.859	0.0150532
884.937	0.0149742
885.015	0.0149187
885.093	0.0149373
885.171	0.0150027
885.249	0.0150707
885.328	0.0149622
885.406	0.0150370
885.484	0.0150771
885.562	0.0150615
885.640	0.0149213
885.718	0.0148484
885.796	0.0150211
885.874	0.0151284
885.953	0.0149461
886.031	0.0149767
886.109	0.0150732
886.187	0.0149257
886.265	0.0149517
886.343	0.0149639
886.421	0.0150854
886.499	0.0149087
886.578	0.0148248
886.656	0.0149561
886.734	0.0150057
886.812	0.0149132
886.890	0.0149512
886.968	0.0150611
887.046	0.0149119
887.124	0.0149571
887.203	0.0148165
887.281	0.0149260
887.359	0.0149557
887.437	0.0148523
887.515	0.0147166
887.593	0.0147539
887.671	0.0149117
887.749	0.0148504
887.828	0.0148893
887.906	0.0147758
887.984	0.0148645
888.062	0.0147041
888.140	0.0147877
888.218	0.0149279
888.296	0.0147491
888.374	0.0147594
888.453	0.0149144
888.531	0.0149472
888.609	0.0147663
888.687	0.0148429
888.765	0.0149445
888.843	0.0149075
888.921	0.0148700
888.999	0.0148623
889.078	0.0150501
889.156	0.0149679
889.234	0.0151032
889.312	0.0148657
889.390	0.0149816
889.468	0.0150755
889.546	0.0149481
889.624	0.0148994
889.703	0.0148505
889.781	0.0150309
889.859	0.0149712
889.937	0.0150320
890.015	0.0151657
890.093	0.0150824
890.171	0.0150211
890.249	0.0148386
890.328	0.0149886
890.406	0.0150166
890.484	0.0151395
890.562	0.0151675
890.640	0.0151636
890.718	0.0150433
890.796	0.0149559
890.874	0.0151227
890.953	0.0150222
891.031	0.0151139
891.109	0.0151168
891.187	0.0151244
891.265	0.0151935
891.343	0.0152086
891.421	0.0150455
891.499	0.0150308
891.578	0.0151427
891.656	0.0150085
891.734	0.0152156
891.812	0.0150098
891.890	0.0150780
891.968	0.0150989
892.046	0.0150670
892.124	0.0149952
892.203	0.0150565
892.281	0.0150592
892.359	0.0150636
892.437	0.0150449
892.515	0.0151052
892.593	0.0152023
892.671	0.0152782
892.749	0.0150472
892.828	0.0150131
892.906	0.0150794
892.984	0.0151018
893.062	0.0151954
893.140	0.0150426
893.218	0.0152477
893.296	0.0151057
893.374	0.0150323
893.453	0.0151320
893.531	0.0150681
893.609	0.0151228
893.687	0.0150616
893.765	0.0149990
893.843	0.0150480
893.921	0.0151230
893.999	0.0150043
894.078	0.0151137
894.156	0.0149509
894.234	0.0150874
894.312	0.0150372
894.390	0.0149770
894.468	0.0150101
894.546	0.0150539
894.624	0.0151153
894.703	0.0149393
894.781	0.0149586
894.859	0.0149163
894.937	0.0150345
895.015	0.0149801
895.093	0.0148555
895.171	0.0150867
895.249	0.0150468
895.328	0.0149261
895.406	0.0149656
895.484	0.0149394
895.562	0.0150271
895.640	0.0148728
895.718	0.0149711
895.796	0.0149825
895.874	0.0150243
895.953	0.0150665
896.031	0.0149797
896.109	0.0149212
896.187	0.0148604
896.265	0.0149915
896.343	0.0150804
896.421	0.0150990
896.499	0.0149668
896.578	0.0149345
896.656	0.0150140
896.734	0.0149270
896.812	0.0149216
896.890	0.0149708
896.968	0.0148103
897.046	0.0150237
897.124	0.0149670
897.203	0.0150580
897.281	0.0148722
897.359	0.0148509
897.437	0.0148356
897.515	0.0150228
897.593	0.0149727
897.671	0.0149291
897.749	0.0148318
897.828	0.0149313
897.906	0.0149107
897.984	0.0149085
898.062	0.0149545
898.140	0.0148457
898.218	0.0147948
898.296	0.0149784
898.374	0.0148878
898.453	0.0148386
898.531	0.0149222
898.609	0.0149715
898.687	0.0149960
898.765	0.0149405
898.843	0.0148914
898.921	0.0149876
898.999	0.0149975
899.078	0.0148537
899.156	0.0149951
899.234	0.0148666
899.312	0.0150218
899.390	0.0148751
899.468	0.0148568
899.546	0.0150141
899.624	0.0149671
899.703	0.0149316
899.781	0.0149116
899.859	0.0150570
899.937	0.0150182
900.015	0.0149226
900.093	0.0149781
900.171	0.0150381
900.249	0.0150256
900.328	0.0148775
900.406	0.0151901
900.484	0.0151821
900.562	0.0150028
900.640	0.0150690
900.718	0.0150832
900.796	0.0149161
900.874	0.0150263
900.953	0.0149663
901.031	0.0149948
901.109	0.0150524
901.187	0.0149384
901.265	0.0149991
901.343	0.0148671
901.421	0.0148601
901.499	0.0149442
901.578	0.0150168
901.656	0.0150143
901.734	0.0149841
901.812	0.0148637
901.890	0.0150774
901.968	0.0149802
902.046	0.0147643
902.124	0.0149194
902.203	0.0149869
902.281	0.0149549
902.359	0.0149287
902.437	0.0149635
902.515	0.0150853
902.593	0.0149966
902.671	0.0149781
902.749	0.0149724
902.828	0.0150638
902.906	0.0149883
902.984	0.0149416
903.062	0.0149783
903.140	0.0150424
903.218	0.0148755
903.296	0.0150258
903.374	0.0150887
903.453	0.0149982
903.531	0.0151221
903.609	0.0148962
903.687	0.0149469
903.765	0.0150170
903.843	0.0151925
903.921	0.0150291
903.999	0.0149667
904.078	0.0150952
904.156	0.0149796
904.234	0.0149726
904.312	0.0149052
904.390	0.0149692
904.468	0.0150604
904.546	0.0149204
904.624	0.0151258
904.703	0.0150806
904.781	0.0150667
904.859	0.0150983
904.937	0.0149978
905.015	0.0150414
905.093	0.0150273
905.171	0.0152074
905.249	0.0149267
905.328	0.0149599
905.406	0.0150078
905.484	0.0150455
905.562	0.0149261
905.640	0.0150253
905.718	0.0150568
905.796	0.0151427
905.874	0.0150865
905.953	0.0150479
906.031	0.0149654
906.109	0.0150633
906.187	0.0150096
906.265	0.0149107
906.343	0.0149718
906.421	0.0149029
906.499	0.0149231
906.578	0.0149233
906.656	0.0149754
906.734	0.0149120
906.812	0.0148751
906.890	0.0149323
906.968	0.0148862
907.046	0.0148713
907.124	0.0148803
907.203	0.0148830
907.281	0.0149111
907.359	0.0148458
907.437	0.0150085
907.515	0.0149316
907.593	0.0149162
907.671	0.0150759
907.749	0.0150340
907.828	0.0150148
907.906	0.0149828
907.984	0.0149919
908.062	0.0150306
908.140	0.0150539
908.218	0.0151254
908.296	0.0149675
908.374	0.0150422
908.453	0.0150320
908.531	0.0150568
908.609	0.0150237
908.687	0.0151511
908.765	0.0150194
908.843	0.0151178
908.921	0.0150008
908.999	0.0149889
909.078	0.0151140
909.156	0.0150197
909.234	0.0151048
909.312	0.0150372
909.390	0.0149273
909.468	0.0150760
909.546	0.0150999
909.624	0.0150109
909.703	0.0149858
909.781	0.0148416
909.859	0.0148113
909.937	0.0148937
910.015	0.0151017
910.093	0.0149308
910.171	0.0149740
910.249	0.0148003
910.328	0.0147671
910.406	0.0146706
910.484	0.0149318
910.562	0.0149588
910.640	0.0146725
910.718	0.0148431
910.796	0.0148652
910.874	0.0147543
910.953	0.0146039
911.031	0.0146119
911.109	0.0148397
911.187	0.0147996
911.265	0.0147329
911.343	0.0148217
911.421	0.0147711
911.499	0.0148740
911.578	0.0147565
911.656	0.0147152
911.734	0.0147525
911.812	0.0148161
911.890	0.0149724
911.968	0.0148241
912.046	0.0150245
912.124	0.0148164
912.203	0.0148856
912.281	0.0150141
912.359	0.0148409
912.437	0.0149327
912.515	0.0149962
912.593	0.0148937
912.671	0.0148784
912.749	0.0149200
912.828	0.0149984
912.906	0.0149053
912.984	0.0149338
913.062	0.0148716
913.140	0.0148980
913.218	0.0148045
913.296	0.0149874
913.374	0.0149014
913.453	0.0149671
913.531	0.0149524
913.609	0.0149067
913.687	0.0148422
913.765	0.0148692
913.843	0.0149067
913.921	0.0148545
913.999	0.0149064
914.078	0.0149059
914.156	0.0149046
914.234	0.0148766
914.312	0.0148383
914.390	0.0149003
914.468	0.0148869
914.546	0.0149623
914.624	0.0149799
914.703	0.0149119
914.781	0.0149190
914.859	0.0149762
914.937	0.0151010
915.015	0.0148609
915.093	0.0148281
915.171	0.0150745
915.249	0.0151055
915.328	0.0150085
915.406	0.0149358
915.484	0.0149555
915.562	0.0151071
915.640	0.0151607
915.718	0.0151087
915.796	0.0152248
915.874	0.0152129
915.953	0.0151589
916.031	0.0150681
916.109	0.0151582
916.187	0.0149460
916.265	0.0150774
916.343	0.0151202
916.421	0.0151128
916.499	0.0150492
916.578	0.0150788
916.656	0.0150191
916.734	0.0151819
916.812	0.0151981
916.890	0.0151205
916.968	0.0150931
917.046	0.0150336
917.124	0.0151018
917.203	0.0151404
917.281	0.0149886
917.359	0.0150077
917.437	0.0151590
917.515	0.0151686
917.593	0.0150226
917.671	0.0150449
917.749	0.0152425
917.828	0.0151968
917.906	0.0150294
917.984	0.0150700
918.062	0.0151971
918.140	0.0151215
918.218	0.0149905
918.296	0.0151317
918.374	0.0150745
918.453	0.0153276
918.531	0.0149648
918.609	0.0150450
918.687	0.0149908
918.765	0.0150437
918.843	0.0151201
918.921	0.0150162
918.999	0.0150324
919.078	0.0151040
919.156	0.0150226
919.234	0.0149570
919.312	0.0150306
919.390	0.0151244
919.468	0.0150301
919.546	0.0149940
919.624	0.0150797
919.703	0.0149609
919.781	0.0150368
919.859	0.0151389
919.937	0.0150115
