05/06/2022	19:34:46	Ver.	4.1	UNKNOWN
Optical Delay	600.015094	Delta X		0.078125	Sweeps	1	Scan Rate	0/0
Coordinates	Axis 1	NaN	Axis 2	NaN	Axis 3	NaN	Axis 4	NaN	Axis 5	NaN	Axis 6	0.000000
TX Power	0.000000	RX Power	0.000000

600.015	0.0149773
600.093	0.0149484
600.171	0.0148090
600.249	0.0149209
600.328	0.0149404
600.406	0.0147602
600.484	0.0147948
600.562	0.0149013
600.640	0.0148645
600.718	0.0149278
600.796	0.0148712
600.874	0.0148815
600.953	0.0148911
601.031	0.0149464
601.109	0.0147993
601.187	0.0148598
601.265	0.0147607
601.343	0.0148254
601.421	0.0149136
601.499	0.0148610
601.578	0.0149971
601.656	0.0148352
601.734	0.0148580
601.812	0.0148598
601.890	0.0148035
601.968	0.0148972
602.046	0.0149799
602.124	0.0148368
602.203	0.0149683
602.281	0.0149453
602.359	0.0147733
602.437	0.0149217
602.515	0.0148923
602.593	0.0148221
602.671	0.0149432
602.749	0.0150227
602.828	0.0149267
602.906	0.0150307
602.984	0.0148955
603.062	0.0149261
603.140	0.0148708
603.218	0.0150421
603.296	0.0150002
603.374	0.0149478
603.453	0.0149154
603.531	0.0151167
603.609	0.0149268
603.687	0.0149402
603.765	0.0149296
603.843	0.0149884
603.921	0.0149602
603.999	0.0149097
604.078	0.0150183
604.156	0.0149512
604.234	0.0147879
604.312	0.0148405
604.390	0.0147991
604.468	0.0147737
604.546	0.0148308
604.624	0.0148028
604.703	0.0149039
604.781	0.0148244
604.859	0.0148926
604.937	0.0148528
605.015	0.0148618
605.093	0.0150262
605.171	0.0148750
605.249	0.0148672
605.328	0.0150174
605.406	0.0150536
605.484	0.0150678
605.562	0.0150410
605.640	0.0149976
605.718	0.0149854
605.796	0.0149884
605.874	0.0152544
605.953	0.0151314
606.031	0.0151298
606.109	0.0152411
606.187	0.0152482
606.265	0.0151462
606.343	0.0151557
606.421	0.0150515
606.499	0.0151316
606.578	0.0150885
606.656	0.0149733
606.734	0.0149244
606.812	0.0149975
606.890	0.0149080
606.968	0.0150512
607.046	0.0148781
607.124	0.0148016
607.203	0.0148891
607.281	0.0147822
607.359	0.0148580
607.437	0.0149455
607.515	0.0149893
607.593	0.0148183
607.671	0.0148152
607.749	0.0148836
607.828	0.0148215
607.906	0.0148634
607.984	0.0148675
608.062	0.0149594
608.140	0.0149450
608.218	0.0148801
608.296	0.0149207
608.374	0.0149671
608.453	0.0149857
608.531	0.0150115
608.609	0.0148846
608.687	0.0149614
608.765	0.0149668
608.843	0.0150682
608.921	0.0150008
608.999	0.0150794
609.078	0.0151006
609.156	0.0151076
609.234	0.0151336
609.312	0.0151740
609.390	0.0151601
609.468	0.0151418
609.546	0.0154150
609.624	0.0152636
609.703	0.0152208
609.781	0.0151979
609.859	0.0152338
609.937	0.0152072
610.015	0.0151177
610.093	0.0150004
610.171	0.0150079
610.249	0.0149113
610.328	0.0149302
610.406	0.0148964
610.484	0.0148090
610.562	0.0147961
610.640	0.0147904
610.718	0.0148237
610.796	0.0148388
610.874	0.0147720
610.953	0.0148444
611.031	0.0148911
611.109	0.0147139
611.187	0.0148365
611.265	0.0148968
611.343	0.0148780
611.421	0.0149672
611.499	0.0151195
611.578	0.0151270
611.656	0.0151237
611.734	0.0151524
611.812	0.0151898
611.890	0.0151010
611.968	0.0152497
612.046	0.0152213
612.124	0.0152566
612.203	0.0151229
612.281	0.0153273
612.359	0.0153439
612.437	0.0151874
612.515	0.0151357
612.593	0.0151438
612.671	0.0151414
612.749	0.0150769
612.828	0.0151403
612.906	0.0150760
612.984	0.0151874
613.062	0.0152335
613.140	0.0151086
613.218	0.0151139
613.296	0.0150266
613.374	0.0149950
613.453	0.0151003
613.531	0.0151748
613.609	0.0150547
613.687	0.0150222
613.765	0.0150665
613.843	0.0150618
613.921	0.0151163
613.999	0.0149565
614.078	0.0150018
614.156	0.0149897
614.234	0.0150976
614.312	0.0151071
614.390	0.0148239
614.468	0.0149830
614.546	0.0148875
614.624	0.0149870
614.703	0.0150457
614.781	0.0150194
614.859	0.0151204
614.937	0.0152330
615.015	0.0150917
615.093	0.0150510
615.171	0.0150964
615.249	0.0151868
615.328	0.0152551
615.406	0.0151356
615.484	0.0152338
615.562	0.0151214
615.640	0.0151780
615.718	0.0151846
615.796	0.0150597
615.874	0.0150877
615.953	0.0150735
616.031	0.0149622
616.109	0.0149429
616.187	0.0149947
616.265	0.0148979
616.343	0.0150365
616.421	0.0149649
616.499	0.0149493
616.578	0.0148765
616.656	0.0149957
616.734	0.0149145
616.812	0.0149478
616.890	0.0149118
616.968	0.0149530
617.046	0.0149373
617.124	0.0149619
617.203	0.0150515
617.281	0.0150096
617.359	0.0150345
617.437	0.0151558
617.515	0.0152203
617.593	0.0151951
617.671	0.0151137
617.749	0.0150728
617.828	0.0150432
617.906	0.0150172
617.984	0.0151315
618.062	0.0150223
618.140	0.0151097
618.218	0.0151781
618.296	0.0150294
618.374	0.0152165
618.453	0.0151732
618.531	0.0151968
618.609	0.0151108
618.687	0.0150593
618.765	0.0151332
618.843	0.0151268
618.921	0.0151789
618.999	0.0152274
619.078	0.0149818
619.156	0.0151236
619.234	0.0151901
619.312	0.0150403
619.390	0.0151010
619.468	0.0150477
619.546	0.0149725
619.624	0.0150175
619.703	0.0149340
619.781	0.0149593
619.859	0.0149712
619.937	0.0149291
620.015	0.0147566
620.093	0.0149023
620.171	0.0148673
620.249	0.0148782
620.328	0.0148007
620.406	0.0149690
620.484	0.0148615
620.562	0.0149550
620.640	0.0149936
620.718	0.0149698
620.796	0.0150893
620.874	0.0150275
620.953	0.0152248
621.031	0.0150224
621.109	0.0150723
621.187	0.0150594
621.265	0.0151379
621.343	0.0150516
621.421	0.0151254
621.499	0.0150111
621.578	0.0150404
621.656	0.0151015
621.734	0.0150777
621.812	0.0150329
621.890	0.0151400
621.968	0.0151690
622.046	0.0151617
622.124	0.0152298
622.203	0.0150518
622.281	0.0150761
622.359	0.0152309
622.437	0.0152377
622.515	0.0150386
622.593	0.0152177
622.671	0.0152205
622.749	0.0151662
622.828	0.0149039
622.906	0.0149811
622.984	0.0151358
623.062	0.0150060
623.140	0.0148550
623.218	0.0147701
623.296	0.0148481
623.374	0.0147607
623.453	0.0148890
623.531	0.0147919
623.609	0.0147801
623.687	0.0148569
623.765	0.0150513
623.843	0.0148910
623.921	0.0148990
623.999	0.0150146
624.078	0.0149614
624.156	0.0151765
624.234	0.0151833
624.312	0.0152419
624.390	0.0152864
624.468	0.0153120
624.546	0.0153337
624.624	0.0152428
624.703	0.0152618
624.781	0.0151788
624.859	0.0152798
624.937	0.0152578
625.015	0.0150819
625.093	0.0151839
625.171	0.0152849
625.249	0.0150242
625.328	0.0149255
625.406	0.0148582
625.484	0.0149744
625.562	0.0147736
625.640	0.0148135
625.718	0.0146910
625.796	0.0145959
625.874	0.0144925
625.953	0.0144698
626.031	0.0145432
626.109	0.0143390
626.187	0.0144958
626.265	0.0144681
626.343	0.0144925
626.421	0.0145840
626.499	0.0145320
626.578	0.0146185
626.656	0.0147007
626.734	0.0147854
626.812	0.0147672
626.890	0.0149252
626.968	0.0150526
627.046	0.0149728
627.124	0.0150532
627.203	0.0150137
627.281	0.0151194
627.359	0.0152818
627.437	0.0151595
627.515	0.0153900
627.593	0.0154776
627.671	0.0154241
627.749	0.0156145
627.828	0.0153206
627.906	0.0153162
627.984	0.0152529
628.062	0.0153046
628.140	0.0153378
628.218	0.0152124
628.296	0.0151101
628.374	0.0151400
628.453	0.0150776
628.531	0.0150735
628.609	0.0150087
628.687	0.0148493
628.765	0.0148310
628.843	0.0147611
628.921	0.0148384
628.999	0.0146281
629.078	0.0145904
629.156	0.0147181
629.234	0.0146735
629.312	0.0145322
629.390	0.0145177
629.468	0.0144212
629.546	0.0144451
629.624	0.0144048
629.703	0.0143487
629.781	0.0144638
629.859	0.0143615
629.937	0.0144197
630.015	0.0144175
630.093	0.0146052
630.171	0.0147079
630.249	0.0146742
630.328	0.0148092
630.406	0.0148470
630.484	0.0148954
630.562	0.0148907
630.640	0.0148630
630.718	0.0151323
630.796	0.0148648
630.874	0.0149936
630.953	0.0150348
631.031	0.0149194
631.109	0.0149564
631.187	0.0150219
631.265	0.0150662
631.343	0.0151614
631.421	0.0148322
631.499	0.0149453
631.578	0.0152888
631.656	0.0151554
631.734	0.0151841
631.812	0.0152346
631.890	0.0152440
631.968	0.0153186
632.046	0.0151727
632.124	0.0152537
632.203	0.0152663
632.281	0.0153886
632.359	0.0154353
632.437	0.0154552
632.515	0.0153895
632.593	0.0153352
632.671	0.0154837
632.749	0.0153912
632.828	0.0152699
632.906	0.0152724
632.984	0.0152148
633.062	0.0151517
633.140	0.0152148
633.218	0.0150710
633.296	0.0150744
633.374	0.0151384
633.453	0.0148718
633.531	0.0149002
633.609	0.0147844
633.687	0.0146659
633.765	0.0147508
633.843	0.0146133
633.921	0.0144936
633.999	0.0144595
634.078	0.0144811
634.156	0.0144429
634.234	0.0144222
634.312	0.0143333
634.390	0.0143011
634.468	0.0143117
634.546	0.0143983
634.624	0.0144123
634.703	0.0144066
634.781	0.0145652
634.859	0.0146885
634.937	0.0146426
635.015	0.0148986
635.093	0.0149172
635.171	0.0149232
635.249	0.0151247
635.328	0.0153516
635.406	0.0153324
635.484	0.0153085
635.562	0.0154099
635.640	0.0154459
635.718	0.0155003
635.796	0.0156055
635.874	0.0156541
635.953	0.0155882
636.031	0.0154039
636.109	0.0155471
636.187	0.0156158
636.265	0.0155921
636.343	0.0154164
636.421	0.0154961
636.499	0.0154730
636.578	0.0154830
636.656	0.0152589
636.734	0.0153920
636.812	0.0153471
636.890	0.0153192
636.968	0.0152071
637.046	0.0151667
637.124	0.0151830
637.203	0.0151427
637.281	0.0150140
637.359	0.0148282
637.437	0.0149318
637.515	0.0148671
637.593	0.0149456
637.671	0.0147568
637.749	0.0147295
637.828	0.0147466
637.906	0.0147578
637.984	0.0147249
638.062	0.0146978
638.140	0.0148045
638.218	0.0146890
638.296	0.0147856
638.374	0.0146395
638.453	0.0147607
638.531	0.0147259
638.609	0.0147496
638.687	0.0147829
638.765	0.0147501
638.843	0.0147205
638.921	0.0147510
638.999	0.0147906
639.078	0.0148539
639.156	0.0150436
639.234	0.0149889
639.312	0.0150310
639.390	0.0150163
639.468	0.0151595
639.546	0.0150972
639.624	0.0152026
639.703	0.0153450
639.781	0.0153294
639.859	0.0155019
639.937	0.0153907
640.015	0.0154301
640.093	0.0154110
640.171	0.0153924
640.249	0.0153777
640.328	0.0153715
640.406	0.0153928
640.484	0.0154369
640.562	0.0155540
640.640	0.0154694
640.718	0.0154436
640.796	0.0154096
640.874	0.0153836
640.953	0.0154221
641.031	0.0152674
641.109	0.0154028
641.187	0.0153983
641.265	0.0153297
641.343	0.0151498
641.421	0.0152567
641.499	0.0152763
641.578	0.0153799
641.656	0.0152512
641.734	0.0150190
641.812	0.0148665
641.890	0.0148690
641.968	0.0150676
642.046	0.0148747
642.124	0.0147507
642.203	0.0147814
642.281	0.0146157
642.359	0.0147002
642.437	0.0146132
642.515	0.0146739
642.593	0.0145792
642.671	0.0145613
642.749	0.0145342
642.828	0.0146544
642.906	0.0146461
642.984	0.0145018
643.062	0.0145902
643.140	0.0146488
643.218	0.0148618
643.296	0.0148421
643.374	0.0148391
643.453	0.0149268
643.531	0.0149660
643.609	0.0149477
643.687	0.0151128
643.765	0.0149345
643.843	0.0152058
643.921	0.0151781
643.999	0.0151929
644.078	0.0152803
644.156	0.0153755
644.234	0.0152746
644.312	0.0153582
644.390	0.0155022
644.468	0.0151386
644.546	0.0153795
644.624	0.0155911
644.703	0.0155327
644.781	0.0154893
644.859	0.0154023
644.937	0.0153165
645.015	0.0153433
645.093	0.0152210
645.171	0.0152443
645.249	0.0151667
645.328	0.0150306
645.406	0.0152487
645.484	0.0151261
645.562	0.0150919
645.640	0.0151379
645.718	0.0150509
645.796	0.0149459
645.874	0.0150131
645.953	0.0149830
646.031	0.0151165
646.109	0.0150668
646.187	0.0150759
646.265	0.0151372
646.343	0.0152171
646.421	0.0150733
646.499	0.0151232
646.578	0.0152443
646.656	0.0151791
646.734	0.0152576
646.812	0.0152779
646.890	0.0152008
646.968	0.0151755
647.046	0.0151617
647.124	0.0149092
647.203	0.0150045
647.281	0.0148780
647.359	0.0147527
647.437	0.0147325
647.515	0.0147130
647.593	0.0148197
647.671	0.0145441
647.749	0.0144713
647.828	0.0145022
647.906	0.0144794
647.984	0.0144277
648.062	0.0144974
648.140	0.0145034
648.218	0.0146889
648.296	0.0147187
648.374	0.0147354
648.453	0.0147341
648.531	0.0150271
648.609	0.0151169
648.687	0.0149960
648.765	0.0151817
648.843	0.0153032
648.921	0.0152462
648.999	0.0152859
649.078	0.0152840
649.156	0.0152165
649.234	0.0153763
649.312	0.0154183
649.390	0.0154575
649.468	0.0152998
649.546	0.0154447
649.624	0.0154521
649.703	0.0152129
649.781	0.0152875
649.859	0.0153797
649.937	0.0153505
650.015	0.0152168
650.093	0.0152593
650.171	0.0151554
650.249	0.0151202
650.328	0.0152316
650.406	0.0150694
650.484	0.0151638
650.562	0.0150384
650.640	0.0149081
650.718	0.0151917
650.796	0.0149381
650.874	0.0151022
650.953	0.0150668
651.031	0.0149143
651.109	0.0151372
651.187	0.0150646
651.265	0.0149864
651.343	0.0150249
651.421	0.0151661
651.499	0.0151012
651.578	0.0149909
651.656	0.0150086
651.734	0.0150730
651.812	0.0151051
651.890	0.0150657
651.968	0.0148193
652.046	0.0148872
652.124	0.0148002
652.203	0.0148889
652.281	0.0149300
652.359	0.0145992
652.437	0.0144902
652.515	0.0146717
652.593	0.0145215
652.671	0.0146049
652.749	0.0146198
652.828	0.0145520
652.906	0.0144437
652.984	0.0143793
653.062	0.0144165
653.140	0.0144796
653.218	0.0145339
653.296	0.0146635
653.374	0.0147344
653.453	0.0146436
653.531	0.0147277
653.609	0.0147514
653.687	0.0148952
653.765	0.0149830
653.843	0.0151158
653.921	0.0151929
653.999	0.0152802
654.078	0.0151912
654.156	0.0154270
654.234	0.0153033
654.312	0.0154360
654.390	0.0154900
654.468	0.0153177
654.546	0.0155717
654.624	0.0153061
654.703	0.0152261
654.781	0.0154755
654.859	0.0153754
654.937	0.0153867
655.015	0.0152081
655.093	0.0151337
655.171	0.0152188
655.249	0.0151449
655.328	0.0151862
655.406	0.0151740
655.484	0.0151233
655.562	0.0150004
655.640	0.0150317
655.718	0.0151038
655.796	0.0150677
655.874	0.0148576
655.953	0.0150194
656.031	0.0150927
656.109	0.0149352
656.187	0.0149709
656.265	0.0150008
656.343	0.0149562
656.421	0.0148369
656.499	0.0149708
656.578	0.0149734
656.656	0.0148325
656.734	0.0148682
656.812	0.0147382
656.890	0.0146567
656.968	0.0145082
657.046	0.0145762
657.124	0.0144664
657.203	0.0144450
657.281	0.0146535
657.359	0.0145940
657.437	0.0144415
657.515	0.0144548
657.593	0.0144049
657.671	0.0144927
657.749	0.0145738
657.828	0.0145087
657.906	0.0146184
657.984	0.0146763
658.062	0.0147325
658.140	0.0148051
658.218	0.0149080
658.296	0.0148940
658.374	0.0151061
658.453	0.0150675
658.531	0.0150832
658.609	0.0151764
658.687	0.0153093
658.765	0.0153363
658.843	0.0152882
658.921	0.0154120
658.999	0.0154159
659.078	0.0153062
659.156	0.0154343
659.234	0.0154649
659.312	0.0153768
659.390	0.0152422
659.468	0.0153185
659.546	0.0153267
659.624	0.0152918
659.703	0.0152151
659.781	0.0151428
659.859	0.0152767
659.937	0.0151763
660.015	0.0151855
660.093	0.0150553
660.171	0.0151306
660.249	0.0151185
660.328	0.0149978
660.406	0.0151003
660.484	0.0151019
660.562	0.0148840
660.640	0.0148861
660.718	0.0150168
660.796	0.0149062
660.874	0.0148684
660.953	0.0148568
661.031	0.0149553
661.109	0.0150024
661.187	0.0150616
661.265	0.0148273
661.343	0.0147336
661.421	0.0148670
661.499	0.0148829
661.578	0.0147733
661.656	0.0148866
661.734	0.0149106
661.812	0.0148415
661.890	0.0147964
661.968	0.0149556
662.046	0.0149139
662.124	0.0149007
662.203	0.0149043
662.281	0.0149665
662.359	0.0149377
662.437	0.0149630
662.515	0.0151205
662.593	0.0150868
662.671	0.0149655
662.749	0.0150803
662.828	0.0151483
662.906	0.0150568
662.984	0.0151354
663.062	0.0151986
663.140	0.0150793
663.218	0.0150388
663.296	0.0152213
663.374	0.0151689
663.453	0.0150832
663.531	0.0152862
663.609	0.0151414
663.687	0.0150674
663.765	0.0151849
663.843	0.0151501
663.921	0.0151177
663.999	0.0152548
664.078	0.0151548
664.156	0.0152325
664.234	0.0152368
664.312	0.0153201
664.390	0.0153141
664.468	0.0153056
664.546	0.0152847
664.624	0.0153125
664.703	0.0152985
664.781	0.0153098
664.859	0.0152717
664.937	0.0151828
665.015	0.0153107
665.093	0.0151883
665.171	0.0151443
665.249	0.0153024
665.328	0.0151978
665.406	0.0150613
665.484	0.0150897
665.562	0.0150793
665.640	0.0149860
665.718	0.0149998
665.796	0.0149741
665.874	0.0149528
665.953	0.0150117
666.031	0.0149812
666.109	0.0149198
666.187	0.0148335
666.265	0.0149156
666.343	0.0148572
666.421	0.0149429
666.499	0.0148177
666.578	0.0148957
666.656	0.0150296
666.734	0.0149541
666.812	0.0149168
666.890	0.0148931
666.968	0.0149168
667.046	0.0149516
667.124	0.0150085
667.203	0.0149918
667.281	0.0147829
667.359	0.0149451
667.437	0.0149775
667.515	0.0148895
667.593	0.0149886
667.671	0.0150469
667.749	0.0149696
667.828	0.0152045
667.906	0.0151499
667.984	0.0150784
668.062	0.0151266
668.140	0.0150604
668.218	0.0151219
668.296	0.0153253
668.374	0.0150124
668.453	0.0151958
668.531	0.0152381
668.609	0.0151994
668.687	0.0151479
668.765	0.0149423
668.843	0.0151384
668.921	0.0151677
668.999	0.0151224
669.078	0.0150580
669.156	0.0151090
669.234	0.0151964
669.312	0.0150803
669.390	0.0151353
669.468	0.0152902
669.546	0.0150378
669.624	0.0150868
669.703	0.0151836
669.781	0.0152792
669.859	0.0151999
669.937	0.0151598
670.015	0.0152470
670.093	0.0151653
670.171	0.0151839
670.249	0.0150417
670.328	0.0151103
670.406	0.0151205
670.484	0.0150513
670.562	0.0149191
670.640	0.0150072
670.718	0.0148332
670.796	0.0147999
670.874	0.0147525
670.953	0.0148360
671.031	0.0146479
671.109	0.0145846
671.187	0.0145897
671.265	0.0144289
671.343	0.0144347
671.421	0.0145529
671.499	0.0144884
671.578	0.0146542
671.656	0.0145546
671.734	0.0146230
671.812	0.0147199
671.890	0.0147607
671.968	0.0149005
672.046	0.0147715
672.124	0.0148363
672.203	0.0148880
672.281	0.0151085
672.359	0.0151018
672.437	0.0150977
672.515	0.0150283
672.593	0.0151127
672.671	0.0152284
672.749	0.0150682
672.828	0.0154180
672.906	0.0153206
672.984	0.0152778
673.062	0.0151093
673.140	0.0150134
673.218	0.0151711
673.296	0.0150932
673.374	0.0149818
673.453	0.0148609
673.531	0.0149353
673.609	0.0150289
673.687	0.0150537
673.765	0.0148608
673.843	0.0149624
673.921	0.0150588
673.999	0.0148792
674.078	0.0149513
674.156	0.0150657
674.234	0.0149498
674.312	0.0149937
674.390	0.0150766
674.468	0.0148379
674.546	0.0149635
674.624	0.0149518
674.703	0.0149360
674.781	0.0148788
674.859	0.0148901
674.937	0.0148420
675.015	0.0150035
675.093	0.0149837
675.171	0.0146758
675.249	0.0147350
675.328	0.0146568
675.406	0.0146367
675.484	0.0146840
675.562	0.0146627
675.640	0.0146182
675.718	0.0145390
675.796	0.0144680
675.874	0.0146622
675.953	0.0146323
676.031	0.0146046
676.109	0.0146545
676.187	0.0146549
676.265	0.0146972
676.343	0.0147102
676.421	0.0144978
676.499	0.0146004
676.578	0.0146883
676.656	0.0146413
676.734	0.0145787
676.812	0.0146014
676.890	0.0146912
676.968	0.0147095
677.046	0.0148631
677.124	0.0149373
677.203	0.0148153
677.281	0.0149291
677.359	0.0150262
677.437	0.0150216
677.515	0.0151211
677.593	0.0151809
677.671	0.0151609
677.749	0.0151797
677.828	0.0151597
677.906	0.0153528
677.984	0.0150890
678.062	0.0151717
678.140	0.0151453
678.218	0.0151954
678.296	0.0151753
678.374	0.0152763
678.453	0.0151712
678.531	0.0150791
678.609	0.0150631
678.687	0.0150578
678.765	0.0149922
678.843	0.0151836
678.921	0.0150775
678.999	0.0148947
679.078	0.0150037
679.156	0.0149284
679.234	0.0148556
679.312	0.0150060
679.390	0.0148064
679.468	0.0148795
679.546	0.0148354
679.624	0.0149043
679.703	0.0148167
679.781	0.0147877
679.859	0.0146588
679.937	0.0147280
680.015	0.0148023
680.093	0.0148985
680.171	0.0147576
680.249	0.0148692
680.328	0.0148293
680.406	0.0150203
680.484	0.0149467
680.562	0.0146083
680.640	0.0147963
680.718	0.0147987
680.796	0.0148190
680.874	0.0148272
680.953	0.0147202
681.031	0.0147894
681.109	0.0147618
681.187	0.0149345
681.265	0.0147289
681.343	0.0146813
681.421	0.0146523
681.499	0.0147849
681.578	0.0147343
681.656	0.0148068
681.734	0.0147346
681.812	0.0147115
681.890	0.0148330
681.968	0.0148686
682.046	0.0147659
682.124	0.0148028
682.203	0.0147339
682.281	0.0148314
682.359	0.0149677
682.437	0.0150023
682.515	0.0148994
682.593	0.0149839
682.671	0.0149527
682.749	0.0150394
682.828	0.0152412
682.906	0.0152117
682.984	0.0151714
683.062	0.0152485
683.140	0.0153018
683.218	0.0152563
683.296	0.0153422
683.374	0.0153491
683.453	0.0152284
683.531	0.0152254
683.609	0.0152778
683.687	0.0153616
683.765	0.0154176
683.843	0.0152347
683.921	0.0152547
683.999	0.0151949
684.078	0.0150555
684.156	0.0151482
684.234	0.0150848
684.312	0.0148791
684.390	0.0149983
684.468	0.0149752
684.546	0.0149856
684.624	0.0148499
684.703	0.0148712
684.781	0.0149150
684.859	0.0149137
684.937	0.0148351
685.015	0.0149413
685.093	0.0149493
685.171	0.0149024
685.249	0.0149189
685.328	0.0149179
685.406	0.0147643
685.484	0.0148470
685.562	0.0147583
685.640	0.0147947
685.718	0.0148186
685.796	0.0146991
685.874	0.0146608
685.953	0.0147729
686.031	0.0147816
686.109	0.0147735
686.187	0.0146230
686.265	0.0147250
686.343	0.0147533
686.421	0.0147259
686.499	0.0149205
686.578	0.0147556
686.656	0.0149493
686.734	0.0149862
686.812	0.0148347
686.890	0.0150576
686.968	0.0152244
687.046	0.0151227
687.124	0.0151450
687.203	0.0151584
687.281	0.0152544
687.359	0.0152626
687.437	0.0152787
687.515	0.0153274
687.593	0.0152416
687.671	0.0152863
687.749	0.0152544
687.828	0.0152241
687.906	0.0150697
687.984	0.0152830
688.062	0.0151925
688.140	0.0150081
688.218	0.0151891
688.296	0.0150944
688.374	0.0151376
688.453	0.0150297
688.531	0.0150833
688.609	0.0150639
688.687	0.0149789
688.765	0.0149892
688.843	0.0149779
688.921	0.0150823
688.999	0.0149174
689.078	0.0150677
689.156	0.0149597
689.234	0.0150733
689.312	0.0150579
689.390	0.0149911
689.468	0.0150793
689.546	0.0150028
689.624	0.0150219
689.703	0.0150475
689.781	0.0150370
689.859	0.0150867
689.937	0.0150761
690.015	0.0147543
690.093	0.0148720
690.171	0.0149947
690.249	0.0148428
690.328	0.0149611
690.406	0.0147617
690.484	0.0148177
690.562	0.0147591
690.640	0.0147699
690.718	0.0147331
690.796	0.0149183
690.874	0.0147736
690.953	0.0146770
691.031	0.0148876
691.109	0.0148160
691.187	0.0148399
691.265	0.0148412
691.343	0.0149607
691.421	0.0150206
691.499	0.0150151
691.578	0.0150069
691.656	0.0150166
691.734	0.0150275
691.812	0.0150806
691.890	0.0149809
691.968	0.0151501
692.046	0.0153011
692.124	0.0151485
692.203	0.0152138
692.281	0.0151176
692.359	0.0151432
692.437	0.0151316
692.515	0.0153257
692.593	0.0152039
692.671	0.0151278
692.749	0.0151729
692.828	0.0152157
692.906	0.0150316
692.984	0.0150798
693.062	0.0152290
693.140	0.0151165
693.218	0.0150707
693.296	0.0150063
693.374	0.0149747
693.453	0.0149096
693.531	0.0149389
693.609	0.0149917
693.687	0.0148698
693.765	0.0149223
693.843	0.0148518
693.921	0.0149521
693.999	0.0150063
694.078	0.0148879
694.156	0.0150297
694.234	0.0148792
694.312	0.0149620
694.390	0.0148659
694.468	0.0148475
694.546	0.0149283
694.624	0.0149363
694.703	0.0147329
694.781	0.0148440
694.859	0.0147929
694.937	0.0148875
695.015	0.0147672
695.093	0.0146230
695.171	0.0146381
695.249	0.0148463
695.328	0.0148338
695.406	0.0145768
695.484	0.0146619
695.562	0.0147511
695.640	0.0148530
695.718	0.0147323
695.796	0.0147063
695.874	0.0148277
695.953	0.0148220
696.031	0.0147778
696.109	0.0147845
696.187	0.0147899
696.265	0.0148652
696.343	0.0147870
696.421	0.0149889
696.499	0.0150646
696.578	0.0149097
696.656	0.0149734
696.734	0.0151051
696.812	0.0151178
696.890	0.0148923
696.968	0.0150117
697.046	0.0149764
697.124	0.0150537
697.203	0.0149988
697.281	0.0150136
697.359	0.0150786
697.437	0.0150741
697.515	0.0150498
697.593	0.0150303
697.671	0.0149997
697.749	0.0150348
697.828	0.0149661
697.906	0.0148583
697.984	0.0150090
698.062	0.0149850
698.140	0.0150072
698.218	0.0149060
698.296	0.0149589
698.374	0.0149569
698.453	0.0148654
698.531	0.0148047
698.609	0.0148800
698.687	0.0148804
698.765	0.0150447
698.843	0.0149422
698.921	0.0148755
698.999	0.0148249
699.078	0.0148793
699.156	0.0149277
699.234	0.0148923
699.312	0.0148771
699.390	0.0147692
699.468	0.0148035
699.546	0.0147894
699.624	0.0148793
699.703	0.0147729
699.781	0.0147218
699.859	0.0147614
699.937	0.0147254
700.015	0.0147692
700.093	0.0147426
700.171	0.0145033
700.249	0.0145944
700.328	0.0147989
700.406	0.0146406
700.484	0.0147249
700.562	0.0147038
700.640	0.0147881
700.718	0.0148318
700.796	0.0147784
700.874	0.0147869
700.953	0.0151585
701.031	0.0150500
701.109	0.0149655
701.187	0.0151830
701.265	0.0151831
701.343	0.0150898
701.421	0.0152119
701.499	0.0152772
701.578	0.0154082
701.656	0.0152412
701.734	0.0152985
701.812	0.0153470
701.890	0.0152730
701.968	0.0152112
702.046	0.0153368
702.124	0.0151577
702.203	0.0153799
702.281	0.0152160
702.359	0.0152048
702.437	0.0151039
702.515	0.0150960
702.593	0.0151041
702.671	0.0149860
702.749	0.0149152
702.828	0.0148983
702.906	0.0148863
702.984	0.0150042
703.062	0.0150046
703.140	0.0148401
703.218	0.0147475
703.296	0.0147958
703.374	0.0149859
703.453	0.0150130
703.531	0.0150268
703.609	0.0149688
703.687	0.0148318
703.765	0.0149340
703.843	0.0150915
703.921	0.0151168
703.999	0.0149467
704.078	0.0150407
704.156	0.0150087
704.234	0.0150403
704.312	0.0150751
704.390	0.0151831
704.468	0.0151614
704.546	0.0148940
704.624	0.0149207
704.703	0.0149913
704.781	0.0150394
704.859	0.0149860
704.937	0.0148824
705.015	0.0148320
705.093	0.0149815
705.171	0.0149223
705.249	0.0148799
705.328	0.0148392
705.406	0.0149883
705.484	0.0148458
705.562	0.0148419
705.640	0.0149331
705.718	0.0148408
705.796	0.0149117
705.874	0.0150858
705.953	0.0149240
706.031	0.0150337
706.109	0.0150877
706.187	0.0149815
706.265	0.0150997
706.343	0.0151681
706.421	0.0153380
706.499	0.0152065
706.578	0.0151272
706.656	0.0152663
706.734	0.0152441
706.812	0.0152440
706.890	0.0151814
706.968	0.0153198
707.046	0.0152815
707.124	0.0151860
707.203	0.0151338
707.281	0.0151130
707.359	0.0151328
707.437	0.0150520
707.515	0.0150207
707.593	0.0150009
707.671	0.0150347
707.749	0.0149865
707.828	0.0149895
707.906	0.0150209
707.984	0.0149292
708.062	0.0150034
708.140	0.0149429
708.218	0.0149376
708.296	0.0149988
708.374	0.0149145
708.453	0.0150186
708.531	0.0150346
708.609	0.0150063
708.687	0.0149683
708.765	0.0149274
708.843	0.0148629
708.921	0.0147282
708.999	0.0149094
709.078	0.0149455
709.156	0.0148743
709.234	0.0148867
709.312	0.0149135
709.390	0.0149193
709.468	0.0149181
709.546	0.0147487
709.624	0.0148398
709.703	0.0148518
709.781	0.0149527
709.859	0.0149265
709.937	0.0149170
710.015	0.0147762
710.093	0.0149494
710.171	0.0150269
710.249	0.0149234
710.328	0.0149712
710.406	0.0149452
710.484	0.0148550
710.562	0.0150117
710.640	0.0148531
710.718	0.0149651
710.796	0.0149599
710.874	0.0148779
710.953	0.0148819
711.031	0.0149128
711.109	0.0149776
711.187	0.0150044
711.265	0.0149795
711.343	0.0149394
711.421	0.0149100
711.499	0.0149327
711.578	0.0149277
711.656	0.0149408
711.734	0.0149949
711.812	0.0148479
711.890	0.0148598
711.968	0.0149115
712.046	0.0149274
712.124	0.0149340
712.203	0.0150531
712.281	0.0150205
712.359	0.0150268
712.437	0.0151359
712.515	0.0150076
712.593	0.0150702
712.671	0.0150417
712.749	0.0149567
712.828	0.0149945
712.906	0.0149361
712.984	0.0149641
713.062	0.0150705
713.140	0.0150949
713.218	0.0150033
713.296	0.0150043
713.374	0.0149265
713.453	0.0149188
713.531	0.0149316
713.609	0.0149642
713.687	0.0150044
713.765	0.0148737
713.843	0.0148827
713.921	0.0149259
713.999	0.0147957
714.078	0.0149361
714.156	0.0149460
714.234	0.0147778
714.312	0.0148608
714.390	0.0148351
714.468	0.0148660
714.546	0.0148698
714.624	0.0148390
714.703	0.0150831
714.781	0.0149631
714.859	0.0150225
714.937	0.0150282
715.015	0.0150943
715.093	0.0151077
715.171	0.0151578
715.249	0.0151125
715.328	0.0150276
715.406	0.0150696
715.484	0.0150948
715.562	0.0151773
715.640	0.0151736
715.718	0.0151888
715.796	0.0152152
715.874	0.0150876
715.953	0.0152221
716.031	0.0151509
716.109	0.0151967
716.187	0.0151747
716.265	0.0150259
716.343	0.0150518
716.421	0.0150495
716.499	0.0151098
716.578	0.0150008
716.656	0.0150827
716.734	0.0151234
716.812	0.0149949
716.890	0.0149470
716.968	0.0148908
717.046	0.0150398
717.124	0.0150220
717.203	0.0149321
717.281	0.0149702
717.359	0.0151842
717.437	0.0151107
717.515	0.0150867
717.593	0.0151093
717.671	0.0151870
717.749	0.0150695
717.828	0.0151199
717.906	0.0151553
717.984	0.0151329
718.062	0.0151379
718.140	0.0151059
718.218	0.0151511
718.296	0.0151761
718.374	0.0152835
718.453	0.0151041
718.531	0.0150735
718.609	0.0152367
718.687	0.0150826
718.765	0.0150814
718.843	0.0151660
718.921	0.0149088
718.999	0.0150142
719.078	0.0149264
719.156	0.0148991
719.234	0.0148169
719.312	0.0147845
719.390	0.0149321
719.468	0.0149047
719.546	0.0148936
719.624	0.0148838
719.703	0.0147465
719.781	0.0148334
719.859	0.0150453
719.937	0.0148593
720.015	0.0149425
720.093	0.0149474
720.171	0.0150328
720.249	0.0150542
720.328	0.0149841
720.406	0.0149222
720.484	0.0151552
720.562	0.0151866
720.640	0.0151665
720.718	0.0151094
720.796	0.0151288
720.874	0.0151718
720.953	0.0150604
721.031	0.0150224
721.109	0.0150894
721.187	0.0149834
721.265	0.0150391
721.343	0.0149255
721.421	0.0149747
721.499	0.0149802
721.578	0.0149315
721.656	0.0149048
721.734	0.0147449
721.812	0.0148011
721.890	0.0148019
721.968	0.0147603
722.046	0.0148030
722.124	0.0147049
722.203	0.0145892
722.281	0.0148474
722.359	0.0148277
722.437	0.0148712
722.515	0.0149652
722.593	0.0148180
722.671	0.0147340
722.749	0.0149601
722.828	0.0150340
722.906	0.0150002
722.984	0.0149064
723.062	0.0149870
723.140	0.0149018
723.218	0.0148845
723.296	0.0150068
723.374	0.0150789
723.453	0.0150917
723.531	0.0150632
723.609	0.0149799
723.687	0.0149287
723.765	0.0150561
723.843	0.0150565
723.921	0.0149319
723.999	0.0150877
724.078	0.0149795
724.156	0.0149934
724.234	0.0149641
724.312	0.0150137
724.390	0.0148525
724.468	0.0150095
724.546	0.0150642
724.624	0.0151186
724.703	0.0151174
724.781	0.0150860
724.859	0.0151920
724.937	0.0151772
725.015	0.0149931
725.093	0.0151601
725.171	0.0151221
725.249	0.0151582
725.328	0.0152612
725.406	0.0152444
725.484	0.0151485
725.562	0.0151728
725.640	0.0151041
725.718	0.0152579
725.796	0.0151592
725.874	0.0151651
725.953	0.0150949
726.031	0.0152655
726.109	0.0150346
726.187	0.0152572
726.265	0.0152878
726.343	0.0150484
726.421	0.0149323
726.499	0.0149554
726.578	0.0149178
726.656	0.0148624
726.734	0.0150090
726.812	0.0149217
726.890	0.0149889
726.968	0.0147742
727.046	0.0148668
727.124	0.0150430
727.203	0.0149796
727.281	0.0148936
727.359	0.0148938
727.437	0.0150606
727.515	0.0151186
727.593	0.0149377
727.671	0.0150049
727.749	0.0150095
727.828	0.0149430
727.906	0.0150356
727.984	0.0149232
728.062	0.0150246
728.140	0.0150028
728.218	0.0149789
728.296	0.0149234
728.374	0.0148583
728.453	0.0152019
728.531	0.0150696
728.609	0.0150896
728.687	0.0149754
728.765	0.0149977
728.843	0.0149095
728.921	0.0149432
728.999	0.0149644
729.078	0.0149881
729.156	0.0148174
729.234	0.0149409
729.312	0.0150010
729.390	0.0148997
729.468	0.0150069
729.546	0.0150918
729.624	0.0149855
729.703	0.0150508
729.781	0.0148427
729.859	0.0149995
729.937	0.0150087
730.015	0.0149236
730.093	0.0150193
730.171	0.0151126
730.249	0.0151958
730.328	0.0150482
730.406	0.0149654
730.484	0.0150349
730.562	0.0150449
730.640	0.0150346
730.718	0.0148362
730.796	0.0149074
730.874	0.0150400
730.953	0.0149545
731.031	0.0149741
731.109	0.0148971
731.187	0.0148440
731.265	0.0150739
731.343	0.0150271
731.421	0.0149879
731.499	0.0149244
731.578	0.0149902
731.656	0.0148810
731.734	0.0149973
731.812	0.0149911
731.890	0.0149004
731.968	0.0151028
732.046	0.0149334
732.124	0.0150773
732.203	0.0150661
732.281	0.0151387
732.359	0.0150034
732.437	0.0151144
732.515	0.0150996
732.593	0.0150645
732.671	0.0150391
732.749	0.0150707
732.828	0.0149945
732.906	0.0151573
732.984	0.0150734
733.062	0.0150768
733.140	0.0151898
733.218	0.0150608
733.296	0.0150147
733.374	0.0150938
733.453	0.0151910
733.531	0.0150842
733.609	0.0151186
733.687	0.0150718
733.765	0.0150916
733.843	0.0151080
733.921	0.0150703
733.999	0.0149997
734.078	0.0150298
734.156	0.0149742
734.234	0.0150212
734.312	0.0149974
734.390	0.0149468
734.468	0.0149674
734.546	0.0149082
734.624	0.0149401
734.703	0.0149791
734.781	0.0148816
734.859	0.0149229
734.937	0.0149055
735.015	0.0149626
735.093	0.0149758
735.171	0.0149716
735.249	0.0150026
735.328	0.0148411
735.406	0.0150037
735.484	0.0149894
735.562	0.0150030
735.640	0.0150061
735.718	0.0150393
735.796	0.0151237
735.874	0.0150113
735.953	0.0150225
736.031	0.0150446
736.109	0.0149757
736.187	0.0151530
736.265	0.0150259
736.343	0.0151444
736.421	0.0151448
736.499	0.0152187
736.578	0.0150949
736.656	0.0151317
736.734	0.0150865
736.812	0.0151168
736.890	0.0151509
736.968	0.0149837
737.046	0.0152666
737.124	0.0150679
737.203	0.0150524
737.281	0.0151305
737.359	0.0151497
737.437	0.0150582
737.515	0.0151078
737.593	0.0150513
737.671	0.0151129
737.749	0.0151095
737.828	0.0152020
737.906	0.0150775
737.984	0.0151186
738.062	0.0150947
738.140	0.0151303
738.218	0.0151814
738.296	0.0150935
738.374	0.0150348
738.453	0.0151488
738.531	0.0149921
738.609	0.0152372
738.687	0.0151427
738.765	0.0148856
738.843	0.0149267
738.921	0.0151094
738.999	0.0151004
739.078	0.0149750
739.156	0.0152141
739.234	0.0150374
739.312	0.0150239
739.390	0.0149393
739.468	0.0149201
739.546	0.0149855
739.624	0.0150176
739.703	0.0150591
739.781	0.0152090
739.859	0.0149185
739.937	0.0150827
740.015	0.0151361
740.093	0.0150218
740.171	0.0151428
740.249	0.0150639
740.328	0.0151258
740.406	0.0150655
740.484	0.0150156
740.562	0.0150461
740.640	0.0151679
740.718	0.0151289
740.796	0.0150479
740.874	0.0150685
740.953	0.0150472
741.031	0.0150195
741.109	0.0150025
741.187	0.0150672
741.265	0.0151407
741.343	0.0150398
741.421	0.0149837
741.499	0.0150454
741.578	0.0149094
741.656	0.0151645
741.734	0.0152941
741.812	0.0150910
741.890	0.0151334
741.968	0.0150268
742.046	0.0153522
742.124	0.0152160
742.203	0.0151114
742.281	0.0150169
742.359	0.0150328
742.437	0.0150262
742.515	0.0150951
742.593	0.0150771
742.671	0.0151089
742.749	0.0151255
742.828	0.0151501
742.906	0.0151559
742.984	0.0150604
743.062	0.0150574
743.140	0.0149870
743.218	0.0151792
743.296	0.0149899
743.374	0.0149856
743.453	0.0150488
743.531	0.0148743
743.609	0.0148905
743.687	0.0150503
743.765	0.0149709
743.843	0.0149014
743.921	0.0148841
743.999	0.0149240
744.078	0.0148648
744.156	0.0148835
744.234	0.0149069
744.312	0.0148244
744.390	0.0149334
744.468	0.0149697
744.546	0.0149664
744.624	0.0150025
744.703	0.0150784
744.781	0.0150333
744.859	0.0150182
744.937	0.0147163
745.015	0.0149183
745.093	0.0151228
745.171	0.0148927
745.249	0.0149416
745.328	0.0150423
745.406	0.0149709
745.484	0.0150419
745.562	0.0149680
745.640	0.0149947
745.718	0.0151164
745.796	0.0148595
745.874	0.0149223
745.953	0.0150034
746.031	0.0150998
746.109	0.0149693
746.187	0.0149368
746.265	0.0150021
746.343	0.0151006
746.421	0.0150561
746.499	0.0149915
746.578	0.0150883
746.656	0.0151240
746.734	0.0149843
746.812	0.0149776
746.890	0.0150966
746.968	0.0151112
747.046	0.0149300
747.124	0.0151570
747.203	0.0150445
747.281	0.0149957
747.359	0.0150608
747.437	0.0149659
747.515	0.0149837
747.593	0.0151315
747.671	0.0149193
747.749	0.0149670
747.828	0.0148650
747.906	0.0149857
747.984	0.0151027
748.062	0.0149627
748.140	0.0148977
748.218	0.0149567
748.296	0.0149873
748.374	0.0149210
748.453	0.0149139
748.531	0.0149254
748.609	0.0149722
748.687	0.0147913
748.765	0.0149410
748.843	0.0150826
748.921	0.0149101
748.999	0.0149010
749.078	0.0149590
749.156	0.0149350
749.234	0.0148643
749.312	0.0151102
749.390	0.0148657
749.468	0.0150249
749.546	0.0148450
749.624	0.0149034
749.703	0.0149619
749.781	0.0149114
749.859	0.0149767
749.937	0.0149700
750.015	0.0149964
750.093	0.0149702
750.171	0.0148871
750.249	0.0150484
750.328	0.0149927
750.406	0.0149161
750.484	0.0149386
750.562	0.0150517
750.640	0.0149747
750.718	0.0149166
750.796	0.0148969
750.874	0.0148807
750.953	0.0150628
751.031	0.0150781
751.109	0.0149072
751.187	0.0149439
751.265	0.0149573
751.343	0.0150741
751.421	0.0148845
751.499	0.0149732
751.578	0.0149994
751.656	0.0151519
751.734	0.0151899
751.812	0.0149344
751.890	0.0150977
751.968	0.0151147
752.046	0.0152193
752.124	0.0149536
752.203	0.0150521
752.281	0.0151350
752.359	0.0150986
752.437	0.0151505
752.515	0.0150409
752.593	0.0151240
752.671	0.0150262
752.749	0.0151237
752.828	0.0151643
752.906	0.0150185
752.984	0.0151846
753.062	0.0151300
753.140	0.0150437
753.218	0.0150828
753.296	0.0150173
753.374	0.0150696
753.453	0.0151224
753.531	0.0151690
753.609	0.0150986
753.687	0.0149843
753.765	0.0150194
753.843	0.0150895
753.921	0.0150437
753.999	0.0149431
754.078	0.0150183
754.156	0.0150806
754.234	0.0151062
754.312	0.0149850
754.390	0.0150563
754.468	0.0149300
754.546	0.0150344
754.624	0.0150970
754.703	0.0150513
754.781	0.0149710
754.859	0.0149654
754.937	0.0149928
755.015	0.0150190
755.093	0.0150655
755.171	0.0148663
755.249	0.0150438
755.328	0.0150391
755.406	0.0149690
755.484	0.0149063
755.562	0.0149065
755.640	0.0149127
755.718	0.0150624
755.796	0.0149737
755.874	0.0149741
755.953	0.0149815
756.031	0.0149464
756.109	0.0149772
756.187	0.0150078
756.265	0.0150040
756.343	0.0149954
756.421	0.0150404
756.499	0.0148277
756.578	0.0149028
756.656	0.0151195
756.734	0.0149820
756.812	0.0150285
756.890	0.0149733
756.968	0.0149376
757.046	0.0148553
757.124	0.0149369
757.203	0.0149152
757.281	0.0150568
757.359	0.0149660
757.437	0.0150301
757.515	0.0149595
757.593	0.0149125
757.671	0.0149667
757.749	0.0150946
757.828	0.0149438
757.906	0.0149928
757.984	0.0150408
758.062	0.0150171
758.140	0.0149591
758.218	0.0149174
758.296	0.0149534
758.374	0.0149883
758.453	0.0151389
758.531	0.0150304
758.609	0.0149802
758.687	0.0148081
758.765	0.0149554
758.843	0.0148801
758.921	0.0149602
758.999	0.0150517
759.078	0.0149300
759.156	0.0147010
759.234	0.0148567
759.312	0.0148859
759.390	0.0149553
759.468	0.0148959
759.546	0.0149410
759.624	0.0149355
759.703	0.0148150
759.781	0.0149448
759.859	0.0149860
759.937	0.0148339
760.015	0.0150403
760.093	0.0150190
760.171	0.0149337
760.249	0.0149858
760.328	0.0150237
760.406	0.0149870
760.484	0.0150431
760.562	0.0149783
760.640	0.0150482
760.718	0.0150996
760.796	0.0151267
760.874	0.0151225
760.953	0.0151568
761.031	0.0150802
761.109	0.0149953
761.187	0.0150922
761.265	0.0149814
761.343	0.0150765
761.421	0.0151244
761.499	0.0149978
761.578	0.0150249
761.656	0.0152097
761.734	0.0151958
761.812	0.0149316
761.890	0.0150646
761.968	0.0150128
762.046	0.0151719
762.124	0.0150853
762.203	0.0151584
762.281	0.0150502
762.359	0.0150486
762.437	0.0150179
762.515	0.0150141
762.593	0.0150256
762.671	0.0151022
762.749	0.0150413
762.828	0.0149786
762.906	0.0150586
762.984	0.0148883
763.062	0.0149303
763.140	0.0150699
763.218	0.0150880
763.296	0.0150092
763.374	0.0148549
763.453	0.0149426
763.531	0.0150461
763.609	0.0149529
763.687	0.0151269
763.765	0.0149735
763.843	0.0149570
763.921	0.0149619
763.999	0.0149315
764.078	0.0149335
764.156	0.0148824
764.234	0.0148474
764.312	0.0149123
764.390	0.0149472
764.468	0.0148864
764.546	0.0149024
764.624	0.0149252
764.703	0.0148064
764.781	0.0149133
764.859	0.0149487
764.937	0.0149317
765.015	0.0149450
765.093	0.0149779
765.171	0.0148692
765.249	0.0149440
765.328	0.0149497
765.406	0.0148842
765.484	0.0149677
765.562	0.0149151
765.640	0.0149405
765.718	0.0148528
765.796	0.0148783
765.874	0.0148894
765.953	0.0149784
766.031	0.0149773
766.109	0.0149134
766.187	0.0150080
766.265	0.0147463
766.343	0.0149247
766.421	0.0150515
766.499	0.0150662
766.578	0.0149771
766.656	0.0149361
766.734	0.0149855
766.812	0.0151581
766.890	0.0149504
766.968	0.0150070
767.046	0.0150032
767.124	0.0149364
767.203	0.0149072
767.281	0.0149649
767.359	0.0149600
767.437	0.0149212
767.515	0.0149736
767.593	0.0149621
767.671	0.0149831
767.749	0.0148009
767.828	0.0147903
767.906	0.0149045
767.984	0.0148328
768.062	0.0148495
768.140	0.0149142
768.218	0.0148863
768.296	0.0147942
768.374	0.0149506
768.453	0.0148936
768.531	0.0148402
768.609	0.0149246
768.687	0.0147837
768.765	0.0148653
768.843	0.0149331
768.921	0.0148840
768.999	0.0149300
769.078	0.0149689
769.156	0.0149247
769.234	0.0150123
769.312	0.0150106
769.390	0.0150656
769.468	0.0147711
769.546	0.0149935
769.624	0.0149923
769.703	0.0148737
769.781	0.0149728
769.859	0.0149635
769.937	0.0149995
770.015	0.0149370
770.093	0.0149229
770.171	0.0150337
770.249	0.0150501
770.328	0.0148534
770.406	0.0148805
770.484	0.0147618
770.562	0.0147710
770.640	0.0149925
770.718	0.0149797
770.796	0.0149807
770.874	0.0149514
770.953	0.0148402
771.031	0.0148659
771.109	0.0150291
771.187	0.0150597
771.265	0.0149658
771.343	0.0149837
771.421	0.0151408
771.499	0.0150790
771.578	0.0149007
771.656	0.0150184
771.734	0.0150279
771.812	0.0149395
771.890	0.0150372
771.968	0.0150201
772.046	0.0149648
772.124	0.0149797
772.203	0.0148563
772.281	0.0150095
772.359	0.0148978
772.437	0.0150684
772.515	0.0149940
772.593	0.0147751
772.671	0.0147831
772.749	0.0148993
772.828	0.0148562
772.906	0.0147169
772.984	0.0149012
773.062	0.0151070
773.140	0.0150849
773.218	0.0150412
773.296	0.0150445
773.374	0.0150513
773.453	0.0148323
773.531	0.0147843
773.609	0.0150191
773.687	0.0150639
773.765	0.0149539
773.843	0.0149400
773.921	0.0149148
773.999	0.0150297
774.078	0.0149149
774.156	0.0148615
774.234	0.0149509
774.312	0.0150368
774.390	0.0149429
774.468	0.0149847
774.546	0.0151193
774.624	0.0150102
774.703	0.0150756
774.781	0.0150641
774.859	0.0149315
774.937	0.0149532
775.015	0.0150892
775.093	0.0150748
775.171	0.0151919
775.249	0.0151437
775.328	0.0152016
775.406	0.0150325
775.484	0.0151051
775.562	0.0151907
775.640	0.0152220
775.718	0.0151008
775.796	0.0150806
775.874	0.0150339
775.953	0.0151085
776.031	0.0150591
776.109	0.0150551
776.187	0.0149447
776.265	0.0150588
776.343	0.0151857
776.421	0.0150853
776.499	0.0150253
776.578	0.0149584
776.656	0.0150834
776.734	0.0150826
776.812	0.0150114
776.890	0.0149323
776.968	0.0149486
777.046	0.0150448
777.124	0.0151408
777.203	0.0149445
777.281	0.0150698
777.359	0.0151353
777.437	0.0150892
777.515	0.0150169
777.593	0.0151114
777.671	0.0150211
777.749	0.0149989
777.828	0.0148972
777.906	0.0149579
777.984	0.0149917
778.062	0.0149221
778.140	0.0149887
778.218	0.0150155
778.296	0.0150058
778.374	0.0150940
778.453	0.0150089
778.531	0.0150320
778.609	0.0151520
778.687	0.0149587
778.765	0.0150262
778.843	0.0151568
778.921	0.0151550
778.999	0.0150821
779.078	0.0150624
779.156	0.0150121
779.234	0.0151241
779.312	0.0149288
779.390	0.0149537
779.468	0.0150288
779.546	0.0150980
779.624	0.0150401
779.703	0.0150529
779.781	0.0150402
779.859	0.0149418
779.937	0.0150996
780.015	0.0150776
780.093	0.0149281
780.171	0.0149718
780.249	0.0150324
780.328	0.0149957
780.406	0.0149155
780.484	0.0150285
780.562	0.0152461
780.640	0.0152340
780.718	0.0149579
780.796	0.0150180
780.874	0.0149515
780.953	0.0149731
781.031	0.0148600
781.109	0.0149696
781.187	0.0150121
781.265	0.0149848
781.343	0.0149136
781.421	0.0148976
781.499	0.0149847
781.578	0.0147723
781.656	0.0148803
781.734	0.0149632
781.812	0.0148328
781.890	0.0149220
781.968	0.0148660
782.046	0.0149156
782.124	0.0149443
782.203	0.0149160
782.281	0.0149393
782.359	0.0149606
782.437	0.0150267
782.515	0.0150338
782.593	0.0150642
782.671	0.0150914
782.749	0.0149220
782.828	0.0148342
782.906	0.0151371
782.984	0.0150652
783.062	0.0150775
783.140	0.0149529
783.218	0.0150133
783.296	0.0150547
783.374	0.0149027
783.453	0.0150529
783.531	0.0150486
783.609	0.0149060
783.687	0.0150150
783.765	0.0149525
783.843	0.0149015
783.921	0.0149531
783.999	0.0150722
784.078	0.0150244
784.156	0.0149516
784.234	0.0150919
784.312	0.0149937
784.390	0.0149385
784.468	0.0149844
784.546	0.0150331
784.624	0.0150385
784.703	0.0151209
784.781	0.0150143
784.859	0.0151281
784.937	0.0149886
785.015	0.0151160
785.093	0.0151247
785.171	0.0151740
785.249	0.0150980
785.328	0.0149350
785.406	0.0150324
785.484	0.0149295
785.562	0.0149112
785.640	0.0150515
785.718	0.0150573
785.796	0.0150127
785.874	0.0149871
785.953	0.0149520
786.031	0.0149264
786.109	0.0148837
786.187	0.0149248
786.265	0.0149989
786.343	0.0149181
786.421	0.0149442
786.499	0.0149029
786.578	0.0149635
786.656	0.0150274
786.734	0.0149130
786.812	0.0148975
786.890	0.0150156
786.968	0.0148695
787.046	0.0149266
787.124	0.0149776
787.203	0.0148779
787.281	0.0149499
787.359	0.0150090
787.437	0.0149607
787.515	0.0150367
787.593	0.0149705
787.671	0.0150227
787.749	0.0150559
787.828	0.0149162
787.906	0.0150336
787.984	0.0148925
788.062	0.0149870
788.140	0.0150228
788.218	0.0150340
788.296	0.0149315
788.374	0.0151118
788.453	0.0151863
788.531	0.0148996
788.609	0.0148534
788.687	0.0150047
788.765	0.0151232
788.843	0.0149953
788.921	0.0150897
788.999	0.0148378
789.078	0.0148129
789.156	0.0149451
789.234	0.0150236
789.312	0.0149575
789.390	0.0148141
789.468	0.0148826
789.546	0.0150559
789.624	0.0148327
789.703	0.0149644
789.781	0.0150295
789.859	0.0149036
789.937	0.0148402
790.015	0.0150372
790.093	0.0149423
790.171	0.0149404
790.249	0.0150683
790.328	0.0149426
790.406	0.0150175
790.484	0.0150191
790.562	0.0149366
790.640	0.0148454
790.718	0.0149098
790.796	0.0148874
790.874	0.0150594
790.953	0.0150708
791.031	0.0149685
791.109	0.0149480
791.187	0.0149912
791.265	0.0150566
791.343	0.0148495
791.421	0.0149285
791.499	0.0148378
791.578	0.0148689
791.656	0.0149107
791.734	0.0147427
791.812	0.0147643
791.890	0.0147186
791.968	0.0148026
792.046	0.0148199
792.124	0.0146882
792.203	0.0148449
792.281	0.0148820
792.359	0.0148017
792.437	0.0149571
792.515	0.0150144
792.593	0.0148742
792.671	0.0148475
792.749	0.0148701
792.828	0.0149217
792.906	0.0149947
792.984	0.0149641
793.062	0.0149836
793.140	0.0149859
793.218	0.0150217
793.296	0.0149583
793.374	0.0150423
793.453	0.0150616
793.531	0.0148950
793.609	0.0150467
793.687	0.0151694
793.765	0.0149171
793.843	0.0150156
793.921	0.0149816
793.999	0.0148927
794.078	0.0148448
794.156	0.0149335
794.234	0.0150778
794.312	0.0149226
794.390	0.0148088
794.468	0.0149154
794.546	0.0148676
794.624	0.0150485
794.703	0.0150971
794.781	0.0149637
794.859	0.0149448
794.937	0.0149680
795.015	0.0150704
795.093	0.0149273
795.171	0.0149908
795.249	0.0148834
795.328	0.0150070
795.406	0.0150259
795.484	0.0148428
795.562	0.0150315
795.640	0.0148621
795.718	0.0149644
795.796	0.0150523
795.874	0.0149576
795.953	0.0149819
796.031	0.0149543
796.109	0.0149672
796.187	0.0149339
796.265	0.0149651
796.343	0.0149313
796.421	0.0150484
796.499	0.0149155
796.578	0.0148771
796.656	0.0149512
796.734	0.0148029
796.812	0.0148672
796.890	0.0148728
796.968	0.0149173
797.046	0.0150037
797.124	0.0148794
797.203	0.0149252
797.281	0.0148775
797.359	0.0149410
797.437	0.0148677
797.515	0.0149756
797.593	0.0149709
797.671	0.0149729
797.749	0.0150085
797.828	0.0147968
797.906	0.0149610
797.984	0.0149471
798.062	0.0149584
798.140	0.0150126
798.218	0.0150155
798.296	0.0148592
798.374	0.0149695
798.453	0.0150966
798.531	0.0148337
798.609	0.0148093
798.687	0.0149316
798.765	0.0148106
798.843	0.0149347
798.921	0.0147199
798.999	0.0147787
799.078	0.0148545
799.156	0.0148757
799.234	0.0148090
799.312	0.0148756
799.390	0.0147892
799.468	0.0149684
799.546	0.0148826
799.624	0.0150574
799.703	0.0149197
799.781	0.0149010
799.859	0.0149953
799.937	0.0150363
800.015	0.0150101
800.093	0.0149822
800.171	0.0150882
800.249	0.0149854
800.328	0.0151269
800.406	0.0149603
800.484	0.0150774
800.562	0.0151957
800.640	0.0150894
800.718	0.0149137
800.796	0.0149445
800.874	0.0149859
800.953	0.0150838
801.031	0.0150246
801.109	0.0150372
801.187	0.0150329
801.265	0.0149986
801.343	0.0150107
801.421	0.0149653
801.499	0.0149239
801.578	0.0150539
801.656	0.0150864
801.734	0.0149512
801.812	0.0151098
801.890	0.0151022
801.968	0.0151151
802.046	0.0151112
802.124	0.0149023
802.203	0.0150405
802.281	0.0149902
802.359	0.0150524
802.437	0.0150942
802.515	0.0150655
802.593	0.0152095
802.671	0.0150751
802.749	0.0151170
802.828	0.0151496
802.906	0.0150554
802.984	0.0151689
803.062	0.0151591
803.140	0.0152057
803.218	0.0151395
803.296	0.0151973
803.374	0.0151636
803.453	0.0151099
803.531	0.0150111
803.609	0.0150379
803.687	0.0151012
803.765	0.0152351
803.843	0.0152226
803.921	0.0150876
803.999	0.0151049
804.078	0.0151219
804.156	0.0151720
804.234	0.0151061
804.312	0.0150046
804.390	0.0151826
804.468	0.0151093
804.546	0.0151615
804.624	0.0151656
804.703	0.0150100
804.781	0.0150598
804.859	0.0149782
804.937	0.0150641
805.015	0.0150687
805.093	0.0150536
805.171	0.0150893
805.249	0.0150101
805.328	0.0150920
805.406	0.0150968
805.484	0.0148672
805.562	0.0151099
805.640	0.0150197
805.718	0.0148586
805.796	0.0152429
805.874	0.0149779
805.953	0.0149818
806.031	0.0149170
806.109	0.0149627
806.187	0.0151333
806.265	0.0150912
806.343	0.0149581
806.421	0.0151603
806.499	0.0150147
806.578	0.0150552
806.656	0.0149944
806.734	0.0150870
806.812	0.0151479
806.890	0.0151478
806.968	0.0150546
807.046	0.0151090
807.124	0.0149794
807.203	0.0149866
807.281	0.0150733
807.359	0.0150893
807.437	0.0151055
807.515	0.0150517
807.593	0.0149927
807.671	0.0150436
807.749	0.0150177
807.828	0.0149069
807.906	0.0149269
807.984	0.0149433
808.062	0.0149269
808.140	0.0149656
808.218	0.0150840
808.296	0.0150354
808.374	0.0150288
808.453	0.0151273
808.531	0.0149045
808.609	0.0148872
808.687	0.0150694
808.765	0.0151244
808.843	0.0150671
808.921	0.0150613
808.999	0.0150599
809.078	0.0150454
809.156	0.0149674
809.234	0.0151090
809.312	0.0150125
809.390	0.0151245
809.468	0.0149506
809.546	0.0149927
809.624	0.0151270
809.703	0.0149631
809.781	0.0147758
809.859	0.0150499
809.937	0.0149463
810.015	0.0148862
810.093	0.0148491
810.171	0.0149255
810.249	0.0148329
810.328	0.0149894
810.406	0.0148910
810.484	0.0148307
810.562	0.0148653
810.640	0.0150426
810.718	0.0150078
810.796	0.0151035
810.874	0.0149831
810.953	0.0151324
811.031	0.0150665
811.109	0.0149555
811.187	0.0150065
811.265	0.0150600
811.343	0.0150124
811.421	0.0150180
811.499	0.0149921
811.578	0.0150410
811.656	0.0151275
811.734	0.0150777
811.812	0.0149444
811.890	0.0150612
811.968	0.0151468
812.046	0.0151991
812.124	0.0150822
812.203	0.0150950
812.281	0.0151772
812.359	0.0150498
812.437	0.0150900
812.515	0.0149288
812.593	0.0149920
812.671	0.0152560
812.749	0.0152341
812.828	0.0150922
812.906	0.0149737
812.984	0.0151684
813.062	0.0150181
813.140	0.0151444
813.218	0.0151508
813.296	0.0150259
813.374	0.0149844
813.453	0.0151643
813.531	0.0150693
813.609	0.0148670
813.687	0.0149850
813.765	0.0148126
813.843	0.0149625
813.921	0.0149590
813.999	0.0149931
814.078	0.0148997
814.156	0.0149916
814.234	0.0150113
814.312	0.0150433
814.390	0.0149547
814.468	0.0149991
814.546	0.0151283
814.624	0.0151083
814.703	0.0150125
814.781	0.0151232
814.859	0.0151253
814.937	0.0151495
815.015	0.0151123
815.093	0.0151270
815.171	0.0149484
815.249	0.0150709
815.328	0.0152005
815.406	0.0151126
815.484	0.0150176
815.562	0.0149420
815.640	0.0150714
815.718	0.0148714
815.796	0.0149115
815.874	0.0150977
815.953	0.0150905
816.031	0.0150512
816.109	0.0149082
816.187	0.0148994
816.265	0.0148602
816.343	0.0149860
816.421	0.0149665
816.499	0.0148104
816.578	0.0150159
816.656	0.0147824
816.734	0.0148698
816.812	0.0148891
816.890	0.0148173
816.968	0.0147041
817.046	0.0149537
817.124	0.0148444
817.203	0.0148734
817.281	0.0148711
817.359	0.0148430
817.437	0.0149249
817.515	0.0149538
817.593	0.0149375
817.671	0.0148685
817.749	0.0148373
817.828	0.0149038
817.906	0.0149805
817.984	0.0149667
818.062	0.0150349
818.140	0.0149950
818.218	0.0149844
818.296	0.0148528
818.374	0.0148914
818.453	0.0149249
818.531	0.0149799
818.609	0.0149708
818.687	0.0149957
818.765	0.0149687
818.843	0.0150101
818.921	0.0149676
818.999	0.0148593
819.078	0.0150092
819.156	0.0149265
819.234	0.0149619
819.312	0.0150415
819.390	0.0149421
819.468	0.0150460
819.546	0.0150507
819.624	0.0148317
819.703	0.0151001
819.781	0.0150182
819.859	0.0149000
819.937	0.0149627
820.015	0.0151240
820.093	0.0150100
820.171	0.0149668
820.249	0.0149664
820.328	0.0150850
820.406	0.0151613
820.484	0.0150641
820.562	0.0149409
820.640	0.0149703
820.718	0.0149731
820.796	0.0151266
820.874	0.0149268
820.953	0.0149554
821.031	0.0148637
821.109	0.0148988
821.187	0.0150263
821.265	0.0148255
821.343	0.0150068
821.421	0.0149154
821.499	0.0149550
821.578	0.0148002
821.656	0.0149594
821.734	0.0149981
821.812	0.0150777
821.890	0.0150414
821.968	0.0149828
822.046	0.0149651
822.124	0.0151397
822.203	0.0152692
822.281	0.0151071
822.359	0.0151083
822.437	0.0151868
822.515	0.0151836
822.593	0.0152069
822.671	0.0152174
822.749	0.0150680
822.828	0.0151102
822.906	0.0151673
822.984	0.0151007
823.062	0.0152090
823.140	0.0151586
823.218	0.0150805
823.296	0.0150990
823.374	0.0150925
823.453	0.0151059
823.531	0.0150391
823.609	0.0150350
823.687	0.0151088
823.765	0.0150862
823.843	0.0151184
823.921	0.0149344
823.999	0.0150019
824.078	0.0149809
824.156	0.0151945
824.234	0.0150132
824.312	0.0149132
824.390	0.0149833
824.468	0.0151897
824.546	0.0150211
824.624	0.0150479
824.703	0.0151442
824.781	0.0149870
824.859	0.0149673
824.937	0.0151225
825.015	0.0150851
825.093	0.0149800
825.171	0.0150384
825.249	0.0149609
825.328	0.0149537
825.406	0.0150610
825.484	0.0150031
825.562	0.0149090
825.640	0.0149375
825.718	0.0147825
825.796	0.0148849
825.874	0.0150949
825.953	0.0150621
826.031	0.0149271
826.109	0.0150470
826.187	0.0149254
826.265	0.0150352
826.343	0.0150423
826.421	0.0150965
826.499	0.0148892
826.578	0.0149207
826.656	0.0151195
826.734	0.0152991
826.812	0.0150465
826.890	0.0150285
826.968	0.0151550
827.046	0.0150516
827.124	0.0150550
827.203	0.0150437
827.281	0.0151762
827.359	0.0152252
827.437	0.0151813
827.515	0.0150919
827.593	0.0151267
827.671	0.0150528
827.749	0.0150794
827.828	0.0149241
827.906	0.0150826
827.984	0.0151621
828.062	0.0151808
828.140	0.0150817
828.218	0.0151212
828.296	0.0151821
828.374	0.0151035
828.453	0.0150542
828.531	0.0151718
828.609	0.0150828
828.687	0.0149860
828.765	0.0150707
828.843	0.0151987
828.921	0.0151491
828.999	0.0149758
829.078	0.0151505
829.156	0.0150259
829.234	0.0151315
829.312	0.0150827
829.390	0.0150062
829.468	0.0151171
829.546	0.0150674
829.624	0.0150924
829.703	0.0151140
829.781	0.0151436
829.859	0.0151564
829.937	0.0150127
830.015	0.0150760
830.093	0.0151173
830.171	0.0150323
830.249	0.0150336
830.328	0.0151901
830.406	0.0150239
830.484	0.0150755
830.562	0.0149978
830.640	0.0149690
830.718	0.0149997
830.796	0.0150292
830.874	0.0150055
830.953	0.0150246
831.031	0.0151510
831.109	0.0152034
831.187	0.0150446
831.265	0.0150963
831.343	0.0150465
831.421	0.0150133
831.499	0.0149915
831.578	0.0150597
831.656	0.0151457
831.734	0.0150409
831.812	0.0150356
831.890	0.0150652
831.968	0.0149235
832.046	0.0150390
832.124	0.0150182
832.203	0.0150968
832.281	0.0150777
832.359	0.0151518
832.437	0.0150634
832.515	0.0150883
832.593	0.0150421
832.671	0.0148830
832.749	0.0149583
832.828	0.0149274
832.906	0.0148280
832.984	0.0150451
833.062	0.0149273
833.140	0.0149964
833.218	0.0151158
833.296	0.0150061
833.374	0.0149281
833.453	0.0150375
833.531	0.0149348
833.609	0.0148811
833.687	0.0148534
833.765	0.0149141
833.843	0.0149001
833.921	0.0150330
833.999	0.0149349
834.078	0.0149049
834.156	0.0149461
834.234	0.0149920
834.312	0.0149269
834.390	0.0148830
834.468	0.0149529
834.546	0.0149439
834.624	0.0148093
834.703	0.0148631
834.781	0.0149783
834.859	0.0149890
834.937	0.0150536
835.015	0.0149728
835.093	0.0148951
835.171	0.0148550
835.249	0.0149242
835.328	0.0150797
835.406	0.0150546
835.484	0.0149392
835.562	0.0149631
835.640	0.0148297
835.718	0.0150295
835.796	0.0149162
835.874	0.0150246
835.953	0.0149284
836.031	0.0149912
836.109	0.0150060
836.187	0.0150011
836.265	0.0150496
836.343	0.0150665
836.421	0.0149413
836.499	0.0149249
836.578	0.0148895
836.656	0.0150465
836.734	0.0149861
836.812	0.0149573
836.890	0.0149938
836.968	0.0149445
837.046	0.0149045
837.124	0.0149425
837.203	0.0149561
837.281	0.0150058
837.359	0.0149071
837.437	0.0149612
837.515	0.0150686
837.593	0.0151738
837.671	0.0150627
837.749	0.0149893
837.828	0.0149742
837.906	0.0150600
837.984	0.0150288
838.062	0.0150155
838.140	0.0149864
838.218	0.0149606
838.296	0.0150388
838.374	0.0151018
838.453	0.0150922
838.531	0.0148936
838.609	0.0149991
838.687	0.0150301
838.765	0.0151311
838.843	0.0149380
838.921	0.0150311
838.999	0.0150014
839.078	0.0150623
839.156	0.0149249
839.234	0.0150951
839.312	0.0149073
839.390	0.0148505
839.468	0.0149822
839.546	0.0148912
839.624	0.0148462
839.703	0.0149869
839.781	0.0149704
839.859	0.0149242
839.937	0.0150016
840.015	0.0149609
840.093	0.0148550
840.171	0.0149715
840.249	0.0151047
840.328	0.0150707
840.406	0.0151689
840.484	0.0150014
840.562	0.0150628
840.640	0.0149842
840.718	0.0149210
840.796	0.0150521
840.874	0.0150095
840.953	0.0151596
841.031	0.0150382
841.109	0.0150608
841.187	0.0150273
841.265	0.0149114
841.343	0.0149287
841.421	0.0149194
841.499	0.0148839
841.578	0.0149918
841.656	0.0150178
841.734	0.0149364
841.812	0.0149547
841.890	0.0149734
841.968	0.0149033
842.046	0.0148820
842.124	0.0148525
842.203	0.0149659
842.281	0.0149361
842.359	0.0148756
842.437	0.0149605
842.515	0.0149421
842.593	0.0149197
842.671	0.0149027
842.749	0.0150339
842.828	0.0149789
842.906	0.0148157
842.984	0.0148086
843.062	0.0150333
843.140	0.0150747
843.218	0.0151429
843.296	0.0150700
843.374	0.0149751
843.453	0.0150468
843.531	0.0151287
843.609	0.0149998
843.687	0.0150861
843.765	0.0149285
843.843	0.0149689
843.921	0.0149404
843.999	0.0150201
844.078	0.0149712
844.156	0.0149297
844.234	0.0150034
844.312	0.0149538
844.390	0.0149695
844.468	0.0149754
844.546	0.0149610
844.624	0.0148981
844.703	0.0149807
844.781	0.0149488
844.859	0.0149999
844.937	0.0150161
845.015	0.0150516
845.093	0.0150171
845.171	0.0152364
845.249	0.0150158
845.328	0.0150051
845.406	0.0150105
845.484	0.0148803
845.562	0.0149813
845.640	0.0150616
845.718	0.0152155
845.796	0.0151521
845.874	0.0150007
845.953	0.0149073
846.031	0.0149462
846.109	0.0150553
846.187	0.0149651
846.265	0.0150615
846.343	0.0151212
846.421	0.0149675
846.499	0.0150115
846.578	0.0150946
846.656	0.0150960
846.734	0.0150230
846.812	0.0150546
846.890	0.0150275
846.968	0.0150034
847.046	0.0149210
847.124	0.0151373
847.203	0.0149599
847.281	0.0150376
847.359	0.0150043
847.437	0.0150368
847.515	0.0149950
847.593	0.0150315
847.671	0.0148934
847.749	0.0150503
847.828	0.0151124
847.906	0.0149658
847.984	0.0150569
848.062	0.0150272
848.140	0.0151598
848.218	0.0149979
848.296	0.0151443
848.374	0.0150755
848.453	0.0150459
848.531	0.0150109
848.609	0.0150790
848.687	0.0150787
848.765	0.0149686
848.843	0.0150365
848.921	0.0151407
848.999	0.0149897
849.078	0.0149500
849.156	0.0149607
849.234	0.0151071
849.312	0.0149464
849.390	0.0149673
849.468	0.0150671
849.546	0.0149920
849.624	0.0149727
849.703	0.0150439
849.781	0.0151008
849.859	0.0150500
849.937	0.0151027
850.015	0.0150217
850.093	0.0149590
850.171	0.0149946
850.249	0.0150323
850.328	0.0150274
850.406	0.0150860
850.484	0.0149284
850.562	0.0149929
850.640	0.0150017
850.718	0.0150690
850.796	0.0151122
850.874	0.0150366
850.953	0.0150391
851.031	0.0149873
851.109	0.0151550
851.187	0.0149776
851.265	0.0150343
851.343	0.0151067
851.421	0.0149817
851.499	0.0148560
851.578	0.0150866
851.656	0.0150731
851.734	0.0150051
851.812	0.0151633
851.890	0.0151151
851.968	0.0149948
852.046	0.0149055
852.124	0.0150865
852.203	0.0149939
852.281	0.0148658
852.359	0.0150203
852.437	0.0150444
852.515	0.0149781
852.593	0.0151834
852.671	0.0150544
852.749	0.0149306
852.828	0.0150430
852.906	0.0150808
852.984	0.0149250
853.062	0.0149885
853.140	0.0150452
853.218	0.0151115
853.296	0.0148849
853.374	0.0149908
853.453	0.0151834
853.531	0.0150466
853.609	0.0150623
853.687	0.0150095
853.765	0.0149049
853.843	0.0149888
853.921	0.0150617
853.999	0.0150523
854.078	0.0150541
854.156	0.0150423
854.234	0.0151817
854.312	0.0150341
854.390	0.0150550
854.468	0.0150201
854.546	0.0149972
854.624	0.0150236
854.703	0.0150580
854.781	0.0150440
854.859	0.0150500
854.937	0.0149825
855.015	0.0150460
855.093	0.0149336
855.171	0.0149492
855.249	0.0150478
855.328	0.0150913
855.406	0.0150300
855.484	0.0150773
855.562	0.0150175
855.640	0.0149805
855.718	0.0151289
855.796	0.0151080
855.874	0.0148856
855.953	0.0150629
856.031	0.0151053
856.109	0.0151492
856.187	0.0151778
856.265	0.0152316
856.343	0.0150893
856.421	0.0149088
856.499	0.0149501
856.578	0.0149560
856.656	0.0151613
856.734	0.0150957
856.812	0.0151704
856.890	0.0152110
856.968	0.0151012
857.046	0.0151637
857.124	0.0150847
857.203	0.0149986
857.281	0.0150669
857.359	0.0151269
857.437	0.0151103
857.515	0.0150614
857.593	0.0149361
857.671	0.0150253
857.749	0.0151044
857.828	0.0149823
857.906	0.0149172
857.984	0.0150555
858.062	0.0150311
858.140	0.0150292
858.218	0.0149148
858.296	0.0149990
858.374	0.0150829
858.453	0.0150772
858.531	0.0149728
858.609	0.0151379
858.687	0.0150417
858.765	0.0150917
858.843	0.0150331
858.921	0.0151592
858.999	0.0149984
859.078	0.0149692
859.156	0.0149685
859.234	0.0149989
859.312	0.0150240
859.390	0.0148524
859.468	0.0151804
859.546	0.0149400
859.624	0.0149123
859.703	0.0148737
859.781	0.0150021
859.859	0.0150128
859.937	0.0149413
860.015	0.0150590
860.093	0.0149874
860.171	0.0149818
860.249	0.0149349
860.328	0.0150369
860.406	0.0148542
860.484	0.0149884
860.562	0.0149803
860.640	0.0149682
860.718	0.0148757
860.796	0.0150626
860.874	0.0149467
860.953	0.0150336
861.031	0.0150175
861.109	0.0148646
861.187	0.0151240
861.265	0.0149483
861.343	0.0151413
861.421	0.0151380
861.499	0.0150001
861.578	0.0151453
861.656	0.0148264
861.734	0.0150340
861.812	0.0150991
861.890	0.0150283
861.968	0.0149977
862.046	0.0150015
862.124	0.0150585
862.203	0.0149946
862.281	0.0151086
862.359	0.0149518
862.437	0.0149466
862.515	0.0149813
862.593	0.0151801
862.671	0.0151227
862.749	0.0149324
862.828	0.0149066
862.906	0.0149766
862.984	0.0148580
863.062	0.0150320
863.140	0.0150456
863.218	0.0149975
863.296	0.0150143
863.374	0.0149442
863.453	0.0152151
863.531	0.0150137
863.609	0.0149629
863.687	0.0149714
863.765	0.0150385
863.843	0.0151900
863.921	0.0149672
863.999	0.0150559
864.078	0.0150507
864.156	0.0150034
864.234	0.0150847
864.312	0.0150707
864.390	0.0150992
864.468	0.0150346
864.546	0.0149302
864.624	0.0150595
864.703	0.0149319
864.781	0.0148652
864.859	0.0149774
864.937	0.0148853
865.015	0.0149886
865.093	0.0148141
865.171	0.0147321
865.249	0.0149683
865.328	0.0149558
865.406	0.0148242
865.484	0.0149008
865.562	0.0150806
865.640	0.0150214
865.718	0.0150652
865.796	0.0149952
865.874	0.0149724
865.953	0.0151377
866.031	0.0151526
866.109	0.0148796
866.187	0.0150217
866.265	0.0150436
866.343	0.0150443
866.421	0.0150056
866.499	0.0151493
866.578	0.0149237
866.656	0.0149652
866.734	0.0151328
866.812	0.0150459
866.890	0.0150326
866.968	0.0150489
867.046	0.0150373
867.124	0.0148551
867.203	0.0149965
867.281	0.0149808
867.359	0.0149529
867.437	0.0150049
867.515	0.0149925
867.593	0.0148888
867.671	0.0149809
867.749	0.0149020
867.828	0.0148297
867.906	0.0148183
867.984	0.0148947
868.062	0.0149740
868.140	0.0149257
868.218	0.0148629
868.296	0.0148923
868.374	0.0150166
868.453	0.0149148
868.531	0.0149288
868.609	0.0149118
868.687	0.0148407
868.765	0.0148949
868.843	0.0150502
868.921	0.0149070
868.999	0.0149648
869.078	0.0150332
869.156	0.0148721
869.234	0.0149445
869.312	0.0151259
869.390	0.0150719
869.468	0.0149777
869.546	0.0150285
869.624	0.0149857
869.703	0.0150559
869.781	0.0148862
869.859	0.0148682
869.937	0.0148464
870.015	0.0148960
870.093	0.0148829
870.171	0.0148318
870.249	0.0149332
870.328	0.0149529
870.406	0.0148099
870.484	0.0148421
870.562	0.0149928
870.640	0.0149049
870.718	0.0148363
870.796	0.0150549
870.874	0.0148565
870.953	0.0148958
871.031	0.0149522
871.109	0.0149492
871.187	0.0150478
871.265	0.0150664
871.343	0.0150040
871.421	0.0149212
871.499	0.0149612
871.578	0.0150501
871.656	0.0150665
871.734	0.0150764
871.812	0.0150636
871.890	0.0150710
871.968	0.0150970
872.046	0.0151067
872.124	0.0150285
872.203	0.0150668
872.281	0.0151131
872.359	0.0151956
872.437	0.0150672
872.515	0.0149583
872.593	0.0149316
872.671	0.0150800
872.749	0.0151062
872.828	0.0150094
872.906	0.0148922
872.984	0.0150412
873.062	0.0150149
873.140	0.0150079
873.218	0.0149360
873.296	0.0151054
873.374	0.0150364
873.453	0.0148524
873.531	0.0151836
873.609	0.0151067
873.687	0.0150598
873.765	0.0149339
873.843	0.0149063
873.921	0.0150381
873.999	0.0151114
874.078	0.0150061
874.156	0.0148924
874.234	0.0148550
874.312	0.0151063
874.390	0.0150344
874.468	0.0149847
874.546	0.0150152
874.624	0.0151871
874.703	0.0151250
874.781	0.0151735
874.859	0.0152032
874.937	0.0151847
875.015	0.0149562
875.093	0.0150785
875.171	0.0151557
875.249	0.0148509
875.328	0.0150336
875.406	0.0151276
875.484	0.0150335
875.562	0.0148904
875.640	0.0150060
875.718	0.0149804
875.796	0.0148470
875.874	0.0149297
875.953	0.0149960
876.031	0.0149743
876.109	0.0151173
876.187	0.0150099
876.265	0.0149611
876.343	0.0150968
876.421	0.0149668
876.499	0.0149886
876.578	0.0151695
876.656	0.0150883
876.734	0.0150122
876.812	0.0150416
876.890	0.0150558
876.968	0.0151315
877.046	0.0149901
877.124	0.0150002
877.203	0.0149885
877.281	0.0150706
877.359	0.0150520
877.437	0.0149440
877.515	0.0150413
877.593	0.0150970
877.671	0.0149340
877.749	0.0147205
877.828	0.0149569
877.906	0.0150905
877.984	0.0149902
878.062	0.0148247
878.140	0.0150241
878.218	0.0151339
878.296	0.0150629
878.374	0.0149915
878.453	0.0149805
878.531	0.0150446
878.609	0.0150110
878.687	0.0151188
878.765	0.0150680
878.843	0.0150931
878.921	0.0149429
878.999	0.0149889
879.078	0.0149553
879.156	0.0149149
879.234	0.0149431
879.312	0.0149688
879.390	0.0151486
879.468	0.0151021
879.546	0.0150625
879.624	0.0151549
879.703	0.0151167
879.781	0.0151011
879.859	0.0150569
879.937	0.0151134
880.015	0.0150469
880.093	0.0150307
880.171	0.0148550
880.249	0.0150838
880.328	0.0150879
880.406	0.0150405
880.484	0.0150166
880.562	0.0152139
880.640	0.0149963
880.718	0.0149329
880.796	0.0149146
880.874	0.0149831
880.953	0.0152267
881.031	0.0150907
881.109	0.0148928
881.187	0.0150648
881.265	0.0150035
881.343	0.0150358
881.421	0.0150505
881.499	0.0150442
881.578	0.0150141
881.656	0.0151642
881.734	0.0150232
881.812	0.0151110
881.890	0.0150232
881.968	0.0149407
882.046	0.0151247
882.124	0.0151653
882.203	0.0150544
882.281	0.0151510
882.359	0.0150380
882.437	0.0150779
882.515	0.0151718
882.593	0.0150432
882.671	0.0151907
882.749	0.0151598
882.828	0.0150861
882.906	0.0150569
882.984	0.0150147
883.062	0.0150850
883.140	0.0148986
883.218	0.0148958
883.296	0.0148815
883.374	0.0150117
883.453	0.0150844
883.531	0.0150008
883.609	0.0149552
883.687	0.0148945
883.765	0.0150272
883.843	0.0149586
883.921	0.0148728
883.999	0.0148187
884.078	0.0149577
884.156	0.0147498
884.234	0.0149299
884.312	0.0148654
884.390	0.0148953
884.468	0.0149206
884.546	0.0149289
884.624	0.0148284
884.703	0.0148317
884.781	0.0150500
884.859	0.0150605
884.937	0.0149001
885.015	0.0149393
885.093	0.0150414
885.171	0.0149510
885.249	0.0148035
885.328	0.0149747
885.406	0.0150272
885.484	0.0149754
885.562	0.0148793
885.640	0.0149747
885.718	0.0149540
885.796	0.0149048
885.874	0.0147783
885.953	0.0149078
886.031	0.0149802
886.109	0.0149655
886.187	0.0151025
886.265	0.0148506
886.343	0.0148990
886.421	0.0148462
886.499	0.0149003
886.578	0.0148852
886.656	0.0148206
886.734	0.0148933
886.812	0.0149075
886.890	0.0149284
886.968	0.0149462
887.046	0.0149986
887.124	0.0149862
887.203	0.0148917
887.281	0.0149185
887.359	0.0149593
887.437	0.0150385
887.515	0.0150816
887.593	0.0151477
887.671	0.0148553
887.749	0.0149255
887.828	0.0150365
887.906	0.0150043
887.984	0.0150083
888.062	0.0150048
888.140	0.0150285
888.218	0.0150564
888.296	0.0151331
888.374	0.0152029
888.453	0.0149915
888.531	0.0150068
888.609	0.0150375
888.687	0.0150366
888.765	0.0151088
888.843	0.0150804
888.921	0.0150371
888.999	0.0149808
889.078	0.0151738
889.156	0.0149761
889.234	0.0149055
889.312	0.0149760
889.390	0.0149373
889.468	0.0150395
889.546	0.0151115
889.624	0.0149741
889.703	0.0149908
889.781	0.0150368
889.859	0.0149682
889.937	0.0149770
890.015	0.0150883
890.093	0.0150829
890.171	0.0150435
890.249	0.0150980
890.328	0.0149770
890.406	0.0150415
890.484	0.0150955
890.562	0.0151034
890.640	0.0151025
890.718	0.0150332
890.796	0.0151540
890.874	0.0150690
890.953	0.0151678
891.031	0.0151523
891.109	0.0150307
891.187	0.0150259
891.265	0.0149678
891.343	0.0150058
891.421	0.0150226
891.499	0.0149841
891.578	0.0150592
891.656	0.0150818
891.734	0.0148632
891.812	0.0149571
891.890	0.0149883
891.968	0.0149496
892.046	0.0149360
892.124	0.0148190
892.203	0.0150030
892.281	0.0148618
892.359	0.0151350
892.437	0.0149934
892.515	0.0149483
892.593	0.0149347
892.671	0.0149726
892.749	0.0150277
892.828	0.0151101
892.906	0.0151335
892.984	0.0149609
893.062	0.0151131
893.140	0.0149601
893.218	0.0150252
893.296	0.0150845
893.374	0.0151831
893.453	0.0151939
893.531	0.0150964
893.609	0.0151411
893.687	0.0151938
893.765	0.0149823
893.843	0.0150988
893.921	0.0152274
893.999	0.0150736
894.078	0.0150953
894.156	0.0150029
894.234	0.0150608
894.312	0.0150368
894.390	0.0150959
894.468	0.0150457
894.546	0.0150069
894.624	0.0149746
894.703	0.0150642
894.781	0.0149864
894.859	0.0150732
894.937	0.0150032
895.015	0.0150291
895.093	0.0149177
895.171	0.0150277
895.249	0.0150992
895.328	0.0150733
895.406	0.0150157
895.484	0.0150104
895.562	0.0151366
895.640	0.0149758
895.718	0.0150544
895.796	0.0149976
895.874	0.0149818
895.953	0.0150426
896.031	0.0150162
896.109	0.0149546
896.187	0.0147795
896.265	0.0149892
896.343	0.0151031
896.421	0.0150252
896.499	0.0149466
896.578	0.0149186
896.656	0.0149522
896.734	0.0150882
896.812	0.0148867
896.890	0.0150722
896.968	0.0151403
897.046	0.0150350
897.124	0.0149586
897.203	0.0149837
897.281	0.0148778
897.359	0.0151681
897.437	0.0150435
897.515	0.0149854
897.593	0.0150284
897.671	0.0150486
897.749	0.0149737
897.828	0.0150110
897.906	0.0150809
897.984	0.0148775
898.062	0.0149576
898.140	0.0150551
898.218	0.0149508
898.296	0.0148785
898.374	0.0150069
898.453	0.0151236
898.531	0.0150309
898.609	0.0150416
898.687	0.0149047
898.765	0.0149036
898.843	0.0150025
898.921	0.0149881
898.999	0.0149993
899.078	0.0149998
899.156	0.0149920
899.234	0.0150735
899.312	0.0149794
899.390	0.0150101
899.468	0.0151015
899.546	0.0149488
899.624	0.0149766
899.703	0.0151024
899.781	0.0149543
899.859	0.0150348
899.937	0.0149529
900.015	0.0149114
900.093	0.0148989
900.171	0.0149503
900.249	0.0150719
900.328	0.0149390
900.406	0.0149518
900.484	0.0149403
900.562	0.0149431
900.640	0.0148982
900.718	0.0150642
900.796	0.0150530
900.874	0.0149152
900.953	0.0148935
901.031	0.0150526
901.109	0.0151083
901.187	0.0150351
901.265	0.0150005
901.343	0.0150032
901.421	0.0150163
901.499	0.0149135
901.578	0.0149120
901.656	0.0150553
901.734	0.0151089
901.812	0.0149518
901.890	0.0149719
901.968	0.0149770
902.046	0.0150993
902.124	0.0148269
902.203	0.0148662
902.281	0.0149711
902.359	0.0150294
902.437	0.0150353
902.515	0.0149539
902.593	0.0149493
902.671	0.0149304
902.749	0.0148727
902.828	0.0149315
902.906	0.0150835
902.984	0.0150500
903.062	0.0149660
903.140	0.0149355
903.218	0.0149849
903.296	0.0150140
903.374	0.0151556
903.453	0.0149553
903.531	0.0150746
903.609	0.0151118
903.687	0.0151044
903.765	0.0151136
903.843	0.0151261
903.921	0.0151909
903.999	0.0151865
904.078	0.0150975
904.156	0.0151801
904.234	0.0152554
904.312	0.0152447
904.390	0.0151135
904.468	0.0151685
904.546	0.0151917
904.624	0.0151027
904.703	0.0150945
904.781	0.0151481
904.859	0.0153464
904.937	0.0152450
905.015	0.0152161
905.093	0.0151353
905.171	0.0151604
905.249	0.0151096
905.328	0.0152090
905.406	0.0150939
905.484	0.0150410
905.562	0.0150859
905.640	0.0151366
905.718	0.0151286
905.796	0.0149745
905.874	0.0150483
905.953	0.0150764
906.031	0.0150043
906.109	0.0149729
906.187	0.0150851
906.265	0.0151719
906.343	0.0149973
906.421	0.0150373
906.499	0.0150543
906.578	0.0150032
906.656	0.0149587
906.734	0.0149481
906.812	0.0150862
906.890	0.0151450
906.968	0.0150730
907.046	0.0149997
907.124	0.0151270
907.203	0.0150511
907.281	0.0149590
907.359	0.0151228
907.437	0.0150035
907.515	0.0151214
907.593	0.0152380
907.671	0.0151232
907.749	0.0150146
907.828	0.0149192
907.906	0.0149241
907.984	0.0150750
908.062	0.0149667
908.140	0.0149894
908.218	0.0149445
908.296	0.0149644
908.374	0.0148726
908.453	0.0149873
908.531	0.0150332
908.609	0.0149579
908.687	0.0149422
908.765	0.0151553
908.843	0.0149176
908.921	0.0150438
908.999	0.0150216
909.078	0.0149335
909.156	0.0149726
909.234	0.0149387
909.312	0.0149630
909.390	0.0150279
909.468	0.0148875
909.546	0.0150413
909.624	0.0148461
909.703	0.0148949
909.781	0.0149987
909.859	0.0150356
909.937	0.0149261
910.015	0.0150746
910.093	0.0150333
910.171	0.0150062
910.249	0.0148974
910.328	0.0149489
910.406	0.0149671
910.484	0.0150745
910.562	0.0150092
910.640	0.0148877
910.718	0.0149129
910.796	0.0149609
910.874	0.0149291
910.953	0.0149200
911.031	0.0148729
911.109	0.0148789
911.187	0.0148849
911.265	0.0149842
911.343	0.0147235
911.421	0.0149726
911.499	0.0148978
911.578	0.0150108
911.656	0.0149500
911.734	0.0149731
911.812	0.0150280
911.890	0.0149606
911.968	0.0149321
912.046	0.0149234
912.124	0.0149345
912.203	0.0147974
912.281	0.0148293
912.359	0.0147942
912.437	0.0150334
912.515	0.0150829
912.593	0.0149614
912.671	0.0149261
912.749	0.0149513
912.828	0.0149249
912.906	0.0149615
912.984	0.0149542
913.062	0.0150426
913.140	0.0149561
913.218	0.0149658
913.296	0.0149658
913.374	0.0149856
913.453	0.0149001
913.531	0.0148573
913.609	0.0149199
913.687	0.0148743
913.765	0.0148856
913.843	0.0149216
913.921	0.0150210
913.999	0.0149564
914.078	0.0149994
914.156	0.0149564
914.234	0.0149944
914.312	0.0149735
914.390	0.0149570
914.468	0.0148818
914.546	0.0150607
914.624	0.0149983
914.703	0.0149286
914.781	0.0149655
914.859	0.0150232
914.937	0.0149326
915.015	0.0149713
915.093	0.0150694
915.171	0.0150273
915.249	0.0150414
915.328	0.0148705
915.406	0.0149387
915.484	0.0150443
915.562	0.0148743
915.640	0.0148196
915.718	0.0149567
915.796	0.0150758
915.874	0.0150602
915.953	0.0149558
916.031	0.0150100
916.109	0.0150605
916.187	0.0149468
916.265	0.0149891
916.343	0.0150345
916.421	0.0150332
916.499	0.0149944
916.578	0.0149477
916.656	0.0150092
916.734	0.0150186
916.812	0.0150611
916.890	0.0150521
916.968	0.0151050
917.046	0.0150028
917.124	0.0150558
917.203	0.0151291
917.281	0.0149645
917.359	0.0149400
917.437	0.0151191
917.515	0.0150655
917.593	0.0150724
917.671	0.0149629
917.749	0.0152023
917.828	0.0150333
917.906	0.0149651
917.984	0.0150364
918.062	0.0150211
918.140	0.0150523
918.218	0.0150521
918.296	0.0150116
918.374	0.0150481
918.453	0.0148830
918.531	0.0149453
918.609	0.0148930
918.687	0.0148040
918.765	0.0149793
918.843	0.0149052
918.921	0.0148988
918.999	0.0149612
919.078	0.0148572
919.156	0.0148623
919.234	0.0149529
919.312	0.0150047
919.390	0.0150448
919.468	0.0149283
919.546	0.0149143
919.624	0.0149424
919.703	0.0149802
919.781	0.0149088
919.859	0.0149032
919.937	0.0150492
