05/06/2022	19:35:46	Ver.	4.1	UNKNOWN
Optical Delay	600.015094	Delta X		0.078125	Sweeps	1	Scan Rate	0/0
Coordinates	Axis 1	NaN	Axis 2	NaN	Axis 3	NaN	Axis 4	NaN	Axis 5	NaN	Axis 6	0.000000
TX Power	0.000000	RX Power	0.000000

600.015	0.0153491
600.093	0.0152917
600.171	0.0155015
600.249	0.0154492
600.328	0.0155086
600.406	0.0153544
600.484	0.0154243
600.562	0.0154066
600.640	0.0154865
600.718	0.0154120
600.796	0.0155916
600.874	0.0157065
600.953	0.0155846
601.031	0.0154141
601.109	0.0154621
601.187	0.0155865
601.265	0.0156046
601.343	0.0156221
601.421	0.0153760
601.499	0.0153971
601.578	0.0155187
601.656	0.0154179
601.734	0.0154686
601.812	0.0155370
601.890	0.0154623
601.968	0.0154874
602.046	0.0154303
602.124	0.0154965
602.203	0.0155190
602.281	0.0154153
602.359	0.0155739
602.437	0.0155981
602.515	0.0156013
602.593	0.0154749
602.671	0.0155441
602.749	0.0155210
602.828	0.0154453
602.906	0.0156269
602.984	0.0155878
603.062	0.0154770
603.140	0.0154545
603.218	0.0154707
603.296	0.0155152
603.374	0.0154723
603.453	0.0154342
603.531	0.0153899
603.609	0.0155541
603.687	0.0155022
603.765	0.0154367
603.843	0.0153920
603.921	0.0153732
603.999	0.0153652
604.078	0.0154179
604.156	0.0154540
604.234	0.0155727
604.312	0.0154050
604.390	0.0155641
604.468	0.0155740
604.546	0.0154748
604.624	0.0155618
604.703	0.0156120
604.781	0.0155343
604.859	0.0154945
604.937	0.0156623
605.015	0.0155869
605.093	0.0154678
605.171	0.0156293
605.249	0.0156313
605.328	0.0155406
605.406	0.0155467
605.484	0.0155538
605.562	0.0154628
605.640	0.0155785
605.718	0.0157175
605.796	0.0156466
605.874	0.0154398
605.953	0.0153960
606.031	0.0155734
606.109	0.0154378
606.187	0.0154315
606.265	0.0154301
606.343	0.0153905
606.421	0.0154886
606.499	0.0153944
606.578	0.0154618
606.656	0.0153780
606.734	0.0153232
606.812	0.0154786
606.890	0.0155038
606.968	0.0152906
607.046	0.0154078
607.124	0.0154053
607.203	0.0154635
607.281	0.0155543
607.359	0.0153980
607.437	0.0154430
607.515	0.0155287
607.593	0.0153975
607.671	0.0155981
607.749	0.0156068
607.828	0.0154624
607.906	0.0155622
607.984	0.0154752
608.062	0.0155932
608.140	0.0156490
608.218	0.0155495
608.296	0.0157565
608.374	0.0158018
608.453	0.0156499
608.531	0.0157264
608.609	0.0158133
608.687	0.0157345
608.765	0.0156774
608.843	0.0157708
608.921	0.0156759
608.999	0.0156887
609.078	0.0156197
609.156	0.0155177
609.234	0.0156393
609.312	0.0155824
609.390	0.0155428
609.468	0.0153592
609.546	0.0152619
609.624	0.0154638
609.703	0.0153323
609.781	0.0153423
609.859	0.0152306
609.937	0.0151269
610.015	0.0151823
610.093	0.0151084
610.171	0.0152090
610.249	0.0153062
610.328	0.0153561
610.406	0.0153461
610.484	0.0154469
610.562	0.0154885
610.640	0.0156160
610.718	0.0155474
610.796	0.0156538
610.874	0.0156698
610.953	0.0156882
611.031	0.0156668
611.109	0.0156830
611.187	0.0157559
611.265	0.0155637
611.343	0.0156365
611.421	0.0157963
611.499	0.0158367
611.578	0.0156792
611.656	0.0156804
611.734	0.0156480
611.812	0.0158151
611.890	0.0156689
611.968	0.0157565
612.046	0.0156733
612.124	0.0156084
612.203	0.0156264
612.281	0.0156193
612.359	0.0157428
612.437	0.0155692
612.515	0.0155766
612.593	0.0155981
612.671	0.0154868
612.749	0.0153766
612.828	0.0154514
612.906	0.0154957
612.984	0.0154578
613.062	0.0153786
613.140	0.0154850
613.218	0.0155350
613.296	0.0154600
613.374	0.0154069
613.453	0.0154609
613.531	0.0154211
613.609	0.0153508
613.687	0.0153908
613.765	0.0155859
613.843	0.0155602
613.921	0.0156377
613.999	0.0154455
614.078	0.0155057
614.156	0.0155032
614.234	0.0156053
614.312	0.0156248
614.390	0.0157250
614.468	0.0158204
614.546	0.0156557
614.624	0.0155986
614.703	0.0157291
614.781	0.0156437
614.859	0.0156922
614.937	0.0155215
615.015	0.0155267
615.093	0.0155207
615.171	0.0154851
615.249	0.0155048
615.328	0.0154333
615.406	0.0154096
615.484	0.0153637
615.562	0.0153619
615.640	0.0153055
615.718	0.0153927
615.796	0.0153577
615.874	0.0153133
615.953	0.0153153
616.031	0.0154486
616.109	0.0153562
616.187	0.0153806
616.265	0.0153692
616.343	0.0153615
616.421	0.0153738
616.499	0.0154744
616.578	0.0154312
616.656	0.0155608
616.734	0.0154878
616.812	0.0154652
616.890	0.0154924
616.968	0.0154372
617.046	0.0155247
617.124	0.0154465
617.203	0.0155293
617.281	0.0155614
617.359	0.0154382
617.437	0.0153654
617.515	0.0154630
617.593	0.0155000
617.671	0.0154816
617.749	0.0152829
617.828	0.0153678
617.906	0.0155859
617.984	0.0153371
618.062	0.0152570
618.140	0.0154131
618.218	0.0154351
618.296	0.0152753
618.374	0.0153342
618.453	0.0153360
618.531	0.0153223
618.609	0.0154153
618.687	0.0153287
618.765	0.0152721
618.843	0.0155349
618.921	0.0154532
618.999	0.0152864
619.078	0.0153143
619.156	0.0152377
619.234	0.0152538
619.312	0.0154430
619.390	0.0154346
619.468	0.0151716
619.546	0.0152655
619.624	0.0152771
619.703	0.0151404
619.781	0.0152261
619.859	0.0153922
619.937	0.0151727
620.015	0.0151013
620.093	0.0151873
620.171	0.0152698
620.249	0.0153355
620.328	0.0152077
620.406	0.0152562
620.484	0.0152748
620.562	0.0152142
620.640	0.0151852
620.718	0.0153468
620.796	0.0153784
620.874	0.0153027
620.953	0.0153039
621.031	0.0152937
621.109	0.0153630
621.187	0.0154626
621.265	0.0154484
621.343	0.0155106
621.421	0.0155201
621.499	0.0154305
621.578	0.0155752
621.656	0.0155284
621.734	0.0154803
621.812	0.0154393
621.890	0.0156174
621.968	0.0154931
622.046	0.0154854
622.124	0.0154539
622.203	0.0154354
622.281	0.0154819
622.359	0.0153456
622.437	0.0154564
622.515	0.0153175
622.593	0.0152912
622.671	0.0152790
622.749	0.0150900
622.828	0.0152052
622.906	0.0151782
622.984	0.0151702
623.062	0.0152945
623.140	0.0151467
623.218	0.0152335
623.296	0.0152153
623.374	0.0152689
623.453	0.0152334
623.531	0.0153679
623.609	0.0154500
623.687	0.0152854
623.765	0.0155544
623.843	0.0155085
623.921	0.0156602
623.999	0.0157369
624.078	0.0156190
624.156	0.0156814
624.234	0.0156547
624.312	0.0156910
624.390	0.0157241
624.468	0.0157522
624.546	0.0156017
624.624	0.0156530
624.703	0.0155109
624.781	0.0155116
624.859	0.0155357
624.937	0.0152522
625.015	0.0153775
625.093	0.0153633
625.171	0.0152469
625.249	0.0151742
625.328	0.0151834
625.406	0.0150858
625.484	0.0150032
625.562	0.0151765
625.640	0.0149779
625.718	0.0150942
625.796	0.0150582
625.874	0.0150767
625.953	0.0152148
626.031	0.0152356
626.109	0.0152203
626.187	0.0153487
626.265	0.0153560
626.343	0.0153754
626.421	0.0155095
626.499	0.0156193
626.578	0.0156744
626.656	0.0156121
626.734	0.0156072
626.812	0.0157977
626.890	0.0159207
626.968	0.0159249
627.046	0.0157267
627.124	0.0158474
627.203	0.0158134
627.281	0.0158872
627.359	0.0159425
627.437	0.0159729
627.515	0.0160332
627.593	0.0160491
627.671	0.0159282
627.749	0.0160503
627.828	0.0159917
627.906	0.0159293
627.984	0.0158213
628.062	0.0156232
628.140	0.0155153
628.218	0.0155684
628.296	0.0155415
628.374	0.0154292
628.453	0.0154028
628.531	0.0152980
628.609	0.0151957
628.687	0.0151399
628.765	0.0151051
628.843	0.0149830
628.921	0.0150156
628.999	0.0151247
629.078	0.0150030
629.156	0.0149163
629.234	0.0149950
629.312	0.0149740
629.390	0.0150837
629.468	0.0151461
629.546	0.0149332
629.624	0.0151489
629.703	0.0152064
629.781	0.0153564
629.859	0.0152789
629.937	0.0154901
630.015	0.0155321
630.093	0.0156155
630.171	0.0156458
630.249	0.0156447
630.328	0.0157206
630.406	0.0157894
630.484	0.0158225
630.562	0.0156588
630.640	0.0157499
630.718	0.0156909
630.796	0.0158227
630.874	0.0158459
630.953	0.0158836
631.031	0.0158538
631.109	0.0158626
631.187	0.0158417
631.265	0.0158649
631.343	0.0158222
631.421	0.0158012
631.499	0.0158514
631.578	0.0159321
631.656	0.0159118
631.734	0.0160669
631.812	0.0159092
631.890	0.0158214
631.968	0.0159106
632.046	0.0159193
632.124	0.0159175
632.203	0.0158979
632.281	0.0158113
632.359	0.0157041
632.437	0.0157007
632.515	0.0156857
632.593	0.0156936
632.671	0.0154720
632.749	0.0156518
632.828	0.0154913
632.906	0.0155164
632.984	0.0154620
633.062	0.0153303
633.140	0.0154308
633.218	0.0155193
633.296	0.0153275
633.374	0.0153465
633.453	0.0152441
633.531	0.0152066
633.609	0.0152352
633.687	0.0152926
633.765	0.0151230
633.843	0.0150379
633.921	0.0150969
633.999	0.0149535
634.078	0.0150388
634.156	0.0151707
634.234	0.0151212
634.312	0.0150716
634.390	0.0151190
634.468	0.0152644
634.546	0.0152393
634.624	0.0153120
634.703	0.0153744
634.781	0.0155785
634.859	0.0156076
634.937	0.0157581
635.015	0.0158177
635.093	0.0158581
635.171	0.0160456
635.249	0.0160719
635.328	0.0161027
635.406	0.0160035
635.484	0.0160568
635.562	0.0161900
635.640	0.0160420
635.718	0.0161599
635.796	0.0160755
635.874	0.0159029
635.953	0.0158897
636.031	0.0159596
636.109	0.0159081
636.187	0.0158715
636.265	0.0157482
636.343	0.0157491
636.421	0.0157519
636.499	0.0156543
636.578	0.0156069
636.656	0.0154956
636.734	0.0153420
636.812	0.0153781
636.890	0.0154131
636.968	0.0153136
637.046	0.0152424
637.124	0.0152401
637.203	0.0151847
637.281	0.0151672
637.359	0.0149309
637.437	0.0150845
637.515	0.0151463
637.593	0.0150986
637.671	0.0150748
637.749	0.0149458
637.828	0.0150224
637.906	0.0150149
637.984	0.0150961
638.062	0.0151406
638.140	0.0149851
638.218	0.0151334
638.296	0.0153252
638.374	0.0154006
638.453	0.0152695
638.531	0.0153789
638.609	0.0153342
638.687	0.0155193
638.765	0.0155228
638.843	0.0155547
638.921	0.0155612
638.999	0.0155728
639.078	0.0154906
639.156	0.0154916
639.234	0.0156667
639.312	0.0155774
639.390	0.0156432
639.468	0.0155820
639.546	0.0157117
639.624	0.0156261
639.703	0.0155974
639.781	0.0156800
639.859	0.0156732
639.937	0.0156667
640.015	0.0155848
640.093	0.0156826
640.171	0.0156957
640.249	0.0156486
640.328	0.0155988
640.406	0.0155962
640.484	0.0157082
640.562	0.0155686
640.640	0.0155506
640.718	0.0156331
640.796	0.0156036
640.874	0.0155817
640.953	0.0155965
641.031	0.0155441
641.109	0.0155286
641.187	0.0155354
641.265	0.0154956
641.343	0.0154439
641.421	0.0155177
641.499	0.0154039
641.578	0.0154516
641.656	0.0152744
641.734	0.0153352
641.812	0.0153848
641.890	0.0153156
641.968	0.0151754
642.046	0.0152002
642.124	0.0151901
642.203	0.0151098
642.281	0.0150986
642.359	0.0148782
642.437	0.0150666
642.515	0.0149947
642.593	0.0148923
642.671	0.0150153
642.749	0.0149564
642.828	0.0148745
642.906	0.0149820
642.984	0.0149770
643.062	0.0152065
643.140	0.0151983
643.218	0.0151440
643.296	0.0152852
643.374	0.0154383
643.453	0.0154551
643.531	0.0155994
643.609	0.0156822
643.687	0.0155644
643.765	0.0157767
643.843	0.0157998
643.921	0.0159119
643.999	0.0158472
644.078	0.0159385
644.156	0.0159747
644.234	0.0157436
644.312	0.0157682
644.390	0.0157938
644.468	0.0158403
644.546	0.0156852
644.624	0.0156401
644.703	0.0156131
644.781	0.0155292
644.859	0.0155505
644.937	0.0154392
645.015	0.0153992
645.093	0.0153995
645.171	0.0153983
645.249	0.0155216
645.328	0.0153490
645.406	0.0154411
645.484	0.0154198
645.562	0.0154144
645.640	0.0153735
645.718	0.0153577
645.796	0.0152846
645.874	0.0153355
645.953	0.0153896
646.031	0.0153850
646.109	0.0153931
646.187	0.0155501
646.265	0.0155804
646.343	0.0155132
646.421	0.0154742
646.499	0.0154987
646.578	0.0154037
646.656	0.0156084
646.734	0.0156181
646.812	0.0155235
646.890	0.0155791
646.968	0.0155620
647.046	0.0153210
647.124	0.0154712
647.203	0.0153860
647.281	0.0152340
647.359	0.0151136
647.437	0.0151701
647.515	0.0150774
647.593	0.0150362
647.671	0.0150180
647.749	0.0150046
647.828	0.0150539
647.906	0.0148884
647.984	0.0149886
648.062	0.0151047
648.140	0.0151189
648.218	0.0152064
648.296	0.0152427
648.374	0.0152912
648.453	0.0153590
648.531	0.0155471
648.609	0.0154679
648.687	0.0154756
648.765	0.0155999
648.843	0.0157108
648.921	0.0157096
648.999	0.0157466
649.078	0.0158430
649.156	0.0157672
649.234	0.0157809
649.312	0.0158123
649.390	0.0157761
649.468	0.0157076
649.546	0.0157793
649.624	0.0157963
649.703	0.0157988
649.781	0.0158804
649.859	0.0156477
649.937	0.0156114
650.015	0.0155850
650.093	0.0154921
650.171	0.0154958
650.249	0.0154896
650.328	0.0154691
650.406	0.0153656
650.484	0.0154356
650.562	0.0154327
650.640	0.0155104
650.718	0.0154301
650.796	0.0154993
650.874	0.0155291
650.953	0.0155887
651.031	0.0152886
651.109	0.0153533
651.187	0.0155887
651.265	0.0155609
651.343	0.0154266
651.421	0.0155351
651.499	0.0153930
651.578	0.0154276
651.656	0.0153208
651.734	0.0152179
651.812	0.0154224
651.890	0.0152840
651.968	0.0152480
652.046	0.0152132
652.124	0.0151219
652.203	0.0152451
652.281	0.0150225
652.359	0.0151213
652.437	0.0151199
652.515	0.0151601
652.593	0.0151414
652.671	0.0152001
652.749	0.0151744
652.828	0.0151052
652.906	0.0151427
652.984	0.0151880
653.062	0.0151424
653.140	0.0152013
653.218	0.0152662
653.296	0.0152870
653.374	0.0153494
653.453	0.0153651
653.531	0.0154348
653.609	0.0154304
653.687	0.0153790
653.765	0.0156364
653.843	0.0157427
653.921	0.0155819
653.999	0.0157193
654.078	0.0156471
654.156	0.0157158
654.234	0.0157660
654.312	0.0158456
654.390	0.0158263
654.468	0.0159424
654.546	0.0158688
654.624	0.0159276
654.703	0.0158737
654.781	0.0158450
654.859	0.0158571
654.937	0.0159737
655.015	0.0159193
655.093	0.0159570
655.171	0.0156784
655.249	0.0156618
655.328	0.0156658
655.406	0.0156450
655.484	0.0156284
655.562	0.0156253
655.640	0.0154929
655.718	0.0155634
655.796	0.0155373
655.874	0.0154199
655.953	0.0152486
656.031	0.0152902
656.109	0.0153363
656.187	0.0154311
656.265	0.0152113
656.343	0.0152537
656.421	0.0153143
656.499	0.0151616
656.578	0.0151821
656.656	0.0151028
656.734	0.0151051
656.812	0.0150804
656.890	0.0151617
656.968	0.0150637
657.046	0.0149645
657.124	0.0150808
657.203	0.0151036
657.281	0.0151572
657.359	0.0151201
657.437	0.0152001
657.515	0.0152402
657.593	0.0153164
657.671	0.0153440
657.749	0.0153632
657.828	0.0155362
657.906	0.0154956
657.984	0.0156610
658.062	0.0157620
658.140	0.0158424
658.218	0.0157760
658.296	0.0157836
658.374	0.0158216
658.453	0.0157759
658.531	0.0157372
658.609	0.0158955
658.687	0.0159163
658.765	0.0158614
658.843	0.0157619
658.921	0.0156448
658.999	0.0157925
659.078	0.0157446
659.156	0.0158617
659.234	0.0156142
659.312	0.0155959
659.390	0.0158112
659.468	0.0158143
659.546	0.0155988
659.624	0.0157516
659.703	0.0157590
659.781	0.0156867
659.859	0.0155929
659.937	0.0158018
660.015	0.0157571
660.093	0.0156178
660.171	0.0157596
660.249	0.0157953
660.328	0.0158137
660.406	0.0157028
660.484	0.0156981
660.562	0.0156487
660.640	0.0155250
660.718	0.0154774
660.796	0.0154292
660.874	0.0155234
660.953	0.0152931
661.031	0.0152538
661.109	0.0153779
661.187	0.0153856
661.265	0.0154002
661.343	0.0152966
661.421	0.0153328
661.499	0.0153217
661.578	0.0152650
661.656	0.0152402
661.734	0.0152423
661.812	0.0151532
661.890	0.0152094
661.968	0.0152468
662.046	0.0153015
662.124	0.0151672
662.203	0.0153569
662.281	0.0152014
662.359	0.0152327
662.437	0.0151077
662.515	0.0152213
662.593	0.0153917
662.671	0.0152190
662.749	0.0153735
662.828	0.0152517
662.906	0.0152658
662.984	0.0153640
663.062	0.0154588
663.140	0.0153617
663.218	0.0154243
663.296	0.0156252
663.374	0.0154751
663.453	0.0156078
663.531	0.0155558
663.609	0.0154434
663.687	0.0156116
663.765	0.0154366
663.843	0.0155640
663.921	0.0155647
663.999	0.0155644
664.078	0.0154059
664.156	0.0155619
664.234	0.0156136
664.312	0.0153868
664.390	0.0154915
664.468	0.0155991
664.546	0.0154270
664.624	0.0153467
664.703	0.0155363
664.781	0.0154674
664.859	0.0154960
664.937	0.0154485
665.015	0.0155862
665.093	0.0155746
665.171	0.0155948
665.249	0.0154982
665.328	0.0155785
665.406	0.0155650
665.484	0.0155295
665.562	0.0154789
665.640	0.0154282
665.718	0.0154522
665.796	0.0153631
665.874	0.0154633
665.953	0.0153307
666.031	0.0153582
666.109	0.0154388
666.187	0.0153403
666.265	0.0154101
666.343	0.0153303
666.421	0.0152000
666.499	0.0153056
666.578	0.0151597
666.656	0.0152808
666.734	0.0152917
666.812	0.0152331
666.890	0.0151595
666.968	0.0151413
667.046	0.0151546
667.124	0.0151090
667.203	0.0151788
667.281	0.0152351
667.359	0.0150687
667.437	0.0153066
667.515	0.0151062
667.593	0.0152029
667.671	0.0151949
667.749	0.0153533
667.828	0.0154191
667.906	0.0154205
667.984	0.0153110
668.062	0.0154554
668.140	0.0154971
668.218	0.0155077
668.296	0.0154588
668.374	0.0154858
668.453	0.0156225
668.531	0.0157246
668.609	0.0154208
668.687	0.0153365
668.765	0.0154498
668.843	0.0155200
668.921	0.0155855
668.999	0.0156125
669.078	0.0155825
669.156	0.0153886
669.234	0.0154970
669.312	0.0156959
669.390	0.0154793
669.468	0.0155224
669.546	0.0154951
669.624	0.0154852
669.703	0.0154916
669.781	0.0155258
669.859	0.0155805
669.937	0.0155875
670.015	0.0154579
670.093	0.0154709
670.171	0.0154179
670.249	0.0153886
670.328	0.0152523
670.406	0.0152781
670.484	0.0151964
670.562	0.0152721
670.640	0.0152513
670.718	0.0151854
670.796	0.0152968
670.874	0.0153120
670.953	0.0153786
671.031	0.0153487
671.109	0.0153569
671.187	0.0152941
671.265	0.0153597
671.343	0.0153198
671.421	0.0153884
671.499	0.0154391
671.578	0.0154716
671.656	0.0152736
671.734	0.0152466
671.812	0.0152934
671.890	0.0152095
671.968	0.0151296
672.046	0.0152459
672.124	0.0152453
672.203	0.0150861
672.281	0.0152379
672.359	0.0152697
672.437	0.0151900
672.515	0.0152919
672.593	0.0153681
672.671	0.0152576
672.749	0.0152867
672.828	0.0152553
672.906	0.0153780
672.984	0.0154427
673.062	0.0154967
673.140	0.0155166
673.218	0.0154999
673.296	0.0155173
673.374	0.0156595
673.453	0.0155059
673.531	0.0155307
673.609	0.0155206
673.687	0.0156322
673.765	0.0155573
673.843	0.0155268
673.921	0.0154686
673.999	0.0153704
674.078	0.0154102
674.156	0.0155338
674.234	0.0153539
674.312	0.0154130
674.390	0.0154337
674.468	0.0155247
674.546	0.0155126
674.624	0.0154150
674.703	0.0154748
674.781	0.0153587
674.859	0.0153273
674.937	0.0153413
675.015	0.0153075
675.093	0.0153604
675.171	0.0151810
675.249	0.0153294
675.328	0.0153918
675.406	0.0151569
675.484	0.0152524
675.562	0.0151508
675.640	0.0152580
675.718	0.0152099
675.796	0.0151861
675.874	0.0152192
675.953	0.0153119
676.031	0.0152928
676.109	0.0152735
676.187	0.0154082
676.265	0.0154546
676.343	0.0155259
676.421	0.0154267
676.499	0.0154658
676.578	0.0155554
676.656	0.0155836
676.734	0.0154874
676.812	0.0156055
676.890	0.0155086
676.968	0.0154416
677.046	0.0154420
677.124	0.0154808
677.203	0.0153735
677.281	0.0155083
677.359	0.0155162
677.437	0.0154375
677.515	0.0153678
677.593	0.0154075
677.671	0.0153737
677.749	0.0154282
677.828	0.0153418
677.906	0.0155196
677.984	0.0155529
678.062	0.0153616
678.140	0.0155059
678.218	0.0154144
678.296	0.0155527
678.374	0.0155024
678.453	0.0155848
678.531	0.0155554
678.609	0.0156168
678.687	0.0155558
678.765	0.0156741
678.843	0.0157324
678.921	0.0156718
678.999	0.0155910
679.078	0.0158648
679.156	0.0156881
679.234	0.0158073
679.312	0.0156339
679.390	0.0155455
679.468	0.0155241
679.546	0.0155846
679.624	0.0155179
679.703	0.0154399
679.781	0.0152666
679.859	0.0153683
679.937	0.0154115
680.015	0.0154651
680.093	0.0154175
680.171	0.0153193
680.249	0.0153181
680.328	0.0152269
680.406	0.0152170
680.484	0.0152065
680.562	0.0152604
680.640	0.0152883
680.718	0.0153436
680.796	0.0154242
680.874	0.0154514
680.953	0.0152805
681.031	0.0153109
681.109	0.0153460
681.187	0.0154646
681.265	0.0155181
681.343	0.0155083
681.421	0.0154804
681.499	0.0154782
681.578	0.0154128
681.656	0.0154379
681.734	0.0154163
681.812	0.0154646
681.890	0.0154536
681.968	0.0155244
682.046	0.0155551
682.124	0.0154142
682.203	0.0156169
682.281	0.0155892
682.359	0.0154803
682.437	0.0154983
682.515	0.0154756
682.593	0.0154816
682.671	0.0153892
682.749	0.0154826
682.828	0.0154678
682.906	0.0153223
682.984	0.0154461
683.062	0.0153675
683.140	0.0153859
683.218	0.0155340
683.296	0.0154622
683.374	0.0155033
683.453	0.0154356
683.531	0.0155814
683.609	0.0155432
683.687	0.0155882
683.765	0.0156522
683.843	0.0154337
683.921	0.0155631
683.999	0.0156931
684.078	0.0157635
684.156	0.0158322
684.234	0.0156587
684.312	0.0157511
684.390	0.0156907
684.468	0.0156155
684.546	0.0157787
684.624	0.0157137
684.703	0.0156979
684.781	0.0156224
684.859	0.0156044
684.937	0.0155299
685.015	0.0154163
685.093	0.0154448
685.171	0.0153468
685.249	0.0153936
685.328	0.0153545
685.406	0.0151746
685.484	0.0152162
685.562	0.0152330
685.640	0.0153444
685.718	0.0150843
685.796	0.0150294
685.874	0.0151990
685.953	0.0152541
686.031	0.0151820
686.109	0.0151661
686.187	0.0151410
686.265	0.0151682
686.343	0.0151914
686.421	0.0151381
686.499	0.0151684
686.578	0.0152454
686.656	0.0152705
686.734	0.0152931
686.812	0.0153937
686.890	0.0153658
686.968	0.0155009
687.046	0.0155360
687.124	0.0153846
687.203	0.0154633
687.281	0.0156062
687.359	0.0155131
687.437	0.0156374
687.515	0.0155921
687.593	0.0156841
687.671	0.0156876
687.749	0.0157269
687.828	0.0157881
687.906	0.0156444
687.984	0.0157280
688.062	0.0156831
688.140	0.0156020
688.218	0.0155967
688.296	0.0154524
688.374	0.0154678
688.453	0.0154164
688.531	0.0153467
688.609	0.0154012
688.687	0.0154604
688.765	0.0153616
688.843	0.0152789
688.921	0.0151247
688.999	0.0152295
689.078	0.0153943
689.156	0.0153363
689.234	0.0150589
689.312	0.0152193
689.390	0.0152644
689.468	0.0153668
689.546	0.0153799
689.624	0.0153934
689.703	0.0154283
689.781	0.0153658
689.859	0.0153425
689.937	0.0155850
690.015	0.0154462
690.093	0.0153490
690.171	0.0153885
690.249	0.0154760
690.328	0.0155930
690.406	0.0155418
690.484	0.0155311
690.562	0.0157729
690.640	0.0155856
690.718	0.0154792
690.796	0.0153954
690.874	0.0155867
690.953	0.0154687
691.031	0.0153990
691.109	0.0153909
691.187	0.0153455
691.265	0.0154132
691.343	0.0152973
691.421	0.0152612
691.499	0.0154021
691.578	0.0152924
691.656	0.0154487
691.734	0.0153291
691.812	0.0153673
691.890	0.0154727
691.968	0.0154088
692.046	0.0154658
692.124	0.0154835
692.203	0.0156226
692.281	0.0155908
692.359	0.0156156
692.437	0.0153970
692.515	0.0154725
692.593	0.0154840
692.671	0.0155781
692.749	0.0155447
692.828	0.0156709
692.906	0.0156018
692.984	0.0154482
693.062	0.0155577
693.140	0.0157484
693.218	0.0156107
693.296	0.0156734
693.374	0.0156219
693.453	0.0156853
693.531	0.0156239
693.609	0.0157419
693.687	0.0155791
693.765	0.0155413
693.843	0.0156347
693.921	0.0154694
693.999	0.0154490
694.078	0.0154423
694.156	0.0154461
694.234	0.0154005
694.312	0.0153585
694.390	0.0152616
694.468	0.0152294
694.546	0.0153584
694.624	0.0152965
694.703	0.0155205
694.781	0.0154323
694.859	0.0153634
694.937	0.0152505
695.015	0.0153194
695.093	0.0152517
695.171	0.0152712
695.249	0.0154126
695.328	0.0153511
695.406	0.0153397
695.484	0.0152837
695.562	0.0152681
695.640	0.0154604
695.718	0.0154181
695.796	0.0154066
695.874	0.0153399
695.953	0.0154327
696.031	0.0154929
696.109	0.0156270
696.187	0.0155271
696.265	0.0154237
696.343	0.0154757
696.421	0.0154933
696.499	0.0154765
696.578	0.0153992
696.656	0.0153632
696.734	0.0154757
696.812	0.0154164
696.890	0.0153938
696.968	0.0153718
697.046	0.0154165
697.124	0.0155319
697.203	0.0152859
697.281	0.0153630
697.359	0.0155002
697.437	0.0154613
697.515	0.0154537
697.593	0.0153174
697.671	0.0153484
697.749	0.0153205
697.828	0.0154733
697.906	0.0154352
697.984	0.0154305
698.062	0.0154491
698.140	0.0155280
698.218	0.0155161
698.296	0.0155248
698.374	0.0154789
698.453	0.0155128
698.531	0.0155505
698.609	0.0155958
698.687	0.0157240
698.765	0.0156068
698.843	0.0157240
698.921	0.0156946
698.999	0.0156062
699.078	0.0155631
699.156	0.0154345
699.234	0.0154881
699.312	0.0155161
699.390	0.0154640
699.468	0.0154561
699.546	0.0154092
699.624	0.0153481
699.703	0.0154501
699.781	0.0153248
699.859	0.0151826
699.937	0.0151308
700.015	0.0151981
700.093	0.0151909
700.171	0.0150903
700.249	0.0151479
700.328	0.0153700
700.406	0.0152289
700.484	0.0151329
700.562	0.0152293
700.640	0.0152745
700.718	0.0152386
700.796	0.0153856
700.874	0.0153008
700.953	0.0155326
701.031	0.0154676
701.109	0.0155283
701.187	0.0155756
701.265	0.0155157
701.343	0.0152905
701.421	0.0155138
701.499	0.0155759
701.578	0.0154054
701.656	0.0155986
701.734	0.0156842
701.812	0.0156700
701.890	0.0156470
701.968	0.0156184
702.046	0.0155276
702.124	0.0156461
702.203	0.0156931
702.281	0.0155429
702.359	0.0156116
702.437	0.0154932
702.515	0.0154226
702.593	0.0153910
702.671	0.0155482
702.749	0.0154482
702.828	0.0154427
702.906	0.0154026
702.984	0.0152993
703.062	0.0153136
703.140	0.0154869
703.218	0.0153403
703.296	0.0152550
703.374	0.0153348
703.453	0.0153246
703.531	0.0152323
703.609	0.0153484
703.687	0.0154474
703.765	0.0153509
703.843	0.0153806
703.921	0.0153345
703.999	0.0152615
704.078	0.0153732
704.156	0.0154222
704.234	0.0152847
704.312	0.0153683
704.390	0.0154769
704.468	0.0154068
704.546	0.0153844
704.624	0.0154397
704.703	0.0153459
704.781	0.0152412
704.859	0.0153599
704.937	0.0153696
705.015	0.0153307
705.093	0.0153728
705.171	0.0153013
705.249	0.0151980
705.328	0.0153173
705.406	0.0153867
705.484	0.0152467
705.562	0.0153149
705.640	0.0154619
705.718	0.0155362
705.796	0.0152808
705.874	0.0153677
705.953	0.0153658
706.031	0.0155908
706.109	0.0154187
706.187	0.0155521
706.265	0.0155247
706.343	0.0156413
706.421	0.0155996
706.499	0.0155315
706.578	0.0156753
706.656	0.0156495
706.734	0.0158209
706.812	0.0156979
706.890	0.0156238
706.968	0.0157363
707.046	0.0156567
707.124	0.0157232
707.203	0.0157465
707.281	0.0156797
707.359	0.0156603
707.437	0.0155968
707.515	0.0157362
707.593	0.0156625
707.671	0.0156567
707.749	0.0156893
707.828	0.0156457
707.906	0.0157375
707.984	0.0156165
708.062	0.0156022
708.140	0.0155622
708.218	0.0156016
708.296	0.0156899
708.374	0.0156130
708.453	0.0155935
708.531	0.0157449
708.609	0.0155775
708.687	0.0156431
708.765	0.0156385
708.843	0.0155139
708.921	0.0155354
708.999	0.0155890
709.078	0.0154881
709.156	0.0154951
709.234	0.0156026
709.312	0.0154456
709.390	0.0153582
709.468	0.0154575
709.546	0.0154427
709.624	0.0154189
709.703	0.0155703
709.781	0.0154353
709.859	0.0155725
709.937	0.0155296
710.015	0.0153717
710.093	0.0153458
710.171	0.0153970
710.249	0.0153817
710.328	0.0153860
710.406	0.0154449
710.484	0.0155354
710.562	0.0154287
710.640	0.0155836
710.718	0.0156762
710.796	0.0154577
710.874	0.0154350
710.953	0.0154637
711.031	0.0155676
711.109	0.0157318
711.187	0.0155496
711.265	0.0155546
711.343	0.0154758
711.421	0.0154739
711.499	0.0155590
711.578	0.0155265
711.656	0.0154940
711.734	0.0153911
711.812	0.0156185
711.890	0.0155758
711.968	0.0156412
712.046	0.0155735
712.124	0.0155921
712.203	0.0155479
712.281	0.0153652
712.359	0.0155475
712.437	0.0155267
712.515	0.0154903
712.593	0.0154257
712.671	0.0154687
712.749	0.0154547
712.828	0.0155411
712.906	0.0155744
712.984	0.0154551
713.062	0.0153559
713.140	0.0153116
713.218	0.0153783
713.296	0.0153246
713.374	0.0154299
713.453	0.0153983
713.531	0.0154228
713.609	0.0153601
713.687	0.0153706
713.765	0.0155657
713.843	0.0156047
713.921	0.0154651
713.999	0.0154573
714.078	0.0155416
714.156	0.0156032
714.234	0.0155193
714.312	0.0154085
714.390	0.0154115
714.468	0.0154626
714.546	0.0154009
714.624	0.0154841
714.703	0.0153893
714.781	0.0155147
714.859	0.0154478
714.937	0.0154244
715.015	0.0154015
715.093	0.0154534
715.171	0.0155041
715.249	0.0155715
715.328	0.0154678
715.406	0.0154404
715.484	0.0156311
715.562	0.0155269
715.640	0.0155318
715.718	0.0154568
715.796	0.0155117
715.874	0.0155635
715.953	0.0157581
716.031	0.0155868
716.109	0.0154173
716.187	0.0155437
716.265	0.0154016
716.343	0.0155828
716.421	0.0155627
716.499	0.0154896
716.578	0.0155373
716.656	0.0154778
716.734	0.0155792
716.812	0.0153821
716.890	0.0154389
716.968	0.0156682
717.046	0.0155126
717.124	0.0153385
717.203	0.0153381
717.281	0.0153659
717.359	0.0152508
717.437	0.0154804
717.515	0.0154974
717.593	0.0154504
717.671	0.0154251
717.749	0.0153632
717.828	0.0153262
717.906	0.0154771
717.984	0.0155782
718.062	0.0154546
718.140	0.0154648
718.218	0.0155129
718.296	0.0156152
718.374	0.0154653
718.453	0.0155621
718.531	0.0155860
718.609	0.0154361
718.687	0.0155148
718.765	0.0154803
718.843	0.0152358
718.921	0.0154202
718.999	0.0154361
719.078	0.0152721
719.156	0.0153226
719.234	0.0152743
719.312	0.0153503
719.390	0.0154076
719.468	0.0153896
719.546	0.0152770
719.624	0.0153982
719.703	0.0154016
719.781	0.0152436
719.859	0.0154762
719.937	0.0154087
720.015	0.0155000
720.093	0.0157014
720.171	0.0154922
720.249	0.0156312
720.328	0.0155479
720.406	0.0155904
720.484	0.0154882
720.562	0.0155907
720.640	0.0156195
720.718	0.0155336
720.796	0.0155417
720.874	0.0155891
720.953	0.0154662
721.031	0.0156193
721.109	0.0155346
721.187	0.0153551
721.265	0.0155327
721.343	0.0154931
721.421	0.0153068
721.499	0.0154768
721.578	0.0156120
721.656	0.0154448
721.734	0.0153166
721.812	0.0154383
721.890	0.0153387
721.968	0.0152837
722.046	0.0152490
722.124	0.0152357
722.203	0.0154198
722.281	0.0152683
722.359	0.0153882
722.437	0.0153467
722.515	0.0153713
722.593	0.0155553
722.671	0.0152663
722.749	0.0154046
722.828	0.0154089
722.906	0.0154565
722.984	0.0154389
723.062	0.0155037
723.140	0.0155629
723.218	0.0154108
723.296	0.0154485
723.374	0.0155392
723.453	0.0155298
723.531	0.0154159
723.609	0.0155040
723.687	0.0156303
723.765	0.0156610
723.843	0.0157000
723.921	0.0155483
723.999	0.0154438
724.078	0.0154211
724.156	0.0155126
724.234	0.0154978
724.312	0.0153930
724.390	0.0153981
724.468	0.0153808
724.546	0.0154706
724.624	0.0153920
724.703	0.0154254
724.781	0.0153197
724.859	0.0154967
724.937	0.0155757
725.015	0.0154297
725.093	0.0157092
725.171	0.0156805
725.249	0.0154135
725.328	0.0155154
725.406	0.0154251
725.484	0.0154955
725.562	0.0155638
725.640	0.0155352
725.718	0.0155254
725.796	0.0154020
725.874	0.0155186
725.953	0.0154749
726.031	0.0153934
726.109	0.0155910
726.187	0.0154795
726.265	0.0153564
726.343	0.0155526
726.421	0.0155042
726.499	0.0154430
726.578	0.0154140
726.656	0.0155775
726.734	0.0153413
726.812	0.0154614
726.890	0.0154988
726.968	0.0154726
727.046	0.0154234
727.124	0.0156997
727.203	0.0154874
727.281	0.0154939
727.359	0.0154575
727.437	0.0154182
727.515	0.0155061
727.593	0.0154154
727.671	0.0154964
727.749	0.0154734
727.828	0.0154720
727.906	0.0155393
727.984	0.0153989
728.062	0.0155170
728.140	0.0155254
728.218	0.0155525
728.296	0.0155378
728.374	0.0154674
728.453	0.0155225
728.531	0.0156116
728.609	0.0155905
728.687	0.0154715
728.765	0.0156372
728.843	0.0156781
728.921	0.0156560
728.999	0.0155749
729.078	0.0155417
729.156	0.0156426
729.234	0.0155231
729.312	0.0154613
729.390	0.0155209
729.468	0.0155804
729.546	0.0156063
729.624	0.0154714
729.703	0.0153700
729.781	0.0155388
729.859	0.0154516
729.937	0.0152987
730.015	0.0155384
730.093	0.0154879
730.171	0.0154274
730.249	0.0154024
730.328	0.0154618
730.406	0.0155775
730.484	0.0155954
730.562	0.0154259
730.640	0.0155547
730.718	0.0155581
730.796	0.0156104
730.874	0.0155504
730.953	0.0155095
731.031	0.0156039
731.109	0.0157582
731.187	0.0156918
731.265	0.0155386
731.343	0.0154744
731.421	0.0155088
731.499	0.0157664
731.578	0.0155737
731.656	0.0155811
731.734	0.0155815
731.812	0.0154592
731.890	0.0155463
731.968	0.0156179
732.046	0.0154243
732.124	0.0155610
732.203	0.0157063
732.281	0.0154771
732.359	0.0155589
732.437	0.0155820
732.515	0.0157069
732.593	0.0155153
732.671	0.0155522
732.749	0.0155614
732.828	0.0155901
732.906	0.0157382
732.984	0.0156824
733.062	0.0155447
733.140	0.0156019
733.218	0.0157156
733.296	0.0156531
733.374	0.0155634
733.453	0.0156113
733.531	0.0155875
733.609	0.0155919
733.687	0.0155370
733.765	0.0156264
733.843	0.0157317
733.921	0.0154733
733.999	0.0155027
734.078	0.0154765
734.156	0.0155251
734.234	0.0155215
734.312	0.0153990
734.390	0.0154591
734.468	0.0154200
734.546	0.0154589
734.624	0.0154005
734.703	0.0153802
734.781	0.0152945
734.859	0.0151685
734.937	0.0153475
735.015	0.0153278
735.093	0.0153599
735.171	0.0154736
735.249	0.0153902
735.328	0.0153395
735.406	0.0155923
735.484	0.0154823
735.562	0.0154780
735.640	0.0153866
735.718	0.0153776
735.796	0.0154718
735.874	0.0154680
735.953	0.0155739
736.031	0.0154966
736.109	0.0154231
736.187	0.0155943
736.265	0.0154780
736.343	0.0156152
736.421	0.0154962
736.499	0.0154401
736.578	0.0154630
736.656	0.0155441
736.734	0.0153946
736.812	0.0153306
736.890	0.0153599
736.968	0.0154660
737.046	0.0154672
737.124	0.0154288
737.203	0.0154433
737.281	0.0155008
737.359	0.0154250
737.437	0.0154865
737.515	0.0153978
737.593	0.0154404
737.671	0.0154964
737.749	0.0153992
737.828	0.0154755
737.906	0.0154560
737.984	0.0153979
738.062	0.0154749
738.140	0.0154204
738.218	0.0153571
738.296	0.0153652
738.374	0.0153419
738.453	0.0153553
738.531	0.0152135
738.609	0.0151585
738.687	0.0151611
738.765	0.0153021
738.843	0.0152529
738.921	0.0152174
738.999	0.0151575
739.078	0.0152552
739.156	0.0151550
739.234	0.0152612
739.312	0.0153021
739.390	0.0152003
739.468	0.0151806
739.546	0.0152995
739.624	0.0153033
739.703	0.0151287
739.781	0.0152692
739.859	0.0153526
739.937	0.0152967
740.015	0.0153367
740.093	0.0155196
740.171	0.0153416
740.249	0.0153610
740.328	0.0154176
740.406	0.0154463
740.484	0.0152570
740.562	0.0154894
740.640	0.0155918
740.718	0.0154696
740.796	0.0153498
740.874	0.0154085
740.953	0.0153495
741.031	0.0153815
741.109	0.0154680
741.187	0.0152928
741.265	0.0153049
741.343	0.0155534
741.421	0.0154125
741.499	0.0153636
741.578	0.0155457
741.656	0.0153788
741.734	0.0154257
741.812	0.0154568
741.890	0.0155117
741.968	0.0154542
742.046	0.0154166
742.124	0.0154684
742.203	0.0154163
742.281	0.0154240
742.359	0.0153783
742.437	0.0153923
742.515	0.0155351
742.593	0.0154587
742.671	0.0155946
742.749	0.0154382
742.828	0.0154916
742.906	0.0155342
742.984	0.0154015
743.062	0.0154681
743.140	0.0154157
743.218	0.0153706
743.296	0.0155084
743.374	0.0154854
743.453	0.0154077
743.531	0.0153508
743.609	0.0153665
743.687	0.0154041
743.765	0.0151957
743.843	0.0152796
743.921	0.0152903
743.999	0.0152317
744.078	0.0152999
744.156	0.0154289
744.234	0.0152619
744.312	0.0152593
744.390	0.0154211
744.468	0.0155037
744.546	0.0154386
744.624	0.0152989
744.703	0.0154212
744.781	0.0154664
744.859	0.0154830
744.937	0.0153401
745.015	0.0153152
745.093	0.0155450
745.171	0.0155917
745.249	0.0154982
745.328	0.0155908
745.406	0.0154395
745.484	0.0154976
745.562	0.0153878
745.640	0.0155687
745.718	0.0156509
745.796	0.0155462
745.874	0.0155074
745.953	0.0154807
746.031	0.0154153
746.109	0.0153429
746.187	0.0155222
746.265	0.0153897
746.343	0.0152334
746.421	0.0154195
746.499	0.0153471
746.578	0.0153883
746.656	0.0154845
746.734	0.0154881
746.812	0.0153468
746.890	0.0154416
746.968	0.0155595
747.046	0.0155239
747.124	0.0154512
747.203	0.0154211
747.281	0.0154278
747.359	0.0155263
747.437	0.0155649
747.515	0.0155593
747.593	0.0156519
747.671	0.0155489
747.749	0.0155847
747.828	0.0156223
747.906	0.0154742
747.984	0.0155522
748.062	0.0155252
748.140	0.0153176
748.218	0.0154472
748.296	0.0154845
748.374	0.0155140
748.453	0.0155341
748.531	0.0154597
748.609	0.0154559
748.687	0.0154623
748.765	0.0154340
748.843	0.0155634
748.921	0.0154215
748.999	0.0155028
749.078	0.0154549
749.156	0.0152519
749.234	0.0154741
749.312	0.0155717
749.390	0.0154678
749.468	0.0154790
749.546	0.0155895
749.624	0.0155202
749.703	0.0156391
749.781	0.0155647
749.859	0.0154371
749.937	0.0154272
750.015	0.0155703
750.093	0.0155833
750.171	0.0154397
750.249	0.0154789
750.328	0.0155136
750.406	0.0155604
750.484	0.0154289
750.562	0.0153710
750.640	0.0154926
750.718	0.0155860
750.796	0.0156990
750.874	0.0154958
750.953	0.0154971
751.031	0.0155471
751.109	0.0154912
751.187	0.0154375
751.265	0.0155915
751.343	0.0154074
751.421	0.0155531
751.499	0.0154580
751.578	0.0155000
751.656	0.0154629
751.734	0.0154076
751.812	0.0154398
751.890	0.0154598
751.968	0.0155129
752.046	0.0154752
752.124	0.0153668
752.203	0.0154586
752.281	0.0155860
752.359	0.0155195
752.437	0.0155936
752.515	0.0156712
752.593	0.0155737
752.671	0.0154362
752.749	0.0153991
752.828	0.0155492
752.906	0.0154777
752.984	0.0154498
753.062	0.0154881
753.140	0.0154596
753.218	0.0153946
753.296	0.0153954
753.374	0.0153317
753.453	0.0154142
753.531	0.0155648
753.609	0.0154298
753.687	0.0153539
753.765	0.0153467
753.843	0.0153461
753.921	0.0153268
753.999	0.0153243
754.078	0.0152302
754.156	0.0152054
754.234	0.0152839
754.312	0.0153889
754.390	0.0153066
754.468	0.0152581
754.546	0.0153577
754.624	0.0153818
754.703	0.0153021
754.781	0.0154302
754.859	0.0155610
754.937	0.0153938
755.015	0.0154226
755.093	0.0153012
755.171	0.0154754
755.249	0.0154143
755.328	0.0153867
755.406	0.0153384
755.484	0.0154933
755.562	0.0154942
755.640	0.0154301
755.718	0.0154972
755.796	0.0153558
755.874	0.0154215
755.953	0.0154254
756.031	0.0154464
756.109	0.0154790
756.187	0.0154951
756.265	0.0154034
756.343	0.0153076
756.421	0.0153425
756.499	0.0154387
756.578	0.0153762
756.656	0.0153973
756.734	0.0153947
756.812	0.0153990
756.890	0.0151894
756.968	0.0154043
757.046	0.0153887
757.124	0.0151928
757.203	0.0153798
757.281	0.0154607
757.359	0.0153538
757.437	0.0154067
757.515	0.0152966
757.593	0.0153688
757.671	0.0154796
757.749	0.0154407
757.828	0.0152153
757.906	0.0152425
757.984	0.0153351
758.062	0.0153426
758.140	0.0153184
758.218	0.0152599
758.296	0.0152322
758.374	0.0154724
758.453	0.0154105
758.531	0.0151836
758.609	0.0153422
758.687	0.0152901
758.765	0.0152146
758.843	0.0151336
758.921	0.0152255
758.999	0.0153896
759.078	0.0152306
759.156	0.0153303
759.234	0.0150990
759.312	0.0151820
759.390	0.0153436
759.468	0.0151693
759.546	0.0152545
759.624	0.0152974
759.703	0.0152812
759.781	0.0152898
759.859	0.0153356
759.937	0.0151159
760.015	0.0152144
760.093	0.0153251
760.171	0.0154795
760.249	0.0153773
760.328	0.0153670
760.406	0.0153278
760.484	0.0151855
760.562	0.0152792
760.640	0.0153941
760.718	0.0153201
760.796	0.0151624
760.874	0.0154544
760.953	0.0156168
761.031	0.0155134
761.109	0.0154405
761.187	0.0152146
761.265	0.0154874
761.343	0.0154427
761.421	0.0153601
761.499	0.0152325
761.578	0.0154205
761.656	0.0153789
761.734	0.0152988
761.812	0.0152542
761.890	0.0153005
761.968	0.0153428
762.046	0.0153120
762.124	0.0153004
762.203	0.0153611
762.281	0.0153889
762.359	0.0153204
762.437	0.0154274
762.515	0.0154762
762.593	0.0153368
762.671	0.0154338
762.749	0.0154533
762.828	0.0155341
762.906	0.0153729
762.984	0.0153542
763.062	0.0153696
763.140	0.0154900
763.218	0.0154557
763.296	0.0154138
763.374	0.0153846
763.453	0.0155273
763.531	0.0155102
763.609	0.0154689
763.687	0.0154408
763.765	0.0154445
763.843	0.0155056
763.921	0.0154891
763.999	0.0154755
764.078	0.0154479
764.156	0.0154557
764.234	0.0155753
764.312	0.0154333
764.390	0.0154839
764.468	0.0155733
764.546	0.0154121
764.624	0.0155386
764.703	0.0154435
764.781	0.0153949
764.859	0.0154919
764.937	0.0156326
765.015	0.0154991
765.093	0.0155032
765.171	0.0155853
765.249	0.0155406
765.328	0.0155154
765.406	0.0156049
765.484	0.0154330
765.562	0.0154842
765.640	0.0154745
765.718	0.0154924
765.796	0.0156660
765.874	0.0156503
765.953	0.0155530
766.031	0.0157229
766.109	0.0157246
766.187	0.0155858
766.265	0.0154553
766.343	0.0156640
766.421	0.0155917
766.499	0.0157881
766.578	0.0156162
766.656	0.0157258
766.734	0.0157776
766.812	0.0156617
766.890	0.0155321
766.968	0.0155695
767.046	0.0155818
767.124	0.0155379
767.203	0.0155527
767.281	0.0156581
767.359	0.0156260
767.437	0.0155222
767.515	0.0155175
767.593	0.0154007
767.671	0.0154753
767.749	0.0154060
767.828	0.0154697
767.906	0.0155496
767.984	0.0155151
768.062	0.0155652
768.140	0.0155014
768.218	0.0154462
768.296	0.0154929
768.374	0.0154777
768.453	0.0154929
768.531	0.0154465
768.609	0.0155688
768.687	0.0155964
768.765	0.0155702
768.843	0.0155732
768.921	0.0155957
768.999	0.0155699
769.078	0.0156377
769.156	0.0154587
769.234	0.0155312
769.312	0.0156258
769.390	0.0155112
769.468	0.0154591
769.546	0.0154879
769.624	0.0153554
769.703	0.0154908
769.781	0.0155363
769.859	0.0154875
769.937	0.0156179
770.015	0.0154052
770.093	0.0154954
770.171	0.0153728
770.249	0.0153719
770.328	0.0153180
770.406	0.0155180
770.484	0.0154413
770.562	0.0155164
770.640	0.0154018
770.718	0.0155585
770.796	0.0155998
770.874	0.0154952
770.953	0.0155142
771.031	0.0155749
771.109	0.0154687
771.187	0.0156039
771.265	0.0154854
771.343	0.0154253
771.421	0.0155373
771.499	0.0155065
771.578	0.0155617
771.656	0.0154965
771.734	0.0154677
771.812	0.0155388
771.890	0.0156592
771.968	0.0155316
772.046	0.0154469
772.124	0.0153543
772.203	0.0155193
772.281	0.0154278
772.359	0.0153768
772.437	0.0154825
772.515	0.0155222
772.593	0.0154747
772.671	0.0154955
772.749	0.0155027
772.828	0.0155192
772.906	0.0154600
772.984	0.0155318
773.062	0.0155055
773.140	0.0154563
773.218	0.0155450
773.296	0.0154928
773.374	0.0153837
773.453	0.0152886
773.531	0.0154799
773.609	0.0153839
773.687	0.0155180
773.765	0.0155252
773.843	0.0154651
773.921	0.0152956
773.999	0.0154311
774.078	0.0154471
774.156	0.0153969
774.234	0.0153964
774.312	0.0154694
774.390	0.0154168
774.468	0.0155772
774.546	0.0154443
774.624	0.0156416
774.703	0.0156389
774.781	0.0154836
774.859	0.0155853
774.937	0.0154782
775.015	0.0152748
775.093	0.0155571
775.171	0.0155336
775.249	0.0154447
775.328	0.0154079
775.406	0.0153800
775.484	0.0152823
775.562	0.0152465
775.640	0.0153199
775.718	0.0153681
775.796	0.0152477
775.874	0.0152342
775.953	0.0153167
776.031	0.0154121
776.109	0.0152516
776.187	0.0153513
776.265	0.0154488
776.343	0.0153675
776.421	0.0154388
776.499	0.0152903
776.578	0.0155331
776.656	0.0155524
776.734	0.0154243
776.812	0.0153574
776.890	0.0154922
776.968	0.0153661
777.046	0.0153148
777.124	0.0154359
777.203	0.0152898
777.281	0.0153725
777.359	0.0154905
777.437	0.0151562
777.515	0.0154366
777.593	0.0153616
777.671	0.0153870
777.749	0.0154058
777.828	0.0153654
777.906	0.0153775
777.984	0.0152896
778.062	0.0154840
778.140	0.0153310
778.218	0.0154246
778.296	0.0153873
778.374	0.0154711
778.453	0.0154200
778.531	0.0154504
778.609	0.0153999
778.687	0.0153625
778.765	0.0153326
778.843	0.0154372
778.921	0.0155054
778.999	0.0152756
779.078	0.0152011
779.156	0.0151885
779.234	0.0154267
779.312	0.0152058
779.390	0.0153123
779.468	0.0154307
779.546	0.0153132
779.624	0.0151845
779.703	0.0153386
779.781	0.0153722
779.859	0.0152513
779.937	0.0154411
780.015	0.0155156
780.093	0.0154502
780.171	0.0153408
780.249	0.0154148
780.328	0.0154025
780.406	0.0153725
780.484	0.0153387
780.562	0.0153970
780.640	0.0152339
780.718	0.0152048
780.796	0.0152044
780.874	0.0153154
780.953	0.0152296
781.031	0.0152600
781.109	0.0151411
781.187	0.0152148
781.265	0.0153331
781.343	0.0152681
781.421	0.0154235
781.499	0.0154190
781.578	0.0154186
781.656	0.0154293
781.734	0.0154205
781.812	0.0155194
781.890	0.0154575
781.968	0.0154482
782.046	0.0153399
782.124	0.0153499
782.203	0.0154199
782.281	0.0153233
782.359	0.0152662
782.437	0.0153751
782.515	0.0152863
782.593	0.0152895
782.671	0.0150579
782.749	0.0150751
782.828	0.0151944
782.906	0.0152573
782.984	0.0151651
783.062	0.0151326
783.140	0.0152779
783.218	0.0152800
783.296	0.0153688
783.374	0.0154731
783.453	0.0155040
783.531	0.0155553
783.609	0.0154579
783.687	0.0156167
783.765	0.0155299
783.843	0.0155708
783.921	0.0155624
783.999	0.0154601
784.078	0.0155968
784.156	0.0155373
784.234	0.0154748
784.312	0.0153835
784.390	0.0153164
784.468	0.0151746
784.546	0.0154133
784.624	0.0152997
784.703	0.0153511
784.781	0.0152536
784.859	0.0152493
784.937	0.0153569
785.015	0.0153020
785.093	0.0151175
785.171	0.0153947
785.249	0.0152850
785.328	0.0152744
785.406	0.0153271
785.484	0.0152641
785.562	0.0153217
785.640	0.0153433
785.718	0.0153894
785.796	0.0153191
785.874	0.0152630
785.953	0.0153384
786.031	0.0154179
786.109	0.0152725
786.187	0.0153944
786.265	0.0152554
786.343	0.0153253
786.421	0.0153248
786.499	0.0152191
786.578	0.0153236
786.656	0.0153832
786.734	0.0151917
786.812	0.0154145
786.890	0.0154211
786.968	0.0152834
787.046	0.0153222
787.124	0.0152940
787.203	0.0153484
787.281	0.0154323
787.359	0.0152867
787.437	0.0152372
787.515	0.0155143
787.593	0.0154307
787.671	0.0152471
787.749	0.0153963
787.828	0.0154632
787.906	0.0154499
787.984	0.0153159
788.062	0.0153540
788.140	0.0154197
788.218	0.0154753
788.296	0.0153780
788.374	0.0153616
788.453	0.0154311
788.531	0.0155211
788.609	0.0155254
788.687	0.0153281
788.765	0.0155444
788.843	0.0154228
788.921	0.0154603
788.999	0.0155762
789.078	0.0155428
789.156	0.0155683
789.234	0.0154809
789.312	0.0154411
789.390	0.0154338
789.468	0.0155642
789.546	0.0153962
789.624	0.0155672
789.703	0.0154168
789.781	0.0153191
789.859	0.0154236
789.937	0.0154414
790.015	0.0153828
790.093	0.0154269
790.171	0.0154823
790.249	0.0153898
790.328	0.0155767
790.406	0.0153701
790.484	0.0155249
790.562	0.0155267
790.640	0.0155305
790.718	0.0154588
790.796	0.0155606
790.874	0.0154355
790.953	0.0154760
791.031	0.0155392
791.109	0.0154327
791.187	0.0155850
791.265	0.0155721
791.343	0.0154928
791.421	0.0155416
791.499	0.0155365
791.578	0.0155242
791.656	0.0156783
791.734	0.0155360
791.812	0.0155552
791.890	0.0157147
791.968	0.0155589
792.046	0.0156401
792.124	0.0155689
792.203	0.0155014
792.281	0.0156166
792.359	0.0155904
792.437	0.0155507
792.515	0.0155187
792.593	0.0156656
792.671	0.0155673
792.749	0.0154130
792.828	0.0154904
792.906	0.0155150
792.984	0.0153970
793.062	0.0153977
793.140	0.0153957
793.218	0.0154195
793.296	0.0152570
793.374	0.0154073
793.453	0.0155108
793.531	0.0156454
793.609	0.0155791
793.687	0.0154385
793.765	0.0154792
793.843	0.0154469
793.921	0.0154678
793.999	0.0155431
794.078	0.0156897
794.156	0.0155785
794.234	0.0155965
794.312	0.0155738
794.390	0.0155624
794.468	0.0156021
794.546	0.0155764
794.624	0.0156091
794.703	0.0157621
794.781	0.0155693
794.859	0.0155357
794.937	0.0155701
795.015	0.0156621
795.093	0.0156126
795.171	0.0155602
795.249	0.0154665
795.328	0.0154833
795.406	0.0155573
795.484	0.0155476
795.562	0.0154199
795.640	0.0156740
795.718	0.0155469
795.796	0.0154919
795.874	0.0154574
795.953	0.0155482
796.031	0.0154361
796.109	0.0154450
796.187	0.0154472
796.265	0.0154703
796.343	0.0155595
796.421	0.0154765
796.499	0.0153475
796.578	0.0155421
796.656	0.0154384
796.734	0.0154704
796.812	0.0155052
796.890	0.0154671
796.968	0.0153906
797.046	0.0153857
797.124	0.0153947
797.203	0.0154358
797.281	0.0154979
797.359	0.0154394
797.437	0.0154911
797.515	0.0154356
797.593	0.0154638
797.671	0.0154372
797.749	0.0153683
797.828	0.0154491
797.906	0.0154305
797.984	0.0152821
798.062	0.0153226
798.140	0.0154964
798.218	0.0154310
798.296	0.0153764
798.374	0.0153054
798.453	0.0154462
798.531	0.0153734
798.609	0.0153180
798.687	0.0153580
798.765	0.0153695
798.843	0.0152804
798.921	0.0153635
798.999	0.0153796
799.078	0.0152963
799.156	0.0154261
799.234	0.0154431
799.312	0.0154866
799.390	0.0154912
799.468	0.0155495
799.546	0.0154378
799.624	0.0155422
799.703	0.0155703
799.781	0.0154950
799.859	0.0154722
799.937	0.0154882
800.015	0.0154974
800.093	0.0154906
800.171	0.0156632
800.249	0.0155414
800.328	0.0155247
800.406	0.0154468
800.484	0.0154987
800.562	0.0153932
800.640	0.0155244
800.718	0.0153557
800.796	0.0155145
800.874	0.0153371
800.953	0.0154702
801.031	0.0154639
801.109	0.0155510
801.187	0.0154781
801.265	0.0154218
801.343	0.0154703
801.421	0.0155153
801.499	0.0155462
801.578	0.0155613
801.656	0.0153909
801.734	0.0153958
801.812	0.0154656
801.890	0.0154371
801.968	0.0154266
802.046	0.0153664
802.124	0.0154190
802.203	0.0154737
802.281	0.0153631
802.359	0.0152707
802.437	0.0155814
802.515	0.0154724
802.593	0.0153529
802.671	0.0154229
802.749	0.0155061
802.828	0.0155631
802.906	0.0153913
802.984	0.0154403
803.062	0.0155513
803.140	0.0155954
803.218	0.0154471
803.296	0.0154285
803.374	0.0155802
803.453	0.0155519
803.531	0.0154576
803.609	0.0153994
803.687	0.0154408
803.765	0.0154365
803.843	0.0154698
803.921	0.0155274
803.999	0.0153801
804.078	0.0153104
804.156	0.0154211
804.234	0.0155470
804.312	0.0153861
804.390	0.0153686
804.468	0.0154464
804.546	0.0154243
804.624	0.0154097
804.703	0.0156136
804.781	0.0154337
804.859	0.0153132
804.937	0.0153311
805.015	0.0154369
805.093	0.0153957
805.171	0.0153322
805.249	0.0153506
805.328	0.0153350
805.406	0.0152847
805.484	0.0153207
805.562	0.0154147
805.640	0.0153918
805.718	0.0153255
805.796	0.0152597
805.874	0.0153300
805.953	0.0154117
806.031	0.0153709
806.109	0.0155743
806.187	0.0153827
806.265	0.0154667
806.343	0.0153718
806.421	0.0153529
806.499	0.0154252
806.578	0.0154739
806.656	0.0155641
806.734	0.0154456
806.812	0.0154604
806.890	0.0154064
806.968	0.0153699
807.046	0.0154894
807.124	0.0154079
807.203	0.0155472
807.281	0.0153216
807.359	0.0152605
807.437	0.0153404
807.515	0.0153452
807.593	0.0152718
807.671	0.0153490
807.749	0.0152290
807.828	0.0153292
807.906	0.0154197
807.984	0.0153828
808.062	0.0152869
808.140	0.0154131
808.218	0.0153759
808.296	0.0153268
808.374	0.0154607
808.453	0.0153619
808.531	0.0153179
808.609	0.0152872
808.687	0.0153429
808.765	0.0154802
808.843	0.0153362
808.921	0.0153326
808.999	0.0153965
809.078	0.0153056
809.156	0.0153224
809.234	0.0154832
809.312	0.0153445
809.390	0.0153663
809.468	0.0153293
809.546	0.0152804
809.624	0.0153603
809.703	0.0154380
809.781	0.0152795
809.859	0.0153268
809.937	0.0152932
810.015	0.0152695
810.093	0.0153131
810.171	0.0152747
810.249	0.0153554
810.328	0.0153034
810.406	0.0154066
810.484	0.0154371
810.562	0.0153687
810.640	0.0154435
810.718	0.0154824
810.796	0.0153680
810.874	0.0154688
810.953	0.0154298
811.031	0.0153988
811.109	0.0155045
811.187	0.0153680
811.265	0.0152932
811.343	0.0154178
811.421	0.0155587
811.499	0.0155451
811.578	0.0154050
811.656	0.0153567
811.734	0.0155106
811.812	0.0155934
811.890	0.0155342
811.968	0.0154288
812.046	0.0154926
812.124	0.0155430
812.203	0.0155441
812.281	0.0155527
812.359	0.0155705
812.437	0.0155967
812.515	0.0155108
812.593	0.0155439
812.671	0.0156292
812.749	0.0155347
812.828	0.0155440
812.906	0.0154245
812.984	0.0154980
813.062	0.0155919
813.140	0.0154774
813.218	0.0154704
813.296	0.0154750
813.374	0.0154179
813.453	0.0154242
813.531	0.0155501
813.609	0.0154449
813.687	0.0154697
813.765	0.0155826
813.843	0.0154565
813.921	0.0155143
813.999	0.0155474
814.078	0.0156092
814.156	0.0154131
814.234	0.0155101
814.312	0.0156299
814.390	0.0155730
814.468	0.0155348
814.546	0.0154516
814.624	0.0155075
814.703	0.0153664
814.781	0.0155240
814.859	0.0154051
814.937	0.0154501
815.015	0.0155366
815.093	0.0153758
815.171	0.0155778
815.249	0.0154955
815.328	0.0155018
815.406	0.0155775
815.484	0.0155064
815.562	0.0154932
815.640	0.0154700
815.718	0.0154923
815.796	0.0155364
815.874	0.0156118
815.953	0.0156312
816.031	0.0155496
816.109	0.0155696
816.187	0.0156052
816.265	0.0154578
816.343	0.0154539
816.421	0.0154588
816.499	0.0154733
816.578	0.0155779
816.656	0.0154346
816.734	0.0153948
816.812	0.0153742
816.890	0.0154477
816.968	0.0155980
817.046	0.0154697
817.124	0.0155155
817.203	0.0155715
817.281	0.0156117
817.359	0.0155866
817.437	0.0155341
817.515	0.0156444
817.593	0.0155210
817.671	0.0156471
817.749	0.0154833
817.828	0.0155608
817.906	0.0155796
817.984	0.0156092
818.062	0.0155293
818.140	0.0155444
818.218	0.0155723
818.296	0.0155613
818.374	0.0155553
818.453	0.0154624
818.531	0.0155037
818.609	0.0154408
818.687	0.0154375
818.765	0.0154985
818.843	0.0156081
818.921	0.0156076
818.999	0.0154565
819.078	0.0155050
819.156	0.0155003
819.234	0.0155286
819.312	0.0154970
819.390	0.0154707
819.468	0.0154921
819.546	0.0154665
819.624	0.0154214
819.703	0.0153960
819.781	0.0154672
819.859	0.0155888
819.937	0.0155970
820.015	0.0154883
820.093	0.0155509
820.171	0.0155618
820.249	0.0155758
820.328	0.0155711
820.406	0.0156341
820.484	0.0156670
820.562	0.0155919
820.640	0.0153586
820.718	0.0155961
820.796	0.0155390
820.874	0.0156085
820.953	0.0154686
821.031	0.0155607
821.109	0.0154784
821.187	0.0155398
821.265	0.0154155
821.343	0.0154960
821.421	0.0156431
821.499	0.0156255
821.578	0.0155637
821.656	0.0155283
821.734	0.0155121
821.812	0.0153719
821.890	0.0154241
821.968	0.0154283
822.046	0.0154865
822.124	0.0153474
822.203	0.0154820
822.281	0.0155533
822.359	0.0154656
822.437	0.0154315
822.515	0.0153476
822.593	0.0153469
822.671	0.0153823
822.749	0.0154292
822.828	0.0152914
822.906	0.0154924
822.984	0.0153517
823.062	0.0154002
823.140	0.0155897
823.218	0.0154322
823.296	0.0154023
823.374	0.0155547
823.453	0.0153484
823.531	0.0155453
823.609	0.0155060
823.687	0.0153800
823.765	0.0154671
823.843	0.0153975
823.921	0.0155468
823.999	0.0153516
824.078	0.0154552
824.156	0.0155336
824.234	0.0154372
824.312	0.0154029
824.390	0.0154962
824.468	0.0153603
824.546	0.0154111
824.624	0.0154472
824.703	0.0153984
824.781	0.0154691
824.859	0.0155069
824.937	0.0154397
825.015	0.0153525
825.093	0.0154438
825.171	0.0153710
825.249	0.0153199
825.328	0.0154583
825.406	0.0153669
825.484	0.0153146
825.562	0.0153155
825.640	0.0155270
825.718	0.0152956
825.796	0.0153350
825.874	0.0153753
825.953	0.0153671
826.031	0.0154055
826.109	0.0154137
826.187	0.0154196
826.265	0.0155037
826.343	0.0154681
826.421	0.0153545
826.499	0.0155432
826.578	0.0154269
826.656	0.0154811
826.734	0.0155674
826.812	0.0153624
826.890	0.0154716
826.968	0.0154045
827.046	0.0155425
827.124	0.0153994
827.203	0.0154034
827.281	0.0155479
827.359	0.0152790
827.437	0.0152538
827.515	0.0153587
827.593	0.0152554
827.671	0.0152740
827.749	0.0153315
827.828	0.0153493
827.906	0.0152834
827.984	0.0152122
828.062	0.0151863
828.140	0.0151513
828.218	0.0152654
828.296	0.0152500
828.374	0.0152509
828.453	0.0152399
828.531	0.0154025
828.609	0.0154139
828.687	0.0153456
828.765	0.0153178
828.843	0.0153451
828.921	0.0153061
828.999	0.0153307
829.078	0.0154395
829.156	0.0153939
829.234	0.0153873
829.312	0.0153380
829.390	0.0154137
829.468	0.0154639
829.546	0.0155222
829.624	0.0154150
829.703	0.0154910
829.781	0.0155567
829.859	0.0153473
829.937	0.0154218
830.015	0.0154772
830.093	0.0154772
830.171	0.0155434
830.249	0.0155008
830.328	0.0152573
830.406	0.0154028
830.484	0.0155810
830.562	0.0153288
830.640	0.0154026
830.718	0.0154218
830.796	0.0153876
830.874	0.0152441
830.953	0.0153676
831.031	0.0154752
831.109	0.0154416
831.187	0.0154050
831.265	0.0154741
831.343	0.0155223
831.421	0.0155438
831.499	0.0152789
831.578	0.0154847
831.656	0.0155066
831.734	0.0154114
831.812	0.0153817
831.890	0.0155331
831.968	0.0155083
832.046	0.0153185
832.124	0.0153344
832.203	0.0154029
832.281	0.0153156
832.359	0.0153139
832.437	0.0154207
832.515	0.0154632
832.593	0.0154768
832.671	0.0153387
832.749	0.0154256
832.828	0.0154568
832.906	0.0153671
832.984	0.0154652
833.062	0.0154043
833.140	0.0154831
833.218	0.0154118
833.296	0.0153994
833.374	0.0153976
833.453	0.0154922
833.531	0.0154604
833.609	0.0153844
833.687	0.0153627
833.765	0.0154348
833.843	0.0154779
833.921	0.0153275
833.999	0.0154386
834.078	0.0152607
834.156	0.0154374
834.234	0.0153340
834.312	0.0154238
834.390	0.0152940
834.468	0.0152589
834.546	0.0155251
834.624	0.0155546
834.703	0.0154411
834.781	0.0154570
834.859	0.0153076
834.937	0.0154375
835.015	0.0154250
835.093	0.0154105
835.171	0.0154525
835.249	0.0154608
835.328	0.0153497
835.406	0.0154426
835.484	0.0154077
835.562	0.0154559
835.640	0.0154185
835.718	0.0154685
835.796	0.0154211
835.874	0.0155005
835.953	0.0154075
836.031	0.0153955
836.109	0.0153886
836.187	0.0154373
836.265	0.0153699
836.343	0.0153499
836.421	0.0153693
836.499	0.0153711
836.578	0.0152743
836.656	0.0153539
836.734	0.0153787
836.812	0.0154234
836.890	0.0152740
836.968	0.0152856
837.046	0.0153269
837.124	0.0152548
837.203	0.0154223
837.281	0.0154353
837.359	0.0152163
837.437	0.0153124
837.515	0.0154444
837.593	0.0153338
837.671	0.0153305
837.749	0.0153558
837.828	0.0153429
837.906	0.0153654
837.984	0.0153896
838.062	0.0154961
838.140	0.0152914
838.218	0.0153519
838.296	0.0153710
838.374	0.0153760
838.453	0.0154623
838.531	0.0154519
838.609	0.0153532
838.687	0.0154126
838.765	0.0154078
838.843	0.0153951
838.921	0.0153291
838.999	0.0153992
839.078	0.0153663
839.156	0.0151856
839.234	0.0154151
839.312	0.0153469
839.390	0.0153196
839.468	0.0154043
839.546	0.0153401
839.624	0.0151919
839.703	0.0154007
839.781	0.0153926
839.859	0.0154339
839.937	0.0155555
840.015	0.0156409
840.093	0.0155054
840.171	0.0153610
840.249	0.0155311
840.328	0.0154362
840.406	0.0154232
840.484	0.0155791
840.562	0.0155486
840.640	0.0156366
840.718	0.0155174
840.796	0.0154993
840.874	0.0154807
840.953	0.0155590
841.031	0.0154981
841.109	0.0153914
841.187	0.0152899
841.265	0.0154456
841.343	0.0155912
841.421	0.0154446
841.499	0.0154172
841.578	0.0153895
841.656	0.0154718
841.734	0.0153615
841.812	0.0153084
841.890	0.0153831
841.968	0.0154377
842.046	0.0152804
842.124	0.0154180
842.203	0.0155019
842.281	0.0153720
842.359	0.0152846
842.437	0.0154756
842.515	0.0153647
842.593	0.0153571
842.671	0.0156554
842.749	0.0155737
842.828	0.0154687
842.906	0.0154585
842.984	0.0154639
843.062	0.0155128
843.140	0.0155115
843.218	0.0154976
843.296	0.0156152
843.374	0.0155991
843.453	0.0155933
843.531	0.0156660
843.609	0.0154564
843.687	0.0154805
843.765	0.0155157
843.843	0.0154472
843.921	0.0155009
843.999	0.0154181
844.078	0.0155527
844.156	0.0154391
844.234	0.0154288
844.312	0.0155824
844.390	0.0155352
844.468	0.0153472
844.546	0.0155399
844.624	0.0155396
844.703	0.0154675
844.781	0.0155645
844.859	0.0155342
844.937	0.0154538
845.015	0.0155549
845.093	0.0155383
845.171	0.0154074
845.249	0.0153893
845.328	0.0154780
845.406	0.0153725
845.484	0.0154856
845.562	0.0154828
845.640	0.0154346
845.718	0.0154593
845.796	0.0153947
845.874	0.0153862
845.953	0.0154337
846.031	0.0154118
846.109	0.0155199
846.187	0.0154346
846.265	0.0155623
846.343	0.0154886
846.421	0.0155215
846.499	0.0155724
846.578	0.0155220
846.656	0.0154475
846.734	0.0155602
846.812	0.0154386
846.890	0.0154433
846.968	0.0154031
847.046	0.0154361
847.124	0.0154876
847.203	0.0154542
847.281	0.0155498
847.359	0.0154486
847.437	0.0154433
847.515	0.0154745
847.593	0.0154560
847.671	0.0154440
847.749	0.0154633
847.828	0.0154630
847.906	0.0153262
847.984	0.0152873
848.062	0.0153458
848.140	0.0153835
848.218	0.0152821
848.296	0.0153862
848.374	0.0154505
848.453	0.0154461
848.531	0.0154841
848.609	0.0153606
848.687	0.0153265
848.765	0.0153452
848.843	0.0154655
848.921	0.0154128
848.999	0.0153886
849.078	0.0155319
849.156	0.0154732
849.234	0.0154256
849.312	0.0154641
849.390	0.0154274
849.468	0.0154202
849.546	0.0154270
849.624	0.0153570
849.703	0.0154877
849.781	0.0155025
849.859	0.0152741
849.937	0.0154657
850.015	0.0155700
850.093	0.0154942
850.171	0.0154333
850.249	0.0154348
850.328	0.0154440
850.406	0.0154292
850.484	0.0154890
850.562	0.0154299
850.640	0.0155064
850.718	0.0154799
850.796	0.0153290
850.874	0.0154329
850.953	0.0154924
851.031	0.0153459
851.109	0.0155012
851.187	0.0153285
851.265	0.0153324
851.343	0.0153941
851.421	0.0154092
851.499	0.0154037
851.578	0.0153345
851.656	0.0153729
851.734	0.0152450
851.812	0.0153648
851.890	0.0154163
851.968	0.0155160
852.046	0.0154863
852.124	0.0152948
852.203	0.0154089
852.281	0.0154885
852.359	0.0154724
852.437	0.0154198
852.515	0.0155291
852.593	0.0155316
852.671	0.0154739
852.749	0.0155425
852.828	0.0154479
852.906	0.0154488
852.984	0.0152969
853.062	0.0153957
853.140	0.0155920
853.218	0.0154943
853.296	0.0154039
853.374	0.0152839
853.453	0.0152264
853.531	0.0154953
853.609	0.0154949
853.687	0.0153656
853.765	0.0153606
853.843	0.0154261
853.921	0.0154854
853.999	0.0154091
854.078	0.0154411
854.156	0.0152818
854.234	0.0153210
854.312	0.0154448
854.390	0.0153220
854.468	0.0155582
854.546	0.0153896
854.624	0.0154427
854.703	0.0153191
854.781	0.0153728
854.859	0.0154581
854.937	0.0153854
855.015	0.0154152
855.093	0.0154443
855.171	0.0154013
855.249	0.0154784
855.328	0.0153539
855.406	0.0153799
855.484	0.0153677
855.562	0.0153771
855.640	0.0154271
855.718	0.0154361
855.796	0.0154413
855.874	0.0154927
855.953	0.0154306
856.031	0.0154427
856.109	0.0153584
856.187	0.0154752
856.265	0.0153603
856.343	0.0153620
856.421	0.0153899
856.499	0.0154224
856.578	0.0153592
856.656	0.0153487
856.734	0.0154697
856.812	0.0154456
856.890	0.0153836
856.968	0.0153995
857.046	0.0155044
857.124	0.0153573
857.203	0.0154041
857.281	0.0153996
857.359	0.0152096
857.437	0.0155208
857.515	0.0155263
857.593	0.0152414
857.671	0.0154025
857.749	0.0155086
857.828	0.0152887
857.906	0.0154263
857.984	0.0154447
858.062	0.0153927
858.140	0.0153092
858.218	0.0153619
858.296	0.0153999
858.374	0.0154047
858.453	0.0154214
858.531	0.0152820
858.609	0.0152876
858.687	0.0153948
858.765	0.0153250
858.843	0.0154883
858.921	0.0153927
858.999	0.0152341
859.078	0.0153003
859.156	0.0153311
859.234	0.0153991
859.312	0.0152570
859.390	0.0151657
859.468	0.0151768
859.546	0.0154691
859.624	0.0153983
859.703	0.0152418
859.781	0.0152967
859.859	0.0154309
859.937	0.0153385
860.015	0.0152921
860.093	0.0152869
860.171	0.0152846
860.249	0.0153557
860.328	0.0153805
860.406	0.0154143
860.484	0.0154029
860.562	0.0154258
860.640	0.0153518
860.718	0.0154696
860.796	0.0154396
860.874	0.0154729
860.953	0.0154919
861.031	0.0153713
861.109	0.0153600
861.187	0.0154813
861.265	0.0153176
861.343	0.0154939
861.421	0.0154044
861.499	0.0155331
861.578	0.0154034
861.656	0.0154386
861.734	0.0154272
861.812	0.0153083
861.890	0.0153925
861.968	0.0153616
862.046	0.0154064
862.124	0.0154065
862.203	0.0155059
862.281	0.0152917
862.359	0.0152681
862.437	0.0153753
862.515	0.0154977
862.593	0.0154028
862.671	0.0154557
862.749	0.0153665
862.828	0.0154993
862.906	0.0154042
862.984	0.0154453
863.062	0.0154411
863.140	0.0154473
863.218	0.0154411
863.296	0.0155266
863.374	0.0154131
863.453	0.0153490
863.531	0.0155732
863.609	0.0155003
863.687	0.0153883
863.765	0.0154592
863.843	0.0155002
863.921	0.0153658
863.999	0.0154298
864.078	0.0153646
864.156	0.0154229
864.234	0.0152903
864.312	0.0153475
864.390	0.0154573
864.468	0.0154913
864.546	0.0153391
864.624	0.0154676
864.703	0.0155335
864.781	0.0155687
864.859	0.0154642
864.937	0.0153197
865.015	0.0153945
865.093	0.0155176
865.171	0.0154935
865.249	0.0155520
865.328	0.0155815
865.406	0.0155523
865.484	0.0155150
865.562	0.0154784
865.640	0.0153773
865.718	0.0154530
865.796	0.0155739
865.874	0.0155533
865.953	0.0154937
866.031	0.0153858
866.109	0.0154855
866.187	0.0155025
866.265	0.0154182
866.343	0.0154279
866.421	0.0155787
866.499	0.0155712
866.578	0.0153606
866.656	0.0154579
866.734	0.0154475
866.812	0.0155449
866.890	0.0154454
866.968	0.0155178
867.046	0.0153825
867.124	0.0153744
867.203	0.0154002
867.281	0.0152947
867.359	0.0154233
867.437	0.0154213
867.515	0.0153722
867.593	0.0154894
867.671	0.0154660
867.749	0.0154351
867.828	0.0154960
867.906	0.0154684
867.984	0.0153808
868.062	0.0156648
868.140	0.0155717
868.218	0.0155654
868.296	0.0154299
868.374	0.0154454
868.453	0.0155830
868.531	0.0154907
868.609	0.0154717
868.687	0.0155466
868.765	0.0155300
868.843	0.0155260
868.921	0.0155232
868.999	0.0154578
869.078	0.0154728
869.156	0.0153741
869.234	0.0153550
869.312	0.0153831
869.390	0.0154652
869.468	0.0155910
869.546	0.0153992
869.624	0.0153883
869.703	0.0154023
869.781	0.0154520
869.859	0.0153937
869.937	0.0152842
870.015	0.0153139
870.093	0.0154027
870.171	0.0153889
870.249	0.0154031
870.328	0.0154660
870.406	0.0153344
870.484	0.0154175
870.562	0.0153619
870.640	0.0154893
870.718	0.0153706
870.796	0.0154462
870.874	0.0153878
870.953	0.0154436
871.031	0.0154581
871.109	0.0154128
871.187	0.0154053
871.265	0.0154847
871.343	0.0155274
871.421	0.0154330
871.499	0.0153783
871.578	0.0154823
871.656	0.0155416
871.734	0.0153373
871.812	0.0156499
871.890	0.0154966
871.968	0.0153983
872.046	0.0152527
872.124	0.0153728
872.203	0.0155119
872.281	0.0153896
872.359	0.0154027
872.437	0.0154280
872.515	0.0154246
872.593	0.0154024
872.671	0.0154257
872.749	0.0152531
872.828	0.0152780
872.906	0.0153355
872.984	0.0154034
873.062	0.0154646
873.140	0.0152955
873.218	0.0153601
873.296	0.0154467
873.374	0.0153519
873.453	0.0154145
873.531	0.0155711
873.609	0.0154158
873.687	0.0153727
873.765	0.0154652
873.843	0.0154864
873.921	0.0154197
873.999	0.0154942
874.078	0.0153893
874.156	0.0153497
874.234	0.0154439
874.312	0.0154121
874.390	0.0153347
874.468	0.0154590
874.546	0.0152498
874.624	0.0153481
874.703	0.0153449
874.781	0.0154330
874.859	0.0153697
874.937	0.0153286
875.015	0.0154674
875.093	0.0153793
875.171	0.0153793
875.249	0.0154926
875.328	0.0153986
875.406	0.0153866
875.484	0.0153361
875.562	0.0153935
875.640	0.0154589
875.718	0.0155173
875.796	0.0153875
875.874	0.0153998
875.953	0.0152869
876.031	0.0154844
876.109	0.0154338
876.187	0.0154038
876.265	0.0153549
876.343	0.0154863
876.421	0.0154858
876.499	0.0154066
876.578	0.0153368
876.656	0.0154660
876.734	0.0154218
876.812	0.0153992
876.890	0.0155972
876.968	0.0155119
877.046	0.0155153
877.124	0.0153938
877.203	0.0155090
877.281	0.0153338
877.359	0.0154349
877.437	0.0155201
877.515	0.0154666
877.593	0.0153953
877.671	0.0153939
877.749	0.0153637
877.828	0.0155077
877.906	0.0155068
877.984	0.0155013
878.062	0.0156042
878.140	0.0155399
878.218	0.0154624
878.296	0.0155623
878.374	0.0154827
878.453	0.0154757
878.531	0.0155080
878.609	0.0155795
878.687	0.0155339
878.765	0.0155457
878.843	0.0156248
878.921	0.0155204
878.999	0.0154795
879.078	0.0155295
879.156	0.0155717
879.234	0.0156794
879.312	0.0156683
879.390	0.0156223
879.468	0.0156152
879.546	0.0155880
879.624	0.0155653
879.703	0.0155553
879.781	0.0154758
879.859	0.0154932
879.937	0.0154939
880.015	0.0154868
880.093	0.0154269
880.171	0.0154958
880.249	0.0155337
880.328	0.0155404
880.406	0.0155296
880.484	0.0154659
880.562	0.0154457
880.640	0.0153970
880.718	0.0153604
880.796	0.0154254
880.874	0.0154357
880.953	0.0153845
881.031	0.0154556
881.109	0.0155259
881.187	0.0155622
881.265	0.0152650
881.343	0.0152847
881.421	0.0153757
881.499	0.0153554
881.578	0.0153751
881.656	0.0154924
881.734	0.0153946
881.812	0.0153501
881.890	0.0154105
881.968	0.0154195
882.046	0.0154165
882.124	0.0154069
882.203	0.0153783
882.281	0.0154369
882.359	0.0155077
882.437	0.0154184
882.515	0.0155449
882.593	0.0155195
882.671	0.0155045
882.749	0.0153297
882.828	0.0154391
882.906	0.0154920
882.984	0.0153328
883.062	0.0153407
883.140	0.0154092
883.218	0.0153983
883.296	0.0153142
883.374	0.0152205
883.453	0.0154598
883.531	0.0154156
883.609	0.0154160
883.687	0.0152016
883.765	0.0153176
883.843	0.0155046
883.921	0.0153715
883.999	0.0153879
884.078	0.0153778
884.156	0.0154255
884.234	0.0153916
884.312	0.0152670
884.390	0.0154161
884.468	0.0153566
884.546	0.0154630
884.624	0.0154656
884.703	0.0153472
884.781	0.0153758
884.859	0.0154458
884.937	0.0154182
885.015	0.0155149
885.093	0.0153994
885.171	0.0153472
885.249	0.0155412
885.328	0.0153587
885.406	0.0154939
885.484	0.0155152
885.562	0.0154382
885.640	0.0153461
885.718	0.0153081
885.796	0.0154572
885.874	0.0154031
885.953	0.0154051
886.031	0.0154691
886.109	0.0154670
886.187	0.0154615
886.265	0.0153343
886.343	0.0154280
886.421	0.0154403
886.499	0.0154826
886.578	0.0154781
886.656	0.0154897
886.734	0.0153864
886.812	0.0154687
886.890	0.0155303
886.968	0.0155110
887.046	0.0154492
887.124	0.0154317
887.203	0.0156520
887.281	0.0155267
887.359	0.0155266
887.437	0.0154826
887.515	0.0155124
887.593	0.0155515
887.671	0.0156718
887.749	0.0155645
887.828	0.0156075
887.906	0.0155064
887.984	0.0156093
888.062	0.0156290
888.140	0.0156434
888.218	0.0157500
888.296	0.0156767
888.374	0.0156474
888.453	0.0157354
888.531	0.0156493
888.609	0.0156016
888.687	0.0155994
888.765	0.0156461
888.843	0.0156372
888.921	0.0156458
888.999	0.0155790
889.078	0.0156279
889.156	0.0154107
889.234	0.0154376
889.312	0.0154378
889.390	0.0154899
889.468	0.0155596
889.546	0.0154832
889.624	0.0154552
889.703	0.0153686
889.781	0.0155351
889.859	0.0154415
889.937	0.0154713
890.015	0.0155524
890.093	0.0154711
890.171	0.0154602
890.249	0.0155105
890.328	0.0154628
890.406	0.0155157
890.484	0.0153719
890.562	0.0153938
890.640	0.0153917
890.718	0.0154050
890.796	0.0155370
890.874	0.0154851
890.953	0.0154092
891.031	0.0154475
891.109	0.0154465
891.187	0.0153027
891.265	0.0153239
891.343	0.0153294
891.421	0.0155197
891.499	0.0154360
891.578	0.0155411
891.656	0.0154375
891.734	0.0153815
891.812	0.0153308
891.890	0.0154385
891.968	0.0152859
892.046	0.0155053
892.124	0.0154566
892.203	0.0154574
892.281	0.0154007
892.359	0.0153215
892.437	0.0153541
892.515	0.0154179
892.593	0.0155391
892.671	0.0154082
892.749	0.0153648
892.828	0.0154037
892.906	0.0154324
892.984	0.0153873
893.062	0.0153371
893.140	0.0152196
893.218	0.0155143
893.296	0.0154134
893.374	0.0153350
893.453	0.0153940
893.531	0.0153502
893.609	0.0154436
893.687	0.0153411
893.765	0.0154272
893.843	0.0154862
893.921	0.0153750
893.999	0.0155377
894.078	0.0154731
894.156	0.0154154
894.234	0.0153355
894.312	0.0153374
894.390	0.0153987
894.468	0.0155996
894.546	0.0154781
894.624	0.0154278
894.703	0.0154117
894.781	0.0154270
894.859	0.0154588
894.937	0.0154092
895.015	0.0153990
895.093	0.0154231
895.171	0.0154182
895.249	0.0154589
895.328	0.0153176
895.406	0.0155190
895.484	0.0155981
895.562	0.0155016
895.640	0.0154871
895.718	0.0154557
895.796	0.0154082
895.874	0.0154260
895.953	0.0154795
896.031	0.0154814
896.109	0.0154790
896.187	0.0154222
896.265	0.0155008
896.343	0.0156158
896.421	0.0155600
896.499	0.0154074
896.578	0.0154643
896.656	0.0155949
896.734	0.0154663
896.812	0.0155541
896.890	0.0153402
896.968	0.0154300
897.046	0.0154478
897.124	0.0153876
897.203	0.0153895
897.281	0.0155119
897.359	0.0154684
897.437	0.0154007
897.515	0.0153458
897.593	0.0154121
897.671	0.0154404
897.749	0.0153895
897.828	0.0154772
897.906	0.0153615
897.984	0.0155347
898.062	0.0154827
898.140	0.0153625
898.218	0.0154450
898.296	0.0154967
898.374	0.0154259
898.453	0.0154779
898.531	0.0155457
898.609	0.0154618
898.687	0.0154199
898.765	0.0154735
898.843	0.0155192
898.921	0.0156088
898.999	0.0154797
899.078	0.0153501
899.156	0.0154330
899.234	0.0155511
899.312	0.0154274
899.390	0.0153920
899.468	0.0155453
899.546	0.0154764
899.624	0.0153773
899.703	0.0154022
899.781	0.0154870
899.859	0.0155116
899.937	0.0154427
900.015	0.0153914
900.093	0.0154629
900.171	0.0152794
900.249	0.0154405
900.328	0.0153920
900.406	0.0153632
900.484	0.0154362
900.562	0.0154551
900.640	0.0153506
900.718	0.0153864
900.796	0.0154700
900.874	0.0154876
900.953	0.0152836
901.031	0.0155048
901.109	0.0153652
901.187	0.0153802
901.265	0.0154088
901.343	0.0152943
901.421	0.0153127
901.499	0.0154473
901.578	0.0154100
901.656	0.0153467
901.734	0.0154707
901.812	0.0154570
901.890	0.0154076
901.968	0.0154523
902.046	0.0154794
902.124	0.0152929
902.203	0.0153008
902.281	0.0154680
902.359	0.0154525
902.437	0.0152799
902.515	0.0152639
902.593	0.0153075
902.671	0.0153802
902.749	0.0154142
902.828	0.0153692
902.906	0.0153912
902.984	0.0153674
903.062	0.0153984
903.140	0.0153275
903.218	0.0153272
903.296	0.0153288
903.374	0.0153728
903.453	0.0154597
903.531	0.0154359
903.609	0.0153757
903.687	0.0153053
903.765	0.0153869
903.843	0.0155291
903.921	0.0153977
903.999	0.0153706
904.078	0.0154933
904.156	0.0154322
904.234	0.0153603
904.312	0.0153827
904.390	0.0154758
904.468	0.0155141
904.546	0.0154803
904.624	0.0154823
904.703	0.0154344
904.781	0.0154247
904.859	0.0153835
904.937	0.0154189
905.015	0.0153339
905.093	0.0153123
905.171	0.0153553
905.249	0.0155115
905.328	0.0154546
905.406	0.0153838
905.484	0.0152594
905.562	0.0153733
905.640	0.0154544
905.718	0.0154220
905.796	0.0153553
905.874	0.0153866
905.953	0.0154135
906.031	0.0153098
906.109	0.0153369
906.187	0.0153751
906.265	0.0154408
906.343	0.0153768
906.421	0.0155539
906.499	0.0153805
906.578	0.0153652
906.656	0.0153278
906.734	0.0153378
906.812	0.0154435
906.890	0.0154678
906.968	0.0154228
907.046	0.0155855
907.124	0.0153761
907.203	0.0153757
907.281	0.0155576
907.359	0.0154751
907.437	0.0154048
907.515	0.0154932
907.593	0.0154781
907.671	0.0153745
907.749	0.0154254
907.828	0.0155460
907.906	0.0154805
907.984	0.0153904
908.062	0.0153490
908.140	0.0154905
908.218	0.0154835
908.296	0.0153050
908.374	0.0152377
908.453	0.0152758
908.531	0.0154158
908.609	0.0153142
908.687	0.0152874
908.765	0.0152550
908.843	0.0152796
908.921	0.0154216
908.999	0.0154926
909.078	0.0153838
909.156	0.0154681
909.234	0.0154576
909.312	0.0154095
909.390	0.0153882
909.468	0.0154223
909.546	0.0153948
909.624	0.0154231
909.703	0.0155748
909.781	0.0153992
909.859	0.0154239
909.937	0.0154102
910.015	0.0154794
910.093	0.0153925
910.171	0.0154288
910.249	0.0154228
910.328	0.0154452
910.406	0.0154162
910.484	0.0153098
910.562	0.0152985
910.640	0.0153138
910.718	0.0153886
910.796	0.0154586
910.874	0.0154548
910.953	0.0154606
911.031	0.0153586
911.109	0.0153094
911.187	0.0153277
911.265	0.0153327
911.343	0.0154171
911.421	0.0153433
911.499	0.0153874
911.578	0.0154086
911.656	0.0154343
911.734	0.0155292
911.812	0.0153783
911.890	0.0154825
911.968	0.0154325
912.046	0.0154234
912.124	0.0155666
912.203	0.0154507
912.281	0.0154373
912.359	0.0154461
912.437	0.0153834
912.515	0.0154669
912.593	0.0153981
912.671	0.0153853
912.749	0.0156177
912.828	0.0154039
912.906	0.0154136
912.984	0.0154373
913.062	0.0154274
913.140	0.0154162
913.218	0.0154749
913.296	0.0153980
913.374	0.0153813
913.453	0.0155235
913.531	0.0153574
913.609	0.0154696
913.687	0.0155397
913.765	0.0154054
913.843	0.0153880
913.921	0.0154342
913.999	0.0154211
914.078	0.0153052
914.156	0.0153684
914.234	0.0154994
914.312	0.0154453
914.390	0.0153905
914.468	0.0153724
914.546	0.0154074
914.624	0.0154592
914.703	0.0154315
914.781	0.0153585
914.859	0.0154213
914.937	0.0154538
915.015	0.0155281
915.093	0.0153297
915.171	0.0154364
915.249	0.0153693
915.328	0.0154055
915.406	0.0153757
915.484	0.0151456
915.562	0.0154520
915.640	0.0153999
915.718	0.0152987
915.796	0.0152547
915.874	0.0152560
915.953	0.0153362
916.031	0.0153256
916.109	0.0152127
916.187	0.0153152
916.265	0.0153424
916.343	0.0152299
916.421	0.0153459
916.499	0.0153432
916.578	0.0154375
916.656	0.0154173
916.734	0.0151900
916.812	0.0152789
916.890	0.0153337
916.968	0.0153378
917.046	0.0154826
917.124	0.0154931
917.203	0.0153151
917.281	0.0153413
917.359	0.0154461
917.437	0.0154138
917.515	0.0153027
917.593	0.0153674
917.671	0.0154082
917.749	0.0154301
917.828	0.0152880
917.906	0.0154508
917.984	0.0155072
918.062	0.0153173
918.140	0.0153397
918.218	0.0154066
918.296	0.0154018
918.374	0.0154166
918.453	0.0152582
918.531	0.0153635
918.609	0.0153480
918.687	0.0153848
918.765	0.0153239
918.843	0.0153243
918.921	0.0154362
918.999	0.0153050
919.078	0.0152917
919.156	0.0153233
919.234	0.0154054
919.312	0.0153043
919.390	0.0153953
919.468	0.0153844
919.546	0.0153161
919.624	0.0154416
919.703	0.0155007
919.781	0.0154407
919.859	0.0153389
919.937	0.0153964
