05/06/2022	18:37:43	Ver.	4.1	UNKNOWN
Optical Delay	600.021766	Delta X		0.078125	Sweeps	1	Scan Rate	0/0
Coordinates	Axis 1	NaN	Axis 2	NaN	Axis 3	NaN	Axis 4	NaN	Axis 5	NaN	Axis 6	0.000000
TX Power	0.000000	RX Power	0.000000

600.022	0.0132345
600.100	0.0132449
600.178	0.0132551
600.256	0.0131572
600.334	0.0131828
600.412	0.0131020
600.491	0.0132204
600.569	0.0133759
600.647	0.0130911
600.725	0.0131155
600.803	0.0133353
600.881	0.0130760
600.959	0.0131139
601.037	0.0130672
601.116	0.0131191
601.194	0.0131600
601.272	0.0132446
601.350	0.0131811
601.428	0.0130645
601.506	0.0132164
601.584	0.0132276
601.662	0.0131961
601.741	0.0130349
601.819	0.0132726
601.897	0.0132613
601.975	0.0132136
602.053	0.0131290
602.131	0.0131268
602.209	0.0131577
602.287	0.0133967
602.366	0.0131505
602.444	0.0133016
602.522	0.0133089
602.600	0.0131818
602.678	0.0132591
602.756	0.0132624
602.834	0.0129612
602.912	0.0132570
602.991	0.0132373
603.069	0.0132761
603.147	0.0131981
603.225	0.0131905
603.303	0.0132053
603.381	0.0132156
603.459	0.0132196
603.537	0.0131689
603.616	0.0132428
603.694	0.0132220
603.772	0.0130977
603.850	0.0132024
603.928	0.0132405
604.006	0.0131013
604.084	0.0131761
604.162	0.0130435
604.241	0.0130663
604.319	0.0130596
604.397	0.0132683
604.475	0.0132527
604.553	0.0132677
604.631	0.0133147
604.709	0.0131490
604.787	0.0130644
604.866	0.0131210
604.944	0.0133310
605.022	0.0133711
605.100	0.0133138
605.178	0.0132808
605.256	0.0131509
605.334	0.0132678
605.412	0.0132064
605.491	0.0133794
605.569	0.0132943
605.647	0.0132305
605.725	0.0132967
605.803	0.0133044
605.881	0.0132800
605.959	0.0132588
606.037	0.0132993
606.116	0.0132789
606.194	0.0132697
606.272	0.0131164
606.350	0.0132855
606.428	0.0131681
606.506	0.0132686
606.584	0.0133010
606.662	0.0131251
606.741	0.0133421
606.819	0.0132767
606.897	0.0133821
606.975	0.0131532
607.053	0.0130997
607.131	0.0131375
607.209	0.0131769
607.287	0.0133508
607.366	0.0132610
607.444	0.0133051
607.522	0.0133516
607.600	0.0132190
607.678	0.0133020
607.756	0.0132363
607.834	0.0132709
607.912	0.0130859
607.991	0.0132153
608.069	0.0132437
608.147	0.0134365
608.225	0.0130322
608.303	0.0132487
608.381	0.0133479
608.459	0.0130864
608.537	0.0132637
608.616	0.0132162
608.694	0.0131887
608.772	0.0132351
608.850	0.0132018
608.928	0.0132199
609.006	0.0131600
609.084	0.0131812
609.162	0.0132203
609.241	0.0132986
609.319	0.0131957
609.397	0.0131403
609.475	0.0133780
609.553	0.0131202
609.631	0.0132818
609.709	0.0131227
609.787	0.0131872
609.866	0.0131904
609.944	0.0132284
610.022	0.0131570
610.100	0.0131965
610.178	0.0131425
610.256	0.0132063
610.334	0.0131888
610.412	0.0132701
610.491	0.0133007
610.569	0.0132072
610.647	0.0132465
610.725	0.0131853
610.803	0.0131979
610.881	0.0132106
610.959	0.0132128
611.037	0.0131341
611.116	0.0131403
611.194	0.0132876
611.272	0.0130412
611.350	0.0131237
611.428	0.0131052
611.506	0.0130506
611.584	0.0132903
611.662	0.0133057
611.741	0.0131853
611.819	0.0130652
611.897	0.0131848
611.975	0.0132302
612.053	0.0133366
612.131	0.0131526
612.209	0.0132286
612.287	0.0133242
612.366	0.0133894
612.444	0.0133286
612.522	0.0134069
612.600	0.0130350
612.678	0.0130717
612.756	0.0132191
612.834	0.0131812
612.912	0.0132282
612.991	0.0131488
613.069	0.0131890
613.147	0.0132203
613.225	0.0131600
613.303	0.0132346
613.381	0.0132793
613.459	0.0132098
613.537	0.0131420
613.616	0.0131799
613.694	0.0131902
613.772	0.0132391
613.850	0.0132644
613.928	0.0132878
614.006	0.0131773
614.084	0.0131509
614.162	0.0133926
614.241	0.0132900
614.319	0.0131358
614.397	0.0131097
614.475	0.0131306
614.553	0.0131921
614.631	0.0132384
614.709	0.0132114
614.787	0.0132228
614.866	0.0132931
614.944	0.0132327
615.022	0.0131355
615.100	0.0132308
615.178	0.0131010
615.256	0.0132249
615.334	0.0131669
615.412	0.0131714
615.491	0.0132549
615.569	0.0131663
615.647	0.0132116
615.725	0.0131678
615.803	0.0130519
615.881	0.0131806
615.959	0.0130699
616.037	0.0132574
616.116	0.0133204
616.194	0.0132405
616.272	0.0131770
616.350	0.0130472
616.428	0.0131470
616.506	0.0133854
616.584	0.0132130
616.662	0.0132443
616.741	0.0133308
616.819	0.0131866
616.897	0.0132342
616.975	0.0132535
617.053	0.0131796
617.131	0.0131242
617.209	0.0132201
617.287	0.0132621
617.366	0.0132487
617.444	0.0131885
617.522	0.0132273
617.600	0.0131280
617.678	0.0131495
617.756	0.0131842
617.834	0.0131592
617.912	0.0133067
617.991	0.0131982
618.069	0.0131078
618.147	0.0132864
618.225	0.0131691
618.303	0.0133337
618.381	0.0131524
618.459	0.0130905
618.537	0.0131799
618.616	0.0131512
618.694	0.0131725
618.772	0.0130210
618.850	0.0132263
618.928	0.0132739
619.006	0.0131316
619.084	0.0133142
619.162	0.0131454
619.241	0.0131669
619.319	0.0132615
619.397	0.0132010
619.475	0.0133104
619.553	0.0131632
619.631	0.0132062
619.709	0.0131678
619.787	0.0131004
619.866	0.0133065
619.944	0.0132895
620.022	0.0132393
620.100	0.0132106
620.178	0.0132565
620.256	0.0131249
620.334	0.0131134
620.412	0.0131401
620.491	0.0132962
620.569	0.0133452
620.647	0.0132474
620.725	0.0133846
620.803	0.0131810
620.881	0.0132160
620.959	0.0131878
621.037	0.0132353
621.116	0.0132398
621.194	0.0131699
621.272	0.0132875
621.350	0.0134119
621.428	0.0132346
621.506	0.0133430
621.584	0.0133487
621.662	0.0130229
621.741	0.0129736
621.819	0.0133380
621.897	0.0133197
621.975	0.0131785
622.053	0.0130408
622.131	0.0132485
622.209	0.0132220
622.287	0.0131345
622.366	0.0132606
622.444	0.0132294
622.522	0.0131321
622.600	0.0131918
622.678	0.0131219
622.756	0.0131999
622.834	0.0132063
622.912	0.0131625
622.991	0.0131142
623.069	0.0131787
623.147	0.0131600
623.225	0.0131751
623.303	0.0132962
623.381	0.0132387
623.459	0.0132375
623.537	0.0131873
623.616	0.0132881
623.694	0.0132285
623.772	0.0130571
623.850	0.0132241
623.928	0.0132863
624.006	0.0131903
624.084	0.0132076
624.162	0.0131224
624.241	0.0132156
624.319	0.0132533
624.397	0.0131214
624.475	0.0131581
624.553	0.0133279
624.631	0.0131860
624.709	0.0131402
624.787	0.0131480
624.866	0.0132676
624.944	0.0131683
625.022	0.0131763
625.100	0.0132410
625.178	0.0131285
625.256	0.0132905
625.334	0.0131632
625.412	0.0132100
625.491	0.0132738
625.569	0.0132655
625.647	0.0131940
625.725	0.0131753
625.803	0.0132689
625.881	0.0131029
625.959	0.0130804
626.037	0.0132626
626.116	0.0131880
626.194	0.0131924
626.272	0.0132043
626.350	0.0133054
626.428	0.0131834
626.506	0.0132829
626.584	0.0131069
626.662	0.0132883
626.741	0.0133394
626.819	0.0132370
626.897	0.0132097
626.975	0.0131946
627.053	0.0132934
627.131	0.0131006
627.209	0.0133160
627.287	0.0130647
627.366	0.0132655
627.444	0.0131881
627.522	0.0132614
627.600	0.0132336
627.678	0.0131419
627.756	0.0131290
627.834	0.0131143
627.912	0.0131082
627.991	0.0131493
628.069	0.0132326
628.147	0.0132833
628.225	0.0132884
628.303	0.0132056
628.381	0.0131628
628.459	0.0132497
628.537	0.0132108
628.616	0.0131692
628.694	0.0131727
628.772	0.0131229
628.850	0.0132458
628.928	0.0132179
629.006	0.0130730
629.084	0.0132937
629.162	0.0132859
629.241	0.0132301
629.319	0.0132357
629.397	0.0132240
629.475	0.0130841
629.553	0.0132324
629.631	0.0132504
629.709	0.0132201
629.787	0.0131686
629.866	0.0131751
629.944	0.0132823
630.022	0.0133363
630.100	0.0132407
630.178	0.0132789
630.256	0.0131701
630.334	0.0132001
630.412	0.0132479
630.491	0.0132329
630.569	0.0131340
630.647	0.0131887
630.725	0.0131748
630.803	0.0131070
630.881	0.0133156
630.959	0.0132911
631.037	0.0132381
631.116	0.0131307
631.194	0.0131257
631.272	0.0132562
631.350	0.0132352
631.428	0.0132441
631.506	0.0131927
631.584	0.0131461
631.662	0.0132118
631.741	0.0133125
631.819	0.0131762
631.897	0.0131277
631.975	0.0132584
632.053	0.0132349
632.131	0.0132899
632.209	0.0131640
632.287	0.0133091
632.366	0.0131763
632.444	0.0133883
632.522	0.0132417
632.600	0.0132037
632.678	0.0132044
632.756	0.0131428
632.834	0.0131921
632.912	0.0132622
632.991	0.0131266
633.069	0.0131539
633.147	0.0131097
633.225	0.0132456
633.303	0.0131932
633.381	0.0133144
633.459	0.0131789
633.537	0.0131447
633.616	0.0133027
633.694	0.0131887
633.772	0.0132559
633.850	0.0132455
633.928	0.0131602
634.006	0.0133006
634.084	0.0131336
634.162	0.0130515
634.241	0.0131140
634.319	0.0132384
634.397	0.0132371
634.475	0.0132649
634.553	0.0131478
634.631	0.0131970
634.709	0.0131551
634.787	0.0131438
634.866	0.0133398
634.944	0.0132619
635.022	0.0133260
635.100	0.0131181
635.178	0.0133280
635.256	0.0131021
635.334	0.0132564
635.412	0.0132320
635.491	0.0131925
635.569	0.0132304
635.647	0.0131435
635.725	0.0131264
635.803	0.0132621
635.881	0.0133203
635.959	0.0132339
636.037	0.0132404
636.116	0.0131882
636.194	0.0132411
636.272	0.0131138
636.350	0.0131418
636.428	0.0130701
636.506	0.0132139
636.584	0.0132303
636.662	0.0132204
636.741	0.0132977
636.819	0.0132318
636.897	0.0132755
636.975	0.0131863
637.053	0.0131838
637.131	0.0132469
637.209	0.0132881
637.287	0.0132800
637.366	0.0131955
637.444	0.0132674
637.522	0.0133215
637.600	0.0132548
637.678	0.0130398
637.756	0.0132064
637.834	0.0132880
637.912	0.0131588
637.991	0.0132715
638.069	0.0132436
638.147	0.0131029
638.225	0.0132356
638.303	0.0131843
638.381	0.0132975
638.459	0.0132921
638.537	0.0131329
638.616	0.0132324
638.694	0.0132188
638.772	0.0132777
638.850	0.0132424
638.928	0.0131869
639.006	0.0132218
639.084	0.0133964
639.162	0.0132529
639.241	0.0132324
639.319	0.0130270
639.397	0.0132455
639.475	0.0133705
639.553	0.0132731
639.631	0.0131123
639.709	0.0133802
639.787	0.0131998
639.866	0.0132567
639.944	0.0133454
640.022	0.0133438
640.100	0.0132069
640.178	0.0130910
640.256	0.0131927
640.334	0.0131453
640.412	0.0131915
640.491	0.0132788
640.569	0.0133011
640.647	0.0130881
640.725	0.0131387
640.803	0.0131091
640.881	0.0132860
640.959	0.0131747
641.037	0.0132080
641.116	0.0132582
641.194	0.0131933
641.272	0.0131245
641.350	0.0132459
641.428	0.0131850
641.506	0.0131501
641.584	0.0131195
641.662	0.0131637
641.741	0.0132340
641.819	0.0132006
641.897	0.0131605
641.975	0.0131941
642.053	0.0132909
642.131	0.0131392
642.209	0.0130749
642.287	0.0131437
642.366	0.0131719
642.444	0.0132440
642.522	0.0131107
642.600	0.0132269
642.678	0.0131680
642.756	0.0131522
642.834	0.0132506
642.912	0.0131654
642.991	0.0131618
643.069	0.0132663
643.147	0.0130884
643.225	0.0130277
643.303	0.0132223
643.381	0.0130825
643.459	0.0132248
643.537	0.0130699
643.616	0.0131705
643.694	0.0131630
643.772	0.0133247
643.850	0.0131922
643.928	0.0131900
644.006	0.0132099
644.084	0.0132390
644.162	0.0132352
644.241	0.0131776
644.319	0.0131977
644.397	0.0131459
644.475	0.0132071
644.553	0.0132081
644.631	0.0131828
644.709	0.0132172
644.787	0.0132194
644.866	0.0131264
644.944	0.0131777
645.022	0.0131379
645.100	0.0132597
645.178	0.0131412
645.256	0.0132346
645.334	0.0132292
645.412	0.0131663
645.491	0.0132356
645.569	0.0131689
645.647	0.0132281
645.725	0.0133418
645.803	0.0131731
645.881	0.0132278
645.959	0.0131890
646.037	0.0132413
646.116	0.0133301
646.194	0.0131557
646.272	0.0131277
646.350	0.0132696
646.428	0.0131290
646.506	0.0131875
646.584	0.0132214
646.662	0.0132540
646.741	0.0131837
646.819	0.0132816
646.897	0.0132650
646.975	0.0132831
647.053	0.0131639
647.131	0.0131268
647.209	0.0132997
647.287	0.0132764
647.366	0.0131772
647.444	0.0133118
647.522	0.0132246
647.600	0.0132964
647.678	0.0132589
647.756	0.0132452
647.834	0.0132907
647.912	0.0132240
647.991	0.0132036
648.069	0.0133572
648.147	0.0132027
648.225	0.0131512
648.303	0.0130975
648.381	0.0132305
648.459	0.0131364
648.537	0.0130310
648.616	0.0131995
648.694	0.0131435
648.772	0.0130936
648.850	0.0133784
648.928	0.0131895
649.006	0.0132372
649.084	0.0131544
649.162	0.0132239
649.241	0.0132160
649.319	0.0132792
649.397	0.0132609
649.475	0.0131496
649.553	0.0131735
649.631	0.0132292
649.709	0.0131843
649.787	0.0132387
649.866	0.0131406
649.944	0.0133148
650.022	0.0131801
650.100	0.0132362
650.178	0.0134108
650.256	0.0132562
650.334	0.0131691
650.412	0.0132946
650.491	0.0133430
650.569	0.0131989
650.647	0.0132009
650.725	0.0132205
650.803	0.0131269
650.881	0.0132348
650.959	0.0131167
651.037	0.0130627
651.116	0.0131525
651.194	0.0132576
651.272	0.0131654
651.350	0.0131496
651.428	0.0131236
651.506	0.0131403
651.584	0.0132455
651.662	0.0132829
651.741	0.0132758
651.819	0.0132117
651.897	0.0131821
651.975	0.0132297
652.053	0.0131480
652.131	0.0132270
652.209	0.0133689
652.287	0.0130943
652.366	0.0131231
652.444	0.0132395
652.522	0.0132685
652.600	0.0131637
652.678	0.0132203
652.756	0.0132449
652.834	0.0132064
652.912	0.0132330
652.991	0.0131186
653.069	0.0131329
653.147	0.0131744
653.225	0.0131407
653.303	0.0132194
653.381	0.0131486
653.459	0.0130399
653.537	0.0132522
653.616	0.0132620
653.694	0.0132726
653.772	0.0132919
653.850	0.0131438
653.928	0.0131539
654.006	0.0131493
654.084	0.0132457
654.162	0.0131429
654.241	0.0130512
654.319	0.0130573
654.397	0.0132240
654.475	0.0132144
654.553	0.0132246
654.631	0.0133628
654.709	0.0133788
654.787	0.0131592
654.866	0.0132429
654.944	0.0131660
655.022	0.0131756
655.100	0.0131830
655.178	0.0132802
655.256	0.0131892
655.334	0.0131299
655.412	0.0133887
655.491	0.0132846
655.569	0.0131284
655.647	0.0132017
655.725	0.0132211
655.803	0.0132180
655.881	0.0132301
655.959	0.0132819
656.037	0.0131765
656.116	0.0131171
656.194	0.0133205
656.272	0.0133926
656.350	0.0132785
656.428	0.0133350
656.506	0.0131252
656.584	0.0131835
656.662	0.0132081
656.741	0.0132754
656.819	0.0132072
656.897	0.0131387
656.975	0.0132941
657.053	0.0134698
657.131	0.0132155
657.209	0.0131657
657.287	0.0131415
657.366	0.0132774
657.444	0.0131543
657.522	0.0132286
657.600	0.0133538
657.678	0.0132932
657.756	0.0132837
657.834	0.0132083
657.912	0.0131319
657.991	0.0131734
658.069	0.0133177
658.147	0.0130640
658.225	0.0131947
658.303	0.0130898
658.381	0.0133429
658.459	0.0133494
658.537	0.0132446
658.616	0.0132938
658.694	0.0133085
658.772	0.0132488
658.850	0.0131587
658.928	0.0132604
659.006	0.0132907
659.084	0.0130228
659.162	0.0130881
659.241	0.0132523
659.319	0.0131869
659.397	0.0132129
659.475	0.0133316
659.553	0.0131583
659.631	0.0131052
659.709	0.0132347
659.787	0.0132607
659.866	0.0133302
659.944	0.0132333
660.022	0.0133538
660.100	0.0133185
660.178	0.0132664
660.256	0.0132615
660.334	0.0131242
660.412	0.0132065
660.491	0.0132186
660.569	0.0131216
660.647	0.0131779
660.725	0.0132574
660.803	0.0132159
660.881	0.0132450
660.959	0.0132106
661.037	0.0131579
661.116	0.0132495
661.194	0.0132460
661.272	0.0132059
661.350	0.0132576
661.428	0.0132874
661.506	0.0131981
661.584	0.0131948
661.662	0.0132274
661.741	0.0133586
661.819	0.0131594
661.897	0.0132339
661.975	0.0131570
662.053	0.0132562
662.131	0.0133054
662.209	0.0131257
662.287	0.0131895
662.366	0.0131959
662.444	0.0131400
662.522	0.0132275
662.600	0.0130471
662.678	0.0132161
662.756	0.0133151
662.834	0.0132410
662.912	0.0132590
662.991	0.0131904
663.069	0.0132462
663.147	0.0133070
663.225	0.0132315
663.303	0.0133302
663.381	0.0131162
663.459	0.0133069
663.537	0.0131557
663.616	0.0132351
663.694	0.0132076
663.772	0.0132912
663.850	0.0131572
663.928	0.0131716
664.006	0.0130977
664.084	0.0132552
664.162	0.0130681
664.241	0.0132132
664.319	0.0132425
664.397	0.0131904
664.475	0.0132886
664.553	0.0131984
664.631	0.0131542
664.709	0.0131889
664.787	0.0133064
664.866	0.0132395
664.944	0.0131199
665.022	0.0132237
665.100	0.0131054
665.178	0.0132491
665.256	0.0132177
665.334	0.0131329
665.412	0.0131194
665.491	0.0132071
665.569	0.0132893
665.647	0.0133118
665.725	0.0131899
665.803	0.0132411
665.881	0.0132491
665.959	0.0132104
666.037	0.0131622
666.116	0.0131731
666.194	0.0131287
666.272	0.0132684
666.350	0.0133429
666.428	0.0133518
666.506	0.0132128
666.584	0.0130341
666.662	0.0132597
666.741	0.0132999
666.819	0.0134193
666.897	0.0133170
666.975	0.0131874
667.053	0.0133153
667.131	0.0132546
667.209	0.0133625
667.287	0.0132294
667.366	0.0132299
667.444	0.0133740
667.522	0.0132666
667.600	0.0133768
667.678	0.0132423
667.756	0.0132490
667.834	0.0132457
667.912	0.0133498
667.991	0.0133202
668.069	0.0132533
668.147	0.0131657
668.225	0.0132407
668.303	0.0132968
668.381	0.0132780
668.459	0.0133302
668.537	0.0133025
668.616	0.0132574
668.694	0.0132147
668.772	0.0132227
668.850	0.0132279
668.928	0.0131313
669.006	0.0131275
669.084	0.0131875
669.162	0.0132458
669.241	0.0132642
669.319	0.0132878
669.397	0.0131629
669.475	0.0131512
669.553	0.0132732
669.631	0.0133155
669.709	0.0132140
669.787	0.0131992
669.866	0.0132964
669.944	0.0131233
670.022	0.0129823
670.100	0.0132638
670.178	0.0132932
670.256	0.0130648
670.334	0.0131763
670.412	0.0131538
670.491	0.0129988
670.569	0.0131111
670.647	0.0130260
670.725	0.0130003
670.803	0.0129864
670.881	0.0129640
670.959	0.0131186
671.037	0.0130695
671.116	0.0130663
671.194	0.0129931
671.272	0.0132033
671.350	0.0130994
671.428	0.0130783
671.506	0.0131567
671.584	0.0130525
671.662	0.0129275
671.741	0.0130834
671.819	0.0131210
671.897	0.0130472
671.975	0.0131013
672.053	0.0130472
672.131	0.0130363
672.209	0.0129974
672.287	0.0130920
672.366	0.0131200
672.444	0.0130487
672.522	0.0131982
672.600	0.0131542
672.678	0.0130556
672.756	0.0128895
672.834	0.0129246
672.912	0.0130927
672.991	0.0131491
673.069	0.0132430
673.147	0.0130064
673.225	0.0130302
673.303	0.0129490
673.381	0.0129607
673.459	0.0129585
673.537	0.0130909
673.616	0.0129204
673.694	0.0130482
673.772	0.0128313
673.850	0.0129613
673.928	0.0129202
674.006	0.0130010
674.084	0.0129659
674.162	0.0128085
674.241	0.0128239
674.319	0.0130403
674.397	0.0129873
674.475	0.0128938
674.553	0.0129670
674.631	0.0128239
674.709	0.0129385
674.787	0.0129529
674.866	0.0130415
674.944	0.0130593
675.022	0.0130394
675.100	0.0130111
675.178	0.0130789
675.256	0.0130329
675.334	0.0130898
675.412	0.0130957
675.491	0.0131506
675.569	0.0131331
675.647	0.0130057
675.725	0.0131954
675.803	0.0132900
675.881	0.0132010
675.959	0.0132533
676.037	0.0132769
676.116	0.0131339
676.194	0.0132195
676.272	0.0131918
676.350	0.0132425
676.428	0.0134165
676.506	0.0133667
676.584	0.0131927
676.662	0.0132988
676.741	0.0133709
676.819	0.0133220
676.897	0.0132643
676.975	0.0133740
677.053	0.0134939
677.131	0.0133469
677.209	0.0132790
677.287	0.0134148
677.366	0.0132586
677.444	0.0134186
677.522	0.0135204
677.600	0.0134514
677.678	0.0133929
677.756	0.0133706
677.834	0.0133406
677.912	0.0133105
677.991	0.0134081
678.069	0.0132589
678.147	0.0133852
678.225	0.0134267
678.303	0.0133251
678.381	0.0133810
678.459	0.0133424
678.537	0.0134478
678.616	0.0134057
678.694	0.0134644
678.772	0.0134338
678.850	0.0134922
678.928	0.0133261
679.006	0.0133472
679.084	0.0133537
679.162	0.0133889
679.241	0.0133687
679.319	0.0135452
679.397	0.0133739
679.475	0.0134297
679.553	0.0133014
679.631	0.0135481
679.709	0.0134180
679.787	0.0134156
679.866	0.0134176
679.944	0.0133723
680.022	0.0133867
680.100	0.0134769
680.178	0.0133494
680.256	0.0134307
680.334	0.0133710
680.412	0.0133690
680.491	0.0133544
680.569	0.0133893
680.647	0.0133665
680.725	0.0133964
680.803	0.0134562
680.881	0.0134725
680.959	0.0133204
681.037	0.0133749
681.116	0.0133722
681.194	0.0133083
681.272	0.0131676
681.350	0.0133499
681.428	0.0133117
681.506	0.0133896
681.584	0.0132822
681.662	0.0131709
681.741	0.0132920
681.819	0.0132409
681.897	0.0132852
681.975	0.0133147
682.053	0.0133056
682.131	0.0132717
682.209	0.0132228
682.287	0.0132572
682.366	0.0133026
682.444	0.0131385
682.522	0.0132169
682.600	0.0132939
682.678	0.0132857
682.756	0.0132355
682.834	0.0131850
682.912	0.0132977
682.991	0.0132196
683.069	0.0132099
683.147	0.0132859
683.225	0.0133807
683.303	0.0133235
683.381	0.0132413
683.459	0.0132587
683.537	0.0131636
683.616	0.0132612
683.694	0.0131281
683.772	0.0132146
683.850	0.0131718
683.928	0.0132619
684.006	0.0131501
684.084	0.0132483
684.162	0.0133167
684.241	0.0132404
684.319	0.0131975
684.397	0.0133319
684.475	0.0131551
684.553	0.0131441
684.631	0.0131018
684.709	0.0131013
684.787	0.0132433
684.866	0.0131918
684.944	0.0130805
685.022	0.0131707
685.100	0.0131179
685.178	0.0131908
685.256	0.0132800
685.334	0.0132487
685.412	0.0130979
685.491	0.0132117
685.569	0.0131472
685.647	0.0131570
685.725	0.0132619
685.803	0.0132245
685.881	0.0131853
685.959	0.0131693
686.037	0.0133107
686.116	0.0131719
686.194	0.0132819
686.272	0.0131274
686.350	0.0132147
686.428	0.0132335
686.506	0.0132675
686.584	0.0131979
686.662	0.0132269
686.741	0.0132636
686.819	0.0131667
686.897	0.0132332
686.975	0.0132081
687.053	0.0132998
687.131	0.0132635
687.209	0.0132318
687.287	0.0133663
687.366	0.0132334
687.444	0.0132695
687.522	0.0133186
687.600	0.0132236
687.678	0.0132053
687.756	0.0132510
687.834	0.0131757
687.912	0.0132739
687.991	0.0131017
688.069	0.0131831
688.147	0.0131848
688.225	0.0132011
688.303	0.0132720
688.381	0.0131830
688.459	0.0131622
688.537	0.0131406
688.616	0.0132239
688.694	0.0132745
688.772	0.0131924
688.850	0.0131680
688.928	0.0132867
689.006	0.0131754
689.084	0.0132258
689.162	0.0131834
689.241	0.0131825
689.319	0.0131078
689.397	0.0130325
689.475	0.0131226
689.553	0.0131184
689.631	0.0132151
689.709	0.0130359
689.787	0.0131592
689.866	0.0132955
689.944	0.0132673
690.022	0.0132127
690.100	0.0132993
690.178	0.0132954
690.256	0.0133416
690.334	0.0132983
690.412	0.0134814
690.491	0.0132687
690.569	0.0133239
690.647	0.0133658
690.725	0.0133350
690.803	0.0132423
690.881	0.0131267
690.959	0.0131909
691.037	0.0132517
691.116	0.0132330
691.194	0.0131737
691.272	0.0132270
691.350	0.0131515
691.428	0.0132225
691.506	0.0133029
691.584	0.0132219
691.662	0.0133329
691.741	0.0131709
691.819	0.0132454
691.897	0.0133279
691.975	0.0133313
692.053	0.0133772
692.131	0.0132942
692.209	0.0133223
692.287	0.0134898
692.366	0.0132392
692.444	0.0133013
692.522	0.0132614
692.600	0.0132567
692.678	0.0131640
692.756	0.0132812
692.834	0.0133437
692.912	0.0132126
692.991	0.0130685
693.069	0.0131513
693.147	0.0132825
693.225	0.0131189
693.303	0.0130750
693.381	0.0130788
693.459	0.0131429
693.537	0.0132552
693.616	0.0133325
693.694	0.0131641
693.772	0.0130724
693.850	0.0132072
693.928	0.0131467
694.006	0.0132223
694.084	0.0131944
694.162	0.0132384
694.241	0.0132116
694.319	0.0130909
694.397	0.0133086
694.475	0.0132323
694.553	0.0131730
694.631	0.0131821
694.709	0.0131343
694.787	0.0131229
694.866	0.0131493
694.944	0.0131142
695.022	0.0131962
695.100	0.0130637
695.178	0.0131931
695.256	0.0131990
695.334	0.0131962
695.412	0.0131305
695.491	0.0131456
695.569	0.0132153
695.647	0.0133730
695.725	0.0133488
695.803	0.0133170
695.881	0.0131952
695.959	0.0132501
696.037	0.0133877
696.116	0.0133505
696.194	0.0133231
696.272	0.0131456
696.350	0.0132646
696.428	0.0133482
696.506	0.0132156
696.584	0.0131557
696.662	0.0130520
696.741	0.0129649
696.819	0.0129729
696.897	0.0130999
696.975	0.0130839
697.053	0.0129306
697.131	0.0129624
697.209	0.0129033
697.287	0.0130293
697.366	0.0129963
697.444	0.0129820
697.522	0.0129944
697.600	0.0129867
697.678	0.0129031
697.756	0.0130254
697.834	0.0130515
697.912	0.0130917
697.991	0.0129725
698.069	0.0129189
698.147	0.0129121
698.225	0.0128620
698.303	0.0129273
698.381	0.0130220
698.459	0.0129605
698.537	0.0130085
698.616	0.0131160
698.694	0.0130153
698.772	0.0131126
698.850	0.0131694
698.928	0.0132683
699.006	0.0132071
699.084	0.0134544
699.162	0.0134122
699.241	0.0134346
699.319	0.0134895
699.397	0.0134916
699.475	0.0134563
699.553	0.0134625
699.631	0.0134293
699.709	0.0133291
699.787	0.0133632
699.866	0.0134715
699.944	0.0133007
700.022	0.0133844
700.100	0.0132767
700.178	0.0132380
700.256	0.0131373
700.334	0.0131316
700.412	0.0130625
700.491	0.0129317
700.569	0.0128468
700.647	0.0129052
700.725	0.0130643
700.803	0.0129110
700.881	0.0128812
700.959	0.0129753
701.037	0.0128948
701.116	0.0128656
701.194	0.0129111
701.272	0.0130828
701.350	0.0131226
701.428	0.0130470
701.506	0.0130667
701.584	0.0130616
701.662	0.0129972
701.741	0.0132352
701.819	0.0132034
701.897	0.0132269
701.975	0.0131122
702.053	0.0131232
702.131	0.0132094
702.209	0.0132500
702.287	0.0132238
702.366	0.0133321
702.444	0.0131713
702.522	0.0131776
702.600	0.0132781
702.678	0.0133600
702.756	0.0132684
702.834	0.0132755
702.912	0.0132870
702.991	0.0132579
703.069	0.0131679
703.147	0.0132960
703.225	0.0131331
703.303	0.0131229
703.381	0.0132945
703.459	0.0133705
703.537	0.0132039
703.616	0.0133199
703.694	0.0133487
703.772	0.0135871
703.850	0.0133436
703.928	0.0135861
704.006	0.0133928
704.084	0.0133307
704.162	0.0133479
704.241	0.0133553
704.319	0.0134680
704.397	0.0133932
704.475	0.0131213
704.553	0.0132166
704.631	0.0132755
704.709	0.0132485
704.787	0.0131940
704.866	0.0131823
704.944	0.0131523
705.022	0.0130489
705.100	0.0130441
705.178	0.0129484
705.256	0.0130646
705.334	0.0131941
705.412	0.0130648
705.491	0.0131281
705.569	0.0132248
705.647	0.0132538
705.725	0.0133094
705.803	0.0133189
705.881	0.0132497
705.959	0.0133623
706.037	0.0133525
706.116	0.0134708
706.194	0.0132300
706.272	0.0133621
706.350	0.0132381
706.428	0.0132735
706.506	0.0133961
706.584	0.0133884
706.662	0.0132181
706.741	0.0132279
706.819	0.0132974
706.897	0.0132247
706.975	0.0133000
707.053	0.0133862
707.131	0.0132154
707.209	0.0132976
707.287	0.0132115
707.366	0.0132609
707.444	0.0132306
707.522	0.0132237
707.600	0.0132062
707.678	0.0132194
707.756	0.0133052
707.834	0.0133662
707.912	0.0133290
707.991	0.0133346
708.069	0.0133134
708.147	0.0134025
708.225	0.0134370
708.303	0.0134801
708.381	0.0133974
708.459	0.0134619
708.537	0.0134322
708.616	0.0134216
708.694	0.0133418
708.772	0.0135168
708.850	0.0134695
708.928	0.0134496
709.006	0.0134653
709.084	0.0135822
709.162	0.0134713
709.241	0.0133464
709.319	0.0134372
709.397	0.0133961
709.475	0.0134968
709.553	0.0134663
709.631	0.0133669
709.709	0.0133395
709.787	0.0134502
709.866	0.0133120
709.944	0.0133839
710.022	0.0133804
710.100	0.0133266
710.178	0.0134586
710.256	0.0132627
710.334	0.0133050
710.412	0.0130666
710.491	0.0131883
710.569	0.0133401
710.647	0.0132031
710.725	0.0131481
710.803	0.0132040
710.881	0.0130292
710.959	0.0132864
711.037	0.0132417
711.116	0.0131571
711.194	0.0131208
711.272	0.0130680
711.350	0.0132299
711.428	0.0131867
711.506	0.0131925
711.584	0.0131322
711.662	0.0131541
711.741	0.0131621
711.819	0.0132323
711.897	0.0131581
711.975	0.0131812
712.053	0.0131551
712.131	0.0132410
712.209	0.0132146
712.287	0.0133331
712.366	0.0131590
712.444	0.0130860
712.522	0.0133414
712.600	0.0133147
712.678	0.0132318
712.756	0.0131313
712.834	0.0132938
712.912	0.0131931
712.991	0.0132717
713.069	0.0131985
713.147	0.0131556
713.225	0.0131475
713.303	0.0131429
713.381	0.0133215
713.459	0.0131105
713.537	0.0131699
713.616	0.0131802
713.694	0.0132513
713.772	0.0133337
713.850	0.0132541
713.928	0.0132289
714.006	0.0132458
714.084	0.0133777
714.162	0.0134624
714.241	0.0133450
714.319	0.0131077
714.397	0.0134017
714.475	0.0134904
714.553	0.0132867
714.631	0.0132079
714.709	0.0130914
714.787	0.0130894
714.866	0.0132108
714.944	0.0132495
715.022	0.0131470
715.100	0.0130998
715.178	0.0129813
715.256	0.0131786
715.334	0.0131045
715.412	0.0129826
715.491	0.0131583
715.569	0.0131182
715.647	0.0131170
715.725	0.0130762
715.803	0.0131237
715.881	0.0131097
715.959	0.0130997
716.037	0.0130910
716.116	0.0131017
716.194	0.0131128
716.272	0.0131214
716.350	0.0131570
716.428	0.0131306
716.506	0.0130036
716.584	0.0132751
716.662	0.0132896
716.741	0.0131970
716.819	0.0131335
716.897	0.0131825
716.975	0.0132020
717.053	0.0132023
717.131	0.0132668
717.209	0.0131721
717.287	0.0132073
717.366	0.0133022
717.444	0.0132443
717.522	0.0134019
717.600	0.0132722
717.678	0.0133214
717.756	0.0131921
717.834	0.0132906
717.912	0.0133472
717.991	0.0133006
718.069	0.0133144
718.147	0.0132566
718.225	0.0134380
718.303	0.0134280
718.381	0.0133060
718.459	0.0134655
718.537	0.0134061
718.616	0.0134458
718.694	0.0134272
718.772	0.0133823
718.850	0.0134204
718.928	0.0134607
719.006	0.0134721
719.084	0.0133891
719.162	0.0133231
719.241	0.0133434
719.319	0.0133629
719.397	0.0132129
719.475	0.0132996
719.553	0.0132360
719.631	0.0132886
719.709	0.0132478
719.787	0.0133157
719.866	0.0132725
719.944	0.0131419
720.022	0.0131403
720.100	0.0131741
720.178	0.0131934
720.256	0.0131436
720.334	0.0133011
720.412	0.0133151
720.491	0.0131625
720.569	0.0133081
720.647	0.0132394
720.725	0.0133631
720.803	0.0133259
720.881	0.0133032
720.959	0.0133282
721.037	0.0132425
721.116	0.0132497
721.194	0.0130907
721.272	0.0131836
721.350	0.0131186
721.428	0.0132767
721.506	0.0131200
721.584	0.0131770
721.662	0.0131646
721.741	0.0130920
721.819	0.0131424
721.897	0.0131207
721.975	0.0130566
722.053	0.0131110
722.131	0.0131479
722.209	0.0131975
722.287	0.0130284
722.366	0.0131931
722.444	0.0130807
722.522	0.0130103
722.600	0.0130825
722.678	0.0131242
722.756	0.0130742
722.834	0.0131785
722.912	0.0132450
722.991	0.0132176
723.069	0.0131844
723.147	0.0132008
723.225	0.0130991
723.303	0.0131467
723.381	0.0131863
723.459	0.0132543
723.537	0.0131924
723.616	0.0131940
723.694	0.0130844
723.772	0.0130775
723.850	0.0131062
723.928	0.0131585
724.006	0.0130368
724.084	0.0130211
724.162	0.0131593
724.241	0.0130755
724.319	0.0131419
724.397	0.0130363
724.475	0.0131390
724.553	0.0131841
724.631	0.0130700
724.709	0.0130664
724.787	0.0130804
724.866	0.0131279
724.944	0.0131535
725.022	0.0130817
725.100	0.0131511
725.178	0.0130617
725.256	0.0131340
725.334	0.0131109
725.412	0.0130490
725.491	0.0131195
725.569	0.0131284
725.647	0.0130702
725.725	0.0130032
725.803	0.0129746
725.881	0.0130063
725.959	0.0130753
726.037	0.0128519
726.116	0.0130280
726.194	0.0131057
726.272	0.0128965
726.350	0.0129342
726.428	0.0131596
726.506	0.0130955
726.584	0.0130712
726.662	0.0130556
726.741	0.0130917
726.819	0.0131947
726.897	0.0131600
726.975	0.0130587
727.053	0.0133630
727.131	0.0133780
727.209	0.0133067
727.287	0.0131803
727.366	0.0132368
727.444	0.0131302
727.522	0.0132481
727.600	0.0131754
727.678	0.0133861
727.756	0.0134127
727.834	0.0132623
727.912	0.0132057
727.991	0.0133453
728.069	0.0132240
728.147	0.0130357
728.225	0.0133350
728.303	0.0133804
728.381	0.0132597
728.459	0.0131872
728.537	0.0132352
728.616	0.0132222
728.694	0.0133469
728.772	0.0131104
728.850	0.0131168
728.928	0.0132378
729.006	0.0132211
729.084	0.0132761
729.162	0.0131681
729.241	0.0132070
729.319	0.0134106
729.397	0.0131918
729.475	0.0131976
729.553	0.0130717
729.631	0.0130067
729.709	0.0132800
729.787	0.0131824
729.866	0.0131380
729.944	0.0131493
730.022	0.0131136
730.100	0.0129919
730.178	0.0130443
730.256	0.0130656
730.334	0.0130758
730.412	0.0132378
730.491	0.0131555
730.569	0.0131640
730.647	0.0132281
730.725	0.0131805
730.803	0.0131189
730.881	0.0132335
730.959	0.0132182
731.037	0.0132481
731.116	0.0131976
731.194	0.0132710
731.272	0.0133524
731.350	0.0132649
731.428	0.0133147
731.506	0.0132713
731.584	0.0132469
731.662	0.0132766
731.741	0.0132809
731.819	0.0133006
731.897	0.0132738
731.975	0.0133326
732.053	0.0132734
732.131	0.0134188
732.209	0.0134104
732.287	0.0132391
732.366	0.0131919
732.444	0.0132668
732.522	0.0132796
732.600	0.0134338
732.678	0.0132705
732.756	0.0131913
732.834	0.0133747
732.912	0.0132642
732.991	0.0132642
733.069	0.0131743
733.147	0.0132846
733.225	0.0133443
733.303	0.0132513
733.381	0.0132938
733.459	0.0132766
733.537	0.0132861
733.616	0.0132528
733.694	0.0132890
733.772	0.0133073
733.850	0.0133366
733.928	0.0133630
734.006	0.0134125
734.084	0.0133749
734.162	0.0130872
734.241	0.0132780
734.319	0.0131810
734.397	0.0133257
734.475	0.0133379
734.553	0.0133007
734.631	0.0133210
734.709	0.0132522
734.787	0.0131264
734.866	0.0132713
734.944	0.0130825
735.022	0.0132458
735.100	0.0131799
735.178	0.0130614
735.256	0.0130520
735.334	0.0131794
735.412	0.0132200
735.491	0.0132400
735.569	0.0132251
735.647	0.0130283
735.725	0.0130468
735.803	0.0133266
735.881	0.0132729
735.959	0.0130399
736.037	0.0131747
736.116	0.0132278
736.194	0.0131430
736.272	0.0131546
736.350	0.0130508
736.428	0.0130121
736.506	0.0132052
736.584	0.0132030
736.662	0.0131185
736.741	0.0129697
736.819	0.0130474
736.897	0.0129894
736.975	0.0130002
737.053	0.0130804
737.131	0.0129777
737.209	0.0131686
737.287	0.0131002
737.366	0.0132542
737.444	0.0131741
737.522	0.0131117
737.600	0.0132580
737.678	0.0132548
737.756	0.0131187
737.834	0.0132508
737.912	0.0131693
737.991	0.0131858
738.069	0.0132020
738.147	0.0131282
738.225	0.0132568
738.303	0.0133221
738.381	0.0132575
738.459	0.0132944
738.537	0.0130846
738.616	0.0131572
738.694	0.0131994
738.772	0.0131725
738.850	0.0131606
738.928	0.0131200
739.006	0.0132391
739.084	0.0131254
739.162	0.0129900
739.241	0.0132013
739.319	0.0132524
739.397	0.0132259
739.475	0.0133105
739.553	0.0132333
739.631	0.0131898
739.709	0.0131239
739.787	0.0131753
739.866	0.0131856
739.944	0.0131901
740.022	0.0133269
740.100	0.0133861
740.178	0.0132861
740.256	0.0133856
740.334	0.0133773
740.412	0.0133222
740.491	0.0134776
740.569	0.0133678
740.647	0.0132075
740.725	0.0131471
740.803	0.0132014
740.881	0.0131527
740.959	0.0132284
741.037	0.0132602
741.116	0.0133710
741.194	0.0133199
741.272	0.0130876
741.350	0.0131972
741.428	0.0133788
741.506	0.0132664
741.584	0.0131745
741.662	0.0131306
741.741	0.0131075
741.819	0.0131606
741.897	0.0131673
741.975	0.0131432
742.053	0.0131953
742.131	0.0130938
742.209	0.0131049
742.287	0.0134634
742.366	0.0132866
742.444	0.0131685
742.522	0.0133416
742.600	0.0132685
742.678	0.0134559
742.756	0.0132856
742.834	0.0133564
742.912	0.0132340
742.991	0.0133369
743.069	0.0133626
743.147	0.0133479
743.225	0.0131926
743.303	0.0132429
743.381	0.0133088
743.459	0.0132101
743.537	0.0132738
743.616	0.0132763
743.694	0.0132374
743.772	0.0132315
743.850	0.0132762
743.928	0.0131866
744.006	0.0132088
744.084	0.0133026
744.162	0.0132510
744.241	0.0130093
744.319	0.0131453
744.397	0.0132519
744.475	0.0132793
744.553	0.0132317
744.631	0.0131989
744.709	0.0131951
744.787	0.0132047
744.866	0.0132060
744.944	0.0132478
745.022	0.0131763
745.100	0.0131239
745.178	0.0131696
745.256	0.0131297
745.334	0.0132739
745.412	0.0133009
745.491	0.0131812
745.569	0.0131364
745.647	0.0131747
745.725	0.0131426
745.803	0.0131443
745.881	0.0130634
745.959	0.0131040
746.037	0.0131106
746.116	0.0132143
746.194	0.0132375
746.272	0.0132831
746.350	0.0133447
746.428	0.0131901
746.506	0.0132532
746.584	0.0132880
746.662	0.0133428
746.741	0.0132992
746.819	0.0134259
746.897	0.0133276
746.975	0.0132860
747.053	0.0133860
747.131	0.0133080
747.209	0.0133714
747.287	0.0132925
747.366	0.0132269
747.444	0.0132712
747.522	0.0133259
747.600	0.0132536
747.678	0.0131380
747.756	0.0132652
747.834	0.0132623
747.912	0.0132270
747.991	0.0133510
748.069	0.0133163
748.147	0.0132525
748.225	0.0133492
748.303	0.0133367
748.381	0.0133275
748.459	0.0133789
748.537	0.0134249
748.616	0.0134032
748.694	0.0133278
748.772	0.0134887
748.850	0.0133808
748.928	0.0134000
749.006	0.0133910
749.084	0.0133850
749.162	0.0132764
749.241	0.0134328
749.319	0.0133476
749.397	0.0134817
749.475	0.0133926
749.553	0.0131896
749.631	0.0133879
749.709	0.0132182
749.787	0.0133155
749.866	0.0133765
749.944	0.0132737
750.022	0.0133385
750.100	0.0133311
750.178	0.0133264
750.256	0.0133630
750.334	0.0132652
750.412	0.0132408
750.491	0.0130822
750.569	0.0132500
750.647	0.0132131
750.725	0.0132893
750.803	0.0132451
750.881	0.0134057
750.959	0.0132916
751.037	0.0131987
751.116	0.0131751
751.194	0.0132134
751.272	0.0131924
751.350	0.0132925
751.428	0.0132281
751.506	0.0131784
751.584	0.0132420
751.662	0.0131404
751.741	0.0131542
751.819	0.0131238
751.897	0.0132301
751.975	0.0132317
752.053	0.0130726
752.131	0.0131385
752.209	0.0132076
752.287	0.0133614
752.366	0.0131969
752.444	0.0130965
752.522	0.0131100
752.600	0.0130803
752.678	0.0131607
752.756	0.0131718
752.834	0.0131630
752.912	0.0130112
752.991	0.0131311
753.069	0.0132889
753.147	0.0131953
753.225	0.0132802
753.303	0.0132433
753.381	0.0132586
753.459	0.0132439
753.537	0.0132292
753.616	0.0131954
753.694	0.0132523
753.772	0.0131783
753.850	0.0132454
753.928	0.0132957
754.006	0.0131880
754.084	0.0131998
754.162	0.0131255
754.241	0.0133267
754.319	0.0131322
754.397	0.0131420
754.475	0.0132312
754.553	0.0131000
754.631	0.0132072
754.709	0.0131722
754.787	0.0131976
754.866	0.0132069
754.944	0.0130773
755.022	0.0131810
755.100	0.0132732
755.178	0.0132349
755.256	0.0132338
755.334	0.0131116
755.412	0.0131439
755.491	0.0132114
755.569	0.0131852
755.647	0.0131874
755.725	0.0132856
755.803	0.0132543
755.881	0.0132991
755.959	0.0132006
756.037	0.0132906
756.116	0.0132053
756.194	0.0131721
756.272	0.0132755
756.350	0.0132027
756.428	0.0131583
756.506	0.0133967
756.584	0.0133488
756.662	0.0131933
756.741	0.0131886
756.819	0.0132359
756.897	0.0130968
756.975	0.0130875
757.053	0.0132322
757.131	0.0133066
757.209	0.0132598
757.287	0.0133079
757.366	0.0132948
757.444	0.0131883
757.522	0.0132378
757.600	0.0132711
757.678	0.0132076
757.756	0.0131089
757.834	0.0131417
757.912	0.0132019
757.991	0.0131752
758.069	0.0132629
758.147	0.0132513
758.225	0.0132554
758.303	0.0132220
758.381	0.0132137
758.459	0.0132396
758.537	0.0132678
758.616	0.0132958
758.694	0.0133366
758.772	0.0131405
758.850	0.0131148
758.928	0.0132076
759.006	0.0132224
759.084	0.0132175
759.162	0.0131429
759.241	0.0131651
759.319	0.0131818
759.397	0.0132667
759.475	0.0132775
759.553	0.0132105
759.631	0.0131030
759.709	0.0133102
759.787	0.0132603
759.866	0.0131760
759.944	0.0131921
760.022	0.0131463
760.100	0.0131449
760.178	0.0131614
760.256	0.0131157
760.334	0.0130199
760.412	0.0130956
760.491	0.0132565
760.569	0.0132203
760.647	0.0131661
760.725	0.0130711
760.803	0.0130312
760.881	0.0131844
760.959	0.0130869
761.037	0.0129755
761.116	0.0130585
761.194	0.0130367
761.272	0.0131136
761.350	0.0131617
761.428	0.0130663
761.506	0.0132073
761.584	0.0131959
761.662	0.0132607
761.741	0.0131814
761.819	0.0131937
761.897	0.0131933
761.975	0.0132984
762.053	0.0131860
762.131	0.0132468
762.209	0.0133204
762.287	0.0131853
762.366	0.0132097
762.444	0.0133508
762.522	0.0132840
762.600	0.0132645
762.678	0.0131603
762.756	0.0130793
762.834	0.0132553
762.912	0.0132298
762.991	0.0133774
763.069	0.0131834
763.147	0.0130331
763.225	0.0131469
763.303	0.0133757
763.381	0.0131974
763.459	0.0131635
763.537	0.0132505
763.616	0.0131387
763.694	0.0132167
763.772	0.0133289
763.850	0.0131945
763.928	0.0131828
764.006	0.0132877
764.084	0.0132810
764.162	0.0133629
764.241	0.0132950
764.319	0.0132281
764.397	0.0132571
764.475	0.0131790
764.553	0.0131104
764.631	0.0132694
764.709	0.0132598
764.787	0.0132590
764.866	0.0132200
764.944	0.0133151
765.022	0.0133762
765.100	0.0130759
765.178	0.0131394
765.256	0.0131399
765.334	0.0131784
765.412	0.0132295
765.491	0.0132369
765.569	0.0132098
765.647	0.0132185
765.725	0.0132116
765.803	0.0131354
765.881	0.0130527
765.959	0.0132420
766.037	0.0132231
766.116	0.0130850
766.194	0.0131998
766.272	0.0131441
766.350	0.0130927
766.428	0.0130689
766.506	0.0131664
766.584	0.0132474
766.662	0.0132893
766.741	0.0131700
766.819	0.0131483
766.897	0.0131974
766.975	0.0131132
767.053	0.0130792
767.131	0.0132439
767.209	0.0131892
767.287	0.0131528
767.366	0.0131714
767.444	0.0132597
767.522	0.0132513
767.600	0.0132391
767.678	0.0131963
767.756	0.0132930
767.834	0.0133086
767.912	0.0132220
767.991	0.0131680
768.069	0.0132202
768.147	0.0131935
768.225	0.0131832
768.303	0.0132045
768.381	0.0132189
768.459	0.0132833
768.537	0.0132303
768.616	0.0130746
768.694	0.0131625
768.772	0.0132637
768.850	0.0132424
768.928	0.0132642
769.006	0.0132162
769.084	0.0132566
769.162	0.0131551
769.241	0.0131474
769.319	0.0131868
769.397	0.0132728
769.475	0.0131438
769.553	0.0132655
769.631	0.0132265
769.709	0.0129723
769.787	0.0131666
769.866	0.0130682
769.944	0.0132419
770.022	0.0132095
770.100	0.0131579
770.178	0.0130661
770.256	0.0131899
770.334	0.0132609
770.412	0.0132039
770.491	0.0131912
770.569	0.0131807
770.647	0.0133676
770.725	0.0131562
770.803	0.0131987
770.881	0.0132518
770.959	0.0132022
771.037	0.0132370
771.116	0.0132255
771.194	0.0132507
771.272	0.0131548
771.350	0.0131262
771.428	0.0131386
771.506	0.0132656
771.584	0.0132700
771.662	0.0132060
771.741	0.0131686
771.819	0.0132504
771.897	0.0131345
771.975	0.0130869
772.053	0.0132206
772.131	0.0132096
772.209	0.0131456
772.287	0.0131709
772.366	0.0133257
772.444	0.0132135
772.522	0.0132102
772.600	0.0132378
772.678	0.0133626
772.756	0.0131853
772.834	0.0131802
772.912	0.0132986
772.991	0.0131989
773.069	0.0133099
773.147	0.0134196
773.225	0.0132320
773.303	0.0132872
773.381	0.0131493
773.459	0.0133908
773.537	0.0134219
773.616	0.0131013
773.694	0.0131662
773.772	0.0132920
773.850	0.0131606
773.928	0.0133074
774.006	0.0133386
774.084	0.0131128
774.162	0.0132020
774.241	0.0132585
774.319	0.0132405
774.397	0.0131068
774.475	0.0131428
774.553	0.0133466
774.631	0.0132493
774.709	0.0133018
774.787	0.0132810
774.866	0.0131951
774.944	0.0133016
775.022	0.0132104
775.100	0.0132516
775.178	0.0132385
775.256	0.0132865
775.334	0.0132382
775.412	0.0133838
775.491	0.0133736
775.569	0.0132598
775.647	0.0132015
775.725	0.0133675
775.803	0.0133289
775.881	0.0132902
775.959	0.0131734
776.037	0.0133061
776.116	0.0133468
776.194	0.0133842
776.272	0.0133257
776.350	0.0131556
776.428	0.0132314
776.506	0.0132961
776.584	0.0132662
776.662	0.0131382
776.741	0.0131628
776.819	0.0130969
776.897	0.0133250
776.975	0.0131673
777.053	0.0131525
777.131	0.0131898
777.209	0.0132095
777.287	0.0131640
777.366	0.0132062
777.444	0.0133204
777.522	0.0132563
777.600	0.0132780
777.678	0.0131989
777.756	0.0133250
777.834	0.0131925
777.912	0.0132179
777.991	0.0133047
778.069	0.0133429
778.147	0.0132750
778.225	0.0131552
778.303	0.0131845
778.381	0.0133257
778.459	0.0133308
778.537	0.0132807
778.616	0.0132352
778.694	0.0132386
778.772	0.0133772
778.850	0.0133382
778.928	0.0133741
779.006	0.0132647
779.084	0.0132886
779.162	0.0133439
779.241	0.0134782
779.319	0.0133244
779.397	0.0132903
779.475	0.0134564
779.553	0.0133385
779.631	0.0133293
779.709	0.0133533
779.787	0.0134582
779.866	0.0134116
779.944	0.0134015
780.022	0.0133056
780.100	0.0132762
780.178	0.0133305
780.256	0.0132351
780.334	0.0133800
780.412	0.0132358
780.491	0.0133247
780.569	0.0131702
780.647	0.0132438
780.725	0.0132043
780.803	0.0132990
780.881	0.0132792
780.959	0.0132128
781.037	0.0133252
781.116	0.0132938
781.194	0.0132693
781.272	0.0133331
781.350	0.0133869
781.428	0.0132190
781.506	0.0131570
781.584	0.0131358
781.662	0.0133397
781.741	0.0132185
781.819	0.0132035
781.897	0.0133569
781.975	0.0133018
782.053	0.0132762
782.131	0.0132954
782.209	0.0131927
782.287	0.0133119
782.366	0.0131439
782.444	0.0131698
782.522	0.0132998
782.600	0.0130939
782.678	0.0131174
782.756	0.0131773
782.834	0.0132049
782.912	0.0131164
782.991	0.0130721
783.069	0.0132481
783.147	0.0130952
783.225	0.0131298
783.303	0.0131242
783.381	0.0132011
783.459	0.0129921
783.537	0.0131786
783.616	0.0132812
783.694	0.0132039
783.772	0.0131786
783.850	0.0132364
783.928	0.0132079
784.006	0.0133150
784.084	0.0132813
784.162	0.0132018
784.241	0.0133289
784.319	0.0132762
784.397	0.0132411
784.475	0.0131622
784.553	0.0132217
784.631	0.0132759
784.709	0.0131962
784.787	0.0131226
784.866	0.0131892
784.944	0.0133974
785.022	0.0132292
785.100	0.0131435
785.178	0.0131351
785.256	0.0131388
785.334	0.0130628
785.412	0.0132923
785.491	0.0132045
785.569	0.0131246
785.647	0.0131672
785.725	0.0131625
785.803	0.0132501
785.881	0.0131422
785.959	0.0131618
786.037	0.0131551
786.116	0.0131176
786.194	0.0132003
786.272	0.0132184
786.350	0.0131136
786.428	0.0131630
786.506	0.0131446
786.584	0.0131146
786.662	0.0131615
786.741	0.0132372
786.819	0.0132846
786.897	0.0132290
786.975	0.0130897
787.053	0.0132591
787.131	0.0131680
787.209	0.0131561
787.287	0.0132635
787.366	0.0131510
787.444	0.0132677
787.522	0.0131403
787.600	0.0133138
787.678	0.0133257
787.756	0.0132867
787.834	0.0131430
787.912	0.0133747
787.991	0.0133648
788.069	0.0131444
788.147	0.0131599
788.225	0.0131955
788.303	0.0132449
788.381	0.0133337
788.459	0.0133279
788.537	0.0132569
788.616	0.0133589
788.694	0.0132011
788.772	0.0131476
788.850	0.0132109
788.928	0.0132470
789.006	0.0132578
789.084	0.0131262
789.162	0.0131614
789.241	0.0131776
789.319	0.0131656
789.397	0.0130407
789.475	0.0131319
789.553	0.0130666
789.631	0.0131263
789.709	0.0132796
789.787	0.0131713
789.866	0.0130215
789.944	0.0130430
790.022	0.0131223
790.100	0.0132046
790.178	0.0132182
790.256	0.0131019
790.334	0.0130698
790.412	0.0131660
790.491	0.0130932
790.569	0.0130647
790.647	0.0131627
790.725	0.0130491
790.803	0.0132806
790.881	0.0132342
790.959	0.0131882
791.037	0.0132343
791.116	0.0133836
791.194	0.0132772
791.272	0.0131369
791.350	0.0131802
791.428	0.0132375
791.506	0.0132245
791.584	0.0132050
791.662	0.0131853
791.741	0.0131824
791.819	0.0132320
791.897	0.0130364
791.975	0.0131629
792.053	0.0131337
792.131	0.0131969
792.209	0.0131155
792.287	0.0130905
792.366	0.0131767
792.444	0.0130535
792.522	0.0131970
792.600	0.0131458
792.678	0.0130936
792.756	0.0132584
792.834	0.0130627
792.912	0.0132843
792.991	0.0131496
793.069	0.0131100
793.147	0.0133144
793.225	0.0130865
793.303	0.0129498
793.381	0.0130698
793.459	0.0131259
793.537	0.0130177
793.616	0.0130128
793.694	0.0131322
793.772	0.0130229
793.850	0.0130193
793.928	0.0130463
794.006	0.0129710
794.084	0.0130969
794.162	0.0130849
794.241	0.0131098
794.319	0.0130270
794.397	0.0131319
794.475	0.0132397
794.553	0.0132925
794.631	0.0133235
794.709	0.0132273
794.787	0.0133643
794.866	0.0131047
794.944	0.0132244
795.022	0.0133774
795.100	0.0131678
795.178	0.0132114
795.256	0.0133699
795.334	0.0132813
795.412	0.0132294
795.491	0.0132415
795.569	0.0133160
795.647	0.0132703
795.725	0.0132098
795.803	0.0132935
795.881	0.0132519
795.959	0.0132513
796.037	0.0132468
796.116	0.0131765
796.194	0.0132672
796.272	0.0132491
796.350	0.0132258
796.428	0.0132481
796.506	0.0133388
796.584	0.0132798
796.662	0.0131377
796.741	0.0131301
796.819	0.0132409
796.897	0.0132829
796.975	0.0132628
797.053	0.0132748
797.131	0.0131586
797.209	0.0132610
797.287	0.0130704
797.366	0.0133047
797.444	0.0133362
797.522	0.0132350
797.600	0.0131745
797.678	0.0131554
797.756	0.0132729
797.834	0.0132513
797.912	0.0133064
797.991	0.0131789
798.069	0.0132313
798.147	0.0132485
798.225	0.0132350
798.303	0.0131071
798.381	0.0131086
798.459	0.0131939
798.537	0.0132468
798.616	0.0132867
798.694	0.0131307
798.772	0.0131656
798.850	0.0132671
798.928	0.0130966
799.006	0.0132061
799.084	0.0131433
799.162	0.0132627
799.241	0.0131122
799.319	0.0131127
799.397	0.0131384
799.475	0.0131621
799.553	0.0133139
799.631	0.0131055
799.709	0.0133092
799.787	0.0131942
799.866	0.0132597
799.944	0.0132248
800.022	0.0132323
800.100	0.0132697
800.178	0.0133101
800.256	0.0131686
800.334	0.0132876
800.412	0.0131188
800.491	0.0131057
800.569	0.0131738
800.647	0.0132401
800.725	0.0132602
800.803	0.0132708
800.881	0.0131573
800.959	0.0131615
801.037	0.0131676
801.116	0.0132000
801.194	0.0132249
801.272	0.0131158
801.350	0.0132552
801.428	0.0132122
801.506	0.0131517
801.584	0.0131637
801.662	0.0131810
801.741	0.0131891
801.819	0.0131415
801.897	0.0131642
801.975	0.0132391
802.053	0.0131676
802.131	0.0133210
802.209	0.0131651
802.287	0.0131770
802.366	0.0130817
802.444	0.0131465
802.522	0.0132658
802.600	0.0131387
802.678	0.0131658
802.756	0.0132611
802.834	0.0131783
802.912	0.0131230
802.991	0.0131783
803.069	0.0131303
803.147	0.0131860
803.225	0.0132244
803.303	0.0132256
803.381	0.0131509
803.459	0.0132496
803.537	0.0132166
803.616	0.0131415
803.694	0.0131374
803.772	0.0130940
803.850	0.0131454
803.928	0.0132040
804.006	0.0131633
804.084	0.0132240
804.162	0.0132027
804.241	0.0130131
804.319	0.0130598
804.397	0.0131326
804.475	0.0132588
804.553	0.0131055
804.631	0.0131505
804.709	0.0131982
804.787	0.0132227
804.866	0.0131580
804.944	0.0131441
805.022	0.0131116
805.100	0.0132549
805.178	0.0132097
805.256	0.0131465
805.334	0.0132430
805.412	0.0130612
805.491	0.0131306
805.569	0.0133092
805.647	0.0132757
805.725	0.0131075
805.803	0.0132484
805.881	0.0132269
805.959	0.0132932
806.037	0.0131521
806.116	0.0131999
806.194	0.0132452
806.272	0.0133044
806.350	0.0131933
806.428	0.0131339
806.506	0.0132462
806.584	0.0130949
806.662	0.0130659
806.741	0.0132277
806.819	0.0132848
806.897	0.0134163
806.975	0.0132991
807.053	0.0132304
807.131	0.0133184
807.209	0.0131696
807.287	0.0132238
807.366	0.0133414
807.444	0.0131752
807.522	0.0131726
807.600	0.0132592
807.678	0.0132452
807.756	0.0131306
807.834	0.0131301
807.912	0.0131581
807.991	0.0131831
808.069	0.0132272
808.147	0.0131053
808.225	0.0131536
808.303	0.0132394
808.381	0.0131460
808.459	0.0133361
808.537	0.0131593
808.616	0.0130331
808.694	0.0131264
808.772	0.0131721
808.850	0.0132100
808.928	0.0132733
809.006	0.0131869
809.084	0.0131039
809.162	0.0131244
809.241	0.0131867
809.319	0.0132820
809.397	0.0131345
809.475	0.0130282
809.553	0.0130976
809.631	0.0132037
809.709	0.0132812
809.787	0.0132187
809.866	0.0132382
809.944	0.0130856
810.022	0.0131393
810.100	0.0131891
810.178	0.0131334
810.256	0.0131687
810.334	0.0131284
810.412	0.0130451
810.491	0.0133052
810.569	0.0132209
810.647	0.0132761
810.725	0.0131258
810.803	0.0131953
810.881	0.0130604
810.959	0.0131633
811.037	0.0132281
811.116	0.0131635
811.194	0.0132345
811.272	0.0132979
811.350	0.0133599
811.428	0.0131432
811.506	0.0132703
811.584	0.0132658
811.662	0.0131940
811.741	0.0133060
811.819	0.0131003
811.897	0.0132121
811.975	0.0131985
812.053	0.0133766
812.131	0.0132810
812.209	0.0132559
812.287	0.0133042
812.366	0.0131889
812.444	0.0132780
812.522	0.0133375
812.600	0.0131353
812.678	0.0132007
812.756	0.0133016
812.834	0.0133958
812.912	0.0132631
812.991	0.0133241
813.069	0.0133274
813.147	0.0132211
813.225	0.0132678
813.303	0.0130714
813.381	0.0132101
813.459	0.0132323
813.537	0.0132964
813.616	0.0131654
813.694	0.0132239
813.772	0.0132066
813.850	0.0130756
813.928	0.0131818
814.006	0.0133139
814.084	0.0131445
814.162	0.0132618
814.241	0.0133428
814.319	0.0132337
814.397	0.0131802
814.475	0.0131673
814.553	0.0132743
814.631	0.0131628
814.709	0.0132822
814.787	0.0131387
814.866	0.0131459
814.944	0.0131234
815.022	0.0130886
815.100	0.0131796
815.178	0.0131561
815.256	0.0131767
815.334	0.0131575
815.412	0.0133920
815.491	0.0131562
815.569	0.0132133
815.647	0.0130151
815.725	0.0131522
815.803	0.0132217
815.881	0.0132819
815.959	0.0131505
816.037	0.0132506
816.116	0.0131938
816.194	0.0131347
816.272	0.0130863
816.350	0.0130859
816.428	0.0132014
816.506	0.0132543
816.584	0.0131515
816.662	0.0131416
816.741	0.0130421
816.819	0.0132780
816.897	0.0130627
816.975	0.0130922
817.053	0.0132000
817.131	0.0131826
817.209	0.0131277
817.287	0.0130659
817.366	0.0132050
817.444	0.0130830
817.522	0.0130762
817.600	0.0131603
817.678	0.0131483
817.756	0.0131353
817.834	0.0130911
817.912	0.0131271
817.991	0.0133459
818.069	0.0131248
818.147	0.0131170
818.225	0.0131149
818.303	0.0132207
818.381	0.0131761
818.459	0.0132130
818.537	0.0131647
818.616	0.0131658
818.694	0.0131553
818.772	0.0131633
818.850	0.0131770
818.928	0.0132270
819.006	0.0133117
819.084	0.0131632
819.162	0.0132706
819.241	0.0131355
819.319	0.0131717
819.397	0.0133290
819.475	0.0130202
819.553	0.0131557
819.631	0.0132183
819.709	0.0129559
819.787	0.0130937
819.866	0.0130576
819.944	0.0131767
820.022	0.0131265
820.100	0.0132604
820.178	0.0132027
820.256	0.0132296
820.334	0.0132050
820.412	0.0133421
820.491	0.0132899
820.569	0.0132009
820.647	0.0130959
820.725	0.0133936
820.803	0.0131660
820.881	0.0132092
820.959	0.0133201
821.037	0.0131796
821.116	0.0132244
821.194	0.0132454
821.272	0.0132712
821.350	0.0131882
821.428	0.0131892
821.506	0.0131516
821.584	0.0132499
821.662	0.0130802
821.741	0.0133508
821.819	0.0131609
821.897	0.0132710
821.975	0.0133014
822.053	0.0132060
822.131	0.0132191
822.209	0.0132391
822.287	0.0132038
822.366	0.0132053
822.444	0.0131805
822.522	0.0133918
822.600	0.0132966
822.678	0.0132150
822.756	0.0132327
822.834	0.0131858
822.912	0.0131226
822.991	0.0132799
823.069	0.0131339
823.147	0.0131837
823.225	0.0131544
823.303	0.0131258
823.381	0.0131915
823.459	0.0132014
823.537	0.0132725
823.616	0.0131711
823.694	0.0131576
823.772	0.0130786
823.850	0.0131394
823.928	0.0132420
824.006	0.0131446
824.084	0.0132437
824.162	0.0131783
824.241	0.0132118
824.319	0.0131660
824.397	0.0131255
824.475	0.0132080
824.553	0.0131109
824.631	0.0131300
824.709	0.0131659
824.787	0.0132528
824.866	0.0131780
824.944	0.0131183
825.022	0.0131017
825.100	0.0131377
825.178	0.0131453
825.256	0.0129816
825.334	0.0130833
825.412	0.0131102
825.491	0.0132881
825.569	0.0131679
825.647	0.0132434
825.725	0.0131157
825.803	0.0132695
825.881	0.0131767
825.959	0.0131641
826.037	0.0131223
826.116	0.0131420
826.194	0.0131732
826.272	0.0131822
826.350	0.0131243
826.428	0.0130724
826.506	0.0131123
826.584	0.0130705
826.662	0.0131343
826.741	0.0129788
826.819	0.0131522
826.897	0.0131647
826.975	0.0131828
827.053	0.0132348
827.131	0.0131406
827.209	0.0133322
827.287	0.0131279
827.366	0.0133068
827.444	0.0132012
827.522	0.0133182
827.600	0.0132092
827.678	0.0132920
827.756	0.0132956
827.834	0.0131907
827.912	0.0133717
827.991	0.0132520
828.069	0.0131233
828.147	0.0132677
828.225	0.0132587
828.303	0.0132596
828.381	0.0132130
828.459	0.0131506
828.537	0.0133053
828.616	0.0131841
828.694	0.0132727
828.772	0.0132667
828.850	0.0132786
828.928	0.0130727
829.006	0.0132008
829.084	0.0133962
829.162	0.0133416
829.241	0.0132432
829.319	0.0131190
829.397	0.0132018
829.475	0.0133923
829.553	0.0132221
829.631	0.0131826
829.709	0.0132690
829.787	0.0132222
829.866	0.0132680
829.944	0.0131870
830.022	0.0132810
830.100	0.0131871
830.178	0.0132023
830.256	0.0131371
830.334	0.0132539
830.412	0.0132912
830.491	0.0131721
830.569	0.0133257
830.647	0.0132144
830.725	0.0131264
830.803	0.0130850
830.881	0.0131568
830.959	0.0130637
831.037	0.0130791
831.116	0.0131631
831.194	0.0131133
831.272	0.0130231
831.350	0.0131455
831.428	0.0130883
831.506	0.0131325
831.584	0.0131534
831.662	0.0131424
831.741	0.0131957
831.819	0.0132121
831.897	0.0131074
831.975	0.0131760
832.053	0.0131538
832.131	0.0131376
832.209	0.0131537
832.287	0.0131178
832.366	0.0131638
832.444	0.0131210
832.522	0.0130447
832.600	0.0130694
832.678	0.0131152
832.756	0.0130744
832.834	0.0130808
832.912	0.0131355
832.991	0.0132326
833.069	0.0132075
833.147	0.0132005
833.225	0.0132077
833.303	0.0132441
833.381	0.0133357
833.459	0.0131000
833.537	0.0130431
833.616	0.0133281
833.694	0.0132288
833.772	0.0132641
833.850	0.0132315
833.928	0.0132738
834.006	0.0134207
834.084	0.0133425
834.162	0.0132941
834.241	0.0132913
834.319	0.0134187
834.397	0.0132236
834.475	0.0132921
834.553	0.0132130
834.631	0.0134444
834.709	0.0132182
834.787	0.0131954
834.866	0.0132818
834.944	0.0132351
835.022	0.0132320
835.100	0.0132425
835.178	0.0132133
835.256	0.0133980
835.334	0.0132870
835.412	0.0132114
835.491	0.0132504
835.569	0.0133873
835.647	0.0132066
835.725	0.0132458
835.803	0.0133595
835.881	0.0131837
835.959	0.0132318
836.037	0.0134208
836.116	0.0132280
836.194	0.0131791
836.272	0.0133412
836.350	0.0133092
836.428	0.0132369
836.506	0.0133643
836.584	0.0133590
836.662	0.0133289
836.741	0.0132103
836.819	0.0132513
836.897	0.0131825
836.975	0.0132996
837.053	0.0133032
837.131	0.0132930
837.209	0.0134000
837.287	0.0132759
837.366	0.0132899
837.444	0.0134946
837.522	0.0133201
837.600	0.0132143
837.678	0.0134098
837.756	0.0134285
837.834	0.0132619
837.912	0.0133612
837.991	0.0133897
838.069	0.0132949
838.147	0.0132896
838.225	0.0132686
838.303	0.0132782
838.381	0.0133453
838.459	0.0133859
838.537	0.0133801
838.616	0.0133926
838.694	0.0133565
838.772	0.0133378
838.850	0.0132622
838.928	0.0133331
839.006	0.0133863
839.084	0.0133696
839.162	0.0132311
839.241	0.0134293
839.319	0.0132630
839.397	0.0131537
839.475	0.0134470
839.553	0.0133944
839.631	0.0131879
839.709	0.0133237
839.787	0.0131463
839.866	0.0132422
839.944	0.0133095
840.022	0.0131982
840.100	0.0132403
840.178	0.0133046
840.256	0.0131479
840.334	0.0132979
840.412	0.0133423
840.491	0.0131587
840.569	0.0132580
840.647	0.0133270
840.725	0.0133115
840.803	0.0131711
840.881	0.0132202
840.959	0.0132166
841.037	0.0132363
841.116	0.0132003
841.194	0.0133592
841.272	0.0133703
841.350	0.0132518
841.428	0.0133305
841.506	0.0133415
841.584	0.0132520
841.662	0.0134219
841.741	0.0132452
841.819	0.0133621
841.897	0.0133379
841.975	0.0133530
842.053	0.0131779
842.131	0.0133121
842.209	0.0132621
842.287	0.0132956
842.366	0.0132589
842.444	0.0132144
842.522	0.0133420
842.600	0.0133996
842.678	0.0134477
842.756	0.0133923
842.834	0.0134121
842.912	0.0132430
842.991	0.0133730
843.069	0.0133092
843.147	0.0133042
843.225	0.0134260
843.303	0.0134275
843.381	0.0135926
843.459	0.0133885
843.537	0.0134540
843.616	0.0133054
843.694	0.0133327
843.772	0.0134019
843.850	0.0133003
843.928	0.0133939
844.006	0.0133169
844.084	0.0133217
844.162	0.0132345
844.241	0.0132937
844.319	0.0131812
844.397	0.0133382
844.475	0.0133926
844.553	0.0133237
844.631	0.0133823
844.709	0.0134434
844.787	0.0133266
844.866	0.0132864
844.944	0.0132600
845.022	0.0133282
845.100	0.0131116
845.178	0.0131463
845.256	0.0132329
845.334	0.0132365
845.412	0.0134902
845.491	0.0132864
845.569	0.0133005
845.647	0.0133385
845.725	0.0131435
845.803	0.0133444
845.881	0.0132944
845.959	0.0132552
846.037	0.0132548
846.116	0.0133201
846.194	0.0132426
846.272	0.0133527
846.350	0.0133407
846.428	0.0133665
846.506	0.0133550
846.584	0.0132467
846.662	0.0132772
846.741	0.0132595
846.819	0.0132188
846.897	0.0131896
846.975	0.0132234
847.053	0.0132330
847.131	0.0132936
847.209	0.0132742
847.287	0.0132851
847.366	0.0133144
847.444	0.0131989
847.522	0.0132790
847.600	0.0132264
847.678	0.0131326
847.756	0.0131277
847.834	0.0131662
847.912	0.0132397
847.991	0.0133193
848.069	0.0132652
848.147	0.0133446
848.225	0.0132745
848.303	0.0130992
848.381	0.0132418
848.459	0.0131969
848.537	0.0131709
848.616	0.0131306
848.694	0.0132426
848.772	0.0132378
848.850	0.0132153
848.928	0.0132431
849.006	0.0132789
849.084	0.0131211
849.162	0.0132845
849.241	0.0132895
849.319	0.0133208
849.397	0.0132470
849.475	0.0131710
849.553	0.0132500
849.631	0.0131185
849.709	0.0132024
849.787	0.0132378
849.866	0.0133250
849.944	0.0131170
850.022	0.0132570
850.100	0.0133028
850.178	0.0132294
850.256	0.0132979
850.334	0.0132647
850.412	0.0132711
850.491	0.0131830
850.569	0.0132186
850.647	0.0132691
850.725	0.0132088
850.803	0.0133504
850.881	0.0131416
850.959	0.0132224
851.037	0.0132735
851.116	0.0133107
851.194	0.0132912
851.272	0.0132181
851.350	0.0132957
851.428	0.0133983
851.506	0.0132774
851.584	0.0131294
851.662	0.0132672
851.741	0.0131332
851.819	0.0132966
851.897	0.0133752
851.975	0.0132613
852.053	0.0132211
852.131	0.0132430
852.209	0.0133121
852.287	0.0133600
852.366	0.0134130
852.444	0.0133173
852.522	0.0132303
852.600	0.0132307
852.678	0.0133508
852.756	0.0132697
852.834	0.0132701
852.912	0.0133462
852.991	0.0132224
853.069	0.0131875
853.147	0.0132960
853.225	0.0131698
853.303	0.0132014
853.381	0.0132619
853.459	0.0133050
853.537	0.0132574
853.616	0.0133482
853.694	0.0133443
853.772	0.0133779
853.850	0.0133390
853.928	0.0133621
854.006	0.0133266
854.084	0.0132278
854.162	0.0133395
854.241	0.0133818
854.319	0.0132863
854.397	0.0131968
854.475	0.0132076
854.553	0.0133799
854.631	0.0133286
854.709	0.0133656
854.787	0.0132565
854.866	0.0132908
854.944	0.0132726
855.022	0.0132172
855.100	0.0132039
855.178	0.0133615
855.256	0.0132703
855.334	0.0133159
855.412	0.0132507
855.491	0.0133379
855.569	0.0133198
855.647	0.0132758
855.725	0.0133584
855.803	0.0133118
855.881	0.0132648
855.959	0.0133885
856.037	0.0133620
856.116	0.0133037
856.194	0.0132786
856.272	0.0133666
856.350	0.0132999
856.428	0.0132587
856.506	0.0132724
856.584	0.0132874
856.662	0.0132735
856.741	0.0133763
856.819	0.0133165
856.897	0.0132798
856.975	0.0133555
857.053	0.0132680
857.131	0.0132710
857.209	0.0133511
857.287	0.0132950
857.366	0.0131586
857.444	0.0132943
857.522	0.0132404
857.600	0.0132838
857.678	0.0131812
857.756	0.0132877
857.834	0.0131556
857.912	0.0131895
857.991	0.0133240
858.069	0.0131766
858.147	0.0131480
858.225	0.0132694
858.303	0.0131377
858.381	0.0131999
858.459	0.0132148
858.537	0.0132032
858.616	0.0132641
858.694	0.0132533
858.772	0.0130613
858.850	0.0132272
858.928	0.0133098
859.006	0.0131696
859.084	0.0131547
859.162	0.0131801
859.241	0.0132229
859.319	0.0131648
859.397	0.0132098
859.475	0.0131148
859.553	0.0132275
859.631	0.0131876
859.709	0.0131970
859.787	0.0132446
859.866	0.0132390
859.944	0.0131244
860.022	0.0131844
860.100	0.0133201
860.178	0.0133596
860.256	0.0132207
860.334	0.0131275
860.412	0.0132768
860.491	0.0132362
860.569	0.0131473
860.647	0.0130213
860.725	0.0132991
860.803	0.0132561
860.881	0.0131848
860.959	0.0131624
861.037	0.0133481
861.116	0.0131403
861.194	0.0132888
861.272	0.0132919
861.350	0.0132540
861.428	0.0133132
861.506	0.0132492
861.584	0.0132488
861.662	0.0133099
861.741	0.0132308
861.819	0.0132615
861.897	0.0132056
861.975	0.0133072
862.053	0.0132430
862.131	0.0132904
862.209	0.0133776
862.287	0.0132133
862.366	0.0132701
862.444	0.0134297
862.522	0.0133456
862.600	0.0133168
862.678	0.0132489
862.756	0.0133772
862.834	0.0131888
862.912	0.0131879
862.991	0.0131803
863.069	0.0132245
863.147	0.0131882
863.225	0.0132008
863.303	0.0132132
863.381	0.0132678
863.459	0.0132631
863.537	0.0132192
863.616	0.0132203
863.694	0.0132932
863.772	0.0132320
863.850	0.0132964
863.928	0.0131882
864.006	0.0133421
864.084	0.0133535
864.162	0.0133088
864.241	0.0131936
864.319	0.0132033
864.397	0.0132057
864.475	0.0133060
864.553	0.0132954
864.631	0.0131870
864.709	0.0132723
864.787	0.0132752
864.866	0.0133356
864.944	0.0133677
865.022	0.0132514
865.100	0.0133403
865.178	0.0132861
865.256	0.0132458
865.334	0.0132347
865.412	0.0133241
865.491	0.0132541
865.569	0.0133816
865.647	0.0134192
865.725	0.0132119
865.803	0.0132713
865.881	0.0132803
865.959	0.0133858
866.037	0.0134017
866.116	0.0134251
866.194	0.0132768
866.272	0.0135028
866.350	0.0132788
866.428	0.0133736
866.506	0.0132420
866.584	0.0133338
866.662	0.0133603
866.741	0.0133514
866.819	0.0133475
866.897	0.0133814
866.975	0.0134063
867.053	0.0133498
867.131	0.0133789
867.209	0.0132911
867.287	0.0132392
867.366	0.0132641
867.444	0.0133761
867.522	0.0133453
867.600	0.0133723
867.678	0.0132441
867.756	0.0132073
867.834	0.0134082
867.912	0.0132522
867.991	0.0131811
868.069	0.0132246
868.147	0.0132898
868.225	0.0132808
868.303	0.0132612
868.381	0.0131664
868.459	0.0132086
868.537	0.0132462
868.616	0.0132918
868.694	0.0133147
868.772	0.0130975
868.850	0.0131707
868.928	0.0130950
869.006	0.0131234
869.084	0.0133490
869.162	0.0131679
869.241	0.0132554
869.319	0.0131728
869.397	0.0132394
869.475	0.0133778
869.553	0.0132470
869.631	0.0131850
869.709	0.0132581
869.787	0.0132469
869.866	0.0130874
869.944	0.0132206
870.022	0.0131195
870.100	0.0131607
870.178	0.0132394
870.256	0.0131550
870.334	0.0133439
870.412	0.0131878
870.491	0.0132357
870.569	0.0131750
870.647	0.0131596
870.725	0.0132223
870.803	0.0132403
870.881	0.0132789
870.959	0.0132858
871.037	0.0131895
871.116	0.0132330
871.194	0.0132024
871.272	0.0132468
871.350	0.0132494
871.428	0.0132352
871.506	0.0132412
871.584	0.0131976
871.662	0.0132320
871.741	0.0133358
871.819	0.0133604
871.897	0.0132401
871.975	0.0133121
872.053	0.0132204
872.131	0.0135072
872.209	0.0133372
872.287	0.0131316
872.366	0.0132549
872.444	0.0131889
872.522	0.0132989
872.600	0.0130807
872.678	0.0132575
872.756	0.0131942
872.834	0.0133733
872.912	0.0133641
872.991	0.0133174
873.069	0.0133529
873.147	0.0133678
873.225	0.0133774
873.303	0.0133143
873.381	0.0132104
873.459	0.0133250
873.537	0.0134114
873.616	0.0132076
873.694	0.0132787
873.772	0.0132677
873.850	0.0132110
873.928	0.0133017
874.006	0.0133640
874.084	0.0132319
874.162	0.0132251
874.241	0.0132133
874.319	0.0132269
874.397	0.0131970
874.475	0.0134088
874.553	0.0133605
874.631	0.0132420
874.709	0.0133498
874.787	0.0133384
874.866	0.0132489
874.944	0.0132871
875.022	0.0132914
875.100	0.0133116
875.178	0.0133490
875.256	0.0132563
875.334	0.0132280
875.412	0.0133883
875.491	0.0133806
875.569	0.0133043
875.647	0.0133046
875.725	0.0133896
875.803	0.0133720
875.881	0.0132973
875.959	0.0132334
876.037	0.0132313
876.116	0.0133585
876.194	0.0133770
876.272	0.0134191
876.350	0.0133123
876.428	0.0132155
876.506	0.0133244
876.584	0.0133875
876.662	0.0132732
876.741	0.0132607
876.819	0.0132391
876.897	0.0133488
876.975	0.0133926
877.053	0.0133852
877.131	0.0132483
877.209	0.0132831
877.287	0.0132803
877.366	0.0132896
877.444	0.0131602
877.522	0.0131182
877.600	0.0133217
877.678	0.0132903
877.756	0.0133123
877.834	0.0133229
877.912	0.0133018
877.991	0.0132240
878.069	0.0132024
878.147	0.0132848
878.225	0.0131947
878.303	0.0131830
878.381	0.0133508
878.459	0.0133762
878.537	0.0133167
878.616	0.0131645
878.694	0.0131732
878.772	0.0131477
878.850	0.0132369
878.928	0.0132253
879.006	0.0130707
879.084	0.0132584
879.162	0.0133301
879.241	0.0131936
879.319	0.0131657
879.397	0.0132046
879.475	0.0132507
879.553	0.0132443
879.631	0.0130619
879.709	0.0131169
879.787	0.0132005
879.866	0.0132061
879.944	0.0131293
880.022	0.0131048
880.100	0.0131100
880.178	0.0131815
880.256	0.0131271
880.334	0.0130930
880.412	0.0131223
880.491	0.0131756
880.569	0.0130362
880.647	0.0130959
880.725	0.0130474
880.803	0.0130014
880.881	0.0131792
880.959	0.0131527
881.037	0.0132591
881.116	0.0130478
881.194	0.0131359
881.272	0.0132214
881.350	0.0131862
881.428	0.0131936
881.506	0.0131232
881.584	0.0131315
881.662	0.0131974
881.741	0.0132281
881.819	0.0131569
881.897	0.0130503
881.975	0.0131642
882.053	0.0131833
882.131	0.0131471
882.209	0.0131503
882.287	0.0132679
882.366	0.0132603
882.444	0.0131316
882.522	0.0131048
882.600	0.0131104
882.678	0.0132256
882.756	0.0132368
882.834	0.0130869
882.912	0.0131538
882.991	0.0131721
883.069	0.0132214
883.147	0.0131907
883.225	0.0131480
883.303	0.0131120
883.381	0.0131330
883.459	0.0130856
883.537	0.0131842
883.616	0.0132648
883.694	0.0131356
883.772	0.0130687
883.850	0.0130578
883.928	0.0132039
884.006	0.0130281
884.084	0.0131964
884.162	0.0130825
884.241	0.0130923
884.319	0.0131329
884.397	0.0131049
884.475	0.0131863
884.553	0.0131424
884.631	0.0131249
884.709	0.0130566
884.787	0.0131339
884.866	0.0129927
884.944	0.0130759
885.022	0.0132738
885.100	0.0131268
885.178	0.0130297
885.256	0.0130844
885.334	0.0129748
885.412	0.0129287
885.491	0.0130367
885.569	0.0131802
885.647	0.0131905
885.725	0.0130231
885.803	0.0131018
885.881	0.0129928
885.959	0.0131503
886.037	0.0130762
886.116	0.0131084
886.194	0.0130770
886.272	0.0131642
886.350	0.0132269
886.428	0.0131594
886.506	0.0130459
886.584	0.0131753
886.662	0.0130038
886.741	0.0129681
886.819	0.0131297
886.897	0.0131493
886.975	0.0130091
887.053	0.0130311
887.131	0.0131796
887.209	0.0132109
887.287	0.0132085
887.366	0.0131809
887.444	0.0132402
887.522	0.0130714
887.600	0.0131761
887.678	0.0131562
887.756	0.0130915
887.834	0.0132499
887.912	0.0131792
887.991	0.0132311
888.069	0.0131828
888.147	0.0131536
888.225	0.0131101
888.303	0.0131628
888.381	0.0132803
888.459	0.0132244
888.537	0.0131413
888.616	0.0131245
888.694	0.0132550
888.772	0.0133091
888.850	0.0132336
888.928	0.0132024
889.006	0.0131104
889.084	0.0133069
889.162	0.0132951
889.241	0.0131780
889.319	0.0133734
889.397	0.0131440
889.475	0.0132201
889.553	0.0132358
889.631	0.0131593
889.709	0.0133385
889.787	0.0132989
889.866	0.0131870
889.944	0.0132704
890.022	0.0133446
890.100	0.0132067
890.178	0.0131591
890.256	0.0132323
890.334	0.0131860
890.412	0.0131069
890.491	0.0132256
890.569	0.0133463
890.647	0.0131744
890.725	0.0131818
890.803	0.0132629
890.881	0.0131907
890.959	0.0132359
891.037	0.0133556
891.116	0.0132297
891.194	0.0132738
891.272	0.0132746
891.350	0.0131927
891.428	0.0131821
891.506	0.0131299
891.584	0.0132564
891.662	0.0131367
891.741	0.0133163
891.819	0.0133012
891.897	0.0133527
891.975	0.0132809
892.053	0.0131991
892.131	0.0131474
892.209	0.0132371
892.287	0.0133627
892.366	0.0132539
892.444	0.0131892
892.522	0.0132284
892.600	0.0132544
892.678	0.0131542
892.756	0.0131173
892.834	0.0132748
892.912	0.0133295
892.991	0.0131371
893.069	0.0132089
893.147	0.0131594
893.225	0.0131351
893.303	0.0132433
893.381	0.0132274
893.459	0.0132594
893.537	0.0134184
893.616	0.0130823
893.694	0.0132030
893.772	0.0132797
893.850	0.0132780
893.928	0.0133937
894.006	0.0130952
894.084	0.0132273
894.162	0.0132117
894.241	0.0131448
894.319	0.0131911
894.397	0.0132010
894.475	0.0132342
894.553	0.0132635
894.631	0.0131273
894.709	0.0132850
894.787	0.0132417
894.866	0.0131136
894.944	0.0132417
895.022	0.0133680
895.100	0.0131822
895.178	0.0132745
895.256	0.0132445
895.334	0.0133132
895.412	0.0133082
895.491	0.0132730
895.569	0.0132682
895.647	0.0132387
895.725	0.0133097
895.803	0.0132747
895.881	0.0132771
895.959	0.0132069
896.037	0.0131297
896.116	0.0132033
896.194	0.0133398
896.272	0.0133310
896.350	0.0133359
896.428	0.0132428
896.506	0.0132523
896.584	0.0133853
896.662	0.0132730
896.741	0.0132362
896.819	0.0132243
896.897	0.0131438
896.975	0.0133531
897.053	0.0132209
897.131	0.0133128
897.209	0.0132687
897.287	0.0131715
897.366	0.0132410
897.444	0.0132377
897.522	0.0133225
897.600	0.0130772
897.678	0.0131690
897.756	0.0131855
897.834	0.0131729
897.912	0.0131721
897.991	0.0133436
898.069	0.0132779
898.147	0.0133933
898.225	0.0131382
898.303	0.0130694
898.381	0.0131277
898.459	0.0132151
898.537	0.0132350
898.616	0.0131273
898.694	0.0131521
898.772	0.0130512
898.850	0.0131561
898.928	0.0132066
899.006	0.0133575
899.084	0.0131180
899.162	0.0131168
899.241	0.0131632
899.319	0.0132014
899.397	0.0131728
899.475	0.0132686
899.553	0.0131041
899.631	0.0131739
899.709	0.0131491
899.787	0.0131733
899.866	0.0131395
899.944	0.0129835
900.022	0.0131567
900.100	0.0131429
900.178	0.0130263
900.256	0.0132129
900.334	0.0131326
900.412	0.0133054
900.491	0.0131822
900.569	0.0131747
900.647	0.0133557
900.725	0.0130973
900.803	0.0131140
900.881	0.0133008
900.959	0.0131769
901.037	0.0131532
901.116	0.0132533
901.194	0.0132934
901.272	0.0132140
901.350	0.0132384
901.428	0.0130872
901.506	0.0131531
901.584	0.0133150
901.662	0.0131969
901.741	0.0132646
901.819	0.0133038
901.897	0.0132514
901.975	0.0133245
902.053	0.0133033
902.131	0.0129977
902.209	0.0133315
902.287	0.0131181
902.366	0.0131981
902.444	0.0131950
902.522	0.0131551
902.600	0.0131416
902.678	0.0131724
902.756	0.0130042
902.834	0.0132008
902.912	0.0130884
902.991	0.0130970
903.069	0.0132889
903.147	0.0132624
903.225	0.0132357
903.303	0.0131513
903.381	0.0130295
903.459	0.0130264
903.537	0.0131491
903.616	0.0131252
903.694	0.0131947
903.772	0.0132069
903.850	0.0131377
903.928	0.0133614
904.006	0.0131178
904.084	0.0131271
904.162	0.0132262
904.241	0.0131381
904.319	0.0131490
904.397	0.0132709
904.475	0.0132272
904.553	0.0132715
904.631	0.0131968
904.709	0.0133314
904.787	0.0132774
904.866	0.0131505
904.944	0.0132549
905.022	0.0133222
905.100	0.0131024
905.178	0.0131910
905.256	0.0130562
905.334	0.0131616
905.412	0.0130907
905.491	0.0131014
905.569	0.0131760
905.647	0.0131551
905.725	0.0132169
905.803	0.0132201
905.881	0.0131660
905.959	0.0131174
906.037	0.0132195
906.116	0.0130608
906.194	0.0131734
906.272	0.0132334
906.350	0.0131142
906.428	0.0130576
906.506	0.0132775
906.584	0.0130580
906.662	0.0131076
906.741	0.0131857
906.819	0.0131677
906.897	0.0131056
906.975	0.0131274
907.053	0.0131896
907.131	0.0131799
907.209	0.0130641
907.287	0.0129546
907.366	0.0131300
907.444	0.0132069
907.522	0.0130676
907.600	0.0131551
907.678	0.0132778
907.756	0.0129754
907.834	0.0131515
907.912	0.0132443
907.991	0.0132202
908.069	0.0131686
908.147	0.0131168
908.225	0.0131276
908.303	0.0132553
908.381	0.0132806
908.459	0.0133064
908.537	0.0132099
908.616	0.0131235
908.694	0.0131876
908.772	0.0131771
908.850	0.0130549
908.928	0.0131985
909.006	0.0131390
909.084	0.0131199
909.162	0.0130909
909.241	0.0131397
909.319	0.0131197
909.397	0.0129073
909.475	0.0129467
909.553	0.0130427
909.631	0.0132144
909.709	0.0132961
909.787	0.0129787
909.866	0.0131112
909.944	0.0132041
910.022	0.0130792
910.100	0.0131471
910.178	0.0131626
910.256	0.0131154
910.334	0.0130534
910.412	0.0131816
910.491	0.0133300
910.569	0.0133096
910.647	0.0132928
910.725	0.0132899
910.803	0.0132415
910.881	0.0131573
910.959	0.0132303
911.037	0.0132172
911.116	0.0131831
911.194	0.0132361
911.272	0.0132480
911.350	0.0133192
911.428	0.0131882
911.506	0.0131982
911.584	0.0130458
911.662	0.0132944
911.741	0.0133164
911.819	0.0133166
911.897	0.0132783
911.975	0.0131705
912.053	0.0132196
912.131	0.0132076
912.209	0.0132199
912.287	0.0132192
912.366	0.0131551
912.444	0.0131532
912.522	0.0133090
912.600	0.0133660
912.678	0.0132383
912.756	0.0130926
912.834	0.0132369
912.912	0.0133508
912.991	0.0132681
913.069	0.0133530
913.147	0.0134545
913.225	0.0133302
913.303	0.0133372
913.381	0.0132226
913.459	0.0133448
913.537	0.0133892
913.616	0.0132853
913.694	0.0131635
913.772	0.0134122
913.850	0.0134316
913.928	0.0133816
914.006	0.0132622
914.084	0.0133177
914.162	0.0133097
914.241	0.0134152
914.319	0.0133575
914.397	0.0133022
914.475	0.0133772
914.553	0.0134317
914.631	0.0133333
914.709	0.0132609
914.787	0.0134010
914.866	0.0132962
914.944	0.0132903
915.022	0.0133475
915.100	0.0132452
915.178	0.0132652
915.256	0.0131843
915.334	0.0132967
915.412	0.0133583
915.491	0.0132455
915.569	0.0132155
915.647	0.0133247
915.725	0.0132437
915.803	0.0132413
915.881	0.0134155
915.959	0.0133713
916.037	0.0132085
916.116	0.0134338
916.194	0.0133071
916.272	0.0132024
916.350	0.0132962
916.428	0.0132880
916.506	0.0133092
916.584	0.0132092
916.662	0.0131639
916.741	0.0133015
916.819	0.0132469
916.897	0.0133427
916.975	0.0132949
917.053	0.0132867
917.131	0.0132631
917.209	0.0131963
917.287	0.0131848
917.366	0.0132133
917.444	0.0132564
917.522	0.0132719
917.600	0.0131784
917.678	0.0131836
917.756	0.0131505
917.834	0.0132220
917.912	0.0131602
917.991	0.0130585
918.069	0.0131956
918.147	0.0133022
918.225	0.0131370
918.303	0.0133026
918.381	0.0132695
918.459	0.0131999
918.537	0.0131073
918.616	0.0131924
918.694	0.0132829
918.772	0.0132900
918.850	0.0131670
918.928	0.0133447
919.006	0.0134709
919.084	0.0133424
919.162	0.0132133
919.241	0.0132933
919.319	0.0132569
919.397	0.0134210
919.475	0.0133112
919.553	0.0131757
919.631	0.0131833
919.709	0.0132941
919.787	0.0132365
919.866	0.0131758
919.944	0.0132166
