05/06/2022	18:47:23	Ver.	4.1	UNKNOWN
Optical Delay	600.015094	Delta X		0.078125	Sweeps	1	Scan Rate	0/0
Coordinates	Axis 1	NaN	Axis 2	NaN	Axis 3	NaN	Axis 4	NaN	Axis 5	NaN	Axis 6	0.000000
TX Power	0.000000	RX Power	0.000000

600.015	0.0132601
600.093	0.0131139
600.171	0.0132407
600.249	0.0132136
600.328	0.0132681
600.406	0.0132663
600.484	0.0132928
600.562	0.0133276
600.640	0.0131963
600.718	0.0132140
600.796	0.0131751
600.874	0.0133118
600.953	0.0132565
601.031	0.0131117
601.109	0.0132576
601.187	0.0133199
601.265	0.0132192
601.343	0.0132108
601.421	0.0133300
601.499	0.0132417
601.578	0.0132950
601.656	0.0133321
601.734	0.0131747
601.812	0.0131894
601.890	0.0131419
601.968	0.0132771
602.046	0.0132874
602.124	0.0132633
602.203	0.0132430
602.281	0.0132854
602.359	0.0132179
602.437	0.0133185
602.515	0.0131609
602.593	0.0131297
602.671	0.0131911
602.749	0.0132794
602.828	0.0133620
602.906	0.0133453
602.984	0.0131984
603.062	0.0132106
603.140	0.0132540
603.218	0.0132858
603.296	0.0133353
603.374	0.0132323
603.453	0.0131783
603.531	0.0131964
603.609	0.0132485
603.687	0.0132420
603.765	0.0132920
603.843	0.0132643
603.921	0.0132532
603.999	0.0131398
604.078	0.0131019
604.156	0.0133996
604.234	0.0133472
604.312	0.0133286
604.390	0.0132515
604.468	0.0132156
604.546	0.0132506
604.624	0.0132803
604.703	0.0131609
604.781	0.0131687
604.859	0.0133156
604.937	0.0133433
605.015	0.0131879
605.093	0.0132635
605.171	0.0132610
605.249	0.0131301
605.328	0.0132758
605.406	0.0133328
605.484	0.0132954
605.562	0.0132755
605.640	0.0132880
605.718	0.0132106
605.796	0.0132936
605.874	0.0131229
605.953	0.0133039
606.031	0.0133891
606.109	0.0133260
606.187	0.0132627
606.265	0.0131928
606.343	0.0133022
606.421	0.0133176
606.499	0.0133765
606.578	0.0132026
606.656	0.0131928
606.734	0.0132989
606.812	0.0133118
606.890	0.0131857
606.968	0.0131179
607.046	0.0132892
607.124	0.0134592
607.203	0.0131977
607.281	0.0133006
607.359	0.0131569
607.437	0.0133080
607.515	0.0132581
607.593	0.0131857
607.671	0.0131905
607.749	0.0132484
607.828	0.0134889
607.906	0.0133600
607.984	0.0133070
608.062	0.0132897
608.140	0.0133648
608.218	0.0132772
608.296	0.0133675
608.374	0.0133379
608.453	0.0133220
608.531	0.0133176
608.609	0.0133244
608.687	0.0133182
608.765	0.0133348
608.843	0.0133567
608.921	0.0133192
608.999	0.0132291
609.078	0.0133000
609.156	0.0132571
609.234	0.0133021
609.312	0.0132825
609.390	0.0130873
609.468	0.0132672
609.546	0.0132234
609.624	0.0131691
609.703	0.0132470
609.781	0.0133250
609.859	0.0132286
609.937	0.0133755
610.015	0.0132164
610.093	0.0131863
610.171	0.0133163
610.249	0.0131628
610.328	0.0132558
610.406	0.0130608
610.484	0.0133025
610.562	0.0132379
610.640	0.0133132
610.718	0.0131368
610.796	0.0132647
610.874	0.0132928
610.953	0.0132632
611.031	0.0132782
611.109	0.0133686
611.187	0.0132176
611.265	0.0133212
611.343	0.0132381
611.421	0.0132351
611.499	0.0132051
611.578	0.0133015
611.656	0.0131909
611.734	0.0132001
611.812	0.0132339
611.890	0.0133459
611.968	0.0133445
612.046	0.0133502
612.124	0.0132469
612.203	0.0132780
612.281	0.0132479
612.359	0.0133259
612.437	0.0131480
612.515	0.0132641
612.593	0.0132669
612.671	0.0132617
612.749	0.0133628
612.828	0.0132437
612.906	0.0131732
612.984	0.0132728
613.062	0.0131810
613.140	0.0132001
613.218	0.0131688
613.296	0.0132269
613.374	0.0132480
613.453	0.0132192
613.531	0.0130459
613.609	0.0132124
613.687	0.0131830
613.765	0.0132652
613.843	0.0132421
613.921	0.0131640
613.999	0.0131635
614.078	0.0133307
614.156	0.0132092
614.234	0.0131207
614.312	0.0132711
614.390	0.0131914
614.468	0.0132030
614.546	0.0132849
614.624	0.0134283
614.703	0.0134157
614.781	0.0132032
614.859	0.0133840
614.937	0.0133279
615.015	0.0132627
615.093	0.0132314
615.171	0.0132715
615.249	0.0132574
615.328	0.0131972
615.406	0.0131520
615.484	0.0132743
615.562	0.0133161
615.640	0.0133926
615.718	0.0133230
615.796	0.0132568
615.874	0.0132487
615.953	0.0132062
616.031	0.0133299
616.109	0.0131564
616.187	0.0132635
616.265	0.0132501
616.343	0.0131784
616.421	0.0132574
616.499	0.0131138
616.578	0.0132515
616.656	0.0132584
616.734	0.0132811
616.812	0.0132281
616.890	0.0132566
616.968	0.0133643
617.046	0.0133080
617.124	0.0132496
617.203	0.0133218
617.281	0.0132550
617.359	0.0132610
617.437	0.0132718
617.515	0.0132555
617.593	0.0132195
617.671	0.0132425
617.749	0.0133882
617.828	0.0132809
617.906	0.0132534
617.984	0.0132209
618.062	0.0132913
618.140	0.0132464
618.218	0.0132207
618.296	0.0131546
618.374	0.0132201
618.453	0.0132883
618.531	0.0132854
618.609	0.0132405
618.687	0.0132062
618.765	0.0131597
618.843	0.0132404
618.921	0.0132184
618.999	0.0132988
619.078	0.0133480
619.156	0.0132840
619.234	0.0133268
619.312	0.0132771
619.390	0.0132037
619.468	0.0132270
619.546	0.0133044
619.624	0.0132687
619.703	0.0131099
619.781	0.0131815
619.859	0.0133163
619.937	0.0131781
620.015	0.0131747
620.093	0.0131970
620.171	0.0132561
620.249	0.0132681
620.328	0.0134206
620.406	0.0133008
620.484	0.0133695
620.562	0.0133037
620.640	0.0131696
620.718	0.0132847
620.796	0.0133472
620.874	0.0131655
620.953	0.0132434
621.031	0.0133404
621.109	0.0132217
621.187	0.0133559
621.265	0.0131592
621.343	0.0132303
621.421	0.0131438
621.499	0.0134286
621.578	0.0132694
621.656	0.0133163
621.734	0.0133406
621.812	0.0132028
621.890	0.0133328
621.968	0.0132655
622.046	0.0132382
622.124	0.0132381
622.203	0.0133810
622.281	0.0132535
622.359	0.0132551
622.437	0.0132560
622.515	0.0132728
622.593	0.0133423
622.671	0.0133730
622.749	0.0132884
622.828	0.0131973
622.906	0.0132387
622.984	0.0132614
623.062	0.0132613
623.140	0.0131400
623.218	0.0133344
623.296	0.0132967
623.374	0.0132972
623.453	0.0133554
623.531	0.0133368
623.609	0.0132574
623.687	0.0131725
623.765	0.0133511
623.843	0.0132668
623.921	0.0133089
623.999	0.0133737
624.078	0.0133422
624.156	0.0132497
624.234	0.0133345
624.312	0.0132481
624.390	0.0132973
624.468	0.0133263
624.546	0.0132300
624.624	0.0132218
624.703	0.0132970
624.781	0.0132263
624.859	0.0132838
624.937	0.0132534
625.015	0.0132283
625.093	0.0132767
625.171	0.0132195
625.249	0.0132295
625.328	0.0133092
625.406	0.0133086
625.484	0.0133744
625.562	0.0133291
625.640	0.0133692
625.718	0.0132756
625.796	0.0132912
625.874	0.0132120
625.953	0.0134167
626.031	0.0132897
626.109	0.0131411
626.187	0.0133574
626.265	0.0132522
626.343	0.0132200
626.421	0.0131448
626.499	0.0133005
626.578	0.0133787
626.656	0.0133250
626.734	0.0133095
626.812	0.0132712
626.890	0.0134578
626.968	0.0131902
627.046	0.0132313
627.124	0.0132843
627.203	0.0132841
627.281	0.0132338
627.359	0.0133549
627.437	0.0132216
627.515	0.0132542
627.593	0.0132276
627.671	0.0132504
627.749	0.0134056
627.828	0.0131960
627.906	0.0132188
627.984	0.0133049
628.062	0.0133012
628.140	0.0132522
628.218	0.0132507
628.296	0.0132643
628.374	0.0131249
628.453	0.0133096
628.531	0.0132113
628.609	0.0131744
628.687	0.0133881
628.765	0.0132821
628.843	0.0132408
628.921	0.0133286
628.999	0.0133023
629.078	0.0132431
629.156	0.0132903
629.234	0.0131609
629.312	0.0131514
629.390	0.0132872
629.468	0.0133733
629.546	0.0132799
629.624	0.0134204
629.703	0.0132336
629.781	0.0132790
629.859	0.0133474
629.937	0.0132201
630.015	0.0131561
630.093	0.0132658
630.171	0.0133479
630.249	0.0132017
630.328	0.0133077
630.406	0.0132445
630.484	0.0133080
630.562	0.0133661
630.640	0.0132665
630.718	0.0131770
630.796	0.0134618
630.874	0.0132854
630.953	0.0132108
631.031	0.0132613
631.109	0.0133178
631.187	0.0132028
631.265	0.0133112
631.343	0.0133032
631.421	0.0133772
631.499	0.0132736
631.578	0.0132720
631.656	0.0132680
631.734	0.0132985
631.812	0.0133833
631.890	0.0132361
631.968	0.0133060
632.046	0.0132361
632.124	0.0133125
632.203	0.0132562
632.281	0.0132811
632.359	0.0132966
632.437	0.0132870
632.515	0.0133374
632.593	0.0132310
632.671	0.0132355
632.749	0.0131646
632.828	0.0132627
632.906	0.0132700
632.984	0.0133140
633.062	0.0132517
633.140	0.0132478
633.218	0.0133535
633.296	0.0133081
633.374	0.0132401
633.453	0.0131481
633.531	0.0132343
633.609	0.0133069
633.687	0.0131026
633.765	0.0133245
633.843	0.0132874
633.921	0.0132671
633.999	0.0133146
634.078	0.0132277
634.156	0.0131673
634.234	0.0132159
634.312	0.0131836
634.390	0.0132761
634.468	0.0132141
634.546	0.0132066
634.624	0.0133218
634.703	0.0131298
634.781	0.0131937
634.859	0.0131974
634.937	0.0133076
635.015	0.0132676
635.093	0.0130954
635.171	0.0131978
635.249	0.0133075
635.328	0.0132973
635.406	0.0132761
635.484	0.0132520
635.562	0.0131039
635.640	0.0132423
635.718	0.0133199
635.796	0.0131658
635.874	0.0132077
635.953	0.0132320
636.031	0.0132277
636.109	0.0131909
636.187	0.0131985
636.265	0.0132900
636.343	0.0133158
636.421	0.0132549
636.499	0.0131864
636.578	0.0131854
636.656	0.0132419
636.734	0.0132895
636.812	0.0132220
636.890	0.0133658
636.968	0.0132874
637.046	0.0132988
637.124	0.0132453
637.203	0.0133398
637.281	0.0132216
637.359	0.0131048
637.437	0.0132252
637.515	0.0132938
637.593	0.0133318
637.671	0.0131997
637.749	0.0132610
637.828	0.0131423
637.906	0.0133854
637.984	0.0131740
638.062	0.0131094
638.140	0.0133387
638.218	0.0132277
638.296	0.0131649
638.374	0.0132495
638.453	0.0131998
638.531	0.0132658
638.609	0.0132502
638.687	0.0132129
638.765	0.0132990
638.843	0.0132399
638.921	0.0133293
638.999	0.0131785
639.078	0.0133105
639.156	0.0131596
639.234	0.0132584
639.312	0.0133050
639.390	0.0132339
639.468	0.0132140
639.546	0.0132836
639.624	0.0131421
639.703	0.0133154
639.781	0.0131649
639.859	0.0131253
639.937	0.0132033
640.015	0.0132764
640.093	0.0132365
640.171	0.0132852
640.249	0.0132275
640.328	0.0131458
640.406	0.0132783
640.484	0.0132865
640.562	0.0132321
640.640	0.0133629
640.718	0.0132531
640.796	0.0132472
640.874	0.0133921
640.953	0.0132195
641.031	0.0132603
641.109	0.0132293
641.187	0.0130885
641.265	0.0133143
641.343	0.0133455
641.421	0.0131393
641.499	0.0132381
641.578	0.0132396
641.656	0.0133128
641.734	0.0133733
641.812	0.0131874
641.890	0.0132214
641.968	0.0132655
642.046	0.0131480
642.124	0.0133018
642.203	0.0133064
642.281	0.0132220
642.359	0.0131964
642.437	0.0132070
642.515	0.0131857
642.593	0.0133524
642.671	0.0132057
642.749	0.0132333
642.828	0.0130775
642.906	0.0132761
642.984	0.0132777
643.062	0.0131758
643.140	0.0133400
643.218	0.0131792
643.296	0.0132532
643.374	0.0131348
643.453	0.0132381
643.531	0.0132957
643.609	0.0132365
643.687	0.0131725
643.765	0.0132230
643.843	0.0131765
643.921	0.0131467
643.999	0.0132565
644.078	0.0132453
644.156	0.0131763
644.234	0.0133610
644.312	0.0132191
644.390	0.0132150
644.468	0.0131799
644.546	0.0131613
644.624	0.0132269
644.703	0.0132970
644.781	0.0133390
644.859	0.0131918
644.937	0.0133313
645.015	0.0132730
645.093	0.0131879
645.171	0.0131252
645.249	0.0131289
645.328	0.0131856
645.406	0.0132242
645.484	0.0132877
645.562	0.0132471
645.640	0.0130930
645.718	0.0131681
645.796	0.0131185
645.874	0.0132776
645.953	0.0132389
646.031	0.0131168
646.109	0.0132025
646.187	0.0132294
646.265	0.0132729
646.343	0.0132507
646.421	0.0131870
646.499	0.0133026
646.578	0.0131567
646.656	0.0132349
646.734	0.0133259
646.812	0.0132953
646.890	0.0132203
646.968	0.0132972
647.046	0.0131756
647.124	0.0131523
647.203	0.0131734
647.281	0.0132769
647.359	0.0132167
647.437	0.0132495
647.515	0.0131988
647.593	0.0132014
647.671	0.0132111
647.749	0.0132538
647.828	0.0132709
647.906	0.0132500
647.984	0.0132561
648.062	0.0132471
648.140	0.0132502
648.218	0.0132343
648.296	0.0132719
648.374	0.0134119
648.453	0.0132200
648.531	0.0133949
648.609	0.0133637
648.687	0.0132906
648.765	0.0132143
648.843	0.0130721
648.921	0.0131540
648.999	0.0132869
649.078	0.0133503
649.156	0.0132066
649.234	0.0132583
649.312	0.0131966
649.390	0.0133108
649.468	0.0132327
649.546	0.0133362
649.624	0.0132184
649.703	0.0133123
649.781	0.0133314
649.859	0.0133511
649.937	0.0132054
650.015	0.0132586
650.093	0.0132484
650.171	0.0131452
650.249	0.0131965
650.328	0.0133253
650.406	0.0133529
650.484	0.0132068
650.562	0.0131942
650.640	0.0130827
650.718	0.0131853
650.796	0.0132384
650.874	0.0132816
650.953	0.0134266
651.031	0.0131902
651.109	0.0131567
651.187	0.0131771
651.265	0.0132671
651.343	0.0133643
651.421	0.0131588
651.499	0.0133344
651.578	0.0133614
651.656	0.0132915
651.734	0.0133553
651.812	0.0131133
651.890	0.0133945
651.968	0.0134759
652.046	0.0132163
652.124	0.0132413
652.203	0.0132710
652.281	0.0132678
652.359	0.0133318
652.437	0.0132603
652.515	0.0132329
652.593	0.0134200
652.671	0.0134361
652.749	0.0132214
652.828	0.0132996
652.906	0.0132729
652.984	0.0133320
653.062	0.0132574
653.140	0.0132602
653.218	0.0132113
653.296	0.0131950
653.374	0.0133101
653.453	0.0131970
653.531	0.0133736
653.609	0.0132211
653.687	0.0132964
653.765	0.0131773
653.843	0.0132334
653.921	0.0133453
653.999	0.0133512
654.078	0.0133218
654.156	0.0133171
654.234	0.0132742
654.312	0.0132957
654.390	0.0133265
654.468	0.0133633
654.546	0.0132959
654.624	0.0133368
654.703	0.0132070
654.781	0.0132658
654.859	0.0133141
654.937	0.0131962
655.015	0.0132814
655.093	0.0132460
655.171	0.0132809
655.249	0.0133252
655.328	0.0132251
655.406	0.0132291
655.484	0.0132554
655.562	0.0133286
655.640	0.0132346
655.718	0.0132793
655.796	0.0132845
655.874	0.0133868
655.953	0.0134122
656.031	0.0133355
656.109	0.0132742
656.187	0.0133843
656.265	0.0133478
656.343	0.0133730
656.421	0.0131902
656.499	0.0132456
656.578	0.0132016
656.656	0.0132767
656.734	0.0134590
656.812	0.0132517
656.890	0.0133070
656.968	0.0133024
657.046	0.0133166
657.124	0.0132224
657.203	0.0131962
657.281	0.0132879
657.359	0.0132211
657.437	0.0133125
657.515	0.0132101
657.593	0.0132894
657.671	0.0131992
657.749	0.0132193
657.828	0.0132185
657.906	0.0131535
657.984	0.0132466
658.062	0.0132298
658.140	0.0132934
658.218	0.0132113
658.296	0.0133216
658.374	0.0131956
658.453	0.0134077
658.531	0.0132793
658.609	0.0132127
658.687	0.0131985
658.765	0.0131829
658.843	0.0133101
658.921	0.0132352
658.999	0.0133095
659.078	0.0132798
659.156	0.0131178
659.234	0.0131606
659.312	0.0132043
659.390	0.0131796
659.468	0.0132356
659.546	0.0132970
659.624	0.0133867
659.703	0.0132512
659.781	0.0132851
659.859	0.0132550
659.937	0.0131941
660.015	0.0132905
660.093	0.0131420
660.171	0.0132715
660.249	0.0132660
660.328	0.0131889
660.406	0.0132812
660.484	0.0132388
660.562	0.0133382
660.640	0.0132873
660.718	0.0132584
660.796	0.0133451
660.874	0.0132945
660.953	0.0133323
661.031	0.0131805
661.109	0.0132439
661.187	0.0132478
661.265	0.0132272
661.343	0.0133238
661.421	0.0132037
661.499	0.0132928
661.578	0.0132462
661.656	0.0132116
661.734	0.0132568
661.812	0.0132224
661.890	0.0132140
661.968	0.0133272
662.046	0.0132890
662.124	0.0132899
662.203	0.0131344
662.281	0.0132129
662.359	0.0134097
662.437	0.0132289
662.515	0.0133049
662.593	0.0133025
662.671	0.0133693
662.749	0.0133698
662.828	0.0132687
662.906	0.0133771
662.984	0.0133821
663.062	0.0131821
663.140	0.0131973
663.218	0.0132180
663.296	0.0133205
663.374	0.0132742
663.453	0.0132690
663.531	0.0133864
663.609	0.0132529
663.687	0.0130882
663.765	0.0131366
663.843	0.0133118
663.921	0.0133682
663.999	0.0132047
664.078	0.0131828
664.156	0.0134593
664.234	0.0132123
664.312	0.0132601
664.390	0.0133738
664.468	0.0132224
664.546	0.0132859
664.624	0.0132823
664.703	0.0133054
664.781	0.0132734
664.859	0.0133179
664.937	0.0131965
665.015	0.0131568
665.093	0.0132953
665.171	0.0133427
665.249	0.0133260
665.328	0.0132455
665.406	0.0131742
665.484	0.0134145
665.562	0.0133349
665.640	0.0132289
665.718	0.0132890
665.796	0.0133891
665.874	0.0133150
665.953	0.0131573
666.031	0.0132683
666.109	0.0133778
666.187	0.0132840
666.265	0.0132154
666.343	0.0133774
666.421	0.0133639
666.499	0.0132014
666.578	0.0134259
666.656	0.0133047
666.734	0.0132648
666.812	0.0132061
666.890	0.0132939
666.968	0.0133487
667.046	0.0133481
667.124	0.0132672
667.203	0.0133495
667.281	0.0133397
667.359	0.0132623
667.437	0.0132884
667.515	0.0133673
667.593	0.0132037
667.671	0.0133365
667.749	0.0132533
667.828	0.0133143
667.906	0.0133090
667.984	0.0132666
668.062	0.0131696
668.140	0.0132968
668.218	0.0132571
668.296	0.0132047
668.374	0.0133392
668.453	0.0133880
668.531	0.0133389
668.609	0.0133039
668.687	0.0134033
668.765	0.0133267
668.843	0.0132232
668.921	0.0131519
668.999	0.0133669
669.078	0.0132768
669.156	0.0133520
669.234	0.0132563
669.312	0.0133638
669.390	0.0133025
669.468	0.0132761
669.546	0.0133099
669.624	0.0131591
669.703	0.0132890
669.781	0.0132457
669.859	0.0133876
669.937	0.0132854
670.015	0.0131491
670.093	0.0133131
670.171	0.0132623
670.249	0.0132376
670.328	0.0132924
670.406	0.0133366
670.484	0.0134051
670.562	0.0133517
670.640	0.0132940
670.718	0.0132574
670.796	0.0133154
670.874	0.0134174
670.953	0.0133196
671.031	0.0132239
671.109	0.0131946
671.187	0.0133337
671.265	0.0132362
671.343	0.0131683
671.421	0.0132536
671.499	0.0132905
671.578	0.0132757
671.656	0.0132336
671.734	0.0132710
671.812	0.0132300
671.890	0.0133016
671.968	0.0134051
672.046	0.0132121
672.124	0.0132636
672.203	0.0131796
672.281	0.0133249
672.359	0.0133620
672.437	0.0132133
672.515	0.0132281
672.593	0.0132821
672.671	0.0134148
672.749	0.0133220
672.828	0.0132558
672.906	0.0131279
672.984	0.0131928
673.062	0.0131725
673.140	0.0131612
673.218	0.0132864
673.296	0.0131046
673.374	0.0133109
673.453	0.0133236
673.531	0.0131979
673.609	0.0132065
673.687	0.0132306
673.765	0.0133076
673.843	0.0132513
673.921	0.0132768
673.999	0.0132745
674.078	0.0133202
674.156	0.0131206
674.234	0.0131848
674.312	0.0132225
674.390	0.0131963
674.468	0.0131995
674.546	0.0132321
674.624	0.0131332
674.703	0.0133350
674.781	0.0134033
674.859	0.0132998
674.937	0.0131286
675.015	0.0132151
675.093	0.0132475
675.171	0.0131111
675.249	0.0131490
675.328	0.0132095
675.406	0.0130994
675.484	0.0130891
675.562	0.0131788
675.640	0.0131987
675.718	0.0132360
675.796	0.0131596
675.874	0.0132917
675.953	0.0132919
676.031	0.0132426
676.109	0.0131609
676.187	0.0131731
676.265	0.0132232
676.343	0.0132013
676.421	0.0131386
676.499	0.0133101
676.578	0.0132319
676.656	0.0132272
676.734	0.0132323
676.812	0.0131726
676.890	0.0132124
676.968	0.0132029
677.046	0.0131898
677.124	0.0133136
677.203	0.0132613
677.281	0.0132130
677.359	0.0131382
677.437	0.0131225
677.515	0.0131461
677.593	0.0131602
677.671	0.0131475
677.749	0.0132131
677.828	0.0133067
677.906	0.0131771
677.984	0.0131629
678.062	0.0131037
678.140	0.0132599
678.218	0.0131298
678.296	0.0132248
678.374	0.0131580
678.453	0.0132534
678.531	0.0132121
678.609	0.0132568
678.687	0.0132494
678.765	0.0132859
678.843	0.0132842
678.921	0.0133434
678.999	0.0133231
679.078	0.0132982
679.156	0.0131506
679.234	0.0133129
679.312	0.0132158
679.390	0.0132227
679.468	0.0132034
679.546	0.0133691
679.624	0.0133733
679.703	0.0133166
679.781	0.0132981
679.859	0.0134496
679.937	0.0133338
680.015	0.0134104
680.093	0.0133784
680.171	0.0134021
680.249	0.0132577
680.328	0.0131097
680.406	0.0132144
680.484	0.0131908
680.562	0.0132880
680.640	0.0131133
680.718	0.0131667
680.796	0.0130117
680.874	0.0131142
680.953	0.0130750
681.031	0.0129616
681.109	0.0131699
681.187	0.0132191
681.265	0.0132662
681.343	0.0131645
681.421	0.0133657
681.499	0.0133669
681.578	0.0133974
681.656	0.0133846
681.734	0.0134192
681.812	0.0135235
681.890	0.0133323
681.968	0.0135052
682.046	0.0134098
682.124	0.0134204
682.203	0.0134570
682.281	0.0134890
682.359	0.0134740
682.437	0.0133315
682.515	0.0133720
682.593	0.0131958
682.671	0.0134219
682.749	0.0132558
682.828	0.0133216
682.906	0.0133128
682.984	0.0133842
683.062	0.0132056
683.140	0.0131546
683.218	0.0131927
683.296	0.0130260
683.374	0.0129467
683.453	0.0127935
683.531	0.0128459
683.609	0.0126716
683.687	0.0127569
683.765	0.0127290
683.843	0.0125481
683.921	0.0127750
683.999	0.0128341
684.078	0.0128565
684.156	0.0128351
684.234	0.0129277
684.312	0.0131229
684.390	0.0132433
684.468	0.0133271
684.546	0.0132919
684.624	0.0136909
684.703	0.0137582
684.781	0.0138984
684.859	0.0141464
684.937	0.0142316
685.015	0.0143608
685.093	0.0145692
685.171	0.0144786
685.249	0.0146400
685.328	0.0145667
685.406	0.0142261
685.484	0.0141892
685.562	0.0138631
685.640	0.0136263
685.718	0.0133871
685.796	0.0129850
685.874	0.0126228
685.953	0.0123495
686.031	0.0119958
686.109	0.0117189
686.187	0.0115955
686.265	0.0114935
686.343	0.0112359
686.421	0.0112775
686.499	0.0112714
686.578	0.0114368
686.656	0.0115654
686.734	0.0117663
686.812	0.0121490
686.890	0.0126051
686.968	0.0130217
687.046	0.0134123
687.124	0.0136653
687.203	0.0140901
687.281	0.0143620
687.359	0.0146286
687.437	0.0147604
687.515	0.0150108
687.593	0.0152333
687.671	0.0151447
687.749	0.0152014
687.828	0.0152496
687.906	0.0153423
687.984	0.0150639
688.062	0.0151130
688.140	0.0150711
688.218	0.0148985
688.296	0.0147581
688.374	0.0145052
688.453	0.0142062
688.531	0.0139841
688.609	0.0137057
688.687	0.0133418
688.765	0.0129212
688.843	0.0126553
688.921	0.0123220
688.999	0.0118494
689.078	0.0115114
689.156	0.0113720
689.234	0.0110241
689.312	0.0108692
689.390	0.0106337
689.468	0.0105320
689.546	0.0103220
689.624	0.0105733
689.703	0.0105703
689.781	0.0107971
689.859	0.0111345
689.937	0.0113708
690.015	0.0117419
690.093	0.0122987
690.171	0.0128511
690.249	0.0131843
690.328	0.0137051
690.406	0.0140968
690.484	0.0146188
690.562	0.0150985
690.640	0.0155254
690.718	0.0157560
690.796	0.0160999
690.874	0.0164441
690.953	0.0166044
691.031	0.0166382
691.109	0.0167763
691.187	0.0167525
691.265	0.0166554
691.343	0.0163528
691.421	0.0161257
691.499	0.0156998
691.578	0.0153101
691.656	0.0148965
691.734	0.0142800
691.812	0.0137370
691.890	0.0130954
691.968	0.0126821
692.046	0.0121184
692.124	0.0114771
692.203	0.0109200
692.281	0.0104465
692.359	0.00994507
692.437	0.00967697
692.515	0.00950493
692.593	0.00922379
692.671	0.00922585
692.749	0.00923096
692.828	0.00955307
692.906	0.00979652
692.984	0.0100706
693.062	0.0106644
693.140	0.0111978
693.218	0.0117900
693.296	0.0123811
693.374	0.0129432
693.453	0.0133800
693.531	0.0138297
693.609	0.0144514
693.687	0.0149427
693.765	0.0153641
693.843	0.0157192
693.921	0.0161598
693.999	0.0165104
694.078	0.0166990
694.156	0.0167185
694.234	0.0168343
694.312	0.0168378
694.390	0.0166642
694.468	0.0165292
694.546	0.0162715
694.624	0.0158367
694.703	0.0155136
694.781	0.0150688
694.859	0.0145287
694.937	0.0141028
695.015	0.0137171
695.093	0.0130643
695.171	0.0125816
695.249	0.0120686
695.328	0.0116196
695.406	0.0109673
695.484	0.0108667
695.562	0.0103753
695.640	0.00998283
695.718	0.00979797
695.796	0.00994408
695.874	0.00982918
695.953	0.00989136
696.031	0.0102036
696.109	0.0103619
696.187	0.0106268
696.265	0.0111438
696.343	0.0116795
696.421	0.0121422
696.499	0.0127780
696.578	0.0132482
696.656	0.0137012
696.734	0.0141779
696.812	0.0146078
696.890	0.0151440
696.968	0.0154488
697.046	0.0158675
697.124	0.0160255
697.203	0.0162322
697.281	0.0163567
697.359	0.0162888
697.437	0.0161189
697.515	0.0160526
697.593	0.0157899
697.671	0.0155119
697.749	0.0153308
697.828	0.0148802
697.906	0.0146313
697.984	0.0140768
698.062	0.0135754
698.140	0.0131053
698.218	0.0127419
698.296	0.0123780
698.374	0.0120546
698.453	0.0116802
698.531	0.0113096
698.609	0.0110573
698.687	0.0108510
698.765	0.0107070
698.843	0.0107035
698.921	0.0107437
698.999	0.0106548
699.078	0.0108169
699.156	0.0109556
699.234	0.0111662
699.312	0.0113831
699.390	0.0116479
699.468	0.0121469
699.546	0.0125320
699.624	0.0128123
699.703	0.0132823
699.781	0.0135425
699.859	0.0138036
699.937	0.0141622
700.015	0.0147869
700.093	0.0149109
700.171	0.0150672
700.249	0.0153880
700.328	0.0155164
700.406	0.0155824
700.484	0.0155042
700.562	0.0156010
700.640	0.0153767
700.718	0.0151644
700.796	0.0150079
700.874	0.0146149
700.953	0.0144704
701.031	0.0140308
701.109	0.0135810
701.187	0.0133494
701.265	0.0129977
701.343	0.0124786
701.421	0.0121708
701.499	0.0119382
701.578	0.0116666
701.656	0.0116131
701.734	0.0115204
701.812	0.0114415
701.890	0.0114667
701.968	0.0115926
702.046	0.0116515
702.124	0.0119098
702.203	0.0121294
702.281	0.0123520
702.359	0.0125936
702.437	0.0128326
702.515	0.0130560
702.593	0.0132304
702.671	0.0135140
702.749	0.0136693
702.828	0.0135905
702.906	0.0135603
702.984	0.0137520
703.062	0.0137486
703.140	0.0137424
703.218	0.0136352
703.296	0.0137682
703.374	0.0138985
703.453	0.0138657
703.531	0.0139964
703.609	0.0141212
703.687	0.0142657
703.765	0.0142458
703.843	0.0144231
703.921	0.0143594
703.999	0.0141875
704.078	0.0142102
704.156	0.0139406
704.234	0.0137653
704.312	0.0137063
704.390	0.0133274
704.468	0.0129735
704.546	0.0128366
704.624	0.0125919
704.703	0.0124080
704.781	0.0122478
704.859	0.0119820
704.937	0.0118049
705.015	0.0118165
705.093	0.0117416
705.171	0.0117873
705.249	0.0118725
705.328	0.0120504
705.406	0.0121263
705.484	0.0122860
705.562	0.0125657
705.640	0.0127814
705.718	0.0130161
705.796	0.0132275
705.874	0.0134888
705.953	0.0136011
706.031	0.0138789
706.109	0.0137142
706.187	0.0137971
706.265	0.0138969
706.343	0.0141232
706.421	0.0141254
706.499	0.0141085
706.578	0.0141822
706.656	0.0142383
706.734	0.0140865
706.812	0.0140470
706.890	0.0141047
706.968	0.0139038
707.046	0.0141144
707.124	0.0139236
707.203	0.0138459
707.281	0.0140856
707.359	0.0140592
707.437	0.0138584
707.515	0.0135895
707.593	0.0135632
707.671	0.0134461
707.749	0.0133069
707.828	0.0130515
707.906	0.0129336
707.984	0.0128790
708.062	0.0125961
708.140	0.0125020
708.218	0.0122778
708.296	0.0122897
708.374	0.0121749
708.453	0.0119995
708.531	0.0120904
708.609	0.0119752
708.687	0.0120176
708.765	0.0119797
708.843	0.0123360
708.921	0.0127048
708.999	0.0125774
709.078	0.0128487
709.156	0.0130073
709.234	0.0132137
709.312	0.0132953
709.390	0.0134505
709.468	0.0136108
709.546	0.0135967
709.624	0.0135783
709.703	0.0137076
709.781	0.0135438
709.859	0.0136288
709.937	0.0137769
710.015	0.0137309
710.093	0.0136401
710.171	0.0136253
710.249	0.0135697
710.328	0.0135931
710.406	0.0136696
710.484	0.0136258
710.562	0.0136340
710.640	0.0136604
710.718	0.0137054
710.796	0.0137022
710.874	0.0136118
710.953	0.0137082
711.031	0.0137238
711.109	0.0136323
711.187	0.0137041
711.265	0.0134458
711.343	0.0133541
711.421	0.0132549
711.499	0.0132381
711.578	0.0130932
711.656	0.0130601
711.734	0.0129281
711.812	0.0128381
711.890	0.0127514
711.968	0.0128097
712.046	0.0128764
712.124	0.0129696
712.203	0.0129071
712.281	0.0129769
712.359	0.0130609
712.437	0.0131609
712.515	0.0131879
712.593	0.0132596
712.671	0.0132141
712.749	0.0133791
712.828	0.0135281
712.906	0.0135778
712.984	0.0134946
713.062	0.0135625
713.140	0.0134084
713.218	0.0133982
713.296	0.0133715
713.374	0.0134019
713.453	0.0134155
713.531	0.0133491
713.609	0.0131673
713.687	0.0132658
713.765	0.0131661
713.843	0.0132233
713.921	0.0131885
713.999	0.0131818
714.078	0.0131513
714.156	0.0130404
714.234	0.0130051
714.312	0.0130370
714.390	0.0130707
714.468	0.0130596
714.546	0.0130601
714.624	0.0131449
714.703	0.0130333
714.781	0.0129118
714.859	0.0130001
714.937	0.0130759
715.015	0.0130135
715.093	0.0130504
715.171	0.0131329
715.249	0.0129877
715.328	0.0131578
715.406	0.0129570
715.484	0.0129646
715.562	0.0130242
715.640	0.0131419
715.718	0.0132214
715.796	0.0131413
715.874	0.0131255
715.953	0.0132209
716.031	0.0135536
716.109	0.0134593
716.187	0.0135371
716.265	0.0136679
716.343	0.0134715
716.421	0.0136736
716.499	0.0137939
716.578	0.0136881
716.656	0.0138040
716.734	0.0138873
716.812	0.0137894
716.890	0.0137015
716.968	0.0139165
717.046	0.0138217
717.124	0.0137311
717.203	0.0136864
717.281	0.0137492
717.359	0.0136687
717.437	0.0136822
717.515	0.0136952
717.593	0.0135387
717.671	0.0135466
717.749	0.0133807
717.828	0.0132184
717.906	0.0131753
717.984	0.0131127
718.062	0.0131200
718.140	0.0131689
718.218	0.0129686
718.296	0.0128796
718.374	0.0129546
718.453	0.0127151
718.531	0.0129429
718.609	0.0128630
718.687	0.0127959
718.765	0.0128897
718.843	0.0127935
718.921	0.0127896
718.999	0.0127855
719.078	0.0129425
719.156	0.0127950
719.234	0.0128482
719.312	0.0130109
719.390	0.0127822
719.468	0.0128359
719.546	0.0128790
719.624	0.0128181
719.703	0.0129971
719.781	0.0131262
719.859	0.0131773
719.937	0.0130692
720.015	0.0132378
720.093	0.0133907
720.171	0.0133279
720.249	0.0134083
720.328	0.0136264
720.406	0.0136961
720.484	0.0137701
720.562	0.0137792
720.640	0.0138399
720.718	0.0139059
720.796	0.0138181
720.874	0.0137579
720.953	0.0137287
721.031	0.0138087
721.109	0.0136907
721.187	0.0135569
721.265	0.0134885
721.343	0.0135123
721.421	0.0133180
721.499	0.0133537
721.578	0.0132448
721.656	0.0130712
721.734	0.0129489
721.812	0.0130106
721.890	0.0129831
721.968	0.0128953
722.046	0.0129154
722.124	0.0129692
722.203	0.0129484
722.281	0.0128371
722.359	0.0128037
722.437	0.0130154
722.515	0.0130033
722.593	0.0131308
722.671	0.0131264
722.749	0.0131943
722.828	0.0132288
722.906	0.0132483
722.984	0.0133233
723.062	0.0132323
723.140	0.0132282
723.218	0.0134808
723.296	0.0133622
723.374	0.0134754
723.453	0.0134742
723.531	0.0133828
723.609	0.0133348
723.687	0.0133968
723.765	0.0134073
723.843	0.0134895
723.921	0.0134556
723.999	0.0134447
724.078	0.0134563
724.156	0.0135448
724.234	0.0135652
724.312	0.0134935
724.390	0.0134429
724.468	0.0135271
724.546	0.0134243
724.624	0.0133813
724.703	0.0133231
724.781	0.0132627
724.859	0.0132563
724.937	0.0132150
725.015	0.0131496
725.093	0.0132152
725.171	0.0129917
725.249	0.0130473
725.328	0.0130005
725.406	0.0129118
725.484	0.0128467
725.562	0.0128152
725.640	0.0129313
725.718	0.0127659
725.796	0.0129565
725.874	0.0128746
725.953	0.0130075
726.031	0.0132159
726.109	0.0131409
726.187	0.0131702
726.265	0.0132875
726.343	0.0133463
726.421	0.0133411
726.499	0.0133250
726.578	0.0136186
726.656	0.0134603
726.734	0.0135142
726.812	0.0134780
726.890	0.0132834
726.968	0.0133047
727.046	0.0133849
727.124	0.0133762
727.203	0.0134454
727.281	0.0135430
727.359	0.0134480
727.437	0.0132932
727.515	0.0134037
727.593	0.0134476
727.671	0.0134715
727.749	0.0134195
727.828	0.0133215
727.906	0.0134205
727.984	0.0134112
728.062	0.0134071
728.140	0.0134198
728.218	0.0133874
728.296	0.0133289
728.374	0.0132423
728.453	0.0133330
728.531	0.0133965
728.609	0.0133415
728.687	0.0131512
728.765	0.0133095
728.843	0.0133716
728.921	0.0133303
728.999	0.0131528
729.078	0.0131096
729.156	0.0132651
729.234	0.0133010
729.312	0.0131565
729.390	0.0130804
729.468	0.0130856
729.546	0.0132054
729.624	0.0131504
729.703	0.0130935
729.781	0.0130076
729.859	0.0128817
729.937	0.0128273
730.015	0.0129945
730.093	0.0129677
730.171	0.0128532
730.249	0.0130302
730.328	0.0129432
730.406	0.0129452
730.484	0.0130274
730.562	0.0130505
730.640	0.0131704
730.718	0.0132095
730.796	0.0132523
730.874	0.0132807
730.953	0.0133472
731.031	0.0132652
731.109	0.0133165
731.187	0.0133994
731.265	0.0134486
731.343	0.0132876
731.421	0.0133970
731.499	0.0132536
731.578	0.0133560
731.656	0.0132751
731.734	0.0134012
731.812	0.0134180
731.890	0.0131888
731.968	0.0133052
732.046	0.0132872
732.124	0.0132178
732.203	0.0133260
732.281	0.0131647
732.359	0.0130487
732.437	0.0133085
732.515	0.0134063
732.593	0.0133739
732.671	0.0132571
732.749	0.0133204
732.828	0.0133297
732.906	0.0132585
732.984	0.0133029
733.062	0.0133102
733.140	0.0133818
733.218	0.0132601
733.296	0.0131784
733.374	0.0132389
733.453	0.0131726
733.531	0.0131561
733.609	0.0131096
733.687	0.0130968
733.765	0.0131999
733.843	0.0131878
733.921	0.0131573
733.999	0.0132658
734.078	0.0132753
734.156	0.0131132
734.234	0.0130932
734.312	0.0129981
734.390	0.0132410
734.468	0.0132138
734.546	0.0131380
734.624	0.0132051
734.703	0.0130800
734.781	0.0130450
734.859	0.0132608
734.937	0.0132534
735.015	0.0133687
735.093	0.0132442
735.171	0.0133125
735.249	0.0133278
735.328	0.0132481
735.406	0.0132155
735.484	0.0134136
735.562	0.0134017
735.640	0.0133203
735.718	0.0133971
735.796	0.0134231
735.874	0.0133107
735.953	0.0133613
736.031	0.0133836
736.109	0.0132899
736.187	0.0132307
736.265	0.0132070
736.343	0.0133335
736.421	0.0132990
736.499	0.0131428
736.578	0.0132562
736.656	0.0131081
736.734	0.0132242
736.812	0.0133404
736.890	0.0130562
736.968	0.0130054
737.046	0.0130897
737.124	0.0131809
737.203	0.0131489
737.281	0.0131321
737.359	0.0131593
737.437	0.0130255
737.515	0.0131185
737.593	0.0129494
737.671	0.0130952
737.749	0.0131200
737.828	0.0132684
737.906	0.0131558
737.984	0.0130746
738.062	0.0131660
738.140	0.0132010
738.218	0.0133514
738.296	0.0133582
738.374	0.0133089
738.453	0.0133616
738.531	0.0132391
738.609	0.0134637
738.687	0.0133650
738.765	0.0134315
738.843	0.0133702
738.921	0.0133695
738.999	0.0134272
739.078	0.0134262
739.156	0.0134887
739.234	0.0133258
739.312	0.0134109
739.390	0.0135845
739.468	0.0135665
739.546	0.0135764
739.624	0.0134985
739.703	0.0134943
739.781	0.0136653
739.859	0.0136717
739.937	0.0134817
740.015	0.0134589
740.093	0.0135396
740.171	0.0135486
740.249	0.0135543
740.328	0.0133062
740.406	0.0133569
740.484	0.0131554
740.562	0.0133681
740.640	0.0133601
740.718	0.0132702
740.796	0.0132204
740.874	0.0130397
740.953	0.0130087
741.031	0.0130510
741.109	0.0130392
741.187	0.0131553
741.265	0.0130287
741.343	0.0130977
741.421	0.0130841
741.499	0.0131579
741.578	0.0131599
741.656	0.0132557
741.734	0.0131512
741.812	0.0131935
741.890	0.0132197
741.968	0.0131467
742.046	0.0131841
742.124	0.0132989
742.203	0.0131869
742.281	0.0131985
742.359	0.0132278
742.437	0.0132329
742.515	0.0132131
742.593	0.0131901
742.671	0.0130301
742.749	0.0133009
742.828	0.0133936
742.906	0.0133943
742.984	0.0132914
743.062	0.0133804
743.140	0.0133992
743.218	0.0133279
743.296	0.0134851
743.374	0.0133811
743.453	0.0134456
743.531	0.0134917
743.609	0.0134814
743.687	0.0134201
743.765	0.0134304
743.843	0.0133353
743.921	0.0133424
743.999	0.0134094
744.078	0.0132431
744.156	0.0133492
744.234	0.0134261
744.312	0.0133992
744.390	0.0134532
744.468	0.0134084
744.546	0.0134108
744.624	0.0133343
744.703	0.0133939
744.781	0.0134710
744.859	0.0135197
744.937	0.0135186
745.015	0.0133218
745.093	0.0132844
745.171	0.0133688
745.249	0.0133202
745.328	0.0132484
745.406	0.0132285
745.484	0.0132500
745.562	0.0132298
745.640	0.0132283
745.718	0.0132713
745.796	0.0132386
745.874	0.0131638
745.953	0.0132568
746.031	0.0131870
746.109	0.0133611
746.187	0.0133633
746.265	0.0133385
746.343	0.0133712
746.421	0.0133775
746.499	0.0133519
746.578	0.0134122
746.656	0.0132942
746.734	0.0132699
746.812	0.0133593
746.890	0.0134441
746.968	0.0133135
747.046	0.0133703
747.124	0.0133718
747.203	0.0134245
747.281	0.0133415
747.359	0.0134995
747.437	0.0133111
747.515	0.0133868
747.593	0.0134586
747.671	0.0133815
747.749	0.0132659
747.828	0.0132656
747.906	0.0135040
747.984	0.0133508
748.062	0.0132599
748.140	0.0132733
748.218	0.0132832
748.296	0.0133025
748.374	0.0131644
748.453	0.0131607
748.531	0.0131306
748.609	0.0131702
748.687	0.0131432
748.765	0.0131495
748.843	0.0131222
748.921	0.0130891
748.999	0.0131263
749.078	0.0131469
749.156	0.0133322
749.234	0.0132243
749.312	0.0132423
749.390	0.0133007
749.468	0.0134332
749.546	0.0132974
749.624	0.0133321
749.703	0.0135032
749.781	0.0135053
749.859	0.0132452
749.937	0.0133771
750.015	0.0133537
750.093	0.0134342
750.171	0.0134380
750.249	0.0134692
750.328	0.0134133
750.406	0.0135086
750.484	0.0132730
750.562	0.0134392
750.640	0.0133918
750.718	0.0133762
750.796	0.0135232
750.874	0.0132899
750.953	0.0132118
751.031	0.0134960
751.109	0.0135208
751.187	0.0134435
751.265	0.0132731
751.343	0.0132796
751.421	0.0132774
751.499	0.0132886
751.578	0.0133048
751.656	0.0133054
751.734	0.0131648
751.812	0.0131464
751.890	0.0132912
751.968	0.0130533
752.046	0.0132167
752.124	0.0132351
752.203	0.0131312
752.281	0.0130707
752.359	0.0132464
752.437	0.0132121
752.515	0.0131281
752.593	0.0131837
752.671	0.0132916
752.749	0.0132160
752.828	0.0132448
752.906	0.0133210
752.984	0.0131880
753.062	0.0133270
753.140	0.0134180
753.218	0.0133647
753.296	0.0131137
753.374	0.0134001
753.453	0.0134256
753.531	0.0134001
753.609	0.0132807
753.687	0.0132812
753.765	0.0133524
753.843	0.0133508
753.921	0.0134195
753.999	0.0135083
754.078	0.0132846
754.156	0.0132466
754.234	0.0134246
754.312	0.0132064
754.390	0.0133514
754.468	0.0132603
754.546	0.0132933
754.624	0.0132888
754.703	0.0131267
754.781	0.0131552
754.859	0.0131804
754.937	0.0132116
755.015	0.0132851
755.093	0.0131213
755.171	0.0132068
755.249	0.0132159
755.328	0.0131527
755.406	0.0132541
755.484	0.0132874
755.562	0.0131470
755.640	0.0131924
755.718	0.0131908
755.796	0.0132096
755.874	0.0133904
755.953	0.0133184
756.031	0.0132851
756.109	0.0132787
756.187	0.0133569
756.265	0.0133368
756.343	0.0133115
756.421	0.0132129
756.499	0.0132117
756.578	0.0133037
756.656	0.0131860
756.734	0.0132536
756.812	0.0132743
756.890	0.0133064
756.968	0.0132694
757.046	0.0131289
757.124	0.0133070
757.203	0.0131882
757.281	0.0130959
757.359	0.0130996
757.437	0.0132069
757.515	0.0131860
757.593	0.0130794
757.671	0.0129308
757.749	0.0131535
757.828	0.0131763
757.906	0.0130992
757.984	0.0131704
758.062	0.0130770
758.140	0.0131221
758.218	0.0130930
758.296	0.0131257
758.374	0.0131371
758.453	0.0132353
758.531	0.0131523
758.609	0.0132894
758.687	0.0134700
758.765	0.0134959
758.843	0.0133483
758.921	0.0134653
758.999	0.0134365
759.078	0.0135099
759.156	0.0135129
759.234	0.0133701
759.312	0.0132768
759.390	0.0134345
759.468	0.0134030
759.546	0.0133694
759.624	0.0133585
759.703	0.0132954
759.781	0.0132401
759.859	0.0133437
759.937	0.0131847
760.015	0.0131113
760.093	0.0133141
760.171	0.0133795
760.249	0.0133617
760.328	0.0133057
760.406	0.0133194
760.484	0.0131850
760.562	0.0133025
760.640	0.0130485
760.718	0.0130291
760.796	0.0130015
760.874	0.0129028
760.953	0.0129849
761.031	0.0129539
761.109	0.0128843
761.187	0.0129423
761.265	0.0129365
761.343	0.0129458
761.421	0.0129745
761.499	0.0129842
761.578	0.0132719
761.656	0.0132937
761.734	0.0134236
761.812	0.0134058
761.890	0.0133505
761.968	0.0136422
762.046	0.0136458
762.124	0.0137582
762.203	0.0137796
762.281	0.0137116
762.359	0.0137064
762.437	0.0135816
762.515	0.0134271
762.593	0.0133546
762.671	0.0132428
762.749	0.0131788
762.828	0.0132146
762.906	0.0131740
762.984	0.0132129
763.062	0.0133218
763.140	0.0132729
763.218	0.0132914
763.296	0.0132444
763.374	0.0133456
763.453	0.0133151
763.531	0.0133049
763.609	0.0133060
763.687	0.0132855
763.765	0.0132429
763.843	0.0131949
763.921	0.0132665
763.999	0.0131898
764.078	0.0131533
764.156	0.0129594
764.234	0.0130465
764.312	0.0132114
764.390	0.0131095
764.468	0.0130756
764.546	0.0131123
764.624	0.0131863
764.703	0.0133330
764.781	0.0133607
764.859	0.0134174
764.937	0.0134231
765.015	0.0135574
765.093	0.0134587
765.171	0.0134708
765.249	0.0133183
765.328	0.0133310
765.406	0.0132787
765.484	0.0133238
765.562	0.0131728
765.640	0.0131078
765.718	0.0130965
765.796	0.0129662
765.874	0.0129330
765.953	0.0130242
766.031	0.0128248
766.109	0.0129191
766.187	0.0130283
766.265	0.0131911
766.343	0.0132771
766.421	0.0132525
766.499	0.0133500
766.578	0.0134503
766.656	0.0134266
766.734	0.0135049
766.812	0.0133952
766.890	0.0133510
766.968	0.0133367
767.046	0.0132365
767.124	0.0132159
767.203	0.0130524
767.281	0.0130663
767.359	0.0131398
767.437	0.0131086
767.515	0.0132304
767.593	0.0132394
767.671	0.0131812
767.749	0.0134435
767.828	0.0132973
767.906	0.0134779
767.984	0.0135494
768.062	0.0135537
768.140	0.0136281
768.218	0.0135506
768.296	0.0137060
768.374	0.0136089
768.453	0.0135102
768.531	0.0135735
768.609	0.0134394
768.687	0.0133160
768.765	0.0132764
768.843	0.0130170
768.921	0.0131159
768.999	0.0131356
769.078	0.0130012
769.156	0.0129308
769.234	0.0128973
769.312	0.0129594
769.390	0.0129912
769.468	0.0130156
769.546	0.0131008
769.624	0.0131640
769.703	0.0130807
769.781	0.0130853
769.859	0.0130283
769.937	0.0130817
770.015	0.0131572
770.093	0.0132096
770.171	0.0132565
770.249	0.0131908
770.328	0.0131867
770.406	0.0132596
770.484	0.0133060
770.562	0.0132891
770.640	0.0134070
770.718	0.0134016
770.796	0.0134287
770.874	0.0135308
770.953	0.0135788
771.031	0.0135411
771.109	0.0135782
771.187	0.0135522
771.265	0.0135637
771.343	0.0135739
771.421	0.0135576
771.499	0.0133765
771.578	0.0135370
771.656	0.0134668
771.734	0.0134774
771.812	0.0133365
771.890	0.0132999
771.968	0.0132830
772.046	0.0131774
772.124	0.0131010
772.203	0.0129667
772.281	0.0128687
772.359	0.0128073
772.437	0.0129621
772.515	0.0127415
772.593	0.0128600
772.671	0.0129922
772.749	0.0129034
772.828	0.0128971
772.906	0.0128510
772.984	0.0129763
773.062	0.0131638
773.140	0.0131832
773.218	0.0133103
773.296	0.0132891
773.374	0.0134002
773.453	0.0134251
773.531	0.0133756
773.609	0.0134066
773.687	0.0134096
773.765	0.0136021
773.843	0.0134184
773.921	0.0135387
773.999	0.0136015
774.078	0.0135936
774.156	0.0136741
774.234	0.0138428
774.312	0.0136920
774.390	0.0136767
774.468	0.0136932
774.546	0.0137938
774.624	0.0137205
774.703	0.0136269
774.781	0.0137426
774.859	0.0135308
774.937	0.0133156
775.015	0.0132999
775.093	0.0133340
775.171	0.0131539
775.249	0.0129675
775.328	0.0130248
775.406	0.0128479
775.484	0.0129507
775.562	0.0128391
775.640	0.0127998
775.718	0.0128289
775.796	0.0129477
775.874	0.0129228
775.953	0.0130262
776.031	0.0130009
776.109	0.0128767
776.187	0.0130265
776.265	0.0129943
776.343	0.0130098
776.421	0.0130352
776.499	0.0131473
776.578	0.0133322
776.656	0.0132361
776.734	0.0134547
776.812	0.0134586
776.890	0.0135003
776.968	0.0134434
777.046	0.0135624
777.124	0.0135990
777.203	0.0135786
777.281	0.0137682
777.359	0.0137571
777.437	0.0136279
777.515	0.0135049
777.593	0.0135385
777.671	0.0135297
777.749	0.0134248
777.828	0.0134136
777.906	0.0133693
777.984	0.0133968
778.062	0.0131988
778.140	0.0134037
778.218	0.0132484
778.296	0.0132178
778.374	0.0132158
778.453	0.0132250
778.531	0.0132699
778.609	0.0131459
778.687	0.0131046
778.765	0.0130624
778.843	0.0130081
778.921	0.0130434
778.999	0.0131642
779.078	0.0127663
779.156	0.0128635
779.234	0.0128211
779.312	0.0128714
779.390	0.0130682
779.468	0.0129371
779.546	0.0128218
779.624	0.0130701
779.703	0.0132613
779.781	0.0132923
779.859	0.0132127
779.937	0.0132581
780.015	0.0133108
780.093	0.0134349
780.171	0.0134222
780.249	0.0134676
780.328	0.0134673
780.406	0.0134600
780.484	0.0134452
780.562	0.0133958
780.640	0.0133719
780.718	0.0133088
780.796	0.0132820
780.874	0.0133343
780.953	0.0133189
781.031	0.0131657
781.109	0.0134008
781.187	0.0132592
781.265	0.0131978
781.343	0.0133893
781.421	0.0133452
781.499	0.0133035
781.578	0.0132695
781.656	0.0131870
781.734	0.0132401
781.812	0.0132723
781.890	0.0132866
781.968	0.0130869
782.046	0.0130117
782.124	0.0130315
782.203	0.0130114
782.281	0.0130395
782.359	0.0131403
782.437	0.0130714
782.515	0.0130877
782.593	0.0130950
782.671	0.0132161
782.749	0.0132279
782.828	0.0131876
782.906	0.0131732
782.984	0.0131584
783.062	0.0133291
783.140	0.0130931
783.218	0.0132359
783.296	0.0133535
783.374	0.0134051
783.453	0.0134079
783.531	0.0132462
783.609	0.0132761
783.687	0.0131911
783.765	0.0132332
783.843	0.0133216
783.921	0.0132343
783.999	0.0133615
784.078	0.0132832
784.156	0.0131968
784.234	0.0131771
784.312	0.0132238
784.390	0.0132658
784.468	0.0132240
784.546	0.0132777
784.624	0.0132015
784.703	0.0133264
784.781	0.0133117
784.859	0.0133279
784.937	0.0131549
785.015	0.0133594
785.093	0.0132800
785.171	0.0132960
785.249	0.0133918
785.328	0.0132265
785.406	0.0132476
785.484	0.0132139
785.562	0.0131895
785.640	0.0132220
785.718	0.0130668
785.796	0.0129636
785.874	0.0129383
785.953	0.0130264
786.031	0.0129395
786.109	0.0129515
786.187	0.0130876
786.265	0.0130361
786.343	0.0130630
786.421	0.0129944
786.499	0.0130829
786.578	0.0131526
786.656	0.0132218
786.734	0.0132553
786.812	0.0133764
786.890	0.0134660
786.968	0.0133289
787.046	0.0134256
787.124	0.0135441
787.203	0.0134324
787.281	0.0134190
787.359	0.0135774
787.437	0.0136910
787.515	0.0135222
787.593	0.0136604
787.671	0.0135023
787.749	0.0135677
787.828	0.0136005
787.906	0.0134690
787.984	0.0135464
788.062	0.0134673
788.140	0.0133946
788.218	0.0134894
788.296	0.0135209
788.374	0.0132471
788.453	0.0131501
788.531	0.0131530
788.609	0.0130601
788.687	0.0130872
788.765	0.0130133
788.843	0.0129519
788.921	0.0129535
788.999	0.0130603
789.078	0.0129241
789.156	0.0130685
789.234	0.0130953
789.312	0.0128806
789.390	0.0129304
789.468	0.0130016
789.546	0.0132015
789.624	0.0130396
789.703	0.0130595
789.781	0.0131508
789.859	0.0131331
789.937	0.0131793
790.015	0.0133551
790.093	0.0132555
790.171	0.0133253
790.249	0.0135080
790.328	0.0133771
790.406	0.0133405
790.484	0.0135675
790.562	0.0136596
790.640	0.0135959
790.718	0.0137501
790.796	0.0136369
790.874	0.0137305
790.953	0.0135298
791.031	0.0137475
791.109	0.0135808
791.187	0.0134188
791.265	0.0133950
791.343	0.0134188
791.421	0.0134303
791.499	0.0133344
791.578	0.0131646
791.656	0.0131903
791.734	0.0130492
791.812	0.0131360
791.890	0.0131265
791.968	0.0129939
792.046	0.0130180
792.124	0.0131281
792.203	0.0129426
792.281	0.0127824
792.359	0.0130189
792.437	0.0130041
792.515	0.0129392
792.593	0.0130486
792.671	0.0132581
792.749	0.0131914
792.828	0.0129586
792.906	0.0133231
792.984	0.0132689
793.062	0.0132901
793.140	0.0133553
793.218	0.0132595
793.296	0.0135258
793.374	0.0134066
793.453	0.0134370
793.531	0.0135756
793.609	0.0136267
793.687	0.0136446
793.765	0.0136423
793.843	0.0135577
793.921	0.0136375
793.999	0.0136545
794.078	0.0136064
794.156	0.0136111
794.234	0.0134687
794.312	0.0134395
794.390	0.0134428
794.468	0.0134779
794.546	0.0131750
794.624	0.0133030
794.703	0.0131036
794.781	0.0129873
794.859	0.0130303
794.937	0.0130760
795.015	0.0131385
795.093	0.0129501
795.171	0.0130260
795.249	0.0129815
795.328	0.0128912
795.406	0.0131382
795.484	0.0129802
795.562	0.0132501
795.640	0.0130743
795.718	0.0131435
795.796	0.0131399
795.874	0.0130242
795.953	0.0132037
796.031	0.0131769
796.109	0.0131987
796.187	0.0133168
796.265	0.0133485
796.343	0.0132921
796.421	0.0131612
796.499	0.0133134
796.578	0.0133637
796.656	0.0134703
796.734	0.0134331
796.812	0.0134129
796.890	0.0133598
796.968	0.0135069
797.046	0.0135222
797.124	0.0133949
797.203	0.0135081
797.281	0.0134389
797.359	0.0134246
797.437	0.0133940
797.515	0.0135619
797.593	0.0132880
797.671	0.0133540
797.749	0.0132687
797.828	0.0132398
797.906	0.0132507
797.984	0.0132069
798.062	0.0130762
798.140	0.0131204
798.218	0.0131467
798.296	0.0130761
798.374	0.0131329
798.453	0.0131674
798.531	0.0131425
798.609	0.0130389
798.687	0.0131389
798.765	0.0131691
798.843	0.0131721
798.921	0.0132915
798.999	0.0130614
799.078	0.0129816
799.156	0.0131290
799.234	0.0132066
799.312	0.0130384
799.390	0.0131263
799.468	0.0130852
799.546	0.0130761
799.624	0.0130981
799.703	0.0132530
799.781	0.0131718
799.859	0.0132144
799.937	0.0132605
800.015	0.0132229
800.093	0.0133945
800.171	0.0132635
800.249	0.0132526
800.328	0.0133555
800.406	0.0131937
800.484	0.0132705
800.562	0.0131484
800.640	0.0131779
800.718	0.0132462
800.796	0.0131856
800.874	0.0131231
800.953	0.0130645
801.031	0.0131869
801.109	0.0131982
801.187	0.0133427
801.265	0.0132356
801.343	0.0131242
801.421	0.0131563
801.499	0.0130606
801.578	0.0131240
801.656	0.0131626
801.734	0.0132661
801.812	0.0130250
801.890	0.0131541
801.968	0.0131621
802.046	0.0131814
802.124	0.0132091
802.203	0.0131691
802.281	0.0131025
802.359	0.0131516
802.437	0.0130645
802.515	0.0130884
802.593	0.0131862
802.671	0.0131454
802.749	0.0131622
802.828	0.0131717
802.906	0.0130544
802.984	0.0131852
803.062	0.0133780
803.140	0.0133015
803.218	0.0134419
803.296	0.0133913
803.374	0.0133270
803.453	0.0132729
803.531	0.0132451
803.609	0.0133480
803.687	0.0134703
803.765	0.0133054
803.843	0.0134637
803.921	0.0134576
803.999	0.0132338
804.078	0.0133073
804.156	0.0132091
804.234	0.0132275
804.312	0.0132024
804.390	0.0132102
804.468	0.0131375
804.546	0.0131716
804.624	0.0131585
804.703	0.0130748
804.781	0.0132568
804.859	0.0132236
804.937	0.0133053
805.015	0.0131332
805.093	0.0132771
805.171	0.0133028
805.249	0.0132255
805.328	0.0132349
805.406	0.0133408
805.484	0.0133166
805.562	0.0132210
805.640	0.0132224
805.718	0.0133054
805.796	0.0133899
805.874	0.0133093
805.953	0.0130785
806.031	0.0131397
806.109	0.0133239
806.187	0.0133751
806.265	0.0133277
806.343	0.0133458
806.421	0.0131995
806.499	0.0132176
806.578	0.0133113
806.656	0.0133495
806.734	0.0133340
806.812	0.0132850
806.890	0.0133294
806.968	0.0134125
807.046	0.0132284
807.124	0.0131383
807.203	0.0131169
807.281	0.0133656
807.359	0.0133125
807.437	0.0132394
807.515	0.0133298
807.593	0.0132320
807.671	0.0131468
807.749	0.0134099
807.828	0.0133018
807.906	0.0133295
807.984	0.0133084
808.062	0.0133456
808.140	0.0133593
808.218	0.0133854
808.296	0.0133649
808.374	0.0132813
808.453	0.0132937
808.531	0.0134393
808.609	0.0133080
808.687	0.0134778
808.765	0.0133747
808.843	0.0133817
808.921	0.0134470
808.999	0.0132245
809.078	0.0132578
809.156	0.0131855
809.234	0.0132620
809.312	0.0132507
809.390	0.0132817
809.468	0.0133107
809.546	0.0131836
809.624	0.0133705
809.703	0.0132577
809.781	0.0133495
809.859	0.0131992
809.937	0.0132374
810.015	0.0132886
810.093	0.0132857
810.171	0.0134480
810.249	0.0131364
810.328	0.0131400
810.406	0.0133018
810.484	0.0131479
810.562	0.0133349
810.640	0.0133653
810.718	0.0131702
810.796	0.0132113
810.874	0.0131340
810.953	0.0132531
811.031	0.0132634
811.109	0.0133294
811.187	0.0132461
811.265	0.0132261
811.343	0.0134697
811.421	0.0133402
811.499	0.0132579
811.578	0.0134638
811.656	0.0134822
811.734	0.0132867
811.812	0.0133666
811.890	0.0132699
811.968	0.0133662
812.046	0.0132497
812.124	0.0134244
812.203	0.0133749
812.281	0.0132847
812.359	0.0133876
812.437	0.0133937
812.515	0.0134181
812.593	0.0132932
812.671	0.0134063
812.749	0.0133101
812.828	0.0134238
812.906	0.0133745
812.984	0.0133711
813.062	0.0134891
813.140	0.0134047
813.218	0.0133653
813.296	0.0132301
813.374	0.0132778
813.453	0.0133294
813.531	0.0132989
813.609	0.0132140
813.687	0.0133871
813.765	0.0132539
813.843	0.0131742
813.921	0.0132813
813.999	0.0133796
814.078	0.0133228
814.156	0.0133778
814.234	0.0132899
814.312	0.0133314
814.390	0.0133444
814.468	0.0131562
814.546	0.0133878
814.624	0.0131886
814.703	0.0132262
814.781	0.0132760
814.859	0.0133876
814.937	0.0133472
815.015	0.0131828
815.093	0.0131781
815.171	0.0132234
815.249	0.0132882
815.328	0.0131268
815.406	0.0132239
815.484	0.0130923
815.562	0.0131104
815.640	0.0131656
815.718	0.0130170
815.796	0.0131690
815.874	0.0131988
815.953	0.0132224
816.031	0.0132399
816.109	0.0132143
816.187	0.0131341
816.265	0.0132648
816.343	0.0131789
816.421	0.0132653
816.499	0.0133583
816.578	0.0132642
816.656	0.0131165
816.734	0.0133341
816.812	0.0130841
816.890	0.0130796
816.968	0.0133369
817.046	0.0132276
817.124	0.0131744
817.203	0.0133424
817.281	0.0133671
817.359	0.0133171
817.437	0.0132703
817.515	0.0133940
817.593	0.0132589
817.671	0.0133637
817.749	0.0134226
817.828	0.0132459
817.906	0.0133858
817.984	0.0134488
818.062	0.0133728
818.140	0.0132842
818.218	0.0132039
818.296	0.0132118
818.374	0.0133811
818.453	0.0133132
818.531	0.0132480
818.609	0.0132793
818.687	0.0131893
818.765	0.0131952
818.843	0.0132965
818.921	0.0131332
818.999	0.0130300
819.078	0.0131245
819.156	0.0132838
819.234	0.0133190
819.312	0.0130641
819.390	0.0130264
819.468	0.0131562
819.546	0.0132328
819.624	0.0131564
819.703	0.0131172
819.781	0.0132056
819.859	0.0133125
819.937	0.0132447
820.015	0.0133295
820.093	0.0132210
820.171	0.0133779
820.249	0.0132873
820.328	0.0134092
820.406	0.0132372
820.484	0.0134390
820.562	0.0134508
820.640	0.0135176
820.718	0.0135780
820.796	0.0134352
820.874	0.0133900
820.953	0.0133762
821.031	0.0134220
821.109	0.0133592
821.187	0.0135034
821.265	0.0135676
821.343	0.0133796
821.421	0.0135072
821.499	0.0133344
821.578	0.0132961
821.656	0.0132681
821.734	0.0132002
821.812	0.0132543
821.890	0.0131331
821.968	0.0132124
822.046	0.0132655
822.124	0.0132423
822.203	0.0133891
822.281	0.0132109
822.359	0.0132906
822.437	0.0132643
822.515	0.0131834
822.593	0.0131410
822.671	0.0131855
822.749	0.0131295
822.828	0.0131690
822.906	0.0132620
822.984	0.0131961
823.062	0.0132614
823.140	0.0132751
823.218	0.0132945
823.296	0.0132098
823.374	0.0133382
823.453	0.0131885
823.531	0.0132863
823.609	0.0133734
823.687	0.0134462
823.765	0.0133390
823.843	0.0133812
823.921	0.0132762
823.999	0.0133392
824.078	0.0133337
824.156	0.0133302
824.234	0.0134050
824.312	0.0134031
824.390	0.0133518
824.468	0.0132180
824.546	0.0133906
824.624	0.0132859
824.703	0.0133281
824.781	0.0133373
824.859	0.0133910
824.937	0.0132525
825.015	0.0132005
825.093	0.0132623
825.171	0.0132946
825.249	0.0132251
825.328	0.0131856
825.406	0.0132153
825.484	0.0132451
825.562	0.0132822
825.640	0.0132501
825.718	0.0130327
825.796	0.0131216
825.874	0.0132855
825.953	0.0133965
826.031	0.0132079
826.109	0.0130376
826.187	0.0131066
826.265	0.0132431
826.343	0.0131853
826.421	0.0131612
826.499	0.0132079
826.578	0.0132407
826.656	0.0134002
826.734	0.0132972
826.812	0.0134119
826.890	0.0132708
826.968	0.0133012
827.046	0.0133676
827.124	0.0133407
827.203	0.0135078
827.281	0.0134145
827.359	0.0133073
827.437	0.0133157
827.515	0.0134872
827.593	0.0133513
827.671	0.0132464
827.749	0.0133260
827.828	0.0132848
827.906	0.0133002
827.984	0.0132858
828.062	0.0132830
828.140	0.0132157
828.218	0.0131892
828.296	0.0131519
828.374	0.0134293
828.453	0.0132543
828.531	0.0133142
828.609	0.0132495
828.687	0.0131886
828.765	0.0131730
828.843	0.0132206
828.921	0.0131921
828.999	0.0132489
829.078	0.0132384
829.156	0.0132765
829.234	0.0133557
829.312	0.0132832
829.390	0.0132117
829.468	0.0132587
829.546	0.0132855
829.624	0.0134060
829.703	0.0132661
829.781	0.0133506
829.859	0.0133488
829.937	0.0132352
830.015	0.0132140
830.093	0.0133337
830.171	0.0134201
830.249	0.0132054
830.328	0.0130880
830.406	0.0132337
830.484	0.0132568
830.562	0.0134131
830.640	0.0133250
830.718	0.0133421
830.796	0.0133466
830.874	0.0134541
830.953	0.0133173
831.031	0.0131230
831.109	0.0133575
831.187	0.0133048
831.265	0.0130591
831.343	0.0133025
831.421	0.0132527
831.499	0.0132446
831.578	0.0132272
831.656	0.0131437
831.734	0.0130585
831.812	0.0131568
831.890	0.0132747
831.968	0.0131377
832.046	0.0131269
832.124	0.0131279
832.203	0.0132117
832.281	0.0132240
832.359	0.0133694
832.437	0.0132348
832.515	0.0134146
832.593	0.0133710
832.671	0.0133083
832.749	0.0133260
832.828	0.0134032
832.906	0.0134420
832.984	0.0135315
833.062	0.0135583
833.140	0.0134824
833.218	0.0133575
833.296	0.0133753
833.374	0.0133062
833.453	0.0133611
833.531	0.0133160
833.609	0.0134074
833.687	0.0133182
833.765	0.0132790
833.843	0.0132533
833.921	0.0132034
833.999	0.0132596
834.078	0.0132542
834.156	0.0131901
834.234	0.0132487
834.312	0.0131507
834.390	0.0130602
834.468	0.0131812
834.546	0.0131479
834.624	0.0130618
834.703	0.0131899
834.781	0.0130898
834.859	0.0130836
834.937	0.0131627
835.015	0.0131371
835.093	0.0130921
835.171	0.0130473
835.249	0.0129617
835.328	0.0130549
835.406	0.0132329
835.484	0.0132004
835.562	0.0133820
835.640	0.0132723
835.718	0.0134261
835.796	0.0133684
835.874	0.0135316
835.953	0.0133675
836.031	0.0133149
836.109	0.0134617
836.187	0.0134459
836.265	0.0132341
836.343	0.0134856
836.421	0.0132977
836.499	0.0132961
836.578	0.0133518
836.656	0.0134150
836.734	0.0134045
836.812	0.0133267
836.890	0.0133566
836.968	0.0133971
837.046	0.0133066
837.124	0.0133273
837.203	0.0131922
837.281	0.0132060
837.359	0.0131765
837.437	0.0130914
837.515	0.0131833
837.593	0.0131097
837.671	0.0130980
837.749	0.0130417
837.828	0.0132232
837.906	0.0131750
837.984	0.0132311
838.062	0.0131654
838.140	0.0131773
838.218	0.0131724
838.296	0.0131557
838.374	0.0133479
838.453	0.0132815
838.531	0.0133731
838.609	0.0132079
838.687	0.0133184
838.765	0.0133958
838.843	0.0132008
838.921	0.0134232
838.999	0.0134059
839.078	0.0133611
839.156	0.0133490
839.234	0.0133002
839.312	0.0133600
839.390	0.0133264
839.468	0.0133224
839.546	0.0133234
839.624	0.0132622
839.703	0.0132496
839.781	0.0131542
839.859	0.0132755
839.937	0.0132883
840.015	0.0132239
840.093	0.0131873
840.171	0.0131081
840.249	0.0130748
840.328	0.0131180
840.406	0.0131321
840.484	0.0131252
840.562	0.0130901
840.640	0.0132326
840.718	0.0130070
840.796	0.0130487
840.874	0.0132586
840.953	0.0131301
841.031	0.0131815
841.109	0.0132027
841.187	0.0131574
841.265	0.0131499
841.343	0.0134167
841.421	0.0133998
841.499	0.0132924
841.578	0.0132623
841.656	0.0134187
841.734	0.0133151
841.812	0.0135002
841.890	0.0134653
841.968	0.0132405
842.046	0.0134421
842.124	0.0133694
842.203	0.0135133
842.281	0.0132391
842.359	0.0131409
842.437	0.0130501
842.515	0.0132111
842.593	0.0132697
842.671	0.0131405
842.749	0.0131612
842.828	0.0131684
842.906	0.0131875
842.984	0.0132491
843.062	0.0131400
843.140	0.0132508
843.218	0.0131636
843.296	0.0132162
843.374	0.0132973
843.453	0.0131705
843.531	0.0132166
843.609	0.0131570
843.687	0.0133104
843.765	0.0133112
843.843	0.0132883
843.921	0.0133525
843.999	0.0132900
844.078	0.0134431
844.156	0.0132821
844.234	0.0134290
844.312	0.0133342
844.390	0.0133826
844.468	0.0132809
844.546	0.0133067
844.624	0.0135136
844.703	0.0134257
844.781	0.0134692
844.859	0.0131025
844.937	0.0134425
845.015	0.0133949
845.093	0.0133144
845.171	0.0132442
845.249	0.0132854
845.328	0.0132385
845.406	0.0132733
845.484	0.0132548
845.562	0.0132096
845.640	0.0132392
845.718	0.0132917
845.796	0.0131447
845.874	0.0132607
845.953	0.0133043
846.031	0.0130672
846.109	0.0132157
846.187	0.0132973
846.265	0.0132320
846.343	0.0131010
846.421	0.0132999
846.499	0.0132455
846.578	0.0132603
846.656	0.0133047
846.734	0.0133378
846.812	0.0134200
846.890	0.0134684
846.968	0.0133549
847.046	0.0135146
847.124	0.0134535
847.203	0.0133598
847.281	0.0134407
847.359	0.0132732
847.437	0.0134324
847.515	0.0133788
847.593	0.0133279
847.671	0.0133205
847.749	0.0133804
847.828	0.0133335
847.906	0.0133535
847.984	0.0133551
848.062	0.0132605
848.140	0.0131429
848.218	0.0131924
848.296	0.0132113
848.374	0.0131271
848.453	0.0130460
848.531	0.0131608
848.609	0.0131598
848.687	0.0130511
848.765	0.0131246
848.843	0.0131046
848.921	0.0131023
848.999	0.0132095
849.078	0.0131889
849.156	0.0131063
849.234	0.0132592
849.312	0.0132095
849.390	0.0133997
849.468	0.0132082
849.546	0.0132983
849.624	0.0133425
849.703	0.0133116
849.781	0.0133602
849.859	0.0132519
849.937	0.0133084
850.015	0.0133486
850.093	0.0133572
850.171	0.0134232
850.249	0.0133420
850.328	0.0132075
850.406	0.0131807
850.484	0.0132585
850.562	0.0132912
850.640	0.0133139
850.718	0.0133187
850.796	0.0132294
850.874	0.0131585
850.953	0.0133915
851.031	0.0131699
851.109	0.0131244
851.187	0.0132214
851.265	0.0132427
851.343	0.0131970
851.421	0.0132833
851.499	0.0132095
851.578	0.0132346
851.656	0.0131771
851.734	0.0131374
851.812	0.0131311
851.890	0.0132018
851.968	0.0130940
852.046	0.0130982
852.124	0.0131523
852.203	0.0131615
852.281	0.0130919
852.359	0.0130762
852.437	0.0131702
852.515	0.0132928
852.593	0.0133158
852.671	0.0131532
852.749	0.0132307
852.828	0.0131601
852.906	0.0130260
852.984	0.0131565
853.062	0.0132455
853.140	0.0132172
853.218	0.0132456
853.296	0.0133172
853.374	0.0133144
853.453	0.0131900
853.531	0.0132559
853.609	0.0132481
853.687	0.0133463
853.765	0.0133727
853.843	0.0132730
853.921	0.0131910
853.999	0.0132491
854.078	0.0133012
854.156	0.0133260
854.234	0.0132232
854.312	0.0132384
854.390	0.0133316
854.468	0.0133156
854.546	0.0133424
854.624	0.0132705
854.703	0.0132582
854.781	0.0131899
854.859	0.0130920
854.937	0.0131081
855.015	0.0131012
855.093	0.0131726
855.171	0.0132590
855.249	0.0133063
855.328	0.0132748
855.406	0.0132975
855.484	0.0131846
855.562	0.0132549
855.640	0.0132400
855.718	0.0132466
855.796	0.0132403
855.874	0.0131817
855.953	0.0134673
856.031	0.0131906
856.109	0.0132726
856.187	0.0133875
856.265	0.0134178
856.343	0.0133447
856.421	0.0132628
856.499	0.0134271
856.578	0.0133585
856.656	0.0135007
856.734	0.0134418
856.812	0.0134750
856.890	0.0134538
856.968	0.0133292
857.046	0.0133136
857.124	0.0132143
857.203	0.0133617
857.281	0.0132286
857.359	0.0131969
857.437	0.0132967
857.515	0.0131217
857.593	0.0132085
857.671	0.0133440
857.749	0.0130986
857.828	0.0130980
857.906	0.0132108
857.984	0.0131567
858.062	0.0131922
858.140	0.0131472
858.218	0.0131361
858.296	0.0131713
858.374	0.0131129
858.453	0.0132435
858.531	0.0131355
858.609	0.0131881
858.687	0.0133074
858.765	0.0132108
858.843	0.0133009
858.921	0.0132566
858.999	0.0132677
859.078	0.0132387
859.156	0.0132801
859.234	0.0133832
859.312	0.0132811
859.390	0.0134084
859.468	0.0134077
859.546	0.0133412
859.624	0.0134326
859.703	0.0134623
859.781	0.0132382
859.859	0.0132857
859.937	0.0132631
860.015	0.0132890
860.093	0.0133753
860.171	0.0132560
860.249	0.0133076
860.328	0.0131784
860.406	0.0131248
860.484	0.0130874
860.562	0.0131683
860.640	0.0133650
860.718	0.0131360
860.796	0.0131248
860.874	0.0131380
860.953	0.0131904
861.031	0.0131383
861.109	0.0131300
861.187	0.0131063
861.265	0.0129917
861.343	0.0133321
861.421	0.0131783
861.499	0.0131857
861.578	0.0130465
861.656	0.0130480
861.734	0.0131918
861.812	0.0131324
861.890	0.0131550
861.968	0.0132240
862.046	0.0132133
862.124	0.0132321
862.203	0.0133504
862.281	0.0131087
862.359	0.0132589
862.437	0.0133096
862.515	0.0134637
862.593	0.0133497
862.671	0.0132922
862.749	0.0132126
862.828	0.0133426
862.906	0.0134387
862.984	0.0134049
863.062	0.0133584
863.140	0.0132791
863.218	0.0133346
863.296	0.0132728
863.374	0.0133292
863.453	0.0132889
863.531	0.0132794
863.609	0.0133390
863.687	0.0131917
863.765	0.0131425
863.843	0.0131406
863.921	0.0132030
863.999	0.0131732
864.078	0.0131605
864.156	0.0131990
864.234	0.0132391
864.312	0.0131109
864.390	0.0130255
864.468	0.0131567
864.546	0.0132015
864.624	0.0130390
864.703	0.0130785
864.781	0.0131677
864.859	0.0131647
864.937	0.0130968
865.015	0.0132495
865.093	0.0130832
865.171	0.0131734
865.249	0.0133571
865.328	0.0132285
865.406	0.0132073
865.484	0.0133369
865.562	0.0133760
865.640	0.0132880
865.718	0.0132378
865.796	0.0133294
865.874	0.0133437
865.953	0.0133907
866.031	0.0131786
866.109	0.0131921
866.187	0.0132614
866.265	0.0133765
866.343	0.0132742
866.421	0.0133276
866.499	0.0134186
866.578	0.0130858
866.656	0.0133382
866.734	0.0133232
866.812	0.0132818
866.890	0.0133485
866.968	0.0131380
867.046	0.0131621
867.124	0.0132938
867.203	0.0130718
867.281	0.0132275
867.359	0.0131574
867.437	0.0131440
867.515	0.0130993
867.593	0.0131903
867.671	0.0133006
867.749	0.0131647
867.828	0.0133144
867.906	0.0132755
867.984	0.0132427
868.062	0.0132316
868.140	0.0132729
868.218	0.0131820
868.296	0.0132468
868.374	0.0132873
868.453	0.0132295
868.531	0.0133783
868.609	0.0132681
868.687	0.0132766
868.765	0.0132444
868.843	0.0131528
868.921	0.0132819
868.999	0.0134627
869.078	0.0133006
869.156	0.0133100
869.234	0.0131776
869.312	0.0133846
869.390	0.0131830
869.468	0.0133345
869.546	0.0132038
869.624	0.0134231
869.703	0.0133868
869.781	0.0133185
869.859	0.0131932
869.937	0.0132881
870.015	0.0133614
870.093	0.0132338
870.171	0.0132397
870.249	0.0133114
870.328	0.0132922
870.406	0.0131603
870.484	0.0131620
870.562	0.0133220
870.640	0.0133196
870.718	0.0132549
870.796	0.0132011
870.874	0.0132982
870.953	0.0132841
871.031	0.0131923
871.109	0.0132993
871.187	0.0132182
871.265	0.0132645
871.343	0.0133817
871.421	0.0132967
871.499	0.0133491
871.578	0.0132580
871.656	0.0132774
871.734	0.0132929
871.812	0.0132854
871.890	0.0132713
871.968	0.0134103
872.046	0.0134101
872.124	0.0133337
872.203	0.0132348
872.281	0.0133472
872.359	0.0133366
872.437	0.0133009
872.515	0.0132632
872.593	0.0132784
872.671	0.0131247
872.749	0.0132021
872.828	0.0132137
872.906	0.0131363
872.984	0.0131680
873.062	0.0130988
873.140	0.0132845
873.218	0.0132745
873.296	0.0131393
873.374	0.0132172
873.453	0.0132119
873.531	0.0132195
873.609	0.0133060
873.687	0.0132887
873.765	0.0132157
873.843	0.0131302
873.921	0.0131213
873.999	0.0131809
874.078	0.0132877
874.156	0.0131696
874.234	0.0131252
874.312	0.0132979
874.390	0.0132090
874.468	0.0130976
874.546	0.0133380
874.624	0.0132790
874.703	0.0133163
874.781	0.0132801
874.859	0.0132626
874.937	0.0133531
875.015	0.0133455
875.093	0.0132452
875.171	0.0131216
875.249	0.0132320
875.328	0.0132227
875.406	0.0131351
875.484	0.0131921
875.562	0.0130710
875.640	0.0131807
875.718	0.0132276
875.796	0.0130670
875.874	0.0132397
875.953	0.0132438
876.031	0.0132285
876.109	0.0130916
876.187	0.0132376
876.265	0.0131513
876.343	0.0132924
876.421	0.0132966
876.499	0.0132996
876.578	0.0131281
876.656	0.0132935
876.734	0.0132021
876.812	0.0131616
876.890	0.0131496
876.968	0.0132473
877.046	0.0131991
877.124	0.0131817
877.203	0.0131544
877.281	0.0132631
877.359	0.0131664
877.437	0.0133014
877.515	0.0130156
877.593	0.0130860
877.671	0.0130910
877.749	0.0131172
877.828	0.0131430
877.906	0.0129946
877.984	0.0132114
878.062	0.0131253
878.140	0.0130767
878.218	0.0130946
878.296	0.0133392
878.374	0.0132646
878.453	0.0132018
878.531	0.0133536
878.609	0.0132578
878.687	0.0133946
878.765	0.0133278
878.843	0.0132008
878.921	0.0132603
878.999	0.0132645
879.078	0.0133483
879.156	0.0133225
879.234	0.0132491
879.312	0.0132295
879.390	0.0131664
879.468	0.0132778
879.546	0.0132441
879.624	0.0133112
879.703	0.0131121
879.781	0.0132935
879.859	0.0133339
879.937	0.0132234
880.015	0.0132402
880.093	0.0133571
880.171	0.0132053
880.249	0.0132516
880.328	0.0133021
880.406	0.0132532
880.484	0.0132372
880.562	0.0130428
880.640	0.0130048
880.718	0.0130851
880.796	0.0131682
880.874	0.0132055
880.953	0.0130836
881.031	0.0130145
881.109	0.0130238
881.187	0.0131564
881.265	0.0130451
881.343	0.0130770
881.421	0.0131262
881.499	0.0130909
881.578	0.0133302
881.656	0.0133286
881.734	0.0133208
881.812	0.0133655
881.890	0.0133711
881.968	0.0133918
882.046	0.0133619
882.124	0.0134348
882.203	0.0135040
882.281	0.0133893
882.359	0.0134065
882.437	0.0135185
882.515	0.0133846
882.593	0.0135781
882.671	0.0134563
882.749	0.0133356
882.828	0.0133955
882.906	0.0132343
882.984	0.0133080
883.062	0.0133122
883.140	0.0131380
883.218	0.0131347
883.296	0.0129867
883.374	0.0130486
883.453	0.0131628
883.531	0.0129896
883.609	0.0130531
883.687	0.0129855
883.765	0.0129864
883.843	0.0129781
883.921	0.0130571
883.999	0.0130471
884.078	0.0130412
884.156	0.0130730
884.234	0.0131577
884.312	0.0133662
884.390	0.0132613
884.468	0.0132124
884.546	0.0132516
884.624	0.0133292
884.703	0.0133556
884.781	0.0134547
884.859	0.0134264
884.937	0.0136553
885.015	0.0135690
885.093	0.0134348
885.171	0.0135728
885.249	0.0135410
885.328	0.0136140
885.406	0.0134195
885.484	0.0132684
885.562	0.0133622
885.640	0.0132515
885.718	0.0133364
885.796	0.0133607
885.874	0.0132445
885.953	0.0131263
886.031	0.0131384
886.109	0.0131584
886.187	0.0131684
886.265	0.0131208
886.343	0.0131743
886.421	0.0131705
886.499	0.0131398
886.578	0.0130373
886.656	0.0130235
886.734	0.0129240
886.812	0.0130411
886.890	0.0130963
886.968	0.0130096
887.046	0.0131207
887.124	0.0131342
887.203	0.0131314
887.281	0.0130254
887.359	0.0130991
887.437	0.0131454
887.515	0.0131599
887.593	0.0132980
887.671	0.0133151
887.749	0.0132235
887.828	0.0132255
887.906	0.0133684
887.984	0.0134576
888.062	0.0134238
888.140	0.0135168
888.218	0.0133794
888.296	0.0135332
888.374	0.0136274
888.453	0.0134461
888.531	0.0135001
888.609	0.0134875
888.687	0.0134687
888.765	0.0134798
888.843	0.0131837
888.921	0.0134451
888.999	0.0133253
889.078	0.0132399
889.156	0.0133102
889.234	0.0132414
889.312	0.0132934
889.390	0.0132143
889.468	0.0131898
889.546	0.0130052
889.624	0.0130060
889.703	0.0132663
889.781	0.0131417
889.859	0.0131210
889.937	0.0131555
890.015	0.0129708
890.093	0.0130728
890.171	0.0130659
890.249	0.0129896
890.328	0.0131445
890.406	0.0131064
890.484	0.0132384
890.562	0.0132739
890.640	0.0131673
890.718	0.0132965
890.796	0.0131973
890.874	0.0132174
890.953	0.0133177
891.031	0.0134309
891.109	0.0133607
891.187	0.0133011
891.265	0.0132776
891.343	0.0133601
891.421	0.0133295
891.499	0.0133622
891.578	0.0133789
891.656	0.0133292
891.734	0.0133285
891.812	0.0133885
891.890	0.0134541
891.968	0.0133089
892.046	0.0133286
892.124	0.0134805
892.203	0.0132339
892.281	0.0133526
892.359	0.0133170
892.437	0.0133389
892.515	0.0133096
892.593	0.0131392
892.671	0.0133198
892.749	0.0132796
892.828	0.0131810
892.906	0.0133103
892.984	0.0132079
893.062	0.0132265
893.140	0.0131887
893.218	0.0131861
893.296	0.0133321
893.374	0.0132601
893.453	0.0131354
893.531	0.0131850
893.609	0.0131781
893.687	0.0132186
893.765	0.0131509
893.843	0.0133338
893.921	0.0131869
893.999	0.0132050
894.078	0.0132170
894.156	0.0131938
894.234	0.0131784
894.312	0.0132136
894.390	0.0132401
894.468	0.0132096
894.546	0.0132372
894.624	0.0133001
894.703	0.0132379
894.781	0.0132678
894.859	0.0131134
894.937	0.0132108
895.015	0.0132657
895.093	0.0133234
895.171	0.0132571
895.249	0.0132144
895.328	0.0132411
895.406	0.0133204
895.484	0.0134245
895.562	0.0132726
895.640	0.0133238
895.718	0.0133620
895.796	0.0132617
895.874	0.0133243
895.953	0.0133730
896.031	0.0132923
896.109	0.0133784
896.187	0.0132408
896.265	0.0132050
896.343	0.0132893
896.421	0.0132987
896.499	0.0133306
896.578	0.0133378
896.656	0.0130329
896.734	0.0131479
896.812	0.0132108
896.890	0.0132475
896.968	0.0132408
897.046	0.0131886
897.124	0.0134216
897.203	0.0131618
897.281	0.0133665
897.359	0.0134293
897.437	0.0132613
897.515	0.0133868
897.593	0.0135227
897.671	0.0134380
897.749	0.0134486
897.828	0.0133720
897.906	0.0133920
897.984	0.0133437
898.062	0.0133943
898.140	0.0131602
898.218	0.0132784
898.296	0.0133546
898.374	0.0131911
898.453	0.0133455
898.531	0.0132443
898.609	0.0131587
898.687	0.0131666
898.765	0.0131847
898.843	0.0132623
898.921	0.0132381
898.999	0.0132706
899.078	0.0133001
899.156	0.0132729
899.234	0.0131404
899.312	0.0131877
899.390	0.0132533
899.468	0.0132467
899.546	0.0133218
899.624	0.0133353
899.703	0.0133832
899.781	0.0133597
899.859	0.0132733
899.937	0.0134086
900.015	0.0133355
900.093	0.0133118
900.171	0.0135134
900.249	0.0134563
900.328	0.0134133
900.406	0.0133985
900.484	0.0133693
900.562	0.0133421
900.640	0.0133967
900.718	0.0134900
900.796	0.0133035
900.874	0.0133731
900.953	0.0133864
901.031	0.0133559
901.109	0.0133327
901.187	0.0133783
901.265	0.0134015
901.343	0.0132847
901.421	0.0132793
901.499	0.0133348
901.578	0.0133379
901.656	0.0132347
901.734	0.0131715
901.812	0.0132697
901.890	0.0130905
901.968	0.0131278
902.046	0.0131118
902.124	0.0132561
902.203	0.0131474
902.281	0.0130302
902.359	0.0130316
902.437	0.0130892
902.515	0.0131165
902.593	0.0131792
902.671	0.0130193
902.749	0.0131563
902.828	0.0132041
902.906	0.0131946
902.984	0.0133162
903.062	0.0132812
903.140	0.0133473
903.218	0.0133635
903.296	0.0133717
903.374	0.0132971
903.453	0.0134009
903.531	0.0135236
903.609	0.0133651
903.687	0.0134193
903.765	0.0134329
903.843	0.0135336
903.921	0.0134103
903.999	0.0134509
904.078	0.0134904
904.156	0.0134393
904.234	0.0133622
904.312	0.0133965
904.390	0.0134616
904.468	0.0133228
904.546	0.0132793
904.624	0.0134653
904.703	0.0132804
904.781	0.0131764
904.859	0.0132387
904.937	0.0132629
905.015	0.0133210
905.093	0.0133808
905.171	0.0132002
905.249	0.0133749
905.328	0.0133224
905.406	0.0132395
905.484	0.0132134
905.562	0.0132992
905.640	0.0133465
905.718	0.0132799
905.796	0.0133207
905.874	0.0132773
905.953	0.0131167
906.031	0.0131296
906.109	0.0132108
906.187	0.0132276
906.265	0.0132903
906.343	0.0133047
906.421	0.0132925
906.499	0.0133462
906.578	0.0133428
906.656	0.0133139
906.734	0.0134840
906.812	0.0134936
906.890	0.0133375
906.968	0.0134306
907.046	0.0133985
907.124	0.0133683
907.203	0.0133261
907.281	0.0133347
907.359	0.0133021
907.437	0.0135198
907.515	0.0133798
907.593	0.0134170
907.671	0.0133143
907.749	0.0132418
907.828	0.0133262
907.906	0.0132983
907.984	0.0131065
908.062	0.0132046
908.140	0.0133243
908.218	0.0132626
908.296	0.0132073
908.374	0.0133046
908.453	0.0133955
908.531	0.0133904
908.609	0.0133107
908.687	0.0132767
908.765	0.0133466
908.843	0.0132928
908.921	0.0134415
908.999	0.0132376
909.078	0.0133790
909.156	0.0132668
909.234	0.0134267
909.312	0.0133064
909.390	0.0132651
909.468	0.0132144
909.546	0.0132319
909.624	0.0135017
909.703	0.0134437
909.781	0.0132488
909.859	0.0133395
909.937	0.0133324
910.015	0.0133040
910.093	0.0133531
910.171	0.0133617
910.249	0.0134457
910.328	0.0134152
910.406	0.0133865
910.484	0.0135046
910.562	0.0134735
910.640	0.0133865
910.718	0.0134249
910.796	0.0132859
910.874	0.0133094
910.953	0.0133717
911.031	0.0134352
911.109	0.0133868
911.187	0.0134025
911.265	0.0132383
911.343	0.0131382
911.421	0.0132752
911.499	0.0132724
911.578	0.0131638
911.656	0.0132581
911.734	0.0131611
911.812	0.0131815
911.890	0.0133144
911.968	0.0132936
912.046	0.0133420
912.124	0.0132153
912.203	0.0131795
912.281	0.0131846
912.359	0.0132176
912.437	0.0133127
912.515	0.0132470
912.593	0.0132498
912.671	0.0130303
912.749	0.0132977
912.828	0.0132417
912.906	0.0132902
912.984	0.0133077
913.062	0.0131413
913.140	0.0132841
913.218	0.0131064
913.296	0.0133183
913.374	0.0133674
913.453	0.0133429
913.531	0.0132338
913.609	0.0132922
913.687	0.0133350
913.765	0.0132858
913.843	0.0132347
913.921	0.0134885
913.999	0.0133205
914.078	0.0134085
914.156	0.0134599
914.234	0.0134109
914.312	0.0132784
914.390	0.0133025
914.468	0.0133546
914.546	0.0132771
914.624	0.0134231
914.703	0.0133582
914.781	0.0132655
914.859	0.0133078
914.937	0.0133244
915.015	0.0132755
915.093	0.0132216
915.171	0.0132679
915.249	0.0133416
915.328	0.0132430
915.406	0.0131498
915.484	0.0133067
915.562	0.0132704
915.640	0.0133382
915.718	0.0131608
915.796	0.0131905
915.874	0.0132854
915.953	0.0131644
916.031	0.0133734
916.109	0.0132854
916.187	0.0133729
916.265	0.0132605
916.343	0.0133144
916.421	0.0134240
916.499	0.0134048
916.578	0.0133795
916.656	0.0133330
916.734	0.0133395
916.812	0.0133485
916.890	0.0132248
916.968	0.0133398
917.046	0.0133755
917.124	0.0132356
917.203	0.0132964
917.281	0.0133617
917.359	0.0131820
917.437	0.0132661
917.515	0.0133575
917.593	0.0134124
917.671	0.0133602
917.749	0.0133542
917.828	0.0134776
917.906	0.0134135
917.984	0.0132182
918.062	0.0135403
918.140	0.0133853
918.218	0.0132578
918.296	0.0134037
918.374	0.0133265
918.453	0.0133153
918.531	0.0133607
918.609	0.0133408
918.687	0.0132659
918.765	0.0132775
918.843	0.0132370
918.921	0.0131570
918.999	0.0131787
919.078	0.0133667
919.156	0.0133434
919.234	0.0132533
919.312	0.0134162
919.390	0.0132458
919.468	0.0132690
919.546	0.0133195
919.624	0.0134602
919.703	0.0133255
919.781	0.0133913
919.859	0.0134254
919.937	0.0132848
