05/06/2022	18:48:54	Ver.	4.1	UNKNOWN
Optical Delay	600.015094	Delta X		0.078125	Sweeps	1	Scan Rate	0/0
Coordinates	Axis 1	NaN	Axis 2	NaN	Axis 3	NaN	Axis 4	NaN	Axis 5	NaN	Axis 6	0.000000
TX Power	0.000000	RX Power	0.000000

600.015	0.0134503
600.093	0.0133991
600.171	0.0134502
600.249	0.0133509
600.328	0.0133961
600.406	0.0135471
600.484	0.0134707
600.562	0.0134429
600.640	0.0133896
600.718	0.0135532
600.796	0.0133820
600.874	0.0133930
600.953	0.0135794
601.031	0.0135419
601.109	0.0135502
601.187	0.0133372
601.265	0.0133967
601.343	0.0134856
601.421	0.0134555
601.499	0.0135950
601.578	0.0134715
601.656	0.0134436
601.734	0.0134483
601.812	0.0134173
601.890	0.0134622
601.968	0.0133707
602.046	0.0135168
602.124	0.0134268
602.203	0.0134142
602.281	0.0135832
602.359	0.0135593
602.437	0.0135287
602.515	0.0134746
602.593	0.0134260
602.671	0.0134216
602.749	0.0135337
602.828	0.0134626
602.906	0.0133759
602.984	0.0134492
603.062	0.0134838
603.140	0.0134698
603.218	0.0134337
603.296	0.0135545
603.374	0.0135410
603.453	0.0134101
603.531	0.0133685
603.609	0.0135540
603.687	0.0133807
603.765	0.0133398
603.843	0.0134524
603.921	0.0134933
603.999	0.0135428
604.078	0.0134438
604.156	0.0133194
604.234	0.0135327
604.312	0.0135845
604.390	0.0136256
604.468	0.0133752
604.546	0.0134343
604.624	0.0133565
604.703	0.0134961
604.781	0.0132787
604.859	0.0134116
604.937	0.0134889
605.015	0.0134797
605.093	0.0134824
605.171	0.0134321
605.249	0.0135768
605.328	0.0134007
605.406	0.0134125
605.484	0.0136015
605.562	0.0135280
605.640	0.0134762
605.718	0.0135209
605.796	0.0134914
605.874	0.0134827
605.953	0.0134617
606.031	0.0134997
606.109	0.0133990
606.187	0.0133842
606.265	0.0135489
606.343	0.0134602
606.421	0.0133498
606.499	0.0135267
606.578	0.0135592
606.656	0.0134644
606.734	0.0135103
606.812	0.0134978
606.890	0.0135513
606.968	0.0134066
607.046	0.0134109
607.124	0.0135139
607.203	0.0135289
607.281	0.0133385
607.359	0.0134679
607.437	0.0135713
607.515	0.0133993
607.593	0.0134701
607.671	0.0134227
607.749	0.0134497
607.828	0.0132677
607.906	0.0134044
607.984	0.0133958
608.062	0.0133553
608.140	0.0134525
608.218	0.0135749
608.296	0.0133974
608.374	0.0135046
608.453	0.0134565
608.531	0.0136504
608.609	0.0134927
608.687	0.0133215
608.765	0.0133672
608.843	0.0135526
608.921	0.0135591
608.999	0.0134224
609.078	0.0133949
609.156	0.0134907
609.234	0.0134933
609.312	0.0134193
609.390	0.0133855
609.468	0.0133766
609.546	0.0135419
609.624	0.0135172
609.703	0.0133873
609.781	0.0134158
609.859	0.0134846
609.937	0.0134377
610.015	0.0134489
610.093	0.0133888
610.171	0.0135493
610.249	0.0135337
610.328	0.0133139
610.406	0.0134127
610.484	0.0134211
610.562	0.0134187
610.640	0.0133823
610.718	0.0135757
610.796	0.0134183
610.874	0.0135490
610.953	0.0133919
611.031	0.0135133
611.109	0.0135410
611.187	0.0135051
611.265	0.0133073
611.343	0.0134682
611.421	0.0135395
611.499	0.0133018
611.578	0.0134419
611.656	0.0135086
611.734	0.0134339
611.812	0.0134631
611.890	0.0134786
611.968	0.0134466
612.046	0.0134116
612.124	0.0134638
612.203	0.0134200
612.281	0.0134102
612.359	0.0135382
612.437	0.0134391
612.515	0.0135014
612.593	0.0134420
612.671	0.0135159
612.749	0.0134605
612.828	0.0133845
612.906	0.0135533
612.984	0.0134879
613.062	0.0133202
613.140	0.0136083
613.218	0.0135821
613.296	0.0135492
613.374	0.0135821
613.453	0.0135076
613.531	0.0135117
613.609	0.0135536
613.687	0.0135690
613.765	0.0134331
613.843	0.0134759
613.921	0.0134585
613.999	0.0134447
614.078	0.0133781
614.156	0.0135173
614.234	0.0135549
614.312	0.0134853
614.390	0.0134361
614.468	0.0134892
614.546	0.0134703
614.624	0.0134585
614.703	0.0135246
614.781	0.0135288
614.859	0.0134225
614.937	0.0135346
615.015	0.0134135
615.093	0.0134186
615.171	0.0134000
615.249	0.0135974
615.328	0.0135926
615.406	0.0135018
615.484	0.0133599
615.562	0.0132819
615.640	0.0133578
615.718	0.0132316
615.796	0.0133894
615.874	0.0133969
615.953	0.0134625
616.031	0.0134778
616.109	0.0135586
616.187	0.0133783
616.265	0.0134462
616.343	0.0134380
616.421	0.0134856
616.499	0.0135422
616.578	0.0134395
616.656	0.0135029
616.734	0.0134557
616.812	0.0134086
616.890	0.0135144
616.968	0.0135905
617.046	0.0136359
617.124	0.0134839
617.203	0.0134592
617.281	0.0135030
617.359	0.0134801
617.437	0.0134599
617.515	0.0134275
617.593	0.0134713
617.671	0.0134973
617.749	0.0133524
617.828	0.0135034
617.906	0.0134602
617.984	0.0135601
618.062	0.0133489
618.140	0.0133266
618.218	0.0134269
618.296	0.0135640
618.374	0.0135097
618.453	0.0132835
618.531	0.0134227
618.609	0.0135890
618.687	0.0133319
618.765	0.0133480
618.843	0.0134470
618.921	0.0134254
618.999	0.0133826
619.078	0.0135437
619.156	0.0134219
619.234	0.0134870
619.312	0.0133982
619.390	0.0133665
619.468	0.0134093
619.546	0.0134374
619.624	0.0134798
619.703	0.0133890
619.781	0.0134772
619.859	0.0135791
619.937	0.0133419
620.015	0.0134437
620.093	0.0134935
620.171	0.0135616
620.249	0.0135390
620.328	0.0135683
620.406	0.0134660
620.484	0.0134645
620.562	0.0134560
620.640	0.0134933
620.718	0.0135168
620.796	0.0135055
620.874	0.0135152
620.953	0.0135081
621.031	0.0134826
621.109	0.0133617
621.187	0.0134495
621.265	0.0134825
621.343	0.0134785
621.421	0.0133758
621.499	0.0134581
621.578	0.0135753
621.656	0.0135701
621.734	0.0134794
621.812	0.0135092
621.890	0.0133987
621.968	0.0132780
622.046	0.0134700
622.124	0.0134824
622.203	0.0134367
622.281	0.0133611
622.359	0.0135448
622.437	0.0134904
622.515	0.0134455
622.593	0.0134721
622.671	0.0133446
622.749	0.0135822
622.828	0.0132899
622.906	0.0134756
622.984	0.0134682
623.062	0.0134158
623.140	0.0135808
623.218	0.0135108
623.296	0.0135022
623.374	0.0134804
623.453	0.0134237
623.531	0.0135034
623.609	0.0134030
623.687	0.0135477
623.765	0.0134844
623.843	0.0135985
623.921	0.0133654
623.999	0.0134558
624.078	0.0135149
624.156	0.0135518
624.234	0.0136404
624.312	0.0135188
624.390	0.0133823
624.468	0.0136507
624.546	0.0135178
624.624	0.0135341
624.703	0.0135738
624.781	0.0134837
624.859	0.0134383
624.937	0.0134559
625.015	0.0133270
625.093	0.0134259
625.171	0.0134954
625.249	0.0133802
625.328	0.0134960
625.406	0.0134645
625.484	0.0134691
625.562	0.0133767
625.640	0.0134940
625.718	0.0134943
625.796	0.0134301
625.874	0.0135029
625.953	0.0135770
626.031	0.0135079
626.109	0.0133624
626.187	0.0134811
626.265	0.0133270
626.343	0.0134872
626.421	0.0135449
626.499	0.0134106
626.578	0.0135259
626.656	0.0135056
626.734	0.0134550
626.812	0.0134486
626.890	0.0134661
626.968	0.0134616
627.046	0.0135778
627.124	0.0134874
627.203	0.0135374
627.281	0.0135178
627.359	0.0134703
627.437	0.0134608
627.515	0.0135284
627.593	0.0135524
627.671	0.0135094
627.749	0.0134255
627.828	0.0136013
627.906	0.0135110
627.984	0.0134253
628.062	0.0135635
628.140	0.0136121
628.218	0.0134911
628.296	0.0135751
628.374	0.0135789
628.453	0.0133920
628.531	0.0134100
628.609	0.0135833
628.687	0.0134373
628.765	0.0134415
628.843	0.0135210
628.921	0.0134247
628.999	0.0134623
629.078	0.0134518
629.156	0.0135580
629.234	0.0133984
629.312	0.0133655
629.390	0.0135358
629.468	0.0134428
629.546	0.0135365
629.624	0.0134698
629.703	0.0134803
629.781	0.0134947
629.859	0.0134663
629.937	0.0134229
630.015	0.0136142
630.093	0.0136203
630.171	0.0135700
630.249	0.0132959
630.328	0.0134913
630.406	0.0135047
630.484	0.0134633
630.562	0.0134618
630.640	0.0133874
630.718	0.0134129
630.796	0.0135513
630.874	0.0134402
630.953	0.0134684
631.031	0.0134122
631.109	0.0135817
631.187	0.0134304
631.265	0.0134364
631.343	0.0135391
631.421	0.0134641
631.499	0.0134362
631.578	0.0134599
631.656	0.0135005
631.734	0.0134589
631.812	0.0133162
631.890	0.0134866
631.968	0.0133740
632.046	0.0133753
632.124	0.0134327
632.203	0.0134904
632.281	0.0135345
632.359	0.0134416
632.437	0.0133031
632.515	0.0133664
632.593	0.0134687
632.671	0.0134126
632.749	0.0133870
632.828	0.0134543
632.906	0.0133247
632.984	0.0133978
633.062	0.0133898
633.140	0.0135703
633.218	0.0136713
633.296	0.0136408
633.374	0.0133666
633.453	0.0134332
633.531	0.0133999
633.609	0.0132948
633.687	0.0135633
633.765	0.0135638
633.843	0.0135524
633.921	0.0134881
633.999	0.0135466
634.078	0.0134317
634.156	0.0134315
634.234	0.0134247
634.312	0.0134039
634.390	0.0135101
634.468	0.0133665
634.546	0.0133333
634.624	0.0135476
634.703	0.0135291
634.781	0.0135432
634.859	0.0133934
634.937	0.0134886
635.015	0.0134322
635.093	0.0134309
635.171	0.0135271
635.249	0.0135558
635.328	0.0135381
635.406	0.0135238
635.484	0.0134943
635.562	0.0135849
635.640	0.0135291
635.718	0.0134657
635.796	0.0135451
635.874	0.0134190
635.953	0.0134640
636.031	0.0135519
636.109	0.0134705
636.187	0.0135253
636.265	0.0134904
636.343	0.0134451
636.421	0.0135136
636.499	0.0132144
636.578	0.0132903
636.656	0.0135548
636.734	0.0134626
636.812	0.0134770
636.890	0.0134464
636.968	0.0135051
637.046	0.0135913
637.124	0.0132919
637.203	0.0134125
637.281	0.0136156
637.359	0.0133492
637.437	0.0134676
637.515	0.0134236
637.593	0.0133665
637.671	0.0134355
637.749	0.0134738
637.828	0.0134394
637.906	0.0133778
637.984	0.0134874
638.062	0.0134123
638.140	0.0135026
638.218	0.0133499
638.296	0.0134336
638.374	0.0134137
638.453	0.0135030
638.531	0.0135220
638.609	0.0133778
638.687	0.0133096
638.765	0.0134215
638.843	0.0135830
638.921	0.0134205
638.999	0.0135210
639.078	0.0135574
639.156	0.0135428
639.234	0.0135172
639.312	0.0134323
639.390	0.0134370
639.468	0.0133704
639.546	0.0135329
639.624	0.0136435
639.703	0.0134536
639.781	0.0134368
639.859	0.0134979
639.937	0.0134273
640.015	0.0135266
640.093	0.0134573
640.171	0.0134739
640.249	0.0134927
640.328	0.0134983
640.406	0.0135590
640.484	0.0135016
640.562	0.0134095
640.640	0.0135899
640.718	0.0133633
640.796	0.0133611
640.874	0.0135646
640.953	0.0134862
641.031	0.0135043
641.109	0.0136118
641.187	0.0135121
641.265	0.0135286
641.343	0.0134091
641.421	0.0134100
641.499	0.0134746
641.578	0.0135516
641.656	0.0134051
641.734	0.0135545
641.812	0.0134937
641.890	0.0134266
641.968	0.0135515
642.046	0.0134261
642.124	0.0134894
642.203	0.0135710
642.281	0.0134827
642.359	0.0135139
642.437	0.0135011
642.515	0.0134203
642.593	0.0134783
642.671	0.0134187
642.749	0.0134083
642.828	0.0135324
642.906	0.0133166
642.984	0.0133984
643.062	0.0135949
643.140	0.0135081
643.218	0.0134754
643.296	0.0134564
643.374	0.0134754
643.453	0.0134792
643.531	0.0135436
643.609	0.0134730
643.687	0.0134634
643.765	0.0133685
643.843	0.0135995
643.921	0.0135522
643.999	0.0133197
644.078	0.0134170
644.156	0.0135258
644.234	0.0135213
644.312	0.0132668
644.390	0.0135382
644.468	0.0135094
644.546	0.0134525
644.624	0.0133677
644.703	0.0133789
644.781	0.0134558
644.859	0.0134966
644.937	0.0135128
645.015	0.0135742
645.093	0.0134062
645.171	0.0132901
645.249	0.0134876
645.328	0.0135078
645.406	0.0135118
645.484	0.0136415
645.562	0.0134486
645.640	0.0133959
645.718	0.0134705
645.796	0.0135703
645.874	0.0134129
645.953	0.0134139
646.031	0.0133430
646.109	0.0134655
646.187	0.0134393
646.265	0.0134432
646.343	0.0134216
646.421	0.0134316
646.499	0.0134724
646.578	0.0134212
646.656	0.0134431
646.734	0.0133488
646.812	0.0134851
646.890	0.0134878
646.968	0.0134155
647.046	0.0132424
647.124	0.0135374
647.203	0.0134544
647.281	0.0135194
647.359	0.0134032
647.437	0.0134521
647.515	0.0133527
647.593	0.0134623
647.671	0.0134547
647.749	0.0135050
647.828	0.0135327
647.906	0.0134543
647.984	0.0134647
648.062	0.0135077
648.140	0.0134954
648.218	0.0134827
648.296	0.0135322
648.374	0.0135155
648.453	0.0135023
648.531	0.0134708
648.609	0.0135091
648.687	0.0134226
648.765	0.0133450
648.843	0.0133064
648.921	0.0135092
648.999	0.0136515
649.078	0.0135415
649.156	0.0135052
649.234	0.0134547
649.312	0.0133681
649.390	0.0134216
649.468	0.0135606
649.546	0.0134689
649.624	0.0134634
649.703	0.0135207
649.781	0.0133451
649.859	0.0134591
649.937	0.0135084
650.015	0.0135410
650.093	0.0135944
650.171	0.0133241
650.249	0.0135046
650.328	0.0135081
650.406	0.0133684
650.484	0.0132703
650.562	0.0133591
650.640	0.0134720
650.718	0.0135182
650.796	0.0134129
650.874	0.0136081
650.953	0.0135508
651.031	0.0135464
651.109	0.0135461
651.187	0.0135587
651.265	0.0134832
651.343	0.0134831
651.421	0.0134936
651.499	0.0133881
651.578	0.0132835
651.656	0.0135258
651.734	0.0134895
651.812	0.0135007
651.890	0.0135475
651.968	0.0135355
652.046	0.0134817
652.124	0.0133510
652.203	0.0134518
652.281	0.0134631
652.359	0.0135159
652.437	0.0134087
652.515	0.0134097
652.593	0.0135296
652.671	0.0135844
652.749	0.0135722
652.828	0.0134734
652.906	0.0135877
652.984	0.0135216
653.062	0.0135314
653.140	0.0134184
653.218	0.0134816
653.296	0.0135516
653.374	0.0135268
653.453	0.0134542
653.531	0.0134704
653.609	0.0134191
653.687	0.0134783
653.765	0.0135853
653.843	0.0135280
653.921	0.0134413
653.999	0.0134941
654.078	0.0135241
654.156	0.0135860
654.234	0.0137018
654.312	0.0133946
654.390	0.0134640
654.468	0.0134487
654.546	0.0135073
654.624	0.0134789
654.703	0.0135508
654.781	0.0134021
654.859	0.0134658
654.937	0.0135088
655.015	0.0134298
655.093	0.0135184
655.171	0.0135524
655.249	0.0135475
655.328	0.0134449
655.406	0.0133018
655.484	0.0133508
655.562	0.0134328
655.640	0.0134855
655.718	0.0135458
655.796	0.0134750
655.874	0.0134426
655.953	0.0134697
656.031	0.0135183
656.109	0.0133691
656.187	0.0134663
656.265	0.0136215
656.343	0.0133912
656.421	0.0134189
656.499	0.0133352
656.578	0.0133665
656.656	0.0134696
656.734	0.0134892
656.812	0.0135662
656.890	0.0135686
656.968	0.0135488
657.046	0.0134729
657.124	0.0134167
657.203	0.0135925
657.281	0.0134916
657.359	0.0135458
657.437	0.0135223
657.515	0.0134344
657.593	0.0134978
657.671	0.0134879
657.749	0.0135512
657.828	0.0135078
657.906	0.0134433
657.984	0.0134801
658.062	0.0133601
658.140	0.0134866
658.218	0.0134625
658.296	0.0136857
658.374	0.0133393
658.453	0.0134500
658.531	0.0134439
658.609	0.0133450
658.687	0.0135062
658.765	0.0135036
658.843	0.0134908
658.921	0.0134059
658.999	0.0133488
659.078	0.0136333
659.156	0.0135213
659.234	0.0135556
659.312	0.0134364
659.390	0.0135997
659.468	0.0135809
659.546	0.0134541
659.624	0.0135228
659.703	0.0134813
659.781	0.0133261
659.859	0.0134105
659.937	0.0134956
660.015	0.0134932
660.093	0.0135619
660.171	0.0135115
660.249	0.0133096
660.328	0.0134057
660.406	0.0134389
660.484	0.0134072
660.562	0.0134672
660.640	0.0136314
660.718	0.0134880
660.796	0.0134290
660.874	0.0134562
660.953	0.0134628
661.031	0.0134780
661.109	0.0134972
661.187	0.0135292
661.265	0.0135413
661.343	0.0135313
661.421	0.0134866
661.499	0.0135074
661.578	0.0133578
661.656	0.0134436
661.734	0.0134579
661.812	0.0134850
661.890	0.0134457
661.968	0.0136395
662.046	0.0134200
662.124	0.0135188
662.203	0.0135217
662.281	0.0134799
662.359	0.0134968
662.437	0.0135567
662.515	0.0135417
662.593	0.0135827
662.671	0.0134758
662.749	0.0136230
662.828	0.0134506
662.906	0.0135431
662.984	0.0136497
663.062	0.0135597
663.140	0.0135703
663.218	0.0135169
663.296	0.0134628
663.374	0.0134875
663.453	0.0134254
663.531	0.0134678
663.609	0.0134986
663.687	0.0135192
663.765	0.0134000
663.843	0.0136354
663.921	0.0135251
663.999	0.0135841
664.078	0.0134786
664.156	0.0134013
664.234	0.0134685
664.312	0.0135686
664.390	0.0133646
664.468	0.0135042
664.546	0.0134266
664.624	0.0134006
664.703	0.0134927
664.781	0.0135083
664.859	0.0133818
664.937	0.0135001
665.015	0.0134525
665.093	0.0135215
665.171	0.0135976
665.249	0.0136085
665.328	0.0135533
665.406	0.0134975
665.484	0.0134261
665.562	0.0133994
665.640	0.0134199
665.718	0.0135179
665.796	0.0134178
665.874	0.0134628
665.953	0.0133910
666.031	0.0135690
666.109	0.0136509
666.187	0.0135216
666.265	0.0136120
666.343	0.0135376
666.421	0.0134954
666.499	0.0134986
666.578	0.0134380
666.656	0.0133606
666.734	0.0135573
666.812	0.0135558
666.890	0.0134366
666.968	0.0134162
667.046	0.0134170
667.124	0.0134074
667.203	0.0134707
667.281	0.0135187
667.359	0.0135043
667.437	0.0134409
667.515	0.0135583
667.593	0.0134906
667.671	0.0134311
667.749	0.0134888
667.828	0.0134702
667.906	0.0135313
667.984	0.0135603
668.062	0.0134151
668.140	0.0135212
668.218	0.0135718
668.296	0.0134732
668.374	0.0134060
668.453	0.0135625
668.531	0.0135448
668.609	0.0134978
668.687	0.0135077
668.765	0.0134951
668.843	0.0134573
668.921	0.0135249
668.999	0.0134312
669.078	0.0133111
669.156	0.0135734
669.234	0.0135211
669.312	0.0134704
669.390	0.0134671
669.468	0.0135284
669.546	0.0134801
669.624	0.0136249
669.703	0.0134970
669.781	0.0134568
669.859	0.0134817
669.937	0.0134175
670.015	0.0134650
670.093	0.0135347
670.171	0.0135223
670.249	0.0134483
670.328	0.0134795
670.406	0.0134037
670.484	0.0133820
670.562	0.0134373
670.640	0.0135253
670.718	0.0134797
670.796	0.0135168
670.874	0.0134177
670.953	0.0135917
671.031	0.0133621
671.109	0.0133972
671.187	0.0135650
671.265	0.0134382
671.343	0.0134773
671.421	0.0134684
671.499	0.0134540
671.578	0.0134477
671.656	0.0135442
671.734	0.0134691
671.812	0.0135176
671.890	0.0134187
671.968	0.0135268
672.046	0.0135115
672.124	0.0135107
672.203	0.0136086
672.281	0.0135199
672.359	0.0135870
672.437	0.0134663
672.515	0.0133231
672.593	0.0135273
672.671	0.0134129
672.749	0.0135184
672.828	0.0134783
672.906	0.0135128
672.984	0.0134708
673.062	0.0134798
673.140	0.0136364
673.218	0.0135336
673.296	0.0134187
673.374	0.0133514
673.453	0.0135240
673.531	0.0135599
673.609	0.0134631
673.687	0.0134528
673.765	0.0135114
673.843	0.0135098
673.921	0.0135569
673.999	0.0135143
674.078	0.0134841
674.156	0.0135851
674.234	0.0134888
674.312	0.0134096
674.390	0.0134037
674.468	0.0134888
674.546	0.0136029
674.624	0.0135849
674.703	0.0135608
674.781	0.0135378
674.859	0.0135419
674.937	0.0135112
675.015	0.0134631
675.093	0.0135356
675.171	0.0136045
675.249	0.0135771
675.328	0.0133796
675.406	0.0135094
675.484	0.0134325
675.562	0.0134007
675.640	0.0134799
675.718	0.0135213
675.796	0.0133317
675.874	0.0134918
675.953	0.0134827
676.031	0.0134605
676.109	0.0135954
676.187	0.0136056
676.265	0.0135140
676.343	0.0134595
676.421	0.0135424
676.499	0.0135424
676.578	0.0135792
676.656	0.0136299
676.734	0.0135052
676.812	0.0136611
676.890	0.0136768
676.968	0.0135223
677.046	0.0136129
677.124	0.0135783
677.203	0.0136698
677.281	0.0134710
677.359	0.0134649
677.437	0.0134389
677.515	0.0134766
677.593	0.0134047
677.671	0.0134197
677.749	0.0134644
677.828	0.0133978
677.906	0.0133824
677.984	0.0134279
678.062	0.0134357
678.140	0.0134499
678.218	0.0134710
678.296	0.0135492
678.374	0.0135035
678.453	0.0136831
678.531	0.0136135
678.609	0.0136121
678.687	0.0135272
678.765	0.0134998
678.843	0.0135587
678.921	0.0136501
678.999	0.0136334
679.078	0.0135434
679.156	0.0135174
679.234	0.0137197
679.312	0.0138688
679.390	0.0136102
679.468	0.0136910
679.546	0.0135897
679.624	0.0133186
679.703	0.0134666
679.781	0.0134902
679.859	0.0133679
679.937	0.0133109
680.015	0.0132329
680.093	0.0132748
680.171	0.0131610
680.249	0.0130959
680.328	0.0132502
680.406	0.0132104
680.484	0.0133815
680.562	0.0133919
680.640	0.0132590
680.718	0.0133029
680.796	0.0135677
680.874	0.0136685
680.953	0.0136987
681.031	0.0135750
681.109	0.0135199
681.187	0.0136468
681.265	0.0136684
681.343	0.0135152
681.421	0.0136774
681.499	0.0135186
681.578	0.0133376
681.656	0.0132829
681.734	0.0132467
681.812	0.0131745
681.890	0.0133611
681.968	0.0134409
682.046	0.0133069
682.124	0.0134074
682.203	0.0135885
682.281	0.0137463
682.359	0.0138132
682.437	0.0139725
682.515	0.0140942
682.593	0.0140926
682.671	0.0140466
682.749	0.0141602
682.828	0.0140678
682.906	0.0140819
682.984	0.0139333
683.062	0.0137494
683.140	0.0134361
683.218	0.0132192
683.296	0.0132646
683.374	0.0130091
683.453	0.0127477
683.531	0.0125751
683.609	0.0124355
683.687	0.0124012
683.765	0.0123545
683.843	0.0121882
683.921	0.0127213
683.999	0.0127106
684.078	0.0129134
684.156	0.0129532
684.234	0.0133528
684.312	0.0134894
684.390	0.0136333
684.468	0.0138101
684.546	0.0140263
684.624	0.0141650
684.703	0.0139490
684.781	0.0139441
684.859	0.0140024
684.937	0.0140839
685.015	0.0140387
685.093	0.0138702
685.171	0.0138456
685.249	0.0138180
685.328	0.0136561
685.406	0.0136893
685.484	0.0137616
685.562	0.0137914
685.640	0.0136993
685.718	0.0138094
685.796	0.0138174
685.874	0.0138751
685.953	0.0140174
686.031	0.0140627
686.109	0.0140756
686.187	0.0142104
686.265	0.0142709
686.343	0.0143340
686.421	0.0141806
686.499	0.0140797
686.578	0.0139234
686.656	0.0137080
686.734	0.0131802
686.812	0.0128472
686.890	0.0125569
686.968	0.0121201
687.046	0.0118095
687.124	0.0115791
687.203	0.0114185
687.281	0.0112954
687.359	0.0112209
687.437	0.0111118
687.515	0.0111711
687.593	0.0114001
687.671	0.0118533
687.749	0.0120593
687.828	0.0123811
687.906	0.0128005
687.984	0.0132597
688.062	0.0137113
688.140	0.0141007
688.218	0.0146965
688.296	0.0148573
688.374	0.0150438
688.453	0.0153557
688.531	0.0153307
688.609	0.0154169
688.687	0.0153204
688.765	0.0150695
688.843	0.0149908
688.921	0.0148852
688.999	0.0147803
689.078	0.0146645
689.156	0.0145359
689.234	0.0144681
689.312	0.0142806
689.390	0.0141238
689.468	0.0140711
689.546	0.0141759
689.624	0.0141668
689.703	0.0141186
689.781	0.0140318
689.859	0.0140738
689.937	0.0139781
690.015	0.0137433
690.093	0.0138642
690.171	0.0135063
690.249	0.0132833
690.328	0.0130474
690.406	0.0126571
690.484	0.0122758
690.562	0.0117503
690.640	0.0113914
690.718	0.0110638
690.796	0.0105982
690.874	0.0104900
690.953	0.0104268
691.031	0.0102553
691.109	0.0103809
691.187	0.0105822
691.265	0.0110367
691.343	0.0110373
691.421	0.0116685
691.499	0.0121971
691.578	0.0125668
691.656	0.0130767
691.734	0.0136632
691.812	0.0142390
691.890	0.0146377
691.968	0.0149536
692.046	0.0154473
692.124	0.0156357
692.203	0.0159283
692.281	0.0160889
692.359	0.0160518
692.437	0.0160794
692.515	0.0159009
692.593	0.0159627
692.671	0.0158929
692.749	0.0155127
692.828	0.0152679
692.906	0.0150787
692.984	0.0150527
693.062	0.0148186
693.140	0.0146915
693.218	0.0146833
693.296	0.0143925
693.374	0.0141392
693.453	0.0140909
693.531	0.0138328
693.609	0.0135925
693.687	0.0135957
693.765	0.0133741
693.843	0.0128996
693.921	0.0125878
693.999	0.0123656
694.078	0.0118494
694.156	0.0114815
694.234	0.0111700
694.312	0.0107783
694.390	0.0105970
694.468	0.0101781
694.546	0.00994568
694.624	0.00995338
694.703	0.0100454
694.781	0.0102166
694.859	0.0104400
694.937	0.0107721
695.015	0.0111930
695.093	0.0118676
695.171	0.0124276
695.249	0.0130215
695.328	0.0136655
695.406	0.0141769
695.484	0.0145412
695.562	0.0149950
695.640	0.0154165
695.718	0.0156615
695.796	0.0159763
695.874	0.0160141
695.953	0.0161435
696.031	0.0161522
696.109	0.0162099
696.187	0.0158978
696.265	0.0157189
696.343	0.0155835
696.421	0.0153551
696.499	0.0150640
696.578	0.0146446
696.656	0.0143708
696.734	0.0142130
696.812	0.0140351
696.890	0.0138010
696.968	0.0136438
697.046	0.0134424
697.124	0.0135760
697.203	0.0136967
697.281	0.0135101
697.359	0.0136373
697.437	0.0137446
697.515	0.0136378
697.593	0.0135651
697.671	0.0134560
697.749	0.0134582
697.828	0.0132487
697.906	0.0129810
697.984	0.0126389
698.062	0.0123781
698.140	0.0120798
698.218	0.0116286
698.296	0.0113087
698.374	0.0110384
698.453	0.0108174
698.531	0.0107503
698.609	0.0108443
698.687	0.0109939
698.765	0.0111921
698.843	0.0113310
698.921	0.0117309
698.999	0.0122204
699.078	0.0125638
699.156	0.0131239
699.234	0.0136874
699.312	0.0141921
699.390	0.0144737
699.468	0.0147979
699.546	0.0152724
699.624	0.0155202
699.703	0.0156613
699.781	0.0157144
699.859	0.0157790
699.937	0.0157503
700.015	0.0155581
700.093	0.0153654
700.171	0.0150509
700.249	0.0148203
700.328	0.0145618
700.406	0.0141747
700.484	0.0140344
700.562	0.0138316
700.640	0.0136543
700.718	0.0136418
700.796	0.0136188
700.874	0.0134508
700.953	0.0136623
701.031	0.0135294
701.109	0.0135696
701.187	0.0136072
701.265	0.0138260
701.343	0.0136889
701.421	0.0138047
701.499	0.0138278
701.578	0.0137933
701.656	0.0137675
701.734	0.0136177
701.812	0.0133290
701.890	0.0129636
701.968	0.0126309
702.046	0.0124623
702.124	0.0122205
702.203	0.0117809
702.281	0.0115369
702.359	0.0114035
702.437	0.0112927
702.515	0.0112017
702.593	0.0110765
702.671	0.0114437
702.749	0.0116763
702.828	0.0119192
702.906	0.0122993
702.984	0.0125945
703.062	0.0129506
703.140	0.0135475
703.218	0.0140025
703.296	0.0143665
703.374	0.0146201
703.453	0.0149519
703.531	0.0150653
703.609	0.0150846
703.687	0.0150240
703.765	0.0150573
703.843	0.0148486
703.921	0.0146989
703.999	0.0143999
704.078	0.0141359
704.156	0.0138870
704.234	0.0136869
704.312	0.0135004
704.390	0.0133841
704.468	0.0132535
704.546	0.0131669
704.624	0.0131566
704.703	0.0135390
704.781	0.0134551
704.859	0.0134008
704.937	0.0137210
705.015	0.0137799
705.093	0.0139856
705.171	0.0140824
705.249	0.0142324
705.328	0.0141755
705.406	0.0141381
705.484	0.0142313
705.562	0.0138521
705.640	0.0137177
705.718	0.0135441
705.796	0.0132601
705.874	0.0131507
705.953	0.0127471
706.031	0.0122287
706.109	0.0122151
706.187	0.0118323
706.265	0.0118454
706.343	0.0116743
706.421	0.0116978
706.499	0.0117712
706.578	0.0119677
706.656	0.0123225
706.734	0.0125755
706.812	0.0128792
706.890	0.0133343
706.968	0.0135175
707.046	0.0139909
707.124	0.0141930
707.203	0.0143813
707.281	0.0145806
707.359	0.0145336
707.437	0.0144074
707.515	0.0143884
707.593	0.0144125
707.671	0.0141604
707.749	0.0138254
707.828	0.0136464
707.906	0.0134520
707.984	0.0132807
708.062	0.0131716
708.140	0.0129277
708.218	0.0128254
708.296	0.0129317
708.374	0.0130728
708.453	0.0129822
708.531	0.0132367
708.609	0.0134338
708.687	0.0135696
708.765	0.0138471
708.843	0.0142245
708.921	0.0142099
708.999	0.0142062
709.078	0.0145439
709.156	0.0145659
709.234	0.0144314
709.312	0.0146139
709.390	0.0143536
709.468	0.0142299
709.546	0.0138235
709.624	0.0136125
709.703	0.0133238
709.781	0.0129492
709.859	0.0128481
709.937	0.0126051
710.015	0.0123836
710.093	0.0122467
710.171	0.0122042
710.249	0.0121223
710.328	0.0122880
710.406	0.0123396
710.484	0.0125399
710.562	0.0128435
710.640	0.0130261
710.718	0.0133012
710.796	0.0135287
710.874	0.0137744
710.953	0.0140110
711.031	0.0141682
711.109	0.0142583
711.187	0.0143102
711.265	0.0141352
711.343	0.0143012
711.421	0.0141670
711.499	0.0140439
711.578	0.0139380
711.656	0.0137369
711.734	0.0135625
711.812	0.0132449
711.890	0.0131277
711.968	0.0130375
712.046	0.0130643
712.124	0.0130325
712.203	0.0131210
712.281	0.0130128
712.359	0.0131725
712.437	0.0133205
712.515	0.0133521
712.593	0.0134320
712.671	0.0134875
712.749	0.0136966
712.828	0.0136726
712.906	0.0136984
712.984	0.0137734
713.062	0.0137135
713.140	0.0137512
713.218	0.0136953
713.296	0.0136916
713.374	0.0135193
713.453	0.0134714
713.531	0.0132819
713.609	0.0131830
713.687	0.0131215
713.765	0.0128965
713.843	0.0129119
713.921	0.0128514
713.999	0.0128024
714.078	0.0128136
714.156	0.0128756
714.234	0.0129286
714.312	0.0130296
714.390	0.0130857
714.468	0.0133641
714.546	0.0135028
714.624	0.0138525
714.703	0.0139884
714.781	0.0140079
714.859	0.0139905
714.937	0.0142323
715.015	0.0143346
715.093	0.0144343
715.171	0.0144991
715.249	0.0143224
715.328	0.0143661
715.406	0.0144408
715.484	0.0143733
715.562	0.0141632
715.640	0.0139832
715.718	0.0137920
715.796	0.0138381
715.874	0.0137495
715.953	0.0135822
716.031	0.0134515
716.109	0.0131216
716.187	0.0132489
716.265	0.0131623
716.343	0.0131216
716.421	0.0129858
716.499	0.0131040
716.578	0.0130116
716.656	0.0129518
716.734	0.0129502
716.812	0.0130325
716.890	0.0129948
716.968	0.0128506
717.046	0.0128535
717.124	0.0128680
717.203	0.0128224
717.281	0.0129819
717.359	0.0126835
717.437	0.0128649
717.515	0.0127542
717.593	0.0126881
717.671	0.0127376
717.749	0.0128181
717.828	0.0127943
717.906	0.0129774
717.984	0.0131184
718.062	0.0131650
718.140	0.0132376
718.218	0.0135508
718.296	0.0137547
718.374	0.0139381
718.453	0.0139438
718.531	0.0141752
718.609	0.0142532
718.687	0.0144090
718.765	0.0144473
718.843	0.0146110
718.921	0.0145420
718.999	0.0146358
719.078	0.0144730
719.156	0.0145267
719.234	0.0146408
719.312	0.0144608
719.390	0.0143270
719.468	0.0142178
719.546	0.0139195
719.624	0.0138205
719.703	0.0137730
719.781	0.0138441
719.859	0.0136848
719.937	0.0134410
720.015	0.0133603
720.093	0.0132464
720.171	0.0132095
720.249	0.0130322
720.328	0.0130891
720.406	0.0130319
720.484	0.0128991
720.562	0.0128971
720.640	0.0129182
720.718	0.0129154
720.796	0.0130402
720.874	0.0128546
720.953	0.0128083
721.031	0.0129218
721.109	0.0130087
721.187	0.0129925
721.265	0.0130560
721.343	0.0130264
721.421	0.0130155
721.499	0.0130287
721.578	0.0132120
721.656	0.0133565
721.734	0.0134414
721.812	0.0134106
721.890	0.0135231
721.968	0.0136121
722.046	0.0135909
722.124	0.0136880
722.203	0.0138831
722.281	0.0139346
722.359	0.0139731
722.437	0.0142134
722.515	0.0140028
722.593	0.0140524
722.671	0.0140752
722.749	0.0141372
722.828	0.0141652
722.906	0.0139906
722.984	0.0140480
723.062	0.0138700
723.140	0.0137681
723.218	0.0136189
723.296	0.0136301
723.374	0.0135164
723.453	0.0132833
723.531	0.0131010
723.609	0.0131982
723.687	0.0131147
723.765	0.0129388
723.843	0.0127847
723.921	0.0129053
723.999	0.0126527
724.078	0.0127717
724.156	0.0127611
724.234	0.0126571
724.312	0.0127086
724.390	0.0126790
724.468	0.0129600
724.546	0.0129848
724.624	0.0129506
724.703	0.0130422
724.781	0.0130848
724.859	0.0130472
724.937	0.0130827
725.015	0.0133829
725.093	0.0132654
725.171	0.0132626
725.249	0.0133792
725.328	0.0134248
725.406	0.0136374
725.484	0.0137213
725.562	0.0138155
725.640	0.0138744
725.718	0.0139325
725.796	0.0140677
725.874	0.0140602
725.953	0.0141776
726.031	0.0143404
726.109	0.0141525
726.187	0.0142808
726.265	0.0144426
726.343	0.0143600
726.421	0.0143038
726.499	0.0143469
726.578	0.0143385
726.656	0.0142290
726.734	0.0141761
726.812	0.0139773
726.890	0.0139598
726.968	0.0139410
727.046	0.0135976
727.124	0.0135264
727.203	0.0135084
727.281	0.0131641
727.359	0.0133020
727.437	0.0129807
727.515	0.0127712
727.593	0.0126971
727.671	0.0125577
727.749	0.0124786
727.828	0.0123367
727.906	0.0122557
727.984	0.0122985
728.062	0.0122924
728.140	0.0123246
728.218	0.0124904
728.296	0.0124841
728.374	0.0125711
728.453	0.0128124
728.531	0.0127731
728.609	0.0128808
728.687	0.0128954
728.765	0.0130920
728.843	0.0131606
728.921	0.0133170
728.999	0.0134313
729.078	0.0134615
729.156	0.0135674
729.234	0.0136729
729.312	0.0137256
729.390	0.0139932
729.468	0.0140010
729.546	0.0140685
729.624	0.0141375
729.703	0.0142400
729.781	0.0141891
729.859	0.0141888
729.937	0.0143104
730.015	0.0143195
730.093	0.0143723
730.171	0.0143937
730.249	0.0142138
730.328	0.0142936
730.406	0.0140553
730.484	0.0140442
730.562	0.0140793
730.640	0.0139204
730.718	0.0137840
730.796	0.0138562
730.874	0.0137434
730.953	0.0135587
731.031	0.0134243
731.109	0.0132377
731.187	0.0131826
731.265	0.0130292
731.343	0.0131341
731.421	0.0130431
731.499	0.0129217
731.578	0.0128674
731.656	0.0127634
731.734	0.0127268
731.812	0.0126950
731.890	0.0125726
731.968	0.0127209
732.046	0.0127018
732.124	0.0127788
732.203	0.0126770
732.281	0.0127709
732.359	0.0128317
732.437	0.0126591
732.515	0.0127711
732.593	0.0129288
732.671	0.0129958
732.749	0.0132516
732.828	0.0132499
732.906	0.0135312
732.984	0.0135854
733.062	0.0137881
733.140	0.0139013
733.218	0.0140097
733.296	0.0141966
733.374	0.0141476
733.453	0.0140167
733.531	0.0141985
733.609	0.0142919
733.687	0.0144099
733.765	0.0142129
733.843	0.0141964
733.921	0.0140698
733.999	0.0139663
734.078	0.0140743
734.156	0.0138950
734.234	0.0138390
734.312	0.0138082
734.390	0.0137691
734.468	0.0135201
734.546	0.0135590
734.624	0.0134741
734.703	0.0134090
734.781	0.0132612
734.859	0.0133987
734.937	0.0132947
735.015	0.0132867
735.093	0.0132783
735.171	0.0131817
735.249	0.0131136
735.328	0.0129856
735.406	0.0130788
735.484	0.0131255
735.562	0.0131746
735.640	0.0129133
735.718	0.0129285
735.796	0.0129427
735.874	0.0128721
735.953	0.0128288
736.031	0.0128993
736.109	0.0129639
736.187	0.0128901
736.265	0.0129013
736.343	0.0129677
736.421	0.0131555
736.499	0.0131915
736.578	0.0132432
736.656	0.0131827
736.734	0.0135314
736.812	0.0135649
736.890	0.0139009
736.968	0.0141188
737.046	0.0141859
737.124	0.0141688
737.203	0.0143177
737.281	0.0143308
737.359	0.0145287
737.437	0.0143533
737.515	0.0144101
737.593	0.0143251
737.671	0.0143192
737.749	0.0143107
737.828	0.0143034
737.906	0.0142358
737.984	0.0140604
738.062	0.0139223
738.140	0.0137288
738.218	0.0137926
738.296	0.0137073
738.374	0.0135429
738.453	0.0135664
738.531	0.0133292
738.609	0.0132386
738.687	0.0130801
738.765	0.0130557
738.843	0.0130761
738.921	0.0129711
738.999	0.0130147
739.078	0.0131462
739.156	0.0129821
739.234	0.0128915
739.312	0.0129772
739.390	0.0129161
739.468	0.0128858
739.546	0.0128923
739.624	0.0127635
739.703	0.0128181
739.781	0.0128474
739.859	0.0128651
739.937	0.0128134
740.015	0.0127905
740.093	0.0128195
740.171	0.0128701
740.249	0.0129317
740.328	0.0132158
740.406	0.0133620
740.484	0.0134978
740.562	0.0135251
740.640	0.0135989
740.718	0.0138532
740.796	0.0138086
740.874	0.0139280
740.953	0.0139916
741.031	0.0143716
741.109	0.0143667
741.187	0.0143275
741.265	0.0143050
741.343	0.0145611
741.421	0.0145421
741.499	0.0143633
741.578	0.0144111
741.656	0.0142576
741.734	0.0142168
741.812	0.0141367
741.890	0.0139455
741.968	0.0137600
742.046	0.0137488
742.124	0.0135955
742.203	0.0135686
742.281	0.0135954
742.359	0.0134223
742.437	0.0135420
742.515	0.0133725
742.593	0.0131402
742.671	0.0132249
742.749	0.0132514
742.828	0.0132783
742.906	0.0131333
742.984	0.0130862
743.062	0.0130601
743.140	0.0128183
743.218	0.0130828
743.296	0.0130223
743.374	0.0129105
743.453	0.0129041
743.531	0.0129140
743.609	0.0130637
743.687	0.0129471
743.765	0.0129006
743.843	0.0130677
743.921	0.0129646
743.999	0.0131842
744.078	0.0131918
744.156	0.0131445
744.234	0.0132867
744.312	0.0133191
744.390	0.0135829
744.468	0.0137231
744.546	0.0138524
744.624	0.0137722
744.703	0.0139443
744.781	0.0142094
744.859	0.0141366
744.937	0.0140054
745.015	0.0140104
745.093	0.0140113
745.171	0.0140331
745.249	0.0140210
745.328	0.0140556
745.406	0.0140643
745.484	0.0139836
745.562	0.0138444
745.640	0.0138075
745.718	0.0138382
745.796	0.0137490
745.874	0.0135722
745.953	0.0134943
746.031	0.0135254
746.109	0.0135377
746.187	0.0133660
746.265	0.0131457
746.343	0.0132584
746.421	0.0131781
746.499	0.0130836
746.578	0.0131297
746.656	0.0130572
746.734	0.0129631
746.812	0.0129925
746.890	0.0129606
746.968	0.0130337
747.046	0.0131689
747.124	0.0129232
747.203	0.0129230
747.281	0.0130326
747.359	0.0130600
747.437	0.0129393
747.515	0.0129845
747.593	0.0130167
747.671	0.0131730
747.749	0.0131570
747.828	0.0132318
747.906	0.0133247
747.984	0.0133555
748.062	0.0133984
748.140	0.0134865
748.218	0.0135644
748.296	0.0137303
748.374	0.0137044
748.453	0.0138062
748.531	0.0139639
748.609	0.0138970
748.687	0.0138779
748.765	0.0139857
748.843	0.0141225
748.921	0.0139707
748.999	0.0141178
749.078	0.0140495
749.156	0.0138675
749.234	0.0139840
749.312	0.0138050
749.390	0.0137746
749.468	0.0138773
749.546	0.0137718
749.624	0.0136440
749.703	0.0135429
749.781	0.0134678
749.859	0.0134547
749.937	0.0133804
750.015	0.0134076
750.093	0.0132777
750.171	0.0131866
750.249	0.0132763
750.328	0.0131910
750.406	0.0130578
750.484	0.0129793
750.562	0.0130616
750.640	0.0131301
750.718	0.0129274
750.796	0.0128676
750.874	0.0130636
750.953	0.0128033
751.031	0.0128377
751.109	0.0129602
751.187	0.0130151
751.265	0.0128183
751.343	0.0129458
751.421	0.0130303
751.499	0.0131799
751.578	0.0130892
751.656	0.0131086
751.734	0.0132124
751.812	0.0132865
751.890	0.0134280
751.968	0.0134151
752.046	0.0134851
752.124	0.0136562
752.203	0.0136109
752.281	0.0136440
752.359	0.0138450
752.437	0.0137584
752.515	0.0138805
752.593	0.0139196
752.671	0.0140495
752.749	0.0140464
752.828	0.0140050
752.906	0.0139471
752.984	0.0139455
753.062	0.0140548
753.140	0.0138262
753.218	0.0138351
753.296	0.0138566
753.374	0.0135983
753.453	0.0136709
753.531	0.0135394
753.609	0.0134815
753.687	0.0133518
753.765	0.0133760
753.843	0.0132387
753.921	0.0132689
753.999	0.0132437
754.078	0.0131947
754.156	0.0131880
754.234	0.0132085
754.312	0.0130997
754.390	0.0130212
754.468	0.0130359
754.546	0.0129874
754.624	0.0129481
754.703	0.0129429
754.781	0.0129649
754.859	0.0129304
754.937	0.0129752
755.015	0.0130596
755.093	0.0131167
755.171	0.0131632
755.249	0.0130858
755.328	0.0131030
755.406	0.0131518
755.484	0.0132788
755.562	0.0133012
755.640	0.0133169
755.718	0.0134622
755.796	0.0135162
755.874	0.0136996
755.953	0.0137059
756.031	0.0137618
756.109	0.0138371
756.187	0.0138846
756.265	0.0139621
756.343	0.0138798
756.421	0.0138574
756.499	0.0140116
756.578	0.0138383
756.656	0.0140118
756.734	0.0138965
756.812	0.0137132
756.890	0.0137747
756.968	0.0136713
757.046	0.0136438
757.124	0.0135690
757.203	0.0136089
757.281	0.0135657
757.359	0.0134062
757.437	0.0134379
757.515	0.0134040
757.593	0.0133855
757.671	0.0133412
757.749	0.0133918
757.828	0.0132849
757.906	0.0132944
757.984	0.0133364
758.062	0.0133767
758.140	0.0132580
758.218	0.0131313
758.296	0.0132413
758.374	0.0132780
758.453	0.0132180
758.531	0.0129556
758.609	0.0130160
758.687	0.0130264
758.765	0.0131862
758.843	0.0133154
758.921	0.0130931
758.999	0.0130564
759.078	0.0131008
759.156	0.0131625
759.234	0.0131214
759.312	0.0131214
759.390	0.0134638
759.468	0.0134272
759.546	0.0133400
759.624	0.0134655
759.703	0.0135954
759.781	0.0136542
759.859	0.0137956
759.937	0.0136494
760.015	0.0138062
760.093	0.0138879
760.171	0.0138157
760.249	0.0138977
760.328	0.0139144
760.406	0.0137576
760.484	0.0137463
760.562	0.0135803
760.640	0.0136607
760.718	0.0135113
760.796	0.0134270
760.874	0.0136195
760.953	0.0135445
761.031	0.0134068
761.109	0.0135493
761.187	0.0133907
761.265	0.0135650
761.343	0.0135836
761.421	0.0136710
761.499	0.0136901
761.578	0.0134314
761.656	0.0135110
761.734	0.0135850
761.812	0.0134747
761.890	0.0134296
761.968	0.0135295
762.046	0.0133875
762.124	0.0133073
762.203	0.0133694
762.281	0.0132099
762.359	0.0131503
762.437	0.0131815
762.515	0.0130714
762.593	0.0131318
762.671	0.0132306
762.749	0.0130675
762.828	0.0131573
762.906	0.0131249
762.984	0.0132149
763.062	0.0133061
763.140	0.0133106
763.218	0.0133984
763.296	0.0133134
763.374	0.0133367
763.453	0.0134240
763.531	0.0134052
763.609	0.0134794
763.687	0.0135372
763.765	0.0137010
763.843	0.0136156
763.921	0.0134989
763.999	0.0135516
764.078	0.0135323
764.156	0.0136778
764.234	0.0135610
764.312	0.0135118
764.390	0.0135885
764.468	0.0136595
764.546	0.0135540
764.624	0.0134576
764.703	0.0135463
764.781	0.0136366
764.859	0.0136028
764.937	0.0136356
765.015	0.0135845
765.093	0.0135630
765.171	0.0135897
765.249	0.0134904
765.328	0.0135071
765.406	0.0134537
765.484	0.0135383
765.562	0.0135445
765.640	0.0133169
765.718	0.0132919
765.796	0.0134579
765.874	0.0133705
765.953	0.0132140
766.031	0.0133246
766.109	0.0134167
766.187	0.0133125
766.265	0.0133163
766.343	0.0133383
766.421	0.0132590
766.499	0.0132298
766.578	0.0132959
766.656	0.0131386
766.734	0.0130883
766.812	0.0131770
766.890	0.0132088
766.968	0.0131543
767.046	0.0132021
767.124	0.0131338
767.203	0.0133065
767.281	0.0133784
767.359	0.0133934
767.437	0.0134612
767.515	0.0136201
767.593	0.0136539
767.671	0.0135715
767.749	0.0136465
767.828	0.0136501
767.906	0.0136052
767.984	0.0136538
768.062	0.0135726
768.140	0.0135689
768.218	0.0134890
768.296	0.0135013
768.374	0.0133694
768.453	0.0135322
768.531	0.0135522
768.609	0.0136184
768.687	0.0136932
768.765	0.0136430
768.843	0.0135484
768.921	0.0136240
768.999	0.0136250
769.078	0.0135783
769.156	0.0135794
769.234	0.0136317
769.312	0.0135377
769.390	0.0133838
769.468	0.0133227
769.546	0.0134107
769.624	0.0134119
769.703	0.0133407
769.781	0.0131824
769.859	0.0133590
769.937	0.0133064
770.015	0.0130904
770.093	0.0131068
770.171	0.0131864
770.249	0.0131937
770.328	0.0130659
770.406	0.0131627
770.484	0.0130406
770.562	0.0130814
770.640	0.0130975
770.718	0.0132894
770.796	0.0132587
770.874	0.0132055
770.953	0.0132631
771.031	0.0134456
771.109	0.0135659
771.187	0.0134739
771.265	0.0135848
771.343	0.0135586
771.421	0.0136546
771.499	0.0136610
771.578	0.0136300
771.656	0.0135927
771.734	0.0136437
771.812	0.0136240
771.890	0.0136109
771.968	0.0137958
772.046	0.0136234
772.124	0.0136281
772.203	0.0136324
772.281	0.0137087
772.359	0.0136947
772.437	0.0135830
772.515	0.0137096
772.593	0.0135735
772.671	0.0136919
772.749	0.0135219
772.828	0.0136351
772.906	0.0133481
772.984	0.0136075
773.062	0.0136415
773.140	0.0133030
773.218	0.0132312
773.296	0.0133363
773.374	0.0132476
773.453	0.0133443
773.531	0.0132668
773.609	0.0132461
773.687	0.0133333
773.765	0.0132504
773.843	0.0131656
773.921	0.0130972
773.999	0.0130269
774.078	0.0131031
774.156	0.0129397
774.234	0.0128599
774.312	0.0129214
774.390	0.0130701
774.468	0.0129767
774.546	0.0130074
774.624	0.0132478
774.703	0.0132845
774.781	0.0133342
774.859	0.0136304
774.937	0.0135754
775.015	0.0137564
775.093	0.0137114
775.171	0.0137011
775.249	0.0137383
775.328	0.0139552
775.406	0.0139189
775.484	0.0136777
775.562	0.0136314
775.640	0.0136520
775.718	0.0135920
775.796	0.0134843
775.874	0.0134349
775.953	0.0135234
776.031	0.0135574
776.109	0.0134875
776.187	0.0134481
776.265	0.0135329
776.343	0.0136182
776.421	0.0136919
776.499	0.0136053
776.578	0.0135009
776.656	0.0135499
776.734	0.0136269
776.812	0.0134120
776.890	0.0134745
776.968	0.0135011
777.046	0.0132400
777.124	0.0132247
777.203	0.0132894
777.281	0.0130073
777.359	0.0130412
777.437	0.0129021
777.515	0.0127862
777.593	0.0130788
777.671	0.0128878
777.749	0.0127558
777.828	0.0129475
777.906	0.0128728
777.984	0.0127036
778.062	0.0130211
778.140	0.0129912
778.218	0.0129636
778.296	0.0130427
778.374	0.0131980
778.453	0.0131003
778.531	0.0132520
778.609	0.0134797
778.687	0.0133712
778.765	0.0135057
778.843	0.0134741
778.921	0.0137333
778.999	0.0137658
779.078	0.0137511
779.156	0.0138423
779.234	0.0137367
779.312	0.0139153
779.390	0.0137682
779.468	0.0138543
779.546	0.0137706
779.624	0.0136613
779.703	0.0137299
779.781	0.0136254
779.859	0.0135756
779.937	0.0136308
780.015	0.0136031
780.093	0.0135753
780.171	0.0134258
780.249	0.0135442
780.328	0.0136509
780.406	0.0134387
780.484	0.0134195
780.562	0.0134792
780.640	0.0135175
780.718	0.0134719
780.796	0.0133298
780.874	0.0134543
780.953	0.0132072
781.031	0.0132426
781.109	0.0131171
781.187	0.0130064
781.265	0.0129928
781.343	0.0129290
781.421	0.0129665
781.499	0.0128993
781.578	0.0128393
781.656	0.0128786
781.734	0.0128500
781.812	0.0130257
781.890	0.0131110
781.968	0.0130495
782.046	0.0132051
782.124	0.0133656
782.203	0.0134069
782.281	0.0133521
782.359	0.0134070
782.437	0.0136285
782.515	0.0137320
782.593	0.0135869
782.671	0.0137491
782.749	0.0138365
782.828	0.0136922
782.906	0.0135693
782.984	0.0137663
783.062	0.0137640
783.140	0.0136057
783.218	0.0135943
783.296	0.0136018
783.374	0.0136729
783.453	0.0134445
783.531	0.0134961
783.609	0.0136158
783.687	0.0135992
783.765	0.0135494
783.843	0.0135005
783.921	0.0135076
783.999	0.0134045
784.078	0.0134382
784.156	0.0135460
784.234	0.0134268
784.312	0.0134535
784.390	0.0134739
784.468	0.0133063
784.546	0.0134312
784.624	0.0132680
784.703	0.0133083
784.781	0.0132487
784.859	0.0130798
784.937	0.0131890
785.015	0.0131677
785.093	0.0131087
785.171	0.0130977
785.249	0.0131213
785.328	0.0131058
785.406	0.0132670
785.484	0.0133059
785.562	0.0132515
785.640	0.0133253
785.718	0.0134185
785.796	0.0133408
785.874	0.0133927
785.953	0.0134502
786.031	0.0136352
786.109	0.0136016
786.187	0.0136086
786.265	0.0137476
786.343	0.0138233
786.421	0.0138301
786.499	0.0137756
786.578	0.0137283
786.656	0.0136859
786.734	0.0136915
786.812	0.0136216
786.890	0.0136272
786.968	0.0134760
787.046	0.0135262
787.124	0.0135249
787.203	0.0134397
787.281	0.0133538
787.359	0.0132954
787.437	0.0134711
787.515	0.0134978
787.593	0.0133128
787.671	0.0132314
787.749	0.0134117
787.828	0.0134845
787.906	0.0133753
787.984	0.0133520
788.062	0.0134382
788.140	0.0135041
788.218	0.0134572
788.296	0.0135625
788.374	0.0134924
788.453	0.0135372
788.531	0.0134974
788.609	0.0135500
788.687	0.0135370
788.765	0.0135806
788.843	0.0134955
788.921	0.0136035
788.999	0.0135522
789.078	0.0134322
789.156	0.0135584
789.234	0.0134261
789.312	0.0134793
789.390	0.0135419
789.468	0.0134357
789.546	0.0135432
789.624	0.0135445
789.703	0.0135236
789.781	0.0135302
789.859	0.0134195
789.937	0.0133659
790.015	0.0133772
790.093	0.0134461
790.171	0.0134356
790.249	0.0134605
790.328	0.0133897
790.406	0.0134592
790.484	0.0134618
790.562	0.0133649
790.640	0.0133633
790.718	0.0133106
790.796	0.0132625
790.874	0.0132682
790.953	0.0132611
791.031	0.0134008
791.109	0.0134161
791.187	0.0133382
791.265	0.0133059
791.343	0.0134731
791.421	0.0134846
791.499	0.0135165
791.578	0.0135588
791.656	0.0134999
791.734	0.0135743
791.812	0.0136076
791.890	0.0136053
791.968	0.0136496
792.046	0.0137280
792.124	0.0135902
792.203	0.0137175
792.281	0.0135461
792.359	0.0136075
792.437	0.0135107
792.515	0.0134756
792.593	0.0135060
792.671	0.0133817
792.749	0.0134464
792.828	0.0133044
792.906	0.0133088
792.984	0.0133388
793.062	0.0134492
793.140	0.0133311
793.218	0.0132525
793.296	0.0133965
793.374	0.0133509
793.453	0.0133617
793.531	0.0134300
793.609	0.0132838
793.687	0.0133466
793.765	0.0134590
793.843	0.0133063
793.921	0.0133950
793.999	0.0134606
794.078	0.0134033
794.156	0.0135201
794.234	0.0134177
794.312	0.0133081
794.390	0.0133652
794.468	0.0132761
794.546	0.0132951
794.624	0.0133691
794.703	0.0132980
794.781	0.0132926
794.859	0.0132729
794.937	0.0133874
795.015	0.0133822
795.093	0.0135333
795.171	0.0132531
795.249	0.0133459
795.328	0.0133833
795.406	0.0134143
795.484	0.0134732
795.562	0.0135536
795.640	0.0135467
795.718	0.0134209
795.796	0.0133901
795.874	0.0135387
795.953	0.0135513
796.031	0.0134805
796.109	0.0134041
796.187	0.0134529
796.265	0.0136443
796.343	0.0135275
796.421	0.0133070
796.499	0.0135418
796.578	0.0135255
796.656	0.0136057
796.734	0.0135903
796.812	0.0136101
796.890	0.0134855
796.968	0.0135001
797.046	0.0134756
797.124	0.0136034
797.203	0.0134623
797.281	0.0134725
797.359	0.0135380
797.437	0.0135160
797.515	0.0135162
797.593	0.0134826
797.671	0.0134287
797.749	0.0134116
797.828	0.0134088
797.906	0.0133094
797.984	0.0133280
798.062	0.0132248
798.140	0.0132539
798.218	0.0132982
798.296	0.0133514
798.374	0.0132777
798.453	0.0132786
798.531	0.0133944
798.609	0.0134504
798.687	0.0134684
798.765	0.0135081
798.843	0.0134849
798.921	0.0134325
798.999	0.0134528
799.078	0.0136108
799.156	0.0134520
799.234	0.0135136
799.312	0.0134613
799.390	0.0136533
799.468	0.0135141
799.546	0.0134537
799.624	0.0136242
799.703	0.0134274
799.781	0.0135046
799.859	0.0134797
799.937	0.0133138
800.015	0.0133827
800.093	0.0135789
800.171	0.0133759
800.249	0.0134299
800.328	0.0134276
800.406	0.0133630
800.484	0.0134924
800.562	0.0134893
800.640	0.0135107
800.718	0.0134283
800.796	0.0133846
800.874	0.0135830
800.953	0.0137327
801.031	0.0135619
801.109	0.0135806
801.187	0.0135617
801.265	0.0135507
801.343	0.0135345
801.421	0.0134722
801.499	0.0135683
801.578	0.0133775
801.656	0.0134212
801.734	0.0133626
801.812	0.0134391
801.890	0.0134998
801.968	0.0134972
802.046	0.0133542
802.124	0.0133819
802.203	0.0133595
802.281	0.0133875
802.359	0.0133280
802.437	0.0133585
802.515	0.0133115
802.593	0.0134762
802.671	0.0133927
802.749	0.0135011
802.828	0.0135242
802.906	0.0135126
802.984	0.0136339
803.062	0.0136352
803.140	0.0135583
803.218	0.0135883
803.296	0.0137345
803.374	0.0135682
803.453	0.0136680
803.531	0.0136958
803.609	0.0135587
803.687	0.0136241
803.765	0.0135974
803.843	0.0135732
803.921	0.0136313
803.999	0.0134599
804.078	0.0135973
804.156	0.0134914
804.234	0.0134612
804.312	0.0134060
804.390	0.0134328
804.468	0.0133382
804.546	0.0133882
804.624	0.0135160
804.703	0.0134394
804.781	0.0134089
804.859	0.0133730
804.937	0.0133089
805.015	0.0135516
805.093	0.0135033
805.171	0.0134714
805.249	0.0133869
805.328	0.0133384
805.406	0.0133907
805.484	0.0133480
805.562	0.0133783
805.640	0.0134214
805.718	0.0134474
805.796	0.0133775
805.874	0.0135024
805.953	0.0132780
806.031	0.0135206
806.109	0.0134115
806.187	0.0135146
806.265	0.0134255
806.343	0.0136025
806.421	0.0134607
806.499	0.0135561
806.578	0.0136796
806.656	0.0136958
806.734	0.0136134
806.812	0.0135479
806.890	0.0134998
806.968	0.0136216
807.046	0.0136218
807.124	0.0135003
807.203	0.0135268
807.281	0.0135966
807.359	0.0136598
807.437	0.0136554
807.515	0.0135780
807.593	0.0135642
807.671	0.0135081
807.749	0.0135315
807.828	0.0135396
807.906	0.0136130
807.984	0.0135807
808.062	0.0134110
808.140	0.0134857
808.218	0.0133414
808.296	0.0133315
808.374	0.0134693
808.453	0.0133663
808.531	0.0133487
808.609	0.0133529
808.687	0.0134296
808.765	0.0132533
808.843	0.0132389
808.921	0.0132523
808.999	0.0132204
809.078	0.0132016
809.156	0.0133935
809.234	0.0132022
809.312	0.0132577
809.390	0.0132898
809.468	0.0134193
809.546	0.0133479
809.624	0.0133029
809.703	0.0134595
809.781	0.0135569
809.859	0.0134389
809.937	0.0135351
810.015	0.0137409
810.093	0.0136595
810.171	0.0134854
810.249	0.0136455
810.328	0.0136028
810.406	0.0135152
810.484	0.0135714
810.562	0.0136250
810.640	0.0135159
810.718	0.0136526
810.796	0.0135873
810.874	0.0134131
810.953	0.0134664
811.031	0.0135155
811.109	0.0135988
811.187	0.0134509
811.265	0.0134604
811.343	0.0135559
811.421	0.0135080
811.499	0.0136510
811.578	0.0134692
811.656	0.0134506
811.734	0.0137393
811.812	0.0135600
811.890	0.0134603
811.968	0.0135931
812.046	0.0135860
812.124	0.0136720
812.203	0.0136880
812.281	0.0135575
812.359	0.0135402
812.437	0.0136324
812.515	0.0136377
812.593	0.0134021
812.671	0.0134222
812.749	0.0136039
812.828	0.0134378
812.906	0.0134106
812.984	0.0133276
813.062	0.0133208
813.140	0.0133949
813.218	0.0132233
813.296	0.0132348
813.374	0.0133775
813.453	0.0132967
813.531	0.0133151
813.609	0.0132986
813.687	0.0133920
813.765	0.0133823
813.843	0.0133987
813.921	0.0132443
813.999	0.0134594
814.078	0.0134780
814.156	0.0134689
814.234	0.0135606
814.312	0.0134756
814.390	0.0136524
814.468	0.0134821
814.546	0.0136112
814.624	0.0134921
814.703	0.0136980
814.781	0.0135499
814.859	0.0136308
814.937	0.0135979
815.015	0.0135502
815.093	0.0135361
815.171	0.0137070
815.249	0.0136837
815.328	0.0135208
815.406	0.0135754
815.484	0.0136689
815.562	0.0136005
815.640	0.0136171
815.718	0.0135766
815.796	0.0136734
815.874	0.0136285
815.953	0.0135835
816.031	0.0135287
816.109	0.0137210
816.187	0.0135504
816.265	0.0135111
816.343	0.0135085
816.421	0.0135748
816.499	0.0135923
816.578	0.0135104
816.656	0.0134416
816.734	0.0132832
816.812	0.0134368
816.890	0.0133971
816.968	0.0134311
817.046	0.0132562
817.124	0.0132848
817.203	0.0133205
817.281	0.0133097
817.359	0.0133400
817.437	0.0133389
817.515	0.0133829
817.593	0.0134582
817.671	0.0134261
817.749	0.0134705
817.828	0.0133864
817.906	0.0134740
817.984	0.0135135
818.062	0.0136658
818.140	0.0135546
818.218	0.0134696
818.296	0.0135767
818.374	0.0137195
818.453	0.0137282
818.531	0.0136377
818.609	0.0137235
818.687	0.0135388
818.765	0.0137100
818.843	0.0138309
818.921	0.0137572
818.999	0.0136858
819.078	0.0136118
819.156	0.0136517
819.234	0.0136027
819.312	0.0137856
819.390	0.0136054
819.468	0.0134873
819.546	0.0134742
819.624	0.0135573
819.703	0.0135909
819.781	0.0135914
819.859	0.0135271
819.937	0.0135628
820.015	0.0134794
820.093	0.0135004
820.171	0.0133987
820.249	0.0134673
820.328	0.0134438
820.406	0.0134170
820.484	0.0132111
820.562	0.0134557
820.640	0.0134309
820.718	0.0133010
820.796	0.0132249
820.874	0.0133212
820.953	0.0133000
821.031	0.0132886
821.109	0.0133469
821.187	0.0134013
821.265	0.0133385
821.343	0.0135637
821.421	0.0134679
821.499	0.0133447
821.578	0.0135532
821.656	0.0136581
821.734	0.0136699
821.812	0.0134875
821.890	0.0137277
821.968	0.0136455
822.046	0.0137765
822.124	0.0137826
822.203	0.0137471
822.281	0.0137971
822.359	0.0137679
822.437	0.0136834
822.515	0.0137904
822.593	0.0137128
822.671	0.0136680
822.749	0.0137372
822.828	0.0136315
822.906	0.0135531
822.984	0.0134666
823.062	0.0134819
823.140	0.0135458
823.218	0.0135472
823.296	0.0135151
823.374	0.0134786
823.453	0.0134216
823.531	0.0133615
823.609	0.0134666
823.687	0.0134713
823.765	0.0132281
823.843	0.0135142
823.921	0.0133871
823.999	0.0134100
824.078	0.0133880
824.156	0.0134778
824.234	0.0134857
824.312	0.0134128
824.390	0.0132727
824.468	0.0132752
824.546	0.0133382
824.624	0.0133179
824.703	0.0133683
824.781	0.0133805
824.859	0.0132910
824.937	0.0133601
825.015	0.0132723
825.093	0.0134016
825.171	0.0134458
825.249	0.0133511
825.328	0.0134455
825.406	0.0135187
825.484	0.0134289
825.562	0.0134518
825.640	0.0135442
825.718	0.0136388
825.796	0.0135629
825.874	0.0135669
825.953	0.0135878
826.031	0.0135001
826.109	0.0135547
826.187	0.0136758
826.265	0.0136166
826.343	0.0135712
826.421	0.0137363
826.499	0.0137634
826.578	0.0136499
826.656	0.0137263
826.734	0.0136527
826.812	0.0137481
826.890	0.0135583
826.968	0.0137097
827.046	0.0136810
827.124	0.0136448
827.203	0.0135883
827.281	0.0136481
827.359	0.0135612
827.437	0.0137096
827.515	0.0136465
827.593	0.0135387
827.671	0.0136720
827.749	0.0135201
827.828	0.0135036
827.906	0.0135612
827.984	0.0134032
828.062	0.0134061
828.140	0.0134032
828.218	0.0134933
828.296	0.0133125
828.374	0.0134142
828.453	0.0133669
828.531	0.0133776
828.609	0.0132837
828.687	0.0134085
828.765	0.0134236
828.843	0.0132567
828.921	0.0132707
828.999	0.0132583
829.078	0.0132925
829.156	0.0132716
829.234	0.0132688
829.312	0.0132903
829.390	0.0135256
829.468	0.0135063
829.546	0.0135332
829.624	0.0134209
829.703	0.0135249
829.781	0.0134380
829.859	0.0135808
829.937	0.0137057
830.015	0.0136717
830.093	0.0135844
830.171	0.0136434
830.249	0.0136297
830.328	0.0136102
830.406	0.0135389
830.484	0.0137186
830.562	0.0137624
830.640	0.0135462
830.718	0.0135804
830.796	0.0135826
830.874	0.0136265
830.953	0.0134827
831.031	0.0134791
831.109	0.0135419
831.187	0.0135954
831.265	0.0136517
831.343	0.0135271
831.421	0.0134003
831.499	0.0134177
831.578	0.0134404
831.656	0.0133954
831.734	0.0136044
831.812	0.0134370
831.890	0.0134241
831.968	0.0134774
832.046	0.0133796
832.124	0.0133389
832.203	0.0133494
832.281	0.0133319
832.359	0.0132556
832.437	0.0131886
832.515	0.0133584
832.593	0.0134551
832.671	0.0133424
832.749	0.0132403
832.828	0.0132993
832.906	0.0133587
832.984	0.0133278
833.062	0.0134288
833.140	0.0131862
833.218	0.0133681
833.296	0.0135836
833.374	0.0135255
833.453	0.0134299
833.531	0.0135149
833.609	0.0136468
833.687	0.0135143
833.765	0.0134217
833.843	0.0136946
833.921	0.0136857
833.999	0.0136413
834.078	0.0135901
834.156	0.0136266
834.234	0.0137042
834.312	0.0137305
834.390	0.0136735
834.468	0.0136211
834.546	0.0135980
834.624	0.0136576
834.703	0.0135458
834.781	0.0134430
834.859	0.0135999
834.937	0.0135402
835.015	0.0134040
835.093	0.0133712
835.171	0.0133755
835.249	0.0133860
835.328	0.0134130
835.406	0.0133815
835.484	0.0133556
835.562	0.0134012
835.640	0.0134370
835.718	0.0133587
835.796	0.0133353
835.874	0.0133961
835.953	0.0134286
836.031	0.0133160
836.109	0.0132937
836.187	0.0133224
836.265	0.0133427
836.343	0.0132835
836.421	0.0133833
836.499	0.0132880
836.578	0.0133264
836.656	0.0133180
836.734	0.0133762
836.812	0.0134282
836.890	0.0133849
836.968	0.0133759
837.046	0.0133539
837.124	0.0136559
837.203	0.0134927
837.281	0.0134629
837.359	0.0135770
837.437	0.0136075
837.515	0.0135902
837.593	0.0135767
837.671	0.0134969
837.749	0.0135700
837.828	0.0136546
837.906	0.0135109
837.984	0.0135090
838.062	0.0136092
838.140	0.0134922
838.218	0.0135158
838.296	0.0135876
838.374	0.0135712
838.453	0.0135565
838.531	0.0134273
838.609	0.0134805
838.687	0.0135143
838.765	0.0134508
838.843	0.0134620
838.921	0.0134553
838.999	0.0133983
839.078	0.0134233
839.156	0.0134826
839.234	0.0135273
839.312	0.0133645
839.390	0.0133049
839.468	0.0132897
839.546	0.0133362
839.624	0.0133382
839.703	0.0133112
839.781	0.0132974
839.859	0.0133244
839.937	0.0134309
840.015	0.0132766
840.093	0.0133347
840.171	0.0133845
840.249	0.0132906
840.328	0.0132414
840.406	0.0133077
840.484	0.0134015
840.562	0.0133508
840.640	0.0133002
840.718	0.0133811
840.796	0.0134507
840.874	0.0135368
840.953	0.0133942
841.031	0.0133897
841.109	0.0134654
841.187	0.0135009
841.265	0.0135604
841.343	0.0134504
841.421	0.0135033
841.499	0.0134753
841.578	0.0135162
841.656	0.0134849
841.734	0.0135386
841.812	0.0135434
841.890	0.0134979
841.968	0.0135504
842.046	0.0135561
842.124	0.0135652
842.203	0.0136288
842.281	0.0136163
842.359	0.0135506
842.437	0.0136305
842.515	0.0136313
842.593	0.0135686
842.671	0.0133904
842.749	0.0134430
842.828	0.0135970
842.906	0.0134786
842.984	0.0133966
843.062	0.0133040
843.140	0.0134621
843.218	0.0134741
843.296	0.0132899
843.374	0.0134297
843.453	0.0132474
843.531	0.0132910
843.609	0.0133170
843.687	0.0133710
843.765	0.0131647
843.843	0.0133990
843.921	0.0134126
843.999	0.0132915
844.078	0.0132547
844.156	0.0134413
844.234	0.0133290
844.312	0.0134735
844.390	0.0134402
844.468	0.0135550
844.546	0.0135667
844.624	0.0133661
844.703	0.0134310
844.781	0.0135149
844.859	0.0135580
844.937	0.0135535
845.015	0.0136513
845.093	0.0137263
845.171	0.0135234
845.249	0.0136189
845.328	0.0134639
845.406	0.0136034
845.484	0.0136275
845.562	0.0135072
845.640	0.0135234
845.718	0.0136639
845.796	0.0136954
845.874	0.0136141
845.953	0.0135849
846.031	0.0136299
846.109	0.0135578
846.187	0.0135262
846.265	0.0134840
846.343	0.0135448
846.421	0.0135479
846.499	0.0135181
846.578	0.0134270
846.656	0.0134142
846.734	0.0133829
846.812	0.0134316
846.890	0.0134148
846.968	0.0132999
847.046	0.0133421
847.124	0.0133665
847.203	0.0133877
847.281	0.0133435
847.359	0.0133533
847.437	0.0134410
847.515	0.0133553
847.593	0.0133186
847.671	0.0134753
847.749	0.0135304
847.828	0.0133671
847.906	0.0134651
847.984	0.0135179
848.062	0.0134841
848.140	0.0133523
848.218	0.0134043
848.296	0.0134869
848.374	0.0135420
848.453	0.0133782
848.531	0.0134256
848.609	0.0136312
848.687	0.0134519
848.765	0.0133383
848.843	0.0134036
848.921	0.0135222
848.999	0.0135319
849.078	0.0135127
849.156	0.0134782
849.234	0.0135761
849.312	0.0133660
849.390	0.0134582
849.468	0.0135255
849.546	0.0133070
849.624	0.0133867
849.703	0.0136462
849.781	0.0134876
849.859	0.0133237
849.937	0.0134851
850.015	0.0135203
850.093	0.0133305
850.171	0.0133521
850.249	0.0135200
850.328	0.0134774
850.406	0.0133811
850.484	0.0133644
850.562	0.0134143
850.640	0.0133566
850.718	0.0134518
850.796	0.0133910
850.874	0.0134917
850.953	0.0133609
851.031	0.0133672
851.109	0.0134324
851.187	0.0134534
851.265	0.0134357
851.343	0.0134325
851.421	0.0133959
851.499	0.0134364
851.578	0.0134859
851.656	0.0134997
851.734	0.0134361
851.812	0.0134117
851.890	0.0135320
851.968	0.0133413
852.046	0.0134386
852.124	0.0134167
852.203	0.0134678
852.281	0.0134481
852.359	0.0132903
852.437	0.0134207
852.515	0.0135022
852.593	0.0133894
852.671	0.0134201
852.749	0.0134041
852.828	0.0135539
852.906	0.0133414
852.984	0.0133516
853.062	0.0135490
853.140	0.0135629
853.218	0.0134215
853.296	0.0135473
853.374	0.0135300
853.453	0.0134782
853.531	0.0135247
853.609	0.0134264
853.687	0.0135306
853.765	0.0135128
853.843	0.0134769
853.921	0.0135458
853.999	0.0134640
854.078	0.0134684
854.156	0.0134156
854.234	0.0133794
854.312	0.0135218
854.390	0.0133643
854.468	0.0133625
854.546	0.0135294
854.624	0.0134525
854.703	0.0134115
854.781	0.0135165
854.859	0.0134329
854.937	0.0134223
855.015	0.0134079
855.093	0.0134264
855.171	0.0133021
855.249	0.0133341
855.328	0.0135310
855.406	0.0135358
855.484	0.0135477
855.562	0.0134612
855.640	0.0134847
855.718	0.0134560
855.796	0.0135587
855.874	0.0136001
855.953	0.0134457
856.031	0.0135131
856.109	0.0134376
856.187	0.0133994
856.265	0.0133138
856.343	0.0133846
856.421	0.0134969
856.499	0.0134462
856.578	0.0134892
856.656	0.0135424
856.734	0.0134048
856.812	0.0134502
856.890	0.0134394
856.968	0.0134997
857.046	0.0135132
857.124	0.0133855
857.203	0.0136409
857.281	0.0135086
857.359	0.0135044
857.437	0.0136803
857.515	0.0134513
857.593	0.0135049
857.671	0.0135543
857.749	0.0134242
857.828	0.0133887
857.906	0.0136541
857.984	0.0135061
858.062	0.0134726
858.140	0.0133842
858.218	0.0135173
858.296	0.0134317
858.374	0.0134531
858.453	0.0135225
858.531	0.0135442
858.609	0.0134794
858.687	0.0134554
858.765	0.0135214
858.843	0.0135596
858.921	0.0134379
858.999	0.0134069
859.078	0.0133725
859.156	0.0134174
859.234	0.0133392
859.312	0.0136555
859.390	0.0135400
859.468	0.0133952
859.546	0.0133926
859.624	0.0133289
859.703	0.0134628
859.781	0.0133906
859.859	0.0135531
859.937	0.0133803
860.015	0.0133390
860.093	0.0132856
860.171	0.0134075
860.249	0.0134573
860.328	0.0134417
860.406	0.0133875
860.484	0.0135458
860.562	0.0134939
860.640	0.0135174
860.718	0.0135712
860.796	0.0133319
860.874	0.0134818
860.953	0.0135001
861.031	0.0133948
861.109	0.0134938
861.187	0.0135841
861.265	0.0134793
861.343	0.0134701
861.421	0.0135055
861.499	0.0134560
861.578	0.0133224
861.656	0.0134668
861.734	0.0132507
861.812	0.0133939
861.890	0.0134345
861.968	0.0134912
862.046	0.0134488
862.124	0.0134993
862.203	0.0135006
862.281	0.0133923
862.359	0.0134427
862.437	0.0134559
862.515	0.0134060
862.593	0.0134205
862.671	0.0134756
862.749	0.0134600
862.828	0.0135918
862.906	0.0135975
862.984	0.0133873
863.062	0.0134113
863.140	0.0133895
863.218	0.0134624
863.296	0.0134318
863.374	0.0133481
863.453	0.0133615
863.531	0.0135131
863.609	0.0135282
863.687	0.0135487
863.765	0.0133315
863.843	0.0135021
863.921	0.0133685
863.999	0.0133703
864.078	0.0133804
864.156	0.0134476
864.234	0.0134980
864.312	0.0135583
864.390	0.0134974
864.468	0.0133862
864.546	0.0134447
864.624	0.0134792
864.703	0.0135029
864.781	0.0135644
864.859	0.0135268
864.937	0.0134673
865.015	0.0134453
865.093	0.0135604
865.171	0.0134828
865.249	0.0135191
865.328	0.0135223
865.406	0.0135498
865.484	0.0133389
865.562	0.0134443
865.640	0.0134012
865.718	0.0134563
865.796	0.0135269
865.874	0.0134436
865.953	0.0133740
866.031	0.0133932
866.109	0.0134770
866.187	0.0134621
866.265	0.0134634
866.343	0.0134332
866.421	0.0132421
866.499	0.0133944
866.578	0.0133891
866.656	0.0134763
866.734	0.0134019
866.812	0.0133127
866.890	0.0132942
866.968	0.0134012
867.046	0.0133495
867.124	0.0133776
867.203	0.0132440
867.281	0.0133566
867.359	0.0132165
867.437	0.0133092
867.515	0.0133997
867.593	0.0134586
867.671	0.0133253
867.749	0.0133562
867.828	0.0134238
867.906	0.0134525
867.984	0.0133832
868.062	0.0135044
868.140	0.0134960
868.218	0.0135518
868.296	0.0135958
868.374	0.0136100
868.453	0.0135857
868.531	0.0135918
868.609	0.0135832
868.687	0.0137235
868.765	0.0137249
868.843	0.0135156
868.921	0.0134952
868.999	0.0136008
869.078	0.0136198
869.156	0.0134450
869.234	0.0135519
869.312	0.0134514
869.390	0.0134365
869.468	0.0134634
869.546	0.0134245
869.624	0.0134785
869.703	0.0133569
869.781	0.0133878
869.859	0.0135737
869.937	0.0133475
870.015	0.0135323
870.093	0.0133188
870.171	0.0134359
870.249	0.0134451
870.328	0.0133699
870.406	0.0133227
870.484	0.0133866
870.562	0.0134236
870.640	0.0133201
870.718	0.0133754
870.796	0.0133263
870.874	0.0132908
870.953	0.0133112
871.031	0.0135154
871.109	0.0133125
871.187	0.0132300
871.265	0.0132409
871.343	0.0133362
871.421	0.0133242
871.499	0.0133239
871.578	0.0133636
871.656	0.0134184
871.734	0.0134422
871.812	0.0134891
871.890	0.0134621
871.968	0.0135423
872.046	0.0135514
872.124	0.0135397
872.203	0.0135691
872.281	0.0134959
872.359	0.0134884
872.437	0.0134772
872.515	0.0134470
872.593	0.0135973
872.671	0.0134938
872.749	0.0134678
872.828	0.0135233
872.906	0.0134801
872.984	0.0135406
873.062	0.0136312
873.140	0.0136429
873.218	0.0134507
873.296	0.0134651
873.374	0.0134573
873.453	0.0136095
873.531	0.0135719
873.609	0.0134251
873.687	0.0133913
873.765	0.0135441
873.843	0.0135490
873.921	0.0133708
873.999	0.0134306
874.078	0.0134608
874.156	0.0133322
874.234	0.0133493
874.312	0.0132940
874.390	0.0133429
874.468	0.0133554
874.546	0.0133395
874.624	0.0132280
874.703	0.0133412
874.781	0.0133177
874.859	0.0133153
874.937	0.0132219
875.015	0.0132545
875.093	0.0131692
875.171	0.0132700
875.249	0.0133939
875.328	0.0132607
875.406	0.0134167
875.484	0.0134869
875.562	0.0133958
875.640	0.0134097
875.718	0.0135083
875.796	0.0135143
875.874	0.0135771
875.953	0.0136340
876.031	0.0136674
876.109	0.0136032
876.187	0.0135990
876.265	0.0136607
876.343	0.0136871
876.421	0.0134528
876.499	0.0134786
876.578	0.0134492
876.656	0.0135414
876.734	0.0133016
876.812	0.0134439
876.890	0.0133061
876.968	0.0135452
877.046	0.0134163
877.124	0.0135286
877.203	0.0134801
877.281	0.0135187
877.359	0.0134721
877.437	0.0134927
877.515	0.0135570
877.593	0.0134363
877.671	0.0135274
877.749	0.0134126
877.828	0.0135028
877.906	0.0133408
877.984	0.0135059
878.062	0.0133701
878.140	0.0133041
878.218	0.0133694
878.296	0.0133279
878.374	0.0132335
878.453	0.0132175
878.531	0.0132192
878.609	0.0133283
878.687	0.0132160
878.765	0.0133073
878.843	0.0131999
878.921	0.0132373
878.999	0.0132923
879.078	0.0131831
879.156	0.0132829
879.234	0.0134412
879.312	0.0135204
879.390	0.0134888
879.468	0.0135799
879.546	0.0136600
879.624	0.0136060
879.703	0.0135892
879.781	0.0136542
879.859	0.0137511
879.937	0.0136494
880.015	0.0135807
880.093	0.0137530
880.171	0.0136562
880.249	0.0136720
880.328	0.0136987
880.406	0.0136951
880.484	0.0136168
880.562	0.0135406
880.640	0.0135858
880.718	0.0135968
880.796	0.0137612
880.874	0.0135719
880.953	0.0134688
881.031	0.0135915
881.109	0.0135256
881.187	0.0135594
881.265	0.0135770
881.343	0.0134678
881.421	0.0134795
881.499	0.0134270
881.578	0.0134376
881.656	0.0134595
881.734	0.0133494
881.812	0.0133736
881.890	0.0133940
881.968	0.0133646
882.046	0.0132322
882.124	0.0132939
882.203	0.0131679
882.281	0.0131291
882.359	0.0132379
882.437	0.0131837
882.515	0.0132363
882.593	0.0133085
882.671	0.0132924
882.749	0.0133100
882.828	0.0134155
882.906	0.0134514
882.984	0.0135226
883.062	0.0136739
883.140	0.0137957
883.218	0.0136150
883.296	0.0137914
883.374	0.0138405
883.453	0.0138097
883.531	0.0138664
883.609	0.0139620
883.687	0.0139413
883.765	0.0137453
883.843	0.0136098
883.921	0.0137579
883.999	0.0136800
884.078	0.0136227
884.156	0.0136084
884.234	0.0136436
884.312	0.0135202
884.390	0.0134525
884.468	0.0134646
884.546	0.0134762
884.624	0.0135593
884.703	0.0135033
884.781	0.0133789
884.859	0.0135408
884.937	0.0134212
885.015	0.0133465
885.093	0.0133756
885.171	0.0134747
885.249	0.0135110
885.328	0.0134395
885.406	0.0134540
885.484	0.0134195
885.562	0.0135461
885.640	0.0134673
885.718	0.0133507
885.796	0.0133448
885.874	0.0135038
885.953	0.0134250
886.031	0.0134913
886.109	0.0133972
886.187	0.0133533
886.265	0.0134089
886.343	0.0136382
886.421	0.0134344
886.499	0.0134974
886.578	0.0135821
886.656	0.0134644
886.734	0.0135621
886.812	0.0135701
886.890	0.0136440
886.968	0.0137160
887.046	0.0137371
887.124	0.0137344
887.203	0.0137291
887.281	0.0137086
887.359	0.0137642
887.437	0.0136174
887.515	0.0135900
887.593	0.0136520
887.671	0.0135542
887.749	0.0134241
887.828	0.0132516
887.906	0.0133653
887.984	0.0133609
888.062	0.0133895
888.140	0.0133215
888.218	0.0133546
888.296	0.0133807
888.374	0.0133347
888.453	0.0134433
888.531	0.0133453
888.609	0.0134435
888.687	0.0133327
888.765	0.0133587
888.843	0.0134041
888.921	0.0134370
888.999	0.0135927
889.078	0.0134892
889.156	0.0135003
889.234	0.0134134
889.312	0.0134984
889.390	0.0134773
889.468	0.0132690
889.546	0.0133022
889.624	0.0133578
889.703	0.0133332
889.781	0.0132960
889.859	0.0133164
889.937	0.0132689
890.015	0.0132465
890.093	0.0134110
890.171	0.0134040
890.249	0.0134151
890.328	0.0133894
890.406	0.0135922
890.484	0.0135238
890.562	0.0135469
890.640	0.0136829
890.718	0.0136050
890.796	0.0136327
890.874	0.0138113
890.953	0.0137707
891.031	0.0138538
891.109	0.0137885
891.187	0.0138289
891.265	0.0137234
891.343	0.0137163
891.421	0.0135587
891.499	0.0135986
891.578	0.0136613
891.656	0.0137602
891.734	0.0135829
891.812	0.0133884
891.890	0.0132999
891.968	0.0135218
892.046	0.0134547
892.124	0.0134648
892.203	0.0134119
892.281	0.0134035
892.359	0.0134029
892.437	0.0132679
892.515	0.0132894
892.593	0.0133821
892.671	0.0134773
892.749	0.0132770
892.828	0.0131813
892.906	0.0133105
892.984	0.0134132
893.062	0.0133109
893.140	0.0132234
893.218	0.0133013
893.296	0.0134127
893.374	0.0133081
893.453	0.0133378
893.531	0.0134130
893.609	0.0132537
893.687	0.0131701
893.765	0.0132127
893.843	0.0132881
893.921	0.0133459
893.999	0.0133999
894.078	0.0133423
894.156	0.0133948
894.234	0.0134801
894.312	0.0136076
894.390	0.0135438
894.468	0.0136324
894.546	0.0138784
894.624	0.0139619
894.703	0.0137366
894.781	0.0137503
894.859	0.0140397
894.937	0.0139794
895.015	0.0139648
895.093	0.0138433
895.171	0.0138477
895.249	0.0139148
895.328	0.0138258
895.406	0.0138767
895.484	0.0135698
895.562	0.0137078
895.640	0.0136057
895.718	0.0134709
895.796	0.0132535
895.874	0.0132062
895.953	0.0131771
896.031	0.0132293
896.109	0.0131367
896.187	0.0131846
896.265	0.0132003
896.343	0.0131377
896.421	0.0131897
896.499	0.0131545
896.578	0.0131974
896.656	0.0132349
896.734	0.0133051
896.812	0.0134483
896.890	0.0132948
896.968	0.0134467
897.046	0.0134221
897.124	0.0134854
897.203	0.0135397
897.281	0.0135078
897.359	0.0135241
897.437	0.0135854
897.515	0.0134911
897.593	0.0134721
897.671	0.0134350
897.749	0.0135908
897.828	0.0134563
897.906	0.0135904
897.984	0.0137032
898.062	0.0136022
898.140	0.0136576
898.218	0.0135367
898.296	0.0136190
898.374	0.0137588
898.453	0.0138603
898.531	0.0138182
898.609	0.0137823
898.687	0.0138642
898.765	0.0138815
898.843	0.0139735
898.921	0.0138572
898.999	0.0137627
899.078	0.0137071
899.156	0.0137621
899.234	0.0136079
899.312	0.0134396
899.390	0.0134143
899.468	0.0134366
899.546	0.0133857
899.624	0.0133118
899.703	0.0132914
899.781	0.0131384
899.859	0.0132214
899.937	0.0132340
900.015	0.0133568
900.093	0.0132083
900.171	0.0132048
900.249	0.0132323
900.328	0.0134038
900.406	0.0132433
900.484	0.0134755
900.562	0.0134521
900.640	0.0135928
900.718	0.0134505
900.796	0.0134489
900.874	0.0135495
900.953	0.0135506
901.031	0.0133585
901.109	0.0134167
901.187	0.0134795
901.265	0.0134192
901.343	0.0135886
901.421	0.0134361
901.499	0.0135472
901.578	0.0134592
901.656	0.0134021
901.734	0.0135697
901.812	0.0135252
901.890	0.0135112
901.968	0.0135096
902.046	0.0134726
902.124	0.0134759
902.203	0.0136470
902.281	0.0137136
902.359	0.0135587
902.437	0.0136584
902.515	0.0137236
902.593	0.0136174
902.671	0.0137701
902.749	0.0138916
902.828	0.0135725
902.906	0.0136436
902.984	0.0135696
903.062	0.0137057
903.140	0.0136423
903.218	0.0134504
903.296	0.0134436
903.374	0.0133686
903.453	0.0133778
903.531	0.0134591
903.609	0.0132961
903.687	0.0132092
903.765	0.0132357
903.843	0.0131012
903.921	0.0133174
903.999	0.0131820
904.078	0.0131670
904.156	0.0132265
904.234	0.0134267
904.312	0.0133911
904.390	0.0133264
904.468	0.0134099
904.546	0.0134285
904.624	0.0137318
904.703	0.0135015
904.781	0.0136725
904.859	0.0136915
904.937	0.0136269
905.015	0.0136169
905.093	0.0135450
905.171	0.0135995
905.249	0.0135899
905.328	0.0136266
905.406	0.0136124
905.484	0.0135532
905.562	0.0135661
905.640	0.0135100
905.718	0.0136323
905.796	0.0136062
905.874	0.0135201
905.953	0.0135739
906.031	0.0135538
906.109	0.0136141
906.187	0.0135893
906.265	0.0134808
906.343	0.0135543
906.421	0.0135824
906.499	0.0136534
906.578	0.0136431
906.656	0.0134277
906.734	0.0135394
906.812	0.0135703
906.890	0.0135955
906.968	0.0135509
907.046	0.0134943
907.124	0.0134808
907.203	0.0134315
907.281	0.0135201
907.359	0.0134476
907.437	0.0134657
907.515	0.0133961
907.593	0.0132555
907.671	0.0133298
907.749	0.0134230
907.828	0.0133610
907.906	0.0133704
907.984	0.0134714
908.062	0.0134885
908.140	0.0133624
908.218	0.0134428
908.296	0.0135008
908.374	0.0134610
908.453	0.0134766
908.531	0.0134585
908.609	0.0135806
908.687	0.0136880
908.765	0.0136494
908.843	0.0136148
908.921	0.0134921
908.999	0.0137611
909.078	0.0136395
909.156	0.0136747
909.234	0.0135065
909.312	0.0135136
909.390	0.0136797
909.468	0.0134750
909.546	0.0135734
909.624	0.0135336
909.703	0.0134865
909.781	0.0134940
909.859	0.0135333
909.937	0.0136230
910.015	0.0135030
910.093	0.0135381
910.171	0.0135439
910.249	0.0134636
910.328	0.0135686
910.406	0.0136230
910.484	0.0134521
910.562	0.0133951
910.640	0.0135035
910.718	0.0136628
910.796	0.0134637
910.874	0.0134074
910.953	0.0135706
911.031	0.0134064
911.109	0.0134697
911.187	0.0134243
911.265	0.0134121
911.343	0.0134942
911.421	0.0135272
911.499	0.0134106
911.578	0.0135162
911.656	0.0134587
911.734	0.0135992
911.812	0.0135258
911.890	0.0135243
911.968	0.0135473
912.046	0.0135992
912.124	0.0134631
912.203	0.0137103
912.281	0.0136188
912.359	0.0135255
912.437	0.0136298
912.515	0.0136869
912.593	0.0136481
912.671	0.0136854
912.749	0.0135183
912.828	0.0135577
912.906	0.0136481
912.984	0.0136182
913.062	0.0135799
913.140	0.0136037
913.218	0.0136436
913.296	0.0135131
913.374	0.0133027
913.453	0.0135520
913.531	0.0135003
913.609	0.0134682
913.687	0.0135161
913.765	0.0134121
913.843	0.0134563
913.921	0.0134695
913.999	0.0135011
914.078	0.0135085
914.156	0.0135365
914.234	0.0134864
914.312	0.0134972
914.390	0.0133436
914.468	0.0135437
914.546	0.0134717
914.624	0.0134959
914.703	0.0136366
914.781	0.0136645
914.859	0.0135730
914.937	0.0135711
915.015	0.0135265
915.093	0.0135735
915.171	0.0134732
915.249	0.0135687
915.328	0.0134106
915.406	0.0134483
915.484	0.0134876
915.562	0.0135924
915.640	0.0135120
915.718	0.0135532
915.796	0.0134668
915.874	0.0136510
915.953	0.0136749
916.031	0.0134554
916.109	0.0135925
916.187	0.0135358
916.265	0.0134660
916.343	0.0137974
916.421	0.0137466
916.499	0.0134448
916.578	0.0134566
916.656	0.0135336
916.734	0.0134868
916.812	0.0135528
916.890	0.0134784
916.968	0.0134960
917.046	0.0133955
917.124	0.0134197
917.203	0.0134927
917.281	0.0134034
917.359	0.0133538
917.437	0.0133724
917.515	0.0134052
917.593	0.0132883
917.671	0.0133614
917.749	0.0133515
917.828	0.0133858
917.906	0.0133726
917.984	0.0134922
918.062	0.0134515
918.140	0.0133663
918.218	0.0134734
918.296	0.0134650
918.374	0.0135245
918.453	0.0135511
918.531	0.0135772
918.609	0.0135368
918.687	0.0135149
918.765	0.0135001
918.843	0.0133892
918.921	0.0136124
918.999	0.0135259
919.078	0.0135089
919.156	0.0134258
919.234	0.0133857
919.312	0.0135400
919.390	0.0134835
919.468	0.0134214
919.546	0.0135151
919.624	0.0133743
919.703	0.0135240
919.781	0.0135557
919.859	0.0134998
919.937	0.0135030
