05/06/2022	18:49:09	Ver.	4.1	UNKNOWN
Optical Delay	600.015094	Delta X		0.078125	Sweeps	1	Scan Rate	0/0
Coordinates	Axis 1	NaN	Axis 2	NaN	Axis 3	NaN	Axis 4	NaN	Axis 5	NaN	Axis 6	0.000000
TX Power	0.000000	RX Power	0.000000

600.015	0.0135990
600.093	0.0135449
600.171	0.0136356
600.249	0.0136239
600.328	0.0135847
600.406	0.0135412
600.484	0.0136943
600.562	0.0136257
600.640	0.0136636
600.718	0.0136074
600.796	0.0136038
600.874	0.0135522
600.953	0.0136160
601.031	0.0136663
601.109	0.0136069
601.187	0.0136447
601.265	0.0136516
601.343	0.0136509
601.421	0.0136042
601.499	0.0136891
601.578	0.0136353
601.656	0.0134091
601.734	0.0136312
601.812	0.0136434
601.890	0.0136416
601.968	0.0135371
602.046	0.0135132
602.124	0.0136127
602.203	0.0136748
602.281	0.0136082
602.359	0.0135830
602.437	0.0136758
602.515	0.0136935
602.593	0.0136721
602.671	0.0136195
602.749	0.0136327
602.828	0.0136991
602.906	0.0135284
602.984	0.0135536
603.062	0.0136406
603.140	0.0135529
603.218	0.0137579
603.296	0.0134699
603.374	0.0135145
603.453	0.0136835
603.531	0.0135789
603.609	0.0136624
603.687	0.0136525
603.765	0.0136559
603.843	0.0135650
603.921	0.0135764
603.999	0.0135734
604.078	0.0136267
604.156	0.0137646
604.234	0.0135503
604.312	0.0136545
604.390	0.0136484
604.468	0.0136229
604.546	0.0136694
604.624	0.0136111
604.703	0.0135565
604.781	0.0136264
604.859	0.0136230
604.937	0.0136461
605.015	0.0136518
605.093	0.0136053
605.171	0.0136316
605.249	0.0135178
605.328	0.0135808
605.406	0.0136845
605.484	0.0136900
605.562	0.0136427
605.640	0.0135574
605.718	0.0135291
605.796	0.0136849
605.874	0.0137154
605.953	0.0136320
606.031	0.0135714
606.109	0.0136787
606.187	0.0136422
606.265	0.0136459
606.343	0.0136040
606.421	0.0134915
606.499	0.0137672
606.578	0.0136196
606.656	0.0136358
606.734	0.0135966
606.812	0.0137021
606.890	0.0137164
606.968	0.0135146
607.046	0.0136178
607.124	0.0135843
607.203	0.0136281
607.281	0.0135186
607.359	0.0136169
607.437	0.0136389
607.515	0.0135191
607.593	0.0134785
607.671	0.0135742
607.749	0.0137377
607.828	0.0135757
607.906	0.0136864
607.984	0.0136127
608.062	0.0135155
608.140	0.0135227
608.218	0.0136250
608.296	0.0136273
608.374	0.0134034
608.453	0.0134955
608.531	0.0135783
608.609	0.0136193
608.687	0.0136089
608.765	0.0134741
608.843	0.0136023
608.921	0.0137603
608.999	0.0135797
609.078	0.0135097
609.156	0.0136118
609.234	0.0135440
609.312	0.0136355
609.390	0.0136232
609.468	0.0135826
609.546	0.0135516
609.624	0.0135074
609.703	0.0135932
609.781	0.0136096
609.859	0.0135231
609.937	0.0135432
610.015	0.0136490
610.093	0.0134203
610.171	0.0135353
610.249	0.0135819
610.328	0.0136179
610.406	0.0136266
610.484	0.0136288
610.562	0.0135374
610.640	0.0135886
610.718	0.0136827
610.796	0.0135902
610.874	0.0136326
610.953	0.0137103
611.031	0.0136148
611.109	0.0134737
611.187	0.0135876
611.265	0.0137009
611.343	0.0135389
611.421	0.0136423
611.499	0.0136490
611.578	0.0136776
611.656	0.0135683
611.734	0.0136574
611.812	0.0135802
611.890	0.0135615
611.968	0.0136811
612.046	0.0136636
612.124	0.0136327
612.203	0.0135977
612.281	0.0136278
612.359	0.0136233
612.437	0.0135925
612.515	0.0136761
612.593	0.0137211
612.671	0.0135633
612.749	0.0135430
612.828	0.0135318
612.906	0.0135033
612.984	0.0135664
613.062	0.0136003
613.140	0.0135307
613.218	0.0136332
613.296	0.0135478
613.374	0.0136306
613.453	0.0138373
613.531	0.0136113
613.609	0.0136448
613.687	0.0135673
613.765	0.0135259
613.843	0.0136790
613.921	0.0135495
613.999	0.0136416
614.078	0.0134735
614.156	0.0136057
614.234	0.0136693
614.312	0.0135699
614.390	0.0135935
614.468	0.0136964
614.546	0.0136422
614.624	0.0135727
614.703	0.0136428
614.781	0.0135979
614.859	0.0136344
614.937	0.0136151
615.015	0.0135603
615.093	0.0133865
615.171	0.0135786
615.249	0.0135406
615.328	0.0136333
615.406	0.0137253
615.484	0.0136618
615.562	0.0135677
615.640	0.0136754
615.718	0.0136691
615.796	0.0136952
615.874	0.0136581
615.953	0.0137160
616.031	0.0135781
616.109	0.0135683
616.187	0.0136805
616.265	0.0136794
616.343	0.0135686
616.421	0.0135439
616.499	0.0135817
616.578	0.0135857
616.656	0.0136652
616.734	0.0135844
616.812	0.0137894
616.890	0.0135577
616.968	0.0135967
617.046	0.0136211
617.124	0.0136857
617.203	0.0136714
617.281	0.0135621
617.359	0.0135474
617.437	0.0135795
617.515	0.0136910
617.593	0.0135606
617.671	0.0135876
617.749	0.0136665
617.828	0.0136590
617.906	0.0136088
617.984	0.0134941
618.062	0.0137027
618.140	0.0136274
618.218	0.0136079
618.296	0.0135110
618.374	0.0136781
618.453	0.0138148
618.531	0.0136192
618.609	0.0136257
618.687	0.0136062
618.765	0.0136003
618.843	0.0135614
618.921	0.0136076
618.999	0.0136050
619.078	0.0134282
619.156	0.0136224
619.234	0.0135448
619.312	0.0135809
619.390	0.0135290
619.468	0.0135863
619.546	0.0134848
619.624	0.0135481
619.703	0.0136865
619.781	0.0136463
619.859	0.0136918
619.937	0.0135934
620.015	0.0135194
620.093	0.0136070
620.171	0.0135021
620.249	0.0135799
620.328	0.0136160
620.406	0.0136111
620.484	0.0135182
620.562	0.0135566
620.640	0.0135016
620.718	0.0135770
620.796	0.0136220
620.874	0.0135919
620.953	0.0135809
621.031	0.0134896
621.109	0.0135874
621.187	0.0134769
621.265	0.0134793
621.343	0.0137215
621.421	0.0135733
621.499	0.0135877
621.578	0.0136292
621.656	0.0136298
621.734	0.0134834
621.812	0.0137447
621.890	0.0134467
621.968	0.0136506
622.046	0.0136388
622.124	0.0135421
622.203	0.0136031
622.281	0.0136324
622.359	0.0135511
622.437	0.0136498
622.515	0.0136092
622.593	0.0136075
622.671	0.0136470
622.749	0.0136134
622.828	0.0136903
622.906	0.0136229
622.984	0.0135334
623.062	0.0135539
623.140	0.0137383
623.218	0.0136936
623.296	0.0136410
623.374	0.0135130
623.453	0.0135931
623.531	0.0136764
623.609	0.0136408
623.687	0.0135493
623.765	0.0136135
623.843	0.0136383
623.921	0.0135416
623.999	0.0136437
624.078	0.0137376
624.156	0.0135600
624.234	0.0136787
624.312	0.0137639
624.390	0.0136805
624.468	0.0135098
624.546	0.0137461
624.624	0.0137032
624.703	0.0136980
624.781	0.0136401
624.859	0.0135479
624.937	0.0137779
625.015	0.0137384
625.093	0.0135813
625.171	0.0136707
625.249	0.0135846
625.328	0.0136919
625.406	0.0136652
625.484	0.0136237
625.562	0.0135498
625.640	0.0136407
625.718	0.0135845
625.796	0.0136853
625.874	0.0137812
625.953	0.0137310
626.031	0.0137486
626.109	0.0135941
626.187	0.0135818
626.265	0.0135416
626.343	0.0136649
626.421	0.0136839
626.499	0.0135096
626.578	0.0136413
626.656	0.0136503
626.734	0.0135949
626.812	0.0136006
626.890	0.0136052
626.968	0.0135973
627.046	0.0136061
627.124	0.0137177
627.203	0.0135583
627.281	0.0135396
627.359	0.0136160
627.437	0.0136116
627.515	0.0136042
627.593	0.0137302
627.671	0.0135587
627.749	0.0136112
627.828	0.0136656
627.906	0.0136209
627.984	0.0137080
628.062	0.0136605
628.140	0.0137408
628.218	0.0135703
628.296	0.0137021
628.374	0.0135294
628.453	0.0136198
628.531	0.0137381
628.609	0.0136048
628.687	0.0135921
628.765	0.0135759
628.843	0.0137438
628.921	0.0136837
628.999	0.0136037
629.078	0.0135650
629.156	0.0136422
629.234	0.0135748
629.312	0.0134102
629.390	0.0136755
629.468	0.0134847
629.546	0.0135945
629.624	0.0135252
629.703	0.0135865
629.781	0.0134695
629.859	0.0135829
629.937	0.0135911
630.015	0.0135367
630.093	0.0135461
630.171	0.0135870
630.249	0.0135729
630.328	0.0136688
630.406	0.0136777
630.484	0.0134606
630.562	0.0136089
630.640	0.0136895
630.718	0.0135662
630.796	0.0136511
630.874	0.0135542
630.953	0.0136368
631.031	0.0136038
631.109	0.0136792
631.187	0.0135031
631.265	0.0135294
631.343	0.0135663
631.421	0.0135738
631.499	0.0136864
631.578	0.0137547
631.656	0.0135603
631.734	0.0135889
631.812	0.0135155
631.890	0.0135704
631.968	0.0135344
632.046	0.0137495
632.124	0.0136871
632.203	0.0134560
632.281	0.0134638
632.359	0.0135287
632.437	0.0135468
632.515	0.0136861
632.593	0.0134661
632.671	0.0135102
632.749	0.0136976
632.828	0.0135925
632.906	0.0137135
632.984	0.0135760
633.062	0.0135919
633.140	0.0136910
633.218	0.0137448
633.296	0.0136371
633.374	0.0135912
633.453	0.0135056
633.531	0.0135156
633.609	0.0136079
633.687	0.0136580
633.765	0.0136415
633.843	0.0136874
633.921	0.0135442
633.999	0.0135236
634.078	0.0136256
634.156	0.0135744
634.234	0.0134989
634.312	0.0136139
634.390	0.0136401
634.468	0.0135514
634.546	0.0136321
634.624	0.0137119
634.703	0.0136557
634.781	0.0135480
634.859	0.0136949
634.937	0.0135877
635.015	0.0135629
635.093	0.0136285
635.171	0.0137374
635.249	0.0136429
635.328	0.0137227
635.406	0.0135500
635.484	0.0135717
635.562	0.0134869
635.640	0.0136243
635.718	0.0137841
635.796	0.0136501
635.874	0.0136555
635.953	0.0136317
636.031	0.0134776
636.109	0.0136634
636.187	0.0135795
636.265	0.0135397
636.343	0.0134461
636.421	0.0137402
636.499	0.0135529
636.578	0.0135509
636.656	0.0137016
636.734	0.0136698
636.812	0.0135976
636.890	0.0135983
636.968	0.0137018
637.046	0.0136843
637.124	0.0135863
637.203	0.0135562
637.281	0.0136507
637.359	0.0135213
637.437	0.0136553
637.515	0.0137177
637.593	0.0135667
637.671	0.0135521
637.749	0.0135712
637.828	0.0135605
637.906	0.0136950
637.984	0.0135947
638.062	0.0137306
638.140	0.0136433
638.218	0.0136253
638.296	0.0136736
638.374	0.0136024
638.453	0.0136237
638.531	0.0135822
638.609	0.0136063
638.687	0.0136301
638.765	0.0136227
638.843	0.0135471
638.921	0.0134985
638.999	0.0136857
639.078	0.0135616
639.156	0.0135768
639.234	0.0136281
639.312	0.0136742
639.390	0.0136276
639.468	0.0135387
639.546	0.0136131
639.624	0.0136884
639.703	0.0137087
639.781	0.0137547
639.859	0.0135995
639.937	0.0135533
640.015	0.0137254
640.093	0.0136616
640.171	0.0135032
640.249	0.0136922
640.328	0.0135548
640.406	0.0136890
640.484	0.0136367
640.562	0.0137127
640.640	0.0135632
640.718	0.0135841
640.796	0.0135538
640.874	0.0135648
640.953	0.0136710
641.031	0.0134533
641.109	0.0135054
641.187	0.0136053
641.265	0.0135774
641.343	0.0136396
641.421	0.0134779
641.499	0.0135679
641.578	0.0136621
641.656	0.0135535
641.734	0.0135993
641.812	0.0136348
641.890	0.0136678
641.968	0.0135708
642.046	0.0136611
642.124	0.0136596
642.203	0.0135936
642.281	0.0136667
642.359	0.0134786
642.437	0.0135738
642.515	0.0135341
642.593	0.0136366
642.671	0.0135700
642.749	0.0135443
642.828	0.0135313
642.906	0.0136920
642.984	0.0135735
643.062	0.0136596
643.140	0.0135424
643.218	0.0136638
643.296	0.0136803
643.374	0.0138075
643.453	0.0135126
643.531	0.0134763
643.609	0.0136728
643.687	0.0136737
643.765	0.0136334
643.843	0.0137029
643.921	0.0137061
643.999	0.0136107
644.078	0.0135606
644.156	0.0135916
644.234	0.0137585
644.312	0.0136918
644.390	0.0135526
644.468	0.0137025
644.546	0.0134386
644.624	0.0135872
644.703	0.0136988
644.781	0.0134951
644.859	0.0135599
644.937	0.0135635
645.015	0.0136388
645.093	0.0137222
645.171	0.0135464
645.249	0.0136963
645.328	0.0137334
645.406	0.0135334
645.484	0.0136679
645.562	0.0136259
645.640	0.0135628
645.718	0.0135946
645.796	0.0136111
645.874	0.0136652
645.953	0.0135168
646.031	0.0136665
646.109	0.0134387
646.187	0.0135934
646.265	0.0136050
646.343	0.0135618
646.421	0.0135656
646.499	0.0135923
646.578	0.0134359
646.656	0.0136610
646.734	0.0136845
646.812	0.0136101
646.890	0.0136493
646.968	0.0135716
647.046	0.0136351
647.124	0.0136170
647.203	0.0135998
647.281	0.0136033
647.359	0.0136987
647.437	0.0137106
647.515	0.0134154
647.593	0.0136031
647.671	0.0136894
647.749	0.0136830
647.828	0.0135995
647.906	0.0136840
647.984	0.0136759
648.062	0.0137022
648.140	0.0136648
648.218	0.0136954
648.296	0.0137547
648.374	0.0136163
648.453	0.0136111
648.531	0.0135860
648.609	0.0136119
648.687	0.0135432
648.765	0.0136096
648.843	0.0137424
648.921	0.0135645
648.999	0.0135509
649.078	0.0135707
649.156	0.0136200
649.234	0.0135484
649.312	0.0135902
649.390	0.0137322
649.468	0.0136131
649.546	0.0136548
649.624	0.0134507
649.703	0.0135876
649.781	0.0137167
649.859	0.0136040
649.937	0.0136252
650.015	0.0136317
650.093	0.0137156
650.171	0.0136256
650.249	0.0135940
650.328	0.0136002
650.406	0.0137000
650.484	0.0136153
650.562	0.0134691
650.640	0.0136093
650.718	0.0136977
650.796	0.0136372
650.874	0.0137243
650.953	0.0137048
651.031	0.0134864
651.109	0.0136967
651.187	0.0136791
651.265	0.0135860
651.343	0.0136433
651.421	0.0136306
651.499	0.0135928
651.578	0.0135045
651.656	0.0135258
651.734	0.0136339
651.812	0.0135036
651.890	0.0136272
651.968	0.0136003
652.046	0.0136980
652.124	0.0137196
652.203	0.0136539
652.281	0.0136243
652.359	0.0136751
652.437	0.0136897
652.515	0.0136233
652.593	0.0136087
652.671	0.0136217
652.749	0.0136404
652.828	0.0136427
652.906	0.0136294
652.984	0.0136368
653.062	0.0135167
653.140	0.0136130
653.218	0.0136014
653.296	0.0136161
653.374	0.0136937
653.453	0.0134924
653.531	0.0136760
653.609	0.0136776
653.687	0.0136439
653.765	0.0136285
653.843	0.0136058
653.921	0.0135903
653.999	0.0135279
654.078	0.0136178
654.156	0.0136687
654.234	0.0135803
654.312	0.0136459
654.390	0.0135391
654.468	0.0134484
654.546	0.0136533
654.624	0.0136352
654.703	0.0136365
654.781	0.0135863
654.859	0.0135187
654.937	0.0136030
655.015	0.0135873
655.093	0.0136633
655.171	0.0136986
655.249	0.0136375
655.328	0.0136164
655.406	0.0136973
655.484	0.0136362
655.562	0.0136457
655.640	0.0135773
655.718	0.0136649
655.796	0.0135779
655.874	0.0136198
655.953	0.0135721
656.031	0.0137458
656.109	0.0136611
656.187	0.0135354
656.265	0.0137101
656.343	0.0137852
656.421	0.0135365
656.499	0.0135620
656.578	0.0136983
656.656	0.0137498
656.734	0.0135619
656.812	0.0135004
656.890	0.0137646
656.968	0.0137444
657.046	0.0136750
657.124	0.0136098
657.203	0.0136338
657.281	0.0136828
657.359	0.0135741
657.437	0.0135194
657.515	0.0135190
657.593	0.0136754
657.671	0.0134959
657.749	0.0136012
657.828	0.0136359
657.906	0.0136987
657.984	0.0136909
658.062	0.0136448
658.140	0.0137898
658.218	0.0136314
658.296	0.0136153
658.374	0.0136193
658.453	0.0136645
658.531	0.0135529
658.609	0.0134681
658.687	0.0135567
658.765	0.0137471
658.843	0.0136295
658.921	0.0135081
658.999	0.0135563
659.078	0.0137997
659.156	0.0136373
659.234	0.0137415
659.312	0.0136398
659.390	0.0135370
659.468	0.0137868
659.546	0.0136436
659.624	0.0137357
659.703	0.0137473
659.781	0.0135428
659.859	0.0136173
659.937	0.0135995
660.015	0.0136710
660.093	0.0134906
660.171	0.0135263
660.249	0.0137833
660.328	0.0137385
660.406	0.0135520
660.484	0.0136662
660.562	0.0136159
660.640	0.0136620
660.718	0.0137801
660.796	0.0136366
660.874	0.0135468
660.953	0.0136389
661.031	0.0136834
661.109	0.0135691
661.187	0.0135896
661.265	0.0135632
661.343	0.0136953
661.421	0.0135674
661.499	0.0135822
661.578	0.0137243
661.656	0.0135742
661.734	0.0137928
661.812	0.0135782
661.890	0.0135497
661.968	0.0137288
662.046	0.0137232
662.124	0.0136163
662.203	0.0136357
662.281	0.0135799
662.359	0.0136543
662.437	0.0136464
662.515	0.0136143
662.593	0.0135658
662.671	0.0136799
662.749	0.0135746
662.828	0.0137267
662.906	0.0135687
662.984	0.0136427
663.062	0.0137089
663.140	0.0137784
663.218	0.0136144
663.296	0.0135328
663.374	0.0137529
663.453	0.0136596
663.531	0.0136635
663.609	0.0137112
663.687	0.0135218
663.765	0.0136101
663.843	0.0135683
663.921	0.0136002
663.999	0.0137052
664.078	0.0135716
664.156	0.0134763
664.234	0.0137159
664.312	0.0135097
664.390	0.0136426
664.468	0.0136712
664.546	0.0137269
664.624	0.0135963
664.703	0.0136920
664.781	0.0136925
664.859	0.0136830
664.937	0.0136575
665.015	0.0136954
665.093	0.0136909
665.171	0.0136193
665.249	0.0135748
665.328	0.0137054
665.406	0.0135213
665.484	0.0135086
665.562	0.0136327
665.640	0.0136258
665.718	0.0136469
665.796	0.0136615
665.874	0.0136904
665.953	0.0135939
666.031	0.0135754
666.109	0.0137484
666.187	0.0136697
666.265	0.0135810
666.343	0.0134562
666.421	0.0135409
666.499	0.0135497
666.578	0.0136976
666.656	0.0136270
666.734	0.0135872
666.812	0.0137180
666.890	0.0134824
666.968	0.0136678
667.046	0.0136748
667.124	0.0134941
667.203	0.0136905
667.281	0.0135989
667.359	0.0136031
667.437	0.0135178
667.515	0.0135647
667.593	0.0137610
667.671	0.0137308
667.749	0.0137166
667.828	0.0137147
667.906	0.0136955
667.984	0.0136481
668.062	0.0135911
668.140	0.0136061
668.218	0.0135966
668.296	0.0136801
668.374	0.0136594
668.453	0.0136393
668.531	0.0135851
668.609	0.0135700
668.687	0.0135899
668.765	0.0136543
668.843	0.0135623
668.921	0.0137329
668.999	0.0135899
669.078	0.0136136
669.156	0.0137567
669.234	0.0136378
669.312	0.0135503
669.390	0.0136027
669.468	0.0136033
669.546	0.0137677
669.624	0.0137061
669.703	0.0136720
669.781	0.0136312
669.859	0.0136055
669.937	0.0136351
670.015	0.0136454
670.093	0.0137922
670.171	0.0136778
670.249	0.0135048
670.328	0.0135721
670.406	0.0136957
670.484	0.0136686
670.562	0.0134165
670.640	0.0136781
670.718	0.0135831
670.796	0.0134936
670.874	0.0135343
670.953	0.0136024
671.031	0.0135234
671.109	0.0135629
671.187	0.0136483
671.265	0.0134286
671.343	0.0135967
671.421	0.0135758
671.499	0.0136163
671.578	0.0136625
671.656	0.0136965
671.734	0.0135700
671.812	0.0134689
671.890	0.0137083
671.968	0.0136093
672.046	0.0137424
672.124	0.0134872
672.203	0.0136227
672.281	0.0136697
672.359	0.0136448
672.437	0.0136917
672.515	0.0137006
672.593	0.0136357
672.671	0.0137717
672.749	0.0136377
672.828	0.0136102
672.906	0.0135255
672.984	0.0137074
673.062	0.0137965
673.140	0.0135663
673.218	0.0136861
673.296	0.0136990
673.374	0.0137350
673.453	0.0137077
673.531	0.0137049
673.609	0.0135532
673.687	0.0134504
673.765	0.0138138
673.843	0.0137708
673.921	0.0134826
673.999	0.0135838
674.078	0.0136201
674.156	0.0137934
674.234	0.0137131
674.312	0.0136977
674.390	0.0136214
674.468	0.0135832
674.546	0.0136591
674.624	0.0136770
674.703	0.0136673
674.781	0.0136518
674.859	0.0136066
674.937	0.0136273
675.015	0.0135046
675.093	0.0136361
675.171	0.0135210
675.249	0.0136121
675.328	0.0134801
675.406	0.0135654
675.484	0.0134663
675.562	0.0135760
675.640	0.0136397
675.718	0.0137499
675.796	0.0136329
675.874	0.0136551
675.953	0.0136759
676.031	0.0137317
676.109	0.0137404
676.187	0.0137271
676.265	0.0136867
676.343	0.0136546
676.421	0.0135959
676.499	0.0136331
676.578	0.0135683
676.656	0.0137664
676.734	0.0136944
676.812	0.0135258
676.890	0.0135172
676.968	0.0135960
677.046	0.0136165
677.124	0.0136488
677.203	0.0136043
677.281	0.0135115
677.359	0.0135154
677.437	0.0136298
677.515	0.0135436
677.593	0.0135295
677.671	0.0135475
677.749	0.0135805
677.828	0.0136298
677.906	0.0136893
677.984	0.0135188
678.062	0.0136079
678.140	0.0136221
678.218	0.0136278
678.296	0.0136402
678.374	0.0135686
678.453	0.0135995
678.531	0.0136467
678.609	0.0136938
678.687	0.0135888
678.765	0.0138415
678.843	0.0137324
678.921	0.0137930
678.999	0.0137787
679.078	0.0136918
679.156	0.0135732
679.234	0.0136387
679.312	0.0135186
679.390	0.0135709
679.468	0.0135491
679.546	0.0135009
679.624	0.0134418
679.703	0.0134476
679.781	0.0133666
679.859	0.0133700
679.937	0.0133984
680.015	0.0133803
680.093	0.0134353
680.171	0.0133286
680.249	0.0135222
680.328	0.0135930
680.406	0.0136153
680.484	0.0135867
680.562	0.0137471
680.640	0.0138088
680.718	0.0136534
680.796	0.0134948
680.874	0.0137072
680.953	0.0136748
681.031	0.0136285
681.109	0.0135868
681.187	0.0136129
681.265	0.0135414
681.343	0.0135412
681.421	0.0132732
681.499	0.0136325
681.578	0.0135414
681.656	0.0136573
681.734	0.0137936
681.812	0.0138175
681.890	0.0138983
681.968	0.0139295
682.046	0.0140465
682.124	0.0139516
682.203	0.0140230
682.281	0.0140448
682.359	0.0139320
682.437	0.0140544
682.515	0.0139404
682.593	0.0139024
682.671	0.0136597
682.749	0.0135963
682.828	0.0133404
682.906	0.0131233
682.984	0.0131217
683.062	0.0131289
683.140	0.0128072
683.218	0.0129072
683.296	0.0128425
683.374	0.0126932
683.453	0.0128584
683.531	0.0129893
683.609	0.0130476
683.687	0.0133273
683.765	0.0132584
683.843	0.0133971
683.921	0.0135790
683.999	0.0137667
684.078	0.0138552
684.156	0.0139137
684.234	0.0139647
684.312	0.0139096
684.390	0.0138903
684.468	0.0139868
684.546	0.0139875
684.624	0.0139209
684.703	0.0139757
684.781	0.0138151
684.859	0.0137843
684.937	0.0136566
685.015	0.0138387
685.093	0.0138093
685.171	0.0136246
685.249	0.0136914
685.328	0.0138083
685.406	0.0138564
685.484	0.0139684
685.562	0.0141311
685.640	0.0143400
685.718	0.0144485
685.796	0.0146004
685.874	0.0145199
685.953	0.0144847
686.031	0.0145488
686.109	0.0143340
686.187	0.0140647
686.265	0.0140346
686.343	0.0136052
686.421	0.0133239
686.499	0.0130284
686.578	0.0127524
686.656	0.0123966
686.734	0.0121110
686.812	0.0118600
686.890	0.0116080
686.968	0.0114726
687.046	0.0115346
687.124	0.0115788
687.203	0.0115860
687.281	0.0118646
687.359	0.0121918
687.437	0.0122488
687.515	0.0127399
687.593	0.0131165
687.671	0.0134434
687.749	0.0138130
687.828	0.0142114
687.906	0.0144507
687.984	0.0145671
688.062	0.0148750
688.140	0.0149902
688.218	0.0151433
688.296	0.0152041
688.374	0.0150282
688.453	0.0150266
688.531	0.0150383
688.609	0.0149798
688.687	0.0146272
688.765	0.0145334
688.843	0.0145550
688.921	0.0142637
688.999	0.0141808
689.078	0.0141991
689.156	0.0143575
689.234	0.0141563
689.312	0.0140909
689.390	0.0143909
689.468	0.0145082
689.546	0.0145490
689.624	0.0145255
689.703	0.0144431
689.781	0.0144972
689.859	0.0141938
689.937	0.0139812
690.015	0.0138031
690.093	0.0132706
690.171	0.0128908
690.249	0.0126094
690.328	0.0121896
690.406	0.0115666
690.484	0.0112923
690.562	0.0108286
690.640	0.0107250
690.718	0.0105087
690.796	0.0105087
690.874	0.0105484
690.953	0.0106335
691.031	0.0110289
691.109	0.0113879
691.187	0.0117100
691.265	0.0124026
691.343	0.0128509
691.421	0.0133279
691.499	0.0137504
691.578	0.0140588
691.656	0.0146824
691.734	0.0150609
691.812	0.0153402
691.890	0.0156778
691.968	0.0157595
692.046	0.0160281
692.124	0.0159363
692.203	0.0159910
692.281	0.0157731
692.359	0.0156503
692.437	0.0157153
692.515	0.0156222
692.593	0.0153822
692.671	0.0153076
692.749	0.0152895
692.828	0.0151556
692.906	0.0148948
692.984	0.0148936
693.062	0.0148348
693.140	0.0146107
693.218	0.0143766
693.296	0.0144143
693.374	0.0142186
693.453	0.0140314
693.531	0.0137467
693.609	0.0134742
693.687	0.0132416
693.765	0.0128784
693.843	0.0125272
693.921	0.0119967
693.999	0.0117837
694.078	0.0113868
694.156	0.0109674
694.234	0.0106956
694.312	0.0105453
694.390	0.0103568
694.468	0.0101259
694.546	0.0100395
694.624	0.0102870
694.703	0.0105283
694.781	0.0107868
694.859	0.0112584
694.937	0.0119078
695.015	0.0123922
695.093	0.0129556
695.171	0.0134622
695.249	0.0140428
695.328	0.0146577
695.406	0.0150935
695.484	0.0155189
695.562	0.0160149
695.640	0.0161669
695.718	0.0162306
695.796	0.0162880
695.874	0.0161713
695.953	0.0161207
696.031	0.0160831
696.109	0.0159392
696.187	0.0156783
696.265	0.0152785
696.343	0.0151382
696.421	0.0148753
696.499	0.0147477
696.578	0.0145888
696.656	0.0144267
696.734	0.0143587
696.812	0.0141683
696.890	0.0140300
696.968	0.0141276
697.046	0.0139628
697.124	0.0138744
697.203	0.0138718
697.281	0.0137537
697.359	0.0136892
697.437	0.0137183
697.515	0.0137484
697.593	0.0134556
697.671	0.0133371
697.749	0.0129926
697.828	0.0129281
697.906	0.0125624
697.984	0.0121922
698.062	0.0119429
698.140	0.0116434
698.218	0.0114897
698.296	0.0112441
698.374	0.0110220
698.453	0.0111701
698.531	0.0109498
698.609	0.0112205
698.687	0.0114989
698.765	0.0116560
698.843	0.0120116
698.921	0.0122876
698.999	0.0127873
699.078	0.0130290
699.156	0.0135329
699.234	0.0139584
699.312	0.0144283
699.390	0.0146980
699.468	0.0151810
699.546	0.0153503
699.624	0.0154907
699.703	0.0155602
699.781	0.0155951
699.859	0.0156802
699.937	0.0156444
700.015	0.0155111
700.093	0.0153603
700.171	0.0151485
700.249	0.0149271
700.328	0.0147948
700.406	0.0145569
700.484	0.0144198
700.562	0.0141043
700.640	0.0141817
700.718	0.0142657
700.796	0.0140721
700.874	0.0140284
700.953	0.0139523
701.031	0.0141737
701.109	0.0141245
701.187	0.0140586
701.265	0.0140709
701.343	0.0140924
701.421	0.0140706
701.499	0.0140498
701.578	0.0138438
701.656	0.0138461
701.734	0.0136315
701.812	0.0133984
701.890	0.0130145
701.968	0.0127666
702.046	0.0124213
702.124	0.0119036
702.203	0.0115618
702.281	0.0114815
702.359	0.0112174
702.437	0.0110391
702.515	0.0111722
702.593	0.0111049
702.671	0.0112822
702.749	0.0113983
702.828	0.0118486
702.906	0.0122428
702.984	0.0125637
703.062	0.0131863
703.140	0.0135004
703.218	0.0138679
703.296	0.0143279
703.374	0.0146915
703.453	0.0149764
703.531	0.0151376
703.609	0.0151360
703.687	0.0151303
703.765	0.0151898
703.843	0.0149724
703.921	0.0148740
703.999	0.0149093
704.078	0.0147854
704.156	0.0144937
704.234	0.0142788
704.312	0.0141259
704.390	0.0140479
704.468	0.0140758
704.546	0.0140372
704.624	0.0140321
704.703	0.0139314
704.781	0.0141212
704.859	0.0142010
704.937	0.0142224
705.015	0.0142374
705.093	0.0142062
705.171	0.0142340
705.249	0.0143180
705.328	0.0142406
705.406	0.0141798
705.484	0.0140497
705.562	0.0138921
705.640	0.0136758
705.718	0.0132452
705.796	0.0131879
705.874	0.0127441
705.953	0.0124105
706.031	0.0120410
706.109	0.0119185
706.187	0.0116899
706.265	0.0116287
706.343	0.0116180
706.421	0.0116476
706.499	0.0118373
706.578	0.0120521
706.656	0.0124474
706.734	0.0125770
706.812	0.0129060
706.890	0.0133748
706.968	0.0137549
707.046	0.0140501
707.124	0.0142478
707.203	0.0145489
707.281	0.0147081
707.359	0.0148072
707.437	0.0147665
707.515	0.0146551
707.593	0.0145199
707.671	0.0142525
707.749	0.0142355
707.828	0.0139706
707.906	0.0138860
707.984	0.0135918
708.062	0.0136297
708.140	0.0135359
708.218	0.0135376
708.296	0.0135197
708.374	0.0134556
708.453	0.0136301
708.531	0.0136992
708.609	0.0138176
708.687	0.0140268
708.765	0.0140688
708.843	0.0142647
708.921	0.0143155
708.999	0.0144041
709.078	0.0144157
709.156	0.0145577
709.234	0.0145007
709.312	0.0144122
709.390	0.0141473
709.468	0.0139720
709.546	0.0138726
709.624	0.0136422
709.703	0.0133263
709.781	0.0131363
709.859	0.0127342
709.937	0.0126472
710.015	0.0126267
710.093	0.0123571
710.171	0.0122574
710.249	0.0123499
710.328	0.0125601
710.406	0.0126397
710.484	0.0126180
710.562	0.0129169
710.640	0.0131339
710.718	0.0133713
710.796	0.0136317
710.874	0.0137751
710.953	0.0141009
711.031	0.0143311
711.109	0.0143768
711.187	0.0144431
711.265	0.0143739
711.343	0.0143793
711.421	0.0142738
711.499	0.0140372
711.578	0.0139301
711.656	0.0139705
711.734	0.0138372
711.812	0.0135519
711.890	0.0134380
711.968	0.0134588
712.046	0.0133241
712.124	0.0132881
712.203	0.0133084
712.281	0.0130766
712.359	0.0132256
712.437	0.0133456
712.515	0.0134097
712.593	0.0136384
712.671	0.0138067
712.749	0.0137886
712.828	0.0139863
712.906	0.0138772
712.984	0.0139519
713.062	0.0139944
713.140	0.0141254
713.218	0.0140793
713.296	0.0139728
713.374	0.0139597
713.453	0.0138583
713.531	0.0137434
713.609	0.0135416
713.687	0.0134202
713.765	0.0133530
713.843	0.0129945
713.921	0.0130087
713.999	0.0129716
714.078	0.0129014
714.156	0.0129073
714.234	0.0128109
714.312	0.0129454
714.390	0.0130022
714.468	0.0131390
714.546	0.0133903
714.624	0.0135945
714.703	0.0137057
714.781	0.0138987
714.859	0.0142223
714.937	0.0144129
715.015	0.0145139
715.093	0.0145862
715.171	0.0145630
715.249	0.0148005
715.328	0.0148275
715.406	0.0146001
715.484	0.0144583
715.562	0.0144753
715.640	0.0142110
715.718	0.0140218
715.796	0.0138882
715.874	0.0135349
715.953	0.0135069
716.031	0.0132984
716.109	0.0131564
716.187	0.0130714
716.265	0.0131475
716.343	0.0130377
716.421	0.0128527
716.499	0.0129725
716.578	0.0128915
716.656	0.0130289
716.734	0.0131194
716.812	0.0131474
716.890	0.0132529
716.968	0.0133570
717.046	0.0133533
717.124	0.0133680
717.203	0.0133385
717.281	0.0132932
717.359	0.0132549
717.437	0.0135002
717.515	0.0133533
717.593	0.0134284
717.671	0.0133680
717.749	0.0131664
717.828	0.0132333
717.906	0.0132332
717.984	0.0133825
718.062	0.0135023
718.140	0.0134612
718.218	0.0135047
718.296	0.0137154
718.374	0.0137811
718.453	0.0140365
718.531	0.0140895
718.609	0.0142841
718.687	0.0143608
718.765	0.0146924
718.843	0.0146230
718.921	0.0147287
718.999	0.0148351
719.078	0.0147734
719.156	0.0148027
719.234	0.0146566
719.312	0.0146004
719.390	0.0145605
719.468	0.0143613
719.546	0.0140668
719.624	0.0140488
719.703	0.0136823
719.781	0.0134033
719.859	0.0134289
719.937	0.0134058
720.015	0.0132596
720.093	0.0129078
720.171	0.0130399
720.249	0.0129066
720.328	0.0128351
720.406	0.0128514
720.484	0.0128175
720.562	0.0129343
720.640	0.0130121
720.718	0.0131579
720.796	0.0132047
720.874	0.0132104
720.953	0.0133775
721.031	0.0134933
721.109	0.0134464
721.187	0.0135329
721.265	0.0137002
721.343	0.0135477
721.421	0.0135736
721.499	0.0136172
721.578	0.0135456
721.656	0.0134635
721.734	0.0136728
721.812	0.0136298
721.890	0.0135935
721.968	0.0136314
722.046	0.0135972
722.124	0.0137601
722.203	0.0136831
722.281	0.0138978
722.359	0.0139751
722.437	0.0139278
722.515	0.0139693
722.593	0.0140237
722.671	0.0142029
722.749	0.0142561
722.828	0.0141870
722.906	0.0141837
722.984	0.0142391
723.062	0.0143063
723.140	0.0139928
723.218	0.0139885
723.296	0.0139926
723.374	0.0137868
723.453	0.0135496
723.531	0.0134072
723.609	0.0133127
723.687	0.0132450
723.765	0.0130813
723.843	0.0129202
723.921	0.0128848
723.999	0.0127956
724.078	0.0127651
724.156	0.0126703
724.234	0.0127683
724.312	0.0128732
724.390	0.0129811
724.468	0.0129985
724.546	0.0129781
724.624	0.0131084
724.703	0.0133892
724.781	0.0133814
724.859	0.0134286
724.937	0.0134667
725.015	0.0135129
725.093	0.0136009
725.171	0.0138318
725.249	0.0139321
725.328	0.0140202
725.406	0.0139948
725.484	0.0141365
725.562	0.0142341
725.640	0.0141461
725.718	0.0142269
725.796	0.0141935
725.874	0.0143187
725.953	0.0144569
726.031	0.0142495
726.109	0.0142562
726.187	0.0143044
726.265	0.0142559
726.343	0.0143285
726.421	0.0141709
726.499	0.0142982
726.578	0.0141743
726.656	0.0142600
726.734	0.0142834
726.812	0.0141592
726.890	0.0140518
726.968	0.0138610
727.046	0.0138743
727.124	0.0136752
727.203	0.0135201
727.281	0.0134779
727.359	0.0134473
727.437	0.0131554
727.515	0.0129967
727.593	0.0128695
727.671	0.0127451
727.749	0.0126252
727.828	0.0124404
727.906	0.0124451
727.984	0.0124850
728.062	0.0126605
728.140	0.0124961
728.218	0.0124452
728.296	0.0125050
728.374	0.0127863
728.453	0.0128551
728.531	0.0128131
728.609	0.0130348
728.687	0.0131649
728.765	0.0132529
728.843	0.0134872
728.921	0.0136935
728.999	0.0137897
729.078	0.0138383
729.156	0.0139785
729.234	0.0140257
729.312	0.0140960
729.390	0.0142142
729.468	0.0143301
729.546	0.0144107
729.624	0.0144025
729.703	0.0144778
729.781	0.0145582
729.859	0.0144714
729.937	0.0144281
730.015	0.0144925
730.093	0.0144954
730.171	0.0144616
730.249	0.0144221
730.328	0.0143285
730.406	0.0141843
730.484	0.0142069
730.562	0.0140782
730.640	0.0138799
730.718	0.0139256
730.796	0.0137917
730.874	0.0135369
730.953	0.0136781
731.031	0.0136151
731.109	0.0134893
731.187	0.0134571
731.265	0.0131640
731.343	0.0131815
731.421	0.0130754
731.499	0.0130472
731.578	0.0129494
731.656	0.0128468
731.734	0.0127554
731.812	0.0128925
731.890	0.0129065
731.968	0.0129553
732.046	0.0127829
732.124	0.0128315
732.203	0.0129139
732.281	0.0129742
732.359	0.0128802
732.437	0.0131363
732.515	0.0131767
732.593	0.0131576
732.671	0.0133204
732.749	0.0134923
732.828	0.0136037
732.906	0.0138170
732.984	0.0139823
733.062	0.0141432
733.140	0.0141209
733.218	0.0140531
733.296	0.0142563
733.374	0.0145536
733.453	0.0143980
733.531	0.0143876
733.609	0.0144149
733.687	0.0143327
733.765	0.0142870
733.843	0.0143081
733.921	0.0143302
733.999	0.0141897
734.078	0.0140752
734.156	0.0140862
734.234	0.0139842
734.312	0.0138373
734.390	0.0137714
734.468	0.0138010
734.546	0.0136996
734.624	0.0136263
734.703	0.0137148
734.781	0.0134334
734.859	0.0133817
734.937	0.0134494
735.015	0.0133178
735.093	0.0133097
735.171	0.0132362
735.249	0.0133157
735.328	0.0130360
735.406	0.0129687
735.484	0.0130836
735.562	0.0131601
735.640	0.0130392
735.718	0.0129980
735.796	0.0131431
735.874	0.0129965
735.953	0.0129844
736.031	0.0130844
736.109	0.0128756
736.187	0.0129923
736.265	0.0130769
736.343	0.0132072
736.421	0.0132561
736.499	0.0134336
736.578	0.0136152
736.656	0.0137878
736.734	0.0138716
736.812	0.0139885
736.890	0.0141478
736.968	0.0143375
737.046	0.0143465
737.124	0.0144731
737.203	0.0145959
737.281	0.0146384
737.359	0.0145789
737.437	0.0145113
737.515	0.0147214
737.593	0.0145489
737.671	0.0144720
737.749	0.0145038
737.828	0.0142319
737.906	0.0142242
737.984	0.0141073
738.062	0.0138914
738.140	0.0139906
738.218	0.0137725
738.296	0.0136032
738.374	0.0137031
738.453	0.0136265
738.531	0.0133700
738.609	0.0133721
738.687	0.0133380
738.765	0.0130856
738.843	0.0131674
738.921	0.0130393
738.999	0.0130632
739.078	0.0129594
739.156	0.0130616
739.234	0.0129299
739.312	0.0130863
739.390	0.0129743
739.468	0.0129954
739.546	0.0130972
739.624	0.0129842
739.703	0.0129747
739.781	0.0128234
739.859	0.0129360
739.937	0.0130981
740.015	0.0129688
740.093	0.0130957
740.171	0.0131602
740.249	0.0132696
740.328	0.0133308
740.406	0.0135467
740.484	0.0136207
740.562	0.0137759
740.640	0.0140040
740.718	0.0140735
740.796	0.0141832
740.874	0.0142120
740.953	0.0144503
741.031	0.0145408
741.109	0.0145869
741.187	0.0145790
741.265	0.0144729
741.343	0.0146510
741.421	0.0145579
741.499	0.0145912
741.578	0.0143850
741.656	0.0143606
741.734	0.0141749
741.812	0.0141682
741.890	0.0142318
741.968	0.0139577
742.046	0.0138499
742.124	0.0137499
742.203	0.0137103
742.281	0.0136301
742.359	0.0136431
742.437	0.0135288
742.515	0.0132525
742.593	0.0133117
742.671	0.0132701
742.749	0.0132222
742.828	0.0130604
742.906	0.0130523
742.984	0.0131744
743.062	0.0131223
743.140	0.0129272
743.218	0.0127728
743.296	0.0129366
743.374	0.0130132
743.453	0.0129424
743.531	0.0128396
743.609	0.0130376
743.687	0.0129932
743.765	0.0130824
743.843	0.0130939
743.921	0.0129842
743.999	0.0133520
744.078	0.0134703
744.156	0.0135203
744.234	0.0136151
744.312	0.0135803
744.390	0.0138332
744.468	0.0138470
744.546	0.0138092
744.624	0.0139484
744.703	0.0141807
744.781	0.0140746
744.859	0.0142402
744.937	0.0141389
745.015	0.0143392
745.093	0.0142665
745.171	0.0142798
745.249	0.0143163
745.328	0.0142863
745.406	0.0141609
745.484	0.0141591
745.562	0.0140434
745.640	0.0141723
745.718	0.0140962
745.796	0.0138090
745.874	0.0138386
745.953	0.0137244
746.031	0.0135734
746.109	0.0136176
746.187	0.0135044
746.265	0.0134208
746.343	0.0132973
746.421	0.0133804
746.499	0.0132156
746.578	0.0132212
746.656	0.0131645
746.734	0.0129551
746.812	0.0129610
746.890	0.0129639
746.968	0.0129522
747.046	0.0131329
747.124	0.0129475
747.203	0.0129653
747.281	0.0129815
747.359	0.0130873
747.437	0.0131308
747.515	0.0130582
747.593	0.0130710
747.671	0.0132462
747.749	0.0133282
747.828	0.0133372
747.906	0.0135801
747.984	0.0135274
748.062	0.0135914
748.140	0.0138054
748.218	0.0138850
748.296	0.0139752
748.374	0.0138181
748.453	0.0140752
748.531	0.0140798
748.609	0.0140460
748.687	0.0140102
748.765	0.0142130
748.843	0.0140808
748.921	0.0142991
748.999	0.0140771
749.078	0.0141056
749.156	0.0140982
749.234	0.0140931
749.312	0.0140143
749.390	0.0139759
749.468	0.0138438
749.546	0.0138097
749.624	0.0137904
749.703	0.0138516
749.781	0.0136868
749.859	0.0136076
749.937	0.0135733
750.015	0.0134545
750.093	0.0134985
750.171	0.0135005
750.249	0.0132642
750.328	0.0133206
750.406	0.0132674
750.484	0.0131760
750.562	0.0132108
750.640	0.0131848
750.718	0.0129384
750.796	0.0129675
750.874	0.0129613
750.953	0.0129646
751.031	0.0130227
751.109	0.0130914
751.187	0.0131123
751.265	0.0131881
751.343	0.0131889
751.421	0.0131984
751.499	0.0132957
751.578	0.0134056
751.656	0.0134145
751.734	0.0133994
751.812	0.0135546
751.890	0.0136301
751.968	0.0137186
752.046	0.0138557
752.124	0.0136969
752.203	0.0138788
752.281	0.0139864
752.359	0.0139776
752.437	0.0139753
752.515	0.0140120
752.593	0.0140493
752.671	0.0142720
752.749	0.0141571
752.828	0.0141044
752.906	0.0140814
752.984	0.0141939
753.062	0.0141279
753.140	0.0139039
753.218	0.0139592
753.296	0.0139265
753.374	0.0137800
753.453	0.0138406
753.531	0.0137400
753.609	0.0136755
753.687	0.0135834
753.765	0.0135801
753.843	0.0135707
753.921	0.0135354
753.999	0.0134570
754.078	0.0133063
754.156	0.0132758
754.234	0.0132182
754.312	0.0132298
754.390	0.0131401
754.468	0.0129848
754.546	0.0132405
754.624	0.0132378
754.703	0.0130302
754.781	0.0130902
754.859	0.0130952
754.937	0.0131300
755.015	0.0132494
755.093	0.0131329
755.171	0.0131730
755.249	0.0131584
755.328	0.0132253
755.406	0.0134253
755.484	0.0133250
755.562	0.0133059
755.640	0.0134895
755.718	0.0137170
755.796	0.0138145
755.874	0.0137987
755.953	0.0141055
756.031	0.0139365
756.109	0.0139371
756.187	0.0141838
756.265	0.0142248
756.343	0.0140179
756.421	0.0141190
756.499	0.0140763
756.578	0.0141185
756.656	0.0140121
756.734	0.0140630
756.812	0.0141175
756.890	0.0137741
756.968	0.0138377
757.046	0.0138866
757.124	0.0137229
757.203	0.0138362
757.281	0.0138538
757.359	0.0135703
757.437	0.0136366
757.515	0.0136002
757.593	0.0136086
757.671	0.0136395
757.749	0.0134818
757.828	0.0135263
757.906	0.0135999
757.984	0.0133234
758.062	0.0132847
758.140	0.0133015
758.218	0.0132983
758.296	0.0132453
758.374	0.0132941
758.453	0.0132916
758.531	0.0132664
758.609	0.0130883
758.687	0.0131059
758.765	0.0132319
758.843	0.0131561
758.921	0.0131158
758.999	0.0131359
759.078	0.0133319
759.156	0.0134643
759.234	0.0134084
759.312	0.0135072
759.390	0.0133939
759.468	0.0136894
759.546	0.0137660
759.624	0.0137831
759.703	0.0139148
759.781	0.0137433
759.859	0.0139193
759.937	0.0141220
760.015	0.0138864
760.093	0.0139683
760.171	0.0140649
760.249	0.0140990
760.328	0.0140835
760.406	0.0137599
760.484	0.0138110
760.562	0.0138504
760.640	0.0138456
760.718	0.0135373
760.796	0.0137051
760.874	0.0137644
760.953	0.0137979
761.031	0.0137345
761.109	0.0138109
761.187	0.0137483
761.265	0.0137746
761.343	0.0137756
761.421	0.0136269
761.499	0.0136665
761.578	0.0134741
761.656	0.0135487
761.734	0.0136233
761.812	0.0134831
761.890	0.0135068
761.968	0.0133591
762.046	0.0133089
762.124	0.0134050
762.203	0.0132962
762.281	0.0133076
762.359	0.0133615
762.437	0.0133933
762.515	0.0133212
762.593	0.0133395
762.671	0.0134425
762.749	0.0133273
762.828	0.0133871
762.906	0.0134076
762.984	0.0135117
763.062	0.0135146
763.140	0.0133584
763.218	0.0135697
763.296	0.0135769
763.374	0.0137096
763.453	0.0137544
763.531	0.0136563
763.609	0.0137376
763.687	0.0135917
763.765	0.0136766
763.843	0.0138991
763.921	0.0137440
763.999	0.0137809
764.078	0.0138578
764.156	0.0137643
764.234	0.0137676
764.312	0.0136686
764.390	0.0137186
764.468	0.0137579
764.546	0.0138424
764.624	0.0138470
764.703	0.0138340
764.781	0.0137880
764.859	0.0137865
764.937	0.0138387
765.015	0.0135918
765.093	0.0137986
765.171	0.0137463
765.249	0.0137988
765.328	0.0136396
765.406	0.0135708
765.484	0.0136660
765.562	0.0135056
765.640	0.0135600
765.718	0.0134605
765.796	0.0135114
765.874	0.0135313
765.953	0.0134621
766.031	0.0133974
766.109	0.0134668
766.187	0.0134164
766.265	0.0133524
766.343	0.0133514
766.421	0.0133307
766.499	0.0132606
766.578	0.0135220
766.656	0.0134201
766.734	0.0133884
766.812	0.0132687
766.890	0.0132027
766.968	0.0133235
767.046	0.0134321
767.124	0.0134789
767.203	0.0134586
767.281	0.0135371
767.359	0.0136267
767.437	0.0137697
767.515	0.0138200
767.593	0.0136933
767.671	0.0138815
767.749	0.0138107
767.828	0.0137645
767.906	0.0137875
767.984	0.0137059
768.062	0.0136779
768.140	0.0137215
768.218	0.0135688
768.296	0.0137641
768.374	0.0136743
768.453	0.0136840
768.531	0.0137957
768.609	0.0136851
768.687	0.0137331
768.765	0.0137844
768.843	0.0140150
768.921	0.0138129
768.999	0.0137325
769.078	0.0136691
769.156	0.0136981
769.234	0.0137254
769.312	0.0138013
769.390	0.0136009
769.468	0.0133443
769.546	0.0133953
769.624	0.0134600
769.703	0.0133468
769.781	0.0133268
769.859	0.0132092
769.937	0.0133392
770.015	0.0131551
770.093	0.0132227
770.171	0.0131529
770.249	0.0133231
770.328	0.0132895
770.406	0.0131751
770.484	0.0131734
770.562	0.0132555
770.640	0.0134103
770.718	0.0134401
770.796	0.0133766
770.874	0.0135564
770.953	0.0136706
771.031	0.0136755
771.109	0.0137109
771.187	0.0137190
771.265	0.0138098
771.343	0.0138952
771.421	0.0138310
771.499	0.0137715
771.578	0.0137487
771.656	0.0138693
771.734	0.0137478
771.812	0.0138155
771.890	0.0138402
771.968	0.0137698
772.046	0.0138388
772.124	0.0137317
772.203	0.0138348
772.281	0.0138457
772.359	0.0138663
772.437	0.0137489
772.515	0.0137688
772.593	0.0137295
772.671	0.0137341
772.749	0.0137424
772.828	0.0136348
772.906	0.0136890
772.984	0.0135473
773.062	0.0135712
773.140	0.0135641
773.218	0.0134907
773.296	0.0134646
773.374	0.0135854
773.453	0.0134054
773.531	0.0131544
773.609	0.0131673
773.687	0.0132256
773.765	0.0130961
773.843	0.0130367
773.921	0.0130278
773.999	0.0129658
774.078	0.0128889
774.156	0.0130546
774.234	0.0132045
774.312	0.0132048
774.390	0.0132896
774.468	0.0131441
774.546	0.0133680
774.624	0.0135641
774.703	0.0136001
774.781	0.0137851
774.859	0.0139796
774.937	0.0140682
775.015	0.0139741
775.093	0.0138893
775.171	0.0140565
775.249	0.0140428
775.328	0.0139040
775.406	0.0138859
775.484	0.0139645
775.562	0.0136983
775.640	0.0135712
775.718	0.0135611
775.796	0.0134658
775.874	0.0135540
775.953	0.0134766
776.031	0.0136800
776.109	0.0136959
776.187	0.0136598
776.265	0.0136597
776.343	0.0138377
776.421	0.0138150
776.499	0.0136948
776.578	0.0135745
776.656	0.0136219
776.734	0.0136371
776.812	0.0135411
776.890	0.0133909
776.968	0.0133102
777.046	0.0132189
777.124	0.0131256
777.203	0.0131826
777.281	0.0132422
777.359	0.0130748
777.437	0.0132377
777.515	0.0130913
777.593	0.0130917
777.671	0.0130339
777.749	0.0132507
777.828	0.0131676
777.906	0.0130374
777.984	0.0131707
778.062	0.0132834
778.140	0.0133279
778.218	0.0132714
778.296	0.0132948
778.374	0.0132186
778.453	0.0133392
778.531	0.0134940
778.609	0.0135500
778.687	0.0134956
778.765	0.0136989
778.843	0.0138711
778.921	0.0137875
778.999	0.0140165
779.078	0.0139137
779.156	0.0139087
779.234	0.0138611
779.312	0.0139271
779.390	0.0139449
779.468	0.0139492
779.546	0.0137879
779.624	0.0137720
779.703	0.0136479
779.781	0.0136958
779.859	0.0136228
779.937	0.0136710
780.015	0.0135886
780.093	0.0135767
780.171	0.0137084
780.249	0.0137208
780.328	0.0137129
780.406	0.0135536
780.484	0.0135440
780.562	0.0134913
780.640	0.0135838
780.718	0.0135138
780.796	0.0134827
780.874	0.0134396
780.953	0.0133279
781.031	0.0133064
781.109	0.0132685
781.187	0.0131081
781.265	0.0129592
781.343	0.0130461
781.421	0.0130540
781.499	0.0133250
781.578	0.0132264
781.656	0.0133010
781.734	0.0131168
781.812	0.0133160
781.890	0.0134797
781.968	0.0132799
782.046	0.0134872
782.124	0.0135410
782.203	0.0135969
782.281	0.0137788
782.359	0.0135415
782.437	0.0137071
782.515	0.0136322
782.593	0.0136967
782.671	0.0137358
782.749	0.0137074
782.828	0.0138792
782.906	0.0138531
782.984	0.0137537
783.062	0.0137692
783.140	0.0138528
783.218	0.0138706
783.296	0.0138423
783.374	0.0137126
783.453	0.0138035
783.531	0.0138491
783.609	0.0138288
783.687	0.0135989
783.765	0.0136356
783.843	0.0137104
783.921	0.0136599
783.999	0.0134811
784.078	0.0135390
784.156	0.0135889
784.234	0.0136822
784.312	0.0135947
784.390	0.0135171
784.468	0.0135932
784.546	0.0134938
784.624	0.0135687
784.703	0.0134319
784.781	0.0133997
784.859	0.0134588
784.937	0.0133602
785.015	0.0132483
785.093	0.0133286
785.171	0.0133212
785.249	0.0132901
785.328	0.0134395
785.406	0.0133955
785.484	0.0132605
785.562	0.0135438
785.640	0.0135567
785.718	0.0135828
785.796	0.0136829
785.874	0.0136826
785.953	0.0137447
786.031	0.0137699
786.109	0.0137583
786.187	0.0138118
786.265	0.0136935
786.343	0.0137228
786.421	0.0136114
786.499	0.0137926
786.578	0.0138061
786.656	0.0137560
786.734	0.0138512
786.812	0.0136172
786.890	0.0136372
786.968	0.0136710
787.046	0.0136078
787.124	0.0136997
787.203	0.0136898
787.281	0.0135961
787.359	0.0135902
787.437	0.0135812
787.515	0.0136219
787.593	0.0136458
787.671	0.0136819
787.749	0.0135612
787.828	0.0135990
787.906	0.0135708
787.984	0.0136452
788.062	0.0136912
788.140	0.0137242
788.218	0.0136829
788.296	0.0136802
788.374	0.0138071
788.453	0.0136495
788.531	0.0136605
788.609	0.0136585
788.687	0.0136784
788.765	0.0136929
788.843	0.0134171
788.921	0.0137078
788.999	0.0136658
789.078	0.0135735
789.156	0.0135546
789.234	0.0134556
789.312	0.0134948
789.390	0.0135973
789.468	0.0134731
789.546	0.0135791
789.624	0.0133849
789.703	0.0135043
789.781	0.0136096
789.859	0.0136631
789.937	0.0135255
790.015	0.0136372
790.093	0.0134708
790.171	0.0134409
790.249	0.0134737
790.328	0.0134651
790.406	0.0133537
790.484	0.0134155
790.562	0.0134168
790.640	0.0133968
790.718	0.0133749
790.796	0.0131504
790.874	0.0135229
790.953	0.0135678
791.031	0.0135529
791.109	0.0135693
791.187	0.0136361
791.265	0.0137128
791.343	0.0135998
791.421	0.0136721
791.499	0.0137743
791.578	0.0137149
791.656	0.0137818
791.734	0.0138319
791.812	0.0139317
791.890	0.0138494
791.968	0.0137915
792.046	0.0137994
792.124	0.0137976
792.203	0.0136491
792.281	0.0135517
792.359	0.0136752
792.437	0.0135553
792.515	0.0135243
792.593	0.0137522
792.671	0.0137032
792.749	0.0135692
792.828	0.0134667
792.906	0.0133345
792.984	0.0134540
793.062	0.0135916
793.140	0.0134137
793.218	0.0135050
793.296	0.0136337
793.374	0.0136534
793.453	0.0135940
793.531	0.0133850
793.609	0.0133791
793.687	0.0134504
793.765	0.0134629
793.843	0.0134374
793.921	0.0133604
793.999	0.0134934
794.078	0.0135503
794.156	0.0134396
794.234	0.0134508
794.312	0.0134553
794.390	0.0134910
794.468	0.0135922
794.546	0.0135443
794.624	0.0135226
794.703	0.0137296
794.781	0.0135090
794.859	0.0136311
794.937	0.0134943
795.015	0.0135912
795.093	0.0137123
795.171	0.0136890
795.249	0.0136275
795.328	0.0136248
795.406	0.0137314
795.484	0.0136450
795.562	0.0135303
795.640	0.0136130
795.718	0.0136390
795.796	0.0136674
795.874	0.0137217
795.953	0.0137355
796.031	0.0137357
796.109	0.0137427
796.187	0.0136938
796.265	0.0135903
796.343	0.0136788
796.421	0.0136871
796.499	0.0136320
796.578	0.0135785
796.656	0.0135966
796.734	0.0136052
796.812	0.0136268
796.890	0.0135899
796.968	0.0136163
797.046	0.0135590
797.124	0.0135590
797.203	0.0136401
797.281	0.0135663
797.359	0.0136042
797.437	0.0137520
797.515	0.0135299
797.593	0.0136790
797.671	0.0135676
797.749	0.0135152
797.828	0.0135403
797.906	0.0134933
797.984	0.0135156
798.062	0.0134946
798.140	0.0135009
798.218	0.0134684
798.296	0.0133282
798.374	0.0134847
798.453	0.0134166
798.531	0.0133762
798.609	0.0134810
798.687	0.0134645
798.765	0.0134815
798.843	0.0134724
798.921	0.0134898
798.999	0.0135708
799.078	0.0136754
799.156	0.0135265
799.234	0.0135362
799.312	0.0136032
799.390	0.0137096
799.468	0.0137469
799.546	0.0135754
799.624	0.0137768
799.703	0.0135757
799.781	0.0135397
799.859	0.0137316
799.937	0.0135509
800.015	0.0135424
800.093	0.0135933
800.171	0.0136161
800.249	0.0137158
800.328	0.0136475
800.406	0.0136050
800.484	0.0136835
800.562	0.0136358
800.640	0.0136617
800.718	0.0135893
800.796	0.0136540
800.874	0.0137209
800.953	0.0135735
801.031	0.0135728
801.109	0.0136464
801.187	0.0136385
801.265	0.0136407
801.343	0.0136816
801.421	0.0137150
801.499	0.0135599
801.578	0.0136372
801.656	0.0136283
801.734	0.0135624
801.812	0.0135260
801.890	0.0135693
801.968	0.0136523
802.046	0.0135660
802.124	0.0135905
802.203	0.0135162
802.281	0.0135118
802.359	0.0135619
802.437	0.0136807
802.515	0.0135316
802.593	0.0135999
802.671	0.0135583
802.749	0.0137142
802.828	0.0136822
802.906	0.0135049
802.984	0.0137106
803.062	0.0137009
803.140	0.0136642
803.218	0.0137980
803.296	0.0137447
803.374	0.0137399
803.453	0.0137448
803.531	0.0138048
803.609	0.0137175
803.687	0.0139096
803.765	0.0137830
803.843	0.0136342
803.921	0.0137355
803.999	0.0137164
804.078	0.0136327
804.156	0.0136765
804.234	0.0134943
804.312	0.0136266
804.390	0.0135891
804.468	0.0135125
804.546	0.0134783
804.624	0.0135041
804.703	0.0135192
804.781	0.0134114
804.859	0.0133702
804.937	0.0134827
805.015	0.0135852
805.093	0.0134918
805.171	0.0134992
805.249	0.0134538
805.328	0.0135724
805.406	0.0135793
805.484	0.0134680
805.562	0.0136448
805.640	0.0136298
805.718	0.0136620
805.796	0.0134900
805.874	0.0136349
805.953	0.0136028
806.031	0.0135896
806.109	0.0137299
806.187	0.0137051
806.265	0.0136943
806.343	0.0137146
806.421	0.0136578
806.499	0.0136261
806.578	0.0137212
806.656	0.0137605
806.734	0.0137305
806.812	0.0138219
806.890	0.0138309
806.968	0.0137333
807.046	0.0136660
807.124	0.0136772
807.203	0.0137152
807.281	0.0137281
807.359	0.0137773
807.437	0.0137084
807.515	0.0136836
807.593	0.0137823
807.671	0.0136706
807.749	0.0134797
807.828	0.0134554
807.906	0.0135309
807.984	0.0135052
808.062	0.0135369
808.140	0.0134754
808.218	0.0134971
808.296	0.0135815
808.374	0.0135947
808.453	0.0134206
808.531	0.0136208
808.609	0.0135422
808.687	0.0134056
808.765	0.0134817
808.843	0.0133742
808.921	0.0135051
808.999	0.0135238
809.078	0.0134522
809.156	0.0133717
809.234	0.0134238
809.312	0.0134336
809.390	0.0134740
809.468	0.0135128
809.546	0.0134590
809.624	0.0134953
809.703	0.0136182
809.781	0.0136277
809.859	0.0135852
809.937	0.0136650
810.015	0.0136400
810.093	0.0137481
810.171	0.0137338
810.249	0.0137511
810.328	0.0136380
810.406	0.0137334
810.484	0.0137064
810.562	0.0137973
810.640	0.0137491
810.718	0.0135787
810.796	0.0136922
810.874	0.0137354
810.953	0.0136277
811.031	0.0135248
811.109	0.0136761
811.187	0.0136494
811.265	0.0135320
811.343	0.0136110
811.421	0.0137052
811.499	0.0137626
811.578	0.0136506
811.656	0.0137807
811.734	0.0137279
811.812	0.0137614
811.890	0.0137151
811.968	0.0138657
812.046	0.0137823
812.124	0.0137410
812.203	0.0137044
812.281	0.0136681
812.359	0.0137316
812.437	0.0137616
812.515	0.0135791
812.593	0.0135345
812.671	0.0134477
812.749	0.0135208
812.828	0.0135432
812.906	0.0134502
812.984	0.0135418
813.062	0.0134401
813.140	0.0134673
813.218	0.0133473
813.296	0.0134115
813.374	0.0135573
813.453	0.0134603
813.531	0.0136090
813.609	0.0136471
813.687	0.0136307
813.765	0.0135761
813.843	0.0135458
813.921	0.0137356
813.999	0.0137202
814.078	0.0136546
814.156	0.0137530
814.234	0.0138052
814.312	0.0137576
814.390	0.0139507
814.468	0.0137525
814.546	0.0137395
814.624	0.0135854
814.703	0.0137871
814.781	0.0136603
814.859	0.0137938
814.937	0.0136217
815.015	0.0135910
815.093	0.0136013
815.171	0.0136600
815.249	0.0136079
815.328	0.0137939
815.406	0.0135640
815.484	0.0136648
815.562	0.0136810
815.640	0.0138212
815.718	0.0137349
815.796	0.0136273
815.874	0.0137992
815.953	0.0137579
816.031	0.0137035
816.109	0.0137629
816.187	0.0137579
816.265	0.0138100
816.343	0.0137969
816.421	0.0136320
816.499	0.0135217
816.578	0.0135871
816.656	0.0134600
816.734	0.0134503
816.812	0.0132469
816.890	0.0133573
816.968	0.0133088
817.046	0.0134113
817.124	0.0133465
817.203	0.0133302
817.281	0.0133131
817.359	0.0135323
817.437	0.0134403
817.515	0.0134875
817.593	0.0136167
817.671	0.0135297
817.749	0.0135101
817.828	0.0136774
817.906	0.0137671
817.984	0.0137666
818.062	0.0137613
818.140	0.0137389
818.218	0.0138507
818.296	0.0139543
818.374	0.0139620
818.453	0.0138718
818.531	0.0138336
818.609	0.0137164
818.687	0.0137957
818.765	0.0138173
818.843	0.0137918
818.921	0.0137466
818.999	0.0136030
819.078	0.0137708
819.156	0.0138927
819.234	0.0137006
819.312	0.0137132
819.390	0.0138097
819.468	0.0137144
819.546	0.0137498
819.624	0.0136787
819.703	0.0135819
819.781	0.0135191
819.859	0.0136756
819.937	0.0136745
820.015	0.0136926
820.093	0.0137318
820.171	0.0136399
820.249	0.0136227
820.328	0.0134661
820.406	0.0134818
820.484	0.0135344
820.562	0.0134007
820.640	0.0134168
820.718	0.0133189
820.796	0.0133667
820.874	0.0135062
820.953	0.0133361
821.031	0.0133878
821.109	0.0133669
821.187	0.0135012
821.265	0.0134933
821.343	0.0136396
821.421	0.0136311
821.499	0.0136735
821.578	0.0137433
821.656	0.0138095
821.734	0.0137804
821.812	0.0138393
821.890	0.0139072
821.968	0.0139737
822.046	0.0139573
822.124	0.0139469
822.203	0.0140179
822.281	0.0139404
822.359	0.0138934
822.437	0.0138525
822.515	0.0138600
822.593	0.0137994
822.671	0.0138405
822.749	0.0137970
822.828	0.0136974
822.906	0.0136507
822.984	0.0135778
823.062	0.0136388
823.140	0.0135358
823.218	0.0135117
823.296	0.0134780
823.374	0.0135107
823.453	0.0134671
823.531	0.0136419
823.609	0.0134832
823.687	0.0135120
823.765	0.0134923
823.843	0.0136413
823.921	0.0136707
823.999	0.0134192
824.078	0.0135544
824.156	0.0135451
824.234	0.0136788
824.312	0.0134814
824.390	0.0132971
824.468	0.0134402
824.546	0.0134214
824.624	0.0133926
824.703	0.0135860
824.781	0.0134771
824.859	0.0135658
824.937	0.0135040
825.015	0.0134932
825.093	0.0135500
825.171	0.0135166
825.249	0.0135207
825.328	0.0134682
825.406	0.0136350
825.484	0.0136185
825.562	0.0136442
825.640	0.0135775
825.718	0.0137653
825.796	0.0136851
825.874	0.0138202
825.953	0.0138081
826.031	0.0136889
826.109	0.0136753
826.187	0.0137647
826.265	0.0138051
826.343	0.0138628
826.421	0.0139324
826.499	0.0138014
826.578	0.0137883
826.656	0.0138307
826.734	0.0138246
826.812	0.0138192
826.890	0.0136986
826.968	0.0138332
827.046	0.0137077
827.124	0.0137482
827.203	0.0137702
827.281	0.0138412
827.359	0.0135941
827.437	0.0137666
827.515	0.0136929
827.593	0.0135292
827.671	0.0135122
827.749	0.0137077
827.828	0.0136709
827.906	0.0136053
827.984	0.0137927
828.062	0.0134178
828.140	0.0135770
828.218	0.0135670
828.296	0.0133703
828.374	0.0134830
828.453	0.0135559
828.531	0.0134689
828.609	0.0134652
828.687	0.0133216
828.765	0.0133872
828.843	0.0134071
828.921	0.0135057
828.999	0.0135263
829.078	0.0136684
829.156	0.0133948
829.234	0.0134656
829.312	0.0136202
829.390	0.0136282
829.468	0.0135605
829.546	0.0137017
829.624	0.0137553
829.703	0.0136407
829.781	0.0137317
829.859	0.0137081
829.937	0.0136494
830.015	0.0138181
830.093	0.0137232
830.171	0.0138590
830.249	0.0137507
830.328	0.0138229
830.406	0.0137402
830.484	0.0138549
830.562	0.0137076
830.640	0.0137242
830.718	0.0137344
830.796	0.0137993
830.874	0.0137414
830.953	0.0137015
831.031	0.0135370
831.109	0.0136611
831.187	0.0135795
831.265	0.0136227
831.343	0.0136642
831.421	0.0135078
831.499	0.0136028
831.578	0.0134573
831.656	0.0135477
831.734	0.0134659
831.812	0.0135500
831.890	0.0135042
831.968	0.0134812
832.046	0.0135670
832.124	0.0136326
832.203	0.0135529
832.281	0.0133767
832.359	0.0134476
832.437	0.0134388
832.515	0.0133085
832.593	0.0135106
832.671	0.0134263
832.749	0.0133863
832.828	0.0133731
832.906	0.0135175
832.984	0.0134844
833.062	0.0136084
833.140	0.0135246
833.218	0.0135304
833.296	0.0135354
833.374	0.0137009
833.453	0.0138297
833.531	0.0136406
833.609	0.0137655
833.687	0.0138210
833.765	0.0138354
833.843	0.0137932
833.921	0.0138911
833.999	0.0137706
834.078	0.0137560
834.156	0.0138694
834.234	0.0137942
834.312	0.0138000
834.390	0.0137338
834.468	0.0137838
834.546	0.0137135
834.624	0.0136246
834.703	0.0137098
834.781	0.0136058
834.859	0.0136235
834.937	0.0136131
835.015	0.0135828
835.093	0.0135723
835.171	0.0134943
835.249	0.0135471
835.328	0.0136362
835.406	0.0134487
835.484	0.0135143
835.562	0.0134083
835.640	0.0134145
835.718	0.0135811
835.796	0.0136554
835.874	0.0135026
835.953	0.0134975
836.031	0.0135394
836.109	0.0135000
836.187	0.0134761
836.265	0.0135176
836.343	0.0134319
836.421	0.0134776
836.499	0.0135115
836.578	0.0135218
836.656	0.0137132
836.734	0.0135107
836.812	0.0135571
836.890	0.0134928
836.968	0.0136152
837.046	0.0136506
837.124	0.0136724
837.203	0.0137120
837.281	0.0135969
837.359	0.0136755
837.437	0.0136533
837.515	0.0137530
837.593	0.0137777
837.671	0.0137302
837.749	0.0137313
837.828	0.0137637
837.906	0.0136695
837.984	0.0136320
838.062	0.0137821
838.140	0.0136277
838.218	0.0137861
838.296	0.0136880
838.374	0.0135892
838.453	0.0136932
838.531	0.0136375
838.609	0.0135893
838.687	0.0135564
838.765	0.0136131
838.843	0.0136047
838.921	0.0136044
838.999	0.0135155
839.078	0.0135347
839.156	0.0134720
839.234	0.0134867
839.312	0.0135809
839.390	0.0135625
839.468	0.0133372
839.546	0.0134693
839.624	0.0136498
839.703	0.0136335
839.781	0.0134045
839.859	0.0135142
839.937	0.0135030
840.015	0.0134610
840.093	0.0136193
840.171	0.0135311
840.249	0.0135137
840.328	0.0133926
840.406	0.0135416
840.484	0.0136478
840.562	0.0135378
840.640	0.0134839
840.718	0.0134351
840.796	0.0135374
840.874	0.0135793
840.953	0.0133797
841.031	0.0135698
841.109	0.0135690
841.187	0.0135593
841.265	0.0136093
841.343	0.0135570
841.421	0.0136861
841.499	0.0136877
841.578	0.0136825
841.656	0.0136980
841.734	0.0137901
841.812	0.0137030
841.890	0.0138732
841.968	0.0139235
842.046	0.0139091
842.124	0.0138676
842.203	0.0138308
842.281	0.0138715
842.359	0.0136477
842.437	0.0138481
842.515	0.0138033
842.593	0.0138112
842.671	0.0136785
842.749	0.0135062
842.828	0.0135735
842.906	0.0137271
842.984	0.0135350
843.062	0.0135546
843.140	0.0136201
843.218	0.0135102
843.296	0.0134447
843.374	0.0135949
843.453	0.0133923
843.531	0.0133699
843.609	0.0133855
843.687	0.0133657
843.765	0.0133432
843.843	0.0135365
843.921	0.0135544
843.999	0.0134494
844.078	0.0134546
844.156	0.0136004
844.234	0.0135830
844.312	0.0135384
844.390	0.0135127
844.468	0.0136030
844.546	0.0134361
844.624	0.0135326
844.703	0.0137255
844.781	0.0136573
844.859	0.0136347
844.937	0.0136700
845.015	0.0136909
845.093	0.0135632
845.171	0.0135549
845.249	0.0136068
845.328	0.0137788
845.406	0.0138239
845.484	0.0137717
845.562	0.0137790
845.640	0.0136891
845.718	0.0136465
845.796	0.0136942
845.874	0.0137915
845.953	0.0137904
846.031	0.0137911
846.109	0.0137067
846.187	0.0137676
846.265	0.0137184
846.343	0.0134714
846.421	0.0135592
846.499	0.0135719
846.578	0.0135065
846.656	0.0136471
846.734	0.0136037
846.812	0.0134917
846.890	0.0134315
846.968	0.0133717
847.046	0.0133699
847.124	0.0134269
847.203	0.0135902
847.281	0.0134077
847.359	0.0134740
847.437	0.0135846
847.515	0.0135973
847.593	0.0135223
847.671	0.0136862
847.749	0.0134784
847.828	0.0135629
847.906	0.0137890
847.984	0.0135406
848.062	0.0136695
848.140	0.0134908
848.218	0.0135598
848.296	0.0135982
848.374	0.0136369
848.453	0.0135035
848.531	0.0134492
848.609	0.0134715
848.687	0.0135966
848.765	0.0135452
848.843	0.0134412
848.921	0.0134288
848.999	0.0134912
849.078	0.0135590
849.156	0.0136107
849.234	0.0135941
849.312	0.0136393
849.390	0.0135475
849.468	0.0134889
849.546	0.0136085
849.624	0.0136197
849.703	0.0135275
849.781	0.0135374
849.859	0.0135287
849.937	0.0135321
850.015	0.0135858
850.093	0.0135947
850.171	0.0136587
850.249	0.0135436
850.328	0.0135539
850.406	0.0135809
850.484	0.0135715
850.562	0.0135042
850.640	0.0134387
850.718	0.0136160
850.796	0.0136092
850.874	0.0135633
850.953	0.0136297
851.031	0.0134836
851.109	0.0135596
851.187	0.0135537
851.265	0.0134857
851.343	0.0135083
851.421	0.0135400
851.499	0.0135814
851.578	0.0135471
851.656	0.0137057
851.734	0.0134308
851.812	0.0135193
851.890	0.0136099
851.968	0.0136108
852.046	0.0134506
852.124	0.0135562
852.203	0.0135428
852.281	0.0133898
852.359	0.0133894
852.437	0.0135116
852.515	0.0136243
852.593	0.0133965
852.671	0.0134904
852.749	0.0135354
852.828	0.0136796
852.906	0.0135113
852.984	0.0134921
853.062	0.0137188
853.140	0.0135736
853.218	0.0135269
853.296	0.0136237
853.374	0.0136027
853.453	0.0137217
853.531	0.0135967
853.609	0.0136639
853.687	0.0137006
853.765	0.0136436
853.843	0.0136121
853.921	0.0135645
853.999	0.0136552
854.078	0.0134472
854.156	0.0137012
854.234	0.0135960
854.312	0.0134942
854.390	0.0136713
854.468	0.0134850
854.546	0.0133504
854.624	0.0134971
854.703	0.0135863
854.781	0.0135791
854.859	0.0136769
854.937	0.0134886
855.015	0.0134755
855.093	0.0135143
855.171	0.0136106
855.249	0.0136092
855.328	0.0134335
855.406	0.0135458
855.484	0.0136221
855.562	0.0135358
855.640	0.0135505
855.718	0.0136500
855.796	0.0136811
855.874	0.0135532
855.953	0.0134948
856.031	0.0134843
856.109	0.0134834
856.187	0.0135698
856.265	0.0134611
856.343	0.0135059
856.421	0.0135136
856.499	0.0136978
856.578	0.0135870
856.656	0.0134499
856.734	0.0135749
856.812	0.0135849
856.890	0.0136535
856.968	0.0137656
857.046	0.0136937
857.124	0.0136542
857.203	0.0137012
857.281	0.0136243
857.359	0.0138075
857.437	0.0137231
857.515	0.0135566
857.593	0.0134801
857.671	0.0134761
857.749	0.0136546
857.828	0.0135570
857.906	0.0134604
857.984	0.0134869
858.062	0.0135596
858.140	0.0134383
858.218	0.0135439
858.296	0.0135999
858.374	0.0135378
858.453	0.0135526
858.531	0.0134274
858.609	0.0136343
858.687	0.0135507
858.765	0.0135285
858.843	0.0136967
858.921	0.0136340
858.999	0.0134686
859.078	0.0135404
859.156	0.0135490
859.234	0.0135384
859.312	0.0134484
859.390	0.0134419
859.468	0.0134463
859.546	0.0134782
859.624	0.0136102
859.703	0.0134180
859.781	0.0133878
859.859	0.0136071
859.937	0.0135569
860.015	0.0135654
860.093	0.0135487
860.171	0.0136777
860.249	0.0137007
860.328	0.0134761
860.406	0.0134089
860.484	0.0135469
860.562	0.0135255
860.640	0.0136551
860.718	0.0134886
860.796	0.0135145
860.874	0.0137280
860.953	0.0136210
861.031	0.0135450
861.109	0.0134995
861.187	0.0136693
861.265	0.0135869
861.343	0.0136907
861.421	0.0136294
861.499	0.0135668
861.578	0.0136277
861.656	0.0135129
861.734	0.0135452
861.812	0.0135775
861.890	0.0135148
861.968	0.0134316
862.046	0.0135567
862.124	0.0134827
862.203	0.0134971
862.281	0.0136179
862.359	0.0135990
862.437	0.0136358
862.515	0.0135106
862.593	0.0135065
862.671	0.0134587
862.749	0.0135616
862.828	0.0136496
862.906	0.0134523
862.984	0.0134917
863.062	0.0136420
863.140	0.0135078
863.218	0.0135120
863.296	0.0135921
863.374	0.0135165
863.453	0.0134783
863.531	0.0137160
863.609	0.0136382
863.687	0.0135201
863.765	0.0135814
863.843	0.0134727
863.921	0.0134334
863.999	0.0136251
864.078	0.0137760
864.156	0.0137853
864.234	0.0136372
864.312	0.0136289
864.390	0.0137659
864.468	0.0135964
864.546	0.0137438
864.624	0.0136996
864.703	0.0136879
864.781	0.0136441
864.859	0.0135598
864.937	0.0136657
865.015	0.0137251
865.093	0.0136648
865.171	0.0135238
865.249	0.0134322
865.328	0.0136030
865.406	0.0135416
865.484	0.0136246
865.562	0.0136600
865.640	0.0136858
865.718	0.0135686
865.796	0.0135699
865.874	0.0136494
865.953	0.0135303
866.031	0.0136308
866.109	0.0135934
866.187	0.0137323
866.265	0.0136086
866.343	0.0135632
866.421	0.0137246
866.499	0.0136006
866.578	0.0136965
866.656	0.0135251
866.734	0.0135224
866.812	0.0135929
866.890	0.0135813
866.968	0.0135687
867.046	0.0135017
867.124	0.0134759
867.203	0.0134149
867.281	0.0134789
867.359	0.0134959
867.437	0.0134267
867.515	0.0134750
867.593	0.0135026
867.671	0.0135046
867.749	0.0136948
867.828	0.0137143
867.906	0.0135671
867.984	0.0137083
868.062	0.0137144
868.140	0.0135880
868.218	0.0137052
868.296	0.0136855
868.374	0.0137060
868.453	0.0137772
868.531	0.0137499
868.609	0.0137275
868.687	0.0136854
868.765	0.0135543
868.843	0.0135645
868.921	0.0136629
868.999	0.0138574
869.078	0.0138223
869.156	0.0134673
869.234	0.0133340
869.312	0.0133742
869.390	0.0135484
869.468	0.0136077
869.546	0.0134550
869.624	0.0135397
869.703	0.0134473
869.781	0.0135515
869.859	0.0135164
869.937	0.0134878
870.015	0.0136203
870.093	0.0135277
870.171	0.0134577
870.249	0.0134828
870.328	0.0134763
870.406	0.0134723
870.484	0.0134693
870.562	0.0133881
870.640	0.0133963
870.718	0.0134248
870.796	0.0134716
870.874	0.0133825
870.953	0.0133756
871.031	0.0133097
871.109	0.0134626
871.187	0.0134185
871.265	0.0134423
871.343	0.0134184
871.421	0.0134922
871.499	0.0134443
871.578	0.0135504
871.656	0.0136514
871.734	0.0136134
871.812	0.0136407
871.890	0.0135053
871.968	0.0136589
872.046	0.0135933
872.124	0.0137165
872.203	0.0137157
872.281	0.0137135
872.359	0.0137512
872.437	0.0136114
872.515	0.0136439
872.593	0.0135461
872.671	0.0136755
872.749	0.0135696
872.828	0.0134844
872.906	0.0136501
872.984	0.0136528
873.062	0.0136583
873.140	0.0137277
873.218	0.0136091
873.296	0.0134959
873.374	0.0135252
873.453	0.0136574
873.531	0.0135776
873.609	0.0134691
873.687	0.0135994
873.765	0.0136121
873.843	0.0136649
873.921	0.0134060
873.999	0.0135298
874.078	0.0135236
874.156	0.0134438
874.234	0.0136476
874.312	0.0135516
874.390	0.0134240
874.468	0.0133677
874.546	0.0133538
874.624	0.0133752
874.703	0.0133325
874.781	0.0133136
874.859	0.0134044
874.937	0.0133733
875.015	0.0134294
875.093	0.0134717
875.171	0.0133961
875.249	0.0134351
875.328	0.0134778
875.406	0.0135600
875.484	0.0135091
875.562	0.0134978
875.640	0.0136996
875.718	0.0136535
875.796	0.0136747
875.874	0.0136760
875.953	0.0136090
876.031	0.0136005
876.109	0.0136637
876.187	0.0135723
876.265	0.0137365
876.343	0.0134558
876.421	0.0136689
876.499	0.0135455
876.578	0.0135463
876.656	0.0136736
876.734	0.0136533
876.812	0.0136021
876.890	0.0135931
876.968	0.0137334
877.046	0.0136960
877.124	0.0136806
877.203	0.0137083
877.281	0.0137480
877.359	0.0137670
877.437	0.0136449
877.515	0.0136104
877.593	0.0135896
877.671	0.0135321
877.749	0.0135583
877.828	0.0135979
877.906	0.0133243
877.984	0.0134058
878.062	0.0133913
878.140	0.0133778
878.218	0.0133929
878.296	0.0131899
878.374	0.0133892
878.453	0.0134060
878.531	0.0133650
878.609	0.0132839
878.687	0.0132664
878.765	0.0133504
878.843	0.0134581
878.921	0.0135857
878.999	0.0136635
879.078	0.0137407
879.156	0.0136974
879.234	0.0137254
879.312	0.0135886
879.390	0.0137314
879.468	0.0136896
879.546	0.0137218
879.624	0.0138315
879.703	0.0137590
879.781	0.0138553
879.859	0.0137354
879.937	0.0138268
880.015	0.0136974
880.093	0.0137718
880.171	0.0137688
880.249	0.0137260
880.328	0.0137164
880.406	0.0138654
880.484	0.0137998
880.562	0.0138391
880.640	0.0138654
880.718	0.0137672
880.796	0.0137382
880.874	0.0136478
880.953	0.0137471
881.031	0.0137057
881.109	0.0137894
881.187	0.0136208
881.265	0.0136374
881.343	0.0136838
881.421	0.0135692
881.499	0.0136156
881.578	0.0135155
881.656	0.0136330
881.734	0.0134997
881.812	0.0135169
881.890	0.0133618
881.968	0.0133499
882.046	0.0133563
882.124	0.0132788
882.203	0.0132883
882.281	0.0133595
882.359	0.0132487
882.437	0.0135069
882.515	0.0135503
882.593	0.0134953
882.671	0.0136423
882.749	0.0137059
882.828	0.0138015
882.906	0.0138441
882.984	0.0139023
883.062	0.0139458
883.140	0.0139729
883.218	0.0140850
883.296	0.0139452
883.374	0.0138603
883.453	0.0140303
883.531	0.0139191
883.609	0.0138918
883.687	0.0138194
883.765	0.0137608
883.843	0.0138602
883.921	0.0136276
883.999	0.0136536
884.078	0.0136841
884.156	0.0134840
884.234	0.0135886
884.312	0.0136259
884.390	0.0136239
884.468	0.0136217
884.546	0.0135961
884.624	0.0136122
884.703	0.0134708
884.781	0.0136285
884.859	0.0136528
884.937	0.0136183
885.015	0.0133637
885.093	0.0135788
885.171	0.0135098
885.249	0.0135235
885.328	0.0135563
885.406	0.0134689
885.484	0.0136550
885.562	0.0134240
885.640	0.0133955
885.718	0.0134481
885.796	0.0133636
885.874	0.0133286
885.953	0.0135417
886.031	0.0135428
886.109	0.0135931
886.187	0.0134547
886.265	0.0135148
886.343	0.0135140
886.421	0.0136305
886.499	0.0135436
886.578	0.0135381
886.656	0.0136140
886.734	0.0137313
886.812	0.0136922
886.890	0.0138067
886.968	0.0138261
887.046	0.0138544
887.124	0.0139858
887.203	0.0138632
887.281	0.0138153
887.359	0.0136623
887.437	0.0136548
887.515	0.0135808
887.593	0.0136321
887.671	0.0134988
887.749	0.0135889
887.828	0.0135006
887.906	0.0135217
887.984	0.0134983
888.062	0.0134402
888.140	0.0134072
888.218	0.0135874
888.296	0.0136343
888.374	0.0137006
888.453	0.0135179
888.531	0.0134818
888.609	0.0136399
888.687	0.0135529
888.765	0.0137160
888.843	0.0136379
888.921	0.0135047
888.999	0.0136051
889.078	0.0134787
889.156	0.0134241
889.234	0.0135732
889.312	0.0135728
889.390	0.0133907
889.468	0.0134361
889.546	0.0134290
889.624	0.0133518
889.703	0.0134030
889.781	0.0134037
889.859	0.0134895
889.937	0.0136057
890.015	0.0134172
890.093	0.0135268
890.171	0.0135434
890.249	0.0134976
890.328	0.0135819
890.406	0.0136781
890.484	0.0136671
890.562	0.0135719
890.640	0.0137395
890.718	0.0138010
890.796	0.0137182
890.874	0.0138389
890.953	0.0138352
891.031	0.0137954
891.109	0.0137625
891.187	0.0136620
891.265	0.0138776
891.343	0.0136993
891.421	0.0138312
891.499	0.0137691
891.578	0.0136961
891.656	0.0136912
891.734	0.0136340
891.812	0.0136332
891.890	0.0137254
891.968	0.0136321
892.046	0.0136534
892.124	0.0136300
892.203	0.0135395
892.281	0.0133868
892.359	0.0135197
892.437	0.0134943
892.515	0.0135507
892.593	0.0134351
892.671	0.0133964
892.749	0.0134275
892.828	0.0134071
892.906	0.0133128
892.984	0.0133466
893.062	0.0134589
893.140	0.0133035
893.218	0.0134874
893.296	0.0134554
893.374	0.0134708
893.453	0.0134514
893.531	0.0135038
893.609	0.0134512
893.687	0.0135389
893.765	0.0134985
893.843	0.0134354
893.921	0.0136014
893.999	0.0135223
894.078	0.0136430
894.156	0.0135803
894.234	0.0137856
894.312	0.0138074
894.390	0.0135834
894.468	0.0137812
894.546	0.0138994
894.624	0.0138258
894.703	0.0138981
894.781	0.0139762
894.859	0.0139026
894.937	0.0138527
895.015	0.0139355
895.093	0.0139312
895.171	0.0140488
895.249	0.0138286
895.328	0.0138342
895.406	0.0137417
895.484	0.0136904
895.562	0.0135817
895.640	0.0136486
895.718	0.0136285
895.796	0.0134657
895.874	0.0133760
895.953	0.0133606
896.031	0.0134111
896.109	0.0133633
896.187	0.0133556
896.265	0.0133659
896.343	0.0134440
896.421	0.0135059
896.499	0.0133061
896.578	0.0134139
896.656	0.0133502
896.734	0.0133528
896.812	0.0133349
896.890	0.0135174
896.968	0.0134622
897.046	0.0134512
897.124	0.0134101
897.203	0.0136529
897.281	0.0136530
897.359	0.0136474
897.437	0.0135464
897.515	0.0135555
897.593	0.0136955
897.671	0.0136826
897.749	0.0137384
897.828	0.0138584
897.906	0.0136095
897.984	0.0135987
898.062	0.0136217
898.140	0.0139096
898.218	0.0139986
898.296	0.0137248
898.374	0.0138191
898.453	0.0139020
898.531	0.0137742
898.609	0.0139972
898.687	0.0139380
898.765	0.0140032
898.843	0.0140253
898.921	0.0137421
898.999	0.0138261
899.078	0.0138383
899.156	0.0137527
899.234	0.0134978
899.312	0.0136356
899.390	0.0135944
899.468	0.0135062
899.546	0.0135004
899.624	0.0134707
899.703	0.0134070
899.781	0.0134063
899.859	0.0133807
899.937	0.0134923
900.015	0.0134464
900.093	0.0134557
900.171	0.0134627
900.249	0.0134812
900.328	0.0134853
900.406	0.0135313
900.484	0.0134958
900.562	0.0133953
900.640	0.0135851
900.718	0.0135242
900.796	0.0135142
900.874	0.0136429
900.953	0.0135926
901.031	0.0137869
901.109	0.0136988
901.187	0.0136079
901.265	0.0136897
901.343	0.0135814
901.421	0.0135596
901.499	0.0136140
901.578	0.0135938
901.656	0.0136918
901.734	0.0136732
901.812	0.0135918
901.890	0.0136252
901.968	0.0135957
902.046	0.0136784
902.124	0.0136582
902.203	0.0136452
902.281	0.0137714
902.359	0.0136645
902.437	0.0136888
902.515	0.0136756
902.593	0.0138615
902.671	0.0137862
902.749	0.0136768
902.828	0.0136897
902.906	0.0137735
902.984	0.0135856
903.062	0.0135795
903.140	0.0135904
903.218	0.0136060
903.296	0.0134702
903.374	0.0134927
903.453	0.0135058
903.531	0.0134554
903.609	0.0133881
903.687	0.0134642
903.765	0.0133380
903.843	0.0133222
903.921	0.0133912
903.999	0.0133774
904.078	0.0134431
904.156	0.0133856
904.234	0.0134752
904.312	0.0135618
904.390	0.0135335
904.468	0.0135560
904.546	0.0135236
904.624	0.0136745
904.703	0.0137796
904.781	0.0138313
904.859	0.0137272
904.937	0.0136926
905.015	0.0138851
905.093	0.0136972
905.171	0.0137890
905.249	0.0136401
905.328	0.0136902
905.406	0.0136644
905.484	0.0135737
905.562	0.0135908
905.640	0.0137248
905.718	0.0135576
905.796	0.0135562
905.874	0.0135074
905.953	0.0136064
906.031	0.0135960
906.109	0.0136678
906.187	0.0136566
906.265	0.0135866
906.343	0.0136446
906.421	0.0136949
906.499	0.0136696
906.578	0.0134906
906.656	0.0137102
906.734	0.0137440
906.812	0.0137650
906.890	0.0138031
906.968	0.0136759
907.046	0.0136811
907.124	0.0135174
907.203	0.0136623
907.281	0.0135609
907.359	0.0134132
907.437	0.0135034
907.515	0.0135165
907.593	0.0135212
907.671	0.0134790
907.749	0.0134373
907.828	0.0134579
907.906	0.0134766
907.984	0.0135482
908.062	0.0135175
908.140	0.0134836
908.218	0.0135303
908.296	0.0136191
908.374	0.0137143
908.453	0.0135336
908.531	0.0137579
908.609	0.0137282
908.687	0.0136221
908.765	0.0136861
908.843	0.0138548
908.921	0.0137801
908.999	0.0138266
909.078	0.0136979
909.156	0.0135400
909.234	0.0135794
909.312	0.0136034
909.390	0.0135180
909.468	0.0136124
909.546	0.0136028
909.624	0.0135787
909.703	0.0134885
909.781	0.0133762
909.859	0.0136669
909.937	0.0135252
910.015	0.0135710
910.093	0.0135833
910.171	0.0136981
910.249	0.0136613
910.328	0.0136137
910.406	0.0137571
910.484	0.0137653
910.562	0.0137086
910.640	0.0134786
910.718	0.0134896
910.796	0.0136032
910.874	0.0136995
910.953	0.0135311
911.031	0.0136224
911.109	0.0136301
911.187	0.0135880
911.265	0.0136013
911.343	0.0135320
911.421	0.0135428
911.499	0.0135208
911.578	0.0134951
911.656	0.0136002
911.734	0.0136918
911.812	0.0136784
911.890	0.0135761
911.968	0.0135583
912.046	0.0136072
912.124	0.0136694
912.203	0.0136465
912.281	0.0136095
912.359	0.0137412
912.437	0.0138327
912.515	0.0137115
912.593	0.0136196
912.671	0.0136810
912.749	0.0138087
912.828	0.0137932
912.906	0.0136487
912.984	0.0136312
913.062	0.0136407
913.140	0.0136824
913.218	0.0135648
913.296	0.0135053
913.374	0.0135143
913.453	0.0135537
913.531	0.0135519
913.609	0.0135139
913.687	0.0135359
913.765	0.0135577
913.843	0.0136218
913.921	0.0134293
913.999	0.0136391
914.078	0.0136170
914.156	0.0135358
914.234	0.0135725
914.312	0.0136276
914.390	0.0136405
914.468	0.0136872
914.546	0.0137186
914.624	0.0137120
914.703	0.0135125
914.781	0.0137104
914.859	0.0134825
914.937	0.0135883
915.015	0.0136549
915.093	0.0135873
915.171	0.0137159
915.249	0.0135090
915.328	0.0136095
915.406	0.0135468
915.484	0.0135240
915.562	0.0137465
915.640	0.0136281
915.718	0.0136339
915.796	0.0135470
915.874	0.0135941
915.953	0.0136981
916.031	0.0136674
916.109	0.0137596
916.187	0.0136738
916.265	0.0136755
916.343	0.0136791
916.421	0.0137162
916.499	0.0137464
916.578	0.0137708
916.656	0.0136722
916.734	0.0137085
916.812	0.0137276
916.890	0.0137019
916.968	0.0135524
917.046	0.0136884
917.124	0.0137208
917.203	0.0135229
917.281	0.0135812
917.359	0.0135259
917.437	0.0135381
917.515	0.0135014
917.593	0.0136629
917.671	0.0134329
917.749	0.0134061
917.828	0.0136195
917.906	0.0135121
917.984	0.0135424
918.062	0.0135623
918.140	0.0135372
918.218	0.0134133
918.296	0.0134608
918.374	0.0136164
918.453	0.0137078
918.531	0.0136537
918.609	0.0135059
918.687	0.0135670
918.765	0.0136108
918.843	0.0137014
918.921	0.0137151
918.999	0.0135497
919.078	0.0136631
919.156	0.0136807
919.234	0.0135223
919.312	0.0135527
919.390	0.0135391
919.468	0.0135815
919.546	0.0135605
919.624	0.0136366
919.703	0.0135229
919.781	0.0136579
919.859	0.0136496
919.937	0.0136816
