05/06/2022	18:49:24	Ver.	4.1	UNKNOWN
Optical Delay	600.015094	Delta X		0.078125	Sweeps	1	Scan Rate	0/0
Coordinates	Axis 1	NaN	Axis 2	NaN	Axis 3	NaN	Axis 4	NaN	Axis 5	NaN	Axis 6	0.000000
TX Power	0.000000	RX Power	0.000000

600.015	0.0135049
600.093	0.0134898
600.171	0.0134548
600.249	0.0134171
600.328	0.0135066
600.406	0.0135291
600.484	0.0133152
600.562	0.0133500
600.640	0.0134567
600.718	0.0134590
600.796	0.0135307
600.874	0.0134454
600.953	0.0135089
601.031	0.0136157
601.109	0.0134499
601.187	0.0135683
601.265	0.0133231
601.343	0.0134618
601.421	0.0135965
601.499	0.0134701
601.578	0.0133499
601.656	0.0136066
601.734	0.0134508
601.812	0.0135802
601.890	0.0135271
601.968	0.0134760
602.046	0.0134000
602.124	0.0134326
602.203	0.0134724
602.281	0.0134995
602.359	0.0135689
602.437	0.0134911
602.515	0.0134542
602.593	0.0134470
602.671	0.0135339
602.749	0.0135480
602.828	0.0136003
602.906	0.0134306
602.984	0.0135888
603.062	0.0135828
603.140	0.0134225
603.218	0.0134912
603.296	0.0135404
603.374	0.0135171
603.453	0.0135726
603.531	0.0135474
603.609	0.0135224
603.687	0.0135147
603.765	0.0135230
603.843	0.0134553
603.921	0.0134450
603.999	0.0133903
604.078	0.0136150
604.156	0.0135519
604.234	0.0134586
604.312	0.0134319
604.390	0.0134703
604.468	0.0134376
604.546	0.0135233
604.624	0.0134772
604.703	0.0136072
604.781	0.0133512
604.859	0.0133676
604.937	0.0135452
605.015	0.0134468
605.093	0.0134530
605.171	0.0134772
605.249	0.0135418
605.328	0.0134507
605.406	0.0135767
605.484	0.0134615
605.562	0.0134772
605.640	0.0135645
605.718	0.0134733
605.796	0.0135702
605.874	0.0135675
605.953	0.0136047
606.031	0.0136321
606.109	0.0134299
606.187	0.0135011
606.265	0.0135221
606.343	0.0134373
606.421	0.0134835
606.499	0.0135943
606.578	0.0133950
606.656	0.0135111
606.734	0.0135155
606.812	0.0134386
606.890	0.0135088
606.968	0.0135246
607.046	0.0135587
607.124	0.0134945
607.203	0.0134126
607.281	0.0135848
607.359	0.0135345
607.437	0.0134568
607.515	0.0135635
607.593	0.0135220
607.671	0.0133878
607.749	0.0135228
607.828	0.0134193
607.906	0.0134916
607.984	0.0134543
608.062	0.0134203
608.140	0.0135548
608.218	0.0134695
608.296	0.0134905
608.374	0.0135733
608.453	0.0136058
608.531	0.0136014
608.609	0.0134259
608.687	0.0134918
608.765	0.0135020
608.843	0.0134029
608.921	0.0134768
608.999	0.0134440
609.078	0.0134921
609.156	0.0135357
609.234	0.0135342
609.312	0.0135270
609.390	0.0135866
609.468	0.0133652
609.546	0.0135889
609.624	0.0136279
609.703	0.0133360
609.781	0.0135255
609.859	0.0134832
609.937	0.0136062
610.015	0.0135364
610.093	0.0134428
610.171	0.0135456
610.249	0.0133839
610.328	0.0134299
610.406	0.0135178
610.484	0.0134793
610.562	0.0134431
610.640	0.0135427
610.718	0.0135079
610.796	0.0135339
610.874	0.0135743
610.953	0.0135308
611.031	0.0135550
611.109	0.0134552
611.187	0.0135352
611.265	0.0135941
611.343	0.0134239
611.421	0.0134693
611.499	0.0135480
611.578	0.0134811
611.656	0.0135478
611.734	0.0137240
611.812	0.0135567
611.890	0.0134522
611.968	0.0134196
612.046	0.0135880
612.124	0.0134472
612.203	0.0135413
612.281	0.0136207
612.359	0.0134551
612.437	0.0135601
612.515	0.0134762
612.593	0.0135123
612.671	0.0136089
612.749	0.0134885
612.828	0.0136189
612.906	0.0136189
612.984	0.0134971
613.062	0.0134817
613.140	0.0135574
613.218	0.0135202
613.296	0.0135104
613.374	0.0134470
613.453	0.0135918
613.531	0.0136169
613.609	0.0135962
613.687	0.0135950
613.765	0.0134303
613.843	0.0135826
613.921	0.0134534
613.999	0.0136737
614.078	0.0135700
614.156	0.0134781
614.234	0.0134208
614.312	0.0135105
614.390	0.0135646
614.468	0.0133961
614.546	0.0135481
614.624	0.0135110
614.703	0.0134576
614.781	0.0134380
614.859	0.0135114
614.937	0.0135658
615.015	0.0135197
615.093	0.0135718
615.171	0.0135692
615.249	0.0134880
615.328	0.0134890
615.406	0.0134896
615.484	0.0135035
615.562	0.0135383
615.640	0.0134512
615.718	0.0134657
615.796	0.0134533
615.874	0.0136180
615.953	0.0134643
616.031	0.0136419
616.109	0.0135722
616.187	0.0135505
616.265	0.0134619
616.343	0.0135834
616.421	0.0135891
616.499	0.0135986
616.578	0.0134667
616.656	0.0135594
616.734	0.0135495
616.812	0.0134576
616.890	0.0135122
616.968	0.0137035
617.046	0.0135094
617.124	0.0135738
617.203	0.0134327
617.281	0.0133758
617.359	0.0135262
617.437	0.0135876
617.515	0.0135539
617.593	0.0134589
617.671	0.0135263
617.749	0.0134610
617.828	0.0134586
617.906	0.0135148
617.984	0.0135516
618.062	0.0133801
618.140	0.0134602
618.218	0.0134480
618.296	0.0135522
618.374	0.0135014
618.453	0.0135791
618.531	0.0134425
618.609	0.0133522
618.687	0.0136630
618.765	0.0134731
618.843	0.0134750
618.921	0.0134556
618.999	0.0134989
619.078	0.0133871
619.156	0.0134921
619.234	0.0134850
619.312	0.0135704
619.390	0.0135381
619.468	0.0134439
619.546	0.0134481
619.624	0.0133979
619.703	0.0137297
619.781	0.0135600
619.859	0.0135606
619.937	0.0134958
620.015	0.0135357
620.093	0.0134419
620.171	0.0133909
620.249	0.0135655
620.328	0.0135531
620.406	0.0134596
620.484	0.0134142
620.562	0.0134732
620.640	0.0134760
620.718	0.0134041
620.796	0.0134333
620.874	0.0135194
620.953	0.0134821
621.031	0.0135627
621.109	0.0134927
621.187	0.0134088
621.265	0.0134528
621.343	0.0134732
621.421	0.0134377
621.499	0.0134369
621.578	0.0135075
621.656	0.0135509
621.734	0.0136076
621.812	0.0134606
621.890	0.0133921
621.968	0.0134998
622.046	0.0135202
622.124	0.0135426
622.203	0.0136031
622.281	0.0135635
622.359	0.0135214
622.437	0.0133894
622.515	0.0134012
622.593	0.0135079
622.671	0.0134377
622.749	0.0134932
622.828	0.0134941
622.906	0.0134962
622.984	0.0133958
623.062	0.0135048
623.140	0.0134781
623.218	0.0134518
623.296	0.0134321
623.374	0.0135137
623.453	0.0135433
623.531	0.0136727
623.609	0.0135387
623.687	0.0134187
623.765	0.0134051
623.843	0.0136243
623.921	0.0135326
623.999	0.0134468
624.078	0.0134870
624.156	0.0135316
624.234	0.0134724
624.312	0.0134713
624.390	0.0136021
624.468	0.0136088
624.546	0.0135246
624.624	0.0135429
624.703	0.0135251
624.781	0.0134784
624.859	0.0134819
624.937	0.0135571
625.015	0.0135153
625.093	0.0135071
625.171	0.0134802
625.249	0.0136644
625.328	0.0135709
625.406	0.0134537
625.484	0.0134535
625.562	0.0133556
625.640	0.0134679
625.718	0.0135207
625.796	0.0136099
625.874	0.0134808
625.953	0.0135298
626.031	0.0135799
626.109	0.0134526
626.187	0.0134087
626.265	0.0136201
626.343	0.0134299
626.421	0.0136779
626.499	0.0135287
626.578	0.0133614
626.656	0.0134728
626.734	0.0135472
626.812	0.0135741
626.890	0.0135452
626.968	0.0135661
627.046	0.0135026
627.124	0.0134220
627.203	0.0134937
627.281	0.0134752
627.359	0.0134476
627.437	0.0134938
627.515	0.0134888
627.593	0.0134974
627.671	0.0133025
627.749	0.0133975
627.828	0.0135607
627.906	0.0135889
627.984	0.0135942
628.062	0.0135837
628.140	0.0133835
628.218	0.0134417
628.296	0.0133765
628.374	0.0134950
628.453	0.0135387
628.531	0.0136147
628.609	0.0135226
628.687	0.0133934
628.765	0.0134890
628.843	0.0135280
628.921	0.0134248
628.999	0.0135223
629.078	0.0136295
629.156	0.0135983
629.234	0.0135481
629.312	0.0134480
629.390	0.0135242
629.468	0.0134019
629.546	0.0134281
629.624	0.0134366
629.703	0.0135272
629.781	0.0134924
629.859	0.0134745
629.937	0.0135796
630.015	0.0135184
630.093	0.0134218
630.171	0.0134884
630.249	0.0135759
630.328	0.0134982
630.406	0.0133165
630.484	0.0133449
630.562	0.0135748
630.640	0.0135258
630.718	0.0134933
630.796	0.0134052
630.874	0.0133644
630.953	0.0135873
631.031	0.0134723
631.109	0.0134410
631.187	0.0136203
631.265	0.0135612
631.343	0.0134219
631.421	0.0134782
631.499	0.0135359
631.578	0.0136102
631.656	0.0135380
631.734	0.0135239
631.812	0.0134264
631.890	0.0134183
631.968	0.0135283
632.046	0.0135040
632.124	0.0134628
632.203	0.0135623
632.281	0.0135279
632.359	0.0134125
632.437	0.0134705
632.515	0.0136183
632.593	0.0133955
632.671	0.0134428
632.749	0.0134692
632.828	0.0136312
632.906	0.0135065
632.984	0.0135137
633.062	0.0134313
633.140	0.0135674
633.218	0.0135191
633.296	0.0136234
633.374	0.0136106
633.453	0.0134857
633.531	0.0135823
633.609	0.0135779
633.687	0.0135538
633.765	0.0135696
633.843	0.0134464
633.921	0.0134286
633.999	0.0135419
634.078	0.0135255
634.156	0.0134487
634.234	0.0134599
634.312	0.0135496
634.390	0.0137183
634.468	0.0137084
634.546	0.0134349
634.624	0.0134121
634.703	0.0134402
634.781	0.0135368
634.859	0.0134193
634.937	0.0135242
635.015	0.0135303
635.093	0.0136147
635.171	0.0135461
635.249	0.0134927
635.328	0.0133966
635.406	0.0135246
635.484	0.0135827
635.562	0.0135515
635.640	0.0136033
635.718	0.0136316
635.796	0.0136101
635.874	0.0136393
635.953	0.0134707
636.031	0.0135385
636.109	0.0134955
636.187	0.0136238
636.265	0.0136038
636.343	0.0135093
636.421	0.0135534
636.499	0.0136033
636.578	0.0134634
636.656	0.0134967
636.734	0.0134808
636.812	0.0134760
636.890	0.0135105
636.968	0.0135446
637.046	0.0134438
637.124	0.0134423
637.203	0.0136942
637.281	0.0134783
637.359	0.0134608
637.437	0.0135526
637.515	0.0136767
637.593	0.0134010
637.671	0.0135080
637.749	0.0134482
637.828	0.0135059
637.906	0.0136646
637.984	0.0135973
638.062	0.0135477
638.140	0.0134666
638.218	0.0135254
638.296	0.0135709
638.374	0.0136303
638.453	0.0134838
638.531	0.0136351
638.609	0.0134556
638.687	0.0136701
638.765	0.0135615
638.843	0.0135944
638.921	0.0135143
638.999	0.0133413
639.078	0.0135501
639.156	0.0134564
639.234	0.0136301
639.312	0.0136339
639.390	0.0135748
639.468	0.0135384
639.546	0.0134861
639.624	0.0135442
639.703	0.0135435
639.781	0.0135337
639.859	0.0135353
639.937	0.0135748
640.015	0.0135987
640.093	0.0135000
640.171	0.0132757
640.249	0.0135416
640.328	0.0135249
640.406	0.0135495
640.484	0.0134351
640.562	0.0135110
640.640	0.0135340
640.718	0.0134894
640.796	0.0133858
640.874	0.0134940
640.953	0.0136745
641.031	0.0133933
641.109	0.0133969
641.187	0.0134176
641.265	0.0134554
641.343	0.0135562
641.421	0.0133340
641.499	0.0135241
641.578	0.0136843
641.656	0.0134774
641.734	0.0135148
641.812	0.0134370
641.890	0.0134452
641.968	0.0135016
642.046	0.0134827
642.124	0.0134914
642.203	0.0134110
642.281	0.0134378
642.359	0.0135732
642.437	0.0135186
642.515	0.0135080
642.593	0.0133897
642.671	0.0134378
642.749	0.0134989
642.828	0.0135228
642.906	0.0134672
642.984	0.0133806
643.062	0.0135736
643.140	0.0134927
643.218	0.0134354
643.296	0.0134929
643.374	0.0135313
643.453	0.0135481
643.531	0.0135160
643.609	0.0134258
643.687	0.0134855
643.765	0.0136205
643.843	0.0134844
643.921	0.0135024
643.999	0.0133588
644.078	0.0134412
644.156	0.0135854
644.234	0.0134338
644.312	0.0135947
644.390	0.0135850
644.468	0.0135332
644.546	0.0135176
644.624	0.0134461
644.703	0.0133733
644.781	0.0134359
644.859	0.0134419
644.937	0.0134305
645.015	0.0135726
645.093	0.0136687
645.171	0.0134454
645.249	0.0134799
645.328	0.0136080
645.406	0.0135850
645.484	0.0133906
645.562	0.0134865
645.640	0.0136589
645.718	0.0135693
645.796	0.0134843
645.874	0.0135722
645.953	0.0135370
646.031	0.0134629
646.109	0.0136112
646.187	0.0135822
646.265	0.0136058
646.343	0.0135107
646.421	0.0134285
646.499	0.0135020
646.578	0.0135675
646.656	0.0134756
646.734	0.0135356
646.812	0.0135513
646.890	0.0135598
646.968	0.0133748
647.046	0.0133743
647.124	0.0135876
647.203	0.0135664
647.281	0.0136497
647.359	0.0135477
647.437	0.0134007
647.515	0.0136231
647.593	0.0137524
647.671	0.0135244
647.749	0.0135371
647.828	0.0135516
647.906	0.0134797
647.984	0.0134612
648.062	0.0135521
648.140	0.0135057
648.218	0.0134453
648.296	0.0136034
648.374	0.0136327
648.453	0.0135577
648.531	0.0135658
648.609	0.0136015
648.687	0.0135889
648.765	0.0134706
648.843	0.0136163
648.921	0.0133995
648.999	0.0134135
649.078	0.0134078
649.156	0.0135621
649.234	0.0135889
649.312	0.0135069
649.390	0.0136587
649.468	0.0135899
649.546	0.0134964
649.624	0.0134886
649.703	0.0134823
649.781	0.0134086
649.859	0.0134574
649.937	0.0134980
650.015	0.0135345
650.093	0.0136358
650.171	0.0135233
650.249	0.0134048
650.328	0.0135024
650.406	0.0135318
650.484	0.0135156
650.562	0.0134527
650.640	0.0134554
650.718	0.0134097
650.796	0.0134502
650.874	0.0135685
650.953	0.0135692
651.031	0.0134355
651.109	0.0134367
651.187	0.0136436
651.265	0.0134830
651.343	0.0132969
651.421	0.0134349
651.499	0.0135384
651.578	0.0135751
651.656	0.0134917
651.734	0.0135176
651.812	0.0134717
651.890	0.0134624
651.968	0.0134904
652.046	0.0134953
652.124	0.0135303
652.203	0.0135111
652.281	0.0135379
652.359	0.0136059
652.437	0.0135260
652.515	0.0133074
652.593	0.0134267
652.671	0.0134737
652.749	0.0134267
652.828	0.0135250
652.906	0.0134949
652.984	0.0134635
653.062	0.0135873
653.140	0.0136409
653.218	0.0135085
653.296	0.0135722
653.374	0.0135210
653.453	0.0135291
653.531	0.0136114
653.609	0.0135516
653.687	0.0134184
653.765	0.0133996
653.843	0.0134969
653.921	0.0136850
653.999	0.0134702
654.078	0.0134946
654.156	0.0135718
654.234	0.0134415
654.312	0.0134513
654.390	0.0134994
654.468	0.0134161
654.546	0.0134808
654.624	0.0134708
654.703	0.0135459
654.781	0.0134959
654.859	0.0135667
654.937	0.0134431
655.015	0.0135000
655.093	0.0135214
655.171	0.0135316
655.249	0.0134512
655.328	0.0135426
655.406	0.0135308
655.484	0.0134061
655.562	0.0134984
655.640	0.0134576
655.718	0.0136279
655.796	0.0135970
655.874	0.0134370
655.953	0.0135121
656.031	0.0135699
656.109	0.0134605
656.187	0.0135507
656.265	0.0134301
656.343	0.0134550
656.421	0.0134595
656.499	0.0135607
656.578	0.0135415
656.656	0.0136713
656.734	0.0135706
656.812	0.0135343
656.890	0.0133729
656.968	0.0136305
657.046	0.0135857
657.124	0.0136370
657.203	0.0134240
657.281	0.0134823
657.359	0.0136059
657.437	0.0134259
657.515	0.0135970
657.593	0.0136126
657.671	0.0133768
657.749	0.0135360
657.828	0.0135184
657.906	0.0135548
657.984	0.0134964
658.062	0.0136724
658.140	0.0135494
658.218	0.0135596
658.296	0.0135242
658.374	0.0134791
658.453	0.0135516
658.531	0.0135888
658.609	0.0135609
658.687	0.0134512
658.765	0.0134499
658.843	0.0135892
658.921	0.0134547
658.999	0.0135425
659.078	0.0135806
659.156	0.0134935
659.234	0.0135152
659.312	0.0135843
659.390	0.0135020
659.468	0.0134260
659.546	0.0136154
659.624	0.0136877
659.703	0.0134940
659.781	0.0134921
659.859	0.0133836
659.937	0.0134789
660.015	0.0135986
660.093	0.0135690
660.171	0.0136429
660.249	0.0134615
660.328	0.0134669
660.406	0.0134553
660.484	0.0134933
660.562	0.0134544
660.640	0.0134811
660.718	0.0134691
660.796	0.0133688
660.874	0.0136869
660.953	0.0135225
661.031	0.0134425
661.109	0.0133968
661.187	0.0133887
661.265	0.0134818
661.343	0.0135145
661.421	0.0135595
661.499	0.0135237
661.578	0.0135603
661.656	0.0135725
661.734	0.0135927
661.812	0.0136066
661.890	0.0134234
661.968	0.0134962
662.046	0.0134915
662.124	0.0135116
662.203	0.0136254
662.281	0.0134608
662.359	0.0133947
662.437	0.0136301
662.515	0.0135911
662.593	0.0134505
662.671	0.0134702
662.749	0.0135370
662.828	0.0135660
662.906	0.0135024
662.984	0.0134042
663.062	0.0134565
663.140	0.0134177
663.218	0.0134669
663.296	0.0135014
663.374	0.0133801
663.453	0.0135149
663.531	0.0134296
663.609	0.0135046
663.687	0.0134665
663.765	0.0133756
663.843	0.0134378
663.921	0.0134885
663.999	0.0135204
664.078	0.0135208
664.156	0.0135119
664.234	0.0134000
664.312	0.0134543
664.390	0.0135094
664.468	0.0135945
664.546	0.0136066
664.624	0.0135498
664.703	0.0134387
664.781	0.0133266
664.859	0.0133667
664.937	0.0134552
665.015	0.0135809
665.093	0.0134901
665.171	0.0134512
665.249	0.0135238
665.328	0.0134254
665.406	0.0134992
665.484	0.0134487
665.562	0.0135390
665.640	0.0134898
665.718	0.0135287
665.796	0.0135534
665.874	0.0136976
665.953	0.0134413
666.031	0.0133038
666.109	0.0134431
666.187	0.0134284
666.265	0.0134066
666.343	0.0134543
666.421	0.0133972
666.499	0.0134295
666.578	0.0134812
666.656	0.0134002
666.734	0.0134140
666.812	0.0134413
666.890	0.0134171
666.968	0.0133881
667.046	0.0134934
667.124	0.0134669
667.203	0.0134053
667.281	0.0135223
667.359	0.0135991
667.437	0.0134308
667.515	0.0134598
667.593	0.0134890
667.671	0.0136174
667.749	0.0135828
667.828	0.0135759
667.906	0.0134969
667.984	0.0134567
668.062	0.0134211
668.140	0.0133736
668.218	0.0134977
668.296	0.0135701
668.374	0.0133541
668.453	0.0133148
668.531	0.0136605
668.609	0.0134274
668.687	0.0135569
668.765	0.0135969
668.843	0.0133799
668.921	0.0135773
668.999	0.0135978
669.078	0.0135735
669.156	0.0134897
669.234	0.0135415
669.312	0.0134705
669.390	0.0136636
669.468	0.0135410
669.546	0.0134358
669.624	0.0134380
669.703	0.0133922
669.781	0.0133617
669.859	0.0135448
669.937	0.0135444
670.015	0.0134526
670.093	0.0136404
670.171	0.0134389
670.249	0.0136320
670.328	0.0134756
670.406	0.0133614
670.484	0.0136065
670.562	0.0135820
670.640	0.0134698
670.718	0.0132700
670.796	0.0135154
670.874	0.0135681
670.953	0.0134074
671.031	0.0135140
671.109	0.0133674
671.187	0.0135290
671.265	0.0134480
671.343	0.0134641
671.421	0.0134496
671.499	0.0134004
671.578	0.0135266
671.656	0.0133727
671.734	0.0134000
671.812	0.0133131
671.890	0.0134547
671.968	0.0134137
672.046	0.0132980
672.124	0.0133144
672.203	0.0135296
672.281	0.0135313
672.359	0.0135413
672.437	0.0135018
672.515	0.0135249
672.593	0.0134328
672.671	0.0134790
672.749	0.0133497
672.828	0.0134637
672.906	0.0136140
672.984	0.0134924
673.062	0.0135130
673.140	0.0135665
673.218	0.0135703
673.296	0.0134979
673.374	0.0134655
673.453	0.0134011
673.531	0.0135553
673.609	0.0134801
673.687	0.0133653
673.765	0.0135662
673.843	0.0134937
673.921	0.0135425
673.999	0.0134615
674.078	0.0134454
674.156	0.0135326
674.234	0.0136452
674.312	0.0133835
674.390	0.0135247
674.468	0.0135566
674.546	0.0135492
674.624	0.0135641
674.703	0.0135909
674.781	0.0135801
674.859	0.0135502
674.937	0.0135001
675.015	0.0134153
675.093	0.0133913
675.171	0.0134663
675.249	0.0134061
675.328	0.0132946
675.406	0.0134536
675.484	0.0136184
675.562	0.0135689
675.640	0.0135310
675.718	0.0134738
675.796	0.0135877
675.874	0.0134433
675.953	0.0135368
676.031	0.0135156
676.109	0.0136164
676.187	0.0135310
676.265	0.0135368
676.343	0.0136011
676.421	0.0136163
676.499	0.0134191
676.578	0.0134433
676.656	0.0134695
676.734	0.0133788
676.812	0.0133561
676.890	0.0134533
676.968	0.0133994
677.046	0.0134287
677.124	0.0133486
677.203	0.0133334
677.281	0.0133244
677.359	0.0135419
677.437	0.0134971
677.515	0.0134045
677.593	0.0136509
677.671	0.0136050
677.749	0.0134844
677.828	0.0135287
677.906	0.0135477
677.984	0.0134326
678.062	0.0134843
678.140	0.0136233
678.218	0.0135486
678.296	0.0134511
678.374	0.0135544
678.453	0.0135378
678.531	0.0136219
678.609	0.0134950
678.687	0.0134801
678.765	0.0133309
678.843	0.0133634
678.921	0.0134571
678.999	0.0133849
679.078	0.0132805
679.156	0.0131931
679.234	0.0131560
679.312	0.0132490
679.390	0.0134846
679.468	0.0132320
679.546	0.0134010
679.624	0.0132160
679.703	0.0131891
679.781	0.0133685
679.859	0.0132915
679.937	0.0133706
680.015	0.0133685
680.093	0.0135094
680.171	0.0136704
680.249	0.0136265
680.328	0.0135462
680.406	0.0136676
680.484	0.0137315
680.562	0.0138825
680.640	0.0138284
680.718	0.0137186
680.796	0.0137213
680.874	0.0137309
680.953	0.0136149
681.031	0.0137012
681.109	0.0136359
681.187	0.0135301
681.265	0.0135720
681.343	0.0134169
681.421	0.0136398
681.499	0.0134611
681.578	0.0133698
681.656	0.0134468
681.734	0.0134418
681.812	0.0132726
681.890	0.0133202
681.968	0.0132229
682.046	0.0132447
682.124	0.0133051
682.203	0.0134589
682.281	0.0132629
682.359	0.0133951
682.437	0.0134827
682.515	0.0133745
682.593	0.0132331
682.671	0.0131815
682.749	0.0133713
682.828	0.0132723
682.906	0.0132822
682.984	0.0130510
683.062	0.0132260
683.140	0.0133411
683.218	0.0133638
683.296	0.0133498
683.374	0.0133051
683.453	0.0133939
683.531	0.0134830
683.609	0.0136187
683.687	0.0137474
683.765	0.0136209
683.843	0.0136480
683.921	0.0138068
683.999	0.0137865
684.078	0.0138371
684.156	0.0136230
684.234	0.0137584
684.312	0.0138735
684.390	0.0139384
684.468	0.0138275
684.546	0.0139018
684.624	0.0138443
684.703	0.0139339
684.781	0.0139593
684.859	0.0139410
684.937	0.0139444
685.015	0.0141643
685.093	0.0143375
685.171	0.0141049
685.249	0.0141167
685.328	0.0139886
685.406	0.0139716
685.484	0.0139156
685.562	0.0137943
685.640	0.0135063
685.718	0.0132311
685.796	0.0129460
685.874	0.0126406
685.953	0.0121569
686.031	0.0121523
686.109	0.0118649
686.187	0.0117926
686.265	0.0119032
686.343	0.0119073
686.421	0.0119606
686.499	0.0120962
686.578	0.0122768
686.656	0.0125062
686.734	0.0127113
686.812	0.0130445
686.890	0.0132197
686.968	0.0135683
687.046	0.0138215
687.124	0.0139593
687.203	0.0143460
687.281	0.0144817
687.359	0.0144614
687.437	0.0146338
687.515	0.0145946
687.593	0.0145937
687.671	0.0144077
687.749	0.0145123
687.828	0.0144404
687.906	0.0141934
687.984	0.0141602
688.062	0.0141211
688.140	0.0141329
688.218	0.0142097
688.296	0.0141292
688.374	0.0139340
688.453	0.0139358
688.531	0.0141769
688.609	0.0142136
688.687	0.0142500
688.765	0.0143310
688.843	0.0143845
688.921	0.0144669
688.999	0.0143356
689.078	0.0143234
689.156	0.0142276
689.234	0.0140780
689.312	0.0138331
689.390	0.0135325
689.468	0.0131900
689.546	0.0128302
689.624	0.0124134
689.703	0.0120285
689.781	0.0117515
689.859	0.0114021
689.937	0.0110561
690.015	0.0108607
690.093	0.0106441
690.171	0.0107078
690.249	0.0108126
690.328	0.0110727
690.406	0.0111866
690.484	0.0115243
690.562	0.0119651
690.640	0.0122480
690.718	0.0126480
690.796	0.0128201
690.874	0.0135582
690.953	0.0138956
691.031	0.0142709
691.109	0.0145658
691.187	0.0150043
691.265	0.0151434
691.343	0.0152859
691.421	0.0154775
691.499	0.0155959
691.578	0.0157468
691.656	0.0155401
691.734	0.0156134
691.812	0.0154700
691.890	0.0153722
691.968	0.0152699
692.046	0.0152090
692.124	0.0150068
692.203	0.0149202
692.281	0.0146832
692.359	0.0145787
692.437	0.0144569
692.515	0.0142434
692.593	0.0142153
692.671	0.0142243
692.749	0.0140675
692.828	0.0139951
692.906	0.0138368
692.984	0.0136502
693.062	0.0134805
693.140	0.0132549
693.218	0.0129836
693.296	0.0126209
693.374	0.0123237
693.453	0.0118604
693.531	0.0116941
693.609	0.0112656
693.687	0.0109532
693.765	0.0107256
693.843	0.0102483
693.921	0.0102780
693.999	0.0103303
694.078	0.0103912
694.156	0.0104892
694.234	0.0107905
694.312	0.0109279
694.390	0.0114735
694.468	0.0118684
694.546	0.0125560
694.624	0.0131403
694.703	0.0133831
694.781	0.0140008
694.859	0.0143561
694.937	0.0147630
695.015	0.0150893
695.093	0.0155909
695.171	0.0158186
695.249	0.0159472
695.328	0.0161299
695.406	0.0161372
695.484	0.0161212
695.562	0.0160902
695.640	0.0158302
695.718	0.0156702
695.796	0.0156777
695.874	0.0154199
695.953	0.0152404
696.031	0.0151047
696.109	0.0147095
696.187	0.0145354
696.265	0.0141947
696.343	0.0140570
696.421	0.0139912
696.499	0.0136937
696.578	0.0136897
696.656	0.0135475
696.734	0.0134550
696.812	0.0135729
696.890	0.0133353
696.968	0.0132439
697.046	0.0131075
697.124	0.0131118
697.203	0.0128198
697.281	0.0127409
697.359	0.0125773
697.437	0.0122456
697.515	0.0120064
697.593	0.0118179
697.671	0.0117783
697.749	0.0115974
697.828	0.0113536
697.906	0.0112903
697.984	0.0111608
698.062	0.0111580
698.140	0.0112016
698.218	0.0113907
698.296	0.0113775
698.374	0.0117481
698.453	0.0120547
698.531	0.0123006
698.609	0.0125924
698.687	0.0130773
698.765	0.0134306
698.843	0.0136845
698.921	0.0140141
698.999	0.0143447
699.078	0.0146261
699.156	0.0148872
699.234	0.0149783
699.312	0.0152892
699.390	0.0153001
699.468	0.0152932
699.546	0.0154757
699.624	0.0152686
699.703	0.0153227
699.781	0.0153612
699.859	0.0151102
699.937	0.0150105
700.015	0.0149106
700.093	0.0148669
700.171	0.0147398
700.249	0.0145435
700.328	0.0144637
700.406	0.0142313
700.484	0.0141782
700.562	0.0140674
700.640	0.0139445
700.718	0.0140018
700.796	0.0138074
700.874	0.0137807
700.953	0.0136572
701.031	0.0136840
701.109	0.0137391
701.187	0.0133954
701.265	0.0133051
701.343	0.0131427
701.421	0.0128508
701.499	0.0128439
701.578	0.0125425
701.656	0.0122011
701.734	0.0119561
701.812	0.0117740
701.890	0.0114962
701.968	0.0112022
702.046	0.0111716
702.124	0.0111319
702.203	0.0111069
702.281	0.0111535
702.359	0.0112906
702.437	0.0115165
702.515	0.0116525
702.593	0.0118307
702.671	0.0121478
702.749	0.0127419
702.828	0.0131054
702.906	0.0133019
702.984	0.0136285
703.062	0.0139860
703.140	0.0140784
703.218	0.0144128
703.296	0.0145624
703.374	0.0146394
703.453	0.0147199
703.531	0.0149934
703.609	0.0148737
703.687	0.0148949
703.765	0.0149262
703.843	0.0150510
703.921	0.0150471
703.999	0.0149993
704.078	0.0150890
704.156	0.0149647
704.234	0.0148701
704.312	0.0148828
704.390	0.0147909
704.468	0.0146842
704.546	0.0146832
704.624	0.0145581
704.703	0.0143166
704.781	0.0142261
704.859	0.0141199
704.937	0.0139529
705.015	0.0137399
705.093	0.0135505
705.171	0.0132887
705.249	0.0130668
705.328	0.0127450
705.406	0.0125992
705.484	0.0123077
705.562	0.0120860
705.640	0.0120232
705.718	0.0116054
705.796	0.0113730
705.874	0.0114121
705.953	0.0114032
706.031	0.0114964
706.109	0.0115336
706.187	0.0116864
706.265	0.0118579
706.343	0.0120453
706.421	0.0123450
706.499	0.0125298
706.578	0.0128975
706.656	0.0131483
706.734	0.0132958
706.812	0.0135873
706.890	0.0137846
706.968	0.0139818
707.046	0.0141219
707.124	0.0140630
707.203	0.0140763
707.281	0.0142642
707.359	0.0142178
707.437	0.0141963
707.515	0.0140892
707.593	0.0141379
707.671	0.0142144
707.749	0.0142514
707.828	0.0143549
707.906	0.0143284
707.984	0.0143330
708.062	0.0144081
708.140	0.0144108
708.218	0.0144489
708.296	0.0145441
708.374	0.0143419
708.453	0.0144386
708.531	0.0144875
708.609	0.0143047
708.687	0.0142170
708.765	0.0139830
708.843	0.0138467
708.921	0.0136941
708.999	0.0135789
709.078	0.0133758
709.156	0.0132880
709.234	0.0132376
709.312	0.0129726
709.390	0.0127885
709.468	0.0126797
709.546	0.0127079
709.624	0.0126324
709.703	0.0124789
709.781	0.0124585
709.859	0.0123870
709.937	0.0123940
710.015	0.0126086
710.093	0.0126317
710.171	0.0127332
710.249	0.0129344
710.328	0.0127550
710.406	0.0131834
710.484	0.0133729
710.562	0.0134547
710.640	0.0136232
710.718	0.0135937
710.796	0.0136452
710.874	0.0139124
710.953	0.0137741
711.031	0.0137947
711.109	0.0137678
711.187	0.0137992
711.265	0.0136901
711.343	0.0136335
711.421	0.0136724
711.499	0.0135221
711.578	0.0134052
711.656	0.0135451
711.734	0.0132159
711.812	0.0133257
711.890	0.0135939
711.968	0.0135414
712.046	0.0137442
712.124	0.0136976
712.203	0.0138062
712.281	0.0139220
712.359	0.0140986
712.437	0.0139942
712.515	0.0142191
712.593	0.0143048
712.671	0.0141375
712.749	0.0141905
712.828	0.0141821
712.906	0.0140455
712.984	0.0139133
713.062	0.0137932
713.140	0.0138099
713.218	0.0135856
713.296	0.0134244
713.374	0.0133421
713.453	0.0133450
713.531	0.0131253
713.609	0.0128888
713.687	0.0129153
713.765	0.0127280
713.843	0.0128158
713.921	0.0127168
713.999	0.0128918
714.078	0.0130908
714.156	0.0130901
714.234	0.0131142
714.312	0.0133499
714.390	0.0134447
714.468	0.0135860
714.546	0.0136569
714.624	0.0138556
714.703	0.0142384
714.781	0.0143925
714.859	0.0143128
714.937	0.0143605
715.015	0.0143440
715.093	0.0142176
715.171	0.0141689
715.249	0.0139669
715.328	0.0137743
715.406	0.0135348
715.484	0.0135584
715.562	0.0132875
715.640	0.0130485
715.718	0.0130740
715.796	0.0128111
715.874	0.0125734
715.953	0.0127420
716.031	0.0127608
716.109	0.0127431
716.187	0.0128293
716.265	0.0129309
716.343	0.0129253
716.421	0.0131718
716.499	0.0132796
716.578	0.0133658
716.656	0.0135439
716.734	0.0134574
716.812	0.0136008
716.890	0.0136849
716.968	0.0135469
717.046	0.0137241
717.124	0.0137854
717.203	0.0137320
717.281	0.0136720
717.359	0.0135936
717.437	0.0136864
717.515	0.0135482
717.593	0.0133562
717.671	0.0135353
717.749	0.0135506
717.828	0.0134514
717.906	0.0133398
717.984	0.0135340
718.062	0.0133884
718.140	0.0136158
718.218	0.0137908
718.296	0.0137392
718.374	0.0139104
718.453	0.0141309
718.531	0.0141370
718.609	0.0142332
718.687	0.0143580
718.765	0.0143362
718.843	0.0143840
718.921	0.0142740
718.999	0.0142037
719.078	0.0142090
719.156	0.0141810
719.234	0.0139247
719.312	0.0135993
719.390	0.0134906
719.468	0.0132046
719.546	0.0131959
719.624	0.0128807
719.703	0.0127857
719.781	0.0126044
719.859	0.0125897
719.937	0.0125043
720.015	0.0124702
720.093	0.0125897
720.171	0.0126607
720.249	0.0127246
720.328	0.0128909
720.406	0.0129943
720.484	0.0131633
720.562	0.0133327
720.640	0.0135380
720.718	0.0136245
720.796	0.0136647
720.874	0.0138470
720.953	0.0138882
721.031	0.0138808
721.109	0.0138755
721.187	0.0136644
721.265	0.0138004
721.343	0.0138181
721.421	0.0136388
721.499	0.0136279
721.578	0.0135738
721.656	0.0134605
721.734	0.0133066
721.812	0.0133855
721.890	0.0134633
721.968	0.0133190
722.046	0.0132927
722.124	0.0134451
722.203	0.0134901
722.281	0.0134949
722.359	0.0135464
722.437	0.0136881
722.515	0.0136793
722.593	0.0137421
722.671	0.0138061
722.749	0.0139024
722.828	0.0138933
722.906	0.0138297
722.984	0.0137027
723.062	0.0137673
723.140	0.0137447
723.218	0.0135061
723.296	0.0136134
723.374	0.0134218
723.453	0.0131599
723.531	0.0129938
723.609	0.0129218
723.687	0.0129045
723.765	0.0126320
723.843	0.0126486
723.921	0.0126072
723.999	0.0126011
724.078	0.0125428
724.156	0.0126507
724.234	0.0126697
724.312	0.0126599
724.390	0.0130900
724.468	0.0131666
724.546	0.0132215
724.624	0.0135432
724.703	0.0136754
724.781	0.0138081
724.859	0.0141095
724.937	0.0142651
725.015	0.0142741
725.093	0.0143803
725.171	0.0144553
725.249	0.0144698
725.328	0.0143981
725.406	0.0144676
725.484	0.0144326
725.562	0.0141928
725.640	0.0142186
725.718	0.0141221
725.796	0.0139802
725.874	0.0139560
725.953	0.0137790
726.031	0.0138550
726.109	0.0137376
726.187	0.0136528
726.265	0.0136439
726.343	0.0136379
726.421	0.0134982
726.499	0.0135413
726.578	0.0134730
726.656	0.0135622
726.734	0.0135330
726.812	0.0134038
726.890	0.0134376
726.968	0.0134633
727.046	0.0133104
727.124	0.0131184
727.203	0.0131554
727.281	0.0129533
727.359	0.0128252
727.437	0.0126715
727.515	0.0127020
727.593	0.0126308
727.671	0.0126109
727.749	0.0125607
727.828	0.0125919
727.906	0.0124998
727.984	0.0125563
728.062	0.0125792
728.140	0.0126497
728.218	0.0127991
728.296	0.0129267
728.374	0.0130396
728.453	0.0131123
728.531	0.0133822
728.609	0.0134626
728.687	0.0135688
728.765	0.0137642
728.843	0.0140240
728.921	0.0142432
728.999	0.0143020
729.078	0.0144691
729.156	0.0145452
729.234	0.0145865
729.312	0.0146754
729.390	0.0146088
729.468	0.0145721
729.546	0.0144799
729.624	0.0144270
729.703	0.0144534
729.781	0.0141819
729.859	0.0140055
729.937	0.0139886
730.015	0.0138354
730.093	0.0138094
730.171	0.0136133
730.249	0.0134968
730.328	0.0134678
730.406	0.0134653
730.484	0.0133999
730.562	0.0133290
730.640	0.0133802
730.718	0.0133356
730.796	0.0132896
730.874	0.0133501
730.953	0.0132347
731.031	0.0130957
731.109	0.0131627
731.187	0.0130712
731.265	0.0130998
731.343	0.0128831
731.421	0.0129343
731.499	0.0130653
731.578	0.0128197
731.656	0.0126788
731.734	0.0128614
731.812	0.0127683
731.890	0.0127927
731.968	0.0127055
732.046	0.0128211
732.124	0.0130546
732.203	0.0130167
732.281	0.0130135
732.359	0.0132147
732.437	0.0132959
732.515	0.0134403
732.593	0.0136261
732.671	0.0136431
732.749	0.0139151
732.828	0.0140279
732.906	0.0141826
732.984	0.0141390
733.062	0.0142717
733.140	0.0143465
733.218	0.0142810
733.296	0.0144050
733.374	0.0142928
733.453	0.0143340
733.531	0.0141744
733.609	0.0141665
733.687	0.0140920
733.765	0.0138971
733.843	0.0138267
733.921	0.0137892
733.999	0.0137209
734.078	0.0137270
734.156	0.0136678
734.234	0.0135339
734.312	0.0133548
734.390	0.0134525
734.468	0.0132388
734.546	0.0133243
734.624	0.0132850
734.703	0.0131219
734.781	0.0131899
734.859	0.0131646
734.937	0.0131948
735.015	0.0129407
735.093	0.0130177
735.171	0.0130367
735.249	0.0130840
735.328	0.0130658
735.406	0.0130766
735.484	0.0130441
735.562	0.0130449
735.640	0.0130038
735.718	0.0130994
735.796	0.0131839
735.874	0.0131272
735.953	0.0131558
736.031	0.0132851
736.109	0.0132742
736.187	0.0133956
736.265	0.0135741
736.343	0.0135153
736.421	0.0136550
736.499	0.0138708
736.578	0.0139731
736.656	0.0141126
736.734	0.0141948
736.812	0.0142810
736.890	0.0142669
736.968	0.0142850
737.046	0.0144231
737.124	0.0144137
737.203	0.0143206
737.281	0.0142702
737.359	0.0143514
737.437	0.0142982
737.515	0.0139676
737.593	0.0139037
737.671	0.0140378
737.749	0.0137498
737.828	0.0137522
737.906	0.0134841
737.984	0.0133834
738.062	0.0133289
738.140	0.0132709
738.218	0.0131776
738.296	0.0130844
738.374	0.0128991
738.453	0.0127982
738.531	0.0129660
738.609	0.0129163
738.687	0.0127395
738.765	0.0126659
738.843	0.0127663
738.921	0.0127247
738.999	0.0128326
739.078	0.0127439
739.156	0.0128049
739.234	0.0128297
739.312	0.0128770
739.390	0.0129546
739.468	0.0130106
739.546	0.0130580
739.624	0.0130386
739.703	0.0131715
739.781	0.0132171
739.859	0.0132767
739.937	0.0133228
740.015	0.0134379
740.093	0.0136704
740.171	0.0136950
740.249	0.0137825
740.328	0.0139220
740.406	0.0139983
740.484	0.0141080
740.562	0.0142266
740.640	0.0142635
740.718	0.0141952
740.796	0.0142816
740.874	0.0144637
740.953	0.0144523
741.031	0.0144303
741.109	0.0143977
741.187	0.0142348
741.265	0.0142203
741.343	0.0142086
741.421	0.0141291
741.499	0.0140577
741.578	0.0140071
741.656	0.0140207
741.734	0.0137764
741.812	0.0137044
741.890	0.0134439
741.968	0.0133389
742.046	0.0134097
742.124	0.0131595
742.203	0.0130861
742.281	0.0131072
742.359	0.0130037
742.437	0.0128278
742.515	0.0128562
742.593	0.0126579
742.671	0.0125845
742.749	0.0127127
742.828	0.0127070
742.906	0.0128104
742.984	0.0127337
743.062	0.0129719
743.140	0.0129772
743.218	0.0128723
743.296	0.0130090
743.374	0.0130061
743.453	0.0131122
743.531	0.0132623
743.609	0.0134266
743.687	0.0133333
743.765	0.0133282
743.843	0.0135320
743.921	0.0134258
743.999	0.0135075
744.078	0.0136185
744.156	0.0137363
744.234	0.0137001
744.312	0.0138711
744.390	0.0138915
744.468	0.0137568
744.546	0.0138651
744.624	0.0138666
744.703	0.0139320
744.781	0.0140935
744.859	0.0141826
744.937	0.0141981
745.015	0.0142703
745.093	0.0140405
745.171	0.0140447
745.249	0.0141108
745.328	0.0138963
745.406	0.0139075
745.484	0.0138410
745.562	0.0138023
745.640	0.0137354
745.718	0.0135363
745.796	0.0135238
745.874	0.0134248
745.953	0.0133748
746.031	0.0131384
746.109	0.0130045
746.187	0.0129915
746.265	0.0127892
746.343	0.0128101
746.421	0.0128636
746.499	0.0127311
746.578	0.0126103
746.656	0.0126768
746.734	0.0126830
746.812	0.0128601
746.890	0.0128023
746.968	0.0128686
747.046	0.0128793
747.124	0.0129232
747.203	0.0129322
747.281	0.0130247
747.359	0.0131945
747.437	0.0133131
747.515	0.0134263
747.593	0.0135065
747.671	0.0135978
747.749	0.0137584
747.828	0.0138081
747.906	0.0139500
747.984	0.0139344
748.062	0.0138417
748.140	0.0138948
748.218	0.0139528
748.296	0.0140778
748.374	0.0140053
748.453	0.0139647
748.531	0.0139420
748.609	0.0138928
748.687	0.0139593
748.765	0.0138325
748.843	0.0138673
748.921	0.0138194
748.999	0.0137830
749.078	0.0136491
749.156	0.0138223
749.234	0.0136816
749.312	0.0136848
749.390	0.0136761
749.468	0.0136322
749.546	0.0135849
749.624	0.0133027
749.703	0.0133958
749.781	0.0134937
749.859	0.0133154
749.937	0.0131911
750.015	0.0130576
750.093	0.0130435
750.171	0.0130274
750.249	0.0130346
750.328	0.0130194
750.406	0.0128971
750.484	0.0128213
750.562	0.0128788
750.640	0.0127325
750.718	0.0128850
750.796	0.0128174
750.874	0.0128972
750.953	0.0129317
751.031	0.0131865
751.109	0.0132224
751.187	0.0132277
751.265	0.0133234
751.343	0.0133440
751.421	0.0135158
751.499	0.0135788
751.578	0.0137231
751.656	0.0136657
751.734	0.0137806
751.812	0.0138345
751.890	0.0139197
751.968	0.0138181
752.046	0.0137848
752.124	0.0138108
752.203	0.0139633
752.281	0.0140189
752.359	0.0139886
752.437	0.0139542
752.515	0.0139590
752.593	0.0137773
752.671	0.0140450
752.749	0.0138329
752.828	0.0136930
752.906	0.0138633
752.984	0.0138461
753.062	0.0137560
753.140	0.0137027
753.218	0.0137598
753.296	0.0136205
753.374	0.0136211
753.453	0.0135863
753.531	0.0135218
753.609	0.0133570
753.687	0.0132413
753.765	0.0132552
753.843	0.0132974
753.921	0.0131123
753.999	0.0132255
754.078	0.0130437
754.156	0.0129805
754.234	0.0129276
754.312	0.0128485
754.390	0.0128338
754.468	0.0129173
754.546	0.0128735
754.624	0.0128442
754.703	0.0127277
754.781	0.0129920
754.859	0.0130638
754.937	0.0130878
755.015	0.0130680
755.093	0.0132108
755.171	0.0133415
755.249	0.0133215
755.328	0.0133599
755.406	0.0136814
755.484	0.0135876
755.562	0.0137267
755.640	0.0137713
755.718	0.0139338
755.796	0.0137956
755.874	0.0138074
755.953	0.0138931
756.031	0.0139915
756.109	0.0138859
756.187	0.0137715
756.265	0.0138192
756.343	0.0138844
756.421	0.0136509
756.499	0.0136134
756.578	0.0136549
756.656	0.0136947
756.734	0.0136217
756.812	0.0136501
756.890	0.0135688
756.968	0.0135697
757.046	0.0135870
757.124	0.0135704
757.203	0.0135311
757.281	0.0135899
757.359	0.0133681
757.437	0.0133263
757.515	0.0132277
757.593	0.0132535
757.671	0.0132665
757.749	0.0131921
757.828	0.0132613
757.906	0.0133044
757.984	0.0130869
758.062	0.0130545
758.140	0.0131208
758.218	0.0129871
758.296	0.0129165
758.374	0.0127595
758.453	0.0127113
758.531	0.0129622
758.609	0.0130339
758.687	0.0130775
758.765	0.0128387
758.843	0.0132108
758.921	0.0133709
758.999	0.0132220
759.078	0.0133112
759.156	0.0133681
759.234	0.0136273
759.312	0.0135315
759.390	0.0136599
759.468	0.0138976
759.546	0.0137594
759.624	0.0137047
759.703	0.0138754
759.781	0.0137882
759.859	0.0139211
759.937	0.0137695
760.015	0.0137711
760.093	0.0138809
760.171	0.0138314
760.249	0.0138764
760.328	0.0137392
760.406	0.0137555
760.484	0.0137634
760.562	0.0137579
760.640	0.0136781
760.718	0.0135334
760.796	0.0136160
760.874	0.0137701
760.953	0.0136723
761.031	0.0134171
761.109	0.0132864
761.187	0.0134370
761.265	0.0132504
761.343	0.0132987
761.421	0.0129951
761.499	0.0131539
761.578	0.0131490
761.656	0.0131100
761.734	0.0130379
761.812	0.0131418
761.890	0.0132014
761.968	0.0131564
762.046	0.0130953
762.124	0.0133013
762.203	0.0132281
762.281	0.0132719
762.359	0.0131814
762.437	0.0133023
762.515	0.0132820
762.593	0.0132374
762.671	0.0133153
762.749	0.0134122
762.828	0.0134481
762.906	0.0134377
762.984	0.0134830
763.062	0.0134513
763.140	0.0133901
763.218	0.0132962
763.296	0.0133253
763.374	0.0133548
763.453	0.0134411
763.531	0.0135390
763.609	0.0134930
763.687	0.0136368
763.765	0.0135850
763.843	0.0137284
763.921	0.0136897
763.999	0.0137406
764.078	0.0137685
764.156	0.0136827
764.234	0.0138543
764.312	0.0136378
764.390	0.0137206
764.468	0.0137394
764.546	0.0137670
764.624	0.0137228
764.703	0.0135865
764.781	0.0135648
764.859	0.0136073
764.937	0.0134801
765.015	0.0133350
765.093	0.0134120
765.171	0.0132332
765.249	0.0133163
765.328	0.0132100
765.406	0.0133571
765.484	0.0132170
765.562	0.0132437
765.640	0.0131309
765.718	0.0132966
765.796	0.0131928
765.874	0.0131480
765.953	0.0130731
766.031	0.0133003
766.109	0.0130315
766.187	0.0130844
766.265	0.0131635
766.343	0.0131301
766.421	0.0130836
766.499	0.0131892
766.578	0.0132244
766.656	0.0132669
766.734	0.0133997
766.812	0.0135203
766.890	0.0136269
766.968	0.0134655
767.046	0.0135913
767.124	0.0135693
767.203	0.0135316
767.281	0.0135156
767.359	0.0135496
767.437	0.0136022
767.515	0.0134494
767.593	0.0136945
767.671	0.0135688
767.749	0.0136716
767.828	0.0136503
767.906	0.0136652
767.984	0.0137504
768.062	0.0137488
768.140	0.0137159
768.218	0.0138006
768.296	0.0137923
768.374	0.0137840
768.453	0.0138615
768.531	0.0137350
768.609	0.0135999
768.687	0.0138726
768.765	0.0137799
768.843	0.0135261
768.921	0.0133366
768.999	0.0133006
769.078	0.0131711
769.156	0.0131046
769.234	0.0131561
769.312	0.0130869
769.390	0.0129693
769.468	0.0129399
769.546	0.0129778
769.624	0.0130256
769.703	0.0130962
769.781	0.0131068
769.859	0.0132399
769.937	0.0130516
770.015	0.0133665
770.093	0.0133646
770.171	0.0133046
770.249	0.0133737
770.328	0.0133190
770.406	0.0136161
770.484	0.0134879
770.562	0.0135963
770.640	0.0135802
770.718	0.0135493
770.796	0.0135282
770.874	0.0136163
770.953	0.0136221
771.031	0.0136370
771.109	0.0135395
771.187	0.0135273
771.265	0.0136390
771.343	0.0136713
771.421	0.0136713
771.499	0.0136665
771.578	0.0138584
771.656	0.0139025
771.734	0.0137106
771.812	0.0138799
771.890	0.0137974
771.968	0.0137530
772.046	0.0137679
772.124	0.0136437
772.203	0.0137678
772.281	0.0137093
772.359	0.0136476
772.437	0.0134510
772.515	0.0136343
772.593	0.0133498
772.671	0.0132854
772.749	0.0133879
772.828	0.0134199
772.906	0.0133807
772.984	0.0132712
773.062	0.0132088
773.140	0.0132810
773.218	0.0132016
773.296	0.0130133
773.374	0.0127582
773.453	0.0129211
773.531	0.0129913
773.609	0.0129240
773.687	0.0128136
773.765	0.0128378
773.843	0.0127466
773.921	0.0130102
773.999	0.0130840
774.078	0.0132024
774.156	0.0134185
774.234	0.0135648
774.312	0.0135663
774.390	0.0136715
774.468	0.0138181
774.546	0.0139236
774.624	0.0139607
774.703	0.0139288
774.781	0.0140990
774.859	0.0138885
774.937	0.0138167
775.015	0.0137588
775.093	0.0136245
775.171	0.0135582
775.249	0.0136490
775.328	0.0136385
775.406	0.0136580
775.484	0.0135336
775.562	0.0136300
775.640	0.0137109
775.718	0.0135785
775.796	0.0138116
775.874	0.0137116
775.953	0.0136036
776.031	0.0136543
776.109	0.0136351
776.187	0.0135038
776.265	0.0134817
776.343	0.0134364
776.421	0.0131639
776.499	0.0131624
776.578	0.0133769
776.656	0.0132413
776.734	0.0131689
776.812	0.0130932
776.890	0.0131137
776.968	0.0133074
777.046	0.0132277
777.124	0.0131742
777.203	0.0132458
777.281	0.0133000
777.359	0.0131161
777.437	0.0132451
777.515	0.0133827
777.593	0.0133308
777.671	0.0131777
777.749	0.0131335
777.828	0.0132354
777.906	0.0132420
777.984	0.0132442
778.062	0.0134042
778.140	0.0132687
778.218	0.0134552
778.296	0.0135486
778.374	0.0135163
778.453	0.0135642
778.531	0.0136954
778.609	0.0137731
778.687	0.0137030
778.765	0.0137833
778.843	0.0138496
778.921	0.0137112
778.999	0.0137250
779.078	0.0137264
779.156	0.0136507
779.234	0.0135564
779.312	0.0136120
779.390	0.0137142
779.468	0.0133859
779.546	0.0135386
779.624	0.0136268
779.703	0.0136046
779.781	0.0137497
779.859	0.0135950
779.937	0.0135464
780.015	0.0136158
780.093	0.0136175
780.171	0.0136435
780.249	0.0135297
780.328	0.0134969
780.406	0.0135464
780.484	0.0134581
780.562	0.0133054
780.640	0.0132741
780.718	0.0132233
780.796	0.0130605
780.874	0.0131325
780.953	0.0130879
781.031	0.0131609
781.109	0.0130302
781.187	0.0132056
781.265	0.0131643
781.343	0.0131023
781.421	0.0131774
781.499	0.0134128
781.578	0.0132600
781.656	0.0133027
781.734	0.0133575
781.812	0.0134592
781.890	0.0133630
781.968	0.0133155
782.046	0.0133313
782.124	0.0133151
782.203	0.0133672
782.281	0.0135873
782.359	0.0136363
782.437	0.0136755
782.515	0.0137360
782.593	0.0139004
782.671	0.0137742
782.749	0.0138367
782.828	0.0138111
782.906	0.0140380
782.984	0.0138187
783.062	0.0138864
783.140	0.0138775
783.218	0.0138562
783.296	0.0137735
783.374	0.0137467
783.453	0.0135817
783.531	0.0136303
783.609	0.0135191
783.687	0.0134902
783.765	0.0134245
783.843	0.0135181
783.921	0.0133161
783.999	0.0133590
784.078	0.0134148
784.156	0.0133860
784.234	0.0133558
784.312	0.0132540
784.390	0.0133691
784.468	0.0133776
784.546	0.0132790
784.624	0.0132657
784.703	0.0134428
784.781	0.0134052
784.859	0.0132734
784.937	0.0132499
785.015	0.0132845
785.093	0.0133842
785.171	0.0134344
785.249	0.0134779
785.328	0.0135004
785.406	0.0135808
785.484	0.0135864
785.562	0.0136450
785.640	0.0133839
785.718	0.0134831
785.796	0.0135030
785.874	0.0133904
785.953	0.0134718
786.031	0.0134795
786.109	0.0135568
786.187	0.0135029
786.265	0.0136014
786.343	0.0135990
786.421	0.0136731
786.499	0.0135631
786.578	0.0137183
786.656	0.0137476
786.734	0.0138222
786.812	0.0137352
786.890	0.0137241
786.968	0.0137682
787.046	0.0136995
787.124	0.0137792
787.203	0.0136445
787.281	0.0135808
787.359	0.0135033
787.437	0.0135836
787.515	0.0135682
787.593	0.0135757
787.671	0.0135850
787.749	0.0134798
787.828	0.0133789
787.906	0.0134296
787.984	0.0136539
788.062	0.0135037
788.140	0.0134710
788.218	0.0134256
788.296	0.0134621
788.374	0.0134248
788.453	0.0133375
788.531	0.0134808
788.609	0.0133795
788.687	0.0133392
788.765	0.0133990
788.843	0.0133336
788.921	0.0134398
788.999	0.0135171
789.078	0.0135518
789.156	0.0134838
789.234	0.0134711
789.312	0.0135068
789.390	0.0135040
789.468	0.0134475
789.546	0.0132475
789.624	0.0134046
789.703	0.0132474
789.781	0.0133346
789.859	0.0132060
789.937	0.0131911
790.015	0.0130856
790.093	0.0131299
790.171	0.0130137
790.249	0.0131470
790.328	0.0132597
790.406	0.0132355
790.484	0.0133883
790.562	0.0134295
790.640	0.0134672
790.718	0.0134671
790.796	0.0134179
790.874	0.0137212
790.953	0.0136240
791.031	0.0136551
791.109	0.0137327
791.187	0.0136973
791.265	0.0137141
791.343	0.0139777
791.421	0.0137415
791.499	0.0136626
791.578	0.0136153
791.656	0.0135873
791.734	0.0135614
791.812	0.0136720
791.890	0.0136367
791.968	0.0135357
792.046	0.0133373
792.124	0.0134583
792.203	0.0136118
792.281	0.0134410
792.359	0.0133802
792.437	0.0132973
792.515	0.0132887
792.593	0.0133047
792.671	0.0132468
792.749	0.0132675
792.828	0.0133022
792.906	0.0133302
792.984	0.0133735
793.062	0.0133126
793.140	0.0133807
793.218	0.0134451
793.296	0.0133628
793.374	0.0132858
793.453	0.0134498
793.531	0.0134317
793.609	0.0133823
793.687	0.0133848
793.765	0.0133941
793.843	0.0133950
793.921	0.0132684
793.999	0.0133556
794.078	0.0135078
794.156	0.0134165
794.234	0.0134334
794.312	0.0133360
794.390	0.0134559
794.468	0.0135520
794.546	0.0135502
794.624	0.0135181
794.703	0.0134657
794.781	0.0136660
794.859	0.0136303
794.937	0.0135368
795.015	0.0137389
795.093	0.0137537
795.171	0.0137617
795.249	0.0135273
795.328	0.0135056
795.406	0.0137505
795.484	0.0136848
795.562	0.0135545
795.640	0.0135123
795.718	0.0136720
795.796	0.0135322
795.874	0.0136198
795.953	0.0135536
796.031	0.0134840
796.109	0.0136050
796.187	0.0133823
796.265	0.0133044
796.343	0.0134498
796.421	0.0134221
796.499	0.0134077
796.578	0.0133115
796.656	0.0133659
796.734	0.0132909
796.812	0.0133616
796.890	0.0135388
796.968	0.0134158
797.046	0.0133406
797.124	0.0134562
797.203	0.0134840
797.281	0.0135578
797.359	0.0136442
797.437	0.0136101
797.515	0.0135239
797.593	0.0137177
797.671	0.0135610
797.749	0.0134525
797.828	0.0135356
797.906	0.0133842
797.984	0.0133212
798.062	0.0135283
798.140	0.0134954
798.218	0.0133055
798.296	0.0134187
798.374	0.0134792
798.453	0.0132736
798.531	0.0134035
798.609	0.0133535
798.687	0.0136152
798.765	0.0134873
798.843	0.0133028
798.921	0.0135020
798.999	0.0134845
799.078	0.0135667
799.156	0.0135617
799.234	0.0136592
799.312	0.0135387
799.390	0.0134130
799.468	0.0133812
799.546	0.0134090
799.624	0.0134617
799.703	0.0136240
799.781	0.0135149
799.859	0.0133989
799.937	0.0135181
800.015	0.0134923
800.093	0.0135302
800.171	0.0135303
800.249	0.0135397
800.328	0.0133371
800.406	0.0134377
800.484	0.0135141
800.562	0.0136327
800.640	0.0134303
800.718	0.0135715
800.796	0.0134358
800.874	0.0136140
800.953	0.0136103
801.031	0.0134691
801.109	0.0134023
801.187	0.0134082
801.265	0.0135091
801.343	0.0134029
801.421	0.0134833
801.499	0.0135532
801.578	0.0134639
801.656	0.0133936
801.734	0.0134836
801.812	0.0134797
801.890	0.0135589
801.968	0.0134966
802.046	0.0135551
802.124	0.0135484
802.203	0.0135326
802.281	0.0135317
802.359	0.0134815
802.437	0.0135277
802.515	0.0135403
802.593	0.0135844
802.671	0.0135724
802.749	0.0134949
802.828	0.0135138
802.906	0.0133910
802.984	0.0134850
803.062	0.0134428
803.140	0.0133976
803.218	0.0133965
803.296	0.0135107
803.374	0.0134784
803.453	0.0135232
803.531	0.0135740
803.609	0.0135244
803.687	0.0135091
803.765	0.0135038
803.843	0.0134667
803.921	0.0135476
803.999	0.0133787
804.078	0.0133832
804.156	0.0134386
804.234	0.0135519
804.312	0.0135188
804.390	0.0134692
804.468	0.0134540
804.546	0.0133961
804.624	0.0133871
804.703	0.0133886
804.781	0.0132948
804.859	0.0133194
804.937	0.0133713
805.015	0.0134121
805.093	0.0134684
805.171	0.0133733
805.249	0.0132594
805.328	0.0134002
805.406	0.0135894
805.484	0.0136603
805.562	0.0135047
805.640	0.0135184
805.718	0.0135015
805.796	0.0136875
805.874	0.0135412
805.953	0.0137332
806.031	0.0136065
806.109	0.0136823
806.187	0.0136104
806.265	0.0137596
806.343	0.0135178
806.421	0.0135345
806.499	0.0135357
806.578	0.0137128
806.656	0.0135258
806.734	0.0134577
806.812	0.0136182
806.890	0.0134872
806.968	0.0135818
807.046	0.0134244
807.124	0.0133887
807.203	0.0134431
807.281	0.0135777
807.359	0.0133825
807.437	0.0134357
807.515	0.0133913
807.593	0.0133536
807.671	0.0134084
807.749	0.0133965
807.828	0.0133489
807.906	0.0134367
807.984	0.0134251
808.062	0.0133716
808.140	0.0133041
808.218	0.0134592
808.296	0.0133977
808.374	0.0133591
808.453	0.0132076
808.531	0.0132865
808.609	0.0132798
808.687	0.0134435
808.765	0.0132146
808.843	0.0133655
808.921	0.0134684
808.999	0.0133078
809.078	0.0134373
809.156	0.0135377
809.234	0.0135271
809.312	0.0134737
809.390	0.0136208
809.468	0.0136581
809.546	0.0137790
809.624	0.0136596
809.703	0.0136817
809.781	0.0137493
809.859	0.0137202
809.937	0.0137611
810.015	0.0137354
810.093	0.0136217
810.171	0.0135928
810.249	0.0134972
810.328	0.0135167
810.406	0.0135628
810.484	0.0134428
810.562	0.0134718
810.640	0.0134322
810.718	0.0132810
810.796	0.0133633
810.874	0.0133702
810.953	0.0132560
811.031	0.0132941
811.109	0.0132954
811.187	0.0134949
811.265	0.0134206
811.343	0.0135747
811.421	0.0136672
811.499	0.0136407
811.578	0.0136788
811.656	0.0136731
811.734	0.0137631
811.812	0.0136813
811.890	0.0135893
811.968	0.0135355
812.046	0.0136692
812.124	0.0136102
812.203	0.0134580
812.281	0.0134180
812.359	0.0135831
812.437	0.0133806
812.515	0.0133919
812.593	0.0132806
812.671	0.0132578
812.749	0.0131969
812.828	0.0133110
812.906	0.0132780
812.984	0.0133423
813.062	0.0133292
813.140	0.0133579
813.218	0.0134848
813.296	0.0134212
813.374	0.0134798
813.453	0.0136811
813.531	0.0135712
813.609	0.0136459
813.687	0.0136054
813.765	0.0135755
813.843	0.0137828
813.921	0.0135732
813.999	0.0135506
814.078	0.0136784
814.156	0.0136209
814.234	0.0137117
814.312	0.0134678
814.390	0.0135531
814.468	0.0135892
814.546	0.0134307
814.624	0.0134499
814.703	0.0134990
814.781	0.0134484
814.859	0.0133772
814.937	0.0135500
815.015	0.0135366
815.093	0.0133336
815.171	0.0135067
815.249	0.0135094
815.328	0.0134064
815.406	0.0134917
815.484	0.0136489
815.562	0.0136076
815.640	0.0136250
815.718	0.0136069
815.796	0.0135291
815.874	0.0135676
815.953	0.0135410
816.031	0.0134924
816.109	0.0135278
816.187	0.0132417
816.265	0.0134058
816.343	0.0133929
816.421	0.0132751
816.499	0.0133803
816.578	0.0132898
816.656	0.0131413
816.734	0.0133611
816.812	0.0132819
816.890	0.0134241
816.968	0.0133570
817.046	0.0133501
817.124	0.0135397
817.203	0.0134520
817.281	0.0134195
817.359	0.0135641
817.437	0.0134764
817.515	0.0135408
817.593	0.0136156
817.671	0.0137589
817.749	0.0136519
817.828	0.0137434
817.906	0.0138305
817.984	0.0137268
818.062	0.0138170
818.140	0.0138507
818.218	0.0136246
818.296	0.0136109
818.374	0.0137189
818.453	0.0136530
818.531	0.0135986
818.609	0.0135516
818.687	0.0135681
818.765	0.0136469
818.843	0.0134615
818.921	0.0136258
818.999	0.0133886
819.078	0.0135501
819.156	0.0134758
819.234	0.0135694
819.312	0.0134714
819.390	0.0135797
819.468	0.0134846
819.546	0.0134244
819.624	0.0133579
819.703	0.0134825
819.781	0.0134000
819.859	0.0132602
819.937	0.0131982
820.015	0.0132522
820.093	0.0134472
820.171	0.0132487
820.249	0.0133200
820.328	0.0132216
820.406	0.0132211
820.484	0.0132883
820.562	0.0133041
820.640	0.0134090
820.718	0.0134745
820.796	0.0133044
820.874	0.0132752
820.953	0.0133485
821.031	0.0135371
821.109	0.0136008
821.187	0.0136305
821.265	0.0135215
821.343	0.0136429
821.421	0.0136704
821.499	0.0137801
821.578	0.0137733
821.656	0.0138126
821.734	0.0137361
821.812	0.0138221
821.890	0.0137556
821.968	0.0137472
822.046	0.0136424
822.124	0.0136929
822.203	0.0137379
822.281	0.0135123
822.359	0.0135719
822.437	0.0134947
822.515	0.0136058
822.593	0.0134698
822.671	0.0134958
822.749	0.0134927
822.828	0.0133834
822.906	0.0134908
822.984	0.0132778
823.062	0.0134164
823.140	0.0133952
823.218	0.0132632
823.296	0.0132949
823.374	0.0133427
823.453	0.0133607
823.531	0.0133829
823.609	0.0132541
823.687	0.0132381
823.765	0.0134241
823.843	0.0132561
823.921	0.0132888
823.999	0.0133800
824.078	0.0132946
824.156	0.0132411
824.234	0.0132634
824.312	0.0134603
824.390	0.0133671
824.468	0.0133684
824.546	0.0133312
824.624	0.0133223
824.703	0.0134595
824.781	0.0133554
824.859	0.0134045
824.937	0.0133961
825.015	0.0133877
825.093	0.0134518
825.171	0.0134671
825.249	0.0134162
825.328	0.0135531
825.406	0.0135948
825.484	0.0135863
825.562	0.0136714
825.640	0.0136683
825.718	0.0136838
825.796	0.0136405
825.874	0.0135931
825.953	0.0136497
826.031	0.0137075
826.109	0.0137122
826.187	0.0136439
826.265	0.0136169
826.343	0.0137373
826.421	0.0137311
826.499	0.0135700
826.578	0.0135993
826.656	0.0136797
826.734	0.0136238
826.812	0.0134319
826.890	0.0136092
826.968	0.0136095
827.046	0.0136269
827.124	0.0135101
827.203	0.0136203
827.281	0.0133486
827.359	0.0134817
827.437	0.0134937
827.515	0.0134146
827.593	0.0133646
827.671	0.0134842
827.749	0.0133340
827.828	0.0132669
827.906	0.0134002
827.984	0.0131654
828.062	0.0132401
828.140	0.0132470
828.218	0.0132030
828.296	0.0131707
828.374	0.0132730
828.453	0.0132893
828.531	0.0133459
828.609	0.0133210
828.687	0.0134518
828.765	0.0134027
828.843	0.0132139
828.921	0.0133384
828.999	0.0133828
829.078	0.0133075
829.156	0.0133672
829.234	0.0134541
829.312	0.0133936
829.390	0.0134258
829.468	0.0135777
829.546	0.0135936
829.624	0.0136372
829.703	0.0135878
829.781	0.0137099
829.859	0.0135957
829.937	0.0135574
830.015	0.0136865
830.093	0.0136163
830.171	0.0136275
830.249	0.0136889
830.328	0.0138383
830.406	0.0137047
830.484	0.0134882
830.562	0.0135497
830.640	0.0136526
830.718	0.0135587
830.796	0.0135014
830.874	0.0135781
830.953	0.0134998
831.031	0.0135066
831.109	0.0134520
831.187	0.0133163
831.265	0.0132839
831.343	0.0133069
831.421	0.0132200
831.499	0.0134283
831.578	0.0132949
831.656	0.0133010
831.734	0.0133029
831.812	0.0133058
831.890	0.0132671
831.968	0.0132971
832.046	0.0132503
832.124	0.0132200
832.203	0.0132464
832.281	0.0132612
832.359	0.0131969
832.437	0.0131969
832.515	0.0134422
832.593	0.0132215
832.671	0.0133402
832.749	0.0134743
832.828	0.0133912
832.906	0.0136435
832.984	0.0135062
833.062	0.0135243
833.140	0.0135398
833.218	0.0135267
833.296	0.0136243
833.374	0.0135909
833.453	0.0136431
833.531	0.0136504
833.609	0.0137420
833.687	0.0137074
833.765	0.0137761
833.843	0.0138127
833.921	0.0137991
833.999	0.0137006
834.078	0.0136246
834.156	0.0134550
834.234	0.0136211
834.312	0.0136268
834.390	0.0135908
834.468	0.0135571
834.546	0.0134089
834.624	0.0135599
834.703	0.0134321
834.781	0.0132369
834.859	0.0134123
834.937	0.0134344
835.015	0.0133443
835.093	0.0133786
835.171	0.0133733
835.249	0.0132531
835.328	0.0133427
835.406	0.0133690
835.484	0.0132451
835.562	0.0133019
835.640	0.0134091
835.718	0.0134491
835.796	0.0133639
835.874	0.0133528
835.953	0.0133077
836.031	0.0135111
836.109	0.0133965
836.187	0.0133291
836.265	0.0131068
836.343	0.0133483
836.421	0.0134285
836.499	0.0133923
836.578	0.0133971
836.656	0.0134992
836.734	0.0134235
836.812	0.0135252
836.890	0.0134206
836.968	0.0135724
837.046	0.0135452
837.124	0.0135799
837.203	0.0135223
837.281	0.0135750
837.359	0.0137304
837.437	0.0135895
837.515	0.0135090
837.593	0.0136294
837.671	0.0137088
837.749	0.0136083
837.828	0.0136663
837.906	0.0136754
837.984	0.0136053
838.062	0.0136034
838.140	0.0135374
838.218	0.0133946
838.296	0.0136124
838.374	0.0134625
838.453	0.0133659
838.531	0.0134139
838.609	0.0134475
838.687	0.0133365
838.765	0.0134809
838.843	0.0134725
838.921	0.0133369
838.999	0.0133801
839.078	0.0133843
839.156	0.0133645
839.234	0.0132272
839.312	0.0133038
839.390	0.0133096
839.468	0.0133537
839.546	0.0133261
839.624	0.0134206
839.703	0.0134226
839.781	0.0133370
839.859	0.0132190
839.937	0.0134386
840.015	0.0133133
840.093	0.0132428
840.171	0.0132346
840.249	0.0134459
840.328	0.0133795
840.406	0.0132397
840.484	0.0132567
840.562	0.0132943
840.640	0.0133409
840.718	0.0133969
840.796	0.0134836
840.874	0.0133746
840.953	0.0133636
841.031	0.0134378
841.109	0.0134921
841.187	0.0134863
841.265	0.0136134
841.343	0.0136283
841.421	0.0135312
841.499	0.0133699
841.578	0.0136850
841.656	0.0136374
841.734	0.0136716
841.812	0.0136766
841.890	0.0136112
841.968	0.0136227
842.046	0.0135179
842.124	0.0134579
842.203	0.0136197
842.281	0.0135215
842.359	0.0135659
842.437	0.0135442
842.515	0.0133387
842.593	0.0133781
842.671	0.0135236
842.749	0.0133286
842.828	0.0133932
842.906	0.0132977
842.984	0.0132381
843.062	0.0132579
843.140	0.0133961
843.218	0.0134984
843.296	0.0133588
843.374	0.0132862
843.453	0.0132496
843.531	0.0134480
843.609	0.0135029
843.687	0.0134481
843.765	0.0134584
843.843	0.0134364
843.921	0.0133904
843.999	0.0133437
844.078	0.0133846
844.156	0.0135044
844.234	0.0135001
844.312	0.0135444
844.390	0.0133923
844.468	0.0134158
844.546	0.0134755
844.624	0.0132673
844.703	0.0132887
844.781	0.0135376
844.859	0.0135207
844.937	0.0134328
845.015	0.0133998
845.093	0.0135911
845.171	0.0135020
845.249	0.0134418
845.328	0.0135104
845.406	0.0135836
845.484	0.0135394
845.562	0.0135220
845.640	0.0135371
845.718	0.0137087
845.796	0.0135445
845.874	0.0134286
845.953	0.0134301
846.031	0.0135662
846.109	0.0135480
846.187	0.0133940
846.265	0.0135127
846.343	0.0133561
846.421	0.0133540
846.499	0.0134271
846.578	0.0134685
846.656	0.0132037
846.734	0.0132459
846.812	0.0133049
846.890	0.0133902
846.968	0.0134341
847.046	0.0135155
847.124	0.0134476
847.203	0.0131917
847.281	0.0134017
847.359	0.0134058
847.437	0.0133828
847.515	0.0132286
847.593	0.0133034
847.671	0.0134072
847.749	0.0134078
847.828	0.0134458
847.906	0.0133601
847.984	0.0133085
848.062	0.0133699
848.140	0.0134631
848.218	0.0134254
848.296	0.0134496
848.374	0.0133952
848.453	0.0133893
848.531	0.0133760
848.609	0.0132870
848.687	0.0133644
848.765	0.0134196
848.843	0.0133830
848.921	0.0133714
848.999	0.0135493
849.078	0.0134946
849.156	0.0134624
849.234	0.0135412
849.312	0.0134293
849.390	0.0135966
849.468	0.0133736
849.546	0.0133386
849.624	0.0134200
849.703	0.0135870
849.781	0.0134947
849.859	0.0135380
849.937	0.0135473
850.015	0.0134640
850.093	0.0135190
850.171	0.0135104
850.249	0.0134718
850.328	0.0134509
850.406	0.0134119
850.484	0.0134170
850.562	0.0134184
850.640	0.0132918
850.718	0.0133055
850.796	0.0134241
850.874	0.0134486
850.953	0.0134003
851.031	0.0133623
851.109	0.0133861
851.187	0.0134109
851.265	0.0134700
851.343	0.0133058
851.421	0.0133028
851.499	0.0134036
851.578	0.0133620
851.656	0.0133829
851.734	0.0133616
851.812	0.0134122
851.890	0.0133815
851.968	0.0133714
852.046	0.0134682
852.124	0.0135184
852.203	0.0134892
852.281	0.0134071
852.359	0.0134064
852.437	0.0134242
852.515	0.0135018
852.593	0.0135062
852.671	0.0134441
852.749	0.0134415
852.828	0.0134885
852.906	0.0134146
852.984	0.0133732
853.062	0.0133746
853.140	0.0134631
853.218	0.0134441
853.296	0.0133865
853.374	0.0134974
853.453	0.0135293
853.531	0.0134721
853.609	0.0134756
853.687	0.0133770
853.765	0.0134110
853.843	0.0135825
853.921	0.0136061
853.999	0.0134210
854.078	0.0135029
854.156	0.0135374
854.234	0.0132804
854.312	0.0134389
854.390	0.0133353
854.468	0.0134186
854.546	0.0133916
854.624	0.0135091
854.703	0.0135197
854.781	0.0134349
854.859	0.0134682
854.937	0.0133028
855.015	0.0135022
855.093	0.0134930
855.171	0.0133869
855.249	0.0132884
855.328	0.0133742
855.406	0.0134209
855.484	0.0134089
855.562	0.0133085
855.640	0.0134063
855.718	0.0134067
855.796	0.0134941
855.874	0.0133749
855.953	0.0135014
856.031	0.0136156
856.109	0.0133350
856.187	0.0134988
856.265	0.0134882
856.343	0.0135676
856.421	0.0137402
856.499	0.0136991
856.578	0.0134802
856.656	0.0135561
856.734	0.0135998
856.812	0.0135793
856.890	0.0135640
856.968	0.0135986
857.046	0.0134853
857.124	0.0135000
857.203	0.0135079
857.281	0.0134086
857.359	0.0134962
857.437	0.0134399
857.515	0.0135322
857.593	0.0135022
857.671	0.0135294
857.749	0.0134790
857.828	0.0134000
857.906	0.0134634
857.984	0.0134683
858.062	0.0134953
858.140	0.0134765
858.218	0.0134460
858.296	0.0134567
858.374	0.0133678
858.453	0.0134133
858.531	0.0134839
858.609	0.0133903
858.687	0.0134098
858.765	0.0134009
858.843	0.0134711
858.921	0.0134068
858.999	0.0133856
859.078	0.0132905
859.156	0.0134676
859.234	0.0133139
859.312	0.0133855
859.390	0.0134313
859.468	0.0135574
859.546	0.0134792
859.624	0.0133949
859.703	0.0134336
859.781	0.0134796
859.859	0.0133204
859.937	0.0134026
860.015	0.0135068
860.093	0.0135567
860.171	0.0135336
860.249	0.0135081
860.328	0.0133855
860.406	0.0135076
860.484	0.0134504
860.562	0.0135151
860.640	0.0136217
860.718	0.0134872
860.796	0.0134639
860.874	0.0132934
860.953	0.0135191
861.031	0.0133648
861.109	0.0135286
861.187	0.0134743
861.265	0.0134260
861.343	0.0134422
861.421	0.0133789
861.499	0.0134637
861.578	0.0135512
861.656	0.0134601
861.734	0.0134265
861.812	0.0134278
861.890	0.0134305
861.968	0.0133604
862.046	0.0134183
862.124	0.0133411
862.203	0.0134824
862.281	0.0134453
862.359	0.0134042
862.437	0.0134367
862.515	0.0134484
862.593	0.0134390
862.671	0.0134162
862.749	0.0134688
862.828	0.0133996
862.906	0.0134805
862.984	0.0135847
863.062	0.0134116
863.140	0.0134397
863.218	0.0134634
863.296	0.0134111
863.374	0.0135861
863.453	0.0136842
863.531	0.0134806
863.609	0.0134849
863.687	0.0135252
863.765	0.0135231
863.843	0.0135290
863.921	0.0135917
863.999	0.0136275
864.078	0.0135783
864.156	0.0134478
864.234	0.0135830
864.312	0.0137328
864.390	0.0135639
864.468	0.0134681
864.546	0.0135408
864.624	0.0134863
864.703	0.0134500
864.781	0.0133708
864.859	0.0133894
864.937	0.0133643
865.015	0.0133053
865.093	0.0134263
865.171	0.0134478
865.249	0.0133738
865.328	0.0133547
865.406	0.0134428
865.484	0.0133350
865.562	0.0133808
865.640	0.0134725
865.718	0.0134628
865.796	0.0134002
865.874	0.0134507
865.953	0.0132555
866.031	0.0133003
866.109	0.0134587
866.187	0.0133894
866.265	0.0133882
866.343	0.0133533
866.421	0.0132536
866.499	0.0133910
866.578	0.0132674
866.656	0.0132994
866.734	0.0133099
866.812	0.0133781
866.890	0.0133297
866.968	0.0133835
867.046	0.0134721
867.124	0.0133280
867.203	0.0132325
867.281	0.0134252
867.359	0.0133861
867.437	0.0135071
867.515	0.0135332
867.593	0.0134812
867.671	0.0135011
867.749	0.0135103
867.828	0.0136465
867.906	0.0134660
867.984	0.0136538
868.062	0.0137720
868.140	0.0135629
868.218	0.0135366
868.296	0.0134055
868.374	0.0135101
868.453	0.0136278
868.531	0.0135480
868.609	0.0133995
868.687	0.0134831
868.765	0.0135379
868.843	0.0134465
868.921	0.0132199
868.999	0.0133589
869.078	0.0135049
869.156	0.0133562
869.234	0.0134140
869.312	0.0134287
869.390	0.0133224
869.468	0.0133512
869.546	0.0134106
869.624	0.0133557
869.703	0.0133782
869.781	0.0134875
869.859	0.0133567
869.937	0.0132188
870.015	0.0134814
870.093	0.0134329
870.171	0.0133742
870.249	0.0133702
870.328	0.0134595
870.406	0.0132521
870.484	0.0132023
870.562	0.0133722
870.640	0.0133628
870.718	0.0133921
870.796	0.0133832
870.874	0.0133753
870.953	0.0134205
871.031	0.0133926
871.109	0.0133412
871.187	0.0133625
871.265	0.0135455
871.343	0.0134526
871.421	0.0135632
871.499	0.0135750
871.578	0.0135780
871.656	0.0134338
871.734	0.0135313
871.812	0.0135342
871.890	0.0135403
871.968	0.0137080
872.046	0.0135727
872.124	0.0136044
872.203	0.0135822
872.281	0.0134125
872.359	0.0135857
872.437	0.0133733
872.515	0.0134147
872.593	0.0135875
872.671	0.0133765
872.749	0.0135511
872.828	0.0133955
872.906	0.0133653
872.984	0.0134682
873.062	0.0135442
873.140	0.0133932
873.218	0.0133556
873.296	0.0134602
873.374	0.0134466
873.453	0.0133968
873.531	0.0133676
873.609	0.0134238
873.687	0.0134048
873.765	0.0133814
873.843	0.0132921
873.921	0.0133408
873.999	0.0133795
874.078	0.0133728
874.156	0.0131541
874.234	0.0133598
874.312	0.0133189
874.390	0.0134129
874.468	0.0132972
874.546	0.0133257
874.624	0.0132169
874.703	0.0134267
874.781	0.0133517
874.859	0.0133278
874.937	0.0133971
875.015	0.0133845
875.093	0.0135333
875.171	0.0134571
875.249	0.0133261
875.328	0.0134412
875.406	0.0135584
875.484	0.0135227
875.562	0.0134641
875.640	0.0135034
875.718	0.0135530
875.796	0.0136249
875.874	0.0135849
875.953	0.0136359
876.031	0.0135149
876.109	0.0136958
876.187	0.0137064
876.265	0.0136522
876.343	0.0136629
876.421	0.0137157
876.499	0.0136670
876.578	0.0137339
876.656	0.0135953
876.734	0.0135761
876.812	0.0135423
876.890	0.0135256
876.968	0.0134743
877.046	0.0135824
877.124	0.0134209
877.203	0.0133906
877.281	0.0133122
877.359	0.0133337
877.437	0.0133132
877.515	0.0133119
877.593	0.0132909
877.671	0.0133180
877.749	0.0132713
877.828	0.0132436
877.906	0.0133102
877.984	0.0133417
878.062	0.0134171
878.140	0.0133800
878.218	0.0134035
878.296	0.0135809
878.374	0.0135358
878.453	0.0134383
878.531	0.0135415
878.609	0.0134882
878.687	0.0136490
878.765	0.0137654
878.843	0.0136079
878.921	0.0135429
878.999	0.0136572
879.078	0.0135299
879.156	0.0136657
879.234	0.0136052
879.312	0.0135886
879.390	0.0136230
879.468	0.0135852
879.546	0.0134715
879.624	0.0137139
879.703	0.0136784
879.781	0.0137321
879.859	0.0136272
879.937	0.0137584
880.015	0.0138418
880.093	0.0137968
880.171	0.0137648
880.249	0.0137024
880.328	0.0136029
880.406	0.0135970
880.484	0.0137503
880.562	0.0136015
880.640	0.0135829
880.718	0.0135735
880.796	0.0136189
880.874	0.0133910
880.953	0.0133179
881.031	0.0133092
881.109	0.0133556
881.187	0.0132263
881.265	0.0132099
881.343	0.0131941
881.421	0.0131512
881.499	0.0131628
881.578	0.0130810
881.656	0.0132446
881.734	0.0133277
881.812	0.0133107
881.890	0.0133685
881.968	0.0132902
882.046	0.0134808
882.124	0.0134814
882.203	0.0134982
882.281	0.0135697
882.359	0.0136562
882.437	0.0137388
882.515	0.0137010
882.593	0.0137202
882.671	0.0136716
882.749	0.0138319
882.828	0.0138078
882.906	0.0136843
882.984	0.0135179
883.062	0.0136638
883.140	0.0137375
883.218	0.0135838
883.296	0.0135596
883.374	0.0136081
883.453	0.0134189
883.531	0.0135738
883.609	0.0134425
883.687	0.0133843
883.765	0.0134893
883.843	0.0134531
883.921	0.0134457
883.999	0.0133322
884.078	0.0134547
884.156	0.0134899
884.234	0.0135019
884.312	0.0134228
884.390	0.0134249
884.468	0.0135130
884.546	0.0135743
884.624	0.0135204
884.703	0.0133456
884.781	0.0133865
884.859	0.0135521
884.937	0.0134885
885.015	0.0134985
885.093	0.0134164
885.171	0.0132753
885.249	0.0133813
885.328	0.0132695
885.406	0.0133514
885.484	0.0131972
885.562	0.0134556
885.640	0.0133194
885.718	0.0133714
885.796	0.0133965
885.874	0.0133138
885.953	0.0134193
886.031	0.0133937
886.109	0.0135184
886.187	0.0135439
886.265	0.0136666
886.343	0.0136526
886.421	0.0136548
886.499	0.0136787
886.578	0.0137108
886.656	0.0136018
886.734	0.0136151
886.812	0.0136994
886.890	0.0134740
886.968	0.0135140
887.046	0.0136401
887.124	0.0135414
887.203	0.0135574
887.281	0.0136015
887.359	0.0135053
887.437	0.0134579
887.515	0.0133073
887.593	0.0134225
887.671	0.0134552
887.749	0.0135841
887.828	0.0134514
887.906	0.0134935
887.984	0.0134403
888.062	0.0135011
888.140	0.0136105
888.218	0.0134727
888.296	0.0135238
888.374	0.0134570
888.453	0.0134637
888.531	0.0135962
888.609	0.0134164
888.687	0.0136086
888.765	0.0135001
888.843	0.0134657
888.921	0.0134374
888.999	0.0133997
889.078	0.0133377
889.156	0.0133646
889.234	0.0134074
889.312	0.0134208
889.390	0.0132251
889.468	0.0134730
889.546	0.0134502
889.624	0.0134670
889.703	0.0134440
889.781	0.0134010
889.859	0.0136646
889.937	0.0134531
890.015	0.0133508
890.093	0.0134643
890.171	0.0134860
890.249	0.0135336
890.328	0.0134962
890.406	0.0135799
890.484	0.0136698
890.562	0.0136268
890.640	0.0134801
890.718	0.0136172
890.796	0.0135164
890.874	0.0135762
890.953	0.0136536
891.031	0.0135943
891.109	0.0135950
891.187	0.0136550
891.265	0.0136117
891.343	0.0136422
891.421	0.0135022
891.499	0.0136017
891.578	0.0134407
891.656	0.0134944
891.734	0.0135204
891.812	0.0134698
891.890	0.0134376
891.968	0.0135097
892.046	0.0133116
892.124	0.0132996
892.203	0.0133981
892.281	0.0132970
892.359	0.0132302
892.437	0.0132731
892.515	0.0133311
892.593	0.0131385
892.671	0.0134332
892.749	0.0132802
892.828	0.0133942
892.906	0.0133698
892.984	0.0133441
893.062	0.0133483
893.140	0.0136066
893.218	0.0135145
893.296	0.0133714
893.374	0.0135007
893.453	0.0135628
893.531	0.0134645
893.609	0.0135638
893.687	0.0134322
893.765	0.0134879
893.843	0.0134779
893.921	0.0136804
893.999	0.0136471
894.078	0.0136158
894.156	0.0135248
894.234	0.0135161
894.312	0.0136730
894.390	0.0137154
894.468	0.0137329
894.546	0.0136873
894.624	0.0136797
894.703	0.0137884
894.781	0.0138065
894.859	0.0136739
894.937	0.0136889
895.015	0.0135563
895.093	0.0135422
895.171	0.0135864
895.249	0.0136000
895.328	0.0134635
895.406	0.0135171
895.484	0.0134569
895.562	0.0135727
895.640	0.0133968
895.718	0.0134777
895.796	0.0134171
895.874	0.0133098
895.953	0.0133591
896.031	0.0133429
896.109	0.0134233
896.187	0.0132497
896.265	0.0132835
896.343	0.0134214
896.421	0.0133558
896.499	0.0133155
896.578	0.0133115
896.656	0.0131863
896.734	0.0133704
896.812	0.0134886
896.890	0.0134705
896.968	0.0135081
897.046	0.0135095
897.124	0.0136080
897.203	0.0135645
897.281	0.0137521
897.359	0.0138094
897.437	0.0138262
897.515	0.0137010
897.593	0.0137047
897.671	0.0136436
897.749	0.0137979
897.828	0.0137737
897.906	0.0137602
897.984	0.0137067
898.062	0.0136605
898.140	0.0137868
898.218	0.0136348
898.296	0.0136697
898.374	0.0137115
898.453	0.0135854
898.531	0.0137032
898.609	0.0137753
898.687	0.0135967
898.765	0.0136145
898.843	0.0135638
898.921	0.0136282
898.999	0.0134121
899.078	0.0134081
899.156	0.0135180
899.234	0.0135156
899.312	0.0133967
899.390	0.0134077
899.468	0.0132426
899.546	0.0132906
899.624	0.0132981
899.703	0.0132744
899.781	0.0133591
899.859	0.0134985
899.937	0.0133427
900.015	0.0132107
900.093	0.0133914
900.171	0.0134830
900.249	0.0134826
900.328	0.0134175
900.406	0.0133654
900.484	0.0135002
900.562	0.0134491
900.640	0.0135776
900.718	0.0135234
900.796	0.0134945
900.874	0.0134814
900.953	0.0135326
901.031	0.0134473
901.109	0.0133599
901.187	0.0133643
901.265	0.0135333
901.343	0.0136252
901.421	0.0134100
901.499	0.0134061
901.578	0.0134348
901.656	0.0134732
901.734	0.0135275
901.812	0.0134163
901.890	0.0133299
901.968	0.0134512
902.046	0.0133785
902.124	0.0133858
902.203	0.0137124
902.281	0.0136826
902.359	0.0136082
902.437	0.0134675
902.515	0.0134080
902.593	0.0136111
902.671	0.0135719
902.749	0.0136190
902.828	0.0135245
902.906	0.0135091
902.984	0.0134887
903.062	0.0134827
903.140	0.0135100
903.218	0.0134398
903.296	0.0133988
903.374	0.0134017
903.453	0.0133789
903.531	0.0133008
903.609	0.0133335
903.687	0.0133688
903.765	0.0134105
903.843	0.0135031
903.921	0.0135095
903.999	0.0134804
904.078	0.0134558
904.156	0.0134865
904.234	0.0136229
904.312	0.0136336
904.390	0.0136691
904.468	0.0135560
904.546	0.0136998
904.624	0.0137022
904.703	0.0136615
904.781	0.0136759
904.859	0.0135406
904.937	0.0135921
905.015	0.0135105
905.093	0.0134591
905.171	0.0135470
905.249	0.0134482
905.328	0.0133714
905.406	0.0132767
905.484	0.0133216
905.562	0.0133997
905.640	0.0134937
905.718	0.0133835
905.796	0.0134546
905.874	0.0134698
905.953	0.0134139
906.031	0.0135788
906.109	0.0136432
906.187	0.0136287
906.265	0.0136772
906.343	0.0136092
906.421	0.0136034
906.499	0.0135881
906.578	0.0136260
906.656	0.0136951
906.734	0.0136736
906.812	0.0136192
906.890	0.0135265
906.968	0.0134811
907.046	0.0134193
907.124	0.0133755
907.203	0.0134529
907.281	0.0134022
907.359	0.0133585
907.437	0.0134159
907.515	0.0132652
907.593	0.0134281
907.671	0.0134373
907.749	0.0133912
907.828	0.0134949
907.906	0.0136248
907.984	0.0135205
908.062	0.0135593
908.140	0.0134715
908.218	0.0134955
908.296	0.0134921
908.374	0.0136484
908.453	0.0135680
908.531	0.0135830
908.609	0.0135144
908.687	0.0135383
908.765	0.0135725
908.843	0.0136124
908.921	0.0135892
908.999	0.0134972
909.078	0.0134042
909.156	0.0134402
909.234	0.0135857
909.312	0.0134113
909.390	0.0133921
909.468	0.0135233
909.546	0.0134894
909.624	0.0134496
909.703	0.0133553
909.781	0.0134812
909.859	0.0134455
909.937	0.0134116
910.015	0.0134077
910.093	0.0135614
910.171	0.0134200
910.249	0.0135234
910.328	0.0135410
910.406	0.0136275
910.484	0.0136581
910.562	0.0136638
910.640	0.0136159
910.718	0.0136716
910.796	0.0136642
910.874	0.0135288
910.953	0.0136062
911.031	0.0135780
911.109	0.0133331
911.187	0.0134446
911.265	0.0134310
911.343	0.0135779
911.421	0.0134476
911.499	0.0133561
911.578	0.0134426
911.656	0.0133324
911.734	0.0134801
911.812	0.0134566
911.890	0.0133942
911.968	0.0134372
912.046	0.0133796
912.124	0.0135766
912.203	0.0136568
912.281	0.0135447
912.359	0.0135316
912.437	0.0135256
912.515	0.0136153
912.593	0.0135863
912.671	0.0136169
912.749	0.0136894
912.828	0.0135590
912.906	0.0134858
912.984	0.0135948
913.062	0.0135484
913.140	0.0135447
913.218	0.0135540
913.296	0.0136034
913.374	0.0134026
913.453	0.0134739
913.531	0.0135113
913.609	0.0135361
913.687	0.0134962
913.765	0.0133497
913.843	0.0136225
913.921	0.0134775
913.999	0.0134972
914.078	0.0135429
914.156	0.0135448
914.234	0.0135296
914.312	0.0134792
914.390	0.0135637
914.468	0.0136138
914.546	0.0136013
914.624	0.0136073
914.703	0.0135961
914.781	0.0135523
914.859	0.0136102
914.937	0.0136353
915.015	0.0134548
915.093	0.0135190
915.171	0.0135454
915.249	0.0135259
915.328	0.0134172
915.406	0.0133327
915.484	0.0135226
915.562	0.0135069
915.640	0.0134415
915.718	0.0135231
915.796	0.0133700
915.874	0.0135198
915.953	0.0135803
916.031	0.0134880
916.109	0.0133636
916.187	0.0133607
916.265	0.0135219
916.343	0.0134643
916.421	0.0134188
916.499	0.0134682
916.578	0.0136597
916.656	0.0135699
916.734	0.0134682
916.812	0.0133861
916.890	0.0135316
916.968	0.0135212
917.046	0.0135227
917.124	0.0134043
917.203	0.0133665
917.281	0.0134855
917.359	0.0133769
917.437	0.0134472
917.515	0.0135422
917.593	0.0134608
917.671	0.0133976
917.749	0.0134226
917.828	0.0135139
917.906	0.0134338
917.984	0.0134377
918.062	0.0135898
918.140	0.0135172
918.218	0.0135562
918.296	0.0135627
918.374	0.0135161
918.453	0.0136372
918.531	0.0134974
918.609	0.0135845
918.687	0.0135429
918.765	0.0134930
918.843	0.0135955
918.921	0.0134475
918.999	0.0135690
919.078	0.0135097
919.156	0.0134907
919.234	0.0135868
919.312	0.0134452
919.390	0.0135221
919.468	0.0134406
919.546	0.0134638
919.624	0.0135189
919.703	0.0133172
919.781	0.0135142
919.859	0.0136205
919.937	0.0135306
