05/06/2022	18:49:44	Ver.	4.1	UNKNOWN
Optical Delay	600.015094	Delta X		0.078125	Sweeps	1	Scan Rate	0/0
Coordinates	Axis 1	NaN	Axis 2	NaN	Axis 3	NaN	Axis 4	NaN	Axis 5	NaN	Axis 6	0.000000
TX Power	0.000000	RX Power	0.000000

600.015	0.0135872
600.093	0.0137166
600.171	0.0136115
600.249	0.0136076
600.328	0.0135878
600.406	0.0136037
600.484	0.0136169
600.562	0.0136349
600.640	0.0135114
600.718	0.0137249
600.796	0.0135416
600.874	0.0134892
600.953	0.0136758
601.031	0.0136217
601.109	0.0135589
601.187	0.0135074
601.265	0.0135824
601.343	0.0136548
601.421	0.0135410
601.499	0.0135401
601.578	0.0134079
601.656	0.0135294
601.734	0.0135149
601.812	0.0136620
601.890	0.0136006
601.968	0.0134102
602.046	0.0136533
602.124	0.0135612
602.203	0.0136590
602.281	0.0135437
602.359	0.0134748
602.437	0.0136459
602.515	0.0133239
602.593	0.0134341
602.671	0.0137132
602.749	0.0135800
602.828	0.0136968
602.906	0.0135611
602.984	0.0137189
603.062	0.0135731
603.140	0.0134996
603.218	0.0136177
603.296	0.0136111
603.374	0.0137910
603.453	0.0136733
603.531	0.0135930
603.609	0.0135532
603.687	0.0135941
603.765	0.0137025
603.843	0.0136283
603.921	0.0134889
603.999	0.0135134
604.078	0.0136703
604.156	0.0136891
604.234	0.0135759
604.312	0.0136317
604.390	0.0137276
604.468	0.0136148
604.546	0.0135123
604.624	0.0136819
604.703	0.0135934
604.781	0.0136670
604.859	0.0136662
604.937	0.0135224
605.015	0.0135928
605.093	0.0136236
605.171	0.0134331
605.249	0.0135577
605.328	0.0136108
605.406	0.0135893
605.484	0.0136940
605.562	0.0135106
605.640	0.0136116
605.718	0.0137421
605.796	0.0135847
605.874	0.0137732
605.953	0.0136565
606.031	0.0135620
606.109	0.0135649
606.187	0.0136149
606.265	0.0136337
606.343	0.0136335
606.421	0.0136159
606.499	0.0135323
606.578	0.0136507
606.656	0.0136137
606.734	0.0135608
606.812	0.0136387
606.890	0.0135894
606.968	0.0136020
607.046	0.0135663
607.124	0.0135587
607.203	0.0136568
607.281	0.0135233
607.359	0.0136636
607.437	0.0136584
607.515	0.0136520
607.593	0.0136453
607.671	0.0135706
607.749	0.0135897
607.828	0.0137125
607.906	0.0135159
607.984	0.0132639
608.062	0.0136007
608.140	0.0135921
608.218	0.0136398
608.296	0.0136052
608.374	0.0136400
608.453	0.0136613
608.531	0.0136309
608.609	0.0136597
608.687	0.0136259
608.765	0.0135941
608.843	0.0136032
608.921	0.0136098
608.999	0.0135838
609.078	0.0136108
609.156	0.0134389
609.234	0.0134596
609.312	0.0134939
609.390	0.0136770
609.468	0.0136142
609.546	0.0135148
609.624	0.0135524
609.703	0.0137215
609.781	0.0135368
609.859	0.0134003
609.937	0.0135687
610.015	0.0136504
610.093	0.0136813
610.171	0.0136136
610.249	0.0135219
610.328	0.0134963
610.406	0.0136216
610.484	0.0134879
610.562	0.0135532
610.640	0.0135677
610.718	0.0136807
610.796	0.0135676
610.874	0.0135461
610.953	0.0136098
611.031	0.0135571
611.109	0.0134974
611.187	0.0135192
611.265	0.0135312
611.343	0.0137040
611.421	0.0135451
611.499	0.0135632
611.578	0.0135973
611.656	0.0135678
611.734	0.0135791
611.812	0.0135986
611.890	0.0136124
611.968	0.0136327
612.046	0.0137569
612.124	0.0135787
612.203	0.0134996
612.281	0.0134898
612.359	0.0136032
612.437	0.0137270
612.515	0.0135406
612.593	0.0136265
612.671	0.0136444
612.749	0.0135356
612.828	0.0136129
612.906	0.0135789
612.984	0.0135666
613.062	0.0135169
613.140	0.0136059
613.218	0.0136251
613.296	0.0135766
613.374	0.0135995
613.453	0.0137296
613.531	0.0135626
613.609	0.0136904
613.687	0.0135768
613.765	0.0135892
613.843	0.0136575
613.921	0.0136337
613.999	0.0135657
614.078	0.0136109
614.156	0.0136213
614.234	0.0135394
614.312	0.0136247
614.390	0.0136971
614.468	0.0137498
614.546	0.0137057
614.624	0.0135707
614.703	0.0135493
614.781	0.0136516
614.859	0.0136726
614.937	0.0137292
615.015	0.0137029
615.093	0.0136274
615.171	0.0136909
615.249	0.0135983
615.328	0.0136678
615.406	0.0135892
615.484	0.0137286
615.562	0.0136423
615.640	0.0135184
615.718	0.0136382
615.796	0.0136095
615.874	0.0136780
615.953	0.0135965
616.031	0.0136141
616.109	0.0137683
616.187	0.0135368
616.265	0.0136108
616.343	0.0137540
616.421	0.0136104
616.499	0.0137494
616.578	0.0136605
616.656	0.0137511
616.734	0.0135203
616.812	0.0137018
616.890	0.0134805
616.968	0.0136141
617.046	0.0136600
617.124	0.0136552
617.203	0.0134703
617.281	0.0135500
617.359	0.0137273
617.437	0.0136609
617.515	0.0135712
617.593	0.0135836
617.671	0.0137050
617.749	0.0136211
617.828	0.0136356
617.906	0.0136447
617.984	0.0135625
618.062	0.0135909
618.140	0.0135735
618.218	0.0136185
618.296	0.0135767
618.374	0.0136555
618.453	0.0135672
618.531	0.0135995
618.609	0.0135759
618.687	0.0134697
618.765	0.0135847
618.843	0.0134521
618.921	0.0135670
618.999	0.0136469
619.078	0.0135171
619.156	0.0135658
619.234	0.0136096
619.312	0.0136303
619.390	0.0135941
619.468	0.0135039
619.546	0.0135891
619.624	0.0137039
619.703	0.0135976
619.781	0.0135895
619.859	0.0136797
619.937	0.0135844
620.015	0.0135561
620.093	0.0136055
620.171	0.0135812
620.249	0.0135968
620.328	0.0135877
620.406	0.0135439
620.484	0.0136289
620.562	0.0136893
620.640	0.0134973
620.718	0.0135341
620.796	0.0134793
620.874	0.0136002
620.953	0.0133941
621.031	0.0135323
621.109	0.0135413
621.187	0.0135732
621.265	0.0135649
621.343	0.0134822
621.421	0.0135666
621.499	0.0135383
621.578	0.0136567
621.656	0.0136907
621.734	0.0134348
621.812	0.0135717
621.890	0.0135680
621.968	0.0136108
622.046	0.0136003
622.124	0.0136058
622.203	0.0136466
622.281	0.0135918
622.359	0.0135330
622.437	0.0136197
622.515	0.0135726
622.593	0.0136809
622.671	0.0136140
622.749	0.0136277
622.828	0.0136343
622.906	0.0136982
622.984	0.0135990
623.062	0.0135195
623.140	0.0136018
623.218	0.0136214
623.296	0.0136536
623.374	0.0136758
623.453	0.0136724
623.531	0.0135932
623.609	0.0136530
623.687	0.0136604
623.765	0.0135327
623.843	0.0135451
623.921	0.0136099
623.999	0.0135076
624.078	0.0135291
624.156	0.0136607
624.234	0.0136791
624.312	0.0135107
624.390	0.0134010
624.468	0.0136728
624.546	0.0136687
624.624	0.0136437
624.703	0.0135896
624.781	0.0136324
624.859	0.0135426
624.937	0.0136330
625.015	0.0135638
625.093	0.0134319
625.171	0.0135991
625.249	0.0135680
625.328	0.0135919
625.406	0.0137222
625.484	0.0135516
625.562	0.0136522
625.640	0.0135501
625.718	0.0136373
625.796	0.0134480
625.874	0.0137162
625.953	0.0136088
626.031	0.0135963
626.109	0.0136337
626.187	0.0136152
626.265	0.0135976
626.343	0.0135801
626.421	0.0136360
626.499	0.0135938
626.578	0.0137315
626.656	0.0136423
626.734	0.0136645
626.812	0.0136583
626.890	0.0135900
626.968	0.0136414
627.046	0.0136285
627.124	0.0135489
627.203	0.0135458
627.281	0.0135294
627.359	0.0136102
627.437	0.0137402
627.515	0.0136703
627.593	0.0137532
627.671	0.0136312
627.749	0.0135436
627.828	0.0137304
627.906	0.0137365
627.984	0.0135002
628.062	0.0137003
628.140	0.0135391
628.218	0.0135139
628.296	0.0136294
628.374	0.0136936
628.453	0.0135060
628.531	0.0136279
628.609	0.0136332
628.687	0.0137486
628.765	0.0136040
628.843	0.0136973
628.921	0.0135313
628.999	0.0135164
629.078	0.0135019
629.156	0.0135690
629.234	0.0137506
629.312	0.0136777
629.390	0.0136536
629.468	0.0134362
629.546	0.0135899
629.624	0.0136159
629.703	0.0135266
629.781	0.0135801
629.859	0.0136214
629.937	0.0136587
630.015	0.0135773
630.093	0.0134184
630.171	0.0134567
630.249	0.0136037
630.328	0.0135324
630.406	0.0136067
630.484	0.0137087
630.562	0.0135566
630.640	0.0135964
630.718	0.0137218
630.796	0.0136549
630.874	0.0135997
630.953	0.0135551
631.031	0.0137361
631.109	0.0136840
631.187	0.0135400
631.265	0.0135358
631.343	0.0136707
631.421	0.0136790
631.499	0.0136096
631.578	0.0136725
631.656	0.0134206
631.734	0.0135395
631.812	0.0137085
631.890	0.0138350
631.968	0.0136184
632.046	0.0135745
632.124	0.0136327
632.203	0.0136681
632.281	0.0136510
632.359	0.0135586
632.437	0.0136464
632.515	0.0136579
632.593	0.0135491
632.671	0.0136375
632.749	0.0137175
632.828	0.0136044
632.906	0.0135958
632.984	0.0135699
633.062	0.0135209
633.140	0.0136626
633.218	0.0135359
633.296	0.0135477
633.374	0.0136852
633.453	0.0136342
633.531	0.0136900
633.609	0.0135661
633.687	0.0135313
633.765	0.0135696
633.843	0.0136209
633.921	0.0137017
633.999	0.0136168
634.078	0.0136217
634.156	0.0136552
634.234	0.0135806
634.312	0.0135927
634.390	0.0135036
634.468	0.0136108
634.546	0.0135519
634.624	0.0136957
634.703	0.0135677
634.781	0.0134882
634.859	0.0136565
634.937	0.0136658
635.015	0.0135847
635.093	0.0136543
635.171	0.0135986
635.249	0.0135722
635.328	0.0135284
635.406	0.0136803
635.484	0.0136275
635.562	0.0137006
635.640	0.0134715
635.718	0.0137003
635.796	0.0137603
635.874	0.0136530
635.953	0.0135906
636.031	0.0137473
636.109	0.0136024
636.187	0.0135529
636.265	0.0135900
636.343	0.0135033
636.421	0.0136497
636.499	0.0136337
636.578	0.0136616
636.656	0.0136346
636.734	0.0136800
636.812	0.0136006
636.890	0.0135056
636.968	0.0136437
637.046	0.0135277
637.124	0.0137099
637.203	0.0137442
637.281	0.0136469
637.359	0.0136596
637.437	0.0134718
637.515	0.0135548
637.593	0.0136652
637.671	0.0136490
637.749	0.0136249
637.828	0.0136910
637.906	0.0136609
637.984	0.0135442
638.062	0.0136629
638.140	0.0135509
638.218	0.0136246
638.296	0.0137540
638.374	0.0136544
638.453	0.0136753
638.531	0.0137161
638.609	0.0135534
638.687	0.0136287
638.765	0.0135612
638.843	0.0136033
638.921	0.0136766
638.999	0.0136517
639.078	0.0136600
639.156	0.0136005
639.234	0.0137208
639.312	0.0136550
639.390	0.0136060
639.468	0.0135448
639.546	0.0135700
639.624	0.0137595
639.703	0.0136329
639.781	0.0136617
639.859	0.0136986
639.937	0.0136225
640.015	0.0135916
640.093	0.0135942
640.171	0.0135863
640.249	0.0135855
640.328	0.0136093
640.406	0.0136807
640.484	0.0134908
640.562	0.0136178
640.640	0.0134990
640.718	0.0135566
640.796	0.0135271
640.874	0.0135383
640.953	0.0137210
641.031	0.0134972
641.109	0.0135768
641.187	0.0137482
641.265	0.0135500
641.343	0.0135113
641.421	0.0135449
641.499	0.0137560
641.578	0.0137384
641.656	0.0135738
641.734	0.0136057
641.812	0.0135618
641.890	0.0135490
641.968	0.0136176
642.046	0.0136740
642.124	0.0136407
642.203	0.0136554
642.281	0.0136823
642.359	0.0135583
642.437	0.0135230
642.515	0.0136621
642.593	0.0135703
642.671	0.0135297
642.749	0.0135639
642.828	0.0135260
642.906	0.0135994
642.984	0.0136852
643.062	0.0137659
643.140	0.0136217
643.218	0.0135586
643.296	0.0137255
643.374	0.0135692
643.453	0.0137300
643.531	0.0136239
643.609	0.0135843
643.687	0.0136722
643.765	0.0135770
643.843	0.0136999
643.921	0.0136207
643.999	0.0135918
644.078	0.0136272
644.156	0.0137015
644.234	0.0135774
644.312	0.0136501
644.390	0.0137211
644.468	0.0136445
644.546	0.0135942
644.624	0.0135918
644.703	0.0135922
644.781	0.0137044
644.859	0.0136591
644.937	0.0135658
645.015	0.0136509
645.093	0.0135479
645.171	0.0136619
645.249	0.0136488
645.328	0.0135755
645.406	0.0135715
645.484	0.0135587
645.562	0.0137323
645.640	0.0135834
645.718	0.0135641
645.796	0.0135126
645.874	0.0136047
645.953	0.0136221
646.031	0.0136758
646.109	0.0135569
646.187	0.0134892
646.265	0.0136416
646.343	0.0136280
646.421	0.0136390
646.499	0.0134637
646.578	0.0136256
646.656	0.0136401
646.734	0.0136545
646.812	0.0136832
646.890	0.0136420
646.968	0.0136205
647.046	0.0134786
647.124	0.0135178
647.203	0.0134489
647.281	0.0135921
647.359	0.0135898
647.437	0.0135548
647.515	0.0135345
647.593	0.0136424
647.671	0.0136035
647.749	0.0135404
647.828	0.0136140
647.906	0.0136322
647.984	0.0134983
648.062	0.0137497
648.140	0.0137257
648.218	0.0135166
648.296	0.0137202
648.374	0.0136274
648.453	0.0134684
648.531	0.0135393
648.609	0.0135278
648.687	0.0135771
648.765	0.0136185
648.843	0.0135594
648.921	0.0135336
648.999	0.0136550
649.078	0.0135394
649.156	0.0134401
649.234	0.0136236
649.312	0.0136820
649.390	0.0135689
649.468	0.0136926
649.546	0.0136450
649.624	0.0135849
649.703	0.0133958
649.781	0.0136445
649.859	0.0135332
649.937	0.0135469
650.015	0.0135915
650.093	0.0135349
650.171	0.0136540
650.249	0.0137276
650.328	0.0137029
650.406	0.0135694
650.484	0.0135857
650.562	0.0136176
650.640	0.0134911
650.718	0.0135279
650.796	0.0136619
650.874	0.0135570
650.953	0.0134368
651.031	0.0134418
651.109	0.0135369
651.187	0.0136047
651.265	0.0136544
651.343	0.0135324
651.421	0.0135078
651.499	0.0136556
651.578	0.0135899
651.656	0.0134408
651.734	0.0138239
651.812	0.0135327
651.890	0.0136113
651.968	0.0136341
652.046	0.0135902
652.124	0.0135910
652.203	0.0135976
652.281	0.0136126
652.359	0.0134630
652.437	0.0135529
652.515	0.0136523
652.593	0.0135975
652.671	0.0137175
652.749	0.0137690
652.828	0.0135792
652.906	0.0135561
652.984	0.0135451
653.062	0.0136354
653.140	0.0136984
653.218	0.0135683
653.296	0.0134941
653.374	0.0136054
653.453	0.0136067
653.531	0.0136806
653.609	0.0137947
653.687	0.0135352
653.765	0.0136205
653.843	0.0137486
653.921	0.0137145
653.999	0.0134506
654.078	0.0136400
654.156	0.0137506
654.234	0.0137908
654.312	0.0135686
654.390	0.0136816
654.468	0.0135445
654.546	0.0135138
654.624	0.0136645
654.703	0.0136994
654.781	0.0136657
654.859	0.0137726
654.937	0.0138309
655.015	0.0135477
655.093	0.0135379
655.171	0.0136353
655.249	0.0135182
655.328	0.0135644
655.406	0.0136728
655.484	0.0136743
655.562	0.0136365
655.640	0.0136004
655.718	0.0135982
655.796	0.0136804
655.874	0.0138244
655.953	0.0135631
656.031	0.0136427
656.109	0.0136036
656.187	0.0136773
656.265	0.0137444
656.343	0.0137814
656.421	0.0136884
656.499	0.0137012
656.578	0.0136214
656.656	0.0136534
656.734	0.0135987
656.812	0.0136369
656.890	0.0135696
656.968	0.0136079
657.046	0.0135452
657.124	0.0137055
657.203	0.0137444
657.281	0.0135268
657.359	0.0135723
657.437	0.0136842
657.515	0.0135717
657.593	0.0135603
657.671	0.0135550
657.749	0.0136543
657.828	0.0135767
657.906	0.0137241
657.984	0.0134528
658.062	0.0136018
658.140	0.0137371
658.218	0.0136005
658.296	0.0135228
658.374	0.0135752
658.453	0.0136900
658.531	0.0136402
658.609	0.0136192
658.687	0.0135938
658.765	0.0135532
658.843	0.0134415
658.921	0.0137753
658.999	0.0137144
659.078	0.0136329
659.156	0.0135394
659.234	0.0135220
659.312	0.0135746
659.390	0.0135991
659.468	0.0135549
659.546	0.0137115
659.624	0.0135517
659.703	0.0134627
659.781	0.0136556
659.859	0.0134818
659.937	0.0136362
660.015	0.0136326
660.093	0.0136263
660.171	0.0135487
660.249	0.0136329
660.328	0.0135998
660.406	0.0136217
660.484	0.0135285
660.562	0.0135626
660.640	0.0136508
660.718	0.0136617
660.796	0.0136404
660.874	0.0136349
660.953	0.0137154
661.031	0.0136376
661.109	0.0136478
661.187	0.0135413
661.265	0.0135448
661.343	0.0136684
661.421	0.0136548
661.499	0.0136996
661.578	0.0135731
661.656	0.0136668
661.734	0.0135351
661.812	0.0136498
661.890	0.0137231
661.968	0.0136313
662.046	0.0135694
662.124	0.0137128
662.203	0.0136373
662.281	0.0135439
662.359	0.0135940
662.437	0.0134566
662.515	0.0135506
662.593	0.0135651
662.671	0.0135900
662.749	0.0135274
662.828	0.0135623
662.906	0.0135155
662.984	0.0135002
663.062	0.0135081
663.140	0.0135429
663.218	0.0135416
663.296	0.0136265
663.374	0.0136073
663.453	0.0135361
663.531	0.0136044
663.609	0.0135847
663.687	0.0136452
663.765	0.0135553
663.843	0.0135663
663.921	0.0135187
663.999	0.0135275
664.078	0.0137244
664.156	0.0136585
664.234	0.0137107
664.312	0.0137287
664.390	0.0136798
664.468	0.0135233
664.546	0.0135099
664.624	0.0135614
664.703	0.0137152
664.781	0.0137525
664.859	0.0135217
664.937	0.0135163
665.015	0.0135931
665.093	0.0136226
665.171	0.0136354
665.249	0.0134809
665.328	0.0135870
665.406	0.0136646
665.484	0.0136795
665.562	0.0135905
665.640	0.0136107
665.718	0.0135292
665.796	0.0135848
665.874	0.0137175
665.953	0.0135947
666.031	0.0136526
666.109	0.0134909
666.187	0.0137279
666.265	0.0136169
666.343	0.0134808
666.421	0.0136951
666.499	0.0134689
666.578	0.0135863
666.656	0.0137099
666.734	0.0136463
666.812	0.0136385
666.890	0.0136314
666.968	0.0136567
667.046	0.0135931
667.124	0.0136727
667.203	0.0136030
667.281	0.0135549
667.359	0.0135863
667.437	0.0136565
667.515	0.0135644
667.593	0.0134944
667.671	0.0135364
667.749	0.0135614
667.828	0.0134816
667.906	0.0136086
667.984	0.0135761
668.062	0.0135921
668.140	0.0135099
668.218	0.0136571
668.296	0.0136687
668.374	0.0136176
668.453	0.0135964
668.531	0.0135706
668.609	0.0136288
668.687	0.0135127
668.765	0.0137067
668.843	0.0136053
668.921	0.0135964
668.999	0.0136100
669.078	0.0137711
669.156	0.0137004
669.234	0.0136617
669.312	0.0135674
669.390	0.0135323
669.468	0.0135843
669.546	0.0136568
669.624	0.0136276
669.703	0.0135043
669.781	0.0134216
669.859	0.0136142
669.937	0.0135274
670.015	0.0135487
670.093	0.0135977
670.171	0.0136593
670.249	0.0136608
670.328	0.0135347
670.406	0.0136411
670.484	0.0136295
670.562	0.0136329
670.640	0.0136300
670.718	0.0135209
670.796	0.0137359
670.874	0.0135768
670.953	0.0137164
671.031	0.0136795
671.109	0.0135625
671.187	0.0136070
671.265	0.0136423
671.343	0.0136493
671.421	0.0135692
671.499	0.0134939
671.578	0.0135395
671.656	0.0136739
671.734	0.0136140
671.812	0.0136720
671.890	0.0136338
671.968	0.0135255
672.046	0.0135088
672.124	0.0136149
672.203	0.0135477
672.281	0.0136629
672.359	0.0137492
672.437	0.0136972
672.515	0.0135254
672.593	0.0136989
672.671	0.0137174
672.749	0.0135268
672.828	0.0136367
672.906	0.0136515
672.984	0.0135514
673.062	0.0136514
673.140	0.0136578
673.218	0.0135976
673.296	0.0135222
673.374	0.0134921
673.453	0.0135867
673.531	0.0134607
673.609	0.0135648
673.687	0.0135526
673.765	0.0136327
673.843	0.0136508
673.921	0.0135217
673.999	0.0135365
674.078	0.0137366
674.156	0.0137370
674.234	0.0137954
674.312	0.0137215
674.390	0.0137300
674.468	0.0137299
674.546	0.0136301
674.624	0.0137270
674.703	0.0137179
674.781	0.0136583
674.859	0.0134442
674.937	0.0135513
675.015	0.0135152
675.093	0.0134645
675.171	0.0135240
675.249	0.0136411
675.328	0.0135519
675.406	0.0134287
675.484	0.0135508
675.562	0.0135369
675.640	0.0136448
675.718	0.0135567
675.796	0.0135457
675.874	0.0135075
675.953	0.0136863
676.031	0.0136900
676.109	0.0137289
676.187	0.0137179
676.265	0.0136016
676.343	0.0136137
676.421	0.0136060
676.499	0.0137536
676.578	0.0136423
676.656	0.0137540
676.734	0.0136784
676.812	0.0136579
676.890	0.0137609
676.968	0.0136274
677.046	0.0136139
677.124	0.0136659
677.203	0.0137029
677.281	0.0135372
677.359	0.0136773
677.437	0.0135162
677.515	0.0135529
677.593	0.0133513
677.671	0.0132341
677.749	0.0132444
677.828	0.0132926
677.906	0.0132266
677.984	0.0132752
678.062	0.0133110
678.140	0.0133739
678.218	0.0135072
678.296	0.0135594
678.374	0.0136224
678.453	0.0135653
678.531	0.0138403
678.609	0.0137952
678.687	0.0137838
678.765	0.0139735
678.843	0.0139523
678.921	0.0137988
678.999	0.0139834
679.078	0.0138583
679.156	0.0139430
679.234	0.0138333
679.312	0.0137522
679.390	0.0136669
679.468	0.0136947
679.546	0.0135539
679.624	0.0135030
679.703	0.0135010
679.781	0.0135466
679.859	0.0135484
679.937	0.0133419
680.015	0.0134717
680.093	0.0134046
680.171	0.0134695
680.249	0.0135264
680.328	0.0135355
680.406	0.0136383
680.484	0.0136392
680.562	0.0136928
680.640	0.0135748
680.718	0.0135156
680.796	0.0136460
680.874	0.0134879
680.953	0.0135567
681.031	0.0135208
681.109	0.0135030
681.187	0.0132523
681.265	0.0133250
681.343	0.0133313
681.421	0.0133545
681.499	0.0134389
681.578	0.0131902
681.656	0.0131880
681.734	0.0133768
681.812	0.0134273
681.890	0.0134610
681.968	0.0135439
682.046	0.0136419
682.124	0.0138363
682.203	0.0137005
682.281	0.0138898
682.359	0.0139916
682.437	0.0139547
682.515	0.0139759
682.593	0.0139863
682.671	0.0140592
682.749	0.0141229
682.828	0.0139191
682.906	0.0140202
682.984	0.0138685
683.062	0.0137939
683.140	0.0138467
683.218	0.0138386
683.296	0.0138144
683.374	0.0139658
683.453	0.0139716
683.531	0.0140223
683.609	0.0139490
683.687	0.0140056
683.765	0.0139994
683.843	0.0140206
683.921	0.0140350
683.999	0.0139902
684.078	0.0138641
684.156	0.0137298
684.234	0.0135229
684.312	0.0133127
684.390	0.0131408
684.468	0.0128999
684.546	0.0125461
684.624	0.0123744
684.703	0.0123134
684.781	0.0121645
684.859	0.0120033
684.937	0.0119650
685.015	0.0121043
685.093	0.0123116
685.171	0.0125132
685.249	0.0126147
685.328	0.0128831
685.406	0.0132523
685.484	0.0134248
685.562	0.0138947
685.640	0.0140448
685.718	0.0143607
685.796	0.0145731
685.874	0.0146696
685.953	0.0147211
686.031	0.0147157
686.109	0.0149477
686.187	0.0147655
686.265	0.0147451
686.343	0.0146175
686.421	0.0144829
686.499	0.0144100
686.578	0.0142545
686.656	0.0140804
686.734	0.0139523
686.812	0.0139057
686.890	0.0139113
686.968	0.0139716
687.046	0.0138168
687.124	0.0139076
687.203	0.0140184
687.281	0.0142635
687.359	0.0142683
687.437	0.0144751
687.515	0.0144117
687.593	0.0143961
687.671	0.0144629
687.749	0.0141751
687.828	0.0142310
687.906	0.0138802
687.984	0.0136028
688.062	0.0133283
688.140	0.0128700
688.218	0.0127216
688.296	0.0121847
688.374	0.0119519
688.453	0.0115054
688.531	0.0113306
688.609	0.0112596
688.687	0.0110666
688.765	0.0111879
688.843	0.0112003
688.921	0.0112566
688.999	0.0115481
689.078	0.0117960
689.156	0.0121130
689.234	0.0124684
689.312	0.0129231
689.390	0.0132492
689.468	0.0136926
689.546	0.0142335
689.624	0.0145016
689.703	0.0147744
689.781	0.0150850
689.859	0.0152990
689.937	0.0153683
690.015	0.0156276
690.093	0.0156923
690.171	0.0159237
690.249	0.0158389
690.328	0.0157518
690.406	0.0156239
690.484	0.0154870
690.562	0.0153611
690.640	0.0154312
690.718	0.0150305
690.796	0.0148570
690.874	0.0146587
690.953	0.0145149
691.031	0.0144100
691.109	0.0144093
691.187	0.0142551
691.265	0.0140010
691.343	0.0140211
691.421	0.0139473
691.499	0.0137618
691.578	0.0135320
691.656	0.0133663
691.734	0.0133463
691.812	0.0130748
691.890	0.0127618
691.968	0.0126167
692.046	0.0122825
692.124	0.0121674
692.203	0.0118376
692.281	0.0115461
692.359	0.0112814
692.437	0.0111054
692.515	0.0109450
692.593	0.0108119
692.671	0.0107115
692.749	0.0107317
692.828	0.0109365
692.906	0.0112083
692.984	0.0115670
693.062	0.0118302
693.140	0.0123296
693.218	0.0127671
693.296	0.0132687
693.374	0.0135458
693.453	0.0140108
693.531	0.0145344
693.609	0.0147520
693.687	0.0151549
693.765	0.0154765
693.843	0.0156523
693.921	0.0158793
693.999	0.0161295
694.078	0.0162241
694.156	0.0161581
694.234	0.0162179
694.312	0.0162114
694.390	0.0161261
694.468	0.0159683
694.546	0.0157849
694.624	0.0156973
694.703	0.0153382
694.781	0.0153349
694.859	0.0150906
694.937	0.0148593
695.015	0.0144785
695.093	0.0141835
695.171	0.0140057
695.249	0.0139775
695.328	0.0136575
695.406	0.0134113
695.484	0.0132774
695.562	0.0132047
695.640	0.0130840
695.718	0.0127717
695.796	0.0126361
695.874	0.0124603
695.953	0.0122223
696.031	0.0121829
696.109	0.0119592
696.187	0.0119063
696.265	0.0117885
696.343	0.0117503
696.421	0.0115968
696.499	0.0115558
696.578	0.0114890
696.656	0.0116740
696.734	0.0118108
696.812	0.0116822
696.890	0.0119917
696.968	0.0120106
697.046	0.0121695
697.124	0.0124191
697.203	0.0126271
697.281	0.0128820
697.359	0.0132397
697.437	0.0133634
697.515	0.0137738
697.593	0.0138369
697.671	0.0140232
697.749	0.0142779
697.828	0.0144861
697.906	0.0146424
697.984	0.0149571
698.062	0.0150887
698.140	0.0153245
698.218	0.0152288
698.296	0.0154357
698.374	0.0156118
698.453	0.0155889
698.531	0.0155315
698.609	0.0156764
698.687	0.0156970
698.765	0.0155000
698.843	0.0155290
698.921	0.0153400
698.999	0.0151437
699.078	0.0149099
699.156	0.0147131
699.234	0.0147101
699.312	0.0143646
699.390	0.0140478
699.468	0.0138481
699.546	0.0137736
699.624	0.0135242
699.703	0.0135139
699.781	0.0133433
699.859	0.0132489
699.937	0.0130370
700.015	0.0128708
700.093	0.0128429
700.171	0.0126131
700.249	0.0124342
700.328	0.0123410
700.406	0.0122303
700.484	0.0120102
700.562	0.0120169
700.640	0.0119543
700.718	0.0118406
700.796	0.0117553
700.874	0.0119106
700.953	0.0118414
701.031	0.0119167
701.109	0.0119458
701.187	0.0118523
701.265	0.0121126
701.343	0.0121616
701.421	0.0123515
701.499	0.0125675
701.578	0.0126359
701.656	0.0128489
701.734	0.0130118
701.812	0.0132977
701.890	0.0135812
701.968	0.0138575
702.046	0.0140160
702.124	0.0140907
702.203	0.0144772
702.281	0.0148293
702.359	0.0148901
702.437	0.0152773
702.515	0.0155323
702.593	0.0157830
702.671	0.0158685
702.749	0.0160835
702.828	0.0161893
702.906	0.0160747
702.984	0.0161361
703.062	0.0159210
703.140	0.0159770
703.218	0.0155740
703.296	0.0153877
703.374	0.0151849
703.453	0.0146095
703.531	0.0143622
703.609	0.0141174
703.687	0.0138494
703.765	0.0133354
703.843	0.0129880
703.921	0.0128050
703.999	0.0124979
704.078	0.0124983
704.156	0.0123146
704.234	0.0120286
704.312	0.0118336
704.390	0.0117233
704.468	0.0117239
704.546	0.0118581
704.624	0.0119489
704.703	0.0118182
704.781	0.0118794
704.859	0.0119173
704.937	0.0121534
705.015	0.0124097
705.093	0.0124608
705.171	0.0125897
705.249	0.0124833
705.328	0.0128452
705.406	0.0128970
705.484	0.0129708
705.562	0.0132334
705.640	0.0132204
705.718	0.0132652
705.796	0.0135522
705.874	0.0136442
705.953	0.0137474
706.031	0.0138303
706.109	0.0140195
706.187	0.0141444
706.265	0.0142112
706.343	0.0143246
706.421	0.0146285
706.499	0.0145687
706.578	0.0148692
706.656	0.0150421
706.734	0.0151212
706.812	0.0151718
706.890	0.0154302
706.968	0.0153118
707.046	0.0153573
707.124	0.0152344
707.203	0.0151283
707.281	0.0148727
707.359	0.0146228
707.437	0.0144680
707.515	0.0143254
707.593	0.0139742
707.671	0.0137309
707.749	0.0134367
707.828	0.0135160
707.906	0.0132539
707.984	0.0130695
708.062	0.0128922
708.140	0.0127512
708.218	0.0127555
708.296	0.0127465
708.374	0.0125915
708.453	0.0124680
708.531	0.0125900
708.609	0.0126654
708.687	0.0125519
708.765	0.0126070
708.843	0.0128014
708.921	0.0127759
708.999	0.0129828
709.078	0.0129445
709.156	0.0131493
709.234	0.0132919
709.312	0.0132028
709.390	0.0133980
709.468	0.0135361
709.546	0.0135371
709.624	0.0135175
709.703	0.0135428
709.781	0.0136431
709.859	0.0136662
709.937	0.0134105
710.015	0.0136495
710.093	0.0135914
710.171	0.0135176
710.249	0.0134414
710.328	0.0133388
710.406	0.0133792
710.484	0.0134120
710.562	0.0134863
710.640	0.0135428
710.718	0.0135945
710.796	0.0139231
710.874	0.0140713
710.953	0.0142101
711.031	0.0144657
711.109	0.0145458
711.187	0.0146454
711.265	0.0147034
711.343	0.0147330
711.421	0.0147452
711.499	0.0148531
711.578	0.0147684
711.656	0.0144273
711.734	0.0144494
711.812	0.0142989
711.890	0.0139455
711.968	0.0138289
712.046	0.0136704
712.124	0.0135006
712.203	0.0131521
712.281	0.0129430
712.359	0.0128983
712.437	0.0127677
712.515	0.0126654
712.593	0.0126659
712.671	0.0127428
712.749	0.0127511
712.828	0.0128849
712.906	0.0129308
712.984	0.0130483
713.062	0.0133209
713.140	0.0134559
713.218	0.0136198
713.296	0.0137244
713.374	0.0139986
713.453	0.0140129
713.531	0.0143411
713.609	0.0143215
713.687	0.0142961
713.765	0.0142919
713.843	0.0140733
713.921	0.0139716
713.999	0.0138890
714.078	0.0137351
714.156	0.0134926
714.234	0.0132343
714.312	0.0130434
714.390	0.0128192
714.468	0.0127951
714.546	0.0126821
714.624	0.0127071
714.703	0.0127140
714.781	0.0126682
714.859	0.0127744
714.937	0.0129462
715.015	0.0130460
715.093	0.0132635
715.171	0.0135567
715.249	0.0137155
715.328	0.0138526
715.406	0.0139265
715.484	0.0140848
715.562	0.0143338
715.640	0.0142931
715.718	0.0142552
715.796	0.0142521
715.874	0.0142527
715.953	0.0142324
716.031	0.0141895
716.109	0.0139090
716.187	0.0137971
716.265	0.0138279
716.343	0.0136329
716.421	0.0135357
716.499	0.0135727
716.578	0.0135101
716.656	0.0133460
716.734	0.0133828
716.812	0.0134191
716.890	0.0133224
716.968	0.0134667
717.046	0.0136373
717.124	0.0137421
717.203	0.0138123
717.281	0.0138345
717.359	0.0140138
717.437	0.0139751
717.515	0.0141167
717.593	0.0141475
717.671	0.0141782
717.749	0.0140692
717.828	0.0141573
717.906	0.0140872
717.984	0.0138944
718.062	0.0137874
718.140	0.0135162
718.218	0.0134473
718.296	0.0133353
718.374	0.0131676
718.453	0.0129559
718.531	0.0128562
718.609	0.0126757
718.687	0.0125261
718.765	0.0127933
718.843	0.0126593
718.921	0.0127400
718.999	0.0128766
719.078	0.0129697
719.156	0.0130573
719.234	0.0131788
719.312	0.0134020
719.390	0.0136499
719.468	0.0136999
719.546	0.0140473
719.624	0.0140092
719.703	0.0140514
719.781	0.0141762
719.859	0.0141853
719.937	0.0141938
720.015	0.0142938
720.093	0.0143745
720.171	0.0139971
720.249	0.0139251
720.328	0.0139808
720.406	0.0138973
720.484	0.0136208
720.562	0.0137173
720.640	0.0135294
720.718	0.0135258
720.796	0.0135177
720.874	0.0132911
720.953	0.0133296
721.031	0.0134119
721.109	0.0135288
721.187	0.0134805
721.265	0.0134528
721.343	0.0134344
721.421	0.0135391
721.499	0.0136160
721.578	0.0135831
721.656	0.0137666
721.734	0.0137550
721.812	0.0137070
721.890	0.0137824
721.968	0.0137878
722.046	0.0136777
722.124	0.0135719
722.203	0.0134499
722.281	0.0135396
722.359	0.0132667
722.437	0.0130914
722.515	0.0130281
722.593	0.0131010
722.671	0.0130623
722.749	0.0129350
722.828	0.0128732
722.906	0.0129253
722.984	0.0130492
723.062	0.0129768
723.140	0.0131075
723.218	0.0132252
723.296	0.0134290
723.374	0.0136963
723.453	0.0138319
723.531	0.0140158
723.609	0.0142433
723.687	0.0142720
723.765	0.0143684
723.843	0.0144257
723.921	0.0144955
723.999	0.0146743
724.078	0.0146303
724.156	0.0146393
724.234	0.0144978
724.312	0.0142680
724.390	0.0144099
724.468	0.0142094
724.546	0.0140119
724.624	0.0142891
724.703	0.0138824
724.781	0.0138599
724.859	0.0138253
724.937	0.0136774
725.015	0.0136431
725.093	0.0135051
725.171	0.0134909
725.249	0.0135383
725.328	0.0133701
725.406	0.0134280
725.484	0.0135301
725.562	0.0134621
725.640	0.0134557
725.718	0.0133105
725.796	0.0132986
725.874	0.0131527
725.953	0.0131368
726.031	0.0132263
726.109	0.0132290
726.187	0.0130590
726.265	0.0130505
726.343	0.0129137
726.421	0.0129961
726.499	0.0129726
726.578	0.0129341
726.656	0.0129628
726.734	0.0128165
726.812	0.0128406
726.890	0.0129549
726.968	0.0130167
727.046	0.0130740
727.124	0.0132327
727.203	0.0133261
727.281	0.0133818
727.359	0.0135735
727.437	0.0137533
727.515	0.0139598
727.593	0.0140453
727.671	0.0141080
727.749	0.0143698
727.828	0.0144568
727.906	0.0144180
727.984	0.0146074
728.062	0.0145583
728.140	0.0147379
728.218	0.0147720
728.296	0.0145747
728.374	0.0145409
728.453	0.0144218
728.531	0.0143581
728.609	0.0143152
728.687	0.0140466
728.765	0.0140881
728.843	0.0139711
728.921	0.0139030
728.999	0.0138557
729.078	0.0136784
729.156	0.0135566
729.234	0.0135325
729.312	0.0135010
729.390	0.0134797
729.468	0.0132713
729.546	0.0133574
729.624	0.0133555
729.703	0.0133382
729.781	0.0132806
729.859	0.0131816
729.937	0.0132295
730.015	0.0131404
730.093	0.0132021
730.171	0.0130858
730.249	0.0131022
730.328	0.0130890
730.406	0.0130412
730.484	0.0130874
730.562	0.0129707
730.640	0.0131040
730.718	0.0131573
730.796	0.0132102
730.874	0.0130457
730.953	0.0131815
731.031	0.0133184
731.109	0.0133958
731.187	0.0134631
731.265	0.0136669
731.343	0.0136726
731.421	0.0138098
731.499	0.0139224
731.578	0.0138118
731.656	0.0140393
731.734	0.0141645
731.812	0.0142105
731.890	0.0141120
731.968	0.0141951
732.046	0.0142937
732.124	0.0142186
732.203	0.0142521
732.281	0.0141811
732.359	0.0140955
732.437	0.0141797
732.515	0.0141574
732.593	0.0138894
732.671	0.0137757
732.749	0.0138738
732.828	0.0137989
732.906	0.0136253
732.984	0.0136896
733.062	0.0135367
733.140	0.0134911
733.218	0.0134898
733.296	0.0133546
733.374	0.0133672
733.453	0.0133719
733.531	0.0132736
733.609	0.0132069
733.687	0.0133038
733.765	0.0133488
733.843	0.0131673
733.921	0.0131635
733.999	0.0131379
734.078	0.0132136
734.156	0.0131783
734.234	0.0133648
734.312	0.0131116
734.390	0.0131966
734.468	0.0132623
734.546	0.0132159
734.624	0.0132501
734.703	0.0133436
734.781	0.0134202
734.859	0.0133622
734.937	0.0134312
735.015	0.0135639
735.093	0.0136899
735.171	0.0138689
735.249	0.0139450
735.328	0.0139741
735.406	0.0139842
735.484	0.0140942
735.562	0.0141324
735.640	0.0143093
735.718	0.0143890
735.796	0.0144260
735.874	0.0144188
735.953	0.0144789
736.031	0.0144036
736.109	0.0142943
736.187	0.0141816
736.265	0.0141177
736.343	0.0140934
736.421	0.0140559
736.499	0.0139310
736.578	0.0138460
736.656	0.0137459
736.734	0.0135257
736.812	0.0133686
736.890	0.0133333
736.968	0.0131723
737.046	0.0131933
737.124	0.0131766
737.203	0.0130566
737.281	0.0130331
737.359	0.0128719
737.437	0.0129395
737.515	0.0130459
737.593	0.0127776
737.671	0.0128715
737.749	0.0129541
737.828	0.0128356
737.906	0.0130090
737.984	0.0131679
738.062	0.0130747
738.140	0.0131945
738.218	0.0132508
738.296	0.0131000
738.374	0.0133498
738.453	0.0134790
738.531	0.0134536
738.609	0.0135416
738.687	0.0135980
738.765	0.0136435
738.843	0.0138432
738.921	0.0141212
738.999	0.0139513
739.078	0.0142120
739.156	0.0141557
739.234	0.0141193
739.312	0.0143102
739.390	0.0143120
739.468	0.0142017
739.546	0.0142450
739.624	0.0142902
739.703	0.0143733
739.781	0.0143271
739.859	0.0144309
739.937	0.0143250
740.015	0.0141402
740.093	0.0141617
740.171	0.0140734
740.249	0.0140931
740.328	0.0140993
740.406	0.0139880
740.484	0.0137225
740.562	0.0137738
740.640	0.0137404
740.718	0.0134978
740.796	0.0134521
740.874	0.0132285
740.953	0.0132127
741.031	0.0131332
741.109	0.0129980
741.187	0.0130186
741.265	0.0129552
741.343	0.0128437
741.421	0.0128502
741.499	0.0128572
741.578	0.0128969
741.656	0.0128538
741.734	0.0129227
741.812	0.0130766
741.890	0.0130611
741.968	0.0132349
742.046	0.0131069
742.124	0.0132471
742.203	0.0133867
742.281	0.0135500
742.359	0.0135728
742.437	0.0134508
742.515	0.0136382
742.593	0.0135205
742.671	0.0136448
742.749	0.0136905
742.828	0.0138238
742.906	0.0137109
742.984	0.0136514
743.062	0.0138428
743.140	0.0137962
743.218	0.0140514
743.296	0.0139622
743.374	0.0139724
743.453	0.0140041
743.531	0.0141334
743.609	0.0142160
743.687	0.0141782
743.765	0.0141994
743.843	0.0141756
743.921	0.0142017
743.999	0.0142267
744.078	0.0141961
744.156	0.0140977
744.234	0.0140778
744.312	0.0142056
744.390	0.0139716
744.468	0.0138782
744.546	0.0137639
744.624	0.0137205
744.703	0.0136960
744.781	0.0134950
744.859	0.0132864
744.937	0.0131699
745.015	0.0131487
745.093	0.0132230
745.171	0.0130669
745.249	0.0129594
745.328	0.0129025
745.406	0.0128411
745.484	0.0127407
745.562	0.0129498
745.640	0.0129538
745.718	0.0129210
745.796	0.0131409
745.874	0.0131413
745.953	0.0132983
746.031	0.0132903
746.109	0.0134359
746.187	0.0135752
746.265	0.0137876
746.343	0.0138771
746.421	0.0139440
746.499	0.0138699
746.578	0.0141125
746.656	0.0140489
746.734	0.0140980
746.812	0.0139703
746.890	0.0140479
746.968	0.0140257
747.046	0.0140193
747.124	0.0140232
747.203	0.0139660
747.281	0.0139586
747.359	0.0139143
747.437	0.0139446
747.515	0.0138481
747.593	0.0139461
747.671	0.0139126
747.749	0.0138634
747.828	0.0138465
747.906	0.0139614
747.984	0.0138619
748.062	0.0138660
748.140	0.0138354
748.218	0.0137653
748.296	0.0137999
748.374	0.0135397
748.453	0.0135205
748.531	0.0136649
748.609	0.0135696
748.687	0.0134712
748.765	0.0132215
748.843	0.0133279
748.921	0.0131285
748.999	0.0129478
749.078	0.0129825
749.156	0.0128271
749.234	0.0130064
749.312	0.0130901
749.390	0.0128918
749.468	0.0128310
749.546	0.0129897
749.624	0.0130639
749.703	0.0132317
749.781	0.0132544
749.859	0.0132420
749.937	0.0134903
750.015	0.0135340
750.093	0.0136645
750.171	0.0136551
750.249	0.0137432
750.328	0.0137150
750.406	0.0138811
750.484	0.0139497
750.562	0.0141051
750.640	0.0141333
750.718	0.0140327
750.796	0.0141822
750.874	0.0141260
750.953	0.0140096
751.031	0.0140121
751.109	0.0140187
751.187	0.0140351
751.265	0.0140591
751.343	0.0139123
751.421	0.0137761
751.499	0.0138947
751.578	0.0138826
751.656	0.0139113
751.734	0.0138991
751.812	0.0138503
751.890	0.0137677
751.968	0.0137520
752.046	0.0138432
752.124	0.0138093
752.203	0.0137752
752.281	0.0136025
752.359	0.0136068
752.437	0.0135639
752.515	0.0135876
752.593	0.0135513
752.671	0.0134739
752.749	0.0133401
752.828	0.0133334
752.906	0.0132476
752.984	0.0132099
753.062	0.0131147
753.140	0.0131313
753.218	0.0130424
753.296	0.0129613
753.374	0.0129788
753.453	0.0132147
753.531	0.0131718
753.609	0.0131552
753.687	0.0132523
753.765	0.0132925
753.843	0.0133989
753.921	0.0134780
753.999	0.0136053
754.078	0.0138483
754.156	0.0138262
754.234	0.0138833
754.312	0.0137415
754.390	0.0138613
754.468	0.0137830
754.546	0.0140136
754.624	0.0139202
754.703	0.0138988
754.781	0.0140228
754.859	0.0140932
754.937	0.0139993
755.015	0.0139301
755.093	0.0138541
755.171	0.0138622
755.249	0.0138374
755.328	0.0139816
755.406	0.0138541
755.484	0.0139421
755.562	0.0138770
755.640	0.0135638
755.718	0.0136848
755.796	0.0136739
755.874	0.0136591
755.953	0.0137695
756.031	0.0136503
756.109	0.0136227
756.187	0.0136263
756.265	0.0135294
756.343	0.0135094
756.421	0.0134421
756.499	0.0134136
756.578	0.0134657
756.656	0.0133074
756.734	0.0132278
756.812	0.0132378
756.890	0.0133614
756.968	0.0131995
757.046	0.0131805
757.124	0.0131259
757.203	0.0131602
757.281	0.0129598
757.359	0.0130587
757.437	0.0130595
757.515	0.0131954
757.593	0.0131374
757.671	0.0133482
757.749	0.0133470
757.828	0.0134719
757.906	0.0135130
757.984	0.0136353
758.062	0.0135593
758.140	0.0136765
758.218	0.0138038
758.296	0.0139020
758.374	0.0137754
758.453	0.0139204
758.531	0.0141206
758.609	0.0140170
758.687	0.0141226
758.765	0.0141084
758.843	0.0140707
758.921	0.0140437
758.999	0.0141877
759.078	0.0141102
759.156	0.0140293
759.234	0.0141235
759.312	0.0140556
759.390	0.0139198
759.468	0.0138644
759.546	0.0138168
759.624	0.0137006
759.703	0.0136514
759.781	0.0135775
759.859	0.0134034
759.937	0.0132517
760.015	0.0131733
760.093	0.0133952
760.171	0.0132806
760.249	0.0131834
760.328	0.0130976
760.406	0.0133060
760.484	0.0132490
760.562	0.0132675
760.640	0.0132605
760.718	0.0134155
760.796	0.0133598
760.874	0.0133793
760.953	0.0134251
761.031	0.0134119
761.109	0.0134451
761.187	0.0135225
761.265	0.0134492
761.343	0.0135963
761.421	0.0134513
761.499	0.0135857
761.578	0.0134660
761.656	0.0134228
761.734	0.0133903
761.812	0.0134890
761.890	0.0135574
761.968	0.0135426
762.046	0.0135075
762.124	0.0133725
762.203	0.0136537
762.281	0.0135335
762.359	0.0136507
762.437	0.0136144
762.515	0.0138221
762.593	0.0138252
762.671	0.0138164
762.749	0.0138814
762.828	0.0139865
762.906	0.0140492
762.984	0.0140260
763.062	0.0138874
763.140	0.0138698
763.218	0.0137294
763.296	0.0138508
763.374	0.0137938
763.453	0.0138274
763.531	0.0137060
763.609	0.0136707
763.687	0.0137321
763.765	0.0135828
763.843	0.0135710
763.921	0.0134371
763.999	0.0134515
764.078	0.0134470
764.156	0.0135745
764.234	0.0134880
764.312	0.0133038
764.390	0.0134096
764.468	0.0133865
764.546	0.0134037
764.624	0.0132611
764.703	0.0133105
764.781	0.0133856
764.859	0.0132981
764.937	0.0133722
765.015	0.0134615
765.093	0.0133610
765.171	0.0134054
765.249	0.0135103
765.328	0.0135605
765.406	0.0135895
765.484	0.0136539
765.562	0.0134956
765.640	0.0136726
765.718	0.0135171
765.796	0.0135831
765.874	0.0135556
765.953	0.0136035
766.031	0.0135168
766.109	0.0136177
766.187	0.0135530
766.265	0.0137181
766.343	0.0137596
766.421	0.0136423
766.499	0.0135947
766.578	0.0138301
766.656	0.0137558
766.734	0.0138400
766.812	0.0138117
766.890	0.0139484
766.968	0.0139375
767.046	0.0140673
767.124	0.0139818
767.203	0.0139560
767.281	0.0138113
767.359	0.0137973
767.437	0.0137862
767.515	0.0137090
767.593	0.0136110
767.671	0.0136456
767.749	0.0134409
767.828	0.0133767
767.906	0.0133358
767.984	0.0131915
768.062	0.0130489
768.140	0.0130729
768.218	0.0131226
768.296	0.0132259
768.374	0.0132203
768.453	0.0131308
768.531	0.0132214
768.609	0.0132404
768.687	0.0133936
768.765	0.0134714
768.843	0.0135703
768.921	0.0135168
768.999	0.0135706
769.078	0.0134917
769.156	0.0134971
769.234	0.0135539
769.312	0.0136719
769.390	0.0137143
769.468	0.0136185
769.546	0.0135252
769.624	0.0134985
769.703	0.0135661
769.781	0.0135707
769.859	0.0135947
769.937	0.0137453
770.015	0.0136798
770.093	0.0137656
770.171	0.0137593
770.249	0.0138377
770.328	0.0138465
770.406	0.0138553
770.484	0.0138908
770.562	0.0138988
770.640	0.0138362
770.718	0.0137039
770.796	0.0137810
770.874	0.0137921
770.953	0.0137672
771.031	0.0137389
771.109	0.0136780
771.187	0.0136658
771.265	0.0137070
771.343	0.0135772
771.421	0.0135599
771.499	0.0135682
771.578	0.0135940
771.656	0.0137066
771.734	0.0133784
771.812	0.0134232
771.890	0.0132801
771.968	0.0131723
772.046	0.0130406
772.124	0.0129415
772.203	0.0129108
772.281	0.0129803
772.359	0.0129060
772.437	0.0129555
772.515	0.0130527
772.593	0.0131958
772.671	0.0131911
772.749	0.0134822
772.828	0.0134325
772.906	0.0137048
772.984	0.0137827
773.062	0.0137126
773.140	0.0140372
773.218	0.0139938
773.296	0.0141557
773.374	0.0141538
773.453	0.0140336
773.531	0.0139881
773.609	0.0139315
773.687	0.0137580
773.765	0.0138206
773.843	0.0136457
773.921	0.0138042
773.999	0.0135524
774.078	0.0136019
774.156	0.0137451
774.234	0.0137024
774.312	0.0138766
774.390	0.0138428
774.468	0.0137584
774.546	0.0139277
774.624	0.0138414
774.703	0.0136446
774.781	0.0136765
774.859	0.0136864
774.937	0.0136349
775.015	0.0134048
775.093	0.0134110
775.171	0.0132115
775.249	0.0132705
775.328	0.0132262
775.406	0.0132395
775.484	0.0132633
775.562	0.0132561
775.640	0.0133151
775.718	0.0134820
775.796	0.0135126
775.874	0.0133654
775.953	0.0134955
776.031	0.0134177
776.109	0.0134524
776.187	0.0133904
776.265	0.0133585
776.343	0.0132772
776.421	0.0132070
776.499	0.0132059
776.578	0.0134175
776.656	0.0133002
776.734	0.0132659
776.812	0.0133728
776.890	0.0134087
776.968	0.0135760
777.046	0.0136191
777.124	0.0136650
777.203	0.0138783
777.281	0.0139154
777.359	0.0139220
777.437	0.0139434
777.515	0.0139178
777.593	0.0139063
777.671	0.0140359
777.749	0.0138658
777.828	0.0138736
777.906	0.0137190
777.984	0.0136192
778.062	0.0136826
778.140	0.0135357
778.218	0.0135786
778.296	0.0135533
778.374	0.0136578
778.453	0.0137084
778.531	0.0137327
778.609	0.0136243
778.687	0.0137096
778.765	0.0136902
778.843	0.0136887
778.921	0.0136697
778.999	0.0138638
779.078	0.0136397
779.156	0.0134191
779.234	0.0134090
779.312	0.0135164
779.390	0.0133289
779.468	0.0133730
779.546	0.0134174
779.624	0.0133678
779.703	0.0133424
779.781	0.0134611
779.859	0.0133949
779.937	0.0133603
780.015	0.0134615
780.093	0.0133813
780.171	0.0133967
780.249	0.0134392
780.328	0.0134770
780.406	0.0133774
780.484	0.0135689
780.562	0.0134036
780.640	0.0132662
780.718	0.0134362
780.796	0.0135308
780.874	0.0133862
780.953	0.0135083
781.031	0.0136340
781.109	0.0135656
781.187	0.0137749
781.265	0.0137973
781.343	0.0140135
781.421	0.0139541
781.499	0.0140704
781.578	0.0140868
781.656	0.0139707
781.734	0.0140697
781.812	0.0141532
781.890	0.0140170
781.968	0.0140550
782.046	0.0140287
782.124	0.0138864
782.203	0.0139849
782.281	0.0136430
782.359	0.0136177
782.437	0.0135500
782.515	0.0135091
782.593	0.0133513
782.671	0.0134613
782.749	0.0136155
782.828	0.0134064
782.906	0.0134619
782.984	0.0134690
783.062	0.0133809
783.140	0.0135896
783.218	0.0134917
783.296	0.0135487
783.374	0.0134708
783.453	0.0135409
783.531	0.0135236
783.609	0.0135544
783.687	0.0136636
783.765	0.0136446
783.843	0.0137289
783.921	0.0136523
783.999	0.0136839
784.078	0.0136729
784.156	0.0137067
784.234	0.0137507
784.312	0.0134650
784.390	0.0137291
784.468	0.0135521
784.546	0.0135388
784.624	0.0136096
784.703	0.0135475
784.781	0.0135160
784.859	0.0135028
784.937	0.0135580
785.015	0.0136723
785.093	0.0136570
785.171	0.0137727
785.249	0.0138293
785.328	0.0137643
785.406	0.0138261
785.484	0.0139605
785.562	0.0139353
785.640	0.0138918
785.718	0.0137969
785.796	0.0139255
785.874	0.0138308
785.953	0.0139420
786.031	0.0139880
786.109	0.0137476
786.187	0.0137061
786.265	0.0136465
786.343	0.0136319
786.421	0.0137294
786.499	0.0135473
786.578	0.0136204
786.656	0.0134949
786.734	0.0135821
786.812	0.0134277
786.890	0.0136053
786.968	0.0133501
787.046	0.0134078
787.124	0.0134619
787.203	0.0133287
787.281	0.0134387
787.359	0.0135886
787.437	0.0135680
787.515	0.0134305
787.593	0.0134194
787.671	0.0136034
787.749	0.0137774
787.828	0.0136268
787.906	0.0135994
787.984	0.0135868
788.062	0.0137438
788.140	0.0135949
788.218	0.0136601
788.296	0.0137379
788.374	0.0135815
788.453	0.0135129
788.531	0.0134401
788.609	0.0133965
788.687	0.0133253
788.765	0.0133118
788.843	0.0132351
788.921	0.0132893
788.999	0.0133446
789.078	0.0134516
789.156	0.0134177
789.234	0.0133746
789.312	0.0135217
789.390	0.0135394
789.468	0.0136797
789.546	0.0136866
789.624	0.0137276
789.703	0.0137926
789.781	0.0138586
789.859	0.0138609
789.937	0.0138170
790.015	0.0139299
790.093	0.0139154
790.171	0.0140136
790.249	0.0139618
790.328	0.0139310
790.406	0.0139669
790.484	0.0138945
790.562	0.0137511
790.640	0.0136817
790.718	0.0139587
790.796	0.0137605
790.874	0.0137682
790.953	0.0136148
791.031	0.0136165
791.109	0.0136108
791.187	0.0134465
791.265	0.0135426
791.343	0.0134539
791.421	0.0134051
791.499	0.0134615
791.578	0.0133863
791.656	0.0134572
791.734	0.0134506
791.812	0.0134855
791.890	0.0134821
791.968	0.0136236
792.046	0.0136066
792.124	0.0137109
792.203	0.0135603
792.281	0.0135281
792.359	0.0137078
792.437	0.0137393
792.515	0.0134798
792.593	0.0135674
792.671	0.0137009
792.749	0.0135178
792.828	0.0134403
792.906	0.0136680
792.984	0.0136150
793.062	0.0136339
793.140	0.0135143
793.218	0.0136867
793.296	0.0137720
793.374	0.0136272
793.453	0.0137015
793.531	0.0136483
793.609	0.0136969
793.687	0.0137302
793.765	0.0138316
793.843	0.0139130
793.921	0.0138921
793.999	0.0138294
794.078	0.0138275
794.156	0.0138811
794.234	0.0138704
794.312	0.0138716
794.390	0.0137344
794.468	0.0138365
794.546	0.0138604
794.624	0.0137182
794.703	0.0137351
794.781	0.0136255
794.859	0.0136177
794.937	0.0135852
795.015	0.0136651
795.093	0.0135940
795.171	0.0134894
795.249	0.0134606
795.328	0.0134225
795.406	0.0134510
795.484	0.0135930
795.562	0.0136642
795.640	0.0135234
795.718	0.0135155
795.796	0.0135058
795.874	0.0135468
795.953	0.0136546
796.031	0.0137018
796.109	0.0136657
796.187	0.0137788
796.265	0.0137313
796.343	0.0137200
796.421	0.0137041
796.499	0.0137355
796.578	0.0137373
796.656	0.0138327
796.734	0.0137251
796.812	0.0137423
796.890	0.0137806
796.968	0.0136800
797.046	0.0135681
797.124	0.0136414
797.203	0.0136808
797.281	0.0135782
797.359	0.0134834
797.437	0.0135675
797.515	0.0135410
797.593	0.0135595
797.671	0.0135767
797.749	0.0134419
797.828	0.0136751
797.906	0.0136804
797.984	0.0136419
798.062	0.0136203
798.140	0.0136708
798.218	0.0136519
798.296	0.0135951
798.374	0.0136852
798.453	0.0137465
798.531	0.0136541
798.609	0.0137002
798.687	0.0136738
798.765	0.0137051
798.843	0.0137142
798.921	0.0137977
798.999	0.0136049
799.078	0.0137663
799.156	0.0137236
799.234	0.0137188
799.312	0.0136271
799.390	0.0136477
799.468	0.0138598
799.546	0.0137336
799.624	0.0135828
799.703	0.0137321
799.781	0.0137148
799.859	0.0137374
799.937	0.0137730
800.015	0.0136102
800.093	0.0135559
800.171	0.0138424
800.249	0.0137568
800.328	0.0137123
800.406	0.0137732
800.484	0.0136671
800.562	0.0137865
800.640	0.0137474
800.718	0.0136413
800.796	0.0137435
800.874	0.0137128
800.953	0.0137002
801.031	0.0136072
801.109	0.0137244
801.187	0.0136121
801.265	0.0136863
801.343	0.0136256
801.421	0.0136316
801.499	0.0135728
801.578	0.0135976
801.656	0.0137061
801.734	0.0135906
801.812	0.0135001
801.890	0.0135052
801.968	0.0137031
802.046	0.0135717
802.124	0.0136821
802.203	0.0137595
802.281	0.0136373
802.359	0.0137218
802.437	0.0135161
802.515	0.0136670
802.593	0.0136206
802.671	0.0135930
802.749	0.0135826
802.828	0.0135297
802.906	0.0135755
802.984	0.0135801
803.062	0.0136694
803.140	0.0136889
803.218	0.0137832
803.296	0.0135662
803.374	0.0136901
803.453	0.0136538
803.531	0.0137292
803.609	0.0136656
803.687	0.0135209
803.765	0.0137986
803.843	0.0137330
803.921	0.0136742
803.999	0.0136713
804.078	0.0136844
804.156	0.0137752
804.234	0.0137273
804.312	0.0137756
804.390	0.0136131
804.468	0.0139625
804.546	0.0137822
804.624	0.0137986
804.703	0.0137062
804.781	0.0137188
804.859	0.0138297
804.937	0.0137012
805.015	0.0136562
805.093	0.0138044
805.171	0.0138235
805.249	0.0136292
805.328	0.0136845
805.406	0.0138674
805.484	0.0136113
805.562	0.0137007
805.640	0.0136327
805.718	0.0137328
805.796	0.0135516
805.874	0.0137442
805.953	0.0135086
806.031	0.0135767
806.109	0.0136113
806.187	0.0135947
806.265	0.0135793
806.343	0.0135754
806.421	0.0135470
806.499	0.0135880
806.578	0.0136584
806.656	0.0134467
806.734	0.0135318
806.812	0.0135037
806.890	0.0135213
806.968	0.0134612
807.046	0.0135124
807.124	0.0133931
807.203	0.0134510
807.281	0.0136701
807.359	0.0134047
807.437	0.0135013
807.515	0.0134731
807.593	0.0136253
807.671	0.0135909
807.749	0.0137034
807.828	0.0137179
807.906	0.0135796
807.984	0.0138235
808.062	0.0137781
808.140	0.0137974
808.218	0.0139383
808.296	0.0139915
808.374	0.0139647
808.453	0.0139941
808.531	0.0140616
808.609	0.0138560
808.687	0.0137503
808.765	0.0138731
808.843	0.0138438
808.921	0.0137656
808.999	0.0136993
809.078	0.0136176
809.156	0.0135783
809.234	0.0136259
809.312	0.0136314
809.390	0.0135126
809.468	0.0134784
809.546	0.0134291
809.624	0.0135760
809.703	0.0135429
809.781	0.0135880
809.859	0.0136033
809.937	0.0134799
810.015	0.0135413
810.093	0.0136617
810.171	0.0137219
810.249	0.0137785
810.328	0.0137440
810.406	0.0138672
810.484	0.0138058
810.562	0.0138913
810.640	0.0137267
810.718	0.0136645
810.796	0.0137501
810.874	0.0138316
810.953	0.0137136
811.031	0.0137157
811.109	0.0136277
811.187	0.0136691
811.265	0.0136227
811.343	0.0135446
811.421	0.0136129
811.499	0.0135199
811.578	0.0134594
811.656	0.0136050
811.734	0.0136705
811.812	0.0135305
811.890	0.0135028
811.968	0.0135928
812.046	0.0135943
812.124	0.0136578
812.203	0.0137431
812.281	0.0138764
812.359	0.0137614
812.437	0.0138428
812.515	0.0138403
812.593	0.0139061
812.671	0.0138912
812.749	0.0139208
812.828	0.0137636
812.906	0.0137949
812.984	0.0138271
813.062	0.0137247
813.140	0.0136928
813.218	0.0136024
813.296	0.0135736
813.374	0.0135357
813.453	0.0134721
813.531	0.0135773
813.609	0.0135776
813.687	0.0135152
813.765	0.0135706
813.843	0.0135159
813.921	0.0135831
813.999	0.0136288
814.078	0.0135867
814.156	0.0137261
814.234	0.0137000
814.312	0.0135503
814.390	0.0136172
814.468	0.0139108
814.546	0.0137370
814.624	0.0138065
814.703	0.0136619
814.781	0.0135532
814.859	0.0136485
814.937	0.0135799
815.015	0.0134848
815.093	0.0134768
815.171	0.0134270
815.249	0.0134480
815.328	0.0135600
815.406	0.0135902
815.484	0.0134106
815.562	0.0134278
815.640	0.0135631
815.718	0.0134035
815.796	0.0135072
815.874	0.0135124
815.953	0.0136044
816.031	0.0137371
816.109	0.0138019
816.187	0.0136925
816.265	0.0136827
816.343	0.0137552
816.421	0.0138013
816.499	0.0139134
816.578	0.0139119
816.656	0.0139937
816.734	0.0139861
816.812	0.0139236
816.890	0.0138774
816.968	0.0138778
817.046	0.0137822
817.124	0.0137485
817.203	0.0137624
817.281	0.0137496
817.359	0.0138463
817.437	0.0136397
817.515	0.0136071
817.593	0.0137991
817.671	0.0136646
817.749	0.0137770
817.828	0.0137488
817.906	0.0136931
817.984	0.0136548
818.062	0.0136827
818.140	0.0135262
818.218	0.0134815
818.296	0.0135452
818.374	0.0134529
818.453	0.0135180
818.531	0.0135487
818.609	0.0135206
818.687	0.0135293
818.765	0.0134471
818.843	0.0137146
818.921	0.0135750
818.999	0.0134883
819.078	0.0135299
819.156	0.0134853
819.234	0.0134698
819.312	0.0135173
819.390	0.0134778
819.468	0.0134675
819.546	0.0135983
819.624	0.0134713
819.703	0.0135743
819.781	0.0136945
819.859	0.0137031
819.937	0.0137311
820.015	0.0137477
820.093	0.0138517
820.171	0.0138449
820.249	0.0139034
820.328	0.0139765
820.406	0.0139749
820.484	0.0139094
820.562	0.0137444
820.640	0.0139747
820.718	0.0139897
820.796	0.0137644
820.874	0.0139635
820.953	0.0138248
821.031	0.0137968
821.109	0.0135962
821.187	0.0137405
821.265	0.0136166
821.343	0.0137079
821.421	0.0135682
821.499	0.0135991
821.578	0.0135184
821.656	0.0134622
821.734	0.0135300
821.812	0.0135292
821.890	0.0135101
821.968	0.0135886
822.046	0.0134228
822.124	0.0136356
822.203	0.0134251
822.281	0.0134542
822.359	0.0136920
822.437	0.0134817
822.515	0.0134860
822.593	0.0134461
822.671	0.0134953
822.749	0.0134846
822.828	0.0135175
822.906	0.0134085
822.984	0.0134935
823.062	0.0135880
823.140	0.0133994
823.218	0.0136089
823.296	0.0135458
823.374	0.0135745
823.453	0.0134683
823.531	0.0136820
823.609	0.0136837
823.687	0.0136823
823.765	0.0135947
823.843	0.0136015
823.921	0.0138677
823.999	0.0138000
824.078	0.0137454
824.156	0.0136751
824.234	0.0138316
824.312	0.0137214
824.390	0.0136383
824.468	0.0137415
824.546	0.0138310
824.624	0.0137281
824.703	0.0138123
824.781	0.0138163
824.859	0.0138187
824.937	0.0138453
825.015	0.0138261
825.093	0.0137163
825.171	0.0136860
825.249	0.0138667
825.328	0.0137134
825.406	0.0138345
825.484	0.0138673
825.562	0.0138277
825.640	0.0137385
825.718	0.0137161
825.796	0.0136978
825.874	0.0137203
825.953	0.0138633
826.031	0.0138181
826.109	0.0138159
826.187	0.0136403
826.265	0.0136679
826.343	0.0134762
826.421	0.0135551
826.499	0.0136529
826.578	0.0135783
826.656	0.0135999
826.734	0.0135467
826.812	0.0134708
826.890	0.0134684
826.968	0.0134620
827.046	0.0134982
827.124	0.0133984
827.203	0.0133080
827.281	0.0134834
827.359	0.0134156
827.437	0.0134232
827.515	0.0135090
827.593	0.0134768
827.671	0.0134232
827.749	0.0135458
827.828	0.0137017
827.906	0.0135733
827.984	0.0136781
828.062	0.0135510
828.140	0.0136261
828.218	0.0137959
828.296	0.0137132
828.374	0.0136086
828.453	0.0136791
828.531	0.0138814
828.609	0.0139218
828.687	0.0139197
828.765	0.0138066
828.843	0.0136848
828.921	0.0135839
828.999	0.0137238
829.078	0.0137919
829.156	0.0136739
829.234	0.0136321
829.312	0.0137589
829.390	0.0137470
829.468	0.0137552
829.546	0.0136909
829.624	0.0136539
829.703	0.0135683
829.781	0.0136517
829.859	0.0137276
829.937	0.0135941
830.015	0.0134576
830.093	0.0135265
830.171	0.0135623
830.249	0.0135863
830.328	0.0133501
830.406	0.0134743
830.484	0.0135177
830.562	0.0134769
830.640	0.0134736
830.718	0.0133836
830.796	0.0134004
830.874	0.0133770
830.953	0.0135346
831.031	0.0135364
831.109	0.0133762
831.187	0.0136501
831.265	0.0135063
831.343	0.0136099
831.421	0.0134163
831.499	0.0136604
831.578	0.0136188
831.656	0.0137669
831.734	0.0139203
831.812	0.0138074
831.890	0.0136810
831.968	0.0138935
832.046	0.0138498
832.124	0.0137592
832.203	0.0138400
832.281	0.0138332
832.359	0.0139510
832.437	0.0139063
832.515	0.0139410
832.593	0.0139586
832.671	0.0139249
832.749	0.0139175
832.828	0.0137720
832.906	0.0138106
832.984	0.0139516
833.062	0.0138224
833.140	0.0136329
833.218	0.0137714
833.296	0.0136151
833.374	0.0136923
833.453	0.0136680
833.531	0.0137531
833.609	0.0134871
833.687	0.0135480
833.765	0.0133755
833.843	0.0133985
833.921	0.0134423
833.999	0.0135606
834.078	0.0136270
834.156	0.0134588
834.234	0.0134367
834.312	0.0135068
834.390	0.0135067
834.468	0.0133986
834.546	0.0134266
834.624	0.0135585
834.703	0.0134206
834.781	0.0135337
834.859	0.0133952
834.937	0.0134981
835.015	0.0134355
835.093	0.0134124
835.171	0.0134953
835.249	0.0134657
835.328	0.0136726
835.406	0.0135166
835.484	0.0134865
835.562	0.0135223
835.640	0.0136524
835.718	0.0135681
835.796	0.0136433
835.874	0.0136869
835.953	0.0136926
836.031	0.0136375
836.109	0.0137146
836.187	0.0137018
836.265	0.0136497
836.343	0.0137508
836.421	0.0136472
836.499	0.0137899
836.578	0.0137790
836.656	0.0136070
836.734	0.0136922
836.812	0.0136475
836.890	0.0137237
836.968	0.0137336
837.046	0.0137573
837.124	0.0136514
837.203	0.0136555
837.281	0.0136692
837.359	0.0135181
837.437	0.0135349
837.515	0.0136652
837.593	0.0135902
837.671	0.0134722
837.749	0.0135287
837.828	0.0136322
837.906	0.0135425
837.984	0.0135558
838.062	0.0133765
838.140	0.0136012
838.218	0.0136868
838.296	0.0134918
838.374	0.0134077
838.453	0.0134927
838.531	0.0135132
838.609	0.0134926
838.687	0.0134641
838.765	0.0135496
838.843	0.0135602
838.921	0.0133865
838.999	0.0134880
839.078	0.0134867
839.156	0.0133777
839.234	0.0134770
839.312	0.0133530
839.390	0.0135043
839.468	0.0136192
839.546	0.0134232
839.624	0.0133817
839.703	0.0136829
839.781	0.0135323
839.859	0.0135400
839.937	0.0137486
840.015	0.0136696
840.093	0.0139199
840.171	0.0138190
840.249	0.0137215
840.328	0.0138793
840.406	0.0138645
840.484	0.0138148
840.562	0.0137985
840.640	0.0139346
840.718	0.0137666
840.796	0.0139389
840.874	0.0138245
840.953	0.0138378
841.031	0.0137806
841.109	0.0136833
841.187	0.0136395
841.265	0.0137189
841.343	0.0136439
841.421	0.0135536
841.499	0.0136795
841.578	0.0138800
841.656	0.0135968
841.734	0.0134675
841.812	0.0136398
841.890	0.0135144
841.968	0.0136003
842.046	0.0135931
842.124	0.0134122
842.203	0.0134428
842.281	0.0133810
842.359	0.0134678
842.437	0.0136398
842.515	0.0136274
842.593	0.0135913
842.671	0.0135414
842.749	0.0134946
842.828	0.0134460
842.906	0.0135452
842.984	0.0137570
843.062	0.0135266
843.140	0.0137047
843.218	0.0136390
843.296	0.0135918
843.374	0.0135273
843.453	0.0136262
843.531	0.0136398
843.609	0.0134946
843.687	0.0138061
843.765	0.0136975
843.843	0.0136371
843.921	0.0137535
843.999	0.0136745
844.078	0.0137096
844.156	0.0136802
844.234	0.0136507
844.312	0.0136018
844.390	0.0138727
844.468	0.0138663
844.546	0.0135983
844.624	0.0136306
844.703	0.0136805
844.781	0.0135968
844.859	0.0136639
844.937	0.0136762
845.015	0.0135136
845.093	0.0134730
845.171	0.0134736
845.249	0.0135324
845.328	0.0134577
845.406	0.0134909
845.484	0.0135465
845.562	0.0135198
845.640	0.0135022
845.718	0.0134738
845.796	0.0135218
845.874	0.0136384
845.953	0.0135810
846.031	0.0134101
846.109	0.0134884
846.187	0.0134874
846.265	0.0135029
846.343	0.0135509
846.421	0.0134729
846.499	0.0135392
846.578	0.0135905
846.656	0.0134407
846.734	0.0134243
846.812	0.0134415
846.890	0.0134308
846.968	0.0135006
847.046	0.0134299
847.124	0.0136250
847.203	0.0135638
847.281	0.0136350
847.359	0.0134952
847.437	0.0135876
847.515	0.0136847
847.593	0.0136069
847.671	0.0136297
847.749	0.0135991
847.828	0.0136842
847.906	0.0136741
847.984	0.0137988
848.062	0.0136699
848.140	0.0136197
848.218	0.0136817
848.296	0.0136632
848.374	0.0136833
848.453	0.0136230
848.531	0.0137487
848.609	0.0137619
848.687	0.0136403
848.765	0.0137369
848.843	0.0135677
848.921	0.0136629
848.999	0.0136342
849.078	0.0135628
849.156	0.0135193
849.234	0.0136085
849.312	0.0136050
849.390	0.0135595
849.468	0.0133922
849.546	0.0136360
849.624	0.0135480
849.703	0.0136123
849.781	0.0134039
849.859	0.0134506
849.937	0.0137044
850.015	0.0135174
850.093	0.0136137
850.171	0.0135713
850.249	0.0135721
850.328	0.0135974
850.406	0.0133774
850.484	0.0135697
850.562	0.0134452
850.640	0.0135148
850.718	0.0135308
850.796	0.0135914
850.874	0.0135539
850.953	0.0135253
851.031	0.0135194
851.109	0.0134896
851.187	0.0135017
851.265	0.0135625
851.343	0.0135833
851.421	0.0135284
851.499	0.0136417
851.578	0.0136265
851.656	0.0136643
851.734	0.0136308
851.812	0.0137224
851.890	0.0137215
851.968	0.0136678
852.046	0.0137315
852.124	0.0135882
852.203	0.0137637
852.281	0.0137136
852.359	0.0136717
852.437	0.0136700
852.515	0.0136603
852.593	0.0137211
852.671	0.0137209
852.749	0.0136859
852.828	0.0136327
852.906	0.0136102
852.984	0.0136354
853.062	0.0135986
853.140	0.0134923
853.218	0.0135401
853.296	0.0137052
853.374	0.0134845
853.453	0.0135015
853.531	0.0135092
853.609	0.0134789
853.687	0.0135970
853.765	0.0137405
853.843	0.0135469
853.921	0.0134769
853.999	0.0135184
854.078	0.0135604
854.156	0.0135272
854.234	0.0136690
854.312	0.0137003
854.390	0.0137472
854.468	0.0135981
854.546	0.0135545
854.624	0.0135916
854.703	0.0137581
854.781	0.0137266
854.859	0.0136536
854.937	0.0135624
855.015	0.0136092
855.093	0.0137065
855.171	0.0137069
855.249	0.0138988
855.328	0.0136949
855.406	0.0136492
855.484	0.0137647
855.562	0.0136907
855.640	0.0136401
855.718	0.0136687
855.796	0.0137441
855.874	0.0137384
855.953	0.0134676
856.031	0.0135865
856.109	0.0136903
856.187	0.0135872
856.265	0.0135408
856.343	0.0136804
856.421	0.0137003
856.499	0.0136718
856.578	0.0134843
856.656	0.0135941
856.734	0.0136559
856.812	0.0136172
856.890	0.0135842
856.968	0.0135696
857.046	0.0135120
857.124	0.0136230
857.203	0.0136417
857.281	0.0134525
857.359	0.0135311
857.437	0.0136998
857.515	0.0135992
857.593	0.0134832
857.671	0.0135561
857.749	0.0135160
857.828	0.0135609
857.906	0.0135315
857.984	0.0136042
858.062	0.0134959
858.140	0.0134513
858.218	0.0136783
858.296	0.0136411
858.374	0.0134480
858.453	0.0135712
858.531	0.0135961
858.609	0.0137595
858.687	0.0135663
858.765	0.0135757
858.843	0.0136192
858.921	0.0136217
858.999	0.0137478
859.078	0.0136974
859.156	0.0135667
859.234	0.0137048
859.312	0.0136285
859.390	0.0136400
859.468	0.0136237
859.546	0.0134820
859.624	0.0136122
859.703	0.0136967
859.781	0.0136482
859.859	0.0136300
859.937	0.0135497
860.015	0.0135603
860.093	0.0136008
860.171	0.0135637
860.249	0.0134897
860.328	0.0134712
860.406	0.0134181
860.484	0.0135330
860.562	0.0135757
860.640	0.0136077
860.718	0.0135963
860.796	0.0136740
860.874	0.0135648
860.953	0.0136208
861.031	0.0134692
861.109	0.0136741
861.187	0.0134915
861.265	0.0136237
861.343	0.0135364
861.421	0.0135389
861.499	0.0134590
861.578	0.0134002
861.656	0.0135912
861.734	0.0135806
861.812	0.0135931
861.890	0.0134714
861.968	0.0135664
862.046	0.0137037
862.124	0.0136147
862.203	0.0136668
862.281	0.0135352
862.359	0.0137860
862.437	0.0136800
862.515	0.0135658
862.593	0.0137783
862.671	0.0137443
862.749	0.0137630
862.828	0.0136257
862.906	0.0136264
862.984	0.0136993
863.062	0.0136878
863.140	0.0137282
863.218	0.0137671
863.296	0.0137028
863.374	0.0136199
863.453	0.0135566
863.531	0.0133680
863.609	0.0135128
863.687	0.0135284
863.765	0.0135909
863.843	0.0134446
863.921	0.0134893
863.999	0.0135116
864.078	0.0134437
864.156	0.0135586
864.234	0.0135482
864.312	0.0135226
864.390	0.0135163
864.468	0.0135782
864.546	0.0135132
864.624	0.0135876
864.703	0.0136161
864.781	0.0136635
864.859	0.0137494
864.937	0.0134581
865.015	0.0135847
865.093	0.0135001
865.171	0.0135197
865.249	0.0136228
865.328	0.0135739
865.406	0.0134087
865.484	0.0134052
865.562	0.0135892
865.640	0.0135292
865.718	0.0136474
865.796	0.0135295
865.874	0.0136614
865.953	0.0135374
866.031	0.0135551
866.109	0.0136409
866.187	0.0135464
866.265	0.0136252
866.343	0.0135368
866.421	0.0136181
866.499	0.0135884
866.578	0.0136549
866.656	0.0137562
866.734	0.0136521
866.812	0.0136070
866.890	0.0136662
866.968	0.0137460
867.046	0.0136427
867.124	0.0136617
867.203	0.0136688
867.281	0.0137535
867.359	0.0136308
867.437	0.0135851
867.515	0.0135744
867.593	0.0136303
867.671	0.0135447
867.749	0.0136304
867.828	0.0134837
867.906	0.0134740
867.984	0.0135387
868.062	0.0134753
868.140	0.0134492
868.218	0.0134834
868.296	0.0135135
868.374	0.0135243
868.453	0.0133691
868.531	0.0135754
868.609	0.0136518
868.687	0.0135594
868.765	0.0135059
868.843	0.0134847
868.921	0.0133897
868.999	0.0135112
869.078	0.0136240
869.156	0.0133990
869.234	0.0134166
869.312	0.0134563
869.390	0.0133671
869.468	0.0134302
869.546	0.0135813
869.624	0.0136086
869.703	0.0135435
869.781	0.0135449
869.859	0.0136358
869.937	0.0135480
870.015	0.0137682
870.093	0.0137147
870.171	0.0135898
870.249	0.0137465
870.328	0.0136291
870.406	0.0138068
870.484	0.0137106
870.562	0.0137891
870.640	0.0138122
870.718	0.0136535
870.796	0.0136830
870.874	0.0136787
870.953	0.0137380
871.031	0.0137472
871.109	0.0135944
871.187	0.0136951
871.265	0.0136742
871.343	0.0135770
871.421	0.0135484
871.499	0.0136066
871.578	0.0136544
871.656	0.0136124
871.734	0.0136668
871.812	0.0135514
871.890	0.0134547
871.968	0.0135995
872.046	0.0136571
872.124	0.0135940
872.203	0.0135505
872.281	0.0135297
872.359	0.0134121
872.437	0.0134531
872.515	0.0137180
872.593	0.0134923
872.671	0.0134933
872.749	0.0134016
872.828	0.0134916
872.906	0.0135196
872.984	0.0135926
873.062	0.0134199
873.140	0.0135672
873.218	0.0133592
873.296	0.0134647
873.374	0.0136047
873.453	0.0134203
873.531	0.0134535
873.609	0.0135602
873.687	0.0134871
873.765	0.0136044
873.843	0.0136639
873.921	0.0135597
873.999	0.0136813
874.078	0.0136693
874.156	0.0137368
874.234	0.0137989
874.312	0.0136091
874.390	0.0136370
874.468	0.0138568
874.546	0.0137781
874.624	0.0138696
874.703	0.0137878
874.781	0.0136510
874.859	0.0137610
874.937	0.0137292
875.015	0.0136793
875.093	0.0137860
875.171	0.0136718
875.249	0.0138560
875.328	0.0136874
875.406	0.0137299
875.484	0.0137499
875.562	0.0136942
875.640	0.0135000
875.718	0.0135256
875.796	0.0134916
875.874	0.0134744
875.953	0.0134790
876.031	0.0134929
876.109	0.0135040
876.187	0.0135223
876.265	0.0134390
876.343	0.0134712
876.421	0.0133634
876.499	0.0134460
876.578	0.0133127
876.656	0.0135365
876.734	0.0135469
876.812	0.0135107
876.890	0.0135261
876.968	0.0135903
877.046	0.0137047
877.124	0.0136781
877.203	0.0136029
877.281	0.0136382
877.359	0.0137284
877.437	0.0138615
877.515	0.0137583
877.593	0.0137231
877.671	0.0137600
877.749	0.0136394
877.828	0.0137107
877.906	0.0136277
877.984	0.0136587
878.062	0.0137191
878.140	0.0136353
878.218	0.0136626
878.296	0.0137748
878.374	0.0136515
878.453	0.0137737
878.531	0.0138203
878.609	0.0137913
878.687	0.0138019
878.765	0.0139140
878.843	0.0139169
878.921	0.0137598
878.999	0.0138010
879.078	0.0137128
879.156	0.0138794
879.234	0.0137566
879.312	0.0137378
879.390	0.0137597
879.468	0.0135771
879.546	0.0134731
879.624	0.0134604
879.703	0.0134678
879.781	0.0134464
879.859	0.0133034
879.937	0.0133378
880.015	0.0133735
880.093	0.0133840
880.171	0.0133443
880.249	0.0133797
880.328	0.0134158
880.406	0.0133788
880.484	0.0134286
880.562	0.0135658
880.640	0.0134155
880.718	0.0136182
880.796	0.0137222
880.874	0.0138750
880.953	0.0137579
881.031	0.0137631
881.109	0.0138374
881.187	0.0137999
881.265	0.0137999
881.343	0.0138377
881.421	0.0138375
881.499	0.0138193
881.578	0.0137964
881.656	0.0137819
881.734	0.0138620
881.812	0.0137174
881.890	0.0136758
881.968	0.0136579
882.046	0.0136510
882.124	0.0135960
882.203	0.0135771
882.281	0.0135934
882.359	0.0135970
882.437	0.0134072
882.515	0.0135268
882.593	0.0136744
882.671	0.0136224
882.749	0.0135603
882.828	0.0135892
882.906	0.0137042
882.984	0.0136785
883.062	0.0136501
883.140	0.0136302
883.218	0.0137502
883.296	0.0137039
883.374	0.0135468
883.453	0.0136244
883.531	0.0136315
883.609	0.0135941
883.687	0.0133391
883.765	0.0133658
883.843	0.0135173
883.921	0.0135685
883.999	0.0134396
884.078	0.0134510
884.156	0.0135350
884.234	0.0135359
884.312	0.0134609
884.390	0.0134608
884.468	0.0134995
884.546	0.0134540
884.624	0.0136591
884.703	0.0135773
884.781	0.0137085
884.859	0.0137452
884.937	0.0139195
885.015	0.0137141
885.093	0.0137299
885.171	0.0139005
885.249	0.0137592
885.328	0.0137869
885.406	0.0136539
885.484	0.0136423
885.562	0.0137985
885.640	0.0136521
885.718	0.0138107
885.796	0.0135899
885.874	0.0135922
885.953	0.0136340
886.031	0.0135565
886.109	0.0137891
886.187	0.0136523
886.265	0.0136571
886.343	0.0136898
886.421	0.0135207
886.499	0.0136472
886.578	0.0136898
886.656	0.0135098
886.734	0.0136785
886.812	0.0137145
886.890	0.0136244
886.968	0.0137215
887.046	0.0134699
887.124	0.0136915
887.203	0.0137238
887.281	0.0135861
887.359	0.0134952
887.437	0.0135870
887.515	0.0135043
887.593	0.0135276
887.671	0.0136039
887.749	0.0135136
887.828	0.0135419
887.906	0.0135713
887.984	0.0135755
888.062	0.0135667
888.140	0.0135844
888.218	0.0136361
888.296	0.0135863
888.374	0.0136340
888.453	0.0137672
888.531	0.0135960
888.609	0.0136987
888.687	0.0135883
888.765	0.0135862
888.843	0.0137000
888.921	0.0136994
888.999	0.0137122
889.078	0.0137465
889.156	0.0137132
889.234	0.0136230
889.312	0.0137525
889.390	0.0136803
889.468	0.0135469
889.546	0.0138025
889.624	0.0138973
889.703	0.0137346
889.781	0.0135783
889.859	0.0136095
889.937	0.0137331
890.015	0.0135158
890.093	0.0137933
890.171	0.0137086
890.249	0.0137043
890.328	0.0136778
890.406	0.0135535
890.484	0.0136068
890.562	0.0134116
890.640	0.0134838
890.718	0.0135928
890.796	0.0136386
890.874	0.0135112
890.953	0.0134003
891.031	0.0133797
891.109	0.0133628
891.187	0.0135327
891.265	0.0134922
891.343	0.0134457
891.421	0.0134343
891.499	0.0134874
891.578	0.0135358
891.656	0.0135809
891.734	0.0136033
891.812	0.0136711
891.890	0.0136314
891.968	0.0137195
892.046	0.0136086
892.124	0.0136172
892.203	0.0137425
892.281	0.0136349
892.359	0.0134012
892.437	0.0135912
892.515	0.0136325
892.593	0.0135973
892.671	0.0137641
892.749	0.0136528
892.828	0.0136236
892.906	0.0135870
892.984	0.0137273
893.062	0.0137182
893.140	0.0136487
893.218	0.0138010
893.296	0.0136349
893.374	0.0136518
893.453	0.0137785
893.531	0.0137478
893.609	0.0136738
893.687	0.0136463
893.765	0.0137868
893.843	0.0137537
893.921	0.0135328
893.999	0.0136613
894.078	0.0136404
894.156	0.0136402
894.234	0.0136736
894.312	0.0135569
894.390	0.0136137
894.468	0.0134706
894.546	0.0136275
894.624	0.0136604
894.703	0.0136035
894.781	0.0134079
894.859	0.0136345
894.937	0.0133859
895.015	0.0134285
895.093	0.0133743
895.171	0.0133824
895.249	0.0133891
895.328	0.0134440
895.406	0.0135388
895.484	0.0134323
895.562	0.0134818
895.640	0.0137391
895.718	0.0135918
895.796	0.0135976
895.874	0.0138523
895.953	0.0138837
896.031	0.0138319
896.109	0.0138744
896.187	0.0139476
896.265	0.0138516
896.343	0.0136359
896.421	0.0139398
896.499	0.0139045
896.578	0.0137988
896.656	0.0138910
896.734	0.0139519
896.812	0.0138632
896.890	0.0137444
896.968	0.0138133
897.046	0.0137814
897.124	0.0137140
897.203	0.0135776
897.281	0.0137013
897.359	0.0136684
897.437	0.0136031
897.515	0.0136129
897.593	0.0136555
897.671	0.0134703
897.749	0.0135533
897.828	0.0134662
897.906	0.0135300
897.984	0.0133669
898.062	0.0134283
898.140	0.0135158
898.218	0.0134583
898.296	0.0134410
898.374	0.0134672
898.453	0.0134884
898.531	0.0136349
898.609	0.0135686
898.687	0.0135235
898.765	0.0135017
898.843	0.0135274
898.921	0.0135918
898.999	0.0136357
899.078	0.0135986
899.156	0.0136767
899.234	0.0135940
899.312	0.0136341
899.390	0.0135484
899.468	0.0136394
899.546	0.0135857
899.624	0.0135700
899.703	0.0135528
899.781	0.0137547
899.859	0.0137515
899.937	0.0136779
900.015	0.0134846
900.093	0.0136592
900.171	0.0137187
900.249	0.0136072
900.328	0.0135600
900.406	0.0135509
900.484	0.0135445
900.562	0.0137371
900.640	0.0135865
900.718	0.0134425
900.796	0.0135623
900.874	0.0136898
900.953	0.0135294
901.031	0.0137691
901.109	0.0137850
901.187	0.0136302
901.265	0.0136578
901.343	0.0136704
901.421	0.0136807
901.499	0.0136287
901.578	0.0136638
901.656	0.0136468
901.734	0.0136381
901.812	0.0136566
901.890	0.0137636
901.968	0.0136948
902.046	0.0134724
902.124	0.0137185
902.203	0.0136389
902.281	0.0135459
902.359	0.0135897
902.437	0.0136236
902.515	0.0135942
902.593	0.0136234
902.671	0.0137289
902.749	0.0136434
902.828	0.0136967
902.906	0.0136624
902.984	0.0137107
903.062	0.0137042
903.140	0.0138606
903.218	0.0138718
903.296	0.0138293
903.374	0.0138448
903.453	0.0137168
903.531	0.0137866
903.609	0.0137880
903.687	0.0136166
903.765	0.0136227
903.843	0.0136670
903.921	0.0137461
903.999	0.0135298
904.078	0.0135487
904.156	0.0135236
904.234	0.0135548
904.312	0.0135726
904.390	0.0135087
904.468	0.0135321
904.546	0.0135349
904.624	0.0134437
904.703	0.0136082
904.781	0.0135178
904.859	0.0136118
904.937	0.0137431
905.015	0.0137635
905.093	0.0137149
905.171	0.0136562
905.249	0.0136988
905.328	0.0136846
905.406	0.0137106
905.484	0.0137762
905.562	0.0137498
905.640	0.0136018
905.718	0.0137792
905.796	0.0134992
905.874	0.0135339
905.953	0.0134850
906.031	0.0135639
906.109	0.0134816
906.187	0.0135695
906.265	0.0134633
906.343	0.0135746
906.421	0.0134285
906.499	0.0134996
906.578	0.0136436
906.656	0.0134566
906.734	0.0135649
906.812	0.0135101
906.890	0.0135211
906.968	0.0136500
907.046	0.0136649
907.124	0.0135587
907.203	0.0136456
907.281	0.0137047
907.359	0.0136343
907.437	0.0136840
907.515	0.0136839
907.593	0.0136684
907.671	0.0136731
907.749	0.0136153
907.828	0.0136182
907.906	0.0135883
907.984	0.0136082
908.062	0.0135087
908.140	0.0135906
908.218	0.0134459
908.296	0.0136207
908.374	0.0135555
908.453	0.0135571
908.531	0.0134695
908.609	0.0135838
908.687	0.0135687
908.765	0.0135667
908.843	0.0136044
908.921	0.0137649
908.999	0.0136809
909.078	0.0136345
909.156	0.0136092
909.234	0.0136230
909.312	0.0138111
909.390	0.0136994
909.468	0.0137669
909.546	0.0138185
909.624	0.0138895
909.703	0.0137205
909.781	0.0136086
909.859	0.0137148
909.937	0.0137647
910.015	0.0135756
910.093	0.0135694
910.171	0.0135412
910.249	0.0135648
910.328	0.0135615
910.406	0.0135540
910.484	0.0135252
910.562	0.0136111
910.640	0.0135624
910.718	0.0135490
910.796	0.0135777
910.874	0.0136297
910.953	0.0136245
911.031	0.0136824
911.109	0.0135258
911.187	0.0136619
911.265	0.0136778
911.343	0.0137370
911.421	0.0137434
911.499	0.0137934
911.578	0.0137357
911.656	0.0136806
911.734	0.0137449
911.812	0.0136688
911.890	0.0137269
911.968	0.0136175
912.046	0.0136121
912.124	0.0135937
912.203	0.0135689
912.281	0.0136084
912.359	0.0134554
912.437	0.0134646
912.515	0.0135169
912.593	0.0135941
912.671	0.0136383
912.749	0.0136261
912.828	0.0135137
912.906	0.0135287
912.984	0.0137188
913.062	0.0135879
913.140	0.0136731
913.218	0.0137186
913.296	0.0137460
913.374	0.0136470
913.453	0.0136831
913.531	0.0136848
913.609	0.0137041
913.687	0.0138087
913.765	0.0136845
913.843	0.0137123
913.921	0.0136380
913.999	0.0136648
914.078	0.0136290
914.156	0.0136360
914.234	0.0135987
914.312	0.0135793
914.390	0.0136400
914.468	0.0135600
914.546	0.0135647
914.624	0.0135538
914.703	0.0136452
914.781	0.0135896
914.859	0.0136472
914.937	0.0136317
915.015	0.0137026
915.093	0.0135730
915.171	0.0136425
915.249	0.0136020
915.328	0.0135719
915.406	0.0136240
915.484	0.0137212
915.562	0.0136960
915.640	0.0136728
915.718	0.0136534
915.796	0.0136580
915.874	0.0136924
915.953	0.0138081
916.031	0.0137169
916.109	0.0137611
916.187	0.0136135
916.265	0.0136081
916.343	0.0137242
916.421	0.0135825
916.499	0.0135954
916.578	0.0137524
916.656	0.0135463
916.734	0.0137555
916.812	0.0136626
916.890	0.0134968
916.968	0.0134926
917.046	0.0137152
917.124	0.0134906
917.203	0.0136179
917.281	0.0135648
917.359	0.0134613
917.437	0.0134938
917.515	0.0136069
917.593	0.0135796
917.671	0.0135557
917.749	0.0137238
917.828	0.0136592
917.906	0.0135727
917.984	0.0135300
918.062	0.0136720
918.140	0.0136487
918.218	0.0136602
918.296	0.0136340
918.374	0.0137868
918.453	0.0136096
918.531	0.0136419
918.609	0.0135600
918.687	0.0135351
918.765	0.0138017
918.843	0.0135540
918.921	0.0134287
918.999	0.0135117
919.078	0.0135841
919.156	0.0135098
919.234	0.0135893
919.312	0.0136098
919.390	0.0135844
919.468	0.0137011
919.546	0.0136433
919.624	0.0136879
919.703	0.0135933
919.781	0.0136083
919.859	0.0137039
919.937	0.0136739
