05/06/2022	18:49:59	Ver.	4.1	UNKNOWN
Optical Delay	600.015094	Delta X		0.078125	Sweeps	1	Scan Rate	0/0
Coordinates	Axis 1	NaN	Axis 2	NaN	Axis 3	NaN	Axis 4	NaN	Axis 5	NaN	Axis 6	0.000000
TX Power	0.000000	RX Power	0.000000

600.015	0.0139563
600.093	0.0139699
600.171	0.0138541
600.249	0.0139008
600.328	0.0139526
600.406	0.0139751
600.484	0.0139667
600.562	0.0139468
600.640	0.0139507
600.718	0.0139574
600.796	0.0139598
600.874	0.0139872
600.953	0.0138311
601.031	0.0138301
601.109	0.0139618
601.187	0.0138634
601.265	0.0138814
601.343	0.0140247
601.421	0.0140307
601.499	0.0138281
601.578	0.0138345
601.656	0.0139491
601.734	0.0139239
601.812	0.0138712
601.890	0.0138477
601.968	0.0139494
602.046	0.0138641
602.124	0.0139022
602.203	0.0138686
602.281	0.0139960
602.359	0.0139429
602.437	0.0140352
602.515	0.0139588
602.593	0.0140371
602.671	0.0140651
602.749	0.0139439
602.828	0.0139732
602.906	0.0139262
602.984	0.0139513
603.062	0.0139669
603.140	0.0139044
603.218	0.0138250
603.296	0.0139413
603.374	0.0138597
603.453	0.0139773
603.531	0.0139210
603.609	0.0138926
603.687	0.0140134
603.765	0.0141035
603.843	0.0139468
603.921	0.0139347
603.999	0.0137872
604.078	0.0139057
604.156	0.0140800
604.234	0.0139179
604.312	0.0139030
604.390	0.0138943
604.468	0.0139024
604.546	0.0138799
604.624	0.0139230
604.703	0.0139333
604.781	0.0139832
604.859	0.0139388
604.937	0.0140242
605.015	0.0139268
605.093	0.0139954
605.171	0.0139828
605.249	0.0138999
605.328	0.0140141
605.406	0.0139837
605.484	0.0138508
605.562	0.0138995
605.640	0.0139359
605.718	0.0139194
605.796	0.0139558
605.874	0.0138967
605.953	0.0139251
606.031	0.0138570
606.109	0.0140895
606.187	0.0140034
606.265	0.0140001
606.343	0.0138825
606.421	0.0140150
606.499	0.0139795
606.578	0.0140319
606.656	0.0139844
606.734	0.0140124
606.812	0.0139127
606.890	0.0140689
606.968	0.0139001
607.046	0.0139571
607.124	0.0139080
607.203	0.0140185
607.281	0.0139136
607.359	0.0139414
607.437	0.0138985
607.515	0.0139163
607.593	0.0139204
607.671	0.0140174
607.749	0.0139648
607.828	0.0139914
607.906	0.0139330
607.984	0.0139398
608.062	0.0139832
608.140	0.0139033
608.218	0.0141423
608.296	0.0140491
608.374	0.0140171
608.453	0.0139331
608.531	0.0139040
608.609	0.0140090
608.687	0.0140094
608.765	0.0140912
608.843	0.0139394
608.921	0.0139770
608.999	0.0139558
609.078	0.0139037
609.156	0.0138966
609.234	0.0141348
609.312	0.0140202
609.390	0.0139606
609.468	0.0140996
609.546	0.0139758
609.624	0.0138396
609.703	0.0139864
609.781	0.0139871
609.859	0.0140626
609.937	0.0139454
610.015	0.0139803
610.093	0.0141335
610.171	0.0140881
610.249	0.0138498
610.328	0.0139030
610.406	0.0140010
610.484	0.0139153
610.562	0.0140189
610.640	0.0139921
610.718	0.0140770
610.796	0.0139283
610.874	0.0139623
610.953	0.0138702
611.031	0.0139378
611.109	0.0139891
611.187	0.0138710
611.265	0.0139971
611.343	0.0139810
611.421	0.0139842
611.499	0.0139672
611.578	0.0138429
611.656	0.0139191
611.734	0.0139573
611.812	0.0140900
611.890	0.0140733
611.968	0.0139208
612.046	0.0138717
612.124	0.0139784
612.203	0.0138735
612.281	0.0140215
612.359	0.0139532
612.437	0.0139931
612.515	0.0140187
612.593	0.0139529
612.671	0.0140047
612.749	0.0139101
612.828	0.0138976
612.906	0.0140508
612.984	0.0141606
613.062	0.0139400
613.140	0.0139214
613.218	0.0140073
613.296	0.0140179
613.374	0.0139441
613.453	0.0140074
613.531	0.0140948
613.609	0.0138799
613.687	0.0138486
613.765	0.0140227
613.843	0.0139729
613.921	0.0140311
613.999	0.0139878
614.078	0.0140337
614.156	0.0138913
614.234	0.0139684
614.312	0.0138641
614.390	0.0139441
614.468	0.0137983
614.546	0.0139977
614.624	0.0139188
614.703	0.0139797
614.781	0.0140670
614.859	0.0141496
614.937	0.0139925
615.015	0.0139698
615.093	0.0140984
615.171	0.0140047
615.249	0.0139423
615.328	0.0139572
615.406	0.0139884
615.484	0.0141450
615.562	0.0139837
615.640	0.0140234
615.718	0.0139372
615.796	0.0140751
615.874	0.0138867
615.953	0.0138039
616.031	0.0139642
616.109	0.0139284
616.187	0.0139232
616.265	0.0139628
616.343	0.0137961
616.421	0.0139725
616.499	0.0140337
616.578	0.0139589
616.656	0.0140089
616.734	0.0138910
616.812	0.0138834
616.890	0.0139402
616.968	0.0139791
617.046	0.0138587
617.124	0.0138338
617.203	0.0139025
617.281	0.0140239
617.359	0.0139125
617.437	0.0138515
617.515	0.0138907
617.593	0.0139722
617.671	0.0137653
617.749	0.0138589
617.828	0.0139185
617.906	0.0140178
617.984	0.0139227
618.062	0.0138895
618.140	0.0140930
618.218	0.0139503
618.296	0.0139153
618.374	0.0139252
618.453	0.0140934
618.531	0.0139738
618.609	0.0140186
618.687	0.0140308
618.765	0.0139397
618.843	0.0139777
618.921	0.0140260
618.999	0.0139759
619.078	0.0139006
619.156	0.0139331
619.234	0.0139359
619.312	0.0138895
619.390	0.0138708
619.468	0.0139973
619.546	0.0140501
619.624	0.0139382
619.703	0.0138865
619.781	0.0138193
619.859	0.0139574
619.937	0.0138810
620.015	0.0138443
620.093	0.0140451
620.171	0.0138940
620.249	0.0138556
620.328	0.0139159
620.406	0.0139214
620.484	0.0138855
620.562	0.0139846
620.640	0.0140565
620.718	0.0138742
620.796	0.0138692
620.874	0.0138853
620.953	0.0140432
621.031	0.0139941
621.109	0.0138667
621.187	0.0139362
621.265	0.0140247
621.343	0.0139872
621.421	0.0139039
621.499	0.0139758
621.578	0.0139848
621.656	0.0139963
621.734	0.0140672
621.812	0.0138870
621.890	0.0139426
621.968	0.0138553
622.046	0.0139886
622.124	0.0140072
622.203	0.0139489
622.281	0.0139818
622.359	0.0139756
622.437	0.0138589
622.515	0.0140557
622.593	0.0139616
622.671	0.0139812
622.749	0.0139487
622.828	0.0138792
622.906	0.0139535
622.984	0.0140693
623.062	0.0139769
623.140	0.0139472
623.218	0.0140187
623.296	0.0140005
623.374	0.0141214
623.453	0.0140290
623.531	0.0138708
623.609	0.0138267
623.687	0.0138999
623.765	0.0139563
623.843	0.0139515
623.921	0.0138676
623.999	0.0139770
624.078	0.0140053
624.156	0.0140234
624.234	0.0140163
624.312	0.0138695
624.390	0.0139355
624.468	0.0140621
624.546	0.0138856
624.624	0.0139252
624.703	0.0141245
624.781	0.0140160
624.859	0.0138912
624.937	0.0139291
625.015	0.0139999
625.093	0.0140345
625.171	0.0139765
625.249	0.0139339
625.328	0.0139596
625.406	0.0140090
625.484	0.0139977
625.562	0.0140088
625.640	0.0140337
625.718	0.0140076
625.796	0.0141622
625.874	0.0138888
625.953	0.0140727
626.031	0.0139027
626.109	0.0139439
626.187	0.0140092
626.265	0.0140063
626.343	0.0140286
626.421	0.0139307
626.499	0.0139352
626.578	0.0138657
626.656	0.0138926
626.734	0.0138538
626.812	0.0139075
626.890	0.0139384
626.968	0.0138840
627.046	0.0138988
627.124	0.0140617
627.203	0.0139073
627.281	0.0138455
627.359	0.0140307
627.437	0.0139253
627.515	0.0139191
627.593	0.0139193
627.671	0.0139340
627.749	0.0139497
627.828	0.0138932
627.906	0.0140320
627.984	0.0138699
628.062	0.0138985
628.140	0.0140184
628.218	0.0139030
628.296	0.0139251
628.374	0.0139817
628.453	0.0138594
628.531	0.0139351
628.609	0.0139318
628.687	0.0139346
628.765	0.0139948
628.843	0.0140463
628.921	0.0139758
628.999	0.0139894
629.078	0.0140832
629.156	0.0138744
629.234	0.0140467
629.312	0.0139418
629.390	0.0138110
629.468	0.0138280
629.546	0.0138779
629.624	0.0140170
629.703	0.0139880
629.781	0.0139188
629.859	0.0139398
629.937	0.0139655
630.015	0.0139435
630.093	0.0139268
630.171	0.0139395
630.249	0.0139619
630.328	0.0138029
630.406	0.0139160
630.484	0.0139485
630.562	0.0139081
630.640	0.0137866
630.718	0.0138346
630.796	0.0138840
630.874	0.0139079
630.953	0.0138311
631.031	0.0140321
631.109	0.0139148
631.187	0.0140247
631.265	0.0138931
631.343	0.0137070
631.421	0.0139224
631.499	0.0140001
631.578	0.0139638
631.656	0.0140018
631.734	0.0140200
631.812	0.0139732
631.890	0.0137849
631.968	0.0138535
632.046	0.0139491
632.124	0.0139851
632.203	0.0137598
632.281	0.0139914
632.359	0.0139624
632.437	0.0139570
632.515	0.0139018
632.593	0.0139011
632.671	0.0139436
632.749	0.0137467
632.828	0.0139638
632.906	0.0139561
632.984	0.0138271
633.062	0.0138450
633.140	0.0139209
633.218	0.0139148
633.296	0.0139134
633.374	0.0140104
633.453	0.0138690
633.531	0.0138409
633.609	0.0139063
633.687	0.0139885
633.765	0.0139001
633.843	0.0139167
633.921	0.0140139
633.999	0.0138944
634.078	0.0138563
634.156	0.0138861
634.234	0.0138930
634.312	0.0138878
634.390	0.0139809
634.468	0.0139567
634.546	0.0139324
634.624	0.0138413
634.703	0.0140015
634.781	0.0139279
634.859	0.0138454
634.937	0.0140611
635.015	0.0138556
635.093	0.0138901
635.171	0.0138589
635.249	0.0139740
635.328	0.0140334
635.406	0.0139755
635.484	0.0138275
635.562	0.0139213
635.640	0.0141165
635.718	0.0139363
635.796	0.0139229
635.874	0.0139780
635.953	0.0139532
636.031	0.0140451
636.109	0.0139567
636.187	0.0138714
636.265	0.0139526
636.343	0.0139856
636.421	0.0139996
636.499	0.0138788
636.578	0.0139566
636.656	0.0141123
636.734	0.0140121
636.812	0.0139820
636.890	0.0137804
636.968	0.0139527
637.046	0.0139075
637.124	0.0140776
637.203	0.0140160
637.281	0.0138368
637.359	0.0140270
637.437	0.0138107
637.515	0.0139217
637.593	0.0140464
637.671	0.0140417
637.749	0.0138784
637.828	0.0139134
637.906	0.0141103
637.984	0.0138976
638.062	0.0139406
638.140	0.0139834
638.218	0.0137849
638.296	0.0140305
638.374	0.0140099
638.453	0.0138624
638.531	0.0139955
638.609	0.0138434
638.687	0.0139211
638.765	0.0138830
638.843	0.0139718
638.921	0.0139743
638.999	0.0139853
639.078	0.0139145
639.156	0.0138669
639.234	0.0138261
639.312	0.0139338
639.390	0.0140041
639.468	0.0138023
639.546	0.0138389
639.624	0.0139543
639.703	0.0139928
639.781	0.0139731
639.859	0.0139290
639.937	0.0139037
640.015	0.0139851
640.093	0.0139671
640.171	0.0139802
640.249	0.0138548
640.328	0.0138572
640.406	0.0140559
640.484	0.0140839
640.562	0.0139497
640.640	0.0138898
640.718	0.0140208
640.796	0.0140762
640.874	0.0139157
640.953	0.0140953
641.031	0.0140378
641.109	0.0140066
641.187	0.0139280
641.265	0.0139242
641.343	0.0141385
641.421	0.0138937
641.499	0.0139560
641.578	0.0140659
641.656	0.0139160
641.734	0.0139663
641.812	0.0139423
641.890	0.0138277
641.968	0.0140344
642.046	0.0139753
642.124	0.0139874
642.203	0.0139419
642.281	0.0138773
642.359	0.0141216
642.437	0.0139237
642.515	0.0139435
642.593	0.0140441
642.671	0.0139611
642.749	0.0140059
642.828	0.0141351
642.906	0.0139046
642.984	0.0139874
643.062	0.0140652
643.140	0.0139702
643.218	0.0139572
643.296	0.0139313
643.374	0.0139283
643.453	0.0140445
643.531	0.0140133
643.609	0.0139702
643.687	0.0140472
643.765	0.0139384
643.843	0.0139697
643.921	0.0138787
643.999	0.0140058
644.078	0.0140616
644.156	0.0139723
644.234	0.0139741
644.312	0.0138648
644.390	0.0138731
644.468	0.0138814
644.546	0.0139570
644.624	0.0139920
644.703	0.0139328
644.781	0.0140266
644.859	0.0139294
644.937	0.0140517
645.015	0.0140442
645.093	0.0139278
645.171	0.0139529
645.249	0.0140105
645.328	0.0139074
645.406	0.0139777
645.484	0.0138348
645.562	0.0139671
645.640	0.0139821
645.718	0.0138281
645.796	0.0138712
645.874	0.0140493
645.953	0.0139475
646.031	0.0137852
646.109	0.0138507
646.187	0.0138327
646.265	0.0139906
646.343	0.0138772
646.421	0.0139617
646.499	0.0140579
646.578	0.0139870
646.656	0.0139362
646.734	0.0140015
646.812	0.0140181
646.890	0.0138245
646.968	0.0138776
647.046	0.0139070
647.124	0.0139724
647.203	0.0140160
647.281	0.0139057
647.359	0.0139090
647.437	0.0140184
647.515	0.0139674
647.593	0.0139277
647.671	0.0139663
647.749	0.0140697
647.828	0.0140369
647.906	0.0139434
647.984	0.0140626
648.062	0.0139920
648.140	0.0138904
648.218	0.0139673
648.296	0.0140977
648.374	0.0139771
648.453	0.0140000
648.531	0.0139188
648.609	0.0139786
648.687	0.0139221
648.765	0.0140918
648.843	0.0140063
648.921	0.0139804
648.999	0.0139548
649.078	0.0139712
649.156	0.0139886
649.234	0.0139140
649.312	0.0139770
649.390	0.0138808
649.468	0.0140005
649.546	0.0140161
649.624	0.0139368
649.703	0.0138623
649.781	0.0140015
649.859	0.0137758
649.937	0.0138548
650.015	0.0139352
650.093	0.0139806
650.171	0.0139699
650.249	0.0138356
650.328	0.0139248
650.406	0.0139045
650.484	0.0138812
650.562	0.0140472
650.640	0.0139195
650.718	0.0139294
650.796	0.0139491
650.874	0.0139201
650.953	0.0140520
651.031	0.0140826
651.109	0.0140262
651.187	0.0137981
651.265	0.0139432
651.343	0.0139472
651.421	0.0139011
651.499	0.0139590
651.578	0.0140014
651.656	0.0140395
651.734	0.0138938
651.812	0.0138979
651.890	0.0140225
651.968	0.0139696
652.046	0.0139902
652.124	0.0137763
652.203	0.0139223
652.281	0.0140533
652.359	0.0138963
652.437	0.0138736
652.515	0.0139378
652.593	0.0139471
652.671	0.0138767
652.749	0.0139144
652.828	0.0139288
652.906	0.0139465
652.984	0.0140327
653.062	0.0138064
653.140	0.0139324
653.218	0.0139183
653.296	0.0139883
653.374	0.0139700
653.453	0.0139288
653.531	0.0140985
653.609	0.0139176
653.687	0.0139523
653.765	0.0139571
653.843	0.0139732
653.921	0.0139513
653.999	0.0139138
654.078	0.0139832
654.156	0.0139461
654.234	0.0139356
654.312	0.0139629
654.390	0.0139574
654.468	0.0138565
654.546	0.0140018
654.624	0.0139297
654.703	0.0139615
654.781	0.0139430
654.859	0.0138633
654.937	0.0139854
655.015	0.0140436
655.093	0.0138965
655.171	0.0139686
655.249	0.0139186
655.328	0.0140160
655.406	0.0139175
655.484	0.0139619
655.562	0.0139291
655.640	0.0138921
655.718	0.0140398
655.796	0.0139742
655.874	0.0140421
655.953	0.0139522
656.031	0.0138379
656.109	0.0138145
656.187	0.0139045
656.265	0.0139139
656.343	0.0139206
656.421	0.0138616
656.499	0.0140406
656.578	0.0140020
656.656	0.0139826
656.734	0.0139304
656.812	0.0139082
656.890	0.0138026
656.968	0.0140431
657.046	0.0138854
657.124	0.0139249
657.203	0.0139794
657.281	0.0139488
657.359	0.0140654
657.437	0.0139673
657.515	0.0140312
657.593	0.0139169
657.671	0.0139829
657.749	0.0139594
657.828	0.0138133
657.906	0.0138932
657.984	0.0139894
658.062	0.0140047
658.140	0.0140769
658.218	0.0139211
658.296	0.0139673
658.374	0.0139816
658.453	0.0139087
658.531	0.0139571
658.609	0.0140907
658.687	0.0139469
658.765	0.0140652
658.843	0.0140707
658.921	0.0139293
658.999	0.0138486
659.078	0.0141028
659.156	0.0138907
659.234	0.0139277
659.312	0.0138770
659.390	0.0140196
659.468	0.0139265
659.546	0.0138933
659.624	0.0140478
659.703	0.0140202
659.781	0.0138879
659.859	0.0140128
659.937	0.0140485
660.015	0.0138994
660.093	0.0139919
660.171	0.0139749
660.249	0.0141004
660.328	0.0139142
660.406	0.0140036
660.484	0.0139083
660.562	0.0139574
660.640	0.0139658
660.718	0.0139375
660.796	0.0140304
660.874	0.0139668
660.953	0.0139626
661.031	0.0139340
661.109	0.0139426
661.187	0.0140311
661.265	0.0139140
661.343	0.0139194
661.421	0.0139914
661.499	0.0139365
661.578	0.0139497
661.656	0.0138160
661.734	0.0140105
661.812	0.0139492
661.890	0.0139831
661.968	0.0138806
662.046	0.0139602
662.124	0.0138533
662.203	0.0138203
662.281	0.0138889
662.359	0.0140821
662.437	0.0139861
662.515	0.0139863
662.593	0.0139806
662.671	0.0139761
662.749	0.0141348
662.828	0.0139410
662.906	0.0139728
662.984	0.0139997
663.062	0.0140116
663.140	0.0139154
663.218	0.0139435
663.296	0.0138882
663.374	0.0138674
663.453	0.0139915
663.531	0.0139191
663.609	0.0140400
663.687	0.0141250
663.765	0.0140398
663.843	0.0139729
663.921	0.0139751
663.999	0.0139128
664.078	0.0139128
664.156	0.0140966
664.234	0.0140005
664.312	0.0138659
664.390	0.0139939
664.468	0.0140546
664.546	0.0140724
664.624	0.0139651
664.703	0.0138914
664.781	0.0140575
664.859	0.0139358
664.937	0.0140064
665.015	0.0138185
665.093	0.0140457
665.171	0.0140520
665.249	0.0137589
665.328	0.0140191
665.406	0.0140384
665.484	0.0139413
665.562	0.0137960
665.640	0.0138970
665.718	0.0139217
665.796	0.0139524
665.874	0.0140900
665.953	0.0140359
666.031	0.0139294
666.109	0.0140579
666.187	0.0140624
666.265	0.0139304
666.343	0.0139468
666.421	0.0139368
666.499	0.0141032
666.578	0.0138403
666.656	0.0141087
666.734	0.0139941
666.812	0.0139228
666.890	0.0139738
666.968	0.0140424
667.046	0.0139263
667.124	0.0139798
667.203	0.0140636
667.281	0.0140192
667.359	0.0139898
667.437	0.0139610
667.515	0.0139250
667.593	0.0139160
667.671	0.0138227
667.749	0.0139822
667.828	0.0139389
667.906	0.0140509
667.984	0.0139103
668.062	0.0139046
668.140	0.0139394
668.218	0.0139899
668.296	0.0138911
668.374	0.0140285
668.453	0.0139397
668.531	0.0140632
668.609	0.0140092
668.687	0.0140343
668.765	0.0139803
668.843	0.0139999
668.921	0.0138939
668.999	0.0140302
669.078	0.0140138
669.156	0.0139302
669.234	0.0139120
669.312	0.0139304
669.390	0.0139510
669.468	0.0140005
669.546	0.0140726
669.624	0.0139150
669.703	0.0139288
669.781	0.0139324
669.859	0.0138996
669.937	0.0138169
670.015	0.0139948
670.093	0.0140831
670.171	0.0139120
670.249	0.0140690
670.328	0.0140076
670.406	0.0140767
670.484	0.0139169
670.562	0.0139219
670.640	0.0140782
670.718	0.0139579
670.796	0.0140099
670.874	0.0140332
670.953	0.0139040
671.031	0.0140101
671.109	0.0138293
671.187	0.0138670
671.265	0.0139310
671.343	0.0139660
671.421	0.0139153
671.499	0.0140108
671.578	0.0139839
671.656	0.0139261
671.734	0.0139540
671.812	0.0139300
671.890	0.0139476
671.968	0.0140555
672.046	0.0141698
672.124	0.0141315
672.203	0.0141346
672.281	0.0139721
672.359	0.0139966
672.437	0.0140179
672.515	0.0139533
672.593	0.0140788
672.671	0.0139426
672.749	0.0139391
672.828	0.0140173
672.906	0.0139428
672.984	0.0139062
673.062	0.0139815
673.140	0.0139150
673.218	0.0138581
673.296	0.0140227
673.374	0.0137653
673.453	0.0140376
673.531	0.0141871
673.609	0.0140862
673.687	0.0141709
673.765	0.0140916
673.843	0.0141859
673.921	0.0141232
673.999	0.0140702
674.078	0.0141933
674.156	0.0141500
674.234	0.0139851
674.312	0.0138997
674.390	0.0140321
674.468	0.0139362
674.546	0.0139353
674.624	0.0138515
674.703	0.0138589
674.781	0.0138674
674.859	0.0137745
674.937	0.0137969
675.015	0.0137522
675.093	0.0138632
675.171	0.0138137
675.249	0.0139307
675.328	0.0139449
675.406	0.0138873
675.484	0.0138171
675.562	0.0139075
675.640	0.0139738
675.718	0.0140046
675.796	0.0141566
675.874	0.0140150
675.953	0.0141501
676.031	0.0140720
676.109	0.0140328
676.187	0.0140151
676.265	0.0140615
676.343	0.0139784
676.421	0.0139769
676.499	0.0139926
676.578	0.0140282
676.656	0.0140678
676.734	0.0140747
676.812	0.0139974
676.890	0.0139893
676.968	0.0138583
677.046	0.0139530
677.124	0.0138299
677.203	0.0137143
677.281	0.0136103
677.359	0.0136966
677.437	0.0135758
677.515	0.0135211
677.593	0.0137077
677.671	0.0136613
677.749	0.0137772
677.828	0.0138927
677.906	0.0137900
677.984	0.0139628
678.062	0.0141149
678.140	0.0140425
678.218	0.0140785
678.296	0.0140341
678.374	0.0141770
678.453	0.0142870
678.531	0.0143111
678.609	0.0142554
678.687	0.0142110
678.765	0.0141543
678.843	0.0141560
678.921	0.0140665
678.999	0.0140387
679.078	0.0140334
679.156	0.0140172
679.234	0.0139809
679.312	0.0138982
679.390	0.0138793
679.468	0.0138407
679.546	0.0140409
679.624	0.0141299
679.703	0.0141036
679.781	0.0139752
679.859	0.0139841
679.937	0.0141698
680.015	0.0140151
680.093	0.0138484
680.171	0.0139015
680.249	0.0139801
680.328	0.0138181
680.406	0.0138634
680.484	0.0137630
680.562	0.0139234
680.640	0.0139098
680.718	0.0137466
680.796	0.0137099
680.874	0.0137334
680.953	0.0136720
681.031	0.0137186
681.109	0.0137496
681.187	0.0137394
681.265	0.0136709
681.343	0.0138127
681.421	0.0138472
681.499	0.0136617
681.578	0.0138355
681.656	0.0139835
681.734	0.0139648
681.812	0.0140474
681.890	0.0140212
681.968	0.0141673
682.046	0.0143347
682.124	0.0142662
682.203	0.0143662
682.281	0.0142534
682.359	0.0142739
682.437	0.0141754
682.515	0.0140813
682.593	0.0141329
682.671	0.0140527
682.749	0.0141427
682.828	0.0142433
682.906	0.0141904
682.984	0.0140302
683.062	0.0141601
683.140	0.0142016
683.218	0.0141660
683.296	0.0142925
683.374	0.0143533
683.453	0.0143155
683.531	0.0142259
683.609	0.0143357
683.687	0.0145354
683.765	0.0144301
683.843	0.0143272
683.921	0.0143601
683.999	0.0141624
684.078	0.0139909
684.156	0.0136501
684.234	0.0133379
684.312	0.0132930
684.390	0.0131158
684.468	0.0129006
684.546	0.0128294
684.624	0.0126207
684.703	0.0125713
684.781	0.0126252
684.859	0.0126205
684.937	0.0127857
685.015	0.0128178
685.093	0.0130943
685.171	0.0132826
685.249	0.0134582
685.328	0.0138766
685.406	0.0140954
685.484	0.0143183
685.562	0.0146423
685.640	0.0147408
685.718	0.0149491
685.796	0.0151756
685.874	0.0153983
685.953	0.0152472
686.031	0.0153075
686.109	0.0152685
686.187	0.0149558
686.265	0.0148328
686.343	0.0147808
686.421	0.0145065
686.499	0.0143134
686.578	0.0141364
686.656	0.0139977
686.734	0.0140276
686.812	0.0139161
686.890	0.0138597
686.968	0.0141026
687.046	0.0141360
687.124	0.0142886
687.203	0.0142448
687.281	0.0144559
687.359	0.0146200
687.437	0.0147301
687.515	0.0148290
687.593	0.0147954
687.671	0.0147479
687.749	0.0145538
687.828	0.0144508
687.906	0.0140805
687.984	0.0138402
688.062	0.0133085
688.140	0.0128806
688.218	0.0126284
688.296	0.0123055
688.374	0.0119298
688.453	0.0118481
688.531	0.0114931
688.609	0.0113770
688.687	0.0114936
688.765	0.0116301
688.843	0.0118679
688.921	0.0121304
688.999	0.0124589
689.078	0.0126972
689.156	0.0131686
689.234	0.0134978
689.312	0.0140028
689.390	0.0143451
689.468	0.0145928
689.546	0.0149820
689.624	0.0152934
689.703	0.0153226
689.781	0.0156905
689.859	0.0157839
689.937	0.0159655
690.015	0.0160262
690.093	0.0160793
690.171	0.0160313
690.249	0.0159928
690.328	0.0157863
690.406	0.0156978
690.484	0.0156261
690.562	0.0153548
690.640	0.0151820
690.718	0.0151154
690.796	0.0148736
690.874	0.0149112
690.953	0.0147251
691.031	0.0145505
691.109	0.0144662
691.187	0.0141374
691.265	0.0141343
691.343	0.0141268
691.421	0.0139816
691.499	0.0139573
691.578	0.0137450
691.656	0.0136894
691.734	0.0133813
691.812	0.0133653
691.890	0.0129948
691.968	0.0128545
692.046	0.0127032
692.124	0.0123639
692.203	0.0120985
692.281	0.0120151
692.359	0.0116460
692.437	0.0115894
692.515	0.0115591
692.593	0.0114937
692.671	0.0115868
692.749	0.0116824
692.828	0.0117314
692.906	0.0119547
692.984	0.0121948
693.062	0.0125645
693.140	0.0128399
693.218	0.0132043
693.296	0.0136301
693.374	0.0139751
693.453	0.0142796
693.531	0.0147066
693.609	0.0151226
693.687	0.0152957
693.765	0.0156925
693.843	0.0158517
693.921	0.0160944
693.999	0.0162119
694.078	0.0164984
694.156	0.0165948
694.234	0.0165727
694.312	0.0166076
694.390	0.0167606
694.468	0.0165829
694.546	0.0164430
694.624	0.0163752
694.703	0.0163000
694.781	0.0158858
694.859	0.0155086
694.937	0.0152773
695.015	0.0150026
695.093	0.0147887
695.171	0.0142142
695.249	0.0139433
695.328	0.0138716
695.406	0.0136021
695.484	0.0132748
695.562	0.0129293
695.640	0.0127740
695.718	0.0127617
695.796	0.0123444
695.874	0.0124059
695.953	0.0123148
696.031	0.0122397
696.109	0.0121535
696.187	0.0121361
696.265	0.0121200
696.343	0.0120649
696.421	0.0123003
696.499	0.0123758
696.578	0.0123772
696.656	0.0123809
696.734	0.0122997
696.812	0.0124877
696.890	0.0124471
696.968	0.0125275
697.046	0.0128283
697.124	0.0127763
697.203	0.0129907
697.281	0.0129290
697.359	0.0129935
697.437	0.0133370
697.515	0.0135603
697.593	0.0138428
697.671	0.0141077
697.749	0.0143526
697.828	0.0146468
697.906	0.0149567
697.984	0.0153469
698.062	0.0155884
698.140	0.0157327
698.218	0.0159870
698.296	0.0161525
698.374	0.0163244
698.453	0.0163896
698.531	0.0164457
698.609	0.0164661
698.687	0.0162569
698.765	0.0162309
698.843	0.0162337
698.921	0.0157845
698.999	0.0156853
699.078	0.0153403
699.156	0.0150135
699.234	0.0148612
699.312	0.0145051
699.390	0.0142035
699.468	0.0138756
699.546	0.0136142
699.624	0.0134171
699.703	0.0132809
699.781	0.0130887
699.859	0.0128837
699.937	0.0127787
700.015	0.0127592
700.093	0.0127305
700.171	0.0128571
700.249	0.0127277
700.328	0.0128848
700.406	0.0127813
700.484	0.0128730
700.562	0.0127823
700.640	0.0129330
700.718	0.0127066
700.796	0.0126232
700.874	0.0126959
700.953	0.0126482
701.031	0.0126247
701.109	0.0124548
701.187	0.0125067
701.265	0.0124653
701.343	0.0124541
701.421	0.0123274
701.499	0.0123329
701.578	0.0124561
701.656	0.0125196
701.734	0.0126800
701.812	0.0128631
701.890	0.0129537
701.968	0.0133624
702.046	0.0136107
702.124	0.0139326
702.203	0.0143965
702.281	0.0148477
702.359	0.0153506
702.437	0.0156481
702.515	0.0161050
702.593	0.0166881
702.671	0.0167467
702.749	0.0170586
702.828	0.0171247
702.906	0.0172091
702.984	0.0172714
703.062	0.0170470
703.140	0.0168491
703.218	0.0165942
703.296	0.0161823
703.374	0.0159064
703.453	0.0153889
703.531	0.0149683
703.609	0.0144630
703.687	0.0141614
703.765	0.0136994
703.843	0.0133127
703.921	0.0129431
703.999	0.0125397
704.078	0.0124080
704.156	0.0121994
704.234	0.0121652
704.312	0.0120329
704.390	0.0121094
704.468	0.0121410
704.546	0.0124625
704.624	0.0122776
704.703	0.0125281
704.781	0.0127080
704.859	0.0127973
704.937	0.0127448
705.015	0.0128548
705.093	0.0131177
705.171	0.0129990
705.249	0.0130090
705.328	0.0129340
705.406	0.0129619
705.484	0.0130954
705.562	0.0131551
705.640	0.0129811
705.718	0.0129161
705.796	0.0131554
705.874	0.0132029
705.953	0.0133217
706.031	0.0133997
706.109	0.0136171
706.187	0.0138128
706.265	0.0140015
706.343	0.0143536
706.421	0.0147423
706.499	0.0150423
706.578	0.0153254
706.656	0.0157549
706.734	0.0158986
706.812	0.0160792
706.890	0.0162492
706.968	0.0164364
707.046	0.0163873
707.124	0.0161905
707.203	0.0162201
707.281	0.0159460
707.359	0.0157855
707.437	0.0154213
707.515	0.0151598
707.593	0.0147499
707.671	0.0145261
707.749	0.0142015
707.828	0.0139278
707.906	0.0136942
707.984	0.0132938
708.062	0.0130954
708.140	0.0129762
708.218	0.0128624
708.296	0.0126189
708.374	0.0126889
708.453	0.0127335
708.531	0.0125993
708.609	0.0127653
708.687	0.0129707
708.765	0.0129549
708.843	0.0131412
708.921	0.0131530
708.999	0.0131803
709.078	0.0134850
709.156	0.0134734
709.234	0.0136088
709.312	0.0137722
709.390	0.0137529
709.468	0.0138056
709.546	0.0137842
709.624	0.0136854
709.703	0.0135709
709.781	0.0136105
709.859	0.0136015
709.937	0.0135236
710.015	0.0134460
710.093	0.0133705
710.171	0.0133584
710.249	0.0133123
710.328	0.0133146
710.406	0.0133215
710.484	0.0133764
710.562	0.0135813
710.640	0.0137084
710.718	0.0138728
710.796	0.0142133
710.874	0.0144923
710.953	0.0147327
711.031	0.0150208
711.109	0.0152051
711.187	0.0154346
711.265	0.0157261
711.343	0.0157596
711.421	0.0159862
711.499	0.0158327
711.578	0.0158121
711.656	0.0157146
711.734	0.0154526
711.812	0.0151871
711.890	0.0148887
711.968	0.0146511
712.046	0.0144094
712.124	0.0140312
712.203	0.0135460
712.281	0.0134481
712.359	0.0131768
712.437	0.0129861
712.515	0.0127674
712.593	0.0127595
712.671	0.0127633
712.749	0.0128329
712.828	0.0129456
712.906	0.0130325
712.984	0.0132091
713.062	0.0134140
713.140	0.0135839
713.218	0.0137210
713.296	0.0140075
713.374	0.0142252
713.453	0.0143526
713.531	0.0142732
713.609	0.0145003
713.687	0.0144767
713.765	0.0144455
713.843	0.0143623
713.921	0.0142371
713.999	0.0139879
714.078	0.0138605
714.156	0.0136253
714.234	0.0133948
714.312	0.0131836
714.390	0.0130791
714.468	0.0130043
714.546	0.0128887
714.624	0.0130270
714.703	0.0127505
714.781	0.0128273
714.859	0.0130315
714.937	0.0132471
715.015	0.0134286
715.093	0.0135992
715.171	0.0140158
715.249	0.0140377
715.328	0.0143693
715.406	0.0145698
715.484	0.0148479
715.562	0.0149445
715.640	0.0151395
715.718	0.0151871
715.796	0.0154065
715.874	0.0151875
715.953	0.0151698
716.031	0.0151430
716.109	0.0148798
716.187	0.0146017
716.265	0.0145555
716.343	0.0142506
716.421	0.0140730
716.499	0.0139178
716.578	0.0138038
716.656	0.0137816
716.734	0.0137820
716.812	0.0135860
716.890	0.0135327
716.968	0.0133968
717.046	0.0136337
717.124	0.0138338
717.203	0.0137746
717.281	0.0138744
717.359	0.0139564
717.437	0.0140861
717.515	0.0140811
717.593	0.0142009
717.671	0.0142591
717.749	0.0142298
717.828	0.0142467
717.906	0.0142765
717.984	0.0141779
718.062	0.0141696
718.140	0.0139434
718.218	0.0138174
718.296	0.0137341
718.374	0.0135855
718.453	0.0133963
718.531	0.0133475
718.609	0.0133176
718.687	0.0132237
718.765	0.0131664
718.843	0.0131429
718.921	0.0130341
718.999	0.0131146
719.078	0.0131863
719.156	0.0133059
719.234	0.0134896
719.312	0.0135918
719.390	0.0137136
719.468	0.0139820
719.546	0.0141649
719.624	0.0143497
719.703	0.0145138
719.781	0.0145173
719.859	0.0146429
719.937	0.0146538
720.015	0.0148451
720.093	0.0148206
720.171	0.0146842
720.249	0.0147188
720.328	0.0146130
720.406	0.0145876
720.484	0.0145823
720.562	0.0144662
720.640	0.0144130
720.718	0.0141664
720.796	0.0140742
720.874	0.0139355
720.953	0.0137980
721.031	0.0137576
721.109	0.0137154
721.187	0.0136938
721.265	0.0136941
721.343	0.0135801
721.421	0.0136803
721.499	0.0136253
721.578	0.0135052
721.656	0.0135465
721.734	0.0135521
721.812	0.0136897
721.890	0.0138853
721.968	0.0136251
722.046	0.0137138
722.124	0.0139267
722.203	0.0139170
722.281	0.0139800
722.359	0.0139340
722.437	0.0138647
722.515	0.0138712
722.593	0.0139001
722.671	0.0138705
722.749	0.0137984
722.828	0.0136739
722.906	0.0135932
722.984	0.0136105
723.062	0.0136853
723.140	0.0137269
723.218	0.0135719
723.296	0.0137551
723.374	0.0137530
723.453	0.0138953
723.531	0.0141004
723.609	0.0141315
723.687	0.0142145
723.765	0.0144671
723.843	0.0145169
723.921	0.0146185
723.999	0.0148495
724.078	0.0149277
724.156	0.0148646
724.234	0.0149474
724.312	0.0146462
724.390	0.0146478
724.468	0.0146931
724.546	0.0146548
724.624	0.0146203
724.703	0.0144884
724.781	0.0144686
724.859	0.0144451
724.937	0.0143069
725.015	0.0141943
725.093	0.0140432
725.171	0.0138092
725.249	0.0138535
725.328	0.0137501
725.406	0.0136034
725.484	0.0136026
725.562	0.0135207
725.640	0.0135340
725.718	0.0134170
725.796	0.0133049
725.874	0.0133767
725.953	0.0132614
726.031	0.0132078
726.109	0.0133477
726.187	0.0134837
726.265	0.0133707
726.343	0.0135399
726.421	0.0134882
726.499	0.0136499
726.578	0.0135780
726.656	0.0137839
726.734	0.0137767
726.812	0.0136723
726.890	0.0136546
726.968	0.0138217
727.046	0.0137021
727.124	0.0138082
727.203	0.0138931
727.281	0.0140144
727.359	0.0139468
727.437	0.0139616
727.515	0.0142175
727.593	0.0141297
727.671	0.0141647
727.749	0.0142397
727.828	0.0143503
727.906	0.0143835
727.984	0.0145682
728.062	0.0146589
728.140	0.0148141
728.218	0.0147942
728.296	0.0146960
728.374	0.0149294
728.453	0.0148636
728.531	0.0146546
728.609	0.0146861
728.687	0.0146900
728.765	0.0145537
728.843	0.0144289
728.921	0.0145845
728.999	0.0144498
729.078	0.0142548
729.156	0.0142203
729.234	0.0140985
729.312	0.0139724
729.390	0.0140501
729.468	0.0139077
729.546	0.0136999
729.624	0.0137952
729.703	0.0137624
729.781	0.0136454
729.859	0.0135602
729.937	0.0135101
730.015	0.0134321
730.093	0.0134152
730.171	0.0133471
730.249	0.0134113
730.328	0.0132777
730.406	0.0133324
730.484	0.0134426
730.562	0.0135389
730.640	0.0134874
730.718	0.0134703
730.796	0.0136658
730.874	0.0137601
730.953	0.0138295
731.031	0.0137811
731.109	0.0138182
731.187	0.0140255
731.265	0.0141019
731.343	0.0140041
731.421	0.0141324
731.499	0.0142160
731.578	0.0141187
731.656	0.0140841
731.734	0.0141675
731.812	0.0141801
731.890	0.0142545
731.968	0.0142910
732.046	0.0142329
732.124	0.0143403
732.203	0.0142379
732.281	0.0142943
732.359	0.0143551
732.437	0.0142789
732.515	0.0142130
732.593	0.0142117
732.671	0.0142626
732.749	0.0142283
732.828	0.0142147
732.906	0.0141240
732.984	0.0139939
733.062	0.0139768
733.140	0.0139484
733.218	0.0139200
733.296	0.0139256
733.374	0.0138664
733.453	0.0137726
733.531	0.0137268
733.609	0.0137965
733.687	0.0137794
733.765	0.0137309
733.843	0.0135840
733.921	0.0136760
733.999	0.0137401
734.078	0.0136798
734.156	0.0136818
734.234	0.0137415
734.312	0.0136885
734.390	0.0137266
734.468	0.0137241
734.546	0.0136913
734.624	0.0138462
734.703	0.0138765
734.781	0.0138475
734.859	0.0137274
734.937	0.0139926
735.015	0.0139278
735.093	0.0139790
735.171	0.0140688
735.249	0.0141254
735.328	0.0141267
735.406	0.0142310
735.484	0.0141746
735.562	0.0142663
735.640	0.0143999
735.718	0.0144340
735.796	0.0144011
735.874	0.0145981
735.953	0.0145125
736.031	0.0146034
736.109	0.0144061
736.187	0.0144408
736.265	0.0144379
736.343	0.0144264
736.421	0.0142512
736.499	0.0142384
736.578	0.0142378
736.656	0.0140800
736.734	0.0139131
736.812	0.0138146
736.890	0.0137660
736.968	0.0137543
737.046	0.0135246
737.124	0.0135860
737.203	0.0133228
737.281	0.0132541
737.359	0.0132352
737.437	0.0133242
737.515	0.0134760
737.593	0.0133424
737.671	0.0133010
737.749	0.0133711
737.828	0.0135156
737.906	0.0134940
737.984	0.0133720
738.062	0.0134325
738.140	0.0136449
738.218	0.0136008
738.296	0.0137307
738.374	0.0139111
738.453	0.0138514
738.531	0.0139520
738.609	0.0139870
738.687	0.0141461
738.765	0.0142087
738.843	0.0142355
738.921	0.0143486
738.999	0.0142997
739.078	0.0143271
739.156	0.0143468
739.234	0.0145520
739.312	0.0144362
739.390	0.0144238
739.468	0.0144672
739.546	0.0145277
739.624	0.0144599
739.703	0.0145509
739.781	0.0145394
739.859	0.0146181
739.937	0.0144180
740.015	0.0145586
740.093	0.0144291
740.171	0.0145679
740.249	0.0144530
740.328	0.0144048
740.406	0.0143965
740.484	0.0144106
740.562	0.0140955
740.640	0.0141165
740.718	0.0138083
740.796	0.0139457
740.874	0.0137377
740.953	0.0136735
741.031	0.0133818
741.109	0.0134985
741.187	0.0133613
741.265	0.0134210
741.343	0.0133450
741.421	0.0132335
741.499	0.0132582
741.578	0.0133023
741.656	0.0133430
741.734	0.0134233
741.812	0.0132953
741.890	0.0133900
741.968	0.0133807
742.046	0.0135524
742.124	0.0137237
742.203	0.0139004
742.281	0.0137236
742.359	0.0138640
742.437	0.0138321
742.515	0.0140069
742.593	0.0139201
742.671	0.0139896
742.749	0.0139342
742.828	0.0139393
742.906	0.0139857
742.984	0.0139998
743.062	0.0142188
743.140	0.0142195
743.218	0.0141782
743.296	0.0141703
743.374	0.0140607
743.453	0.0142889
743.531	0.0143457
743.609	0.0142850
743.687	0.0143273
743.765	0.0145994
743.843	0.0145134
743.921	0.0143871
743.999	0.0144856
744.078	0.0146042
744.156	0.0146557
744.234	0.0144972
744.312	0.0143780
744.390	0.0143598
744.468	0.0144234
744.546	0.0141487
744.624	0.0141518
744.703	0.0140035
744.781	0.0138921
744.859	0.0139055
744.937	0.0136729
745.015	0.0134077
745.093	0.0134412
745.171	0.0134283
745.249	0.0132593
745.328	0.0131397
745.406	0.0130960
745.484	0.0132273
745.562	0.0133187
745.640	0.0135188
745.718	0.0134100
745.796	0.0134451
745.874	0.0135722
745.953	0.0136021
746.031	0.0136677
746.109	0.0138661
746.187	0.0139346
746.265	0.0139782
746.343	0.0141855
746.421	0.0141141
746.499	0.0142095
746.578	0.0142809
746.656	0.0143880
746.734	0.0143948
746.812	0.0143758
746.890	0.0143845
746.968	0.0143600
747.046	0.0141997
747.124	0.0141922
747.203	0.0142030
747.281	0.0142855
747.359	0.0141740
747.437	0.0144052
747.515	0.0142049
747.593	0.0142949
747.671	0.0143458
747.749	0.0142979
747.828	0.0142281
747.906	0.0142627
747.984	0.0143410
748.062	0.0142605
748.140	0.0142539
748.218	0.0142923
748.296	0.0141167
748.374	0.0141332
748.453	0.0140597
748.531	0.0139857
748.609	0.0139011
748.687	0.0137511
748.765	0.0137405
748.843	0.0136101
748.921	0.0136413
748.999	0.0134815
749.078	0.0135488
749.156	0.0134850
749.234	0.0132899
749.312	0.0133399
749.390	0.0134153
749.468	0.0133281
749.546	0.0133134
749.624	0.0134038
749.703	0.0133930
749.781	0.0134292
749.859	0.0135691
749.937	0.0137595
750.015	0.0138441
750.093	0.0139490
750.171	0.0138881
750.249	0.0139844
750.328	0.0141571
750.406	0.0142783
750.484	0.0143166
750.562	0.0143171
750.640	0.0143274
750.718	0.0143682
750.796	0.0143244
750.874	0.0143796
750.953	0.0143639
751.031	0.0144509
751.109	0.0143143
751.187	0.0142573
751.265	0.0143332
751.343	0.0143055
751.421	0.0142831
751.499	0.0143038
751.578	0.0140767
751.656	0.0141444
751.734	0.0141384
751.812	0.0142177
751.890	0.0141810
751.968	0.0140564
752.046	0.0140197
752.124	0.0141874
752.203	0.0141482
752.281	0.0141415
752.359	0.0138002
752.437	0.0139546
752.515	0.0140005
752.593	0.0138863
752.671	0.0138387
752.749	0.0137080
752.828	0.0137150
752.906	0.0137383
752.984	0.0136207
753.062	0.0135621
753.140	0.0136218
753.218	0.0136145
753.296	0.0134164
753.374	0.0135562
753.453	0.0135597
753.531	0.0135293
753.609	0.0135096
753.687	0.0135796
753.765	0.0138058
753.843	0.0137308
753.921	0.0137184
753.999	0.0138220
754.078	0.0137898
754.156	0.0139296
754.234	0.0140068
754.312	0.0141410
754.390	0.0141758
754.468	0.0140778
754.546	0.0141235
754.624	0.0142393
754.703	0.0143158
754.781	0.0143491
754.859	0.0143069
754.937	0.0143398
755.015	0.0143195
755.093	0.0143047
755.171	0.0142700
755.249	0.0142107
755.328	0.0140934
755.406	0.0141914
755.484	0.0140892
755.562	0.0141747
755.640	0.0141336
755.718	0.0139732
755.796	0.0141077
755.874	0.0140863
755.953	0.0139463
756.031	0.0140464
756.109	0.0139838
756.187	0.0139745
756.265	0.0140303
756.343	0.0139546
756.421	0.0138693
756.499	0.0139545
756.578	0.0139012
756.656	0.0138808
756.734	0.0136874
756.812	0.0137456
756.890	0.0137365
756.968	0.0136720
757.046	0.0135403
757.124	0.0135261
757.203	0.0134549
757.281	0.0135281
757.359	0.0134186
757.437	0.0135513
757.515	0.0134645
757.593	0.0134898
757.671	0.0137018
757.749	0.0135802
757.828	0.0136131
757.906	0.0136777
757.984	0.0136083
758.062	0.0137966
758.140	0.0139484
758.218	0.0139886
758.296	0.0141464
758.374	0.0141263
758.453	0.0140202
758.531	0.0143167
758.609	0.0143812
758.687	0.0143617
758.765	0.0144199
758.843	0.0143752
758.921	0.0144824
758.999	0.0145156
759.078	0.0144360
759.156	0.0145837
759.234	0.0144737
759.312	0.0144636
759.390	0.0143858
759.468	0.0142445
759.546	0.0141660
759.624	0.0141282
759.703	0.0139622
759.781	0.0137907
759.859	0.0138921
759.937	0.0137373
760.015	0.0135818
760.093	0.0136145
760.171	0.0136738
760.249	0.0137450
760.328	0.0134895
760.406	0.0137099
760.484	0.0137001
760.562	0.0136282
760.640	0.0136989
760.718	0.0137369
760.796	0.0138093
760.874	0.0136755
760.953	0.0138023
761.031	0.0138153
761.109	0.0138186
761.187	0.0138054
761.265	0.0138580
761.343	0.0138865
761.421	0.0137434
761.499	0.0138134
761.578	0.0138437
761.656	0.0137398
761.734	0.0136958
761.812	0.0139213
761.890	0.0139238
761.968	0.0137881
762.046	0.0138170
762.124	0.0139017
762.203	0.0138548
762.281	0.0140731
762.359	0.0140062
762.437	0.0140414
762.515	0.0141588
762.593	0.0141972
762.671	0.0142397
762.749	0.0143405
762.828	0.0142399
762.906	0.0141924
762.984	0.0142593
763.062	0.0143049
763.140	0.0142162
763.218	0.0141848
763.296	0.0141993
763.374	0.0140925
763.453	0.0141284
763.531	0.0140734
763.609	0.0139548
763.687	0.0140396
763.765	0.0138498
763.843	0.0139562
763.921	0.0138905
763.999	0.0139241
764.078	0.0138893
764.156	0.0137770
764.234	0.0136243
764.312	0.0137877
764.390	0.0137119
764.468	0.0137339
764.546	0.0137945
764.624	0.0137644
764.703	0.0136621
764.781	0.0138046
764.859	0.0138304
764.937	0.0137632
765.015	0.0138010
765.093	0.0138412
765.171	0.0139817
765.249	0.0139506
765.328	0.0139724
765.406	0.0139505
765.484	0.0138436
765.562	0.0138793
765.640	0.0139741
765.718	0.0138439
765.796	0.0137968
765.874	0.0138625
765.953	0.0138975
766.031	0.0137653
766.109	0.0139584
766.187	0.0136997
766.265	0.0138600
766.343	0.0140229
766.421	0.0138659
766.499	0.0139706
766.578	0.0140793
766.656	0.0141395
766.734	0.0141728
766.812	0.0142259
766.890	0.0143929
766.968	0.0141930
767.046	0.0143504
767.124	0.0143237
767.203	0.0141671
767.281	0.0141054
767.359	0.0141748
767.437	0.0142128
767.515	0.0142172
767.593	0.0140035
767.671	0.0138171
767.749	0.0138876
767.828	0.0138856
767.906	0.0136710
767.984	0.0135996
768.062	0.0136656
768.140	0.0136266
768.218	0.0136714
768.296	0.0136250
768.374	0.0136958
768.453	0.0135923
768.531	0.0136878
768.609	0.0136765
768.687	0.0139139
768.765	0.0138126
768.843	0.0138934
768.921	0.0138231
768.999	0.0138598
769.078	0.0139312
769.156	0.0139911
769.234	0.0139761
769.312	0.0139789
769.390	0.0139637
769.468	0.0140981
769.546	0.0138776
769.624	0.0139469
769.703	0.0139073
769.781	0.0138945
769.859	0.0138924
769.937	0.0139748
770.015	0.0140085
770.093	0.0139761
770.171	0.0142874
770.249	0.0143666
770.328	0.0141570
770.406	0.0142527
770.484	0.0142413
770.562	0.0141944
770.640	0.0141806
770.718	0.0141656
770.796	0.0141357
770.874	0.0142094
770.953	0.0140416
771.031	0.0139260
771.109	0.0139406
771.187	0.0141216
771.265	0.0139648
771.343	0.0139410
771.421	0.0141068
771.499	0.0141154
771.578	0.0140725
771.656	0.0140033
771.734	0.0139953
771.812	0.0139006
771.890	0.0137247
771.968	0.0136514
772.046	0.0135702
772.124	0.0135082
772.203	0.0134959
772.281	0.0133527
772.359	0.0132512
772.437	0.0132987
772.515	0.0133832
772.593	0.0134380
772.671	0.0136652
772.749	0.0138366
772.828	0.0138494
772.906	0.0141501
772.984	0.0142643
773.062	0.0143706
773.140	0.0143500
773.218	0.0145093
773.296	0.0145000
773.374	0.0144202
773.453	0.0143892
773.531	0.0144126
773.609	0.0143457
773.687	0.0142173
773.765	0.0140932
773.843	0.0141289
773.921	0.0139156
773.999	0.0141067
774.078	0.0140240
774.156	0.0140081
774.234	0.0140480
774.312	0.0141009
774.390	0.0140324
774.468	0.0141059
774.546	0.0141614
774.624	0.0142828
774.703	0.0140611
774.781	0.0138225
774.859	0.0139436
774.937	0.0138421
775.015	0.0138250
775.093	0.0136714
775.171	0.0136587
775.249	0.0136958
775.328	0.0136130
775.406	0.0136790
775.484	0.0136394
775.562	0.0137547
775.640	0.0138702
775.718	0.0138149
775.796	0.0140080
775.874	0.0139264
775.953	0.0140206
776.031	0.0139770
776.109	0.0139028
776.187	0.0138379
776.265	0.0137101
776.343	0.0136366
776.421	0.0137070
776.499	0.0136460
776.578	0.0136549
776.656	0.0136516
776.734	0.0135867
776.812	0.0136336
776.890	0.0136145
776.968	0.0138057
777.046	0.0140675
777.124	0.0140836
777.203	0.0142762
777.281	0.0142169
777.359	0.0144875
777.437	0.0144002
777.515	0.0144192
777.593	0.0144727
777.671	0.0144114
777.749	0.0141837
777.828	0.0142001
777.906	0.0142466
777.984	0.0139513
778.062	0.0139436
778.140	0.0137529
778.218	0.0137804
778.296	0.0137868
778.374	0.0138303
778.453	0.0137471
778.531	0.0136314
778.609	0.0139946
778.687	0.0139282
778.765	0.0139928
778.843	0.0139430
778.921	0.0140202
778.999	0.0141087
779.078	0.0139665
779.156	0.0139495
779.234	0.0140530
779.312	0.0138859
779.390	0.0138222
779.468	0.0138428
779.546	0.0138137
779.624	0.0138420
779.703	0.0138297
779.781	0.0140552
779.859	0.0139175
779.937	0.0137025
780.015	0.0138425
780.093	0.0139964
780.171	0.0139642
780.249	0.0138566
780.328	0.0138422
780.406	0.0138725
780.484	0.0138029
780.562	0.0137525
780.640	0.0137782
780.718	0.0137263
780.796	0.0136357
780.874	0.0137190
780.953	0.0137811
781.031	0.0136954
781.109	0.0138114
781.187	0.0139388
781.265	0.0140042
781.343	0.0142639
781.421	0.0143365
781.499	0.0143310
781.578	0.0144102
781.656	0.0144637
781.734	0.0144605
781.812	0.0145097
781.890	0.0144655
781.968	0.0143483
782.046	0.0144093
782.124	0.0143089
782.203	0.0140056
782.281	0.0140472
782.359	0.0139452
782.437	0.0137929
782.515	0.0137687
782.593	0.0137713
782.671	0.0138215
782.749	0.0137153
782.828	0.0134985
782.906	0.0138251
782.984	0.0138195
783.062	0.0136550
783.140	0.0138469
783.218	0.0137619
783.296	0.0138432
783.374	0.0139474
783.453	0.0141044
783.531	0.0139938
783.609	0.0139349
783.687	0.0139831
783.765	0.0140977
783.843	0.0141074
783.921	0.0141711
783.999	0.0141041
784.078	0.0138405
784.156	0.0138849
784.234	0.0140250
784.312	0.0139311
784.390	0.0138565
784.468	0.0138482
784.546	0.0136822
784.624	0.0138751
784.703	0.0137489
784.781	0.0136898
784.859	0.0139688
784.937	0.0137426
785.015	0.0139433
785.093	0.0139346
785.171	0.0140173
785.249	0.0139485
785.328	0.0139221
785.406	0.0140600
785.484	0.0142106
785.562	0.0142524
785.640	0.0141692
785.718	0.0143005
785.796	0.0142278
785.874	0.0143159
785.953	0.0143931
786.031	0.0143248
786.109	0.0142409
786.187	0.0142788
786.265	0.0141338
786.343	0.0140996
786.421	0.0140206
786.499	0.0140540
786.578	0.0140765
786.656	0.0137893
786.734	0.0138112
786.812	0.0136785
786.890	0.0136421
786.968	0.0136946
787.046	0.0136206
787.124	0.0136638
787.203	0.0136909
787.281	0.0136608
787.359	0.0136655
787.437	0.0137946
787.515	0.0136926
787.593	0.0138246
787.671	0.0139834
787.749	0.0139735
787.828	0.0138039
787.906	0.0139514
787.984	0.0139661
788.062	0.0140909
788.140	0.0140424
788.218	0.0140163
788.296	0.0139220
788.374	0.0138805
788.453	0.0138972
788.531	0.0139204
788.609	0.0139972
788.687	0.0138989
788.765	0.0137363
788.843	0.0136655
788.921	0.0137197
788.999	0.0136575
789.078	0.0136530
789.156	0.0138206
789.234	0.0138309
789.312	0.0137854
789.390	0.0138341
789.468	0.0139051
789.546	0.0139432
789.624	0.0139225
789.703	0.0140195
789.781	0.0142012
789.859	0.0141688
789.937	0.0142019
790.015	0.0141734
790.093	0.0141824
790.171	0.0142913
790.249	0.0141982
790.328	0.0141795
790.406	0.0143015
790.484	0.0142724
790.562	0.0141542
790.640	0.0141675
790.718	0.0140301
790.796	0.0140239
790.874	0.0140809
790.953	0.0139631
791.031	0.0138750
791.109	0.0140559
791.187	0.0138249
791.265	0.0137727
791.343	0.0138094
791.421	0.0137623
791.499	0.0137655
791.578	0.0136396
791.656	0.0137939
791.734	0.0136623
791.812	0.0136634
791.890	0.0137952
791.968	0.0138764
792.046	0.0137601
792.124	0.0138896
792.203	0.0139689
792.281	0.0138447
792.359	0.0138394
792.437	0.0139982
792.515	0.0138986
792.593	0.0139592
792.671	0.0140080
792.749	0.0138848
792.828	0.0139237
792.906	0.0139913
792.984	0.0140320
793.062	0.0140385
793.140	0.0139182
793.218	0.0139648
793.296	0.0139758
793.374	0.0137617
793.453	0.0139407
793.531	0.0140209
793.609	0.0140080
793.687	0.0139133
793.765	0.0141049
793.843	0.0140599
793.921	0.0141260
793.999	0.0141177
794.078	0.0142289
794.156	0.0143403
794.234	0.0140412
794.312	0.0142214
794.390	0.0144424
794.468	0.0142772
794.546	0.0142268
794.624	0.0142097
794.703	0.0141955
794.781	0.0140760
794.859	0.0140556
794.937	0.0140195
795.015	0.0139587
795.093	0.0139119
795.171	0.0139217
795.249	0.0139569
795.328	0.0139526
795.406	0.0137984
795.484	0.0137709
795.562	0.0138363
795.640	0.0137775
795.718	0.0139125
795.796	0.0139362
795.874	0.0138737
795.953	0.0139572
796.031	0.0140274
796.109	0.0139040
796.187	0.0140475
796.265	0.0139906
796.343	0.0141658
796.421	0.0141680
796.499	0.0141872
796.578	0.0141925
796.656	0.0141371
796.734	0.0141607
796.812	0.0141544
796.890	0.0140663
796.968	0.0140941
797.046	0.0139751
797.124	0.0140092
797.203	0.0139503
797.281	0.0139014
797.359	0.0138853
797.437	0.0139326
797.515	0.0138905
797.593	0.0137939
797.671	0.0136692
797.749	0.0140282
797.828	0.0139522
797.906	0.0138898
797.984	0.0138421
798.062	0.0138537
798.140	0.0139723
798.218	0.0140157
798.296	0.0139581
798.374	0.0140385
798.453	0.0139935
798.531	0.0141833
798.609	0.0140831
798.687	0.0140157
798.765	0.0142023
798.843	0.0141155
798.921	0.0141068
798.999	0.0140150
799.078	0.0140295
799.156	0.0140879
799.234	0.0140691
799.312	0.0141465
799.390	0.0141634
799.468	0.0140597
799.546	0.0142374
799.624	0.0140786
799.703	0.0139687
799.781	0.0140724
799.859	0.0140582
799.937	0.0140904
800.015	0.0138562
800.093	0.0141444
800.171	0.0140698
800.249	0.0140269
800.328	0.0139866
800.406	0.0140874
800.484	0.0139679
800.562	0.0139165
800.640	0.0140062
800.718	0.0140057
800.796	0.0140897
800.874	0.0140496
800.953	0.0141529
801.031	0.0140821
801.109	0.0139734
801.187	0.0140749
801.265	0.0138187
801.343	0.0139552
801.421	0.0139543
801.499	0.0140348
801.578	0.0139826
801.656	0.0139449
801.734	0.0138374
801.812	0.0137936
801.890	0.0138808
801.968	0.0139192
802.046	0.0139152
802.124	0.0137881
802.203	0.0137578
802.281	0.0137055
802.359	0.0138152
802.437	0.0137793
802.515	0.0137885
802.593	0.0138493
802.671	0.0139706
802.749	0.0139056
802.828	0.0139230
802.906	0.0140008
802.984	0.0139388
803.062	0.0140008
803.140	0.0141333
803.218	0.0140873
803.296	0.0141096
803.374	0.0140923
803.453	0.0141691
803.531	0.0140888
803.609	0.0140334
803.687	0.0141753
803.765	0.0140588
803.843	0.0140671
803.921	0.0140555
803.999	0.0140925
804.078	0.0142176
804.156	0.0143229
804.234	0.0141164
804.312	0.0139655
804.390	0.0139959
804.468	0.0140581
804.546	0.0141433
804.624	0.0141233
804.703	0.0140235
804.781	0.0140985
804.859	0.0140392
804.937	0.0140771
805.015	0.0138927
805.093	0.0140759
805.171	0.0139790
805.249	0.0139639
805.328	0.0140555
805.406	0.0140256
805.484	0.0140446
805.562	0.0140411
805.640	0.0142384
805.718	0.0140140
805.796	0.0139237
805.874	0.0140244
805.953	0.0140391
806.031	0.0140399
806.109	0.0138911
806.187	0.0138349
806.265	0.0138579
806.343	0.0137839
806.421	0.0138966
806.499	0.0138264
806.578	0.0138579
806.656	0.0138583
806.734	0.0137136
806.812	0.0137621
806.890	0.0137940
806.968	0.0137178
807.046	0.0137813
807.124	0.0137601
807.203	0.0138633
807.281	0.0138115
807.359	0.0138454
807.437	0.0139072
807.515	0.0140796
807.593	0.0139645
807.671	0.0140214
807.749	0.0141735
807.828	0.0141023
807.906	0.0140233
807.984	0.0140106
808.062	0.0141718
808.140	0.0142188
808.218	0.0141364
808.296	0.0142447
808.374	0.0144141
808.453	0.0141859
808.531	0.0142400
808.609	0.0142002
808.687	0.0142484
808.765	0.0142033
808.843	0.0141658
808.921	0.0140334
808.999	0.0140273
809.078	0.0140291
809.156	0.0140172
809.234	0.0140203
809.312	0.0139302
809.390	0.0139603
809.468	0.0139934
809.546	0.0139586
809.624	0.0139215
809.703	0.0137494
809.781	0.0138741
809.859	0.0139327
809.937	0.0139085
810.015	0.0139167
810.093	0.0139220
810.171	0.0140247
810.249	0.0140524
810.328	0.0139568
810.406	0.0140248
810.484	0.0141386
810.562	0.0142276
810.640	0.0140943
810.718	0.0138443
810.796	0.0138917
810.874	0.0140035
810.953	0.0138383
811.031	0.0140193
811.109	0.0138241
811.187	0.0139724
811.265	0.0139082
811.343	0.0140712
811.421	0.0138599
811.499	0.0138983
811.578	0.0140397
811.656	0.0139539
811.734	0.0137704
811.812	0.0140338
811.890	0.0139672
811.968	0.0139339
812.046	0.0139000
812.124	0.0140425
812.203	0.0140777
812.281	0.0141721
812.359	0.0142348
812.437	0.0141778
812.515	0.0141023
812.593	0.0141213
812.671	0.0142019
812.749	0.0141377
812.828	0.0142451
812.906	0.0141756
812.984	0.0141711
813.062	0.0142455
813.140	0.0140917
813.218	0.0140540
813.296	0.0139965
813.374	0.0140625
813.453	0.0141560
813.531	0.0140302
813.609	0.0140849
813.687	0.0140840
813.765	0.0139610
813.843	0.0139701
813.921	0.0137196
813.999	0.0140337
814.078	0.0139912
814.156	0.0139366
814.234	0.0138999
814.312	0.0139838
814.390	0.0139591
814.468	0.0139278
814.546	0.0139575
814.624	0.0139719
814.703	0.0140685
814.781	0.0140279
814.859	0.0138598
814.937	0.0139981
815.015	0.0139440
815.093	0.0138340
815.171	0.0139084
815.249	0.0137786
815.328	0.0139111
815.406	0.0138885
815.484	0.0139151
815.562	0.0138770
815.640	0.0138628
815.718	0.0139692
815.796	0.0141635
815.874	0.0138167
815.953	0.0139717
816.031	0.0140867
816.109	0.0139772
816.187	0.0140583
816.265	0.0140327
816.343	0.0142077
816.421	0.0141364
816.499	0.0140907
816.578	0.0140945
816.656	0.0141447
816.734	0.0142020
816.812	0.0142039
816.890	0.0143048
816.968	0.0141016
817.046	0.0142040
817.124	0.0142075
817.203	0.0141868
817.281	0.0143326
817.359	0.0141952
817.437	0.0141289
817.515	0.0139959
817.593	0.0139433
817.671	0.0140450
817.749	0.0140041
817.828	0.0139974
817.906	0.0139270
817.984	0.0140004
818.062	0.0138698
818.140	0.0137724
818.218	0.0138551
818.296	0.0139354
818.374	0.0138902
818.453	0.0137228
818.531	0.0138323
818.609	0.0137521
818.687	0.0139092
818.765	0.0137485
818.843	0.0138931
818.921	0.0138848
818.999	0.0138516
819.078	0.0139060
819.156	0.0138777
819.234	0.0139007
819.312	0.0138364
819.390	0.0140105
819.468	0.0139766
819.546	0.0139453
819.624	0.0140105
819.703	0.0139613
819.781	0.0140868
819.859	0.0140121
819.937	0.0140376
820.015	0.0139703
820.093	0.0141543
820.171	0.0141526
820.249	0.0141587
820.328	0.0142094
820.406	0.0141030
820.484	0.0142084
820.562	0.0142492
820.640	0.0143439
820.718	0.0142388
820.796	0.0142287
820.874	0.0142165
820.953	0.0141870
821.031	0.0142029
821.109	0.0141868
821.187	0.0141309
821.265	0.0140837
821.343	0.0141615
821.421	0.0140759
821.499	0.0140999
821.578	0.0139614
821.656	0.0139696
821.734	0.0140353
821.812	0.0139028
821.890	0.0140436
821.968	0.0139466
822.046	0.0138361
822.124	0.0139850
822.203	0.0138639
822.281	0.0138544
822.359	0.0138611
822.437	0.0136715
822.515	0.0137531
822.593	0.0138783
822.671	0.0137122
822.749	0.0138790
822.828	0.0137337
822.906	0.0136619
822.984	0.0138419
823.062	0.0137194
823.140	0.0138454
823.218	0.0138409
823.296	0.0139362
823.374	0.0139120
823.453	0.0138178
823.531	0.0139292
823.609	0.0140204
823.687	0.0139732
823.765	0.0140829
823.843	0.0141103
823.921	0.0140553
823.999	0.0140099
824.078	0.0141084
824.156	0.0140614
824.234	0.0140443
824.312	0.0141806
824.390	0.0142029
824.468	0.0140530
824.546	0.0139662
824.624	0.0141209
824.703	0.0140042
824.781	0.0142078
824.859	0.0141354
824.937	0.0140699
825.015	0.0142615
825.093	0.0141530
825.171	0.0140993
825.249	0.0140107
825.328	0.0141627
825.406	0.0140444
825.484	0.0141493
825.562	0.0141304
825.640	0.0141468
825.718	0.0142167
825.796	0.0141375
825.874	0.0141885
825.953	0.0140623
826.031	0.0141430
826.109	0.0141577
826.187	0.0140242
826.265	0.0139448
826.343	0.0140381
826.421	0.0139843
826.499	0.0139422
826.578	0.0138691
826.656	0.0138953
826.734	0.0138433
826.812	0.0139561
826.890	0.0138676
826.968	0.0137991
827.046	0.0136996
827.124	0.0136686
827.203	0.0137392
827.281	0.0137380
827.359	0.0137476
827.437	0.0136254
827.515	0.0137463
827.593	0.0137648
827.671	0.0137390
827.749	0.0138387
827.828	0.0138791
827.906	0.0138692
827.984	0.0138563
828.062	0.0139430
828.140	0.0139030
828.218	0.0140550
828.296	0.0139188
828.374	0.0140271
828.453	0.0140074
828.531	0.0140359
828.609	0.0140488
828.687	0.0141017
828.765	0.0141642
828.843	0.0140698
828.921	0.0140440
828.999	0.0140464
829.078	0.0141263
829.156	0.0140869
829.234	0.0139960
829.312	0.0141563
829.390	0.0140600
829.468	0.0139140
829.546	0.0139207
829.624	0.0140266
829.703	0.0139545
829.781	0.0139530
829.859	0.0138867
829.937	0.0139303
830.015	0.0139005
830.093	0.0139662
830.171	0.0139257
830.249	0.0137928
830.328	0.0138240
830.406	0.0137803
830.484	0.0137885
830.562	0.0137865
830.640	0.0138515
830.718	0.0137779
830.796	0.0137510
830.874	0.0137854
830.953	0.0137479
831.031	0.0138280
831.109	0.0137725
831.187	0.0136983
831.265	0.0137840
831.343	0.0137201
831.421	0.0139790
831.499	0.0139854
831.578	0.0139677
831.656	0.0139170
831.734	0.0139968
831.812	0.0139925
831.890	0.0141258
831.968	0.0141129
832.046	0.0140607
832.124	0.0140729
832.203	0.0140864
832.281	0.0141083
832.359	0.0141032
832.437	0.0141882
832.515	0.0141621
832.593	0.0141988
832.671	0.0140613
832.749	0.0140562
832.828	0.0142148
832.906	0.0141689
832.984	0.0140440
833.062	0.0139752
833.140	0.0141878
833.218	0.0141721
833.296	0.0139833
833.374	0.0141052
833.453	0.0140471
833.531	0.0138783
833.609	0.0138618
833.687	0.0137887
833.765	0.0139408
833.843	0.0137362
833.921	0.0138402
833.999	0.0139378
834.078	0.0137790
834.156	0.0135968
834.234	0.0137582
834.312	0.0138030
834.390	0.0138144
834.468	0.0137827
834.546	0.0137717
834.624	0.0137041
834.703	0.0138626
834.781	0.0137875
834.859	0.0137298
834.937	0.0139416
835.015	0.0137289
835.093	0.0137193
835.171	0.0138583
835.249	0.0138853
835.328	0.0138192
835.406	0.0138397
835.484	0.0137615
835.562	0.0137184
835.640	0.0139346
835.718	0.0140028
835.796	0.0139177
835.874	0.0139839
835.953	0.0139275
836.031	0.0139287
836.109	0.0139546
836.187	0.0139513
836.265	0.0141493
836.343	0.0141351
836.421	0.0139233
836.499	0.0139970
836.578	0.0140513
836.656	0.0140446
836.734	0.0139925
836.812	0.0140836
836.890	0.0140101
836.968	0.0139685
837.046	0.0140186
837.124	0.0139989
837.203	0.0139362
837.281	0.0139142
837.359	0.0140549
837.437	0.0140714
837.515	0.0138768
837.593	0.0139031
837.671	0.0138157
837.749	0.0139225
837.828	0.0139483
837.906	0.0138199
837.984	0.0137727
838.062	0.0137837
838.140	0.0137718
838.218	0.0138769
838.296	0.0137593
838.374	0.0137013
838.453	0.0138183
838.531	0.0137753
838.609	0.0137865
838.687	0.0136877
838.765	0.0138302
838.843	0.0139572
838.921	0.0137950
838.999	0.0137221
839.078	0.0139503
839.156	0.0138755
839.234	0.0139428
839.312	0.0138918
839.390	0.0139146
839.468	0.0138584
839.546	0.0138582
839.624	0.0137973
839.703	0.0139674
839.781	0.0139716
839.859	0.0139598
839.937	0.0139854
840.015	0.0139526
840.093	0.0140211
840.171	0.0140865
840.249	0.0139944
840.328	0.0140443
840.406	0.0141149
840.484	0.0141159
840.562	0.0140836
840.640	0.0140669
840.718	0.0139979
840.796	0.0140952
840.874	0.0139368
840.953	0.0140517
841.031	0.0141853
841.109	0.0140703
841.187	0.0140832
841.265	0.0141075
841.343	0.0140259
841.421	0.0140453
841.499	0.0140742
841.578	0.0138380
841.656	0.0139873
841.734	0.0139455
841.812	0.0139310
841.890	0.0138531
841.968	0.0139753
842.046	0.0138006
842.124	0.0137357
842.203	0.0138611
842.281	0.0137604
842.359	0.0138251
842.437	0.0137356
842.515	0.0137944
842.593	0.0138093
842.671	0.0137272
842.749	0.0138689
842.828	0.0138671
842.906	0.0137998
842.984	0.0139526
843.062	0.0138966
843.140	0.0139140
843.218	0.0137270
843.296	0.0139416
843.374	0.0140623
843.453	0.0141206
843.531	0.0140901
843.609	0.0140094
843.687	0.0139552
843.765	0.0140311
843.843	0.0140294
843.921	0.0139091
843.999	0.0141594
844.078	0.0139079
844.156	0.0139234
844.234	0.0140646
844.312	0.0139915
844.390	0.0140875
844.468	0.0138988
844.546	0.0139712
844.624	0.0139593
844.703	0.0139111
844.781	0.0139503
844.859	0.0140074
844.937	0.0139854
845.015	0.0139463
845.093	0.0140420
845.171	0.0138527
845.249	0.0140354
845.328	0.0139540
845.406	0.0141293
845.484	0.0139351
845.562	0.0138856
845.640	0.0139554
845.718	0.0138866
845.796	0.0139199
845.874	0.0138865
845.953	0.0139839
846.031	0.0138427
846.109	0.0138213
846.187	0.0138850
846.265	0.0137794
846.343	0.0137527
846.421	0.0136823
846.499	0.0137897
846.578	0.0136778
846.656	0.0138097
846.734	0.0139059
846.812	0.0137859
846.890	0.0137466
846.968	0.0138338
847.046	0.0137482
847.124	0.0139116
847.203	0.0139008
847.281	0.0139034
847.359	0.0138937
847.437	0.0137482
847.515	0.0139453
847.593	0.0140098
847.671	0.0139526
847.749	0.0140449
847.828	0.0140823
847.906	0.0139363
847.984	0.0140486
848.062	0.0138936
848.140	0.0139023
848.218	0.0140457
848.296	0.0139969
848.374	0.0140146
848.453	0.0140034
848.531	0.0139554
848.609	0.0139352
848.687	0.0139698
848.765	0.0141006
848.843	0.0139861
848.921	0.0139225
848.999	0.0138618
849.078	0.0139069
849.156	0.0139037
849.234	0.0139441
849.312	0.0140052
849.390	0.0139178
849.468	0.0139307
849.546	0.0139205
849.624	0.0139630
849.703	0.0140163
849.781	0.0138977
849.859	0.0139187
849.937	0.0139185
850.015	0.0139358
850.093	0.0138497
850.171	0.0137769
850.249	0.0138298
850.328	0.0138147
850.406	0.0138316
850.484	0.0137277
850.562	0.0138155
850.640	0.0137112
850.718	0.0139039
850.796	0.0138299
850.874	0.0137666
850.953	0.0137558
851.031	0.0137302
851.109	0.0137792
851.187	0.0137994
851.265	0.0138526
851.343	0.0137499
851.421	0.0137897
851.499	0.0139211
851.578	0.0139125
851.656	0.0139945
851.734	0.0139066
851.812	0.0139745
851.890	0.0138280
851.968	0.0140472
852.046	0.0141312
852.124	0.0140769
852.203	0.0139874
852.281	0.0140631
852.359	0.0139040
852.437	0.0138627
852.515	0.0140507
852.593	0.0140227
852.671	0.0141089
852.749	0.0140027
852.828	0.0139342
852.906	0.0139969
852.984	0.0138586
853.062	0.0139614
853.140	0.0141102
853.218	0.0139496
853.296	0.0139063
853.374	0.0137966
853.453	0.0140421
853.531	0.0138744
853.609	0.0138807
853.687	0.0139063
853.765	0.0139293
853.843	0.0139424
853.921	0.0138245
853.999	0.0139005
854.078	0.0138992
854.156	0.0138295
854.234	0.0140038
854.312	0.0140704
854.390	0.0139716
854.468	0.0138970
854.546	0.0140962
854.624	0.0141155
854.703	0.0141609
854.781	0.0140930
854.859	0.0140645
854.937	0.0140983
855.015	0.0141147
855.093	0.0140649
855.171	0.0140491
855.249	0.0140805
855.328	0.0140253
855.406	0.0140177
855.484	0.0138713
855.562	0.0139582
855.640	0.0139111
855.718	0.0138221
855.796	0.0139909
855.874	0.0140275
855.953	0.0139745
856.031	0.0139555
856.109	0.0139811
856.187	0.0139634
856.265	0.0140503
856.343	0.0140066
856.421	0.0139829
856.499	0.0139693
856.578	0.0139898
856.656	0.0139837
856.734	0.0139640
856.812	0.0139916
856.890	0.0137563
856.968	0.0139079
857.046	0.0138966
857.124	0.0138378
857.203	0.0139738
857.281	0.0138544
857.359	0.0138824
857.437	0.0138702
857.515	0.0138769
857.593	0.0139528
857.671	0.0139293
857.749	0.0138848
857.828	0.0137762
857.906	0.0139693
857.984	0.0138708
858.062	0.0139019
858.140	0.0139290
858.218	0.0140270
858.296	0.0140007
858.374	0.0137216
858.453	0.0139252
858.531	0.0140549
858.609	0.0139584
858.687	0.0138641
858.765	0.0139987
858.843	0.0140051
858.921	0.0138848
858.999	0.0139632
859.078	0.0140483
859.156	0.0140702
859.234	0.0139537
859.312	0.0139700
859.390	0.0139397
859.468	0.0138757
859.546	0.0139740
859.624	0.0141309
859.703	0.0138558
859.781	0.0138360
859.859	0.0139100
859.937	0.0139983
860.015	0.0138932
860.093	0.0138985
860.171	0.0138485
860.249	0.0138271
860.328	0.0138224
860.406	0.0138086
860.484	0.0138880
860.562	0.0138768
860.640	0.0139099
860.718	0.0138125
860.796	0.0138841
860.874	0.0139261
860.953	0.0139520
861.031	0.0138634
861.109	0.0138292
861.187	0.0138538
861.265	0.0137015
861.343	0.0139031
861.421	0.0138496
861.499	0.0139662
861.578	0.0138093
861.656	0.0138637
861.734	0.0138718
861.812	0.0137845
861.890	0.0138060
861.968	0.0137571
862.046	0.0138368
862.124	0.0138482
862.203	0.0140339
862.281	0.0139714
862.359	0.0140192
862.437	0.0141541
862.515	0.0140619
862.593	0.0140368
862.671	0.0139443
862.749	0.0138924
862.828	0.0139959
862.906	0.0140055
862.984	0.0139983
863.062	0.0140577
863.140	0.0139571
863.218	0.0138902
863.296	0.0138705
863.374	0.0138259
863.453	0.0140424
863.531	0.0139656
863.609	0.0138355
863.687	0.0139056
863.765	0.0138667
863.843	0.0138462
863.921	0.0137460
863.999	0.0138887
864.078	0.0139046
864.156	0.0138908
864.234	0.0139824
864.312	0.0138555
864.390	0.0138319
864.468	0.0138019
864.546	0.0139356
864.624	0.0138920
864.703	0.0137848
864.781	0.0138956
864.859	0.0138393
864.937	0.0138930
865.015	0.0138528
865.093	0.0138691
865.171	0.0138610
865.249	0.0139298
865.328	0.0138986
865.406	0.0138493
865.484	0.0138082
865.562	0.0138603
865.640	0.0138644
865.718	0.0138489
865.796	0.0139663
865.874	0.0139801
865.953	0.0139552
866.031	0.0137123
866.109	0.0140691
866.187	0.0140889
866.265	0.0139536
866.343	0.0140382
866.421	0.0140508
866.499	0.0139369
866.578	0.0139656
866.656	0.0140089
866.734	0.0139981
866.812	0.0139932
866.890	0.0139658
866.968	0.0141291
867.046	0.0139348
867.124	0.0142071
867.203	0.0140642
867.281	0.0139535
867.359	0.0140249
867.437	0.0139008
867.515	0.0139490
867.593	0.0138513
867.671	0.0139732
867.749	0.0138656
867.828	0.0138248
867.906	0.0138815
867.984	0.0138699
868.062	0.0138919
868.140	0.0138530
868.218	0.0138580
868.296	0.0138058
868.374	0.0139100
868.453	0.0136611
868.531	0.0137994
868.609	0.0137745
868.687	0.0136821
868.765	0.0138152
868.843	0.0137962
868.921	0.0138482
868.999	0.0137767
869.078	0.0137840
869.156	0.0137443
869.234	0.0138305
869.312	0.0139324
869.390	0.0138514
869.468	0.0138319
869.546	0.0139587
869.624	0.0139766
869.703	0.0138966
869.781	0.0140303
869.859	0.0140224
869.937	0.0139320
870.015	0.0140723
870.093	0.0140087
870.171	0.0139525
870.249	0.0140268
870.328	0.0141766
870.406	0.0140656
870.484	0.0139661
870.562	0.0140366
870.640	0.0139401
870.718	0.0140609
870.796	0.0141216
870.874	0.0139368
870.953	0.0138667
871.031	0.0140679
871.109	0.0140442
871.187	0.0139188
871.265	0.0140118
871.343	0.0139543
871.421	0.0140734
871.499	0.0140472
871.578	0.0139880
871.656	0.0140331
871.734	0.0140546
871.812	0.0138860
871.890	0.0138267
871.968	0.0138853
872.046	0.0138870
872.124	0.0140405
872.203	0.0138687
872.281	0.0138738
872.359	0.0137849
872.437	0.0137886
872.515	0.0138488
872.593	0.0137500
872.671	0.0137671
872.749	0.0138807
872.828	0.0139640
872.906	0.0138020
872.984	0.0138102
873.062	0.0137650
873.140	0.0138165
873.218	0.0139172
873.296	0.0139594
873.374	0.0139915
873.453	0.0139060
873.531	0.0138032
873.609	0.0137827
873.687	0.0139661
873.765	0.0140602
873.843	0.0140273
873.921	0.0140284
873.999	0.0139950
874.078	0.0139294
874.156	0.0139158
874.234	0.0140975
874.312	0.0140588
874.390	0.0141869
874.468	0.0140343
874.546	0.0140155
874.624	0.0140479
874.703	0.0141517
874.781	0.0141960
874.859	0.0141486
874.937	0.0141554
875.015	0.0141873
875.093	0.0141618
875.171	0.0140672
875.249	0.0141957
875.328	0.0140002
875.406	0.0139200
875.484	0.0139095
875.562	0.0137802
875.640	0.0138530
875.718	0.0139573
875.796	0.0137761
875.874	0.0137629
875.953	0.0136239
876.031	0.0136578
876.109	0.0138284
876.187	0.0137133
876.265	0.0136964
876.343	0.0137952
876.421	0.0137132
876.499	0.0138470
876.578	0.0138727
876.656	0.0139517
876.734	0.0139278
876.812	0.0138462
876.890	0.0139767
876.968	0.0140543
877.046	0.0139793
877.124	0.0139022
877.203	0.0141201
877.281	0.0140379
877.359	0.0141931
877.437	0.0141191
877.515	0.0140133
877.593	0.0139338
877.671	0.0139353
877.749	0.0140414
877.828	0.0140646
877.906	0.0140822
877.984	0.0140481
878.062	0.0139928
878.140	0.0140067
878.218	0.0142628
878.296	0.0140729
878.374	0.0141149
878.453	0.0142619
878.531	0.0142200
878.609	0.0141734
878.687	0.0141486
878.765	0.0141966
878.843	0.0142624
878.921	0.0142541
878.999	0.0142638
879.078	0.0141353
879.156	0.0140986
879.234	0.0141778
879.312	0.0141317
879.390	0.0139133
879.468	0.0140379
879.546	0.0140078
879.624	0.0139042
879.703	0.0138815
879.781	0.0138618
879.859	0.0138675
879.937	0.0137434
880.015	0.0138009
880.093	0.0137846
880.171	0.0137509
880.249	0.0138176
880.328	0.0138515
880.406	0.0138026
880.484	0.0139737
880.562	0.0140039
880.640	0.0139179
880.718	0.0139571
880.796	0.0140944
880.874	0.0142050
880.953	0.0142771
881.031	0.0141382
881.109	0.0142534
881.187	0.0141054
881.265	0.0140730
881.343	0.0138912
881.421	0.0139170
881.499	0.0140879
881.578	0.0140796
881.656	0.0139874
881.734	0.0140133
881.812	0.0139443
881.890	0.0139897
881.968	0.0138240
882.046	0.0138390
882.124	0.0138670
882.203	0.0138506
882.281	0.0139347
882.359	0.0140742
882.437	0.0138873
882.515	0.0139526
882.593	0.0140171
882.671	0.0140862
882.749	0.0140532
882.828	0.0140540
882.906	0.0140192
882.984	0.0140530
883.062	0.0139401
883.140	0.0139819
883.218	0.0139717
883.296	0.0141051
883.374	0.0140784
883.453	0.0138890
883.531	0.0138606
883.609	0.0138832
883.687	0.0139113
883.765	0.0137833
883.843	0.0138599
883.921	0.0138520
883.999	0.0138730
884.078	0.0138929
884.156	0.0138692
884.234	0.0138180
884.312	0.0138378
884.390	0.0139695
884.468	0.0139104
884.546	0.0139282
884.624	0.0139606
884.703	0.0140466
884.781	0.0141265
884.859	0.0139144
884.937	0.0139951
885.015	0.0142165
885.093	0.0142674
885.171	0.0140913
885.249	0.0141104
885.328	0.0141203
885.406	0.0141017
885.484	0.0139903
885.562	0.0140858
885.640	0.0139076
885.718	0.0140923
885.796	0.0139304
885.874	0.0139622
885.953	0.0139793
886.031	0.0139562
886.109	0.0139613
886.187	0.0139449
886.265	0.0138746
886.343	0.0140462
886.421	0.0141710
886.499	0.0139285
886.578	0.0139339
886.656	0.0139914
886.734	0.0138994
886.812	0.0140257
886.890	0.0139719
886.968	0.0140284
887.046	0.0140300
887.124	0.0139436
887.203	0.0139043
887.281	0.0140017
887.359	0.0139418
887.437	0.0141029
887.515	0.0139494
887.593	0.0140112
887.671	0.0139044
887.749	0.0138965
887.828	0.0140600
887.906	0.0139571
887.984	0.0138011
888.062	0.0138805
888.140	0.0139544
888.218	0.0138444
888.296	0.0138985
888.374	0.0139490
888.453	0.0139944
888.531	0.0138749
888.609	0.0138244
888.687	0.0140362
888.765	0.0138611
888.843	0.0140726
888.921	0.0140369
888.999	0.0139807
889.078	0.0140018
889.156	0.0140034
889.234	0.0140824
889.312	0.0140024
889.390	0.0140109
889.468	0.0141071
889.546	0.0141894
889.624	0.0141565
889.703	0.0141152
889.781	0.0140517
889.859	0.0141470
889.937	0.0141688
890.015	0.0140511
890.093	0.0140102
890.171	0.0140415
890.249	0.0139603
890.328	0.0140452
890.406	0.0138763
890.484	0.0138887
890.562	0.0138802
890.640	0.0139139
890.718	0.0137479
890.796	0.0139005
890.874	0.0138320
890.953	0.0138055
891.031	0.0138343
891.109	0.0138055
891.187	0.0137027
891.265	0.0137836
891.343	0.0137615
891.421	0.0138655
891.499	0.0137881
891.578	0.0138538
891.656	0.0137852
891.734	0.0139758
891.812	0.0138865
891.890	0.0139310
891.968	0.0140008
892.046	0.0139679
892.124	0.0141074
892.203	0.0140909
892.281	0.0140355
892.359	0.0140906
892.437	0.0141188
892.515	0.0141372
892.593	0.0140840
892.671	0.0139743
892.749	0.0141077
892.828	0.0141035
892.906	0.0140636
892.984	0.0140873
893.062	0.0139703
893.140	0.0140605
893.218	0.0140092
893.296	0.0140382
893.374	0.0139977
893.453	0.0138563
893.531	0.0141055
893.609	0.0139481
893.687	0.0139818
893.765	0.0140527
893.843	0.0140577
893.921	0.0139844
893.999	0.0141273
894.078	0.0141019
894.156	0.0141238
894.234	0.0142753
894.312	0.0141888
894.390	0.0140906
894.468	0.0140195
894.546	0.0140230
894.624	0.0140885
894.703	0.0137753
894.781	0.0137975
894.859	0.0139204
894.937	0.0138828
895.015	0.0137445
895.093	0.0135985
895.171	0.0137062
895.249	0.0138524
895.328	0.0136891
895.406	0.0136057
895.484	0.0137350
895.562	0.0138425
895.640	0.0138490
895.718	0.0138477
895.796	0.0142160
895.874	0.0141042
895.953	0.0140961
896.031	0.0142458
896.109	0.0141809
896.187	0.0141938
896.265	0.0142240
896.343	0.0141414
896.421	0.0141499
896.499	0.0142001
896.578	0.0142961
896.656	0.0142700
896.734	0.0141765
896.812	0.0140936
896.890	0.0140602
896.968	0.0141050
897.046	0.0140025
897.124	0.0140054
897.203	0.0140255
897.281	0.0139237
897.359	0.0139333
897.437	0.0139253
897.515	0.0138705
897.593	0.0139905
897.671	0.0139323
897.749	0.0138893
897.828	0.0138258
897.906	0.0137987
897.984	0.0140121
898.062	0.0138936
898.140	0.0138838
898.218	0.0138367
898.296	0.0138979
898.374	0.0139539
898.453	0.0139774
898.531	0.0139452
898.609	0.0141080
898.687	0.0139834
898.765	0.0139020
898.843	0.0140629
898.921	0.0141091
898.999	0.0138447
899.078	0.0139274
899.156	0.0139993
899.234	0.0140131
899.312	0.0139374
899.390	0.0137798
899.468	0.0140095
899.546	0.0140790
899.624	0.0139088
899.703	0.0139012
899.781	0.0138605
899.859	0.0139951
899.937	0.0139014
900.015	0.0139429
900.093	0.0140305
900.171	0.0138713
900.249	0.0138756
900.328	0.0140641
900.406	0.0139745
900.484	0.0138539
900.562	0.0139095
900.640	0.0138897
900.718	0.0139166
900.796	0.0140517
900.874	0.0138805
900.953	0.0139114
901.031	0.0139969
901.109	0.0139536
901.187	0.0141030
901.265	0.0139679
901.343	0.0140424
901.421	0.0141591
901.499	0.0139989
901.578	0.0140942
901.656	0.0139607
901.734	0.0139931
901.812	0.0139455
901.890	0.0140244
901.968	0.0139812
902.046	0.0139329
902.124	0.0138297
902.203	0.0139884
902.281	0.0139967
902.359	0.0140212
902.437	0.0140265
902.515	0.0139940
902.593	0.0140482
902.671	0.0140066
902.749	0.0140015
902.828	0.0141342
902.906	0.0140553
902.984	0.0141039
903.062	0.0139982
903.140	0.0139742
903.218	0.0142327
903.296	0.0141486
903.374	0.0141614
903.453	0.0141885
903.531	0.0140177
903.609	0.0141260
903.687	0.0139810
903.765	0.0138638
903.843	0.0139312
903.921	0.0137681
903.999	0.0138000
904.078	0.0138306
904.156	0.0137842
904.234	0.0137740
904.312	0.0136987
904.390	0.0137010
904.468	0.0138674
904.546	0.0137933
904.624	0.0138139
904.703	0.0138540
904.781	0.0140066
904.859	0.0141176
904.937	0.0138947
905.015	0.0140049
905.093	0.0140856
905.171	0.0140790
905.249	0.0140502
905.328	0.0142239
905.406	0.0140508
905.484	0.0140856
905.562	0.0140758
905.640	0.0139410
905.718	0.0139591
905.796	0.0139818
905.874	0.0140673
905.953	0.0139801
906.031	0.0139843
906.109	0.0139204
906.187	0.0137331
906.265	0.0139510
906.343	0.0139119
906.421	0.0138602
906.499	0.0139136
906.578	0.0139163
906.656	0.0138914
906.734	0.0139063
906.812	0.0139112
906.890	0.0139583
906.968	0.0138251
907.046	0.0141133
907.124	0.0141563
907.203	0.0139221
907.281	0.0139897
907.359	0.0141708
907.437	0.0141215
907.515	0.0141380
907.593	0.0140450
907.671	0.0140240
907.749	0.0141019
907.828	0.0139944
907.906	0.0138885
907.984	0.0140901
908.062	0.0139960
908.140	0.0139339
908.218	0.0138078
908.296	0.0138157
908.374	0.0137933
908.453	0.0139385
908.531	0.0137602
908.609	0.0137968
908.687	0.0138972
908.765	0.0138889
908.843	0.0138663
908.921	0.0138580
908.999	0.0138143
909.078	0.0140745
909.156	0.0140896
909.234	0.0140015
909.312	0.0140161
909.390	0.0140961
909.468	0.0140846
909.546	0.0140717
909.624	0.0140591
909.703	0.0141969
909.781	0.0140960
909.859	0.0140867
909.937	0.0141220
910.015	0.0142134
910.093	0.0140247
910.171	0.0139418
910.249	0.0139322
910.328	0.0139017
910.406	0.0140047
910.484	0.0138647
910.562	0.0139189
910.640	0.0139219
910.718	0.0138488
910.796	0.0138789
910.874	0.0138449
910.953	0.0137195
911.031	0.0138023
911.109	0.0138976
911.187	0.0138493
911.265	0.0140401
911.343	0.0139001
911.421	0.0141798
911.499	0.0139017
911.578	0.0140447
911.656	0.0141721
911.734	0.0140516
911.812	0.0140530
911.890	0.0141740
911.968	0.0140264
912.046	0.0139697
912.124	0.0140326
912.203	0.0141000
912.281	0.0141142
912.359	0.0140269
912.437	0.0138707
912.515	0.0138786
912.593	0.0139144
912.671	0.0139017
912.749	0.0139775
912.828	0.0138921
912.906	0.0138356
912.984	0.0138267
913.062	0.0139591
913.140	0.0139442
913.218	0.0138743
913.296	0.0139822
913.374	0.0139819
913.453	0.0140710
913.531	0.0140026
913.609	0.0141068
913.687	0.0139294
913.765	0.0139716
913.843	0.0139760
913.921	0.0139368
913.999	0.0140508
914.078	0.0140987
914.156	0.0140806
914.234	0.0139449
914.312	0.0140424
914.390	0.0141521
914.468	0.0140091
914.546	0.0139616
914.624	0.0138887
914.703	0.0138416
914.781	0.0139505
914.859	0.0138815
914.937	0.0139805
915.015	0.0139304
915.093	0.0139405
915.171	0.0139166
915.249	0.0139711
915.328	0.0141045
915.406	0.0139973
915.484	0.0139949
915.562	0.0140065
915.640	0.0138045
915.718	0.0141091
915.796	0.0140253
915.874	0.0141074
915.953	0.0140293
916.031	0.0140088
916.109	0.0141316
916.187	0.0140929
916.265	0.0139935
916.343	0.0139293
916.421	0.0140572
916.499	0.0139590
916.578	0.0140444
916.656	0.0137513
916.734	0.0137880
916.812	0.0139098
916.890	0.0139973
916.968	0.0139355
917.046	0.0138660
917.124	0.0139971
917.203	0.0138079
917.281	0.0138937
917.359	0.0138921
917.437	0.0139426
917.515	0.0139556
917.593	0.0139761
917.671	0.0140883
917.749	0.0140416
917.828	0.0139214
917.906	0.0139420
917.984	0.0139897
918.062	0.0139835
918.140	0.0139626
918.218	0.0141177
918.296	0.0141051
918.374	0.0140714
918.453	0.0140543
918.531	0.0139500
918.609	0.0139980
918.687	0.0139749
918.765	0.0140852
918.843	0.0140133
918.921	0.0140942
918.999	0.0140420
919.078	0.0141164
919.156	0.0137936
919.234	0.0139836
919.312	0.0140591
919.390	0.0138397
919.468	0.0139924
919.546	0.0140258
919.624	0.0140456
919.703	0.0141100
919.781	0.0140211
919.859	0.0137706
919.937	0.0139523
