05/06/2022	18:51:44	Ver.	4.1	UNKNOWN
Optical Delay	600.015094	Delta X		0.078125	Sweeps	1	Scan Rate	0/0
Coordinates	Axis 1	NaN	Axis 2	NaN	Axis 3	NaN	Axis 4	NaN	Axis 5	NaN	Axis 6	0.000000
TX Power	0.000000	RX Power	0.000000

600.015	0.0138249
600.093	0.0137884
600.171	0.0138897
600.249	0.0138359
600.328	0.0137761
600.406	0.0137901
600.484	0.0139857
600.562	0.0137800
600.640	0.0138254
600.718	0.0137839
600.796	0.0137729
600.874	0.0137653
600.953	0.0139180
601.031	0.0139112
601.109	0.0137857
601.187	0.0137943
601.265	0.0136494
601.343	0.0137500
601.421	0.0137985
601.499	0.0138425
601.578	0.0139098
601.656	0.0137423
601.734	0.0138350
601.812	0.0138715
601.890	0.0137473
601.968	0.0138445
602.046	0.0138458
602.124	0.0138500
602.203	0.0137584
602.281	0.0139072
602.359	0.0137922
602.437	0.0138837
602.515	0.0139705
602.593	0.0138142
602.671	0.0138029
602.749	0.0138289
602.828	0.0138318
602.906	0.0138914
602.984	0.0137865
603.062	0.0137853
603.140	0.0137746
603.218	0.0139278
603.296	0.0138238
603.374	0.0138884
603.453	0.0137281
603.531	0.0138020
603.609	0.0139128
603.687	0.0137694
603.765	0.0138500
603.843	0.0139132
603.921	0.0136398
603.999	0.0138305
604.078	0.0138143
604.156	0.0138365
604.234	0.0138442
604.312	0.0137949
604.390	0.0138718
604.468	0.0138386
604.546	0.0139490
604.624	0.0137894
604.703	0.0138708
604.781	0.0138635
604.859	0.0137526
604.937	0.0137525
605.015	0.0138586
605.093	0.0137946
605.171	0.0138124
605.249	0.0139050
605.328	0.0137521
605.406	0.0138543
605.484	0.0139856
605.562	0.0137464
605.640	0.0138850
605.718	0.0138134
605.796	0.0137148
605.874	0.0137931
605.953	0.0138379
606.031	0.0138113
606.109	0.0138136
606.187	0.0138760
606.265	0.0138280
606.343	0.0137923
606.421	0.0137897
606.499	0.0139234
606.578	0.0138375
606.656	0.0137054
606.734	0.0137886
606.812	0.0138843
606.890	0.0138479
606.968	0.0139314
607.046	0.0138071
607.124	0.0138168
607.203	0.0138724
607.281	0.0138731
607.359	0.0137894
607.437	0.0137545
607.515	0.0137949
607.593	0.0138415
607.671	0.0138403
607.749	0.0137968
607.828	0.0138699
607.906	0.0138945
607.984	0.0139417
608.062	0.0137444
608.140	0.0137178
608.218	0.0137708
608.296	0.0138712
608.374	0.0137992
608.453	0.0137543
608.531	0.0138924
608.609	0.0138017
608.687	0.0138300
608.765	0.0138704
608.843	0.0138222
608.921	0.0136755
608.999	0.0138332
609.078	0.0136301
609.156	0.0139157
609.234	0.0138691
609.312	0.0139415
609.390	0.0137344
609.468	0.0138728
609.546	0.0137994
609.624	0.0138309
609.703	0.0138482
609.781	0.0137222
609.859	0.0137352
609.937	0.0138221
610.015	0.0139146
610.093	0.0138508
610.171	0.0138342
610.249	0.0138671
610.328	0.0139075
610.406	0.0138134
610.484	0.0136982
610.562	0.0136507
610.640	0.0139130
610.718	0.0138473
610.796	0.0137703
610.874	0.0138783
610.953	0.0138145
611.031	0.0137906
611.109	0.0138210
611.187	0.0137537
611.265	0.0137357
611.343	0.0137643
611.421	0.0138117
611.499	0.0139080
611.578	0.0138978
611.656	0.0137449
611.734	0.0138120
611.812	0.0137336
611.890	0.0138225
611.968	0.0137622
612.046	0.0137184
612.124	0.0138492
612.203	0.0137921
612.281	0.0137933
612.359	0.0138027
612.437	0.0139227
612.515	0.0139152
612.593	0.0138061
612.671	0.0138868
612.749	0.0139208
612.828	0.0138071
612.906	0.0138471
612.984	0.0137659
613.062	0.0137923
613.140	0.0138954
613.218	0.0138168
613.296	0.0138703
613.374	0.0137414
613.453	0.0137714
613.531	0.0138843
613.609	0.0137727
613.687	0.0139021
613.765	0.0137895
613.843	0.0138141
613.921	0.0137640
613.999	0.0139151
614.078	0.0137589
614.156	0.0137775
614.234	0.0138663
614.312	0.0137852
614.390	0.0138351
614.468	0.0137601
614.546	0.0138918
614.624	0.0137939
614.703	0.0138364
614.781	0.0138043
614.859	0.0137750
614.937	0.0137523
615.015	0.0136985
615.093	0.0138010
615.171	0.0136514
615.249	0.0138438
615.328	0.0137811
615.406	0.0137154
615.484	0.0139176
615.562	0.0138950
615.640	0.0136512
615.718	0.0137569
615.796	0.0137690
615.874	0.0138598
615.953	0.0139339
616.031	0.0139606
616.109	0.0138744
616.187	0.0137948
616.265	0.0136227
616.343	0.0138507
616.421	0.0138268
616.499	0.0138837
616.578	0.0139009
616.656	0.0139348
616.734	0.0138685
616.812	0.0138727
616.890	0.0137997
616.968	0.0139303
617.046	0.0138494
617.124	0.0137670
617.203	0.0137884
617.281	0.0139194
617.359	0.0137518
617.437	0.0139044
617.515	0.0139497
617.593	0.0139027
617.671	0.0137434
617.749	0.0139001
617.828	0.0138146
617.906	0.0138309
617.984	0.0137073
618.062	0.0137231
618.140	0.0136550
618.218	0.0137363
618.296	0.0138882
618.374	0.0138400
618.453	0.0136868
618.531	0.0137315
618.609	0.0138882
618.687	0.0138394
618.765	0.0137879
618.843	0.0136947
618.921	0.0137944
618.999	0.0137606
619.078	0.0137232
619.156	0.0137202
619.234	0.0138013
619.312	0.0137555
619.390	0.0137692
619.468	0.0137971
619.546	0.0138073
619.624	0.0138348
619.703	0.0138235
619.781	0.0137811
619.859	0.0139256
619.937	0.0137765
620.015	0.0138470
620.093	0.0138092
620.171	0.0137769
620.249	0.0138110
620.328	0.0138828
620.406	0.0139399
620.484	0.0137979
620.562	0.0138519
620.640	0.0137876
620.718	0.0138633
620.796	0.0138256
620.874	0.0137259
620.953	0.0138645
621.031	0.0139359
621.109	0.0138710
621.187	0.0139331
621.265	0.0138056
621.343	0.0137971
621.421	0.0137407
621.499	0.0137932
621.578	0.0138478
621.656	0.0139093
621.734	0.0139314
621.812	0.0137366
621.890	0.0138976
621.968	0.0139380
622.046	0.0138612
622.124	0.0137073
622.203	0.0137803
622.281	0.0138292
622.359	0.0138755
622.437	0.0139116
622.515	0.0138249
622.593	0.0138882
622.671	0.0138891
622.749	0.0139133
622.828	0.0139455
622.906	0.0140262
622.984	0.0138100
623.062	0.0136668
623.140	0.0137544
623.218	0.0138593
623.296	0.0138200
623.374	0.0137418
623.453	0.0138306
623.531	0.0137714
623.609	0.0137706
623.687	0.0138845
623.765	0.0138227
623.843	0.0137780
623.921	0.0137687
623.999	0.0137060
624.078	0.0138605
624.156	0.0138840
624.234	0.0138285
624.312	0.0137914
624.390	0.0137966
624.468	0.0138978
624.546	0.0138064
624.624	0.0138188
624.703	0.0138386
624.781	0.0137915
624.859	0.0138802
624.937	0.0140123
625.015	0.0137730
625.093	0.0139022
625.171	0.0138417
625.249	0.0138414
625.328	0.0137735
625.406	0.0137386
625.484	0.0138754
625.562	0.0138292
625.640	0.0137973
625.718	0.0139029
625.796	0.0138371
625.874	0.0139900
625.953	0.0137970
626.031	0.0138493
626.109	0.0138438
626.187	0.0138149
626.265	0.0138210
626.343	0.0139757
626.421	0.0139282
626.499	0.0137608
626.578	0.0138922
626.656	0.0139616
626.734	0.0138752
626.812	0.0136985
626.890	0.0139075
626.968	0.0138689
627.046	0.0137309
627.124	0.0139045
627.203	0.0138630
627.281	0.0138962
627.359	0.0137876
627.437	0.0137425
627.515	0.0137872
627.593	0.0137006
627.671	0.0138258
627.749	0.0139440
627.828	0.0139246
627.906	0.0137045
627.984	0.0139072
628.062	0.0138882
628.140	0.0138782
628.218	0.0137101
628.296	0.0137716
628.374	0.0136927
628.453	0.0138556
628.531	0.0138116
628.609	0.0137527
628.687	0.0136279
628.765	0.0137798
628.843	0.0138113
628.921	0.0138003
628.999	0.0135998
629.078	0.0138338
629.156	0.0137026
629.234	0.0137846
629.312	0.0137976
629.390	0.0137838
629.468	0.0138193
629.546	0.0138000
629.624	0.0136356
629.703	0.0137763
629.781	0.0138539
629.859	0.0137318
629.937	0.0136631
630.015	0.0137967
630.093	0.0137787
630.171	0.0137816
630.249	0.0136553
630.328	0.0138105
630.406	0.0137280
630.484	0.0137509
630.562	0.0139657
630.640	0.0137202
630.718	0.0137422
630.796	0.0137514
630.874	0.0139644
630.953	0.0138775
631.031	0.0136203
631.109	0.0137693
631.187	0.0138824
631.265	0.0137562
631.343	0.0137979
631.421	0.0139127
631.499	0.0137965
631.578	0.0137046
631.656	0.0137445
631.734	0.0138654
631.812	0.0138998
631.890	0.0137617
631.968	0.0136613
632.046	0.0138180
632.124	0.0137754
632.203	0.0138606
632.281	0.0138151
632.359	0.0137325
632.437	0.0138163
632.515	0.0138916
632.593	0.0137611
632.671	0.0138088
632.749	0.0137712
632.828	0.0137386
632.906	0.0137575
632.984	0.0138568
633.062	0.0138775
633.140	0.0137721
633.218	0.0137812
633.296	0.0138326
633.374	0.0137376
633.453	0.0138580
633.531	0.0139475
633.609	0.0137707
633.687	0.0137229
633.765	0.0139000
633.843	0.0137782
633.921	0.0138515
633.999	0.0139320
634.078	0.0137651
634.156	0.0138489
634.234	0.0138496
634.312	0.0139485
634.390	0.0137740
634.468	0.0139042
634.546	0.0139352
634.624	0.0139639
634.703	0.0138093
634.781	0.0136502
634.859	0.0138010
634.937	0.0138831
635.015	0.0137639
635.093	0.0138434
635.171	0.0138392
635.249	0.0139748
635.328	0.0138491
635.406	0.0137663
635.484	0.0140155
635.562	0.0138244
635.640	0.0137726
635.718	0.0139305
635.796	0.0138380
635.874	0.0138306
635.953	0.0138805
636.031	0.0138442
636.109	0.0137022
636.187	0.0138099
636.265	0.0138544
636.343	0.0139626
636.421	0.0138448
636.499	0.0138786
636.578	0.0137930
636.656	0.0138110
636.734	0.0138134
636.812	0.0138831
636.890	0.0138190
636.968	0.0137179
637.046	0.0137211
637.124	0.0137144
637.203	0.0137466
637.281	0.0138858
637.359	0.0138850
637.437	0.0137373
637.515	0.0137765
637.593	0.0138327
637.671	0.0138740
637.749	0.0138157
637.828	0.0137066
637.906	0.0137558
637.984	0.0138797
638.062	0.0140096
638.140	0.0138853
638.218	0.0137566
638.296	0.0138297
638.374	0.0136793
638.453	0.0137154
638.531	0.0138794
638.609	0.0137691
638.687	0.0137643
638.765	0.0138037
638.843	0.0138181
638.921	0.0137852
638.999	0.0139004
639.078	0.0137759
639.156	0.0138053
639.234	0.0138183
639.312	0.0139067
639.390	0.0138319
639.468	0.0137391
639.546	0.0137372
639.624	0.0137762
639.703	0.0138583
639.781	0.0137741
639.859	0.0138634
639.937	0.0138865
640.015	0.0137695
640.093	0.0137860
640.171	0.0138428
640.249	0.0138383
640.328	0.0138697
640.406	0.0138287
640.484	0.0137429
640.562	0.0138516
640.640	0.0138382
640.718	0.0138146
640.796	0.0138492
640.874	0.0138568
640.953	0.0137267
641.031	0.0137751
641.109	0.0137521
641.187	0.0137743
641.265	0.0138349
641.343	0.0138422
641.421	0.0139082
641.499	0.0138975
641.578	0.0137547
641.656	0.0138376
641.734	0.0137917
641.812	0.0138673
641.890	0.0137083
641.968	0.0138530
642.046	0.0138252
642.124	0.0138377
642.203	0.0137771
642.281	0.0137528
642.359	0.0137589
642.437	0.0139185
642.515	0.0138094
642.593	0.0139143
642.671	0.0137769
642.749	0.0138361
642.828	0.0136314
642.906	0.0137773
642.984	0.0139276
643.062	0.0138421
643.140	0.0137312
643.218	0.0137886
643.296	0.0138972
643.374	0.0138011
643.453	0.0137553
643.531	0.0137601
643.609	0.0139931
643.687	0.0137817
643.765	0.0136721
643.843	0.0137483
643.921	0.0138681
643.999	0.0138432
644.078	0.0136940
644.156	0.0137829
644.234	0.0138764
644.312	0.0137841
644.390	0.0136961
644.468	0.0137817
644.546	0.0137760
644.624	0.0138590
644.703	0.0139100
644.781	0.0138490
644.859	0.0137592
644.937	0.0139191
645.015	0.0137796
645.093	0.0137126
645.171	0.0137236
645.249	0.0138632
645.328	0.0137928
645.406	0.0138020
645.484	0.0138834
645.562	0.0137895
645.640	0.0137886
645.718	0.0138493
645.796	0.0138722
645.874	0.0137982
645.953	0.0138090
646.031	0.0138251
646.109	0.0136961
646.187	0.0138926
646.265	0.0139081
646.343	0.0138197
646.421	0.0137212
646.499	0.0138482
646.578	0.0138908
646.656	0.0137520
646.734	0.0138859
646.812	0.0139342
646.890	0.0138127
646.968	0.0138190
647.046	0.0138326
647.124	0.0139207
647.203	0.0137899
647.281	0.0137166
647.359	0.0139520
647.437	0.0138031
647.515	0.0137955
647.593	0.0138293
647.671	0.0138464
647.749	0.0138511
647.828	0.0138931
647.906	0.0137504
647.984	0.0138519
648.062	0.0138481
648.140	0.0138352
648.218	0.0139368
648.296	0.0137527
648.374	0.0137793
648.453	0.0137194
648.531	0.0138358
648.609	0.0138658
648.687	0.0137547
648.765	0.0138550
648.843	0.0138432
648.921	0.0137592
648.999	0.0137461
649.078	0.0138943
649.156	0.0138978
649.234	0.0137428
649.312	0.0138886
649.390	0.0139067
649.468	0.0137978
649.546	0.0136897
649.624	0.0137778
649.703	0.0138449
649.781	0.0137769
649.859	0.0136937
649.937	0.0138019
650.015	0.0139812
650.093	0.0138934
650.171	0.0137879
650.249	0.0138975
650.328	0.0138529
650.406	0.0137731
650.484	0.0137340
650.562	0.0138239
650.640	0.0137798
650.718	0.0139069
650.796	0.0138697
650.874	0.0138277
650.953	0.0138145
651.031	0.0137134
651.109	0.0138065
651.187	0.0138470
651.265	0.0138512
651.343	0.0139486
651.421	0.0138165
651.499	0.0138036
651.578	0.0137973
651.656	0.0137805
651.734	0.0137159
651.812	0.0138850
651.890	0.0138201
651.968	0.0138674
652.046	0.0137540
652.124	0.0139211
652.203	0.0138385
652.281	0.0137743
652.359	0.0137698
652.437	0.0138795
652.515	0.0139104
652.593	0.0136863
652.671	0.0138354
652.749	0.0138215
652.828	0.0138926
652.906	0.0138835
652.984	0.0138366
653.062	0.0138323
653.140	0.0137800
653.218	0.0138229
653.296	0.0138160
653.374	0.0138114
653.453	0.0138227
653.531	0.0137778
653.609	0.0137599
653.687	0.0137301
653.765	0.0137570
653.843	0.0138795
653.921	0.0137592
653.999	0.0137576
654.078	0.0137462
654.156	0.0138036
654.234	0.0138654
654.312	0.0139172
654.390	0.0138662
654.468	0.0137957
654.546	0.0138528
654.624	0.0138463
654.703	0.0137893
654.781	0.0137849
654.859	0.0138354
654.937	0.0138587
655.015	0.0137790
655.093	0.0136921
655.171	0.0137843
655.249	0.0138183
655.328	0.0137128
655.406	0.0137637
655.484	0.0138727
655.562	0.0136871
655.640	0.0138076
655.718	0.0138589
655.796	0.0137979
655.874	0.0136649
655.953	0.0137898
656.031	0.0138332
656.109	0.0136433
656.187	0.0138528
656.265	0.0138948
656.343	0.0137708
656.421	0.0137778
656.499	0.0137776
656.578	0.0138417
656.656	0.0137491
656.734	0.0139146
656.812	0.0138115
656.890	0.0138161
656.968	0.0137346
657.046	0.0136219
657.124	0.0138359
657.203	0.0137348
657.281	0.0138772
657.359	0.0138314
657.437	0.0137621
657.515	0.0137442
657.593	0.0138434
657.671	0.0137590
657.749	0.0138749
657.828	0.0135471
657.906	0.0137101
657.984	0.0137915
658.062	0.0135749
658.140	0.0136650
658.218	0.0137878
658.296	0.0137166
658.374	0.0138580
658.453	0.0137473
658.531	0.0138342
658.609	0.0138359
658.687	0.0137691
658.765	0.0136697
658.843	0.0137539
658.921	0.0137705
658.999	0.0138263
659.078	0.0138857
659.156	0.0139107
659.234	0.0138734
659.312	0.0138063
659.390	0.0138316
659.468	0.0138777
659.546	0.0138514
659.624	0.0137447
659.703	0.0138210
659.781	0.0138000
659.859	0.0138849
659.937	0.0137868
660.015	0.0137276
660.093	0.0137499
660.171	0.0137436
660.249	0.0138110
660.328	0.0138464
660.406	0.0137720
660.484	0.0137261
660.562	0.0138026
660.640	0.0138087
660.718	0.0137046
660.796	0.0138419
660.874	0.0138723
660.953	0.0137566
661.031	0.0137775
661.109	0.0137201
661.187	0.0137106
661.265	0.0137331
661.343	0.0140060
661.421	0.0138683
661.499	0.0136447
661.578	0.0137873
661.656	0.0138650
661.734	0.0138693
661.812	0.0137772
661.890	0.0138400
661.968	0.0138245
662.046	0.0137347
662.124	0.0136147
662.203	0.0138084
662.281	0.0137634
662.359	0.0138486
662.437	0.0138086
662.515	0.0138676
662.593	0.0137094
662.671	0.0138614
662.749	0.0137673
662.828	0.0137017
662.906	0.0137674
662.984	0.0138882
663.062	0.0136706
663.140	0.0137328
663.218	0.0138496
663.296	0.0137969
663.374	0.0137000
663.453	0.0138036
663.531	0.0137670
663.609	0.0137486
663.687	0.0137733
663.765	0.0137420
663.843	0.0137775
663.921	0.0137278
663.999	0.0138983
664.078	0.0138663
664.156	0.0137751
664.234	0.0138047
664.312	0.0137247
664.390	0.0138644
664.468	0.0138095
664.546	0.0138268
664.624	0.0138078
664.703	0.0137691
664.781	0.0136304
664.859	0.0137598
664.937	0.0138451
665.015	0.0137949
665.093	0.0138348
665.171	0.0139862
665.249	0.0137614
665.328	0.0138042
665.406	0.0137434
665.484	0.0137847
665.562	0.0139459
665.640	0.0139074
665.718	0.0137737
665.796	0.0138745
665.874	0.0138422
665.953	0.0138789
666.031	0.0138654
666.109	0.0139268
666.187	0.0138022
666.265	0.0138067
666.343	0.0136100
666.421	0.0137315
666.499	0.0137556
666.578	0.0137145
666.656	0.0138102
666.734	0.0137066
666.812	0.0136740
666.890	0.0138640
666.968	0.0137576
667.046	0.0137856
667.124	0.0137719
667.203	0.0137036
667.281	0.0139477
667.359	0.0137985
667.437	0.0139938
667.515	0.0137529
667.593	0.0137907
667.671	0.0136661
667.749	0.0137327
667.828	0.0137514
667.906	0.0139002
667.984	0.0137300
668.062	0.0137933
668.140	0.0140387
668.218	0.0137571
668.296	0.0138113
668.374	0.0138461
668.453	0.0137581
668.531	0.0137703
668.609	0.0138026
668.687	0.0136636
668.765	0.0136806
668.843	0.0137485
668.921	0.0137704
668.999	0.0137769
669.078	0.0137971
669.156	0.0138291
669.234	0.0138558
669.312	0.0137428
669.390	0.0137549
669.468	0.0138526
669.546	0.0137801
669.624	0.0138574
669.703	0.0138678
669.781	0.0138745
669.859	0.0138505
669.937	0.0139507
670.015	0.0139198
670.093	0.0140090
670.171	0.0139731
670.249	0.0139565
670.328	0.0138203
670.406	0.0137985
670.484	0.0139866
670.562	0.0136867
670.640	0.0137410
670.718	0.0137140
670.796	0.0135744
670.874	0.0135246
670.953	0.0135425
671.031	0.0135676
671.109	0.0136650
671.187	0.0135270
671.265	0.0137365
671.343	0.0138024
671.421	0.0138406
671.499	0.0138593
671.578	0.0139744
671.656	0.0140726
671.734	0.0140340
671.812	0.0140475
671.890	0.0139637
671.968	0.0139532
672.046	0.0139578
672.124	0.0140384
672.203	0.0137679
672.281	0.0137803
672.359	0.0137813
672.437	0.0137729
672.515	0.0136033
672.593	0.0136271
672.671	0.0135126
672.749	0.0134533
672.828	0.0134912
672.906	0.0136836
672.984	0.0136980
673.062	0.0136958
673.140	0.0136958
673.218	0.0137634
673.296	0.0139948
673.374	0.0141349
673.453	0.0140721
673.531	0.0140235
673.609	0.0140416
673.687	0.0138599
673.765	0.0139456
673.843	0.0138788
673.921	0.0137650
673.999	0.0137301
674.078	0.0137718
674.156	0.0136364
674.234	0.0136711
674.312	0.0136825
674.390	0.0137405
674.468	0.0137298
674.546	0.0134170
674.624	0.0136525
674.703	0.0138201
674.781	0.0136853
674.859	0.0136723
674.937	0.0138587
675.015	0.0139500
675.093	0.0139846
675.171	0.0139885
675.249	0.0141202
675.328	0.0140482
675.406	0.0141591
675.484	0.0142761
675.562	0.0142461
675.640	0.0140548
675.718	0.0141595
675.796	0.0141292
675.874	0.0140976
675.953	0.0140372
676.031	0.0138673
676.109	0.0137988
676.187	0.0136521
676.265	0.0136514
676.343	0.0134218
676.421	0.0135620
676.499	0.0133728
676.578	0.0135065
676.656	0.0133679
676.734	0.0134084
676.812	0.0133940
676.890	0.0134164
676.968	0.0133304
677.046	0.0133788
677.124	0.0135940
677.203	0.0136217
677.281	0.0136278
677.359	0.0139168
677.437	0.0138641
677.515	0.0139471
677.593	0.0140814
677.671	0.0140112
677.749	0.0141487
677.828	0.0140787
677.906	0.0140320
677.984	0.0140793
678.062	0.0141412
678.140	0.0141127
678.218	0.0140811
678.296	0.0138758
678.374	0.0138531
678.453	0.0138788
678.531	0.0137711
678.609	0.0137900
678.687	0.0137163
678.765	0.0136190
678.843	0.0137653
678.921	0.0136848
678.999	0.0137495
679.078	0.0137531
679.156	0.0138746
679.234	0.0138867
679.312	0.0139479
679.390	0.0140723
679.468	0.0139978
679.546	0.0142493
679.624	0.0141106
679.703	0.0141059
679.781	0.0140540
679.859	0.0139577
679.937	0.0139821
680.015	0.0138550
680.093	0.0137492
680.171	0.0136807
680.249	0.0136251
680.328	0.0135379
680.406	0.0135738
680.484	0.0134074
680.562	0.0134012
680.640	0.0133423
680.718	0.0133388
680.796	0.0133489
680.874	0.0134720
680.953	0.0134319
681.031	0.0135618
681.109	0.0135487
681.187	0.0135258
681.265	0.0136723
681.343	0.0139008
681.421	0.0138737
681.499	0.0138023
681.578	0.0139232
681.656	0.0139803
681.734	0.0140415
681.812	0.0141253
681.890	0.0140588
681.968	0.0140851
682.046	0.0140559
682.124	0.0140936
682.203	0.0140692
682.281	0.0140442
682.359	0.0140407
682.437	0.0141595
682.515	0.0141891
682.593	0.0139597
682.671	0.0138679
682.749	0.0138599
682.828	0.0140429
682.906	0.0140073
682.984	0.0138239
683.062	0.0137331
683.140	0.0138783
683.218	0.0139478
683.296	0.0140363
683.374	0.0141272
683.453	0.0142018
683.531	0.0141012
683.609	0.0141485
683.687	0.0142385
683.765	0.0142266
683.843	0.0140498
683.921	0.0141522
683.999	0.0140966
684.078	0.0139951
684.156	0.0139307
684.234	0.0139227
684.312	0.0138054
684.390	0.0137843
684.468	0.0137392
684.546	0.0138581
684.624	0.0137177
684.703	0.0136827
684.781	0.0136668
684.859	0.0135577
684.937	0.0134763
685.015	0.0134595
685.093	0.0134030
685.171	0.0132559
685.249	0.0130492
685.328	0.0128939
685.406	0.0129107
685.484	0.0128096
685.562	0.0127747
685.640	0.0126334
685.718	0.0126307
685.796	0.0128030
685.874	0.0128338
685.953	0.0128923
686.031	0.0131241
686.109	0.0133920
686.187	0.0135465
686.265	0.0137959
686.343	0.0139590
686.421	0.0142304
686.499	0.0145935
686.578	0.0147401
686.656	0.0151186
686.734	0.0153547
686.812	0.0154402
686.890	0.0154005
686.968	0.0154591
687.046	0.0155383
687.124	0.0153300
687.203	0.0152517
687.281	0.0150988
687.359	0.0149326
687.437	0.0145490
687.515	0.0145403
687.593	0.0140936
687.671	0.0138153
687.749	0.0136530
687.828	0.0136103
687.906	0.0133782
687.984	0.0132543
688.062	0.0134158
688.140	0.0133954
688.218	0.0134464
688.296	0.0135014
688.374	0.0134061
688.453	0.0134968
688.531	0.0135315
688.609	0.0134599
688.687	0.0135326
688.765	0.0135352
688.843	0.0134069
688.921	0.0135479
688.999	0.0135113
689.078	0.0133790
689.156	0.0132737
689.234	0.0132527
689.312	0.0132347
689.390	0.0132253
689.468	0.0129636
689.546	0.0129786
689.624	0.0128999
689.703	0.0129282
689.781	0.0129363
689.859	0.0127756
689.937	0.0127625
690.015	0.0127835
690.093	0.0128104
690.171	0.0126822
690.249	0.0127239
690.328	0.0128520
690.406	0.0130494
690.484	0.0131059
690.562	0.0132285
690.640	0.0134641
690.718	0.0136446
690.796	0.0140473
690.874	0.0142984
690.953	0.0144321
691.031	0.0146581
691.109	0.0150619
691.187	0.0153371
691.265	0.0152931
691.343	0.0155056
691.421	0.0158352
691.499	0.0156618
691.578	0.0157228
691.656	0.0156770
691.734	0.0156730
691.812	0.0156190
691.890	0.0152538
691.968	0.0151695
692.046	0.0148573
692.124	0.0144747
692.203	0.0142568
692.281	0.0141875
692.359	0.0137979
692.437	0.0136921
692.515	0.0134917
692.593	0.0132133
692.671	0.0132249
692.749	0.0132604
692.828	0.0132819
692.906	0.0132876
692.984	0.0133279
693.062	0.0134174
693.140	0.0134468
693.218	0.0133384
693.296	0.0133408
693.374	0.0133834
693.453	0.0133002
693.531	0.0130771
693.609	0.0129943
693.687	0.0128431
693.765	0.0126977
693.843	0.0128604
693.921	0.0125132
693.999	0.0124524
694.078	0.0123526
694.156	0.0122862
694.234	0.0123003
694.312	0.0123518
694.390	0.0122599
694.468	0.0121574
694.546	0.0122878
694.624	0.0122960
694.703	0.0123804
694.781	0.0124643
694.859	0.0125604
694.937	0.0127856
695.015	0.0129048
695.093	0.0132364
695.171	0.0135068
695.249	0.0138740
695.328	0.0140903
695.406	0.0145663
695.484	0.0148332
695.562	0.0151924
695.640	0.0156112
695.718	0.0159097
695.796	0.0161182
695.874	0.0164006
695.953	0.0165316
696.031	0.0165718
696.109	0.0166928
696.187	0.0166632
696.265	0.0166245
696.343	0.0164793
696.421	0.0162127
696.499	0.0158585
696.578	0.0157291
696.656	0.0152328
696.734	0.0150697
696.812	0.0144903
696.890	0.0141479
696.968	0.0138988
697.046	0.0136337
697.124	0.0132567
697.203	0.0130074
697.281	0.0128112
697.359	0.0126633
697.437	0.0124493
697.515	0.0124583
697.593	0.0126254
697.671	0.0124978
697.749	0.0125310
697.828	0.0124434
697.906	0.0124129
697.984	0.0124559
698.062	0.0126308
698.140	0.0124930
698.218	0.0124710
698.296	0.0124639
698.374	0.0126041
698.453	0.0123829
698.531	0.0124410
698.609	0.0124177
698.687	0.0125549
698.765	0.0126670
698.843	0.0127301
698.921	0.0126038
698.999	0.0125856
699.078	0.0126279
699.156	0.0126931
699.234	0.0128194
699.312	0.0128170
699.390	0.0128418
699.468	0.0128790
699.546	0.0129723
699.624	0.0131037
699.703	0.0132281
699.781	0.0134383
699.859	0.0138094
699.937	0.0139816
700.015	0.0142661
700.093	0.0145591
700.171	0.0149387
700.249	0.0151998
700.328	0.0155469
700.406	0.0158466
700.484	0.0161304
700.562	0.0164655
700.640	0.0166984
700.718	0.0165530
700.796	0.0166778
700.874	0.0167445
700.953	0.0167065
701.031	0.0166242
701.109	0.0164140
701.187	0.0161926
701.265	0.0158024
701.343	0.0155208
701.421	0.0150345
701.499	0.0147466
701.578	0.0142643
701.656	0.0137887
701.734	0.0135696
701.812	0.0131014
701.890	0.0128101
701.968	0.0125533
702.046	0.0123684
702.124	0.0121632
702.203	0.0120627
702.281	0.0120650
702.359	0.0121873
702.437	0.0122724
702.515	0.0123796
702.593	0.0124973
702.671	0.0125541
702.749	0.0125551
702.828	0.0127348
702.906	0.0127069
702.984	0.0127934
703.062	0.0127144
703.140	0.0126765
703.218	0.0128391
703.296	0.0126469
703.374	0.0126736
703.453	0.0127958
703.531	0.0127514
703.609	0.0128714
703.687	0.0128455
703.765	0.0130181
703.843	0.0130869
703.921	0.0131632
703.999	0.0132062
704.078	0.0133909
704.156	0.0134705
704.234	0.0134919
704.312	0.0134718
704.390	0.0136501
704.468	0.0137653
704.546	0.0138686
704.624	0.0140227
704.703	0.0141500
704.781	0.0144358
704.859	0.0145744
704.937	0.0147016
705.015	0.0150040
705.093	0.0152863
705.171	0.0155124
705.249	0.0157305
705.328	0.0158054
705.406	0.0160287
705.484	0.0161899
705.562	0.0161603
705.640	0.0163933
705.718	0.0162455
705.796	0.0162571
705.874	0.0160277
705.953	0.0156354
706.031	0.0154401
706.109	0.0152891
706.187	0.0148709
706.265	0.0144582
706.343	0.0142458
706.421	0.0138474
706.499	0.0134307
706.578	0.0132150
706.656	0.0129976
706.734	0.0127921
706.812	0.0124783
706.890	0.0124194
706.968	0.0122636
707.046	0.0123760
707.124	0.0125058
707.203	0.0125937
707.281	0.0125546
707.359	0.0127587
707.437	0.0127850
707.515	0.0129350
707.593	0.0129056
707.671	0.0128696
707.749	0.0128844
707.828	0.0127385
707.906	0.0127558
707.984	0.0125684
708.062	0.0126192
708.140	0.0127553
708.218	0.0125725
708.296	0.0128493
708.374	0.0127600
708.453	0.0127253
708.531	0.0128004
708.609	0.0129446
708.687	0.0130733
708.765	0.0133003
708.843	0.0133967
708.921	0.0134048
708.999	0.0137015
709.078	0.0138236
709.156	0.0141135
709.234	0.0141244
709.312	0.0141345
709.390	0.0143167
709.468	0.0144958
709.546	0.0146851
709.624	0.0147995
709.703	0.0149491
709.781	0.0147717
709.859	0.0149296
709.937	0.0148959
710.015	0.0150328
710.093	0.0150368
710.171	0.0152560
710.249	0.0152821
710.328	0.0154044
710.406	0.0156408
710.484	0.0154903
710.562	0.0154091
710.640	0.0155972
710.718	0.0154372
710.796	0.0153181
710.874	0.0153050
710.953	0.0149825
711.031	0.0148555
711.109	0.0145382
711.187	0.0142109
711.265	0.0138833
711.343	0.0135011
711.421	0.0133646
711.499	0.0131059
711.578	0.0129510
711.656	0.0125020
711.734	0.0122966
711.812	0.0124329
711.890	0.0122147
711.968	0.0123037
712.046	0.0124666
712.124	0.0124001
712.203	0.0123569
712.281	0.0126124
712.359	0.0126511
712.437	0.0128024
712.515	0.0129371
712.593	0.0129205
712.671	0.0127583
712.749	0.0128409
712.828	0.0127538
712.906	0.0127417
712.984	0.0126753
713.062	0.0129039
713.140	0.0128659
713.218	0.0127673
713.296	0.0130798
713.374	0.0130759
713.453	0.0132301
713.531	0.0135223
713.609	0.0136385
713.687	0.0136905
713.765	0.0138111
713.843	0.0140090
713.921	0.0142197
713.999	0.0143722
714.078	0.0145995
714.156	0.0147488
714.234	0.0147419
714.312	0.0148830
714.390	0.0149820
714.468	0.0149000
714.546	0.0150901
714.624	0.0151241
714.703	0.0151000
714.781	0.0148920
714.859	0.0150164
714.937	0.0150170
715.015	0.0150745
715.093	0.0151460
715.171	0.0149454
715.249	0.0149170
715.328	0.0147963
715.406	0.0147178
715.484	0.0145956
715.562	0.0146309
715.640	0.0143597
715.718	0.0142567
715.796	0.0140650
715.874	0.0140218
715.953	0.0137440
716.031	0.0134462
716.109	0.0132441
716.187	0.0131597
716.265	0.0127814
716.343	0.0125822
716.421	0.0124361
716.499	0.0125313
716.578	0.0125170
716.656	0.0125974
716.734	0.0125289
716.812	0.0125479
716.890	0.0128905
716.968	0.0129539
717.046	0.0131564
717.124	0.0133019
717.203	0.0134558
717.281	0.0134611
717.359	0.0135136
717.437	0.0138149
717.515	0.0136773
717.593	0.0137067
717.671	0.0135931
717.749	0.0135843
717.828	0.0134473
717.906	0.0134211
717.984	0.0132471
718.062	0.0132446
718.140	0.0132116
718.218	0.0130427
718.296	0.0133861
718.374	0.0135474
718.453	0.0133906
718.531	0.0136832
718.609	0.0138992
718.687	0.0141279
718.765	0.0142052
718.843	0.0142124
718.921	0.0144881
718.999	0.0145091
719.078	0.0147834
719.156	0.0147429
719.234	0.0147817
719.312	0.0148256
719.390	0.0147310
719.468	0.0147082
719.546	0.0146500
719.624	0.0147639
719.703	0.0144651
719.781	0.0143893
719.859	0.0144571
719.937	0.0143643
720.015	0.0141947
720.093	0.0140472
720.171	0.0139535
720.249	0.0139339
720.328	0.0137738
720.406	0.0136499
720.484	0.0136949
720.562	0.0136404
720.640	0.0135664
720.718	0.0134339
720.796	0.0135112
720.874	0.0133169
720.953	0.0133536
721.031	0.0133012
721.109	0.0132080
721.187	0.0132498
721.265	0.0132986
721.343	0.0133564
721.421	0.0132992
721.499	0.0133327
721.578	0.0134438
721.656	0.0134325
721.734	0.0136092
721.812	0.0137557
721.890	0.0139433
721.968	0.0140108
722.046	0.0140829
722.124	0.0141000
722.203	0.0140372
722.281	0.0141332
722.359	0.0139984
722.437	0.0138586
722.515	0.0137414
722.593	0.0136066
722.671	0.0133800
722.749	0.0131822
722.828	0.0129905
722.906	0.0129311
722.984	0.0128506
723.062	0.0128147
723.140	0.0129047
723.218	0.0129343
723.296	0.0130891
723.374	0.0131263
723.453	0.0134127
723.531	0.0136982
723.609	0.0138036
723.687	0.0140393
723.765	0.0142802
723.843	0.0144291
723.921	0.0146507
723.999	0.0147486
724.078	0.0149342
724.156	0.0147258
724.234	0.0149690
724.312	0.0148000
724.390	0.0148833
724.468	0.0147314
724.546	0.0145295
724.624	0.0142891
724.703	0.0141904
724.781	0.0139416
724.859	0.0137438
724.937	0.0137228
725.015	0.0134336
725.093	0.0134478
725.171	0.0133724
725.249	0.0132606
725.328	0.0133056
725.406	0.0133877
725.484	0.0133146
725.562	0.0134427
725.640	0.0135722
725.718	0.0136720
725.796	0.0135982
725.874	0.0138038
725.953	0.0139979
726.031	0.0140749
726.109	0.0139760
726.187	0.0140176
726.265	0.0140647
726.343	0.0141084
726.421	0.0140072
726.499	0.0141827
726.578	0.0141601
726.656	0.0140412
726.734	0.0138522
726.812	0.0138720
726.890	0.0139120
726.968	0.0137344
727.046	0.0138105
727.124	0.0136863
727.203	0.0136270
727.281	0.0134679
727.359	0.0131953
727.437	0.0132903
727.515	0.0132755
727.593	0.0132125
727.671	0.0130750
727.749	0.0131454
727.828	0.0131425
727.906	0.0130930
727.984	0.0131726
728.062	0.0132266
728.140	0.0132858
728.218	0.0135065
728.296	0.0137042
728.374	0.0138322
728.453	0.0139222
728.531	0.0141357
728.609	0.0144862
728.687	0.0144942
728.765	0.0146731
728.843	0.0147350
728.921	0.0148009
728.999	0.0147236
729.078	0.0147010
729.156	0.0146419
729.234	0.0145874
729.312	0.0143377
729.390	0.0142931
729.468	0.0141022
729.546	0.0138344
729.624	0.0137415
729.703	0.0133369
729.781	0.0132774
729.859	0.0131422
729.937	0.0130776
730.015	0.0129631
730.093	0.0130630
730.171	0.0131358
730.249	0.0130103
730.328	0.0135506
730.406	0.0133866
730.484	0.0136728
730.562	0.0138747
730.640	0.0137702
730.718	0.0139556
730.796	0.0140804
730.874	0.0142231
730.953	0.0141588
731.031	0.0140641
731.109	0.0142530
731.187	0.0140766
731.265	0.0141005
731.343	0.0141300
731.421	0.0139030
731.499	0.0139185
731.578	0.0138517
731.656	0.0137694
731.734	0.0137109
731.812	0.0136190
731.890	0.0136259
731.968	0.0134795
732.046	0.0134610
732.124	0.0134555
732.203	0.0134853
732.281	0.0132728
732.359	0.0132913
732.437	0.0134027
732.515	0.0133987
732.593	0.0134717
732.671	0.0134329
732.749	0.0135426
732.828	0.0136568
732.906	0.0138618
732.984	0.0138446
733.062	0.0138787
733.140	0.0142251
733.218	0.0142060
733.296	0.0143642
733.374	0.0144969
733.453	0.0146556
733.531	0.0145457
733.609	0.0145623
733.687	0.0146164
733.765	0.0145566
733.843	0.0145377
733.921	0.0143314
733.999	0.0142759
734.078	0.0142027
734.156	0.0139364
734.234	0.0136634
734.312	0.0135442
734.390	0.0135214
734.468	0.0133479
734.546	0.0131985
734.624	0.0128882
734.703	0.0128759
734.781	0.0129287
734.859	0.0128432
734.937	0.0129517
735.015	0.0129402
735.093	0.0131766
735.171	0.0133003
735.249	0.0133120
735.328	0.0134496
735.406	0.0136607
735.484	0.0137398
735.562	0.0137997
735.640	0.0140994
735.718	0.0140141
735.796	0.0140813
735.874	0.0141404
735.953	0.0143070
736.031	0.0142886
736.109	0.0142860
736.187	0.0142660
736.265	0.0141679
736.343	0.0141385
736.421	0.0140812
736.499	0.0141128
736.578	0.0140508
736.656	0.0139268
736.734	0.0138651
736.812	0.0138894
736.890	0.0137244
736.968	0.0134817
737.046	0.0134721
737.124	0.0134945
737.203	0.0133713
737.281	0.0134444
737.359	0.0134544
737.437	0.0134586
737.515	0.0133955
737.593	0.0134717
737.671	0.0136165
737.749	0.0136985
737.828	0.0138721
737.906	0.0138866
737.984	0.0139576
738.062	0.0140903
738.140	0.0140618
738.218	0.0141452
738.296	0.0143177
738.374	0.0142800
738.453	0.0142777
738.531	0.0143092
738.609	0.0141321
738.687	0.0141004
738.765	0.0139411
738.843	0.0139510
738.921	0.0139758
738.999	0.0135584
739.078	0.0135606
739.156	0.0135089
739.234	0.0134171
739.312	0.0133035
739.390	0.0132124
739.468	0.0131524
739.546	0.0131899
739.624	0.0132022
739.703	0.0130599
739.781	0.0132301
739.859	0.0133181
739.937	0.0132385
740.015	0.0135526
740.093	0.0134554
740.171	0.0135915
740.249	0.0138044
740.328	0.0138857
740.406	0.0138681
740.484	0.0138869
740.562	0.0142107
740.640	0.0140276
740.718	0.0143042
740.796	0.0142808
740.874	0.0142603
740.953	0.0141536
741.031	0.0140753
741.109	0.0139770
741.187	0.0138592
741.265	0.0138982
741.343	0.0138863
741.421	0.0137593
741.499	0.0135801
741.578	0.0136063
741.656	0.0135469
741.734	0.0134586
741.812	0.0133073
741.890	0.0132491
741.968	0.0134142
742.046	0.0133649
742.124	0.0134583
742.203	0.0133774
742.281	0.0134743
742.359	0.0135712
742.437	0.0134744
742.515	0.0136820
742.593	0.0135474
742.671	0.0137564
742.749	0.0139120
742.828	0.0138425
742.906	0.0138641
742.984	0.0139636
743.062	0.0139087
743.140	0.0139544
743.218	0.0139709
743.296	0.0140215
743.374	0.0138055
743.453	0.0138683
743.531	0.0140638
743.609	0.0136903
743.687	0.0138819
743.765	0.0138975
743.843	0.0137276
743.921	0.0137762
743.999	0.0138177
744.078	0.0137513
744.156	0.0136517
744.234	0.0137399
744.312	0.0135110
744.390	0.0136897
744.468	0.0137074
744.546	0.0136787
744.624	0.0138062
744.703	0.0136005
744.781	0.0135732
744.859	0.0136929
744.937	0.0137224
745.015	0.0138257
745.093	0.0138460
745.171	0.0137787
745.249	0.0138371
745.328	0.0139739
745.406	0.0139501
745.484	0.0139715
745.562	0.0140370
745.640	0.0139526
745.718	0.0139881
745.796	0.0139132
745.874	0.0139600
745.953	0.0137286
746.031	0.0138025
746.109	0.0138379
746.187	0.0136957
746.265	0.0135882
746.343	0.0137693
746.421	0.0136998
746.499	0.0135557
746.578	0.0134921
746.656	0.0134635
746.734	0.0136275
746.812	0.0135675
746.890	0.0135210
746.968	0.0135997
747.046	0.0136044
747.124	0.0136383
747.203	0.0136572
747.281	0.0137149
747.359	0.0137018
747.437	0.0138127
747.515	0.0137765
747.593	0.0138110
747.671	0.0138865
747.749	0.0139790
747.828	0.0139397
747.906	0.0140514
747.984	0.0140398
748.062	0.0139779
748.140	0.0139505
748.218	0.0139506
748.296	0.0139046
748.374	0.0141199
748.453	0.0139820
748.531	0.0139944
748.609	0.0138676
748.687	0.0138737
748.765	0.0137987
748.843	0.0139082
748.921	0.0138824
748.999	0.0138010
749.078	0.0137164
749.156	0.0137701
749.234	0.0136749
749.312	0.0136962
749.390	0.0136433
749.468	0.0136459
749.546	0.0135682
749.624	0.0135840
749.703	0.0137173
749.781	0.0136594
749.859	0.0137158
749.937	0.0137204
750.015	0.0137731
750.093	0.0137846
750.171	0.0137468
750.249	0.0136701
750.328	0.0137996
750.406	0.0137077
750.484	0.0139347
750.562	0.0136851
750.640	0.0137454
750.718	0.0138252
750.796	0.0138010
750.874	0.0137500
750.953	0.0136832
751.031	0.0138579
751.109	0.0138287
751.187	0.0138740
751.265	0.0138406
751.343	0.0139183
751.421	0.0137495
751.499	0.0138509
751.578	0.0138219
751.656	0.0139381
751.734	0.0139703
751.812	0.0138808
751.890	0.0138643
751.968	0.0138251
752.046	0.0138237
752.124	0.0137938
752.203	0.0137895
752.281	0.0138551
752.359	0.0137487
752.437	0.0136305
752.515	0.0136491
752.593	0.0137189
752.671	0.0136448
752.749	0.0136831
752.828	0.0136799
752.906	0.0136983
752.984	0.0138232
753.062	0.0136748
753.140	0.0137174
753.218	0.0137722
753.296	0.0137436
753.374	0.0138021
753.453	0.0138059
753.531	0.0137823
753.609	0.0138903
753.687	0.0138273
753.765	0.0139008
753.843	0.0137686
753.921	0.0139212
753.999	0.0138220
754.078	0.0137814
754.156	0.0139285
754.234	0.0136835
754.312	0.0137239
754.390	0.0137482
754.468	0.0137048
754.546	0.0138251
754.624	0.0137775
754.703	0.0137582
754.781	0.0138069
754.859	0.0138553
754.937	0.0137919
755.015	0.0137706
755.093	0.0136659
755.171	0.0138090
755.249	0.0137621
755.328	0.0138306
755.406	0.0138226
755.484	0.0138249
755.562	0.0137716
755.640	0.0138372
755.718	0.0137618
755.796	0.0137881
755.874	0.0138712
755.953	0.0138725
756.031	0.0138790
756.109	0.0138559
756.187	0.0137794
756.265	0.0138353
756.343	0.0138651
756.421	0.0139017
756.499	0.0139209
756.578	0.0138267
756.656	0.0137732
756.734	0.0138888
756.812	0.0138496
756.890	0.0138568
756.968	0.0139970
757.046	0.0138677
757.124	0.0137838
757.203	0.0138704
757.281	0.0137080
757.359	0.0138107
757.437	0.0137476
757.515	0.0136140
757.593	0.0136783
757.671	0.0136398
757.749	0.0136784
757.828	0.0135786
757.906	0.0134691
757.984	0.0136401
758.062	0.0135384
758.140	0.0134611
758.218	0.0136150
758.296	0.0134665
758.374	0.0136261
758.453	0.0137275
758.531	0.0137075
758.609	0.0137672
758.687	0.0137178
758.765	0.0138551
758.843	0.0138650
758.921	0.0138189
758.999	0.0140111
759.078	0.0139518
759.156	0.0139686
759.234	0.0139932
759.312	0.0137219
759.390	0.0138748
759.468	0.0140624
759.546	0.0138787
759.624	0.0140476
759.703	0.0137939
759.781	0.0138165
759.859	0.0140360
759.937	0.0139218
760.015	0.0138167
760.093	0.0137855
760.171	0.0137645
760.249	0.0136636
760.328	0.0138167
760.406	0.0137490
760.484	0.0138541
760.562	0.0136894
760.640	0.0136572
760.718	0.0136750
760.796	0.0137566
760.874	0.0135899
760.953	0.0136632
761.031	0.0135009
761.109	0.0137049
761.187	0.0137606
761.265	0.0137017
761.343	0.0138187
761.421	0.0137983
761.499	0.0140031
761.578	0.0139965
761.656	0.0137920
761.734	0.0138633
761.812	0.0139656
761.890	0.0139297
761.968	0.0138106
762.046	0.0136420
762.124	0.0137462
762.203	0.0136521
762.281	0.0135833
762.359	0.0136089
762.437	0.0136507
762.515	0.0136021
762.593	0.0136928
762.671	0.0136676
762.749	0.0135806
762.828	0.0136754
762.906	0.0137784
762.984	0.0137709
763.062	0.0138380
763.140	0.0138815
763.218	0.0137524
763.296	0.0137740
763.374	0.0138196
763.453	0.0137929
763.531	0.0138295
763.609	0.0137355
763.687	0.0138468
763.765	0.0136834
763.843	0.0138454
763.921	0.0138303
763.999	0.0136923
764.078	0.0137252
764.156	0.0138283
764.234	0.0139374
764.312	0.0139352
764.390	0.0139626
764.468	0.0138815
764.546	0.0139807
764.624	0.0140056
764.703	0.0138269
764.781	0.0138924
764.859	0.0138385
764.937	0.0139119
765.015	0.0137273
765.093	0.0137840
765.171	0.0136607
765.249	0.0136839
765.328	0.0137417
765.406	0.0135742
765.484	0.0135644
765.562	0.0135842
765.640	0.0136332
765.718	0.0135817
765.796	0.0136646
765.874	0.0136971
765.953	0.0137666
766.031	0.0138039
766.109	0.0138258
766.187	0.0139888
766.265	0.0138469
766.343	0.0138303
766.421	0.0140508
766.499	0.0140226
766.578	0.0139518
766.656	0.0139179
766.734	0.0138053
766.812	0.0137540
766.890	0.0137418
766.968	0.0138077
767.046	0.0136813
767.124	0.0135191
767.203	0.0136909
767.281	0.0136667
767.359	0.0136649
767.437	0.0136445
767.515	0.0138009
767.593	0.0138966
767.671	0.0139223
767.749	0.0139052
767.828	0.0138661
767.906	0.0139505
767.984	0.0139038
768.062	0.0139485
768.140	0.0139790
768.218	0.0138125
768.296	0.0136452
768.374	0.0138243
768.453	0.0137758
768.531	0.0136951
768.609	0.0138228
768.687	0.0137074
768.765	0.0137814
768.843	0.0137927
768.921	0.0138250
768.999	0.0139203
769.078	0.0138881
769.156	0.0138225
769.234	0.0139404
769.312	0.0140447
769.390	0.0139558
769.468	0.0139572
769.546	0.0137994
769.624	0.0139059
769.703	0.0137195
769.781	0.0137128
769.859	0.0137012
769.937	0.0134949
770.015	0.0136176
770.093	0.0136044
770.171	0.0135428
770.249	0.0136527
770.328	0.0137031
770.406	0.0138174
770.484	0.0138211
770.562	0.0139221
770.640	0.0139391
770.718	0.0140708
770.796	0.0140615
770.874	0.0140460
770.953	0.0141373
771.031	0.0140650
771.109	0.0139589
771.187	0.0139635
771.265	0.0139298
771.343	0.0139381
771.421	0.0137828
771.499	0.0137994
771.578	0.0137973
771.656	0.0137829
771.734	0.0137086
771.812	0.0137850
771.890	0.0136607
771.968	0.0137403
772.046	0.0138036
772.124	0.0137589
772.203	0.0139365
772.281	0.0138908
772.359	0.0139454
772.437	0.0137499
772.515	0.0139076
772.593	0.0138025
772.671	0.0137923
772.749	0.0137001
772.828	0.0136960
772.906	0.0134451
772.984	0.0136355
773.062	0.0135934
773.140	0.0136063
773.218	0.0134792
773.296	0.0135550
773.374	0.0136034
773.453	0.0137396
773.531	0.0138827
773.609	0.0137729
773.687	0.0139602
773.765	0.0139460
773.843	0.0140566
773.921	0.0140137
773.999	0.0139667
774.078	0.0140333
774.156	0.0139576
774.234	0.0138401
774.312	0.0139036
774.390	0.0138075
774.468	0.0137449
774.546	0.0136774
774.624	0.0135504
774.703	0.0135865
774.781	0.0136814
774.859	0.0137292
774.937	0.0137108
775.015	0.0136762
775.093	0.0139167
775.171	0.0137580
775.249	0.0137762
775.328	0.0138183
775.406	0.0140174
775.484	0.0140922
775.562	0.0139369
775.640	0.0140304
775.718	0.0139942
775.796	0.0140031
775.874	0.0138155
775.953	0.0138304
776.031	0.0138966
776.109	0.0139951
776.187	0.0137321
776.265	0.0138322
776.343	0.0136566
776.421	0.0137516
776.499	0.0138455
776.578	0.0138026
776.656	0.0136663
776.734	0.0138282
776.812	0.0139008
776.890	0.0138689
776.968	0.0139385
777.046	0.0137839
777.124	0.0139243
777.203	0.0137591
777.281	0.0137367
777.359	0.0138099
777.437	0.0138042
777.515	0.0136861
777.593	0.0136445
777.671	0.0136835
777.749	0.0136092
777.828	0.0136036
777.906	0.0137230
777.984	0.0137241
778.062	0.0136536
778.140	0.0136948
778.218	0.0137259
778.296	0.0139360
778.374	0.0138463
778.453	0.0139421
778.531	0.0139626
778.609	0.0140815
778.687	0.0141270
778.765	0.0140038
778.843	0.0141194
778.921	0.0140549
778.999	0.0140862
779.078	0.0140327
779.156	0.0139615
779.234	0.0140262
779.312	0.0138060
779.390	0.0138270
779.468	0.0138589
779.546	0.0136916
779.624	0.0137980
779.703	0.0137777
779.781	0.0137834
779.859	0.0138227
779.937	0.0138300
780.015	0.0138707
780.093	0.0137487
780.171	0.0138057
780.249	0.0137761
780.328	0.0139085
780.406	0.0137932
780.484	0.0138371
780.562	0.0137389
780.640	0.0137699
780.718	0.0138994
780.796	0.0136520
780.874	0.0137288
780.953	0.0138170
781.031	0.0136208
781.109	0.0138706
781.187	0.0137439
781.265	0.0136944
781.343	0.0136467
781.421	0.0137018
781.499	0.0137643
781.578	0.0137952
781.656	0.0139289
781.734	0.0138165
781.812	0.0138513
781.890	0.0138580
781.968	0.0136849
782.046	0.0137692
782.124	0.0138541
782.203	0.0137574
782.281	0.0137885
782.359	0.0136922
782.437	0.0138121
782.515	0.0137247
782.593	0.0138116
782.671	0.0137125
782.749	0.0138180
782.828	0.0137798
782.906	0.0138538
782.984	0.0138799
783.062	0.0139386
783.140	0.0140360
783.218	0.0140215
783.296	0.0139376
783.374	0.0139191
783.453	0.0141058
783.531	0.0140929
783.609	0.0142423
783.687	0.0140867
783.765	0.0139293
783.843	0.0140617
783.921	0.0139594
783.999	0.0140806
784.078	0.0139529
784.156	0.0138721
784.234	0.0138467
784.312	0.0138219
784.390	0.0139407
784.468	0.0137691
784.546	0.0135661
784.624	0.0137570
784.703	0.0136884
784.781	0.0138284
784.859	0.0138149
784.937	0.0137121
785.015	0.0139266
785.093	0.0138518
785.171	0.0136996
785.249	0.0137111
785.328	0.0137360
785.406	0.0138632
785.484	0.0137370
785.562	0.0138731
785.640	0.0136364
785.718	0.0137045
785.796	0.0138181
785.874	0.0137022
785.953	0.0137331
786.031	0.0138291
786.109	0.0137582
786.187	0.0138210
786.265	0.0137419
786.343	0.0137479
786.421	0.0138773
786.499	0.0138934
786.578	0.0137353
786.656	0.0137968
786.734	0.0140559
786.812	0.0138775
786.890	0.0138169
786.968	0.0138346
787.046	0.0138419
787.124	0.0137988
787.203	0.0137907
787.281	0.0137398
787.359	0.0139177
787.437	0.0138564
787.515	0.0138345
787.593	0.0139149
787.671	0.0138501
787.749	0.0139515
787.828	0.0139608
787.906	0.0139348
787.984	0.0140549
788.062	0.0140273
788.140	0.0139391
788.218	0.0139165
788.296	0.0139382
788.374	0.0141744
788.453	0.0140629
788.531	0.0140640
788.609	0.0141386
788.687	0.0139893
788.765	0.0137516
788.843	0.0139616
788.921	0.0139142
788.999	0.0137874
789.078	0.0138847
789.156	0.0137968
789.234	0.0136226
789.312	0.0138071
789.390	0.0138763
789.468	0.0138548
789.546	0.0135603
789.624	0.0136951
789.703	0.0138449
789.781	0.0137891
789.859	0.0137898
789.937	0.0137285
790.015	0.0138940
790.093	0.0136177
790.171	0.0137040
790.249	0.0137254
790.328	0.0136904
790.406	0.0137220
790.484	0.0136434
790.562	0.0137308
790.640	0.0136805
790.718	0.0137267
790.796	0.0137615
790.874	0.0138084
790.953	0.0138300
791.031	0.0139148
791.109	0.0137235
791.187	0.0140694
791.265	0.0138826
791.343	0.0138321
791.421	0.0138338
791.499	0.0139548
791.578	0.0139014
791.656	0.0138558
791.734	0.0138351
791.812	0.0138446
791.890	0.0138456
791.968	0.0137534
792.046	0.0137101
792.124	0.0137047
792.203	0.0137829
792.281	0.0138007
792.359	0.0137736
792.437	0.0137532
792.515	0.0138023
792.593	0.0138767
792.671	0.0139264
792.749	0.0138176
792.828	0.0138616
792.906	0.0140321
792.984	0.0140404
793.062	0.0141389
793.140	0.0141241
793.218	0.0141232
793.296	0.0141824
793.374	0.0141022
793.453	0.0141162
793.531	0.0141143
793.609	0.0140590
793.687	0.0140054
793.765	0.0140777
793.843	0.0139510
793.921	0.0139174
793.999	0.0138423
794.078	0.0139458
794.156	0.0138919
794.234	0.0137167
794.312	0.0136830
794.390	0.0137795
794.468	0.0137868
794.546	0.0136824
794.624	0.0136909
794.703	0.0135818
794.781	0.0136582
794.859	0.0136378
794.937	0.0135230
795.015	0.0135333
795.093	0.0135669
795.171	0.0136481
795.249	0.0135550
795.328	0.0136216
795.406	0.0134724
795.484	0.0135720
795.562	0.0135980
795.640	0.0135871
795.718	0.0136084
795.796	0.0138498
795.874	0.0137046
795.953	0.0138138
796.031	0.0139027
796.109	0.0138172
796.187	0.0136720
796.265	0.0138294
796.343	0.0139941
796.421	0.0138347
796.499	0.0139477
796.578	0.0138821
796.656	0.0138936
796.734	0.0138748
796.812	0.0138238
796.890	0.0138696
796.968	0.0138733
797.046	0.0138999
797.124	0.0138620
797.203	0.0139198
797.281	0.0138765
797.359	0.0140473
797.437	0.0140461
797.515	0.0140790
797.593	0.0140372
797.671	0.0140533
797.749	0.0141071
797.828	0.0140070
797.906	0.0140752
797.984	0.0141241
798.062	0.0140081
798.140	0.0138499
798.218	0.0139244
798.296	0.0141517
798.374	0.0139480
798.453	0.0139928
798.531	0.0140004
798.609	0.0139487
798.687	0.0137970
798.765	0.0138533
798.843	0.0139075
798.921	0.0137507
798.999	0.0138950
799.078	0.0137923
799.156	0.0138419
799.234	0.0138139
799.312	0.0137068
799.390	0.0137675
799.468	0.0137424
799.546	0.0137346
799.624	0.0134080
799.703	0.0135341
799.781	0.0136917
799.859	0.0136584
799.937	0.0134599
800.015	0.0135921
800.093	0.0136827
800.171	0.0135889
800.249	0.0135812
800.328	0.0135675
800.406	0.0137019
800.484	0.0137452
800.562	0.0136987
800.640	0.0136839
800.718	0.0137648
800.796	0.0137044
800.874	0.0137476
800.953	0.0137321
801.031	0.0137899
801.109	0.0137123
801.187	0.0138123
801.265	0.0137943
801.343	0.0138037
801.421	0.0140086
801.499	0.0140219
801.578	0.0139110
801.656	0.0140018
801.734	0.0140625
801.812	0.0140153
801.890	0.0140086
801.968	0.0141066
802.046	0.0140789
802.124	0.0139859
802.203	0.0142074
802.281	0.0142645
802.359	0.0141529
802.437	0.0139887
802.515	0.0141986
802.593	0.0142943
802.671	0.0140259
802.749	0.0140900
802.828	0.0139536
802.906	0.0139812
802.984	0.0139815
803.062	0.0138779
803.140	0.0138561
803.218	0.0137272
803.296	0.0137411
803.374	0.0136246
803.453	0.0136053
803.531	0.0136988
803.609	0.0135460
803.687	0.0134595
803.765	0.0135610
803.843	0.0134523
803.921	0.0134010
803.999	0.0135393
804.078	0.0135937
804.156	0.0134756
804.234	0.0135057
804.312	0.0135930
804.390	0.0136684
804.468	0.0136076
804.546	0.0135869
804.624	0.0135706
804.703	0.0135506
804.781	0.0137082
804.859	0.0136635
804.937	0.0136592
805.015	0.0136975
805.093	0.0137189
805.171	0.0137592
805.249	0.0137755
805.328	0.0137498
805.406	0.0138077
805.484	0.0137595
805.562	0.0138364
805.640	0.0138141
805.718	0.0137250
805.796	0.0139032
805.874	0.0137476
805.953	0.0137565
806.031	0.0136967
806.109	0.0139060
806.187	0.0138980
806.265	0.0138525
806.343	0.0138081
806.421	0.0138112
806.499	0.0138934
806.578	0.0140104
806.656	0.0138577
806.734	0.0140960
806.812	0.0140678
806.890	0.0141745
806.968	0.0140588
807.046	0.0141515
807.124	0.0140732
807.203	0.0141681
807.281	0.0141914
807.359	0.0141483
807.437	0.0141785
807.515	0.0141513
807.593	0.0140485
807.671	0.0139602
807.749	0.0140539
807.828	0.0139899
807.906	0.0137791
807.984	0.0138486
808.062	0.0138619
808.140	0.0136763
808.218	0.0134686
808.296	0.0135634
808.374	0.0136808
808.453	0.0137077
808.531	0.0135941
808.609	0.0135022
808.687	0.0134146
808.765	0.0136798
808.843	0.0136035
808.921	0.0135121
808.999	0.0136478
809.078	0.0137354
809.156	0.0137207
809.234	0.0136704
809.312	0.0137890
809.390	0.0136933
809.468	0.0135767
809.546	0.0137782
809.624	0.0138284
809.703	0.0138138
809.781	0.0137910
809.859	0.0137553
809.937	0.0138546
810.015	0.0137424
810.093	0.0137788
810.171	0.0137902
810.249	0.0136589
810.328	0.0138435
810.406	0.0138639
810.484	0.0139605
810.562	0.0139400
810.640	0.0139770
810.718	0.0140465
810.796	0.0140876
810.874	0.0139064
810.953	0.0140694
811.031	0.0140308
811.109	0.0140855
811.187	0.0140618
811.265	0.0140477
811.343	0.0140115
811.421	0.0140562
811.499	0.0140149
811.578	0.0139102
811.656	0.0138435
811.734	0.0138917
811.812	0.0139557
811.890	0.0138015
811.968	0.0138871
812.046	0.0137811
812.124	0.0138114
812.203	0.0138525
812.281	0.0138500
812.359	0.0137066
812.437	0.0136804
812.515	0.0137637
812.593	0.0138033
812.671	0.0136752
812.749	0.0136725
812.828	0.0137775
812.906	0.0136600
812.984	0.0137076
813.062	0.0136070
813.140	0.0136886
813.218	0.0137618
813.296	0.0136246
813.374	0.0137495
813.453	0.0138021
813.531	0.0137539
813.609	0.0138630
813.687	0.0139116
813.765	0.0138158
813.843	0.0137505
813.921	0.0138658
813.999	0.0137827
814.078	0.0136104
814.156	0.0136506
814.234	0.0135672
814.312	0.0135394
814.390	0.0137345
814.468	0.0136922
814.546	0.0136192
814.624	0.0135040
814.703	0.0135799
814.781	0.0136262
814.859	0.0136380
814.937	0.0136002
815.015	0.0136597
815.093	0.0137547
815.171	0.0137219
815.249	0.0137735
815.328	0.0137351
815.406	0.0138273
815.484	0.0138735
815.562	0.0138686
815.640	0.0138197
815.718	0.0139449
815.796	0.0138273
815.874	0.0139417
815.953	0.0139698
816.031	0.0139141
816.109	0.0138475
816.187	0.0139809
816.265	0.0139512
816.343	0.0138684
816.421	0.0139271
816.499	0.0137711
816.578	0.0137851
816.656	0.0137884
816.734	0.0137289
816.812	0.0137316
816.890	0.0138603
816.968	0.0137776
817.046	0.0137417
817.124	0.0136619
817.203	0.0137406
817.281	0.0137579
817.359	0.0136491
817.437	0.0137444
817.515	0.0139425
817.593	0.0137614
817.671	0.0138828
817.749	0.0137151
817.828	0.0138432
817.906	0.0138468
817.984	0.0138311
818.062	0.0138911
818.140	0.0139043
818.218	0.0138510
818.296	0.0136883
818.374	0.0137745
818.453	0.0139096
818.531	0.0138394
818.609	0.0137872
818.687	0.0137798
818.765	0.0137630
818.843	0.0137719
818.921	0.0137453
818.999	0.0136913
819.078	0.0135148
819.156	0.0138232
819.234	0.0137299
819.312	0.0137089
819.390	0.0135918
819.468	0.0136392
819.546	0.0135624
819.624	0.0136408
819.703	0.0137570
819.781	0.0136771
819.859	0.0135632
819.937	0.0136501
820.015	0.0138271
820.093	0.0137087
820.171	0.0137922
820.249	0.0137119
820.328	0.0136251
820.406	0.0138683
820.484	0.0137432
820.562	0.0138788
820.640	0.0136720
820.718	0.0137192
820.796	0.0138323
820.874	0.0139021
820.953	0.0137836
821.031	0.0136111
821.109	0.0137825
821.187	0.0136266
821.265	0.0138155
821.343	0.0138066
821.421	0.0137807
821.499	0.0136092
821.578	0.0138158
821.656	0.0139214
821.734	0.0136622
821.812	0.0137649
821.890	0.0137325
821.968	0.0138496
822.046	0.0138752
822.124	0.0138221
822.203	0.0138417
822.281	0.0138142
822.359	0.0138641
822.437	0.0137601
822.515	0.0139503
822.593	0.0139108
822.671	0.0138415
822.749	0.0138546
822.828	0.0138757
822.906	0.0138898
822.984	0.0138217
823.062	0.0138288
823.140	0.0138618
823.218	0.0137956
823.296	0.0138755
823.374	0.0136942
823.453	0.0135725
823.531	0.0137219
823.609	0.0137892
823.687	0.0136191
823.765	0.0135139
823.843	0.0136497
823.921	0.0136504
823.999	0.0136864
824.078	0.0136523
824.156	0.0137852
824.234	0.0137489
824.312	0.0136977
824.390	0.0137373
824.468	0.0137126
824.546	0.0137273
824.624	0.0137914
824.703	0.0138341
824.781	0.0140078
824.859	0.0140206
824.937	0.0138964
825.015	0.0138520
825.093	0.0138009
825.171	0.0139822
825.249	0.0138857
825.328	0.0139100
825.406	0.0139250
825.484	0.0137975
825.562	0.0137428
825.640	0.0137196
825.718	0.0137843
825.796	0.0137399
825.874	0.0137729
825.953	0.0137534
826.031	0.0135982
826.109	0.0136253
826.187	0.0135505
826.265	0.0134900
826.343	0.0137068
826.421	0.0136638
826.499	0.0137877
826.578	0.0137838
826.656	0.0136948
826.734	0.0138813
826.812	0.0136218
826.890	0.0135947
826.968	0.0137418
827.046	0.0139012
827.124	0.0137502
827.203	0.0137868
827.281	0.0139814
827.359	0.0140540
827.437	0.0138622
827.515	0.0139331
827.593	0.0139111
827.671	0.0138982
827.749	0.0138915
827.828	0.0138091
827.906	0.0138218
827.984	0.0138397
828.062	0.0138213
828.140	0.0136539
828.218	0.0137634
828.296	0.0137783
828.374	0.0138116
828.453	0.0136217
828.531	0.0136596
828.609	0.0136803
828.687	0.0136242
828.765	0.0137618
828.843	0.0137370
828.921	0.0137446
828.999	0.0138733
829.078	0.0136879
829.156	0.0137991
829.234	0.0137804
829.312	0.0137547
829.390	0.0138811
829.468	0.0137417
829.546	0.0138709
829.624	0.0139906
829.703	0.0139272
829.781	0.0139320
829.859	0.0138852
829.937	0.0139484
830.015	0.0140139
830.093	0.0139172
830.171	0.0138691
830.249	0.0137775
830.328	0.0137035
830.406	0.0138576
830.484	0.0136796
830.562	0.0136974
830.640	0.0138445
830.718	0.0137156
830.796	0.0136205
830.874	0.0136297
830.953	0.0135992
831.031	0.0135610
831.109	0.0134622
831.187	0.0135509
831.265	0.0135315
831.343	0.0134579
831.421	0.0135791
831.499	0.0136089
831.578	0.0135762
831.656	0.0134022
831.734	0.0136761
831.812	0.0136269
831.890	0.0136363
831.968	0.0137372
832.046	0.0136031
832.124	0.0137792
832.203	0.0137523
832.281	0.0137022
832.359	0.0137728
832.437	0.0137048
832.515	0.0138323
832.593	0.0137735
832.671	0.0138972
832.749	0.0139471
832.828	0.0137528
832.906	0.0137577
832.984	0.0138390
833.062	0.0138264
833.140	0.0138089
833.218	0.0137714
833.296	0.0138197
833.374	0.0137467
833.453	0.0136363
833.531	0.0137194
833.609	0.0137758
833.687	0.0136095
833.765	0.0137534
833.843	0.0137370
833.921	0.0138042
833.999	0.0138808
834.078	0.0138682
834.156	0.0138895
834.234	0.0139943
834.312	0.0138582
834.390	0.0137960
834.468	0.0139813
834.546	0.0138696
834.624	0.0139312
834.703	0.0138720
834.781	0.0139770
834.859	0.0138471
834.937	0.0139783
835.015	0.0138025
835.093	0.0137125
835.171	0.0136700
835.249	0.0139555
835.328	0.0139288
835.406	0.0137918
835.484	0.0136617
835.562	0.0137659
835.640	0.0136636
835.718	0.0137840
835.796	0.0136488
835.874	0.0136620
835.953	0.0136155
836.031	0.0136739
836.109	0.0137270
836.187	0.0136241
836.265	0.0137214
836.343	0.0135760
836.421	0.0136485
836.499	0.0137315
836.578	0.0137862
836.656	0.0138614
836.734	0.0136914
836.812	0.0137080
836.890	0.0138284
836.968	0.0137228
837.046	0.0138567
837.124	0.0138245
837.203	0.0137856
837.281	0.0138680
837.359	0.0138767
837.437	0.0138008
837.515	0.0137310
837.593	0.0137195
837.671	0.0138922
837.749	0.0138344
837.828	0.0139102
837.906	0.0137936
837.984	0.0138242
838.062	0.0139160
838.140	0.0138741
838.218	0.0137798
838.296	0.0137557
838.374	0.0137669
838.453	0.0138370
838.531	0.0139079
838.609	0.0138944
838.687	0.0138773
838.765	0.0137841
838.843	0.0139218
838.921	0.0140028
838.999	0.0140404
839.078	0.0140543
839.156	0.0138203
839.234	0.0139252
839.312	0.0139672
839.390	0.0139552
839.468	0.0139415
839.546	0.0138503
839.624	0.0137315
839.703	0.0139136
839.781	0.0137970
839.859	0.0136920
839.937	0.0135412
840.015	0.0137366
840.093	0.0137691
840.171	0.0136341
840.249	0.0135583
840.328	0.0136426
840.406	0.0135407
840.484	0.0135283
840.562	0.0136681
840.640	0.0137314
840.718	0.0138275
840.796	0.0136906
840.874	0.0136633
840.953	0.0137375
841.031	0.0137169
841.109	0.0137611
841.187	0.0136830
841.265	0.0137004
841.343	0.0138577
841.421	0.0137910
841.499	0.0138484
841.578	0.0137337
841.656	0.0138490
841.734	0.0138358
841.812	0.0138284
841.890	0.0138853
841.968	0.0137727
842.046	0.0138593
842.124	0.0138667
842.203	0.0138480
842.281	0.0137590
842.359	0.0138363
842.437	0.0137681
842.515	0.0137528
842.593	0.0137148
842.671	0.0136935
842.749	0.0136345
842.828	0.0136889
842.906	0.0137104
842.984	0.0136456
843.062	0.0136913
843.140	0.0136607
843.218	0.0137419
843.296	0.0138012
843.374	0.0138673
843.453	0.0137150
843.531	0.0137783
843.609	0.0137512
843.687	0.0138206
843.765	0.0140611
843.843	0.0140442
843.921	0.0140861
843.999	0.0138421
844.078	0.0139471
844.156	0.0138786
844.234	0.0138375
844.312	0.0138194
844.390	0.0138869
844.468	0.0139006
844.546	0.0137506
844.624	0.0137253
844.703	0.0137369
844.781	0.0137102
844.859	0.0135795
844.937	0.0136060
845.015	0.0136423
845.093	0.0137722
845.171	0.0136902
845.249	0.0137238
845.328	0.0135259
845.406	0.0135758
845.484	0.0136074
845.562	0.0137301
845.640	0.0137119
845.718	0.0136372
845.796	0.0135855
845.874	0.0137189
845.953	0.0137022
846.031	0.0136420
846.109	0.0138108
846.187	0.0138331
846.265	0.0138364
846.343	0.0137245
846.421	0.0138190
846.499	0.0139175
846.578	0.0136391
846.656	0.0137885
846.734	0.0136335
846.812	0.0136987
846.890	0.0138103
846.968	0.0137882
847.046	0.0136874
847.124	0.0136492
847.203	0.0136380
847.281	0.0137782
847.359	0.0137326
847.437	0.0137743
847.515	0.0137234
847.593	0.0137357
847.671	0.0137937
847.749	0.0137481
847.828	0.0137220
847.906	0.0136800
847.984	0.0137490
848.062	0.0138266
848.140	0.0137803
848.218	0.0138371
848.296	0.0139460
848.374	0.0137856
848.453	0.0138023
848.531	0.0138553
848.609	0.0138361
848.687	0.0138964
848.765	0.0138401
848.843	0.0139727
848.921	0.0139723
848.999	0.0138505
849.078	0.0139288
849.156	0.0136821
849.234	0.0137836
849.312	0.0138465
849.390	0.0138226
849.468	0.0137090
849.546	0.0136684
849.624	0.0137072
849.703	0.0136367
849.781	0.0136263
849.859	0.0136397
849.937	0.0136015
850.015	0.0135835
850.093	0.0137105
850.171	0.0135908
850.249	0.0136460
850.328	0.0136423
850.406	0.0137909
850.484	0.0138103
850.562	0.0137504
850.640	0.0136952
850.718	0.0138091
850.796	0.0137845
850.874	0.0137721
850.953	0.0137233
851.031	0.0137248
851.109	0.0137453
851.187	0.0138917
851.265	0.0139043
851.343	0.0139754
851.421	0.0138182
851.499	0.0138279
851.578	0.0139099
851.656	0.0136618
851.734	0.0138643
851.812	0.0137932
851.890	0.0136090
851.968	0.0136208
852.046	0.0135653
852.124	0.0137166
852.203	0.0137635
852.281	0.0138356
852.359	0.0139217
852.437	0.0137389
852.515	0.0137082
852.593	0.0137487
852.671	0.0139030
852.749	0.0139336
852.828	0.0140166
852.906	0.0139474
852.984	0.0140453
853.062	0.0139412
853.140	0.0139350
853.218	0.0140325
853.296	0.0140782
853.374	0.0140690
853.453	0.0139365
853.531	0.0139529
853.609	0.0138322
853.687	0.0137313
853.765	0.0137152
853.843	0.0139714
853.921	0.0137825
853.999	0.0138392
854.078	0.0137983
854.156	0.0137439
854.234	0.0137074
854.312	0.0136812
854.390	0.0135828
854.468	0.0135921
854.546	0.0136919
854.624	0.0137202
854.703	0.0135559
854.781	0.0136737
854.859	0.0137072
854.937	0.0136153
855.015	0.0137270
855.093	0.0137196
855.171	0.0138820
855.249	0.0138042
855.328	0.0136718
855.406	0.0138122
855.484	0.0138316
855.562	0.0138536
855.640	0.0139760
855.718	0.0139182
855.796	0.0138834
855.874	0.0139091
855.953	0.0140215
856.031	0.0138799
856.109	0.0139527
856.187	0.0138927
856.265	0.0139264
856.343	0.0138540
856.421	0.0138661
856.499	0.0139818
856.578	0.0138008
856.656	0.0138678
856.734	0.0139567
856.812	0.0137997
856.890	0.0137267
856.968	0.0137887
857.046	0.0138041
857.124	0.0136705
857.203	0.0138221
857.281	0.0137667
857.359	0.0139280
857.437	0.0138448
857.515	0.0139507
857.593	0.0139681
857.671	0.0138779
857.749	0.0139702
857.828	0.0140038
857.906	0.0139021
857.984	0.0140477
858.062	0.0139400
858.140	0.0138757
858.218	0.0140844
858.296	0.0140205
858.374	0.0140040
858.453	0.0139831
858.531	0.0138726
858.609	0.0138052
858.687	0.0138902
858.765	0.0138157
858.843	0.0139901
858.921	0.0138286
858.999	0.0137340
859.078	0.0138366
859.156	0.0139117
859.234	0.0139150
859.312	0.0137112
859.390	0.0137884
859.468	0.0138015
859.546	0.0136765
859.624	0.0137606
859.703	0.0137748
859.781	0.0138064
859.859	0.0137511
859.937	0.0138737
860.015	0.0138997
860.093	0.0137821
860.171	0.0138385
860.249	0.0138852
860.328	0.0139677
860.406	0.0138197
860.484	0.0137833
860.562	0.0136459
860.640	0.0137922
860.718	0.0139022
860.796	0.0137472
860.874	0.0138451
860.953	0.0137076
861.031	0.0138200
861.109	0.0138286
861.187	0.0137930
861.265	0.0137989
861.343	0.0137613
861.421	0.0135185
861.499	0.0136835
861.578	0.0138018
861.656	0.0137755
861.734	0.0139186
861.812	0.0136742
861.890	0.0136486
861.968	0.0137733
862.046	0.0136840
862.124	0.0136247
862.203	0.0137840
862.281	0.0138542
862.359	0.0139448
862.437	0.0138829
862.515	0.0138795
862.593	0.0138126
862.671	0.0139591
862.749	0.0139291
862.828	0.0139456
862.906	0.0138332
862.984	0.0139054
863.062	0.0139883
863.140	0.0139334
863.218	0.0138668
863.296	0.0137974
863.374	0.0137984
863.453	0.0139359
863.531	0.0139279
863.609	0.0138503
863.687	0.0137256
863.765	0.0138411
863.843	0.0139434
863.921	0.0136573
863.999	0.0136534
864.078	0.0137991
864.156	0.0137019
864.234	0.0137427
864.312	0.0139233
864.390	0.0137900
864.468	0.0136745
864.546	0.0137228
864.624	0.0138620
864.703	0.0138474
864.781	0.0138260
864.859	0.0138316
864.937	0.0139186
865.015	0.0139909
865.093	0.0138395
865.171	0.0137556
865.249	0.0137701
865.328	0.0138847
865.406	0.0138703
865.484	0.0138588
865.562	0.0137611
865.640	0.0138510
865.718	0.0136098
865.796	0.0137370
865.874	0.0138361
865.953	0.0138091
866.031	0.0137244
866.109	0.0137447
866.187	0.0135841
866.265	0.0136565
866.343	0.0137493
866.421	0.0137251
866.499	0.0137369
866.578	0.0136691
866.656	0.0136777
866.734	0.0136847
866.812	0.0138322
866.890	0.0139117
866.968	0.0138422
867.046	0.0139400
867.124	0.0138319
867.203	0.0137134
867.281	0.0138387
867.359	0.0139140
867.437	0.0138934
867.515	0.0139426
867.593	0.0138349
867.671	0.0138213
867.749	0.0139406
867.828	0.0137756
867.906	0.0137018
867.984	0.0137956
868.062	0.0139032
868.140	0.0138156
868.218	0.0139562
868.296	0.0138530
868.374	0.0137524
868.453	0.0137682
868.531	0.0137319
868.609	0.0137444
868.687	0.0139079
868.765	0.0139181
868.843	0.0138241
868.921	0.0139413
868.999	0.0137128
869.078	0.0138030
869.156	0.0139169
869.234	0.0137367
869.312	0.0136893
869.390	0.0137033
869.468	0.0137746
869.546	0.0136972
869.624	0.0135314
869.703	0.0137857
869.781	0.0137782
869.859	0.0137658
869.937	0.0135870
870.015	0.0137296
870.093	0.0138401
870.171	0.0137852
870.249	0.0137701
870.328	0.0139191
870.406	0.0137331
870.484	0.0138605
870.562	0.0139554
870.640	0.0137968
870.718	0.0137630
870.796	0.0138972
870.874	0.0140253
870.953	0.0139699
871.031	0.0139571
871.109	0.0138721
871.187	0.0139063
871.265	0.0137667
871.343	0.0138728
871.421	0.0138738
871.499	0.0139358
871.578	0.0140781
871.656	0.0137932
871.734	0.0138224
871.812	0.0138722
871.890	0.0138162
871.968	0.0138137
872.046	0.0137772
872.124	0.0138047
872.203	0.0138304
872.281	0.0137634
872.359	0.0138718
872.437	0.0137450
872.515	0.0138758
872.593	0.0139050
872.671	0.0138128
872.749	0.0139473
872.828	0.0138445
872.906	0.0138839
872.984	0.0138850
873.062	0.0139532
873.140	0.0137766
873.218	0.0139098
873.296	0.0138078
873.374	0.0138698
873.453	0.0139743
873.531	0.0139057
873.609	0.0139411
873.687	0.0140087
873.765	0.0138137
873.843	0.0138963
873.921	0.0138824
873.999	0.0136987
874.078	0.0138669
874.156	0.0137869
874.234	0.0136941
874.312	0.0137833
874.390	0.0138786
874.468	0.0138076
874.546	0.0138335
874.624	0.0138077
874.703	0.0137583
874.781	0.0138380
874.859	0.0138284
874.937	0.0137715
875.015	0.0138882
875.093	0.0138927
875.171	0.0139481
875.249	0.0139012
875.328	0.0137993
875.406	0.0138702
875.484	0.0139223
875.562	0.0139204
875.640	0.0136942
875.718	0.0137202
875.796	0.0138801
875.874	0.0137965
875.953	0.0135835
876.031	0.0137320
876.109	0.0137153
876.187	0.0137001
876.265	0.0138022
876.343	0.0137355
876.421	0.0136224
876.499	0.0136994
876.578	0.0138581
876.656	0.0137947
876.734	0.0138134
876.812	0.0139352
876.890	0.0138162
876.968	0.0137827
877.046	0.0137411
877.124	0.0137040
877.203	0.0137417
877.281	0.0137341
877.359	0.0138091
877.437	0.0137346
877.515	0.0137553
877.593	0.0138728
877.671	0.0137946
877.749	0.0138034
877.828	0.0138880
877.906	0.0138362
877.984	0.0138412
878.062	0.0138447
878.140	0.0138520
878.218	0.0138044
878.296	0.0138174
878.374	0.0139201
878.453	0.0138062
878.531	0.0138632
878.609	0.0138005
878.687	0.0137969
878.765	0.0138802
878.843	0.0137978
878.921	0.0138240
878.999	0.0137892
879.078	0.0137871
879.156	0.0138486
879.234	0.0139630
879.312	0.0138036
879.390	0.0138319
879.468	0.0138597
879.546	0.0137347
879.624	0.0138787
879.703	0.0137897
879.781	0.0138296
879.859	0.0137688
879.937	0.0139184
880.015	0.0138355
880.093	0.0138401
880.171	0.0139289
880.249	0.0138708
880.328	0.0138184
880.406	0.0139124
880.484	0.0138438
880.562	0.0136543
880.640	0.0135648
880.718	0.0136514
880.796	0.0136940
880.874	0.0136660
880.953	0.0137514
881.031	0.0137389
881.109	0.0137354
881.187	0.0137564
881.265	0.0137910
881.343	0.0138297
881.421	0.0138474
881.499	0.0138913
881.578	0.0138622
881.656	0.0137602
881.734	0.0140347
881.812	0.0138968
881.890	0.0138611
881.968	0.0139603
882.046	0.0138974
882.124	0.0139529
882.203	0.0138527
882.281	0.0139232
882.359	0.0138255
882.437	0.0139333
882.515	0.0139638
882.593	0.0137777
882.671	0.0138642
882.749	0.0138634
882.828	0.0138846
882.906	0.0137830
882.984	0.0138589
883.062	0.0138219
883.140	0.0139468
883.218	0.0138569
883.296	0.0139420
883.374	0.0137107
883.453	0.0135921
883.531	0.0137078
883.609	0.0137542
883.687	0.0138200
883.765	0.0137501
883.843	0.0137870
883.921	0.0138083
883.999	0.0139289
884.078	0.0138220
884.156	0.0138857
884.234	0.0138113
884.312	0.0140205
884.390	0.0137996
884.468	0.0138827
884.546	0.0139528
884.624	0.0139394
884.703	0.0138506
884.781	0.0139208
884.859	0.0138497
884.937	0.0138143
885.015	0.0137800
885.093	0.0137875
885.171	0.0136235
885.249	0.0136295
885.328	0.0136690
885.406	0.0136832
885.484	0.0134715
885.562	0.0136084
885.640	0.0135670
885.718	0.0136401
885.796	0.0136857
885.874	0.0136694
885.953	0.0136199
886.031	0.0138387
886.109	0.0138137
886.187	0.0136523
886.265	0.0137488
886.343	0.0138701
886.421	0.0138918
886.499	0.0139732
886.578	0.0139826
886.656	0.0138130
886.734	0.0139097
886.812	0.0139561
886.890	0.0139496
886.968	0.0138457
887.046	0.0138406
887.124	0.0137940
887.203	0.0139182
887.281	0.0140561
887.359	0.0139405
887.437	0.0140273
887.515	0.0139186
887.593	0.0138599
887.671	0.0138653
887.749	0.0138493
887.828	0.0137856
887.906	0.0138233
887.984	0.0137674
888.062	0.0137883
888.140	0.0138478
888.218	0.0137677
888.296	0.0136916
888.374	0.0137973
888.453	0.0137807
888.531	0.0136008
888.609	0.0137312
888.687	0.0137553
888.765	0.0136833
888.843	0.0138280
888.921	0.0137947
888.999	0.0138445
889.078	0.0137500
889.156	0.0137806
889.234	0.0137648
889.312	0.0138435
889.390	0.0137371
889.468	0.0136238
889.546	0.0139042
889.624	0.0136879
889.703	0.0137910
889.781	0.0135491
889.859	0.0135291
889.937	0.0137856
890.015	0.0137021
890.093	0.0136317
890.171	0.0138107
890.249	0.0136005
890.328	0.0137551
890.406	0.0137834
890.484	0.0138129
890.562	0.0137122
890.640	0.0137920
890.718	0.0138400
890.796	0.0137754
890.874	0.0139399
890.953	0.0137123
891.031	0.0137401
891.109	0.0138008
891.187	0.0138601
891.265	0.0138270
891.343	0.0138949
891.421	0.0138371
891.499	0.0136812
891.578	0.0136567
891.656	0.0137330
891.734	0.0138657
891.812	0.0136886
891.890	0.0137681
891.968	0.0138736
892.046	0.0138148
892.124	0.0139070
892.203	0.0139331
892.281	0.0138792
892.359	0.0139854
892.437	0.0138570
892.515	0.0139442
892.593	0.0139349
892.671	0.0138547
892.749	0.0138893
892.828	0.0138251
892.906	0.0137053
892.984	0.0138199
893.062	0.0137404
893.140	0.0138905
893.218	0.0137807
893.296	0.0137682
893.374	0.0136999
893.453	0.0137481
893.531	0.0136766
893.609	0.0138480
893.687	0.0136314
893.765	0.0137618
893.843	0.0138299
893.921	0.0137950
893.999	0.0138171
894.078	0.0139154
894.156	0.0137351
894.234	0.0138834
894.312	0.0138241
894.390	0.0137579
894.468	0.0138354
894.546	0.0138854
894.624	0.0138168
894.703	0.0137673
894.781	0.0137080
894.859	0.0137753
894.937	0.0137029
895.015	0.0136235
895.093	0.0138770
895.171	0.0137946
895.249	0.0136509
895.328	0.0136312
895.406	0.0137012
895.484	0.0137978
895.562	0.0138034
895.640	0.0137598
895.718	0.0137218
895.796	0.0138176
895.874	0.0137862
895.953	0.0137341
896.031	0.0138089
896.109	0.0137878
896.187	0.0137695
896.265	0.0137396
896.343	0.0138729
896.421	0.0138537
896.499	0.0136985
896.578	0.0137463
896.656	0.0138217
896.734	0.0139160
896.812	0.0139588
896.890	0.0138712
896.968	0.0139759
897.046	0.0139611
897.124	0.0139718
897.203	0.0139464
897.281	0.0140066
897.359	0.0140085
897.437	0.0139962
897.515	0.0138523
897.593	0.0138622
897.671	0.0138329
897.749	0.0139021
897.828	0.0138319
897.906	0.0137938
897.984	0.0137726
898.062	0.0137105
898.140	0.0137648
898.218	0.0138415
898.296	0.0136560
898.374	0.0137112
898.453	0.0136868
898.531	0.0136310
898.609	0.0135716
898.687	0.0135449
898.765	0.0136676
898.843	0.0136350
898.921	0.0138142
898.999	0.0138290
899.078	0.0138650
899.156	0.0137661
899.234	0.0138750
899.312	0.0138674
899.390	0.0138419
899.468	0.0138086
899.546	0.0138091
899.624	0.0137548
899.703	0.0137892
899.781	0.0138207
899.859	0.0137825
899.937	0.0137353
900.015	0.0136878
900.093	0.0136758
900.171	0.0137241
900.249	0.0137773
900.328	0.0138544
900.406	0.0139351
900.484	0.0137424
900.562	0.0137401
900.640	0.0137956
900.718	0.0137260
900.796	0.0137592
900.874	0.0138210
900.953	0.0137957
901.031	0.0139020
901.109	0.0137955
901.187	0.0139030
901.265	0.0138822
901.343	0.0137862
901.421	0.0137000
901.499	0.0136407
901.578	0.0138538
901.656	0.0137568
901.734	0.0137382
901.812	0.0137983
901.890	0.0138078
901.968	0.0138203
902.046	0.0139053
902.124	0.0137949
902.203	0.0138383
902.281	0.0137448
902.359	0.0138766
902.437	0.0138497
902.515	0.0139470
902.593	0.0137334
902.671	0.0137643
902.749	0.0136203
902.828	0.0135217
902.906	0.0137077
902.984	0.0135885
903.062	0.0135675
903.140	0.0135586
903.218	0.0135343
903.296	0.0135481
903.374	0.0136548
903.453	0.0136409
903.531	0.0136307
903.609	0.0137108
903.687	0.0137548
903.765	0.0137634
903.843	0.0137896
903.921	0.0137121
903.999	0.0140078
904.078	0.0139552
904.156	0.0139144
904.234	0.0139424
904.312	0.0139675
904.390	0.0139412
904.468	0.0140144
904.546	0.0139188
904.624	0.0138700
904.703	0.0138390
904.781	0.0138493
904.859	0.0137683
904.937	0.0136992
905.015	0.0137207
905.093	0.0138383
905.171	0.0136850
905.249	0.0136320
905.328	0.0134950
905.406	0.0136819
905.484	0.0135938
905.562	0.0136955
905.640	0.0137438
905.718	0.0138317
905.796	0.0137862
905.874	0.0137722
905.953	0.0137637
906.031	0.0138853
906.109	0.0138981
906.187	0.0138148
906.265	0.0138326
906.343	0.0138444
906.421	0.0138372
906.499	0.0137212
906.578	0.0137168
906.656	0.0137778
906.734	0.0138123
906.812	0.0137782
906.890	0.0136608
906.968	0.0136324
907.046	0.0136734
907.124	0.0134933
907.203	0.0136633
907.281	0.0136611
907.359	0.0136872
907.437	0.0136604
907.515	0.0136216
907.593	0.0137897
907.671	0.0135927
907.749	0.0136475
907.828	0.0136129
907.906	0.0136526
907.984	0.0137785
908.062	0.0136111
908.140	0.0136825
908.218	0.0137001
908.296	0.0137492
908.374	0.0137594
908.453	0.0137452
908.531	0.0138289
908.609	0.0139073
908.687	0.0138268
908.765	0.0137832
908.843	0.0138071
908.921	0.0138752
908.999	0.0139195
909.078	0.0139587
909.156	0.0137893
909.234	0.0139757
909.312	0.0138920
909.390	0.0138694
909.468	0.0138529
909.546	0.0138416
909.624	0.0138187
909.703	0.0136543
909.781	0.0136950
909.859	0.0136821
909.937	0.0138111
910.015	0.0137460
910.093	0.0137212
910.171	0.0138530
910.249	0.0137474
910.328	0.0137275
910.406	0.0137748
910.484	0.0137629
910.562	0.0138364
910.640	0.0139803
910.718	0.0137756
910.796	0.0138120
910.874	0.0138657
910.953	0.0138741
911.031	0.0138115
911.109	0.0139240
911.187	0.0138364
911.265	0.0138000
911.343	0.0138306
911.421	0.0138052
911.499	0.0136437
911.578	0.0136515
911.656	0.0137642
911.734	0.0135741
911.812	0.0136711
911.890	0.0136427
911.968	0.0136301
912.046	0.0135696
912.124	0.0135867
912.203	0.0136456
912.281	0.0137434
912.359	0.0136584
912.437	0.0136677
912.515	0.0137257
912.593	0.0138876
912.671	0.0138825
912.749	0.0138132
912.828	0.0136913
912.906	0.0138641
912.984	0.0140631
913.062	0.0140443
913.140	0.0137619
913.218	0.0138297
913.296	0.0139513
913.374	0.0138810
913.453	0.0139410
913.531	0.0138940
913.609	0.0138198
913.687	0.0137814
913.765	0.0138507
913.843	0.0137807
913.921	0.0138051
913.999	0.0136396
914.078	0.0137012
914.156	0.0136074
914.234	0.0136652
914.312	0.0135787
914.390	0.0134525
914.468	0.0135040
914.546	0.0135432
914.624	0.0136771
914.703	0.0134731
914.781	0.0136105
914.859	0.0135963
914.937	0.0137768
915.015	0.0137061
915.093	0.0136783
915.171	0.0137241
915.249	0.0139554
915.328	0.0138167
915.406	0.0138661
915.484	0.0139607
915.562	0.0138720
915.640	0.0139285
915.718	0.0138672
915.796	0.0140639
915.874	0.0139642
915.953	0.0139497
916.031	0.0139686
916.109	0.0137449
916.187	0.0139019
916.265	0.0138462
916.343	0.0137053
916.421	0.0138457
916.499	0.0136823
916.578	0.0138546
916.656	0.0137419
916.734	0.0136624
916.812	0.0135686
916.890	0.0135445
916.968	0.0136195
917.046	0.0137111
917.124	0.0136739
917.203	0.0137738
917.281	0.0138362
917.359	0.0138465
917.437	0.0139928
917.515	0.0139199
917.593	0.0138969
917.671	0.0139677
917.749	0.0138778
917.828	0.0139780
917.906	0.0138969
917.984	0.0138361
918.062	0.0139310
918.140	0.0137463
918.218	0.0137971
918.296	0.0138055
918.374	0.0137728
918.453	0.0138668
918.531	0.0136266
918.609	0.0137115
918.687	0.0138486
918.765	0.0136697
918.843	0.0135706
918.921	0.0136278
918.999	0.0137236
919.078	0.0136510
919.156	0.0136931
919.234	0.0137113
919.312	0.0136025
919.390	0.0138029
919.468	0.0137543
919.546	0.0136001
919.624	0.0138337
919.703	0.0139116
919.781	0.0137461
919.859	0.0138748
919.937	0.0140110
