05/06/2022	18:51:59	Ver.	4.1	UNKNOWN
Optical Delay	600.015094	Delta X		0.078125	Sweeps	1	Scan Rate	0/0
Coordinates	Axis 1	NaN	Axis 2	NaN	Axis 3	NaN	Axis 4	NaN	Axis 5	NaN	Axis 6	0.000000
TX Power	0.000000	RX Power	0.000000

600.015	0.0136295
600.093	0.0134407
600.171	0.0136065
600.249	0.0136478
600.328	0.0136150
600.406	0.0137433
600.484	0.0137274
600.562	0.0136879
600.640	0.0135751
600.718	0.0136327
600.796	0.0136746
600.874	0.0134921
600.953	0.0135654
601.031	0.0135730
601.109	0.0136609
601.187	0.0137039
601.265	0.0136628
601.343	0.0136025
601.421	0.0136146
601.499	0.0136343
601.578	0.0135936
601.656	0.0136079
601.734	0.0136327
601.812	0.0136674
601.890	0.0135587
601.968	0.0135278
602.046	0.0134766
602.124	0.0136903
602.203	0.0134770
602.281	0.0135680
602.359	0.0135371
602.437	0.0135327
602.515	0.0137166
602.593	0.0135956
602.671	0.0137450
602.749	0.0137181
602.828	0.0136466
602.906	0.0135654
602.984	0.0136494
603.062	0.0135925
603.140	0.0137277
603.218	0.0136771
603.296	0.0137521
603.374	0.0135711
603.453	0.0136069
603.531	0.0136488
603.609	0.0134442
603.687	0.0136310
603.765	0.0136576
603.843	0.0136964
603.921	0.0137570
603.999	0.0137297
604.078	0.0136962
604.156	0.0136872
604.234	0.0136639
604.312	0.0135860
604.390	0.0134883
604.468	0.0135434
604.546	0.0137556
604.624	0.0137153
604.703	0.0136407
604.781	0.0135851
604.859	0.0134078
604.937	0.0136525
605.015	0.0136684
605.093	0.0136169
605.171	0.0136461
605.249	0.0135391
605.328	0.0135943
605.406	0.0136284
605.484	0.0135803
605.562	0.0135217
605.640	0.0136795
605.718	0.0136626
605.796	0.0136314
605.874	0.0134838
605.953	0.0136340
606.031	0.0137502
606.109	0.0135548
606.187	0.0137038
606.265	0.0137083
606.343	0.0137234
606.421	0.0136965
606.499	0.0137918
606.578	0.0136117
606.656	0.0135733
606.734	0.0135841
606.812	0.0136508
606.890	0.0136416
606.968	0.0137189
607.046	0.0137051
607.124	0.0135727
607.203	0.0135878
607.281	0.0135680
607.359	0.0137070
607.437	0.0135596
607.515	0.0137117
607.593	0.0137164
607.671	0.0136447
607.749	0.0136154
607.828	0.0135939
607.906	0.0135952
607.984	0.0135513
608.062	0.0135968
608.140	0.0136444
608.218	0.0136244
608.296	0.0135609
608.374	0.0135802
608.453	0.0137172
608.531	0.0135900
608.609	0.0135493
608.687	0.0136095
608.765	0.0136083
608.843	0.0135007
608.921	0.0136726
608.999	0.0136550
609.078	0.0135722
609.156	0.0136938
609.234	0.0135693
609.312	0.0134473
609.390	0.0136056
609.468	0.0137858
609.546	0.0135609
609.624	0.0135989
609.703	0.0136353
609.781	0.0135859
609.859	0.0135706
609.937	0.0137151
610.015	0.0137405
610.093	0.0136372
610.171	0.0136192
610.249	0.0136546
610.328	0.0136981
610.406	0.0137222
610.484	0.0135921
610.562	0.0135457
610.640	0.0137077
610.718	0.0136247
610.796	0.0136076
610.874	0.0136629
610.953	0.0135848
611.031	0.0136305
611.109	0.0137786
611.187	0.0137269
611.265	0.0135813
611.343	0.0135223
611.421	0.0135637
611.499	0.0137482
611.578	0.0137524
611.656	0.0137086
611.734	0.0136774
611.812	0.0135527
611.890	0.0136298
611.968	0.0135759
612.046	0.0137476
612.124	0.0136213
612.203	0.0136385
612.281	0.0135851
612.359	0.0137836
612.437	0.0136669
612.515	0.0136295
612.593	0.0135872
612.671	0.0136958
612.749	0.0135741
612.828	0.0135990
612.906	0.0135983
612.984	0.0136454
613.062	0.0135780
613.140	0.0135879
613.218	0.0136330
613.296	0.0136697
613.374	0.0136552
613.453	0.0137035
613.531	0.0135783
613.609	0.0136735
613.687	0.0136089
613.765	0.0136605
613.843	0.0135815
613.921	0.0137328
613.999	0.0135938
614.078	0.0136914
614.156	0.0135915
614.234	0.0137867
614.312	0.0135171
614.390	0.0136929
614.468	0.0137589
614.546	0.0137837
614.624	0.0135798
614.703	0.0138180
614.781	0.0135712
614.859	0.0135554
614.937	0.0136903
615.015	0.0137571
615.093	0.0137040
615.171	0.0135464
615.249	0.0137223
615.328	0.0137892
615.406	0.0137180
615.484	0.0135217
615.562	0.0137371
615.640	0.0136446
615.718	0.0137158
615.796	0.0136285
615.874	0.0136324
615.953	0.0135263
616.031	0.0137396
616.109	0.0136998
616.187	0.0137771
616.265	0.0136488
616.343	0.0137049
616.421	0.0137640
616.499	0.0137670
616.578	0.0135210
616.656	0.0136402
616.734	0.0137823
616.812	0.0136643
616.890	0.0136200
616.968	0.0135672
617.046	0.0137039
617.124	0.0135538
617.203	0.0135037
617.281	0.0136903
617.359	0.0137609
617.437	0.0136994
617.515	0.0135452
617.593	0.0135778
617.671	0.0137607
617.749	0.0136915
617.828	0.0135804
617.906	0.0136773
617.984	0.0136823
618.062	0.0137302
618.140	0.0136827
618.218	0.0135181
618.296	0.0134995
618.374	0.0136790
618.453	0.0135886
618.531	0.0137319
618.609	0.0137514
618.687	0.0135883
618.765	0.0136919
618.843	0.0135365
618.921	0.0135319
618.999	0.0136687
619.078	0.0137722
619.156	0.0138200
619.234	0.0135134
619.312	0.0135893
619.390	0.0134444
619.468	0.0136271
619.546	0.0136137
619.624	0.0137176
619.703	0.0135402
619.781	0.0136783
619.859	0.0136845
619.937	0.0136325
620.015	0.0135573
620.093	0.0135679
620.171	0.0136425
620.249	0.0136869
620.328	0.0136329
620.406	0.0136372
620.484	0.0137782
620.562	0.0137330
620.640	0.0135397
620.718	0.0135374
620.796	0.0137376
620.874	0.0136023
620.953	0.0136066
621.031	0.0136346
621.109	0.0135479
621.187	0.0137686
621.265	0.0137730
621.343	0.0136697
621.421	0.0135890
621.499	0.0137843
621.578	0.0137370
621.656	0.0136872
621.734	0.0137411
621.812	0.0137777
621.890	0.0136161
621.968	0.0136533
622.046	0.0137020
622.124	0.0136233
622.203	0.0136150
622.281	0.0135692
622.359	0.0134787
622.437	0.0136620
622.515	0.0137537
622.593	0.0135828
622.671	0.0135703
622.749	0.0137199
622.828	0.0137212
622.906	0.0136863
622.984	0.0136991
623.062	0.0137305
623.140	0.0135183
623.218	0.0136863
623.296	0.0137080
623.374	0.0135806
623.453	0.0136620
623.531	0.0136540
623.609	0.0137601
623.687	0.0136130
623.765	0.0136346
623.843	0.0136022
623.921	0.0137415
623.999	0.0136759
624.078	0.0137902
624.156	0.0135368
624.234	0.0136491
624.312	0.0136694
624.390	0.0135502
624.468	0.0136311
624.546	0.0136108
624.624	0.0137054
624.703	0.0137114
624.781	0.0136653
624.859	0.0136637
624.937	0.0136717
625.015	0.0135709
625.093	0.0136563
625.171	0.0137079
625.249	0.0136675
625.328	0.0137135
625.406	0.0136804
625.484	0.0136770
625.562	0.0137139
625.640	0.0135664
625.718	0.0137258
625.796	0.0136700
625.874	0.0135203
625.953	0.0137074
626.031	0.0137366
626.109	0.0136315
626.187	0.0136314
626.265	0.0137096
626.343	0.0138054
626.421	0.0136372
626.499	0.0136102
626.578	0.0136763
626.656	0.0137077
626.734	0.0135607
626.812	0.0135999
626.890	0.0138284
626.968	0.0135863
627.046	0.0136599
627.124	0.0135883
627.203	0.0136375
627.281	0.0136806
627.359	0.0136984
627.437	0.0136671
627.515	0.0134814
627.593	0.0135600
627.671	0.0137182
627.749	0.0136169
627.828	0.0137158
627.906	0.0137453
627.984	0.0135652
628.062	0.0135659
628.140	0.0136176
628.218	0.0137089
628.296	0.0136575
628.374	0.0136750
628.453	0.0135208
628.531	0.0135130
628.609	0.0135838
628.687	0.0135407
628.765	0.0135531
628.843	0.0136159
628.921	0.0136340
628.999	0.0136313
629.078	0.0135765
629.156	0.0135605
629.234	0.0136080
629.312	0.0138125
629.390	0.0135017
629.468	0.0137136
629.546	0.0136980
629.624	0.0135944
629.703	0.0135582
629.781	0.0136040
629.859	0.0136578
629.937	0.0136181
630.015	0.0136625
630.093	0.0136075
630.171	0.0135411
630.249	0.0137364
630.328	0.0137186
630.406	0.0135710
630.484	0.0137182
630.562	0.0138468
630.640	0.0137671
630.718	0.0136800
630.796	0.0137298
630.874	0.0135270
630.953	0.0135499
631.031	0.0136322
631.109	0.0136443
631.187	0.0135941
631.265	0.0137239
631.343	0.0136021
631.421	0.0135878
631.499	0.0136478
631.578	0.0136553
631.656	0.0135381
631.734	0.0136858
631.812	0.0136253
631.890	0.0135310
631.968	0.0135699
632.046	0.0137035
632.124	0.0137714
632.203	0.0135525
632.281	0.0136097
632.359	0.0136340
632.437	0.0137041
632.515	0.0135916
632.593	0.0136717
632.671	0.0135712
632.749	0.0136584
632.828	0.0137724
632.906	0.0137748
632.984	0.0136738
633.062	0.0136922
633.140	0.0135594
633.218	0.0134720
633.296	0.0135509
633.374	0.0137182
633.453	0.0136085
633.531	0.0136308
633.609	0.0136543
633.687	0.0136634
633.765	0.0135520
633.843	0.0134787
633.921	0.0136108
633.999	0.0135965
634.078	0.0136888
634.156	0.0136254
634.234	0.0136504
634.312	0.0136637
634.390	0.0136243
634.468	0.0137295
634.546	0.0136742
634.624	0.0137404
634.703	0.0137215
634.781	0.0136301
634.859	0.0137624
634.937	0.0136403
635.015	0.0136396
635.093	0.0137625
635.171	0.0135857
635.249	0.0136003
635.328	0.0136938
635.406	0.0137024
635.484	0.0137006
635.562	0.0136729
635.640	0.0136146
635.718	0.0136257
635.796	0.0136143
635.874	0.0136504
635.953	0.0137657
636.031	0.0136479
636.109	0.0136085
636.187	0.0137961
636.265	0.0136620
636.343	0.0135660
636.421	0.0137483
636.499	0.0136762
636.578	0.0137109
636.656	0.0137706
636.734	0.0135730
636.812	0.0137128
636.890	0.0136508
636.968	0.0136320
637.046	0.0137914
637.124	0.0137343
637.203	0.0136625
637.281	0.0135307
637.359	0.0136781
637.437	0.0136401
637.515	0.0136954
637.593	0.0136823
637.671	0.0136761
637.749	0.0135717
637.828	0.0136397
637.906	0.0136063
637.984	0.0137410
638.062	0.0137554
638.140	0.0135748
638.218	0.0135767
638.296	0.0136827
638.374	0.0136864
638.453	0.0136197
638.531	0.0136753
638.609	0.0137268
638.687	0.0135670
638.765	0.0136718
638.843	0.0138239
638.921	0.0136361
638.999	0.0136402
639.078	0.0136396
639.156	0.0136037
639.234	0.0137092
639.312	0.0137153
639.390	0.0136933
639.468	0.0135668
639.546	0.0137230
639.624	0.0137190
639.703	0.0136121
639.781	0.0137230
639.859	0.0137315
639.937	0.0136734
640.015	0.0136468
640.093	0.0137645
640.171	0.0137056
640.249	0.0136636
640.328	0.0136192
640.406	0.0135882
640.484	0.0136874
640.562	0.0134574
640.640	0.0136976
640.718	0.0136124
640.796	0.0136117
640.874	0.0136580
640.953	0.0136604
641.031	0.0136181
641.109	0.0136295
641.187	0.0137352
641.265	0.0136363
641.343	0.0136082
641.421	0.0135034
641.499	0.0137030
641.578	0.0136941
641.656	0.0134777
641.734	0.0135252
641.812	0.0136459
641.890	0.0136317
641.968	0.0136618
642.046	0.0137759
642.124	0.0136169
642.203	0.0135692
642.281	0.0135992
642.359	0.0137403
642.437	0.0136623
642.515	0.0136241
642.593	0.0136998
642.671	0.0136717
642.749	0.0135533
642.828	0.0135527
642.906	0.0135651
642.984	0.0137550
643.062	0.0137639
643.140	0.0137387
643.218	0.0135509
643.296	0.0135666
643.374	0.0136902
643.453	0.0136612
643.531	0.0137377
643.609	0.0136450
643.687	0.0136466
643.765	0.0137028
643.843	0.0134517
643.921	0.0135708
643.999	0.0135857
644.078	0.0135423
644.156	0.0136069
644.234	0.0136317
644.312	0.0135941
644.390	0.0134662
644.468	0.0136701
644.546	0.0135776
644.624	0.0135748
644.703	0.0134969
644.781	0.0135881
644.859	0.0137034
644.937	0.0137540
645.015	0.0137545
645.093	0.0135136
645.171	0.0137125
645.249	0.0136156
645.328	0.0135268
645.406	0.0136343
645.484	0.0136356
645.562	0.0136510
645.640	0.0136729
645.718	0.0137228
645.796	0.0136854
645.874	0.0137939
645.953	0.0137891
646.031	0.0136542
646.109	0.0137818
646.187	0.0137401
646.265	0.0135746
646.343	0.0136549
646.421	0.0135497
646.499	0.0135626
646.578	0.0138568
646.656	0.0136868
646.734	0.0136207
646.812	0.0136967
646.890	0.0136452
646.968	0.0135608
647.046	0.0136282
647.124	0.0135216
647.203	0.0135780
647.281	0.0135411
647.359	0.0136189
647.437	0.0136503
647.515	0.0136599
647.593	0.0137300
647.671	0.0136390
647.749	0.0136062
647.828	0.0135291
647.906	0.0137616
647.984	0.0137475
648.062	0.0135616
648.140	0.0135324
648.218	0.0137847
648.296	0.0137309
648.374	0.0137211
648.453	0.0137698
648.531	0.0135712
648.609	0.0135576
648.687	0.0136290
648.765	0.0137378
648.843	0.0136434
648.921	0.0137322
648.999	0.0135832
649.078	0.0135214
649.156	0.0135932
649.234	0.0136569
649.312	0.0137056
649.390	0.0136447
649.468	0.0137302
649.546	0.0135577
649.624	0.0134698
649.703	0.0136094
649.781	0.0136865
649.859	0.0137220
649.937	0.0136630
650.015	0.0136061
650.093	0.0137516
650.171	0.0137257
650.249	0.0137282
650.328	0.0136922
650.406	0.0135971
650.484	0.0137184
650.562	0.0136620
650.640	0.0136667
650.718	0.0135969
650.796	0.0136404
650.874	0.0136050
650.953	0.0136825
651.031	0.0135637
651.109	0.0135877
651.187	0.0135856
651.265	0.0136086
651.343	0.0135764
651.421	0.0136530
651.499	0.0135700
651.578	0.0136641
651.656	0.0136446
651.734	0.0136669
651.812	0.0134390
651.890	0.0136907
651.968	0.0136296
652.046	0.0136212
652.124	0.0136834
652.203	0.0136451
652.281	0.0135507
652.359	0.0135986
652.437	0.0136894
652.515	0.0137213
652.593	0.0135474
652.671	0.0135215
652.749	0.0134879
652.828	0.0134663
652.906	0.0135561
652.984	0.0136448
653.062	0.0135794
653.140	0.0136546
653.218	0.0136844
653.296	0.0136108
653.374	0.0135300
653.453	0.0135825
653.531	0.0135987
653.609	0.0136231
653.687	0.0136332
653.765	0.0136282
653.843	0.0136613
653.921	0.0136222
653.999	0.0136964
654.078	0.0136256
654.156	0.0135538
654.234	0.0136272
654.312	0.0136228
654.390	0.0136588
654.468	0.0135251
654.546	0.0135894
654.624	0.0136543
654.703	0.0135738
654.781	0.0135354
654.859	0.0137223
654.937	0.0137276
655.015	0.0134814
655.093	0.0135728
655.171	0.0136673
655.249	0.0135656
655.328	0.0136172
655.406	0.0134877
655.484	0.0136189
655.562	0.0135918
655.640	0.0137108
655.718	0.0136822
655.796	0.0135516
655.874	0.0135320
655.953	0.0135755
656.031	0.0135833
656.109	0.0135999
656.187	0.0136110
656.265	0.0135307
656.343	0.0133916
656.421	0.0135123
656.499	0.0136753
656.578	0.0137560
656.656	0.0135918
656.734	0.0135320
656.812	0.0136091
656.890	0.0136062
656.968	0.0136133
657.046	0.0137001
657.124	0.0136347
657.203	0.0134199
657.281	0.0136374
657.359	0.0137646
657.437	0.0136418
657.515	0.0135812
657.593	0.0135958
657.671	0.0136892
657.749	0.0135541
657.828	0.0136373
657.906	0.0136667
657.984	0.0137482
658.062	0.0136111
658.140	0.0135986
658.218	0.0137865
658.296	0.0136588
658.374	0.0137334
658.453	0.0136442
658.531	0.0136329
658.609	0.0136790
658.687	0.0135885
658.765	0.0137199
658.843	0.0136707
658.921	0.0136280
658.999	0.0135161
659.078	0.0136066
659.156	0.0137347
659.234	0.0136337
659.312	0.0137048
659.390	0.0136595
659.468	0.0135567
659.546	0.0136890
659.624	0.0137862
659.703	0.0136170
659.781	0.0135805
659.859	0.0136469
659.937	0.0136828
660.015	0.0136288
660.093	0.0135035
660.171	0.0136231
660.249	0.0136120
660.328	0.0136150
660.406	0.0136347
660.484	0.0135402
660.562	0.0136475
660.640	0.0135275
660.718	0.0136127
660.796	0.0136112
660.874	0.0135201
660.953	0.0135440
661.031	0.0136034
661.109	0.0136346
661.187	0.0136345
661.265	0.0136003
661.343	0.0134729
661.421	0.0134062
661.499	0.0136646
661.578	0.0136278
661.656	0.0136983
661.734	0.0135732
661.812	0.0135288
661.890	0.0134904
661.968	0.0136126
662.046	0.0135473
662.124	0.0136194
662.203	0.0135960
662.281	0.0135281
662.359	0.0136654
662.437	0.0135840
662.515	0.0136642
662.593	0.0135681
662.671	0.0136031
662.749	0.0136777
662.828	0.0137593
662.906	0.0137289
662.984	0.0135701
663.062	0.0136516
663.140	0.0137097
663.218	0.0136253
663.296	0.0133961
663.374	0.0135216
663.453	0.0137003
663.531	0.0135444
663.609	0.0135719
663.687	0.0134957
663.765	0.0136111
663.843	0.0135409
663.921	0.0135804
663.999	0.0134495
664.078	0.0134904
664.156	0.0134713
664.234	0.0135432
664.312	0.0136585
664.390	0.0136874
664.468	0.0135881
664.546	0.0136235
664.624	0.0136495
664.703	0.0137092
664.781	0.0135878
664.859	0.0134598
664.937	0.0136826
665.015	0.0135982
665.093	0.0136997
665.171	0.0135146
665.249	0.0136845
665.328	0.0134718
665.406	0.0135589
665.484	0.0136012
665.562	0.0137091
665.640	0.0134510
665.718	0.0134364
665.796	0.0135777
665.874	0.0136569
665.953	0.0135793
666.031	0.0136074
666.109	0.0137756
666.187	0.0136372
666.265	0.0137827
666.343	0.0136292
666.421	0.0136401
666.499	0.0136443
666.578	0.0136728
666.656	0.0137171
666.734	0.0137329
666.812	0.0136585
666.890	0.0135347
666.968	0.0135152
667.046	0.0135975
667.124	0.0135667
667.203	0.0135801
667.281	0.0135329
667.359	0.0135730
667.437	0.0135562
667.515	0.0134230
667.593	0.0135548
667.671	0.0134630
667.749	0.0135835
667.828	0.0135393
667.906	0.0136236
667.984	0.0135386
668.062	0.0134085
668.140	0.0134818
668.218	0.0136111
668.296	0.0135136
668.374	0.0136068
668.453	0.0136201
668.531	0.0134678
668.609	0.0135675
668.687	0.0136040
668.765	0.0136325
668.843	0.0136086
668.921	0.0138097
668.999	0.0137474
669.078	0.0136352
669.156	0.0137973
669.234	0.0137740
669.312	0.0135310
669.390	0.0137384
669.468	0.0137627
669.546	0.0138093
669.624	0.0136424
669.703	0.0135203
669.781	0.0135949
669.859	0.0134215
669.937	0.0133860
670.015	0.0134713
670.093	0.0134470
670.171	0.0133604
670.249	0.0133821
670.328	0.0135207
670.406	0.0134129
670.484	0.0135785
670.562	0.0135961
670.640	0.0137714
670.718	0.0137846
670.796	0.0137973
670.874	0.0138771
670.953	0.0138239
671.031	0.0138083
671.109	0.0136623
671.187	0.0137086
671.265	0.0137589
671.343	0.0136102
671.421	0.0137037
671.499	0.0136375
671.578	0.0134753
671.656	0.0132714
671.734	0.0132734
671.812	0.0133485
671.890	0.0133901
671.968	0.0133503
672.046	0.0132995
672.124	0.0133117
672.203	0.0134894
672.281	0.0136143
672.359	0.0136693
672.437	0.0136594
672.515	0.0137001
672.593	0.0139195
672.671	0.0139249
672.749	0.0139400
672.828	0.0140036
672.906	0.0139038
672.984	0.0138176
673.062	0.0136456
673.140	0.0134480
673.218	0.0134655
673.296	0.0135002
673.374	0.0135356
673.453	0.0132532
673.531	0.0133223
673.609	0.0134262
673.687	0.0135660
673.765	0.0135139
673.843	0.0134571
673.921	0.0136298
673.999	0.0136346
674.078	0.0136551
674.156	0.0137473
674.234	0.0136436
674.312	0.0138630
674.390	0.0139175
674.468	0.0139328
674.546	0.0139906
674.624	0.0141297
674.703	0.0139762
674.781	0.0138231
674.859	0.0139259
674.937	0.0139498
675.015	0.0139165
675.093	0.0137486
675.171	0.0137598
675.249	0.0135844
675.328	0.0135872
675.406	0.0136639
675.484	0.0135237
675.562	0.0135426
675.640	0.0135370
675.718	0.0134319
675.796	0.0133199
675.874	0.0132655
675.953	0.0132474
676.031	0.0133697
676.109	0.0134827
676.187	0.0133596
676.265	0.0134642
676.343	0.0134270
676.421	0.0135890
676.499	0.0136378
676.578	0.0136910
676.656	0.0136137
676.734	0.0137437
676.812	0.0138832
676.890	0.0138110
676.968	0.0138361
677.046	0.0138326
677.124	0.0138983
677.203	0.0137836
677.281	0.0139585
677.359	0.0138546
677.437	0.0136906
677.515	0.0136441
677.593	0.0136721
677.671	0.0136782
677.749	0.0136154
677.828	0.0136452
677.906	0.0135586
677.984	0.0136009
678.062	0.0137171
678.140	0.0136151
678.218	0.0136234
678.296	0.0137896
678.374	0.0139800
678.453	0.0138681
678.531	0.0139275
678.609	0.0137469
678.687	0.0139029
678.765	0.0140961
678.843	0.0140465
678.921	0.0139810
678.999	0.0139626
679.078	0.0138544
679.156	0.0138737
679.234	0.0137614
679.312	0.0135770
679.390	0.0135834
679.468	0.0136624
679.546	0.0134039
679.624	0.0134161
679.703	0.0132983
679.781	0.0131985
679.859	0.0132101
679.937	0.0132773
680.015	0.0132124
680.093	0.0131682
680.171	0.0133583
680.249	0.0134595
680.328	0.0133804
680.406	0.0135870
680.484	0.0136668
680.562	0.0136314
680.640	0.0137336
680.718	0.0137460
680.796	0.0138239
680.874	0.0136969
680.953	0.0138307
681.031	0.0136282
681.109	0.0136297
681.187	0.0137445
681.265	0.0138554
681.343	0.0136491
681.421	0.0137073
681.499	0.0137130
681.578	0.0138960
681.656	0.0138007
681.734	0.0137149
681.812	0.0137883
681.890	0.0139207
681.968	0.0137389
682.046	0.0138358
682.124	0.0137757
682.203	0.0137166
682.281	0.0137759
682.359	0.0136551
682.437	0.0136769
682.515	0.0137522
682.593	0.0138766
682.671	0.0136784
682.749	0.0137695
682.828	0.0138456
682.906	0.0138550
682.984	0.0138293
683.062	0.0138547
683.140	0.0138831
683.218	0.0139346
683.296	0.0139459
683.374	0.0139819
683.453	0.0138267
683.531	0.0136797
683.609	0.0136739
683.687	0.0137956
683.765	0.0137386
683.843	0.0136927
683.921	0.0134792
683.999	0.0136212
684.078	0.0136034
684.156	0.0135432
684.234	0.0134527
684.312	0.0134806
684.390	0.0132829
684.468	0.0134402
684.546	0.0132182
684.624	0.0131908
684.703	0.0131991
684.781	0.0128798
684.859	0.0129262
684.937	0.0128422
685.015	0.0128875
685.093	0.0127713
685.171	0.0127563
685.249	0.0126705
685.328	0.0129130
685.406	0.0130679
685.484	0.0132696
685.562	0.0132326
685.640	0.0135423
685.718	0.0136654
685.796	0.0138618
685.874	0.0141165
685.953	0.0141960
686.031	0.0144482
686.109	0.0145255
686.187	0.0147811
686.265	0.0146481
686.343	0.0148160
686.421	0.0148774
686.499	0.0147061
686.578	0.0148378
686.656	0.0148024
686.734	0.0146767
686.812	0.0146202
686.890	0.0144731
686.968	0.0143700
687.046	0.0142145
687.124	0.0139589
687.203	0.0139281
687.281	0.0138515
687.359	0.0136749
687.437	0.0136038
687.515	0.0135619
687.593	0.0135158
687.671	0.0134812
687.749	0.0133748
687.828	0.0133200
687.906	0.0132893
687.984	0.0133822
688.062	0.0132182
688.140	0.0132233
688.218	0.0132232
688.296	0.0131876
688.374	0.0131904
688.453	0.0130087
688.531	0.0130726
688.609	0.0129333
688.687	0.0129867
688.765	0.0130789
688.843	0.0128476
688.921	0.0129139
688.999	0.0128088
689.078	0.0128562
689.156	0.0128765
689.234	0.0127962
689.312	0.0126621
689.390	0.0127589
689.468	0.0127534
689.546	0.0126936
689.624	0.0127500
689.703	0.0128162
689.781	0.0130039
689.859	0.0130336
689.937	0.0132340
690.015	0.0132401
690.093	0.0133793
690.171	0.0136351
690.249	0.0137444
690.328	0.0139986
690.406	0.0142688
690.484	0.0144492
690.562	0.0146233
690.640	0.0146991
690.718	0.0148190
690.796	0.0150506
690.874	0.0151650
690.953	0.0151551
691.031	0.0152108
691.109	0.0153268
691.187	0.0153810
691.265	0.0151528
691.343	0.0151610
691.421	0.0149074
691.499	0.0146964
691.578	0.0143334
691.656	0.0141869
691.734	0.0139042
691.812	0.0137628
691.890	0.0136775
691.968	0.0133959
692.046	0.0131976
692.124	0.0131135
692.203	0.0131994
692.281	0.0132430
692.359	0.0131213
692.437	0.0131783
692.515	0.0133755
692.593	0.0132109
692.671	0.0133046
692.749	0.0134015
692.828	0.0132648
692.906	0.0131973
692.984	0.0133180
693.062	0.0131187
693.140	0.0130354
693.218	0.0130673
693.296	0.0130891
693.374	0.0127762
693.453	0.0127811
693.531	0.0126733
693.609	0.0126818
693.687	0.0123610
693.765	0.0122717
693.843	0.0122408
693.921	0.0122822
693.999	0.0121587
694.078	0.0122259
694.156	0.0122636
694.234	0.0121723
694.312	0.0122965
694.390	0.0123708
694.468	0.0127077
694.546	0.0128099
694.624	0.0131125
694.703	0.0135289
694.781	0.0137313
694.859	0.0138799
694.937	0.0142912
695.015	0.0145020
695.093	0.0147175
695.171	0.0151673
695.249	0.0154659
695.328	0.0157934
695.406	0.0159906
695.484	0.0160712
695.562	0.0163152
695.640	0.0163661
695.718	0.0165070
695.796	0.0162981
695.874	0.0161254
695.953	0.0160989
696.031	0.0157568
696.109	0.0155819
696.187	0.0151758
696.265	0.0150307
696.343	0.0144354
696.421	0.0140565
696.499	0.0138797
696.578	0.0134555
696.656	0.0131786
696.734	0.0129800
696.812	0.0127423
696.890	0.0125812
696.968	0.0124570
697.046	0.0123682
697.124	0.0123502
697.203	0.0122780
697.281	0.0124300
697.359	0.0124284
697.437	0.0122726
697.515	0.0122488
697.593	0.0123266
697.671	0.0123436
697.749	0.0121764
697.828	0.0123376
697.906	0.0123920
697.984	0.0123574
698.062	0.0123393
698.140	0.0123963
698.218	0.0124523
698.296	0.0124628
698.374	0.0125794
698.453	0.0126189
698.531	0.0127075
698.609	0.0127304
698.687	0.0126846
698.765	0.0128391
698.843	0.0129581
698.921	0.0130018
698.999	0.0130643
699.078	0.0131338
699.156	0.0131774
699.234	0.0131850
699.312	0.0133289
699.390	0.0133977
699.468	0.0137036
699.546	0.0137779
699.624	0.0141029
699.703	0.0141451
699.781	0.0145447
699.859	0.0148892
699.937	0.0150881
700.015	0.0154787
700.093	0.0157056
700.171	0.0159930
700.249	0.0162126
700.328	0.0162225
700.406	0.0163680
700.484	0.0163802
700.562	0.0165875
700.640	0.0162862
700.718	0.0163761
700.796	0.0160357
700.874	0.0158497
700.953	0.0153523
701.031	0.0151223
701.109	0.0145390
701.187	0.0140615
701.265	0.0137321
701.343	0.0134006
701.421	0.0129646
701.499	0.0125882
701.578	0.0124332
701.656	0.0122821
701.734	0.0121912
701.812	0.0120710
701.890	0.0120107
701.968	0.0120925
702.046	0.0122012
702.124	0.0123413
702.203	0.0123051
702.281	0.0123688
702.359	0.0125301
702.437	0.0124520
702.515	0.0123781
702.593	0.0122726
702.671	0.0123279
702.749	0.0122955
702.828	0.0122718
702.906	0.0122170
702.984	0.0122485
703.062	0.0123436
703.140	0.0123777
703.218	0.0125835
703.296	0.0127464
703.374	0.0128896
703.453	0.0130252
703.531	0.0131263
703.609	0.0132813
703.687	0.0135430
703.765	0.0135513
703.843	0.0136822
703.921	0.0136942
703.999	0.0138357
704.078	0.0140456
704.156	0.0140476
704.234	0.0142387
704.312	0.0141954
704.390	0.0142577
704.468	0.0144672
704.546	0.0145134
704.624	0.0146181
704.703	0.0148419
704.781	0.0149324
704.859	0.0150739
704.937	0.0152097
705.015	0.0154221
705.093	0.0156105
705.171	0.0156953
705.249	0.0155315
705.328	0.0156792
705.406	0.0157198
705.484	0.0156155
705.562	0.0155721
705.640	0.0153783
705.718	0.0150992
705.796	0.0149148
705.874	0.0145646
705.953	0.0144442
706.031	0.0141009
706.109	0.0137098
706.187	0.0134387
706.265	0.0132060
706.343	0.0128546
706.421	0.0125627
706.499	0.0125655
706.578	0.0124525
706.656	0.0122112
706.734	0.0122076
706.812	0.0122401
706.890	0.0123635
706.968	0.0123206
707.046	0.0125216
707.124	0.0125003
707.203	0.0125407
707.281	0.0126658
707.359	0.0124236
707.437	0.0125258
707.515	0.0125523
707.593	0.0125203
707.671	0.0124884
707.749	0.0125149
707.828	0.0125589
707.906	0.0126873
707.984	0.0126271
708.062	0.0129591
708.140	0.0128732
708.218	0.0130018
708.296	0.0132540
708.374	0.0132983
708.453	0.0132971
708.531	0.0136507
708.609	0.0137412
708.687	0.0138183
708.765	0.0141208
708.843	0.0141120
708.921	0.0141280
708.999	0.0141770
709.078	0.0141642
709.156	0.0140988
709.234	0.0142902
709.312	0.0141090
709.390	0.0141634
709.468	0.0140764
709.546	0.0141872
709.624	0.0143884
709.703	0.0143533
709.781	0.0144730
709.859	0.0147752
709.937	0.0149477
710.015	0.0150716
710.093	0.0151637
710.171	0.0152184
710.249	0.0154594
710.328	0.0154941
710.406	0.0155328
710.484	0.0154924
710.562	0.0152570
710.640	0.0149451
710.718	0.0148251
710.796	0.0146404
710.874	0.0144641
710.953	0.0141972
711.031	0.0135339
711.109	0.0132475
711.187	0.0130473
711.265	0.0129070
711.343	0.0124494
711.421	0.0124933
711.499	0.0122777
711.578	0.0121987
711.656	0.0120548
711.734	0.0120849
711.812	0.0122345
711.890	0.0123335
711.968	0.0122598
712.046	0.0124951
712.124	0.0122898
712.203	0.0121985
712.281	0.0123952
712.359	0.0124036
712.437	0.0123997
712.515	0.0124928
712.593	0.0123907
712.671	0.0124912
712.749	0.0124912
712.828	0.0126549
712.906	0.0128530
712.984	0.0128867
713.062	0.0129994
713.140	0.0132961
713.218	0.0135692
713.296	0.0137025
713.374	0.0138502
713.453	0.0141431
713.531	0.0141862
713.609	0.0142953
713.687	0.0145999
713.765	0.0146838
713.843	0.0146918
713.921	0.0147320
713.999	0.0147601
714.078	0.0146655
714.156	0.0145574
714.234	0.0144142
714.312	0.0143324
714.390	0.0144444
714.468	0.0142804
714.546	0.0142870
714.624	0.0142553
714.703	0.0143331
714.781	0.0143128
714.859	0.0144400
714.937	0.0143803
715.015	0.0145982
715.093	0.0147282
715.171	0.0147066
715.249	0.0146651
715.328	0.0147163
715.406	0.0146787
715.484	0.0144475
715.562	0.0144147
715.640	0.0140775
715.718	0.0141136
715.796	0.0138234
715.874	0.0135369
715.953	0.0131361
716.031	0.0128876
716.109	0.0128381
716.187	0.0126185
716.265	0.0124812
716.343	0.0123058
716.421	0.0124335
716.499	0.0123421
716.578	0.0122248
716.656	0.0122566
716.734	0.0124261
716.812	0.0126166
716.890	0.0127178
716.968	0.0127274
717.046	0.0129160
717.124	0.0129824
717.203	0.0130224
717.281	0.0132531
717.359	0.0131628
717.437	0.0131723
717.515	0.0130446
717.593	0.0131815
717.671	0.0131835
717.749	0.0130076
717.828	0.0132283
717.906	0.0132998
717.984	0.0133891
718.062	0.0134755
718.140	0.0135719
718.218	0.0137694
718.296	0.0138987
718.374	0.0140419
718.453	0.0142486
718.531	0.0142323
718.609	0.0144235
718.687	0.0144708
718.765	0.0146072
718.843	0.0146989
718.921	0.0145221
718.999	0.0146597
719.078	0.0146423
719.156	0.0144933
719.234	0.0144072
719.312	0.0142432
719.390	0.0142662
719.468	0.0139855
719.546	0.0140607
719.624	0.0138060
719.703	0.0137762
719.781	0.0136532
719.859	0.0136672
719.937	0.0136113
720.015	0.0135924
720.093	0.0136885
720.171	0.0136311
720.249	0.0136475
720.328	0.0137509
720.406	0.0139832
720.484	0.0138451
720.562	0.0138129
720.640	0.0136929
720.718	0.0138247
720.796	0.0138923
720.874	0.0136919
720.953	0.0136143
721.031	0.0135133
721.109	0.0134165
721.187	0.0133972
721.265	0.0132964
721.343	0.0133447
721.421	0.0134251
721.499	0.0132396
721.578	0.0132973
721.656	0.0134430
721.734	0.0133752
721.812	0.0133427
721.890	0.0134083
721.968	0.0134378
722.046	0.0134009
722.124	0.0132524
722.203	0.0132592
722.281	0.0132154
722.359	0.0131542
722.437	0.0129232
722.515	0.0129380
722.593	0.0130118
722.671	0.0129029
722.749	0.0130964
722.828	0.0131073
722.906	0.0130057
722.984	0.0131437
723.062	0.0133348
723.140	0.0134303
723.218	0.0136591
723.296	0.0138484
723.374	0.0139589
723.453	0.0141612
723.531	0.0142286
723.609	0.0143966
723.687	0.0145153
723.765	0.0145652
723.843	0.0145963
723.921	0.0144781
723.999	0.0143997
724.078	0.0144901
724.156	0.0143452
724.234	0.0140208
724.312	0.0139156
724.390	0.0137746
724.468	0.0135984
724.546	0.0134304
724.624	0.0133655
724.703	0.0131026
724.781	0.0131799
724.859	0.0132468
724.937	0.0132050
725.015	0.0132183
725.093	0.0133990
725.171	0.0135354
725.249	0.0135982
725.328	0.0138461
725.406	0.0139877
725.484	0.0139610
725.562	0.0139603
725.640	0.0140524
725.718	0.0140292
725.796	0.0142071
725.874	0.0139335
725.953	0.0139352
726.031	0.0137325
726.109	0.0136272
726.187	0.0138148
726.265	0.0137217
726.343	0.0135136
726.421	0.0134718
726.499	0.0133829
726.578	0.0133333
726.656	0.0132472
726.734	0.0132307
726.812	0.0131526
726.890	0.0132607
726.968	0.0132159
727.046	0.0132029
727.124	0.0132684
727.203	0.0131973
727.281	0.0132191
727.359	0.0132295
727.437	0.0131171
727.515	0.0131023
727.593	0.0129700
727.671	0.0130317
727.749	0.0131923
727.828	0.0132111
727.906	0.0132774
727.984	0.0133277
728.062	0.0135782
728.140	0.0136194
728.218	0.0138041
728.296	0.0138839
728.374	0.0141369
728.453	0.0141309
728.531	0.0143857
728.609	0.0143262
728.687	0.0145471
728.765	0.0144964
728.843	0.0145082
728.921	0.0145364
728.999	0.0142839
729.078	0.0142163
729.156	0.0139977
729.234	0.0137600
729.312	0.0135286
729.390	0.0134071
729.468	0.0134293
729.546	0.0132808
729.624	0.0130863
729.703	0.0130676
729.781	0.0130081
729.859	0.0130289
729.937	0.0130798
730.015	0.0131766
730.093	0.0133849
730.171	0.0134081
730.249	0.0137098
730.328	0.0137094
730.406	0.0137892
730.484	0.0139865
730.562	0.0140752
730.640	0.0142000
730.718	0.0141867
730.796	0.0140942
730.874	0.0141355
730.953	0.0140641
731.031	0.0139709
731.109	0.0137977
731.187	0.0137736
731.265	0.0136069
731.343	0.0136813
731.421	0.0134079
731.499	0.0134985
731.578	0.0133954
731.656	0.0131397
731.734	0.0132092
731.812	0.0131894
731.890	0.0130238
731.968	0.0130097
732.046	0.0131010
732.124	0.0131072
732.203	0.0131222
732.281	0.0132721
732.359	0.0132860
732.437	0.0133338
732.515	0.0134940
732.593	0.0134176
732.671	0.0136290
732.749	0.0139231
732.828	0.0139175
732.906	0.0140630
732.984	0.0140876
733.062	0.0142118
733.140	0.0141867
733.218	0.0142529
733.296	0.0143663
733.374	0.0144171
733.453	0.0144802
733.531	0.0143765
733.609	0.0142512
733.687	0.0140793
733.765	0.0139752
733.843	0.0140023
733.921	0.0136469
733.999	0.0134874
734.078	0.0132974
734.156	0.0132980
734.234	0.0131036
734.312	0.0131105
734.390	0.0130585
734.468	0.0130467
734.546	0.0130260
734.624	0.0128645
734.703	0.0128844
734.781	0.0129769
734.859	0.0129752
734.937	0.0131818
735.015	0.0133131
735.093	0.0133737
735.171	0.0135033
735.249	0.0136410
735.328	0.0137980
735.406	0.0138454
735.484	0.0138718
735.562	0.0140089
735.640	0.0141697
735.718	0.0141443
735.796	0.0141409
735.874	0.0142491
735.953	0.0141447
736.031	0.0141241
736.109	0.0141608
736.187	0.0140089
736.265	0.0139528
736.343	0.0139692
736.421	0.0138387
736.499	0.0136914
736.578	0.0135733
736.656	0.0134190
736.734	0.0135184
736.812	0.0133717
736.890	0.0134270
736.968	0.0134662
737.046	0.0133376
737.124	0.0132941
737.203	0.0133087
737.281	0.0133705
737.359	0.0133284
737.437	0.0134284
737.515	0.0134838
737.593	0.0134870
737.671	0.0135829
737.749	0.0135733
737.828	0.0137069
737.906	0.0138193
737.984	0.0137522
738.062	0.0138766
738.140	0.0139966
738.218	0.0139752
738.296	0.0137968
738.374	0.0140163
738.453	0.0139605
738.531	0.0139002
738.609	0.0139297
738.687	0.0138174
738.765	0.0136935
738.843	0.0136473
738.921	0.0136919
738.999	0.0135163
739.078	0.0134502
739.156	0.0134290
739.234	0.0132422
739.312	0.0130670
739.390	0.0130529
739.468	0.0130062
739.546	0.0130849
739.624	0.0132131
739.703	0.0131264
739.781	0.0130818
739.859	0.0132179
739.937	0.0133348
740.015	0.0133904
740.093	0.0135181
740.171	0.0136208
740.249	0.0137949
740.328	0.0139262
740.406	0.0139327
740.484	0.0138857
740.562	0.0139532
740.640	0.0141716
740.718	0.0142315
740.796	0.0141355
740.874	0.0140642
740.953	0.0140070
741.031	0.0140029
741.109	0.0140015
741.187	0.0139715
741.265	0.0136786
741.343	0.0136395
741.421	0.0135850
741.499	0.0132848
741.578	0.0133879
741.656	0.0133669
741.734	0.0133119
741.812	0.0132492
741.890	0.0132826
741.968	0.0131703
742.046	0.0132249
742.124	0.0132791
742.203	0.0132141
742.281	0.0132388
742.359	0.0133029
742.437	0.0134486
742.515	0.0134578
742.593	0.0135297
742.671	0.0135390
742.749	0.0136203
742.828	0.0137345
742.906	0.0137191
742.984	0.0138711
743.062	0.0138159
743.140	0.0137571
743.218	0.0138634
743.296	0.0139114
743.374	0.0139326
743.453	0.0140245
743.531	0.0138731
743.609	0.0138892
743.687	0.0138857
743.765	0.0138874
743.843	0.0138334
743.921	0.0137480
743.999	0.0136741
744.078	0.0136795
744.156	0.0136713
744.234	0.0134973
744.312	0.0135513
744.390	0.0135207
744.468	0.0134539
744.546	0.0134991
744.624	0.0134021
744.703	0.0133772
744.781	0.0133894
744.859	0.0134685
744.937	0.0135775
745.015	0.0134485
745.093	0.0135512
745.171	0.0136654
745.249	0.0138436
745.328	0.0138446
745.406	0.0139370
745.484	0.0139700
745.562	0.0139532
745.640	0.0137880
745.718	0.0139367
745.796	0.0140195
745.874	0.0139046
745.953	0.0137290
746.031	0.0138004
746.109	0.0136214
746.187	0.0136195
746.265	0.0135544
746.343	0.0135300
746.421	0.0134209
746.499	0.0134401
746.578	0.0135239
746.656	0.0133443
746.734	0.0134636
746.812	0.0133618
746.890	0.0133627
746.968	0.0134604
747.046	0.0133826
747.124	0.0134371
747.203	0.0134686
747.281	0.0134599
747.359	0.0135772
747.437	0.0136033
747.515	0.0136345
747.593	0.0135916
747.671	0.0138321
747.749	0.0137799
747.828	0.0138148
747.906	0.0138220
747.984	0.0139784
748.062	0.0139328
748.140	0.0137141
748.218	0.0139463
748.296	0.0140416
748.374	0.0138922
748.453	0.0139500
748.531	0.0137132
748.609	0.0136810
748.687	0.0139049
748.765	0.0138024
748.843	0.0136847
748.921	0.0135928
748.999	0.0137376
749.078	0.0136019
749.156	0.0135394
749.234	0.0133755
749.312	0.0135658
749.390	0.0134488
749.468	0.0134016
749.546	0.0133157
749.624	0.0134399
749.703	0.0133173
749.781	0.0135093
749.859	0.0134962
749.937	0.0135236
750.015	0.0135220
750.093	0.0135397
750.171	0.0135398
750.249	0.0136381
750.328	0.0136073
750.406	0.0137219
750.484	0.0137476
750.562	0.0138514
750.640	0.0137467
750.718	0.0136894
750.796	0.0137495
750.874	0.0137707
750.953	0.0138230
751.031	0.0137814
751.109	0.0137344
751.187	0.0137939
751.265	0.0136513
751.343	0.0138953
751.421	0.0137661
751.499	0.0138770
751.578	0.0136494
751.656	0.0137560
751.734	0.0136523
751.812	0.0135946
751.890	0.0136018
751.968	0.0135822
752.046	0.0134252
752.124	0.0134195
752.203	0.0137020
752.281	0.0135827
752.359	0.0135744
752.437	0.0132697
752.515	0.0134999
752.593	0.0136143
752.671	0.0135027
752.749	0.0135123
752.828	0.0136760
752.906	0.0135658
752.984	0.0137649
753.062	0.0137321
753.140	0.0138099
753.218	0.0137667
753.296	0.0136688
753.374	0.0137240
753.453	0.0137920
753.531	0.0138448
753.609	0.0137124
753.687	0.0137805
753.765	0.0138836
753.843	0.0136427
753.921	0.0136292
753.999	0.0136130
754.078	0.0136786
754.156	0.0136417
754.234	0.0135967
754.312	0.0136214
754.390	0.0136802
754.468	0.0135635
754.546	0.0135694
754.624	0.0136461
754.703	0.0137999
754.781	0.0136369
754.859	0.0136682
754.937	0.0135848
755.015	0.0137673
755.093	0.0136443
755.171	0.0137068
755.249	0.0136292
755.328	0.0135632
755.406	0.0137217
755.484	0.0136553
755.562	0.0137564
755.640	0.0137068
755.718	0.0136412
755.796	0.0136208
755.874	0.0137646
755.953	0.0137067
756.031	0.0137912
756.109	0.0137752
756.187	0.0140121
756.265	0.0138638
756.343	0.0137228
756.421	0.0137719
756.499	0.0137370
756.578	0.0137642
756.656	0.0136001
756.734	0.0135613
756.812	0.0137691
756.890	0.0137225
756.968	0.0135535
757.046	0.0136043
757.124	0.0133661
757.203	0.0134842
757.281	0.0135662
757.359	0.0134676
757.437	0.0133217
757.515	0.0132888
757.593	0.0133764
757.671	0.0134861
757.749	0.0133909
757.828	0.0133098
757.906	0.0135480
757.984	0.0136667
758.062	0.0135403
758.140	0.0135381
758.218	0.0135184
758.296	0.0136006
758.374	0.0136195
758.453	0.0137696
758.531	0.0136572
758.609	0.0136121
758.687	0.0136878
758.765	0.0138413
758.843	0.0138216
758.921	0.0138017
758.999	0.0138909
759.078	0.0139028
759.156	0.0137049
759.234	0.0138596
759.312	0.0139153
759.390	0.0136709
759.468	0.0136221
759.546	0.0138673
759.624	0.0139024
759.703	0.0137856
759.781	0.0135940
759.859	0.0134826
759.937	0.0135623
760.015	0.0135812
760.093	0.0133552
760.171	0.0135326
760.249	0.0135696
760.328	0.0136074
760.406	0.0135829
760.484	0.0136266
760.562	0.0136923
760.640	0.0135777
760.718	0.0135945
760.796	0.0136825
760.874	0.0137717
760.953	0.0137780
761.031	0.0137073
761.109	0.0137640
761.187	0.0138190
761.265	0.0136192
761.343	0.0137451
761.421	0.0137345
761.499	0.0135593
761.578	0.0135673
761.656	0.0135226
761.734	0.0134144
761.812	0.0133489
761.890	0.0134106
761.968	0.0134883
762.046	0.0133590
762.124	0.0133545
762.203	0.0134104
762.281	0.0134477
762.359	0.0134906
762.437	0.0135677
762.515	0.0136459
762.593	0.0135838
762.671	0.0136051
762.749	0.0136037
762.828	0.0137432
762.906	0.0137476
762.984	0.0137133
763.062	0.0138207
763.140	0.0137240
763.218	0.0136915
763.296	0.0137206
763.374	0.0136251
763.453	0.0137700
763.531	0.0137553
763.609	0.0136693
763.687	0.0137437
763.765	0.0137353
763.843	0.0138286
763.921	0.0137783
763.999	0.0138985
764.078	0.0138623
764.156	0.0138957
764.234	0.0137431
764.312	0.0137549
764.390	0.0136642
764.468	0.0135558
764.546	0.0136119
764.624	0.0135057
764.703	0.0134731
764.781	0.0135873
764.859	0.0133949
764.937	0.0135147
765.015	0.0134682
765.093	0.0134435
765.171	0.0135097
765.249	0.0134331
765.328	0.0134750
765.406	0.0138203
765.484	0.0137778
765.562	0.0137618
765.640	0.0138160
765.718	0.0137714
765.796	0.0139519
765.874	0.0138607
765.953	0.0138436
766.031	0.0138564
766.109	0.0137807
766.187	0.0139364
766.265	0.0137484
766.343	0.0136025
766.421	0.0136321
766.499	0.0136803
766.578	0.0135445
766.656	0.0134242
766.734	0.0134924
766.812	0.0134287
766.890	0.0134229
766.968	0.0135827
767.046	0.0134043
767.124	0.0135484
767.203	0.0136179
767.281	0.0136307
767.359	0.0136677
767.437	0.0137101
767.515	0.0136862
767.593	0.0138016
767.671	0.0136115
767.749	0.0136418
767.828	0.0136131
767.906	0.0135638
767.984	0.0136323
768.062	0.0135616
768.140	0.0136129
768.218	0.0138573
768.296	0.0136436
768.374	0.0137699
768.453	0.0138364
768.531	0.0138450
768.609	0.0137074
768.687	0.0138990
768.765	0.0138896
768.843	0.0137550
768.921	0.0138975
768.999	0.0138503
769.078	0.0137416
769.156	0.0137088
769.234	0.0136449
769.312	0.0135126
769.390	0.0135098
769.468	0.0135107
769.546	0.0133734
769.624	0.0133002
769.703	0.0132922
769.781	0.0132372
769.859	0.0133482
769.937	0.0135743
770.015	0.0135647
770.093	0.0135986
770.171	0.0136540
770.249	0.0137654
770.328	0.0138398
770.406	0.0138702
770.484	0.0138177
770.562	0.0138461
770.640	0.0139318
770.718	0.0138809
770.796	0.0138089
770.874	0.0137563
770.953	0.0138799
771.031	0.0138772
771.109	0.0137049
771.187	0.0136967
771.265	0.0137928
771.343	0.0137210
771.421	0.0136723
771.499	0.0137806
771.578	0.0137329
771.656	0.0137311
771.734	0.0137458
771.812	0.0137064
771.890	0.0136628
771.968	0.0136839
772.046	0.0136208
772.124	0.0137234
772.203	0.0136084
772.281	0.0135203
772.359	0.0134418
772.437	0.0134727
772.515	0.0135909
772.593	0.0134589
772.671	0.0133327
772.749	0.0133672
772.828	0.0135352
772.906	0.0134219
772.984	0.0133656
773.062	0.0135433
773.140	0.0137351
773.218	0.0136172
773.296	0.0137910
773.374	0.0137682
773.453	0.0139862
773.531	0.0140138
773.609	0.0139452
773.687	0.0138415
773.765	0.0140306
773.843	0.0138885
773.921	0.0137613
773.999	0.0138155
774.078	0.0136485
774.156	0.0136307
774.234	0.0136032
774.312	0.0136123
774.390	0.0134366
774.468	0.0135055
774.546	0.0135181
774.624	0.0137020
774.703	0.0137204
774.781	0.0137545
774.859	0.0138174
774.937	0.0136709
775.015	0.0137337
775.093	0.0138190
775.171	0.0136827
775.249	0.0137717
775.328	0.0138107
775.406	0.0138374
775.484	0.0137633
775.562	0.0136982
775.640	0.0136259
775.718	0.0137336
775.796	0.0136982
775.874	0.0136858
775.953	0.0137386
776.031	0.0137283
776.109	0.0137555
776.187	0.0137618
776.265	0.0137389
776.343	0.0138027
776.421	0.0138506
776.499	0.0137550
776.578	0.0137125
776.656	0.0136845
776.734	0.0136925
776.812	0.0137646
776.890	0.0136870
776.968	0.0138097
777.046	0.0136539
777.124	0.0135271
777.203	0.0135995
777.281	0.0135239
777.359	0.0135432
777.437	0.0135313
777.515	0.0135123
777.593	0.0135605
777.671	0.0135555
777.749	0.0134778
777.828	0.0137189
777.906	0.0135931
777.984	0.0136858
778.062	0.0137607
778.140	0.0137437
778.218	0.0137376
778.296	0.0138982
778.374	0.0137732
778.453	0.0138024
778.531	0.0139204
778.609	0.0138053
778.687	0.0138808
778.765	0.0138633
778.843	0.0135347
778.921	0.0137840
778.999	0.0137241
779.078	0.0136752
779.156	0.0134930
779.234	0.0136232
779.312	0.0135430
779.390	0.0135844
779.468	0.0135089
779.546	0.0136127
779.624	0.0136167
779.703	0.0135027
779.781	0.0135513
779.859	0.0135815
779.937	0.0135793
780.015	0.0138406
780.093	0.0137189
780.171	0.0136069
780.249	0.0136845
780.328	0.0135666
780.406	0.0135967
780.484	0.0136323
780.562	0.0135913
780.640	0.0136886
780.718	0.0136561
780.796	0.0136394
780.874	0.0137738
780.953	0.0136474
781.031	0.0136964
781.109	0.0136846
781.187	0.0136995
781.265	0.0136814
781.343	0.0137273
781.421	0.0137981
781.499	0.0137534
781.578	0.0136504
781.656	0.0136633
781.734	0.0136115
781.812	0.0135635
781.890	0.0136060
781.968	0.0135741
782.046	0.0134323
782.124	0.0136452
782.203	0.0134584
782.281	0.0134590
782.359	0.0135299
782.437	0.0135501
782.515	0.0136230
782.593	0.0136736
782.671	0.0136890
782.749	0.0135776
782.828	0.0138318
782.906	0.0137682
782.984	0.0136539
783.062	0.0138514
783.140	0.0138053
783.218	0.0138235
783.296	0.0138876
783.374	0.0139195
783.453	0.0139694
783.531	0.0137318
783.609	0.0138138
783.687	0.0137006
783.765	0.0137915
783.843	0.0136793
783.921	0.0136281
783.999	0.0135456
784.078	0.0136240
784.156	0.0135863
784.234	0.0135432
784.312	0.0134368
784.390	0.0133767
784.468	0.0135202
784.546	0.0136137
784.624	0.0135994
784.703	0.0135934
784.781	0.0136668
784.859	0.0135534
784.937	0.0135986
785.015	0.0136682
785.093	0.0134901
785.171	0.0136547
785.249	0.0137990
785.328	0.0136806
785.406	0.0137381
785.484	0.0136205
785.562	0.0136098
785.640	0.0136543
785.718	0.0137148
785.796	0.0137894
785.874	0.0136629
785.953	0.0136746
786.031	0.0137378
786.109	0.0138438
786.187	0.0138898
786.265	0.0137741
786.343	0.0138045
786.421	0.0137888
786.499	0.0138917
786.578	0.0138109
786.656	0.0136220
786.734	0.0137422
786.812	0.0137627
786.890	0.0136713
786.968	0.0136716
787.046	0.0136127
787.124	0.0137923
787.203	0.0137463
787.281	0.0135528
787.359	0.0137139
787.437	0.0137828
787.515	0.0136809
787.593	0.0137920
787.671	0.0137553
787.749	0.0137782
787.828	0.0137572
787.906	0.0137067
787.984	0.0137841
788.062	0.0138007
788.140	0.0136893
788.218	0.0138029
788.296	0.0137267
788.374	0.0139702
788.453	0.0139783
788.531	0.0139229
788.609	0.0138126
788.687	0.0137885
788.765	0.0136256
788.843	0.0137852
788.921	0.0135799
788.999	0.0135351
789.078	0.0135767
789.156	0.0135972
789.234	0.0135619
789.312	0.0134856
789.390	0.0135677
789.468	0.0135075
789.546	0.0134415
789.624	0.0134648
789.703	0.0134209
789.781	0.0135553
789.859	0.0136285
789.937	0.0135130
790.015	0.0134694
790.093	0.0135360
790.171	0.0137135
790.249	0.0134987
790.328	0.0135598
790.406	0.0137770
790.484	0.0137010
790.562	0.0136677
790.640	0.0137615
790.718	0.0137548
790.796	0.0138783
790.874	0.0137961
790.953	0.0139166
791.031	0.0139817
791.109	0.0137256
791.187	0.0138744
791.265	0.0137863
791.343	0.0137327
791.421	0.0137158
791.499	0.0137617
791.578	0.0136585
791.656	0.0136253
791.734	0.0135367
791.812	0.0136263
791.890	0.0135862
791.968	0.0135727
792.046	0.0137194
792.124	0.0135418
792.203	0.0136266
792.281	0.0135658
792.359	0.0135826
792.437	0.0136947
792.515	0.0138543
792.593	0.0137418
792.671	0.0138220
792.749	0.0139031
792.828	0.0137435
792.906	0.0139510
792.984	0.0138923
793.062	0.0139320
793.140	0.0139759
793.218	0.0137983
793.296	0.0137906
793.374	0.0139056
793.453	0.0137712
793.531	0.0137437
793.609	0.0136260
793.687	0.0136906
793.765	0.0136185
793.843	0.0136166
793.921	0.0136044
793.999	0.0136169
794.078	0.0135807
794.156	0.0135521
794.234	0.0135341
794.312	0.0136507
794.390	0.0134584
794.468	0.0135349
794.546	0.0134740
794.624	0.0133794
794.703	0.0134854
794.781	0.0135120
794.859	0.0134101
794.937	0.0133089
795.015	0.0134364
795.093	0.0134332
795.171	0.0135029
795.249	0.0135030
795.328	0.0135199
795.406	0.0135578
795.484	0.0136287
795.562	0.0136684
795.640	0.0136993
795.718	0.0136826
795.796	0.0136971
795.874	0.0138667
795.953	0.0139219
796.031	0.0138028
796.109	0.0139101
796.187	0.0137180
796.265	0.0135606
796.343	0.0137158
796.421	0.0136459
796.499	0.0137531
796.578	0.0136336
796.656	0.0136658
796.734	0.0136761
796.812	0.0136399
796.890	0.0135693
796.968	0.0137489
797.046	0.0137643
797.124	0.0135919
797.203	0.0138486
797.281	0.0137791
797.359	0.0138593
797.437	0.0137351
797.515	0.0137604
797.593	0.0137780
797.671	0.0138558
797.749	0.0139153
797.828	0.0138360
797.906	0.0138876
797.984	0.0137686
798.062	0.0137609
798.140	0.0138521
798.218	0.0138197
798.296	0.0138005
798.374	0.0136678
798.453	0.0137164
798.531	0.0136047
798.609	0.0135069
798.687	0.0135995
798.765	0.0136576
798.843	0.0136005
798.921	0.0134652
798.999	0.0136650
799.078	0.0134843
799.156	0.0133810
799.234	0.0133555
799.312	0.0134503
799.390	0.0133646
799.468	0.0134352
799.546	0.0133955
799.624	0.0133163
799.703	0.0134614
799.781	0.0133937
799.859	0.0134375
799.937	0.0135039
800.015	0.0135051
800.093	0.0134457
800.171	0.0135963
800.249	0.0136575
800.328	0.0135002
800.406	0.0135638
800.484	0.0136691
800.562	0.0135635
800.640	0.0135495
800.718	0.0135971
800.796	0.0137441
800.874	0.0136544
800.953	0.0136535
801.031	0.0136783
801.109	0.0137122
801.187	0.0136493
801.265	0.0136635
801.343	0.0136179
801.421	0.0137771
801.499	0.0138507
801.578	0.0138085
801.656	0.0137997
801.734	0.0139273
801.812	0.0138689
801.890	0.0140280
801.968	0.0138357
802.046	0.0139893
802.124	0.0139132
802.203	0.0138524
802.281	0.0139498
802.359	0.0138206
802.437	0.0138790
802.515	0.0138673
802.593	0.0137740
802.671	0.0137428
802.749	0.0136179
802.828	0.0136977
802.906	0.0135583
802.984	0.0136401
803.062	0.0135191
803.140	0.0134733
803.218	0.0132639
803.296	0.0133598
803.374	0.0134499
803.453	0.0133018
803.531	0.0133065
803.609	0.0133829
803.687	0.0134328
803.765	0.0134922
803.843	0.0133420
803.921	0.0133080
803.999	0.0135094
804.078	0.0135352
804.156	0.0135004
804.234	0.0134409
804.312	0.0133662
804.390	0.0134914
804.468	0.0135242
804.546	0.0134933
804.624	0.0134767
804.703	0.0135857
804.781	0.0135120
804.859	0.0136744
804.937	0.0136856
805.015	0.0136369
805.093	0.0137548
805.171	0.0137395
805.249	0.0136661
805.328	0.0138216
805.406	0.0138481
805.484	0.0138034
805.562	0.0137467
805.640	0.0137096
805.718	0.0136409
805.796	0.0137119
805.874	0.0136240
805.953	0.0136259
806.031	0.0137595
806.109	0.0137408
806.187	0.0138078
806.265	0.0137423
806.343	0.0138152
806.421	0.0138723
806.499	0.0137206
806.578	0.0138003
806.656	0.0138696
806.734	0.0139603
806.812	0.0138592
806.890	0.0138963
806.968	0.0139746
807.046	0.0138770
807.124	0.0139340
807.203	0.0139513
807.281	0.0137051
807.359	0.0137165
807.437	0.0137876
807.515	0.0138146
807.593	0.0136706
807.671	0.0137201
807.749	0.0137022
807.828	0.0137022
807.906	0.0136548
807.984	0.0133944
808.062	0.0134177
808.140	0.0135372
808.218	0.0133259
808.296	0.0134449
808.374	0.0134351
808.453	0.0132870
808.531	0.0133645
808.609	0.0134241
808.687	0.0134077
808.765	0.0134439
808.843	0.0134674
808.921	0.0133540
808.999	0.0133818
809.078	0.0134686
809.156	0.0135562
809.234	0.0134999
809.312	0.0134367
809.390	0.0135331
809.468	0.0136736
809.546	0.0137661
809.624	0.0135375
809.703	0.0135850
809.781	0.0137523
809.859	0.0136550
809.937	0.0137185
810.015	0.0138295
810.093	0.0137508
810.171	0.0137397
810.249	0.0138370
810.328	0.0138251
810.406	0.0139977
810.484	0.0138202
810.562	0.0137946
810.640	0.0137148
810.718	0.0138022
810.796	0.0137649
810.874	0.0138153
810.953	0.0137999
811.031	0.0137942
811.109	0.0137687
811.187	0.0137629
811.265	0.0137196
811.343	0.0136893
811.421	0.0135545
811.499	0.0136462
811.578	0.0136838
811.656	0.0136976
811.734	0.0137706
811.812	0.0136190
811.890	0.0135928
811.968	0.0136259
812.046	0.0135722
812.124	0.0136485
812.203	0.0136499
812.281	0.0137273
812.359	0.0137547
812.437	0.0136567
812.515	0.0136163
812.593	0.0136216
812.671	0.0136816
812.749	0.0136151
812.828	0.0135159
812.906	0.0135884
812.984	0.0136485
813.062	0.0136877
813.140	0.0137102
813.218	0.0136925
813.296	0.0136176
813.374	0.0136510
813.453	0.0136806
813.531	0.0135348
813.609	0.0135042
813.687	0.0135778
813.765	0.0134506
813.843	0.0135530
813.921	0.0134804
813.999	0.0133864
814.078	0.0133482
814.156	0.0134835
814.234	0.0134866
814.312	0.0134355
814.390	0.0134849
814.468	0.0134267
814.546	0.0134889
814.624	0.0135725
814.703	0.0135599
814.781	0.0133973
814.859	0.0135982
814.937	0.0137201
815.015	0.0137040
815.093	0.0136740
815.171	0.0135850
815.249	0.0136996
815.328	0.0136974
815.406	0.0137520
815.484	0.0138094
815.562	0.0136510
815.640	0.0136504
815.718	0.0137888
815.796	0.0137618
815.874	0.0136677
815.953	0.0137418
816.031	0.0137121
816.109	0.0136234
816.187	0.0137680
816.265	0.0138614
816.343	0.0137611
816.421	0.0136745
816.499	0.0136636
816.578	0.0136754
816.656	0.0137053
816.734	0.0136018
816.812	0.0136353
816.890	0.0135744
816.968	0.0135804
817.046	0.0137174
817.124	0.0136199
817.203	0.0137575
817.281	0.0137320
817.359	0.0137088
817.437	0.0137796
817.515	0.0137090
817.593	0.0137637
817.671	0.0136533
817.749	0.0136799
817.828	0.0137010
817.906	0.0137034
817.984	0.0137074
818.062	0.0136372
818.140	0.0137376
818.218	0.0136456
818.296	0.0134523
818.374	0.0134959
818.453	0.0135844
818.531	0.0136538
818.609	0.0134165
818.687	0.0136237
818.765	0.0135307
818.843	0.0134113
818.921	0.0134967
818.999	0.0133798
819.078	0.0134489
819.156	0.0135327
819.234	0.0133927
819.312	0.0134743
819.390	0.0135267
819.468	0.0133610
819.546	0.0135480
819.624	0.0135635
819.703	0.0135530
819.781	0.0135931
819.859	0.0135955
819.937	0.0136208
820.015	0.0135297
820.093	0.0135471
820.171	0.0135900
820.249	0.0137193
820.328	0.0138489
820.406	0.0136604
820.484	0.0136232
820.562	0.0135796
820.640	0.0136073
820.718	0.0137202
820.796	0.0137720
820.874	0.0136120
820.953	0.0134007
821.031	0.0135285
821.109	0.0136898
821.187	0.0137138
821.265	0.0134959
821.343	0.0136063
821.421	0.0136594
821.499	0.0135525
821.578	0.0136568
821.656	0.0137652
821.734	0.0135734
821.812	0.0136098
821.890	0.0136542
821.968	0.0136646
822.046	0.0136537
822.124	0.0136471
822.203	0.0138381
822.281	0.0137778
822.359	0.0136886
822.437	0.0136523
822.515	0.0136715
822.593	0.0137251
822.671	0.0136620
822.749	0.0135583
822.828	0.0136645
822.906	0.0134970
822.984	0.0136430
823.062	0.0136880
823.140	0.0134543
823.218	0.0134829
823.296	0.0135983
823.374	0.0134378
823.453	0.0134299
823.531	0.0134906
823.609	0.0136604
823.687	0.0134206
823.765	0.0133988
823.843	0.0135642
823.921	0.0136323
823.999	0.0134583
824.078	0.0134172
824.156	0.0135153
824.234	0.0135222
824.312	0.0135938
824.390	0.0136957
824.468	0.0136711
824.546	0.0136349
824.624	0.0137119
824.703	0.0136533
824.781	0.0138049
824.859	0.0136890
824.937	0.0137557
825.015	0.0137848
825.093	0.0137895
825.171	0.0136387
825.249	0.0136709
825.328	0.0136805
825.406	0.0135691
825.484	0.0135660
825.562	0.0136681
825.640	0.0135677
825.718	0.0135815
825.796	0.0135619
825.874	0.0137485
825.953	0.0135433
826.031	0.0135467
826.109	0.0135103
826.187	0.0136155
826.265	0.0135826
826.343	0.0137807
826.421	0.0136373
826.499	0.0135449
826.578	0.0136320
826.656	0.0135622
826.734	0.0137811
826.812	0.0137206
826.890	0.0138000
826.968	0.0137723
827.046	0.0137610
827.124	0.0137001
827.203	0.0137704
827.281	0.0136942
827.359	0.0137914
827.437	0.0137329
827.515	0.0136824
827.593	0.0136938
827.671	0.0136399
827.749	0.0136179
827.828	0.0135729
827.906	0.0137752
827.984	0.0136367
828.062	0.0136771
828.140	0.0135696
828.218	0.0135612
828.296	0.0136231
828.374	0.0134502
828.453	0.0135856
828.531	0.0134902
828.609	0.0134772
828.687	0.0135281
828.765	0.0137061
828.843	0.0135799
828.921	0.0135977
828.999	0.0136306
829.078	0.0135932
829.156	0.0136940
829.234	0.0136269
829.312	0.0136349
829.390	0.0136800
829.468	0.0137541
829.546	0.0136663
829.624	0.0138167
829.703	0.0138032
829.781	0.0137767
829.859	0.0137336
829.937	0.0136380
830.015	0.0136720
830.093	0.0135890
830.171	0.0136978
830.249	0.0135753
830.328	0.0136215
830.406	0.0135270
830.484	0.0134703
830.562	0.0135282
830.640	0.0134933
830.718	0.0133673
830.796	0.0133969
830.874	0.0134553
830.953	0.0133363
831.031	0.0133183
831.109	0.0133467
831.187	0.0134123
831.265	0.0135857
831.343	0.0133836
831.421	0.0134912
831.499	0.0136329
831.578	0.0135359
831.656	0.0134734
831.734	0.0134832
831.812	0.0137469
831.890	0.0135189
831.968	0.0137036
832.046	0.0137341
832.124	0.0136974
832.203	0.0136010
832.281	0.0137741
832.359	0.0136329
832.437	0.0138017
832.515	0.0136639
832.593	0.0136537
832.671	0.0135236
832.749	0.0135829
832.828	0.0136156
832.906	0.0136441
832.984	0.0135669
833.062	0.0135434
833.140	0.0136086
833.218	0.0136472
833.296	0.0135897
833.374	0.0138084
833.453	0.0136385
833.531	0.0136144
833.609	0.0137820
833.687	0.0136526
833.765	0.0138390
833.843	0.0137280
833.921	0.0136835
833.999	0.0137070
834.078	0.0138271
834.156	0.0138675
834.234	0.0136478
834.312	0.0137845
834.390	0.0139175
834.468	0.0137886
834.546	0.0137007
834.624	0.0136374
834.703	0.0137502
834.781	0.0137597
834.859	0.0135777
834.937	0.0135670
835.015	0.0136320
835.093	0.0135870
835.171	0.0136005
835.249	0.0134396
835.328	0.0136122
835.406	0.0136009
835.484	0.0134902
835.562	0.0136666
835.640	0.0135784
835.718	0.0135448
835.796	0.0135652
835.874	0.0135606
835.953	0.0135175
836.031	0.0135288
836.109	0.0135957
836.187	0.0136240
836.265	0.0135670
836.343	0.0136060
836.421	0.0136681
836.499	0.0137563
836.578	0.0136026
836.656	0.0137048
836.734	0.0138105
836.812	0.0138389
836.890	0.0137781
836.968	0.0137363
837.046	0.0137537
837.124	0.0137989
837.203	0.0137321
837.281	0.0137496
837.359	0.0136901
837.437	0.0137601
837.515	0.0135720
837.593	0.0137062
837.671	0.0136871
837.749	0.0137401
837.828	0.0136854
837.906	0.0136008
837.984	0.0137177
838.062	0.0136811
838.140	0.0136954
838.218	0.0138021
838.296	0.0137963
838.374	0.0137236
838.453	0.0137466
838.531	0.0136788
838.609	0.0137025
838.687	0.0138801
838.765	0.0137946
838.843	0.0137183
838.921	0.0138310
838.999	0.0137019
839.078	0.0136119
839.156	0.0135654
839.234	0.0137336
839.312	0.0137521
839.390	0.0137133
839.468	0.0134833
839.546	0.0136106
839.624	0.0134863
839.703	0.0134297
839.781	0.0136431
839.859	0.0134257
839.937	0.0134859
840.015	0.0135827
840.093	0.0135527
840.171	0.0134474
840.249	0.0135083
840.328	0.0135426
840.406	0.0133566
840.484	0.0134476
840.562	0.0134940
840.640	0.0135184
840.718	0.0135398
840.796	0.0136282
840.874	0.0135613
840.953	0.0135174
841.031	0.0136396
841.109	0.0137086
841.187	0.0136706
841.265	0.0136172
841.343	0.0136352
841.421	0.0136142
841.499	0.0135571
841.578	0.0137098
841.656	0.0137487
841.734	0.0136754
841.812	0.0136096
841.890	0.0136259
841.968	0.0137126
842.046	0.0137700
842.124	0.0135019
842.203	0.0135994
842.281	0.0136112
842.359	0.0136749
842.437	0.0136307
842.515	0.0136309
842.593	0.0136085
842.671	0.0136143
842.749	0.0135581
842.828	0.0135841
842.906	0.0136080
842.984	0.0136279
843.062	0.0136131
843.140	0.0135928
843.218	0.0136352
843.296	0.0136465
843.374	0.0136994
843.453	0.0138046
843.531	0.0137594
843.609	0.0137395
843.687	0.0137796
843.765	0.0137663
843.843	0.0137862
843.921	0.0136728
843.999	0.0138252
844.078	0.0136214
844.156	0.0136312
844.234	0.0136452
844.312	0.0135803
844.390	0.0135164
844.468	0.0136172
844.546	0.0136631
844.624	0.0135374
844.703	0.0135471
844.781	0.0135239
844.859	0.0135110
844.937	0.0134883
845.015	0.0134129
845.093	0.0133915
845.171	0.0133543
845.249	0.0134682
845.328	0.0135195
845.406	0.0133912
845.484	0.0133858
845.562	0.0134614
845.640	0.0135726
845.718	0.0135322
845.796	0.0134406
845.874	0.0135869
845.953	0.0134918
846.031	0.0135307
846.109	0.0134997
846.187	0.0136618
846.265	0.0137163
846.343	0.0135503
846.421	0.0135263
846.499	0.0136426
846.578	0.0133965
846.656	0.0134882
846.734	0.0136339
846.812	0.0134156
846.890	0.0135696
846.968	0.0136533
847.046	0.0135088
847.124	0.0136211
847.203	0.0134861
847.281	0.0135064
847.359	0.0135500
847.437	0.0135866
847.515	0.0136407
847.593	0.0137851
847.671	0.0136251
847.749	0.0137564
847.828	0.0137145
847.906	0.0135902
847.984	0.0138212
848.062	0.0136655
848.140	0.0136774
848.218	0.0138234
848.296	0.0139168
848.374	0.0138308
848.453	0.0137625
848.531	0.0138108
848.609	0.0138660
848.687	0.0137863
848.765	0.0137080
848.843	0.0136343
848.921	0.0136686
848.999	0.0137354
849.078	0.0136736
849.156	0.0134829
849.234	0.0134825
849.312	0.0136187
849.390	0.0135580
849.468	0.0136252
849.546	0.0134456
849.624	0.0134319
849.703	0.0136209
849.781	0.0133698
849.859	0.0132828
849.937	0.0134925
850.015	0.0135206
850.093	0.0134850
850.171	0.0134999
850.249	0.0136199
850.328	0.0135688
850.406	0.0136694
850.484	0.0135809
850.562	0.0136459
850.640	0.0136993
850.718	0.0138049
850.796	0.0137348
850.874	0.0136195
850.953	0.0136343
851.031	0.0135952
851.109	0.0136786
851.187	0.0136320
851.265	0.0135802
851.343	0.0135165
851.421	0.0136269
851.499	0.0136195
851.578	0.0134830
851.656	0.0135443
851.734	0.0135972
851.812	0.0136346
851.890	0.0135537
851.968	0.0135973
852.046	0.0135821
852.124	0.0136183
852.203	0.0137105
852.281	0.0136733
852.359	0.0137753
852.437	0.0138340
852.515	0.0138168
852.593	0.0138806
852.671	0.0138789
852.749	0.0138424
852.828	0.0139405
852.906	0.0137153
852.984	0.0137589
853.062	0.0138273
853.140	0.0136857
853.218	0.0137647
853.296	0.0138057
853.374	0.0137762
853.453	0.0137185
853.531	0.0135809
853.609	0.0135755
853.687	0.0137529
853.765	0.0136557
853.843	0.0135168
853.921	0.0135267
853.999	0.0135201
854.078	0.0133986
854.156	0.0134300
854.234	0.0135883
854.312	0.0136304
854.390	0.0134666
854.468	0.0135234
854.546	0.0134489
854.624	0.0135851
854.703	0.0136781
854.781	0.0135559
854.859	0.0136674
854.937	0.0138292
855.015	0.0137008
855.093	0.0136992
855.171	0.0137401
855.249	0.0136880
855.328	0.0137654
855.406	0.0137265
855.484	0.0137410
855.562	0.0137354
855.640	0.0137654
855.718	0.0138383
855.796	0.0137920
855.874	0.0137709
855.953	0.0137782
856.031	0.0136838
856.109	0.0137482
856.187	0.0136840
856.265	0.0134445
856.343	0.0134897
856.421	0.0136153
856.499	0.0135750
856.578	0.0134586
856.656	0.0135369
856.734	0.0136079
856.812	0.0137108
856.890	0.0137263
856.968	0.0136831
857.046	0.0138206
857.124	0.0138027
857.203	0.0137021
857.281	0.0138691
857.359	0.0138329
857.437	0.0137155
857.515	0.0137912
857.593	0.0140093
857.671	0.0137790
857.749	0.0138595
857.828	0.0137857
857.906	0.0137421
857.984	0.0137473
858.062	0.0137220
858.140	0.0136077
858.218	0.0136922
858.296	0.0137097
858.374	0.0136312
858.453	0.0137236
858.531	0.0135768
858.609	0.0137605
858.687	0.0135884
858.765	0.0136513
858.843	0.0136632
858.921	0.0137524
858.999	0.0136886
859.078	0.0135400
859.156	0.0136948
859.234	0.0137388
859.312	0.0137099
859.390	0.0137805
859.468	0.0137422
859.546	0.0135524
859.624	0.0136179
859.703	0.0136426
859.781	0.0136881
859.859	0.0137112
859.937	0.0137383
860.015	0.0136642
860.093	0.0137034
860.171	0.0137214
860.249	0.0137814
860.328	0.0136820
860.406	0.0135734
860.484	0.0137507
860.562	0.0136179
860.640	0.0136587
860.718	0.0136737
860.796	0.0136670
860.874	0.0135628
860.953	0.0135148
861.031	0.0136526
861.109	0.0136481
861.187	0.0137173
861.265	0.0136195
861.343	0.0134930
861.421	0.0136084
861.499	0.0136989
861.578	0.0136119
861.656	0.0136929
861.734	0.0137095
861.812	0.0137112
861.890	0.0136488
861.968	0.0136044
862.046	0.0137746
862.124	0.0137036
862.203	0.0136830
862.281	0.0137549
862.359	0.0137582
862.437	0.0136794
862.515	0.0138018
862.593	0.0137255
862.671	0.0137354
862.749	0.0137009
862.828	0.0136390
862.906	0.0135592
862.984	0.0136032
863.062	0.0136768
863.140	0.0137341
863.218	0.0136162
863.296	0.0135223
863.374	0.0135103
863.453	0.0137267
863.531	0.0136610
863.609	0.0136633
863.687	0.0135939
863.765	0.0136140
863.843	0.0137572
863.921	0.0137038
863.999	0.0135942
864.078	0.0135918
864.156	0.0135875
864.234	0.0136364
864.312	0.0135765
864.390	0.0136807
864.468	0.0137360
864.546	0.0137031
864.624	0.0136771
864.703	0.0137053
864.781	0.0134830
864.859	0.0136816
864.937	0.0135658
865.015	0.0136494
865.093	0.0136028
865.171	0.0135664
865.249	0.0135911
865.328	0.0136162
865.406	0.0136072
865.484	0.0136053
865.562	0.0133766
865.640	0.0134658
865.718	0.0134325
865.796	0.0134332
865.874	0.0134908
865.953	0.0135739
866.031	0.0135647
866.109	0.0136095
866.187	0.0136803
866.265	0.0138072
866.343	0.0137832
866.421	0.0136042
866.499	0.0134922
866.578	0.0137272
866.656	0.0137872
866.734	0.0135571
866.812	0.0136903
866.890	0.0136871
866.968	0.0135927
867.046	0.0136799
867.124	0.0136166
867.203	0.0136321
867.281	0.0137965
867.359	0.0137641
867.437	0.0136099
867.515	0.0136060
867.593	0.0136509
867.671	0.0137776
867.749	0.0137589
867.828	0.0136095
867.906	0.0136610
867.984	0.0136748
868.062	0.0137234
868.140	0.0137568
868.218	0.0136301
868.296	0.0137368
868.374	0.0136634
868.453	0.0137018
868.531	0.0137356
868.609	0.0137064
868.687	0.0137014
868.765	0.0136316
868.843	0.0135217
868.921	0.0135049
868.999	0.0135194
869.078	0.0135882
869.156	0.0136301
869.234	0.0134840
869.312	0.0135957
869.390	0.0134091
869.468	0.0134946
869.546	0.0136023
869.624	0.0136173
869.703	0.0135696
869.781	0.0136693
869.859	0.0136987
869.937	0.0136675
870.015	0.0136634
870.093	0.0136185
870.171	0.0137673
870.249	0.0136047
870.328	0.0137361
870.406	0.0137031
870.484	0.0137392
870.562	0.0137758
870.640	0.0136269
870.718	0.0136003
870.796	0.0137585
870.874	0.0135940
870.953	0.0136577
871.031	0.0136501
871.109	0.0136190
871.187	0.0136237
871.265	0.0136681
871.343	0.0136751
871.421	0.0135199
871.499	0.0136595
871.578	0.0136923
871.656	0.0136442
871.734	0.0136027
871.812	0.0136835
871.890	0.0136211
871.968	0.0136959
872.046	0.0136317
872.124	0.0135664
872.203	0.0136973
872.281	0.0137509
872.359	0.0136646
872.437	0.0136496
872.515	0.0137251
872.593	0.0136700
872.671	0.0136594
872.749	0.0136230
872.828	0.0137440
872.906	0.0136241
872.984	0.0135572
873.062	0.0136676
873.140	0.0135675
873.218	0.0137727
873.296	0.0136782
873.374	0.0136233
873.453	0.0135706
873.531	0.0136126
873.609	0.0135916
873.687	0.0136549
873.765	0.0136016
873.843	0.0136558
873.921	0.0136283
873.999	0.0137088
874.078	0.0135333
874.156	0.0135516
874.234	0.0137879
874.312	0.0136414
874.390	0.0135511
874.468	0.0137128
874.546	0.0137917
874.624	0.0136123
874.703	0.0137017
874.781	0.0136839
874.859	0.0135270
874.937	0.0135537
875.015	0.0136829
875.093	0.0138000
875.171	0.0136047
875.249	0.0133965
875.328	0.0136237
875.406	0.0136754
875.484	0.0135358
875.562	0.0134779
875.640	0.0136648
875.718	0.0134364
875.796	0.0135307
875.874	0.0135212
875.953	0.0134798
876.031	0.0136387
876.109	0.0137630
876.187	0.0135681
876.265	0.0136384
876.343	0.0136514
876.421	0.0135095
876.499	0.0136616
876.578	0.0136286
876.656	0.0134753
876.734	0.0136558
876.812	0.0136709
876.890	0.0135271
876.968	0.0136481
877.046	0.0135600
877.124	0.0136318
877.203	0.0136584
877.281	0.0137008
877.359	0.0138008
877.437	0.0136501
877.515	0.0137177
877.593	0.0137304
877.671	0.0136390
877.749	0.0136851
877.828	0.0135686
877.906	0.0137734
877.984	0.0136916
878.062	0.0135853
878.140	0.0136597
878.218	0.0135853
878.296	0.0136734
878.374	0.0137220
878.453	0.0135902
878.531	0.0136110
878.609	0.0136424
878.687	0.0135416
878.765	0.0135706
878.843	0.0137370
878.921	0.0135821
878.999	0.0137057
879.078	0.0138050
879.156	0.0136404
879.234	0.0137526
879.312	0.0136917
879.390	0.0137081
879.468	0.0136755
879.546	0.0137465
879.624	0.0136748
879.703	0.0135299
879.781	0.0136217
879.859	0.0136700
879.937	0.0137158
880.015	0.0134255
880.093	0.0134991
880.171	0.0134689
880.249	0.0135363
880.328	0.0134546
880.406	0.0134299
880.484	0.0137133
880.562	0.0135552
880.640	0.0136427
880.718	0.0135395
880.796	0.0136343
880.874	0.0136137
880.953	0.0136251
881.031	0.0137209
881.109	0.0138132
881.187	0.0137484
881.265	0.0137907
881.343	0.0137495
881.421	0.0137957
881.499	0.0138604
881.578	0.0138023
881.656	0.0138033
881.734	0.0137363
881.812	0.0138740
881.890	0.0139146
881.968	0.0136854
882.046	0.0137222
882.124	0.0137472
882.203	0.0136586
882.281	0.0135320
882.359	0.0135023
882.437	0.0136133
882.515	0.0136982
882.593	0.0135484
882.671	0.0135659
882.749	0.0136094
882.828	0.0136391
882.906	0.0136706
882.984	0.0136314
883.062	0.0135714
883.140	0.0136071
883.218	0.0136700
883.296	0.0137511
883.374	0.0136598
883.453	0.0136402
883.531	0.0137033
883.609	0.0135579
883.687	0.0137705
883.765	0.0137572
883.843	0.0136079
883.921	0.0135909
883.999	0.0138366
884.078	0.0136887
884.156	0.0135255
884.234	0.0136414
884.312	0.0136668
884.390	0.0136293
884.468	0.0135926
884.546	0.0135823
884.624	0.0134055
884.703	0.0135155
884.781	0.0135648
884.859	0.0133916
884.937	0.0133834
885.015	0.0134193
885.093	0.0135085
885.171	0.0134082
885.249	0.0133554
885.328	0.0134319
885.406	0.0135545
885.484	0.0135154
885.562	0.0135204
885.640	0.0136088
885.718	0.0136507
885.796	0.0136042
885.874	0.0136423
885.953	0.0136021
886.031	0.0136079
886.109	0.0137402
886.187	0.0137770
886.265	0.0137226
886.343	0.0137619
886.421	0.0137917
886.499	0.0138069
886.578	0.0137258
886.656	0.0138103
886.734	0.0139596
886.812	0.0138314
886.890	0.0136602
886.968	0.0136277
887.046	0.0137293
887.124	0.0137344
887.203	0.0137831
887.281	0.0136752
887.359	0.0137394
887.437	0.0136310
887.515	0.0135449
887.593	0.0137440
887.671	0.0137314
887.749	0.0134772
887.828	0.0135213
887.906	0.0134644
887.984	0.0135856
888.062	0.0134871
888.140	0.0134515
888.218	0.0136564
888.296	0.0137286
888.374	0.0136530
888.453	0.0135993
888.531	0.0136353
888.609	0.0136154
888.687	0.0137360
888.765	0.0137407
888.843	0.0136837
888.921	0.0137932
888.999	0.0136972
889.078	0.0135998
889.156	0.0135951
889.234	0.0134705
889.312	0.0135793
889.390	0.0135242
889.468	0.0134985
889.546	0.0134759
889.624	0.0134634
889.703	0.0134290
889.781	0.0136312
889.859	0.0134528
889.937	0.0134272
890.015	0.0135800
890.093	0.0136015
890.171	0.0135263
890.249	0.0135529
890.328	0.0137302
890.406	0.0135406
890.484	0.0136850
890.562	0.0137709
890.640	0.0137693
890.718	0.0136852
890.796	0.0137606
890.874	0.0136324
890.953	0.0135984
891.031	0.0137773
891.109	0.0136120
891.187	0.0135827
891.265	0.0135489
891.343	0.0135686
891.421	0.0135126
891.499	0.0136742
891.578	0.0137017
891.656	0.0136817
891.734	0.0137083
891.812	0.0137096
891.890	0.0136771
891.968	0.0136642
892.046	0.0137241
892.124	0.0138733
892.203	0.0138092
892.281	0.0138859
892.359	0.0137274
892.437	0.0137194
892.515	0.0137598
892.593	0.0136525
892.671	0.0135879
892.749	0.0136483
892.828	0.0135696
892.906	0.0136393
892.984	0.0134451
893.062	0.0135638
893.140	0.0134676
893.218	0.0134632
893.296	0.0135474
893.374	0.0135765
893.453	0.0135734
893.531	0.0135897
893.609	0.0136264
893.687	0.0136877
893.765	0.0136810
893.843	0.0137371
893.921	0.0137776
893.999	0.0137271
894.078	0.0137276
894.156	0.0137337
894.234	0.0136280
894.312	0.0136711
894.390	0.0135149
894.468	0.0135972
894.546	0.0137202
894.624	0.0135738
894.703	0.0134678
894.781	0.0134811
894.859	0.0135727
894.937	0.0135792
895.015	0.0136461
895.093	0.0135574
895.171	0.0135490
895.249	0.0136778
895.328	0.0135796
895.406	0.0137350
895.484	0.0136258
895.562	0.0136554
895.640	0.0137271
895.718	0.0137365
895.796	0.0136290
895.874	0.0136553
895.953	0.0137475
896.031	0.0136333
896.109	0.0136333
896.187	0.0137228
896.265	0.0137315
896.343	0.0136551
896.421	0.0137699
896.499	0.0137206
896.578	0.0138319
896.656	0.0136663
896.734	0.0137833
896.812	0.0138583
896.890	0.0138685
896.968	0.0138753
897.046	0.0137997
897.124	0.0137123
897.203	0.0137782
897.281	0.0137766
897.359	0.0137478
897.437	0.0137842
897.515	0.0135810
897.593	0.0135407
897.671	0.0137228
897.749	0.0136053
897.828	0.0135052
897.906	0.0135822
897.984	0.0136092
898.062	0.0134845
898.140	0.0134293
898.218	0.0134786
898.296	0.0135410
898.374	0.0135067
898.453	0.0135709
898.531	0.0134808
898.609	0.0135795
898.687	0.0136408
898.765	0.0135251
898.843	0.0136353
898.921	0.0136721
898.999	0.0136118
899.078	0.0136338
899.156	0.0137402
899.234	0.0136576
899.312	0.0136697
899.390	0.0137277
899.468	0.0136546
899.546	0.0136302
899.624	0.0134486
899.703	0.0137244
899.781	0.0137648
899.859	0.0136442
899.937	0.0136513
900.015	0.0136574
900.093	0.0135921
900.171	0.0136012
900.249	0.0136806
900.328	0.0136199
900.406	0.0137402
900.484	0.0137616
900.562	0.0136667
900.640	0.0137830
900.718	0.0136836
900.796	0.0135783
900.874	0.0137611
900.953	0.0136235
901.031	0.0136326
901.109	0.0135749
901.187	0.0137094
901.265	0.0136372
901.343	0.0137395
901.421	0.0137129
901.499	0.0135802
901.578	0.0136329
901.656	0.0137155
901.734	0.0137176
901.812	0.0137405
901.890	0.0137767
901.968	0.0138734
902.046	0.0138490
902.124	0.0137508
902.203	0.0136004
902.281	0.0136442
902.359	0.0136800
902.437	0.0136513
902.515	0.0134658
902.593	0.0133888
902.671	0.0134377
902.749	0.0135220
902.828	0.0133479
902.906	0.0134807
902.984	0.0134551
903.062	0.0135094
903.140	0.0134992
903.218	0.0135339
903.296	0.0136143
903.374	0.0136605
903.453	0.0137330
903.531	0.0137182
903.609	0.0137502
903.687	0.0136926
903.765	0.0138536
903.843	0.0137990
903.921	0.0138396
903.999	0.0138429
904.078	0.0138809
904.156	0.0139084
904.234	0.0136652
904.312	0.0138092
904.390	0.0137641
904.468	0.0136420
904.546	0.0136629
904.624	0.0136546
904.703	0.0135821
904.781	0.0136418
904.859	0.0135635
904.937	0.0134850
905.015	0.0136478
905.093	0.0134528
905.171	0.0136073
905.249	0.0137352
905.328	0.0135120
905.406	0.0135387
905.484	0.0134737
905.562	0.0137524
905.640	0.0137055
905.718	0.0134818
905.796	0.0136558
905.874	0.0136546
905.953	0.0135811
906.031	0.0135910
906.109	0.0136814
906.187	0.0136571
906.265	0.0136338
906.343	0.0135513
906.421	0.0136460
906.499	0.0136354
906.578	0.0136219
906.656	0.0136655
906.734	0.0134790
906.812	0.0134871
906.890	0.0135017
906.968	0.0135310
907.046	0.0136184
907.124	0.0136181
907.203	0.0136304
907.281	0.0137383
907.359	0.0137411
907.437	0.0135416
907.515	0.0135962
907.593	0.0137226
907.671	0.0136176
907.749	0.0137013
907.828	0.0136350
907.906	0.0136347
907.984	0.0137284
908.062	0.0137283
908.140	0.0137008
908.218	0.0135435
908.296	0.0136513
908.374	0.0136771
908.453	0.0136269
908.531	0.0137624
908.609	0.0137147
908.687	0.0139000
908.765	0.0138710
908.843	0.0136576
908.921	0.0137160
908.999	0.0136727
909.078	0.0136386
909.156	0.0136817
909.234	0.0136282
909.312	0.0136097
909.390	0.0136736
909.468	0.0137391
909.546	0.0137400
909.624	0.0135228
909.703	0.0134217
909.781	0.0135715
909.859	0.0134643
909.937	0.0136402
910.015	0.0136317
910.093	0.0136333
910.171	0.0136485
910.249	0.0136334
910.328	0.0134658
910.406	0.0136155
910.484	0.0137148
910.562	0.0135948
910.640	0.0136848
910.718	0.0135368
910.796	0.0135176
910.874	0.0134989
910.953	0.0135757
911.031	0.0135493
911.109	0.0134972
911.187	0.0134900
911.265	0.0136658
911.343	0.0135755
911.421	0.0135504
911.499	0.0135323
911.578	0.0133524
911.656	0.0134735
911.734	0.0136168
911.812	0.0134587
911.890	0.0134541
911.968	0.0136775
912.046	0.0137908
912.124	0.0136562
912.203	0.0136924
912.281	0.0136787
912.359	0.0138634
912.437	0.0137354
912.515	0.0136291
912.593	0.0138374
912.671	0.0136617
912.749	0.0137742
912.828	0.0137467
912.906	0.0137937
912.984	0.0137051
913.062	0.0137138
913.140	0.0136765
913.218	0.0137659
913.296	0.0136011
913.374	0.0136210
913.453	0.0135485
913.531	0.0135918
913.609	0.0135805
913.687	0.0136662
913.765	0.0137243
913.843	0.0135486
913.921	0.0134811
913.999	0.0134374
914.078	0.0135368
914.156	0.0135261
914.234	0.0134006
914.312	0.0133096
914.390	0.0134257
914.468	0.0134145
914.546	0.0135963
914.624	0.0135429
914.703	0.0135262
914.781	0.0135578
914.859	0.0135104
914.937	0.0136574
915.015	0.0136807
915.093	0.0136288
915.171	0.0136378
915.249	0.0137435
915.328	0.0137299
915.406	0.0136803
915.484	0.0137880
915.562	0.0139396
915.640	0.0136835
915.718	0.0137264
915.796	0.0136820
915.874	0.0137187
915.953	0.0137244
916.031	0.0137634
916.109	0.0136613
916.187	0.0136905
916.265	0.0137386
916.343	0.0135244
916.421	0.0136842
916.499	0.0136575
916.578	0.0135707
916.656	0.0135128
916.734	0.0136752
916.812	0.0137483
916.890	0.0136382
916.968	0.0137909
917.046	0.0136947
917.124	0.0136929
917.203	0.0137766
917.281	0.0136331
917.359	0.0138190
917.437	0.0137955
917.515	0.0137309
917.593	0.0138068
917.671	0.0137228
917.749	0.0137941
917.828	0.0136594
917.906	0.0136755
917.984	0.0137188
918.062	0.0135771
918.140	0.0136122
918.218	0.0136336
918.296	0.0135382
918.374	0.0134608
918.453	0.0134711
918.531	0.0135516
918.609	0.0136202
918.687	0.0135275
918.765	0.0135743
918.843	0.0136836
918.921	0.0136661
918.999	0.0135413
919.078	0.0135487
919.156	0.0136214
919.234	0.0137112
919.312	0.0136968
919.390	0.0137032
919.468	0.0137050
919.546	0.0136629
919.624	0.0137458
919.703	0.0135301
919.781	0.0138118
919.859	0.0137545
919.937	0.0137310
