05/06/2022	18:52:19	Ver.	4.1	UNKNOWN
Optical Delay	600.015094	Delta X		0.078125	Sweeps	1	Scan Rate	0/0
Coordinates	Axis 1	NaN	Axis 2	NaN	Axis 3	NaN	Axis 4	NaN	Axis 5	NaN	Axis 6	0.000000
TX Power	0.000000	RX Power	0.000000

600.015	0.0138885
600.093	0.0139041
600.171	0.0137383
600.249	0.0138676
600.328	0.0140108
600.406	0.0138438
600.484	0.0137941
600.562	0.0139058
600.640	0.0140022
600.718	0.0138432
600.796	0.0138577
600.874	0.0137146
600.953	0.0139465
601.031	0.0137757
601.109	0.0138237
601.187	0.0139276
601.265	0.0139416
601.343	0.0138123
601.421	0.0138709
601.499	0.0139245
601.578	0.0138637
601.656	0.0138685
601.734	0.0139326
601.812	0.0139128
601.890	0.0139355
601.968	0.0138095
602.046	0.0139189
602.124	0.0139803
602.203	0.0139664
602.281	0.0138122
602.359	0.0137688
602.437	0.0138593
602.515	0.0138711
602.593	0.0138969
602.671	0.0138357
602.749	0.0138837
602.828	0.0140427
602.906	0.0139697
602.984	0.0138828
603.062	0.0138382
603.140	0.0140063
603.218	0.0139048
603.296	0.0137730
603.374	0.0139741
603.453	0.0138912
603.531	0.0137873
603.609	0.0136850
603.687	0.0138490
603.765	0.0139989
603.843	0.0139108
603.921	0.0138200
603.999	0.0139385
604.078	0.0138911
604.156	0.0138386
604.234	0.0139011
604.312	0.0137476
604.390	0.0139785
604.468	0.0139481
604.546	0.0138515
604.624	0.0137814
604.703	0.0138007
604.781	0.0139035
604.859	0.0138967
604.937	0.0137216
605.015	0.0138084
605.093	0.0138531
605.171	0.0138934
605.249	0.0138598
605.328	0.0139114
605.406	0.0138727
605.484	0.0138306
605.562	0.0139604
605.640	0.0139858
605.718	0.0139573
605.796	0.0138481
605.874	0.0140366
605.953	0.0139027
606.031	0.0137971
606.109	0.0140206
606.187	0.0139803
606.265	0.0138303
606.343	0.0139179
606.421	0.0139704
606.499	0.0139061
606.578	0.0138647
606.656	0.0139317
606.734	0.0138280
606.812	0.0138911
606.890	0.0138184
606.968	0.0137802
607.046	0.0140222
607.124	0.0140185
607.203	0.0139609
607.281	0.0138572
607.359	0.0139491
607.437	0.0138466
607.515	0.0138332
607.593	0.0138148
607.671	0.0138646
607.749	0.0140234
607.828	0.0139069
607.906	0.0139504
607.984	0.0139117
608.062	0.0138711
608.140	0.0137648
608.218	0.0139173
608.296	0.0138532
608.374	0.0137681
608.453	0.0138439
608.531	0.0138459
608.609	0.0137763
608.687	0.0137431
608.765	0.0138786
608.843	0.0138391
608.921	0.0139213
608.999	0.0138252
609.078	0.0138744
609.156	0.0139412
609.234	0.0137952
609.312	0.0138095
609.390	0.0139654
609.468	0.0138782
609.546	0.0138413
609.624	0.0138737
609.703	0.0138695
609.781	0.0137881
609.859	0.0139391
609.937	0.0140621
610.015	0.0139117
610.093	0.0138653
610.171	0.0139191
610.249	0.0138468
610.328	0.0138020
610.406	0.0139658
610.484	0.0139193
610.562	0.0137483
610.640	0.0138834
610.718	0.0136913
610.796	0.0138938
610.874	0.0139474
610.953	0.0139546
611.031	0.0139025
611.109	0.0137209
611.187	0.0137962
611.265	0.0138057
611.343	0.0138239
611.421	0.0138416
611.499	0.0138531
611.578	0.0137718
611.656	0.0138897
611.734	0.0137622
611.812	0.0138918
611.890	0.0138783
611.968	0.0139566
612.046	0.0138661
612.124	0.0139018
612.203	0.0137357
612.281	0.0138348
612.359	0.0138974
612.437	0.0140402
612.515	0.0139305
612.593	0.0138855
612.671	0.0138613
612.749	0.0137154
612.828	0.0138353
612.906	0.0138147
612.984	0.0137052
613.062	0.0138277
613.140	0.0139358
613.218	0.0138805
613.296	0.0139112
613.374	0.0138730
613.453	0.0138190
613.531	0.0140192
613.609	0.0139544
613.687	0.0139518
613.765	0.0138985
613.843	0.0138928
613.921	0.0138891
613.999	0.0139891
614.078	0.0138316
614.156	0.0139948
614.234	0.0137589
614.312	0.0138374
614.390	0.0138164
614.468	0.0139556
614.546	0.0140857
614.624	0.0138664
614.703	0.0137949
614.781	0.0137375
614.859	0.0137965
614.937	0.0140455
615.015	0.0139316
615.093	0.0138568
615.171	0.0139054
615.249	0.0139478
615.328	0.0139698
615.406	0.0138941
615.484	0.0139613
615.562	0.0139986
615.640	0.0137720
615.718	0.0137231
615.796	0.0139730
615.874	0.0139003
615.953	0.0137946
616.031	0.0138458
616.109	0.0138580
616.187	0.0138883
616.265	0.0138346
616.343	0.0138346
616.421	0.0139982
616.499	0.0137958
616.578	0.0138963
616.656	0.0138322
616.734	0.0139506
616.812	0.0140133
616.890	0.0137847
616.968	0.0139954
617.046	0.0139326
617.124	0.0139551
617.203	0.0139481
617.281	0.0139289
617.359	0.0138393
617.437	0.0138773
617.515	0.0138745
617.593	0.0138868
617.671	0.0138087
617.749	0.0138742
617.828	0.0137527
617.906	0.0138442
617.984	0.0139223
618.062	0.0137771
618.140	0.0138926
618.218	0.0139542
618.296	0.0138635
618.374	0.0139107
618.453	0.0139223
618.531	0.0138682
618.609	0.0139422
618.687	0.0138144
618.765	0.0138144
618.843	0.0138145
618.921	0.0140548
618.999	0.0139351
619.078	0.0138455
619.156	0.0138943
619.234	0.0138540
619.312	0.0138007
619.390	0.0139629
619.468	0.0139553
619.546	0.0138311
619.624	0.0138049
619.703	0.0138539
619.781	0.0138777
619.859	0.0139511
619.937	0.0140188
620.015	0.0138714
620.093	0.0138615
620.171	0.0138965
620.249	0.0138466
620.328	0.0137808
620.406	0.0137675
620.484	0.0139069
620.562	0.0137827
620.640	0.0139521
620.718	0.0138358
620.796	0.0138083
620.874	0.0138820
620.953	0.0139255
621.031	0.0139890
621.109	0.0137893
621.187	0.0138145
621.265	0.0138982
621.343	0.0139175
621.421	0.0139387
621.499	0.0137318
621.578	0.0137792
621.656	0.0138499
621.734	0.0138765
621.812	0.0138707
621.890	0.0138292
621.968	0.0138067
622.046	0.0138569
622.124	0.0138132
622.203	0.0138603
622.281	0.0137328
622.359	0.0140040
622.437	0.0139050
622.515	0.0138749
622.593	0.0138386
622.671	0.0136685
622.749	0.0138843
622.828	0.0139260
622.906	0.0138315
622.984	0.0138618
623.062	0.0138741
623.140	0.0139012
623.218	0.0138841
623.296	0.0139145
623.374	0.0138895
623.453	0.0137276
623.531	0.0138257
623.609	0.0138965
623.687	0.0139236
623.765	0.0138196
623.843	0.0139702
623.921	0.0137788
623.999	0.0137492
624.078	0.0138633
624.156	0.0138188
624.234	0.0139689
624.312	0.0138946
624.390	0.0138617
624.468	0.0139914
624.546	0.0139312
624.624	0.0138644
624.703	0.0138490
624.781	0.0138623
624.859	0.0137603
624.937	0.0138891
625.015	0.0137984
625.093	0.0138551
625.171	0.0139626
625.249	0.0139194
625.328	0.0138844
625.406	0.0138531
625.484	0.0138789
625.562	0.0138789
625.640	0.0137012
625.718	0.0137725
625.796	0.0139271
625.874	0.0138754
625.953	0.0137783
626.031	0.0137079
626.109	0.0137733
626.187	0.0137685
626.265	0.0138811
626.343	0.0137289
626.421	0.0138353
626.499	0.0139854
626.578	0.0139827
626.656	0.0138862
626.734	0.0138101
626.812	0.0140137
626.890	0.0140141
626.968	0.0140708
627.046	0.0138326
627.124	0.0137852
627.203	0.0138521
627.281	0.0137666
627.359	0.0138783
627.437	0.0138306
627.515	0.0138571
627.593	0.0138257
627.671	0.0137940
627.749	0.0139037
627.828	0.0138834
627.906	0.0138761
627.984	0.0138274
628.062	0.0138479
628.140	0.0138744
628.218	0.0138664
628.296	0.0138161
628.374	0.0138631
628.453	0.0139096
628.531	0.0137848
628.609	0.0137852
628.687	0.0138418
628.765	0.0140113
628.843	0.0138693
628.921	0.0137415
628.999	0.0138057
629.078	0.0139651
629.156	0.0139112
629.234	0.0140582
629.312	0.0138226
629.390	0.0138081
629.468	0.0138792
629.546	0.0139199
629.624	0.0137664
629.703	0.0138320
629.781	0.0137833
629.859	0.0138448
629.937	0.0138206
630.015	0.0137339
630.093	0.0137798
630.171	0.0138027
630.249	0.0139651
630.328	0.0140073
630.406	0.0138026
630.484	0.0138531
630.562	0.0138634
630.640	0.0138561
630.718	0.0139752
630.796	0.0138895
630.874	0.0138642
630.953	0.0137969
631.031	0.0139225
631.109	0.0139056
631.187	0.0139153
631.265	0.0139094
631.343	0.0138415
631.421	0.0138467
631.499	0.0139267
631.578	0.0137270
631.656	0.0138268
631.734	0.0138791
631.812	0.0138670
631.890	0.0140208
631.968	0.0138793
632.046	0.0139386
632.124	0.0137989
632.203	0.0139261
632.281	0.0138946
632.359	0.0138576
632.437	0.0139736
632.515	0.0138648
632.593	0.0138504
632.671	0.0139458
632.749	0.0139294
632.828	0.0138776
632.906	0.0138534
632.984	0.0138174
633.062	0.0139383
633.140	0.0139626
633.218	0.0139081
633.296	0.0137391
633.374	0.0138412
633.453	0.0140078
633.531	0.0139463
633.609	0.0139587
633.687	0.0139140
633.765	0.0138300
633.843	0.0137370
633.921	0.0138719
633.999	0.0138826
634.078	0.0139841
634.156	0.0138792
634.234	0.0139165
634.312	0.0138155
634.390	0.0138343
634.468	0.0139043
634.546	0.0139613
634.624	0.0139289
634.703	0.0138828
634.781	0.0139048
634.859	0.0138543
634.937	0.0139064
635.015	0.0138007
635.093	0.0137283
635.171	0.0138988
635.249	0.0137856
635.328	0.0137272
635.406	0.0139167
635.484	0.0138890
635.562	0.0138293
635.640	0.0138938
635.718	0.0138947
635.796	0.0138246
635.874	0.0137177
635.953	0.0137099
636.031	0.0139181
636.109	0.0138295
636.187	0.0139223
636.265	0.0137487
636.343	0.0139124
636.421	0.0138264
636.499	0.0138335
636.578	0.0138330
636.656	0.0138630
636.734	0.0140032
636.812	0.0139275
636.890	0.0140269
636.968	0.0137981
637.046	0.0137627
637.124	0.0137651
637.203	0.0137721
637.281	0.0137981
637.359	0.0138435
637.437	0.0138955
637.515	0.0137819
637.593	0.0139749
637.671	0.0138125
637.749	0.0137643
637.828	0.0139565
637.906	0.0137688
637.984	0.0138155
638.062	0.0138601
638.140	0.0139151
638.218	0.0138064
638.296	0.0137732
638.374	0.0138519
638.453	0.0138215
638.531	0.0139322
638.609	0.0139677
638.687	0.0139085
638.765	0.0138210
638.843	0.0137153
638.921	0.0138002
638.999	0.0139133
639.078	0.0138364
639.156	0.0137943
639.234	0.0139299
639.312	0.0137827
639.390	0.0138257
639.468	0.0137549
639.546	0.0138484
639.624	0.0137495
639.703	0.0138184
639.781	0.0137830
639.859	0.0136787
639.937	0.0138352
640.015	0.0139552
640.093	0.0139597
640.171	0.0139496
640.249	0.0138195
640.328	0.0137835
640.406	0.0139732
640.484	0.0139528
640.562	0.0137994
640.640	0.0139147
640.718	0.0138606
640.796	0.0138924
640.874	0.0138173
640.953	0.0137917
641.031	0.0138091
641.109	0.0138536
641.187	0.0139722
641.265	0.0138793
641.343	0.0138791
641.421	0.0138990
641.499	0.0137988
641.578	0.0139825
641.656	0.0138689
641.734	0.0138340
641.812	0.0138878
641.890	0.0138047
641.968	0.0137911
642.046	0.0138413
642.124	0.0138425
642.203	0.0139641
642.281	0.0138760
642.359	0.0138543
642.437	0.0139079
642.515	0.0139848
642.593	0.0139214
642.671	0.0140112
642.749	0.0139210
642.828	0.0140394
642.906	0.0138589
642.984	0.0139643
643.062	0.0139369
643.140	0.0138796
643.218	0.0138135
643.296	0.0139682
643.374	0.0138320
643.453	0.0138349
643.531	0.0138193
643.609	0.0138306
643.687	0.0138988
643.765	0.0139106
643.843	0.0138212
643.921	0.0139105
643.999	0.0137822
644.078	0.0138771
644.156	0.0138273
644.234	0.0137933
644.312	0.0137936
644.390	0.0138718
644.468	0.0139495
644.546	0.0138351
644.624	0.0138672
644.703	0.0138937
644.781	0.0139980
644.859	0.0137817
644.937	0.0137620
645.015	0.0138155
645.093	0.0138692
645.171	0.0138206
645.249	0.0139735
645.328	0.0139748
645.406	0.0138926
645.484	0.0139407
645.562	0.0139248
645.640	0.0138048
645.718	0.0137943
645.796	0.0139814
645.874	0.0138766
645.953	0.0138757
646.031	0.0138784
646.109	0.0139723
646.187	0.0139581
646.265	0.0138931
646.343	0.0138898
646.421	0.0138739
646.499	0.0139812
646.578	0.0137560
646.656	0.0137702
646.734	0.0139632
646.812	0.0139268
646.890	0.0138490
646.968	0.0139658
647.046	0.0139906
647.124	0.0138231
647.203	0.0139139
647.281	0.0138172
647.359	0.0139655
647.437	0.0138427
647.515	0.0138922
647.593	0.0138353
647.671	0.0138046
647.749	0.0138777
647.828	0.0138625
647.906	0.0140453
647.984	0.0138258
648.062	0.0138185
648.140	0.0138953
648.218	0.0138431
648.296	0.0139803
648.374	0.0137846
648.453	0.0137844
648.531	0.0140416
648.609	0.0139340
648.687	0.0138248
648.765	0.0139540
648.843	0.0138555
648.921	0.0139012
648.999	0.0138673
649.078	0.0138125
649.156	0.0139042
649.234	0.0138927
649.312	0.0137415
649.390	0.0139112
649.468	0.0138319
649.546	0.0137774
649.624	0.0139114
649.703	0.0138423
649.781	0.0138485
649.859	0.0138536
649.937	0.0137891
650.015	0.0138295
650.093	0.0140277
650.171	0.0139285
650.249	0.0138115
650.328	0.0137280
650.406	0.0138715
650.484	0.0138897
650.562	0.0138574
650.640	0.0138570
650.718	0.0138857
650.796	0.0138922
650.874	0.0138372
650.953	0.0137803
651.031	0.0138242
651.109	0.0139062
651.187	0.0138427
651.265	0.0137538
651.343	0.0138786
651.421	0.0137396
651.499	0.0137295
651.578	0.0140224
651.656	0.0139013
651.734	0.0139251
651.812	0.0138134
651.890	0.0138609
651.968	0.0139296
652.046	0.0138403
652.124	0.0137570
652.203	0.0138456
652.281	0.0139416
652.359	0.0139393
652.437	0.0138228
652.515	0.0138596
652.593	0.0138768
652.671	0.0137973
652.749	0.0137205
652.828	0.0137607
652.906	0.0139088
652.984	0.0137377
653.062	0.0137972
653.140	0.0139886
653.218	0.0139442
653.296	0.0138886
653.374	0.0138158
653.453	0.0138848
653.531	0.0138510
653.609	0.0138698
653.687	0.0140059
653.765	0.0138004
653.843	0.0139044
653.921	0.0138360
653.999	0.0138216
654.078	0.0138686
654.156	0.0139561
654.234	0.0139356
654.312	0.0139033
654.390	0.0139070
654.468	0.0138697
654.546	0.0138744
654.624	0.0138451
654.703	0.0139162
654.781	0.0138552
654.859	0.0139690
654.937	0.0138087
655.015	0.0138774
655.093	0.0138473
655.171	0.0138003
655.249	0.0138575
655.328	0.0139229
655.406	0.0139831
655.484	0.0139299
655.562	0.0138712
655.640	0.0139268
655.718	0.0139882
655.796	0.0139056
655.874	0.0138524
655.953	0.0138395
656.031	0.0139178
656.109	0.0138841
656.187	0.0138930
656.265	0.0138354
656.343	0.0139135
656.421	0.0139200
656.499	0.0138641
656.578	0.0137944
656.656	0.0138790
656.734	0.0138493
656.812	0.0138637
656.890	0.0138560
656.968	0.0137548
657.046	0.0137367
657.124	0.0138331
657.203	0.0139109
657.281	0.0138572
657.359	0.0138060
657.437	0.0137549
657.515	0.0136863
657.593	0.0137303
657.671	0.0139127
657.749	0.0138087
657.828	0.0137504
657.906	0.0138222
657.984	0.0138684
658.062	0.0138342
658.140	0.0138887
658.218	0.0138127
658.296	0.0138486
658.374	0.0138740
658.453	0.0138816
658.531	0.0137434
658.609	0.0139785
658.687	0.0137162
658.765	0.0137727
658.843	0.0139349
658.921	0.0138638
658.999	0.0138303
659.078	0.0138387
659.156	0.0137593
659.234	0.0136695
659.312	0.0138132
659.390	0.0140250
659.468	0.0138384
659.546	0.0138718
659.624	0.0138776
659.703	0.0139069
659.781	0.0138123
659.859	0.0139117
659.937	0.0138528
660.015	0.0139426
660.093	0.0137617
660.171	0.0138580
660.249	0.0139825
660.328	0.0138533
660.406	0.0138785
660.484	0.0138747
660.562	0.0137164
660.640	0.0138168
660.718	0.0140394
660.796	0.0139352
660.874	0.0139922
660.953	0.0138050
661.031	0.0137169
661.109	0.0137824
661.187	0.0138016
661.265	0.0137801
661.343	0.0137703
661.421	0.0137914
661.499	0.0138334
661.578	0.0138972
661.656	0.0137490
661.734	0.0137619
661.812	0.0137339
661.890	0.0137201
661.968	0.0138249
662.046	0.0137931
662.124	0.0138648
662.203	0.0138872
662.281	0.0138279
662.359	0.0138073
662.437	0.0139619
662.515	0.0140644
662.593	0.0139875
662.671	0.0139144
662.749	0.0138726
662.828	0.0139378
662.906	0.0138626
662.984	0.0139033
663.062	0.0138236
663.140	0.0138361
663.218	0.0138351
663.296	0.0138062
663.374	0.0138667
663.453	0.0138032
663.531	0.0138141
663.609	0.0139037
663.687	0.0137659
663.765	0.0137737
663.843	0.0137414
663.921	0.0138975
663.999	0.0136961
664.078	0.0138116
664.156	0.0138742
664.234	0.0138227
664.312	0.0138699
664.390	0.0138915
664.468	0.0139403
664.546	0.0139104
664.624	0.0138680
664.703	0.0139795
664.781	0.0138173
664.859	0.0137749
664.937	0.0139257
665.015	0.0138221
665.093	0.0137355
665.171	0.0138557
665.249	0.0139066
665.328	0.0138895
665.406	0.0137746
665.484	0.0137953
665.562	0.0137728
665.640	0.0138258
665.718	0.0137947
665.796	0.0137694
665.874	0.0138823
665.953	0.0139000
666.031	0.0137120
666.109	0.0138888
666.187	0.0138757
666.265	0.0137983
666.343	0.0138661
666.421	0.0138968
666.499	0.0137629
666.578	0.0139053
666.656	0.0139474
666.734	0.0139082
666.812	0.0139401
666.890	0.0137423
666.968	0.0139132
667.046	0.0139859
667.124	0.0139868
667.203	0.0140272
667.281	0.0140926
667.359	0.0138528
667.437	0.0138675
667.515	0.0139256
667.593	0.0139357
667.671	0.0138167
667.749	0.0137598
667.828	0.0137096
667.906	0.0137162
667.984	0.0137621
668.062	0.0137621
668.140	0.0138145
668.218	0.0138715
668.296	0.0138856
668.374	0.0138579
668.453	0.0139053
668.531	0.0139078
668.609	0.0139122
668.687	0.0139945
668.765	0.0138377
668.843	0.0139955
668.921	0.0139787
668.999	0.0139148
669.078	0.0140243
669.156	0.0138840
669.234	0.0138683
669.312	0.0138611
669.390	0.0138067
669.468	0.0138625
669.546	0.0137482
669.624	0.0137137
669.703	0.0136328
669.781	0.0137160
669.859	0.0138813
669.937	0.0136337
670.015	0.0137022
670.093	0.0138042
670.171	0.0138552
670.249	0.0139590
670.328	0.0139259
670.406	0.0140547
670.484	0.0142545
670.562	0.0141746
670.640	0.0141239
670.718	0.0140421
670.796	0.0140862
670.874	0.0140247
670.953	0.0139495
671.031	0.0138931
671.109	0.0140044
671.187	0.0138817
671.265	0.0138829
671.343	0.0140034
671.421	0.0137803
671.499	0.0138226
671.578	0.0138320
671.656	0.0137360
671.734	0.0137200
671.812	0.0136448
671.890	0.0137069
671.968	0.0137083
672.046	0.0136771
672.124	0.0138038
672.203	0.0138856
672.281	0.0138605
672.359	0.0141821
672.437	0.0140707
672.515	0.0141873
672.593	0.0143221
672.671	0.0141811
672.749	0.0141303
672.828	0.0141649
672.906	0.0141527
672.984	0.0142393
673.062	0.0142297
673.140	0.0140092
673.218	0.0140615
673.296	0.0140873
673.374	0.0139259
673.453	0.0138992
673.531	0.0138099
673.609	0.0138930
673.687	0.0136322
673.765	0.0136950
673.843	0.0137354
673.921	0.0136253
673.999	0.0137547
674.078	0.0138570
674.156	0.0138937
674.234	0.0139106
674.312	0.0139412
674.390	0.0138759
674.468	0.0140326
674.546	0.0138649
674.624	0.0139040
674.703	0.0138749
674.781	0.0138131
674.859	0.0138673
674.937	0.0137366
675.015	0.0137055
675.093	0.0136479
675.171	0.0136081
675.249	0.0135533
675.328	0.0136835
675.406	0.0138705
675.484	0.0138229
675.562	0.0138056
675.640	0.0137927
675.718	0.0139056
675.796	0.0140246
675.874	0.0139439
675.953	0.0140278
676.031	0.0141415
676.109	0.0142154
676.187	0.0141880
676.265	0.0141682
676.343	0.0141615
676.421	0.0139773
676.499	0.0142154
676.578	0.0141955
676.656	0.0140231
676.734	0.0142226
676.812	0.0141331
676.890	0.0140314
676.968	0.0142019
677.046	0.0141113
677.124	0.0140405
677.203	0.0140926
677.281	0.0139535
677.359	0.0140322
677.437	0.0139635
677.515	0.0139543
677.593	0.0138243
677.671	0.0138824
677.749	0.0138802
677.828	0.0138796
677.906	0.0138209
677.984	0.0137491
678.062	0.0137566
678.140	0.0134903
678.218	0.0135429
678.296	0.0135202
678.374	0.0135852
678.453	0.0135677
678.531	0.0134328
678.609	0.0133501
678.687	0.0134298
678.765	0.0135185
678.843	0.0136604
678.921	0.0136185
678.999	0.0137480
679.078	0.0138061
679.156	0.0137691
679.234	0.0139651
679.312	0.0142304
679.390	0.0141384
679.468	0.0140462
679.546	0.0139653
679.624	0.0140152
679.703	0.0142702
679.781	0.0139786
679.859	0.0140949
679.937	0.0138888
680.015	0.0139901
680.093	0.0140457
680.171	0.0139843
680.249	0.0139630
680.328	0.0139886
680.406	0.0139028
680.484	0.0138839
680.562	0.0139050
680.640	0.0138410
680.718	0.0138387
680.796	0.0140240
680.874	0.0141179
680.953	0.0140774
681.031	0.0139482
681.109	0.0139143
681.187	0.0138640
681.265	0.0140338
681.343	0.0139306
681.421	0.0140032
681.499	0.0139964
681.578	0.0137999
681.656	0.0139659
681.734	0.0138694
681.812	0.0137922
681.890	0.0139668
681.968	0.0138471
682.046	0.0137008
682.124	0.0139288
682.203	0.0138853
682.281	0.0138798
682.359	0.0138654
682.437	0.0140470
682.515	0.0139362
682.593	0.0140465
682.671	0.0138761
682.749	0.0139704
682.828	0.0137470
682.906	0.0136828
682.984	0.0136884
683.062	0.0133918
683.140	0.0133498
683.218	0.0133175
683.296	0.0133170
683.374	0.0132648
683.453	0.0132186
683.531	0.0131596
683.609	0.0133360
683.687	0.0132545
683.765	0.0133138
683.843	0.0134097
683.921	0.0134865
683.999	0.0137109
684.078	0.0137086
684.156	0.0139799
684.234	0.0140102
684.312	0.0141012
684.390	0.0142485
684.468	0.0143840
684.546	0.0145681
684.624	0.0145515
684.703	0.0146668
684.781	0.0148533
684.859	0.0146867
684.937	0.0147379
685.015	0.0149120
685.093	0.0147745
685.171	0.0145810
685.249	0.0144012
685.328	0.0142844
685.406	0.0143752
685.484	0.0142036
685.562	0.0142663
685.640	0.0141628
685.718	0.0141417
685.796	0.0140459
685.874	0.0140914
685.953	0.0140577
686.031	0.0140309
686.109	0.0140144
686.187	0.0138293
686.265	0.0138723
686.343	0.0137536
686.421	0.0136891
686.499	0.0136574
686.578	0.0135799
686.656	0.0133722
686.734	0.0132780
686.812	0.0132385
686.890	0.0132001
686.968	0.0131779
687.046	0.0130453
687.124	0.0130688
687.203	0.0131104
687.281	0.0131450
687.359	0.0131596
687.437	0.0130325
687.515	0.0131637
687.593	0.0132085
687.671	0.0131923
687.749	0.0132386
687.828	0.0130721
687.906	0.0130547
687.984	0.0131322
688.062	0.0130952
688.140	0.0132136
688.218	0.0131765
688.296	0.0132449
688.374	0.0133136
688.453	0.0134403
688.531	0.0136311
688.609	0.0138152
688.687	0.0140202
688.765	0.0142184
688.843	0.0142773
688.921	0.0148238
688.999	0.0149021
689.078	0.0151646
689.156	0.0153617
689.234	0.0154459
689.312	0.0155786
689.390	0.0157272
689.468	0.0156448
689.546	0.0153968
689.624	0.0154596
689.703	0.0152881
689.781	0.0151273
689.859	0.0148758
689.937	0.0147218
690.015	0.0141737
690.093	0.0139824
690.171	0.0138211
690.249	0.0137198
690.328	0.0134697
690.406	0.0135625
690.484	0.0134110
690.562	0.0133337
690.640	0.0132986
690.718	0.0133770
690.796	0.0134586
690.874	0.0136177
690.953	0.0136002
691.031	0.0136712
691.109	0.0139628
691.187	0.0138335
691.265	0.0138229
691.343	0.0138058
691.421	0.0137881
691.499	0.0137665
691.578	0.0134637
691.656	0.0133401
691.734	0.0132565
691.812	0.0131635
691.890	0.0132219
691.968	0.0129498
692.046	0.0130061
692.124	0.0127626
692.203	0.0130059
692.281	0.0128592
692.359	0.0128651
692.437	0.0128431
692.515	0.0128616
692.593	0.0129132
692.671	0.0130003
692.749	0.0130164
692.828	0.0129950
692.906	0.0128745
692.984	0.0129570
693.062	0.0131673
693.140	0.0131896
693.218	0.0131095
693.296	0.0133781
693.374	0.0135057
693.453	0.0136735
693.531	0.0141168
693.609	0.0142824
693.687	0.0146140
693.765	0.0150629
693.843	0.0152901
693.921	0.0155477
693.999	0.0157372
694.078	0.0161308
694.156	0.0162730
694.234	0.0162704
694.312	0.0164136
694.390	0.0164140
694.468	0.0164174
694.546	0.0162428
694.624	0.0162786
694.703	0.0160286
694.781	0.0155898
694.859	0.0153734
694.937	0.0149358
695.015	0.0146852
695.093	0.0140991
695.171	0.0138408
695.249	0.0135078
695.328	0.0133067
695.406	0.0131306
695.484	0.0126837
695.562	0.0126774
695.640	0.0126702
695.718	0.0125191
695.796	0.0124177
695.874	0.0126062
695.953	0.0124869
696.031	0.0126730
696.109	0.0126165
696.187	0.0126261
696.265	0.0125169
696.343	0.0125190
696.421	0.0125126
696.499	0.0125278
696.578	0.0125342
696.656	0.0126165
696.734	0.0126064
696.812	0.0126505
696.890	0.0127312
696.968	0.0127289
697.046	0.0127718
697.124	0.0129034
697.203	0.0129826
697.281	0.0132479
697.359	0.0132584
697.437	0.0133064
697.515	0.0134135
697.593	0.0136448
697.671	0.0136668
697.749	0.0137611
697.828	0.0137971
697.906	0.0138567
697.984	0.0139572
698.062	0.0139590
698.140	0.0138731
698.218	0.0140449
698.296	0.0141942
698.374	0.0142112
698.453	0.0145805
698.531	0.0146180
698.609	0.0149222
698.687	0.0152268
698.765	0.0154556
698.843	0.0156087
698.921	0.0158382
698.999	0.0162164
699.078	0.0162135
699.156	0.0163359
699.234	0.0164983
699.312	0.0163689
699.390	0.0161754
699.468	0.0160874
699.546	0.0159576
699.624	0.0155437
699.703	0.0153277
699.781	0.0150625
699.859	0.0145714
699.937	0.0142641
700.015	0.0139069
700.093	0.0134643
700.171	0.0130737
700.249	0.0126395
700.328	0.0126249
700.406	0.0123860
700.484	0.0122327
700.562	0.0122668
700.640	0.0121507
700.718	0.0122015
700.796	0.0123977
700.874	0.0122147
700.953	0.0122626
701.031	0.0123242
701.109	0.0125116
701.187	0.0124678
701.265	0.0123883
701.343	0.0124347
701.421	0.0124409
701.499	0.0125001
701.578	0.0125799
701.656	0.0128553
701.734	0.0128188
701.812	0.0129960
701.890	0.0129256
701.968	0.0131834
702.046	0.0133832
702.124	0.0135846
702.203	0.0135557
702.281	0.0136554
702.359	0.0138607
702.437	0.0138336
702.515	0.0139409
702.593	0.0140811
702.671	0.0143771
702.749	0.0143281
702.828	0.0143624
702.906	0.0142464
702.984	0.0143155
703.062	0.0143726
703.140	0.0144508
703.218	0.0144821
703.296	0.0144274
703.374	0.0146841
703.453	0.0148662
703.531	0.0149345
703.609	0.0151467
703.687	0.0153883
703.765	0.0155978
703.843	0.0158103
703.921	0.0158138
703.999	0.0158547
704.078	0.0159689
704.156	0.0160954
704.234	0.0157758
704.312	0.0156789
704.390	0.0156091
704.468	0.0154047
704.546	0.0151609
704.624	0.0147959
704.703	0.0145416
704.781	0.0142281
704.859	0.0140037
704.937	0.0135576
705.015	0.0133263
705.093	0.0130058
705.171	0.0127651
705.249	0.0125201
705.328	0.0126184
705.406	0.0124493
705.484	0.0123341
705.562	0.0124313
705.640	0.0123978
705.718	0.0124093
705.796	0.0123865
705.874	0.0126212
705.953	0.0125175
706.031	0.0125812
706.109	0.0124756
706.187	0.0125359
706.265	0.0125577
706.343	0.0125330
706.421	0.0125992
706.499	0.0126865
706.578	0.0128552
706.656	0.0129145
706.734	0.0130949
706.812	0.0132969
706.890	0.0135924
706.968	0.0136735
707.046	0.0138480
707.124	0.0140369
707.203	0.0142575
707.281	0.0145074
707.359	0.0145750
707.437	0.0145141
707.515	0.0145948
707.593	0.0145826
707.671	0.0146358
707.749	0.0146661
707.828	0.0143429
707.906	0.0143863
707.984	0.0141739
708.062	0.0139592
708.140	0.0139327
708.218	0.0140289
708.296	0.0137782
708.374	0.0138694
708.453	0.0139261
708.531	0.0141039
708.609	0.0142271
708.687	0.0144546
708.765	0.0146282
708.843	0.0150378
708.921	0.0151606
708.999	0.0153683
709.078	0.0158221
709.156	0.0159784
709.234	0.0159304
709.312	0.0159212
709.390	0.0158489
709.468	0.0157065
709.546	0.0155366
709.624	0.0152766
709.703	0.0148412
709.781	0.0143674
709.859	0.0141074
709.937	0.0136909
710.015	0.0133946
710.093	0.0130637
710.171	0.0126863
710.249	0.0126665
710.328	0.0125050
710.406	0.0122292
710.484	0.0122639
710.562	0.0122618
710.640	0.0121468
710.718	0.0122673
710.796	0.0122251
710.874	0.0122657
710.953	0.0121151
711.031	0.0123727
711.109	0.0124831
711.187	0.0125166
711.265	0.0125285
711.343	0.0127479
711.421	0.0127625
711.499	0.0128687
711.578	0.0131687
711.656	0.0130853
711.734	0.0131541
711.812	0.0134201
711.890	0.0136550
711.968	0.0138264
712.046	0.0139391
712.124	0.0142070
712.203	0.0143316
712.281	0.0143884
712.359	0.0146475
712.437	0.0148143
712.515	0.0146645
712.593	0.0150217
712.671	0.0149324
712.749	0.0149973
712.828	0.0149303
712.906	0.0146503
712.984	0.0144272
713.062	0.0143793
713.140	0.0142666
713.218	0.0140601
713.296	0.0139430
713.374	0.0139786
713.453	0.0140128
713.531	0.0140206
713.609	0.0141776
713.687	0.0142554
713.765	0.0143733
713.843	0.0146560
713.921	0.0147643
713.999	0.0149036
714.078	0.0150835
714.156	0.0152870
714.234	0.0150420
714.312	0.0153598
714.390	0.0152502
714.468	0.0150398
714.546	0.0149422
714.624	0.0147630
714.703	0.0145921
714.781	0.0142895
714.859	0.0139584
714.937	0.0136597
715.015	0.0132487
715.093	0.0131194
715.171	0.0128564
715.249	0.0126914
715.328	0.0127198
715.406	0.0125469
715.484	0.0124832
715.562	0.0125323
715.640	0.0124520
715.718	0.0122465
715.796	0.0124799
715.874	0.0125495
715.953	0.0125928
716.031	0.0126865
716.109	0.0128678
716.187	0.0128753
716.265	0.0128219
716.343	0.0130068
716.421	0.0131290
716.499	0.0131245
716.578	0.0133941
716.656	0.0134834
716.734	0.0136127
716.812	0.0137918
716.890	0.0140141
716.968	0.0140819
717.046	0.0144066
717.124	0.0146348
717.203	0.0146288
717.281	0.0147253
717.359	0.0148365
717.437	0.0149886
717.515	0.0152750
717.593	0.0151125
717.671	0.0149268
717.749	0.0148797
717.828	0.0148303
717.906	0.0145518
717.984	0.0143394
718.062	0.0142426
718.140	0.0141476
718.218	0.0137800
718.296	0.0135973
718.374	0.0134292
718.453	0.0134503
718.531	0.0134692
718.609	0.0134843
718.687	0.0134740
718.765	0.0134952
718.843	0.0137012
718.921	0.0137827
718.999	0.0140445
719.078	0.0142371
719.156	0.0142529
719.234	0.0145324
719.312	0.0147649
719.390	0.0148225
719.468	0.0148455
719.546	0.0147511
719.624	0.0146648
719.703	0.0145461
719.781	0.0143948
719.859	0.0143810
719.937	0.0141351
720.015	0.0139331
720.093	0.0135609
720.171	0.0136000
720.249	0.0134221
720.328	0.0132653
720.406	0.0132496
720.484	0.0130754
720.562	0.0131123
720.640	0.0129934
720.718	0.0129792
720.796	0.0130270
720.874	0.0129636
720.953	0.0130249
721.031	0.0129615
721.109	0.0130953
721.187	0.0133179
721.265	0.0132533
721.343	0.0130640
721.421	0.0131298
721.499	0.0133125
721.578	0.0134120
721.656	0.0136981
721.734	0.0135649
721.812	0.0136414
721.890	0.0138377
721.968	0.0137664
722.046	0.0140646
722.124	0.0141747
722.203	0.0144022
722.281	0.0146090
722.359	0.0145978
722.437	0.0147577
722.515	0.0148535
722.593	0.0148347
722.671	0.0147105
722.749	0.0145481
722.828	0.0145890
722.906	0.0142406
722.984	0.0142735
723.062	0.0141236
723.140	0.0138404
723.218	0.0137095
723.296	0.0136047
723.374	0.0136012
723.453	0.0131687
723.531	0.0133218
723.609	0.0132500
723.687	0.0132859
723.765	0.0134371
723.843	0.0133296
723.921	0.0135415
723.999	0.0138054
724.078	0.0140679
724.156	0.0140899
724.234	0.0142753
724.312	0.0144731
724.390	0.0145802
724.468	0.0148077
724.546	0.0148745
724.624	0.0149020
724.703	0.0148080
724.781	0.0146911
724.859	0.0146612
724.937	0.0144697
725.015	0.0142896
725.093	0.0142355
725.171	0.0138532
725.249	0.0134976
725.328	0.0134435
725.406	0.0133797
725.484	0.0131403
725.562	0.0129861
725.640	0.0131049
725.718	0.0132050
725.796	0.0130495
725.874	0.0130920
725.953	0.0131033
726.031	0.0131718
726.109	0.0130421
726.187	0.0132328
726.265	0.0132073
726.343	0.0134601
726.421	0.0134714
726.499	0.0134427
726.578	0.0135901
726.656	0.0135572
726.734	0.0137281
726.812	0.0136189
726.890	0.0138369
726.968	0.0139518
727.046	0.0142238
727.124	0.0142980
727.203	0.0141854
727.281	0.0142795
727.359	0.0144793
727.437	0.0144743
727.515	0.0145164
727.593	0.0145596
727.671	0.0145560
727.749	0.0144046
727.828	0.0143644
727.906	0.0143021
727.984	0.0141955
728.062	0.0139109
728.140	0.0138274
728.218	0.0136787
728.296	0.0135686
728.374	0.0134396
728.453	0.0134597
728.531	0.0133376
728.609	0.0132930
728.687	0.0133489
728.765	0.0133598
728.843	0.0132970
728.921	0.0133798
728.999	0.0136508
729.078	0.0139076
729.156	0.0140580
729.234	0.0141399
729.312	0.0142176
729.390	0.0143947
729.468	0.0146506
729.546	0.0146796
729.624	0.0145974
729.703	0.0148125
729.781	0.0146878
729.859	0.0146159
729.937	0.0145215
730.015	0.0144026
730.093	0.0142258
730.171	0.0139736
730.249	0.0137556
730.328	0.0136734
730.406	0.0134851
730.484	0.0134040
730.562	0.0133180
730.640	0.0131938
730.718	0.0129126
730.796	0.0129463
730.874	0.0128738
730.953	0.0130547
731.031	0.0131720
731.109	0.0130875
731.187	0.0134238
731.265	0.0133577
731.343	0.0135693
731.421	0.0135842
731.499	0.0138577
731.578	0.0138129
731.656	0.0139824
731.734	0.0139840
731.812	0.0140476
731.890	0.0141636
731.968	0.0143835
732.046	0.0143616
732.124	0.0144366
732.203	0.0144416
732.281	0.0146442
732.359	0.0146398
732.437	0.0143484
732.515	0.0141481
732.593	0.0143642
732.671	0.0143902
732.749	0.0142603
732.828	0.0140841
732.906	0.0139666
732.984	0.0138631
733.062	0.0136701
733.140	0.0135284
733.218	0.0134015
733.296	0.0133237
733.374	0.0132927
733.453	0.0132069
733.531	0.0130941
733.609	0.0131569
733.687	0.0131948
733.765	0.0131593
733.843	0.0131512
733.921	0.0134256
733.999	0.0136295
734.078	0.0136176
734.156	0.0138346
734.234	0.0138545
734.312	0.0142264
734.390	0.0145816
734.468	0.0145180
734.546	0.0144955
734.624	0.0147270
734.703	0.0147543
734.781	0.0147404
734.859	0.0145647
734.937	0.0145631
735.015	0.0144313
735.093	0.0144222
735.171	0.0143188
735.249	0.0141161
735.328	0.0139629
735.406	0.0138957
735.484	0.0137798
735.562	0.0135540
735.640	0.0135633
735.718	0.0135208
735.796	0.0134519
735.874	0.0133951
735.953	0.0134461
736.031	0.0133984
736.109	0.0133252
736.187	0.0134919
736.265	0.0135233
736.343	0.0135069
736.421	0.0133961
736.499	0.0135233
736.578	0.0136727
736.656	0.0138255
736.734	0.0137849
736.812	0.0139133
736.890	0.0140692
736.968	0.0139610
737.046	0.0140237
737.124	0.0141126
737.203	0.0141809
737.281	0.0140524
737.359	0.0142341
737.437	0.0142776
737.515	0.0142262
737.593	0.0141276
737.671	0.0141224
737.749	0.0140905
737.828	0.0140960
737.906	0.0139541
737.984	0.0139771
738.062	0.0138464
738.140	0.0135893
738.218	0.0134543
738.296	0.0134248
738.374	0.0134809
738.453	0.0132763
738.531	0.0132478
738.609	0.0133522
738.687	0.0133064
738.765	0.0134037
738.843	0.0133902
738.921	0.0134357
738.999	0.0134772
739.078	0.0135744
739.156	0.0137370
739.234	0.0138153
739.312	0.0141546
739.390	0.0142410
739.468	0.0140671
739.546	0.0141547
739.624	0.0144833
739.703	0.0144319
739.781	0.0143841
739.859	0.0145654
739.937	0.0144532
740.015	0.0144263
740.093	0.0143874
740.171	0.0143801
740.249	0.0142373
740.328	0.0139509
740.406	0.0138907
740.484	0.0138882
740.562	0.0137786
740.640	0.0135741
740.718	0.0134689
740.796	0.0133135
740.874	0.0133847
740.953	0.0132762
741.031	0.0132847
741.109	0.0133263
741.187	0.0132475
741.265	0.0133862
741.343	0.0133424
741.421	0.0134871
741.499	0.0134678
741.578	0.0136493
741.656	0.0137070
741.734	0.0138155
741.812	0.0137206
741.890	0.0140518
741.968	0.0140450
742.046	0.0141098
742.124	0.0140337
742.203	0.0143359
742.281	0.0143797
742.359	0.0143296
742.437	0.0142984
742.515	0.0142484
742.593	0.0143159
742.671	0.0143444
742.749	0.0143539
742.828	0.0141742
742.906	0.0142078
742.984	0.0140457
743.062	0.0138615
743.140	0.0139946
743.218	0.0136995
743.296	0.0136298
743.374	0.0134747
743.453	0.0134235
743.531	0.0135134
743.609	0.0134196
743.687	0.0132833
743.765	0.0132512
743.843	0.0133396
743.921	0.0135080
743.999	0.0133500
744.078	0.0135117
744.156	0.0135593
744.234	0.0138258
744.312	0.0138847
744.390	0.0140788
744.468	0.0139758
744.546	0.0140781
744.624	0.0143783
744.703	0.0142544
744.781	0.0143761
744.859	0.0143858
744.937	0.0143124
745.015	0.0143328
745.093	0.0142289
745.171	0.0141774
745.249	0.0139967
745.328	0.0139439
745.406	0.0137934
745.484	0.0137413
745.562	0.0136340
745.640	0.0136784
745.718	0.0135516
745.796	0.0134508
745.874	0.0135200
745.953	0.0133499
746.031	0.0133878
746.109	0.0133402
746.187	0.0133744
746.265	0.0135101
746.343	0.0134865
746.421	0.0136337
746.499	0.0136976
746.578	0.0136585
746.656	0.0137357
746.734	0.0139078
746.812	0.0139927
746.890	0.0139015
746.968	0.0141595
747.046	0.0141830
747.124	0.0141653
747.203	0.0143096
747.281	0.0142702
747.359	0.0143185
747.437	0.0142035
747.515	0.0143772
747.593	0.0143499
747.671	0.0141476
747.749	0.0141778
747.828	0.0140099
747.906	0.0140102
747.984	0.0140211
748.062	0.0140328
748.140	0.0137305
748.218	0.0137474
748.296	0.0137576
748.374	0.0136035
748.453	0.0134406
748.531	0.0134006
748.609	0.0134521
748.687	0.0134777
748.765	0.0133709
748.843	0.0133401
748.921	0.0135213
748.999	0.0135390
749.078	0.0135154
749.156	0.0135731
749.234	0.0135712
749.312	0.0138588
749.390	0.0138066
749.468	0.0138187
749.546	0.0139647
749.624	0.0138381
749.703	0.0140230
749.781	0.0142477
749.859	0.0141485
749.937	0.0141850
750.015	0.0141840
750.093	0.0142792
750.171	0.0143247
750.249	0.0140874
750.328	0.0142484
750.406	0.0140940
750.484	0.0140193
750.562	0.0138866
750.640	0.0138726
750.718	0.0137460
750.796	0.0137730
750.874	0.0135963
750.953	0.0135038
751.031	0.0136509
751.109	0.0135440
751.187	0.0135205
751.265	0.0133491
751.343	0.0134065
751.421	0.0135352
751.499	0.0135534
751.578	0.0136406
751.656	0.0137634
751.734	0.0136835
751.812	0.0138931
751.890	0.0138816
751.968	0.0139514
752.046	0.0139478
752.124	0.0139523
752.203	0.0140685
752.281	0.0140350
752.359	0.0140743
752.437	0.0140781
752.515	0.0139391
752.593	0.0140281
752.671	0.0140866
752.749	0.0140459
752.828	0.0140638
752.906	0.0140920
752.984	0.0140270
753.062	0.0139645
753.140	0.0139310
753.218	0.0139584
753.296	0.0138530
753.374	0.0137172
753.453	0.0138021
753.531	0.0136647
753.609	0.0137090
753.687	0.0135889
753.765	0.0135674
753.843	0.0136180
753.921	0.0136677
753.999	0.0136088
754.078	0.0138445
754.156	0.0136840
754.234	0.0138000
754.312	0.0137363
754.390	0.0138102
754.468	0.0140324
754.546	0.0141410
754.624	0.0141815
754.703	0.0141546
754.781	0.0142528
754.859	0.0142160
754.937	0.0143784
755.015	0.0143218
755.093	0.0143272
755.171	0.0142767
755.249	0.0140922
755.328	0.0139454
755.406	0.0139111
755.484	0.0139313
755.562	0.0137010
755.640	0.0137057
755.718	0.0136907
755.796	0.0135909
755.874	0.0137447
755.953	0.0134534
756.031	0.0134796
756.109	0.0135937
756.187	0.0133980
756.265	0.0134334
756.343	0.0136148
756.421	0.0136631
756.499	0.0136108
756.578	0.0136417
756.656	0.0137407
756.734	0.0139169
756.812	0.0138626
756.890	0.0140050
756.968	0.0139032
757.046	0.0138202
757.124	0.0140517
757.203	0.0139454
757.281	0.0140023
757.359	0.0141156
757.437	0.0140836
757.515	0.0139498
757.593	0.0140811
757.671	0.0142586
757.749	0.0140469
757.828	0.0140936
757.906	0.0140399
757.984	0.0141085
758.062	0.0139713
758.140	0.0139379
758.218	0.0138567
758.296	0.0137334
758.374	0.0138654
758.453	0.0137363
758.531	0.0137985
758.609	0.0136218
758.687	0.0135352
758.765	0.0136519
758.843	0.0136767
758.921	0.0136388
758.999	0.0138528
759.078	0.0137415
759.156	0.0141307
759.234	0.0139867
759.312	0.0140893
759.390	0.0141529
759.468	0.0142513
759.546	0.0143195
759.624	0.0140838
759.703	0.0142453
759.781	0.0143235
759.859	0.0141578
759.937	0.0141821
760.015	0.0140795
760.093	0.0139799
760.171	0.0139533
760.249	0.0139848
760.328	0.0138492
760.406	0.0137555
760.484	0.0138630
760.562	0.0136698
760.640	0.0137309
760.718	0.0136193
760.796	0.0135702
760.874	0.0137102
760.953	0.0135939
761.031	0.0135531
761.109	0.0136403
761.187	0.0136936
761.265	0.0137862
761.343	0.0137577
761.421	0.0136955
761.499	0.0137810
761.578	0.0138699
761.656	0.0137504
761.734	0.0138764
761.812	0.0139050
761.890	0.0140812
761.968	0.0140365
762.046	0.0141389
762.124	0.0141756
762.203	0.0142385
762.281	0.0142542
762.359	0.0143196
762.437	0.0141971
762.515	0.0141870
762.593	0.0141914
762.671	0.0140641
762.749	0.0141890
762.828	0.0141054
762.906	0.0139915
762.984	0.0140399
763.062	0.0139626
763.140	0.0138242
763.218	0.0137943
763.296	0.0136723
763.374	0.0137179
763.453	0.0136948
763.531	0.0136195
763.609	0.0135750
763.687	0.0136500
763.765	0.0136285
763.843	0.0138122
763.921	0.0138435
763.999	0.0136083
764.078	0.0139177
764.156	0.0138069
764.234	0.0140354
764.312	0.0140403
764.390	0.0141912
764.468	0.0143381
764.546	0.0141869
764.624	0.0141632
764.703	0.0141075
764.781	0.0141467
764.859	0.0140916
764.937	0.0139485
765.015	0.0140192
765.093	0.0140125
765.171	0.0139835
765.249	0.0139371
765.328	0.0138550
765.406	0.0138675
765.484	0.0136613
765.562	0.0138128
765.640	0.0137912
765.718	0.0137288
765.796	0.0137787
765.874	0.0138467
765.953	0.0138480
766.031	0.0137814
766.109	0.0137553
766.187	0.0137747
766.265	0.0137482
766.343	0.0139400
766.421	0.0137213
766.499	0.0136954
766.578	0.0137067
766.656	0.0136772
766.734	0.0137763
766.812	0.0138434
766.890	0.0139387
766.968	0.0140202
767.046	0.0140541
767.124	0.0141372
767.203	0.0141698
767.281	0.0141734
767.359	0.0142492
767.437	0.0145213
767.515	0.0142744
767.593	0.0143555
767.671	0.0142069
767.749	0.0141079
767.828	0.0140955
767.906	0.0140715
767.984	0.0140070
768.062	0.0138145
768.140	0.0138107
768.218	0.0137145
768.296	0.0135704
768.374	0.0135796
768.453	0.0136703
768.531	0.0138017
768.609	0.0136557
768.687	0.0135593
768.765	0.0136566
768.843	0.0137112
768.921	0.0138395
768.999	0.0138071
769.078	0.0139372
769.156	0.0138942
769.234	0.0139557
769.312	0.0139123
769.390	0.0140445
769.468	0.0140150
769.546	0.0138868
769.624	0.0140421
769.703	0.0139720
769.781	0.0140144
769.859	0.0141405
769.937	0.0141441
770.015	0.0141854
770.093	0.0141714
770.171	0.0140762
770.249	0.0141715
770.328	0.0140664
770.406	0.0141174
770.484	0.0140969
770.562	0.0140273
770.640	0.0140133
770.718	0.0139877
770.796	0.0138656
770.874	0.0138226
770.953	0.0137775
771.031	0.0137862
771.109	0.0136960
771.187	0.0136618
771.265	0.0135580
771.343	0.0137127
771.421	0.0136745
771.499	0.0136710
771.578	0.0137910
771.656	0.0136524
771.734	0.0137923
771.812	0.0138039
771.890	0.0139628
771.968	0.0140331
772.046	0.0140442
772.124	0.0140936
772.203	0.0141014
772.281	0.0141006
772.359	0.0143013
772.437	0.0141559
772.515	0.0141110
772.593	0.0141817
772.671	0.0140263
772.749	0.0140573
772.828	0.0139552
772.906	0.0138556
772.984	0.0140054
773.062	0.0138426
773.140	0.0138458
773.218	0.0137827
773.296	0.0138245
773.374	0.0138498
773.453	0.0138436
773.531	0.0139415
773.609	0.0138259
773.687	0.0138323
773.765	0.0139374
773.843	0.0138601
773.921	0.0139351
773.999	0.0138707
774.078	0.0137467
774.156	0.0138110
774.234	0.0138984
774.312	0.0139058
774.390	0.0138949
774.468	0.0139295
774.546	0.0140040
774.624	0.0140148
774.703	0.0139584
774.781	0.0140696
774.859	0.0141003
774.937	0.0141352
775.015	0.0143015
775.093	0.0140739
775.171	0.0139938
775.249	0.0140423
775.328	0.0140794
775.406	0.0139748
775.484	0.0140113
775.562	0.0140302
775.640	0.0139403
775.718	0.0139301
775.796	0.0137596
775.874	0.0138404
775.953	0.0138555
776.031	0.0137812
776.109	0.0137061
776.187	0.0137985
776.265	0.0137833
776.343	0.0136710
776.421	0.0136306
776.499	0.0138165
776.578	0.0137077
776.656	0.0138358
776.734	0.0139204
776.812	0.0139884
776.890	0.0140233
776.968	0.0140253
777.046	0.0140069
777.124	0.0142061
777.203	0.0141453
777.281	0.0141385
777.359	0.0140827
777.437	0.0139973
777.515	0.0140427
777.593	0.0140033
777.671	0.0140163
777.749	0.0139997
777.828	0.0140215
777.906	0.0139219
777.984	0.0137547
778.062	0.0137821
778.140	0.0136543
778.218	0.0137272
778.296	0.0138219
778.374	0.0136438
778.453	0.0137613
778.531	0.0138090
778.609	0.0137403
778.687	0.0137437
778.765	0.0138921
778.843	0.0140439
778.921	0.0138057
778.999	0.0139135
779.078	0.0138847
779.156	0.0139883
779.234	0.0139825
779.312	0.0139545
779.390	0.0140601
779.468	0.0139493
779.546	0.0140720
779.624	0.0138805
779.703	0.0138960
779.781	0.0141058
779.859	0.0140165
779.937	0.0139491
780.015	0.0140668
780.093	0.0139717
780.171	0.0140840
780.249	0.0140445
780.328	0.0138435
780.406	0.0138191
780.484	0.0140102
780.562	0.0138166
780.640	0.0137498
780.718	0.0138480
780.796	0.0137694
780.874	0.0138135
780.953	0.0138631
781.031	0.0138406
781.109	0.0138330
781.187	0.0137668
781.265	0.0138638
781.343	0.0139607
781.421	0.0139000
781.499	0.0139775
781.578	0.0139063
781.656	0.0140090
781.734	0.0141005
781.812	0.0141701
781.890	0.0140660
781.968	0.0141782
782.046	0.0140742
782.124	0.0141039
782.203	0.0142216
782.281	0.0140623
782.359	0.0141225
782.437	0.0139220
782.515	0.0139671
782.593	0.0139124
782.671	0.0138754
782.749	0.0137277
782.828	0.0136392
782.906	0.0136857
782.984	0.0136290
783.062	0.0136774
783.140	0.0136027
783.218	0.0137289
783.296	0.0138857
783.374	0.0136718
783.453	0.0137197
783.531	0.0137935
783.609	0.0137524
783.687	0.0137740
783.765	0.0137600
783.843	0.0138462
783.921	0.0138483
783.999	0.0139455
784.078	0.0139146
784.156	0.0139324
784.234	0.0138670
784.312	0.0138287
784.390	0.0138189
784.468	0.0139916
784.546	0.0140179
784.624	0.0141529
784.703	0.0141335
784.781	0.0141849
784.859	0.0139749
784.937	0.0140823
785.015	0.0141505
785.093	0.0140353
785.171	0.0140180
785.249	0.0140612
785.328	0.0139394
785.406	0.0139403
785.484	0.0140303
785.562	0.0138542
785.640	0.0138818
785.718	0.0139811
785.796	0.0137756
785.874	0.0137550
785.953	0.0138613
786.031	0.0137473
786.109	0.0137922
786.187	0.0138390
786.265	0.0137103
786.343	0.0137688
786.421	0.0138191
786.499	0.0138445
786.578	0.0137854
786.656	0.0137791
786.734	0.0139375
786.812	0.0139575
786.890	0.0139487
786.968	0.0140364
787.046	0.0139729
787.124	0.0141612
787.203	0.0141492
787.281	0.0140879
787.359	0.0141867
787.437	0.0140575
787.515	0.0140414
787.593	0.0140515
787.671	0.0141378
787.749	0.0140208
787.828	0.0139174
787.906	0.0140244
787.984	0.0137325
788.062	0.0136480
788.140	0.0137431
788.218	0.0137654
788.296	0.0136852
788.374	0.0136562
788.453	0.0135846
788.531	0.0136166
788.609	0.0137323
788.687	0.0136292
788.765	0.0137686
788.843	0.0137603
788.921	0.0138134
788.999	0.0136580
789.078	0.0137480
789.156	0.0139977
789.234	0.0138187
789.312	0.0139948
789.390	0.0140736
789.468	0.0139156
789.546	0.0140855
789.624	0.0142619
789.703	0.0141783
789.781	0.0140927
789.859	0.0141885
789.937	0.0141698
790.015	0.0142548
790.093	0.0142692
790.171	0.0140434
790.249	0.0139674
790.328	0.0140776
790.406	0.0141611
790.484	0.0139215
790.562	0.0139267
790.640	0.0139793
790.718	0.0138155
790.796	0.0138308
790.874	0.0138000
790.953	0.0138943
791.031	0.0138335
791.109	0.0137550
791.187	0.0136754
791.265	0.0138273
791.343	0.0138277
791.421	0.0137400
791.499	0.0139375
791.578	0.0139574
791.656	0.0138177
791.734	0.0140208
791.812	0.0141244
791.890	0.0140569
791.968	0.0141087
792.046	0.0141911
792.124	0.0141056
792.203	0.0141454
792.281	0.0141872
792.359	0.0141196
792.437	0.0140044
792.515	0.0139077
792.593	0.0139867
792.671	0.0137450
792.749	0.0137766
792.828	0.0137387
792.906	0.0138348
792.984	0.0137586
793.062	0.0137155
793.140	0.0136231
793.218	0.0136718
793.296	0.0137507
793.374	0.0136450
793.453	0.0136269
793.531	0.0137551
793.609	0.0135387
793.687	0.0136456
793.765	0.0136893
793.843	0.0138339
793.921	0.0139307
793.999	0.0139575
794.078	0.0139894
794.156	0.0138486
794.234	0.0139445
794.312	0.0138717
794.390	0.0139578
794.468	0.0140380
794.546	0.0139727
794.624	0.0139897
794.703	0.0139039
794.781	0.0140231
794.859	0.0141322
794.937	0.0139421
795.015	0.0139273
795.093	0.0140649
795.171	0.0140899
795.249	0.0138738
795.328	0.0138469
795.406	0.0139405
795.484	0.0139845
795.562	0.0139220
795.640	0.0139935
795.718	0.0139639
795.796	0.0139886
795.874	0.0140611
795.953	0.0139249
796.031	0.0139803
796.109	0.0140453
796.187	0.0140051
796.265	0.0140887
796.343	0.0139595
796.421	0.0139955
796.499	0.0140490
796.578	0.0139810
796.656	0.0139663
796.734	0.0139444
796.812	0.0140141
796.890	0.0140133
796.968	0.0139057
797.046	0.0138865
797.124	0.0138484
797.203	0.0139182
797.281	0.0138819
797.359	0.0139054
797.437	0.0137696
797.515	0.0137847
797.593	0.0138613
797.671	0.0138417
797.749	0.0137489
797.828	0.0137302
797.906	0.0137026
797.984	0.0136449
798.062	0.0137714
798.140	0.0137842
798.218	0.0137899
798.296	0.0136815
798.374	0.0137933
798.453	0.0138558
798.531	0.0137458
798.609	0.0138471
798.687	0.0136851
798.765	0.0137314
798.843	0.0138627
798.921	0.0138008
798.999	0.0138193
799.078	0.0139337
799.156	0.0140121
799.234	0.0140061
799.312	0.0138573
799.390	0.0138393
799.468	0.0138158
799.546	0.0139209
799.624	0.0138612
799.703	0.0140337
799.781	0.0138802
799.859	0.0139180
799.937	0.0139659
800.015	0.0140637
800.093	0.0140123
800.171	0.0138777
800.249	0.0140351
800.328	0.0140676
800.406	0.0138976
800.484	0.0139725
800.562	0.0141152
800.640	0.0140813
800.718	0.0142095
800.796	0.0141148
800.874	0.0141480
800.953	0.0141222
801.031	0.0142041
801.109	0.0140199
801.187	0.0139852
801.265	0.0141834
801.343	0.0141077
801.421	0.0140936
801.499	0.0140302
801.578	0.0139788
801.656	0.0138615
801.734	0.0137704
801.812	0.0138157
801.890	0.0137366
801.968	0.0137655
802.046	0.0137378
802.124	0.0138226
802.203	0.0137747
802.281	0.0136150
802.359	0.0137767
802.437	0.0136306
802.515	0.0135708
802.593	0.0137713
802.671	0.0136156
802.749	0.0136742
802.828	0.0136346
802.906	0.0137427
802.984	0.0135799
803.062	0.0137738
803.140	0.0137572
803.218	0.0138738
803.296	0.0136794
803.374	0.0137864
803.453	0.0138057
803.531	0.0138923
803.609	0.0139236
803.687	0.0139095
803.765	0.0140114
803.843	0.0139330
803.921	0.0139578
803.999	0.0140266
804.078	0.0140955
804.156	0.0139539
804.234	0.0139901
804.312	0.0139693
804.390	0.0139288
804.468	0.0140199
804.546	0.0140887
804.624	0.0139199
804.703	0.0139018
804.781	0.0139652
804.859	0.0138894
804.937	0.0140344
805.015	0.0139674
805.093	0.0140948
805.171	0.0141051
805.249	0.0139205
805.328	0.0140803
805.406	0.0140336
805.484	0.0140363
805.562	0.0139202
805.640	0.0141175
805.718	0.0141884
805.796	0.0141782
805.874	0.0140693
805.953	0.0140819
806.031	0.0140240
806.109	0.0140265
806.187	0.0142188
806.265	0.0141620
806.343	0.0140436
806.421	0.0139581
806.499	0.0138584
806.578	0.0139713
806.656	0.0139299
806.734	0.0139344
806.812	0.0138818
806.890	0.0137756
806.968	0.0139192
807.046	0.0138366
807.124	0.0137234
807.203	0.0136198
807.281	0.0135175
807.359	0.0136442
807.437	0.0136951
807.515	0.0136679
807.593	0.0136942
807.671	0.0136701
807.749	0.0136523
807.828	0.0135806
807.906	0.0136263
807.984	0.0136948
808.062	0.0137419
808.140	0.0136565
808.218	0.0138839
808.296	0.0138513
808.374	0.0137611
808.453	0.0138755
808.531	0.0138902
808.609	0.0139585
808.687	0.0139220
808.765	0.0139690
808.843	0.0140015
808.921	0.0141347
808.999	0.0138940
809.078	0.0141761
809.156	0.0140339
809.234	0.0139232
809.312	0.0140800
809.390	0.0141727
809.468	0.0141919
809.546	0.0140912
809.624	0.0142286
809.703	0.0141123
809.781	0.0141356
809.859	0.0141531
809.937	0.0140643
810.015	0.0139767
810.093	0.0140124
810.171	0.0139484
810.249	0.0139150
810.328	0.0140035
810.406	0.0137542
810.484	0.0139191
810.562	0.0139720
810.640	0.0139296
810.718	0.0138322
810.796	0.0139446
810.874	0.0138156
810.953	0.0137313
811.031	0.0139432
811.109	0.0139088
811.187	0.0138313
811.265	0.0139152
811.343	0.0138455
811.421	0.0140218
811.499	0.0138749
811.578	0.0139571
811.656	0.0137871
811.734	0.0138886
811.812	0.0139162
811.890	0.0137930
811.968	0.0138696
812.046	0.0139015
812.124	0.0139343
812.203	0.0138452
812.281	0.0139750
812.359	0.0136636
812.437	0.0138180
812.515	0.0136668
812.593	0.0138386
812.671	0.0138322
812.749	0.0137592
812.828	0.0138029
812.906	0.0137884
812.984	0.0139011
813.062	0.0138026
813.140	0.0137807
813.218	0.0137564
813.296	0.0138623
813.374	0.0139104
813.453	0.0139047
813.531	0.0138060
813.609	0.0139826
813.687	0.0139006
813.765	0.0138218
813.843	0.0137817
813.921	0.0138574
813.999	0.0138504
814.078	0.0140147
814.156	0.0140675
814.234	0.0140299
814.312	0.0140423
814.390	0.0140818
814.468	0.0141621
814.546	0.0140543
814.624	0.0139919
814.703	0.0141103
814.781	0.0141016
814.859	0.0141837
814.937	0.0139864
815.015	0.0141576
815.093	0.0140470
815.171	0.0140108
815.249	0.0139477
815.328	0.0140723
815.406	0.0139189
815.484	0.0139565
815.562	0.0139002
815.640	0.0139355
815.718	0.0141222
815.796	0.0139208
815.874	0.0138390
815.953	0.0140299
816.031	0.0140386
816.109	0.0140330
816.187	0.0139399
816.265	0.0139503
816.343	0.0139885
816.421	0.0141582
816.499	0.0140628
816.578	0.0138051
816.656	0.0138976
816.734	0.0139534
816.812	0.0139208
816.890	0.0139351
816.968	0.0137828
817.046	0.0138825
817.124	0.0137593
817.203	0.0137965
817.281	0.0137476
817.359	0.0136023
817.437	0.0136922
817.515	0.0136773
817.593	0.0136545
817.671	0.0138079
817.749	0.0136179
817.828	0.0135983
817.906	0.0137364
817.984	0.0136396
818.062	0.0137773
818.140	0.0136419
818.218	0.0136448
818.296	0.0137004
818.374	0.0137067
818.453	0.0137961
818.531	0.0139167
818.609	0.0138102
818.687	0.0137998
818.765	0.0138092
818.843	0.0139667
818.921	0.0137892
818.999	0.0137489
819.078	0.0139888
819.156	0.0139989
819.234	0.0139494
819.312	0.0138596
819.390	0.0140293
819.468	0.0140631
819.546	0.0139464
819.624	0.0138181
819.703	0.0138833
819.781	0.0139776
819.859	0.0140516
819.937	0.0139029
820.015	0.0137659
820.093	0.0138627
820.171	0.0139786
820.249	0.0139762
820.328	0.0139088
820.406	0.0139658
820.484	0.0139806
820.562	0.0139434
820.640	0.0139899
820.718	0.0140000
820.796	0.0140753
820.874	0.0140358
820.953	0.0140292
821.031	0.0140804
821.109	0.0140182
821.187	0.0139709
821.265	0.0140997
821.343	0.0139384
821.421	0.0139940
821.499	0.0138435
821.578	0.0138760
821.656	0.0138588
821.734	0.0138339
821.812	0.0137318
821.890	0.0137695
821.968	0.0137810
822.046	0.0137133
822.124	0.0136353
822.203	0.0137041
822.281	0.0135979
822.359	0.0136672
822.437	0.0136339
822.515	0.0136331
822.593	0.0135725
822.671	0.0136572
822.749	0.0136253
822.828	0.0136445
822.906	0.0137518
822.984	0.0137806
823.062	0.0138174
823.140	0.0139095
823.218	0.0137984
823.296	0.0137984
823.374	0.0138524
823.453	0.0138778
823.531	0.0137892
823.609	0.0138935
823.687	0.0139272
823.765	0.0139035
823.843	0.0140017
823.921	0.0139304
823.999	0.0138285
824.078	0.0139251
824.156	0.0140058
824.234	0.0138657
824.312	0.0139008
824.390	0.0138631
824.468	0.0139022
824.546	0.0137296
824.624	0.0138010
824.703	0.0138457
824.781	0.0138751
824.859	0.0139260
824.937	0.0139181
825.015	0.0139809
825.093	0.0139714
825.171	0.0140062
825.249	0.0139148
825.328	0.0138886
825.406	0.0139952
825.484	0.0139422
825.562	0.0140665
825.640	0.0140608
825.718	0.0139632
825.796	0.0138936
825.874	0.0140440
825.953	0.0138804
826.031	0.0140228
826.109	0.0140140
826.187	0.0138628
826.265	0.0139222
826.343	0.0138762
826.421	0.0138364
826.499	0.0139554
826.578	0.0138977
826.656	0.0138955
826.734	0.0137249
826.812	0.0138275
826.890	0.0139732
826.968	0.0138080
827.046	0.0138012
827.124	0.0137840
827.203	0.0136388
827.281	0.0138255
827.359	0.0138060
827.437	0.0137448
827.515	0.0137570
827.593	0.0138543
827.671	0.0137758
827.749	0.0138329
827.828	0.0139853
827.906	0.0138250
827.984	0.0139332
828.062	0.0139848
828.140	0.0139028
828.218	0.0138290
828.296	0.0139356
828.374	0.0140549
828.453	0.0141316
828.531	0.0139639
828.609	0.0139294
828.687	0.0138454
828.765	0.0138931
828.843	0.0137688
828.921	0.0137439
828.999	0.0138457
829.078	0.0137571
829.156	0.0136972
829.234	0.0137528
829.312	0.0138634
829.390	0.0137523
829.468	0.0137099
829.546	0.0136415
829.624	0.0137154
829.703	0.0136950
829.781	0.0138412
829.859	0.0137761
829.937	0.0138242
830.015	0.0138370
830.093	0.0137962
830.171	0.0137049
830.249	0.0138146
830.328	0.0138699
830.406	0.0139516
830.484	0.0139143
830.562	0.0139400
830.640	0.0139745
830.718	0.0139280
830.796	0.0138815
830.874	0.0138715
830.953	0.0139465
831.031	0.0139504
831.109	0.0140072
831.187	0.0139265
831.265	0.0139391
831.343	0.0138980
831.421	0.0139104
831.499	0.0140097
831.578	0.0139803
831.656	0.0139838
831.734	0.0139061
831.812	0.0139620
831.890	0.0140339
831.968	0.0139897
832.046	0.0139761
832.124	0.0138746
832.203	0.0139093
832.281	0.0140408
832.359	0.0139788
832.437	0.0140837
832.515	0.0140829
832.593	0.0140824
832.671	0.0140247
832.749	0.0141183
832.828	0.0139364
832.906	0.0139801
832.984	0.0140041
833.062	0.0141233
833.140	0.0140004
833.218	0.0139170
833.296	0.0138569
833.374	0.0140545
833.453	0.0138985
833.531	0.0138047
833.609	0.0138851
833.687	0.0139059
833.765	0.0139095
833.843	0.0138451
833.921	0.0138663
833.999	0.0138041
834.078	0.0138019
834.156	0.0138483
834.234	0.0137996
834.312	0.0138198
834.390	0.0136951
834.468	0.0137029
834.546	0.0136557
834.624	0.0136427
834.703	0.0137952
834.781	0.0138100
834.859	0.0137986
834.937	0.0137631
835.015	0.0139077
835.093	0.0138744
835.171	0.0140342
835.249	0.0140379
835.328	0.0139123
835.406	0.0140288
835.484	0.0141319
835.562	0.0140163
835.640	0.0140213
835.718	0.0140487
835.796	0.0140870
835.874	0.0142263
835.953	0.0140369
836.031	0.0141722
836.109	0.0140881
836.187	0.0140810
836.265	0.0140643
836.343	0.0140604
836.421	0.0140969
836.499	0.0140119
836.578	0.0139606
836.656	0.0139005
836.734	0.0140780
836.812	0.0140069
836.890	0.0140459
836.968	0.0139469
837.046	0.0139932
837.124	0.0139240
837.203	0.0139826
837.281	0.0140183
837.359	0.0139451
837.437	0.0140878
837.515	0.0140552
837.593	0.0140000
837.671	0.0139284
837.749	0.0140588
837.828	0.0139961
837.906	0.0139921
837.984	0.0137784
838.062	0.0138811
838.140	0.0139835
838.218	0.0139219
838.296	0.0138815
838.374	0.0138080
838.453	0.0137968
838.531	0.0138469
838.609	0.0137101
838.687	0.0138545
838.765	0.0138353
838.843	0.0138638
838.921	0.0137301
838.999	0.0137858
839.078	0.0137513
839.156	0.0137222
839.234	0.0137196
839.312	0.0138947
839.390	0.0138111
839.468	0.0138380
839.546	0.0138284
839.624	0.0138774
839.703	0.0138045
839.781	0.0139733
839.859	0.0138238
839.937	0.0137619
840.015	0.0139370
840.093	0.0138557
840.171	0.0138819
840.249	0.0139574
840.328	0.0139370
840.406	0.0138210
840.484	0.0140439
840.562	0.0139793
840.640	0.0138609
840.718	0.0139864
840.796	0.0139398
840.874	0.0139029
840.953	0.0139603
841.031	0.0138554
841.109	0.0138624
841.187	0.0139269
841.265	0.0139597
841.343	0.0139528
841.421	0.0138243
841.499	0.0138289
841.578	0.0139551
841.656	0.0138471
841.734	0.0138995
841.812	0.0140569
841.890	0.0139475
841.968	0.0140034
842.046	0.0138953
842.124	0.0139195
842.203	0.0139985
842.281	0.0138776
842.359	0.0139753
842.437	0.0138813
842.515	0.0140593
842.593	0.0141592
842.671	0.0139759
842.749	0.0139597
842.828	0.0140058
842.906	0.0140356
842.984	0.0138371
843.062	0.0139445
843.140	0.0138194
843.218	0.0138142
843.296	0.0137671
843.374	0.0139194
843.453	0.0138181
843.531	0.0137897
843.609	0.0137129
843.687	0.0138483
843.765	0.0137319
843.843	0.0136854
843.921	0.0136864
843.999	0.0136790
844.078	0.0137801
844.156	0.0139129
844.234	0.0137342
844.312	0.0137169
844.390	0.0138065
844.468	0.0137919
844.546	0.0138034
844.624	0.0138948
844.703	0.0138740
844.781	0.0137746
844.859	0.0139062
844.937	0.0137769
845.015	0.0137767
845.093	0.0138984
845.171	0.0138718
845.249	0.0138586
845.328	0.0138358
845.406	0.0139423
845.484	0.0138966
845.562	0.0137862
845.640	0.0138580
845.718	0.0138100
845.796	0.0137658
845.874	0.0137516
845.953	0.0139610
846.031	0.0139304
846.109	0.0138969
846.187	0.0138369
846.265	0.0139522
846.343	0.0139742
846.421	0.0138103
846.499	0.0138148
846.578	0.0139704
846.656	0.0139149
846.734	0.0139064
846.812	0.0141543
846.890	0.0141916
846.968	0.0140047
847.046	0.0139329
847.124	0.0139876
847.203	0.0141330
847.281	0.0139682
847.359	0.0139111
847.437	0.0138036
847.515	0.0139829
847.593	0.0140078
847.671	0.0139985
847.749	0.0140216
847.828	0.0137777
847.906	0.0138647
847.984	0.0138680
848.062	0.0138397
848.140	0.0137934
848.218	0.0138107
848.296	0.0138893
848.374	0.0138723
848.453	0.0139208
848.531	0.0137023
848.609	0.0137305
848.687	0.0139938
848.765	0.0139507
848.843	0.0138844
848.921	0.0138396
848.999	0.0137361
849.078	0.0138718
849.156	0.0138071
849.234	0.0137251
849.312	0.0139758
849.390	0.0140332
849.468	0.0137952
849.546	0.0137026
849.624	0.0139053
849.703	0.0138442
849.781	0.0138010
849.859	0.0137971
849.937	0.0139316
850.015	0.0139291
850.093	0.0137637
850.171	0.0138338
850.249	0.0138742
850.328	0.0138137
850.406	0.0139215
850.484	0.0139398
850.562	0.0137900
850.640	0.0139140
850.718	0.0138313
850.796	0.0138781
850.874	0.0140062
850.953	0.0140313
851.031	0.0139104
851.109	0.0141421
851.187	0.0142391
851.265	0.0142432
851.343	0.0140988
851.421	0.0140865
851.499	0.0141411
851.578	0.0142067
851.656	0.0142039
851.734	0.0140726
851.812	0.0140915
851.890	0.0139870
851.968	0.0140175
852.046	0.0140368
852.124	0.0139326
852.203	0.0139452
852.281	0.0137815
852.359	0.0138534
852.437	0.0138684
852.515	0.0138483
852.593	0.0138275
852.671	0.0138702
852.749	0.0138551
852.828	0.0137698
852.906	0.0137769
852.984	0.0138071
853.062	0.0138971
853.140	0.0137578
853.218	0.0139447
853.296	0.0139934
853.374	0.0137844
853.453	0.0137591
853.531	0.0140244
853.609	0.0138251
853.687	0.0138627
853.765	0.0139660
853.843	0.0140098
853.921	0.0139317
853.999	0.0139751
854.078	0.0140992
854.156	0.0139641
854.234	0.0141019
854.312	0.0139929
854.390	0.0140153
854.468	0.0140027
854.546	0.0140015
854.624	0.0141134
854.703	0.0140579
854.781	0.0138685
854.859	0.0138172
854.937	0.0138509
855.015	0.0138773
855.093	0.0139216
855.171	0.0136823
855.249	0.0137306
855.328	0.0138091
855.406	0.0138435
855.484	0.0140985
855.562	0.0140440
855.640	0.0139080
855.718	0.0139115
855.796	0.0139734
855.874	0.0141459
855.953	0.0140455
856.031	0.0141132
856.109	0.0140661
856.187	0.0139541
856.265	0.0139851
856.343	0.0140578
856.421	0.0140646
856.499	0.0140125
856.578	0.0140805
856.656	0.0139998
856.734	0.0139838
856.812	0.0140800
856.890	0.0141006
856.968	0.0139498
857.046	0.0139984
857.124	0.0140163
857.203	0.0140756
857.281	0.0140032
857.359	0.0140769
857.437	0.0139603
857.515	0.0139392
857.593	0.0139896
857.671	0.0139101
857.749	0.0140122
857.828	0.0139732
857.906	0.0140131
857.984	0.0140623
858.062	0.0138779
858.140	0.0140150
858.218	0.0140856
858.296	0.0139996
858.374	0.0139245
858.453	0.0139716
858.531	0.0140369
858.609	0.0140614
858.687	0.0139919
858.765	0.0138427
858.843	0.0139942
858.921	0.0139356
858.999	0.0139169
859.078	0.0138387
859.156	0.0139538
859.234	0.0139067
859.312	0.0137737
859.390	0.0137844
859.468	0.0138389
859.546	0.0138723
859.624	0.0138280
859.703	0.0138369
859.781	0.0137297
859.859	0.0138977
859.937	0.0138068
860.015	0.0137737
860.093	0.0140622
860.171	0.0139543
860.249	0.0138541
860.328	0.0139333
860.406	0.0139988
860.484	0.0140379
860.562	0.0140957
860.640	0.0139583
860.718	0.0139782
860.796	0.0139666
860.874	0.0139599
860.953	0.0140338
861.031	0.0139186
861.109	0.0137989
861.187	0.0140190
861.265	0.0139700
861.343	0.0139166
861.421	0.0137943
861.499	0.0138488
861.578	0.0138625
861.656	0.0138916
861.734	0.0139705
861.812	0.0139715
861.890	0.0139435
861.968	0.0140254
862.046	0.0138940
862.124	0.0140334
862.203	0.0139135
862.281	0.0139745
862.359	0.0140518
862.437	0.0139294
862.515	0.0139223
862.593	0.0140363
862.671	0.0139384
862.749	0.0137965
862.828	0.0138482
862.906	0.0139436
862.984	0.0139652
863.062	0.0139441
863.140	0.0139216
863.218	0.0139034
863.296	0.0138688
863.374	0.0138468
863.453	0.0138912
863.531	0.0138847
863.609	0.0139137
863.687	0.0139504
863.765	0.0139433
863.843	0.0138517
863.921	0.0138470
863.999	0.0137675
864.078	0.0136691
864.156	0.0138591
864.234	0.0139200
864.312	0.0137453
864.390	0.0137819
864.468	0.0138374
864.546	0.0138189
864.624	0.0138224
864.703	0.0138381
864.781	0.0140024
864.859	0.0137605
864.937	0.0138128
865.015	0.0139872
865.093	0.0138955
865.171	0.0139162
865.249	0.0138290
865.328	0.0138823
865.406	0.0140051
865.484	0.0138492
865.562	0.0139699
865.640	0.0139128
865.718	0.0140051
865.796	0.0139536
865.874	0.0138618
865.953	0.0139434
866.031	0.0138821
866.109	0.0139562
866.187	0.0139777
866.265	0.0138798
866.343	0.0140272
866.421	0.0139149
866.499	0.0138930
866.578	0.0140355
866.656	0.0140786
866.734	0.0139918
866.812	0.0137954
866.890	0.0139580
866.968	0.0138786
867.046	0.0139601
867.124	0.0139869
867.203	0.0138557
867.281	0.0139587
867.359	0.0139865
867.437	0.0139605
867.515	0.0139130
867.593	0.0138789
867.671	0.0137472
867.749	0.0139214
867.828	0.0139368
867.906	0.0138718
867.984	0.0139875
868.062	0.0138658
868.140	0.0139005
868.218	0.0138239
868.296	0.0138342
868.374	0.0139135
868.453	0.0139642
868.531	0.0138380
868.609	0.0139610
868.687	0.0139291
868.765	0.0139643
868.843	0.0139828
868.921	0.0139146
868.999	0.0139184
869.078	0.0137873
869.156	0.0138824
869.234	0.0139191
869.312	0.0138921
869.390	0.0138966
869.468	0.0139033
869.546	0.0139980
869.624	0.0138285
869.703	0.0139272
869.781	0.0139670
869.859	0.0137169
869.937	0.0139314
870.015	0.0138465
870.093	0.0140375
870.171	0.0139085
870.249	0.0139710
870.328	0.0140646
870.406	0.0140261
870.484	0.0139251
870.562	0.0139382
870.640	0.0139612
870.718	0.0139230
870.796	0.0139149
870.874	0.0140921
870.953	0.0140455
871.031	0.0139326
871.109	0.0139178
871.187	0.0139651
871.265	0.0138457
871.343	0.0138425
871.421	0.0138583
871.499	0.0139299
871.578	0.0138792
871.656	0.0139668
871.734	0.0138438
871.812	0.0138083
871.890	0.0139535
871.968	0.0139073
872.046	0.0138081
872.124	0.0139637
872.203	0.0138035
872.281	0.0139061
872.359	0.0140427
872.437	0.0139092
872.515	0.0139878
872.593	0.0139393
872.671	0.0140797
872.749	0.0141110
872.828	0.0138850
872.906	0.0139438
872.984	0.0140187
873.062	0.0142087
873.140	0.0140118
873.218	0.0138542
873.296	0.0139756
873.374	0.0139376
873.453	0.0139166
873.531	0.0138879
873.609	0.0139249
873.687	0.0139384
873.765	0.0138792
873.843	0.0138037
873.921	0.0138612
873.999	0.0138662
874.078	0.0138884
874.156	0.0137311
874.234	0.0138550
874.312	0.0139281
874.390	0.0138366
874.468	0.0138815
874.546	0.0138024
874.624	0.0137669
874.703	0.0138088
874.781	0.0139555
874.859	0.0140475
874.937	0.0140405
875.015	0.0138571
875.093	0.0138807
875.171	0.0140144
875.249	0.0139173
875.328	0.0139162
875.406	0.0140324
875.484	0.0141090
875.562	0.0141055
875.640	0.0138972
875.718	0.0139270
875.796	0.0139007
875.874	0.0140317
875.953	0.0141449
876.031	0.0140115
876.109	0.0139868
876.187	0.0140356
876.265	0.0139658
876.343	0.0138487
876.421	0.0139220
876.499	0.0140578
876.578	0.0138723
876.656	0.0138877
876.734	0.0140202
876.812	0.0138950
876.890	0.0140682
876.968	0.0139219
877.046	0.0140235
877.124	0.0141168
877.203	0.0140348
877.281	0.0139573
877.359	0.0139013
877.437	0.0140781
877.515	0.0140736
877.593	0.0140292
877.671	0.0138987
877.749	0.0140134
877.828	0.0140015
877.906	0.0139375
877.984	0.0138804
878.062	0.0139729
878.140	0.0136922
878.218	0.0138196
878.296	0.0140034
878.374	0.0138179
878.453	0.0137006
878.531	0.0137351
878.609	0.0137675
878.687	0.0138889
878.765	0.0137638
878.843	0.0137745
878.921	0.0138366
878.999	0.0138477
879.078	0.0137872
879.156	0.0138863
879.234	0.0138418
879.312	0.0139443
879.390	0.0138375
879.468	0.0139817
879.546	0.0140858
879.624	0.0140826
879.703	0.0139407
879.781	0.0140343
879.859	0.0140580
879.937	0.0140250
880.015	0.0139681
880.093	0.0140405
880.171	0.0140199
880.249	0.0141447
880.328	0.0141395
880.406	0.0140513
880.484	0.0140153
880.562	0.0141080
880.640	0.0139288
880.718	0.0140485
880.796	0.0141309
880.874	0.0140903
880.953	0.0140733
881.031	0.0140618
881.109	0.0139215
881.187	0.0138709
881.265	0.0139365
881.343	0.0139135
881.421	0.0139386
881.499	0.0139902
881.578	0.0138052
881.656	0.0137121
881.734	0.0138465
881.812	0.0136997
881.890	0.0138094
881.968	0.0138394
882.046	0.0138680
882.124	0.0138470
882.203	0.0139716
882.281	0.0138277
882.359	0.0139899
882.437	0.0138982
882.515	0.0140261
882.593	0.0139915
882.671	0.0139872
882.749	0.0139472
882.828	0.0138662
882.906	0.0138078
882.984	0.0139239
883.062	0.0139909
883.140	0.0138570
883.218	0.0138120
883.296	0.0137378
883.374	0.0137562
883.453	0.0137388
883.531	0.0137510
883.609	0.0137214
883.687	0.0135986
883.765	0.0137239
883.843	0.0137705
883.921	0.0137135
883.999	0.0137876
884.078	0.0138090
884.156	0.0138114
884.234	0.0139362
884.312	0.0139207
884.390	0.0139571
884.468	0.0138230
884.546	0.0138287
884.624	0.0141712
884.703	0.0137966
884.781	0.0140098
884.859	0.0139160
884.937	0.0140714
885.015	0.0140586
885.093	0.0138673
885.171	0.0138986
885.249	0.0140865
885.328	0.0140687
885.406	0.0139642
885.484	0.0138883
885.562	0.0140399
885.640	0.0141042
885.718	0.0139726
885.796	0.0138759
885.874	0.0140450
885.953	0.0139767
886.031	0.0139490
886.109	0.0140559
886.187	0.0139122
886.265	0.0137653
886.343	0.0138868
886.421	0.0139433
886.499	0.0138330
886.578	0.0138105
886.656	0.0139217
886.734	0.0138564
886.812	0.0138951
886.890	0.0139619
886.968	0.0137562
887.046	0.0137625
887.124	0.0139983
887.203	0.0137930
887.281	0.0138785
887.359	0.0139342
887.437	0.0140038
887.515	0.0139478
887.593	0.0138263
887.671	0.0138037
887.749	0.0139455
887.828	0.0138423
887.906	0.0136394
887.984	0.0137474
888.062	0.0137666
888.140	0.0137833
888.218	0.0138614
888.296	0.0138480
888.374	0.0137200
888.453	0.0137653
888.531	0.0137309
888.609	0.0139126
888.687	0.0138871
888.765	0.0138126
888.843	0.0138087
888.921	0.0138577
888.999	0.0139885
889.078	0.0138720
889.156	0.0139200
889.234	0.0139711
889.312	0.0140100
889.390	0.0139724
889.468	0.0140726
889.546	0.0137812
889.624	0.0138568
889.703	0.0139340
889.781	0.0140022
889.859	0.0138691
889.937	0.0137107
890.015	0.0139914
890.093	0.0140766
890.171	0.0138399
890.249	0.0138563
890.328	0.0138798
890.406	0.0140260
890.484	0.0140272
890.562	0.0141074
890.640	0.0140737
890.718	0.0141576
890.796	0.0139520
890.874	0.0139960
890.953	0.0141384
891.031	0.0140188
891.109	0.0138927
891.187	0.0140503
891.265	0.0141198
891.343	0.0138409
891.421	0.0138026
891.499	0.0138097
891.578	0.0137526
891.656	0.0136692
891.734	0.0138493
891.812	0.0137399
891.890	0.0137868
891.968	0.0137723
892.046	0.0137269
892.124	0.0138194
892.203	0.0139509
892.281	0.0140269
892.359	0.0138344
892.437	0.0139463
892.515	0.0138640
892.593	0.0139009
892.671	0.0138237
892.749	0.0139671
892.828	0.0139742
892.906	0.0138852
892.984	0.0139230
893.062	0.0137894
893.140	0.0137502
893.218	0.0139567
893.296	0.0138910
893.374	0.0138499
893.453	0.0136222
893.531	0.0138249
893.609	0.0137009
893.687	0.0137894
893.765	0.0137243
893.843	0.0139513
893.921	0.0139059
893.999	0.0138091
894.078	0.0137796
894.156	0.0139250
894.234	0.0137701
894.312	0.0137552
894.390	0.0138454
894.468	0.0138875
894.546	0.0138646
894.624	0.0139053
894.703	0.0137650
894.781	0.0137635
894.859	0.0138438
894.937	0.0137920
895.015	0.0139758
895.093	0.0140643
895.171	0.0139909
895.249	0.0139510
895.328	0.0139966
895.406	0.0140103
895.484	0.0140102
895.562	0.0140360
895.640	0.0140733
895.718	0.0142743
895.796	0.0140874
895.874	0.0139351
895.953	0.0140390
896.031	0.0139612
896.109	0.0139793
896.187	0.0139069
896.265	0.0138863
896.343	0.0139349
896.421	0.0137647
896.499	0.0137980
896.578	0.0137303
896.656	0.0137022
896.734	0.0137128
896.812	0.0136340
896.890	0.0137141
896.968	0.0137749
897.046	0.0136092
897.124	0.0139101
897.203	0.0137112
897.281	0.0136634
897.359	0.0138467
897.437	0.0137259
897.515	0.0138604
897.593	0.0139071
897.671	0.0139693
897.749	0.0139403
897.828	0.0139677
897.906	0.0140439
897.984	0.0139449
898.062	0.0138680
898.140	0.0139105
898.218	0.0139800
898.296	0.0139016
898.374	0.0139663
898.453	0.0138127
898.531	0.0139397
898.609	0.0138210
898.687	0.0139437
898.765	0.0139085
898.843	0.0140897
898.921	0.0139597
898.999	0.0138859
899.078	0.0138488
899.156	0.0138197
899.234	0.0139883
899.312	0.0139628
899.390	0.0139561
899.468	0.0139141
899.546	0.0139478
899.624	0.0138914
899.703	0.0138709
899.781	0.0138682
899.859	0.0138118
899.937	0.0136996
900.015	0.0138800
900.093	0.0139444
900.171	0.0138960
900.249	0.0138880
900.328	0.0139912
900.406	0.0139268
900.484	0.0139901
900.562	0.0139227
900.640	0.0140240
900.718	0.0140241
900.796	0.0139808
900.874	0.0140154
900.953	0.0139859
901.031	0.0139981
901.109	0.0139005
901.187	0.0138881
901.265	0.0138799
901.343	0.0139668
901.421	0.0137846
901.499	0.0137314
901.578	0.0136123
901.656	0.0137965
901.734	0.0138623
901.812	0.0136059
901.890	0.0137810
901.968	0.0138053
902.046	0.0138389
902.124	0.0138843
902.203	0.0139387
902.281	0.0139012
902.359	0.0139086
902.437	0.0139766
902.515	0.0139780
902.593	0.0140443
902.671	0.0139894
902.749	0.0140083
902.828	0.0140191
902.906	0.0140721
902.984	0.0140041
903.062	0.0139800
903.140	0.0140565
903.218	0.0139813
903.296	0.0140376
903.374	0.0139560
903.453	0.0139708
903.531	0.0138969
903.609	0.0137974
903.687	0.0138835
903.765	0.0139099
903.843	0.0138102
903.921	0.0139796
903.999	0.0139658
904.078	0.0138352
904.156	0.0138961
904.234	0.0138950
904.312	0.0138257
904.390	0.0138823
904.468	0.0137814
904.546	0.0138470
904.624	0.0137884
904.703	0.0137323
904.781	0.0137846
904.859	0.0138617
904.937	0.0137963
905.015	0.0137501
905.093	0.0138290
905.171	0.0138853
905.249	0.0138058
905.328	0.0137863
905.406	0.0138477
905.484	0.0137362
905.562	0.0137906
905.640	0.0140001
905.718	0.0140214
905.796	0.0139781
905.874	0.0141629
905.953	0.0140289
906.031	0.0139790
906.109	0.0140313
906.187	0.0139804
906.265	0.0140769
906.343	0.0140267
906.421	0.0139160
906.499	0.0140271
906.578	0.0139114
906.656	0.0138176
906.734	0.0138905
906.812	0.0137914
906.890	0.0137827
906.968	0.0137677
907.046	0.0137230
907.124	0.0136085
907.203	0.0139317
907.281	0.0137638
907.359	0.0138540
907.437	0.0137733
907.515	0.0138158
907.593	0.0137649
907.671	0.0139437
907.749	0.0138850
907.828	0.0139040
907.906	0.0139830
907.984	0.0139155
908.062	0.0139965
908.140	0.0140172
908.218	0.0140212
908.296	0.0139648
908.374	0.0139741
908.453	0.0139046
908.531	0.0138000
908.609	0.0139388
908.687	0.0137214
908.765	0.0138087
908.843	0.0139474
908.921	0.0137867
908.999	0.0138491
909.078	0.0137196
909.156	0.0136944
909.234	0.0139117
909.312	0.0138307
909.390	0.0135647
909.468	0.0136247
909.546	0.0138485
909.624	0.0137622
909.703	0.0136836
909.781	0.0138385
909.859	0.0137978
909.937	0.0138271
910.015	0.0139185
910.093	0.0138745
910.171	0.0137791
910.249	0.0138099
910.328	0.0138525
910.406	0.0137347
910.484	0.0138107
910.562	0.0137856
910.640	0.0138406
910.718	0.0139413
910.796	0.0140311
910.874	0.0139424
910.953	0.0140810
911.031	0.0140331
911.109	0.0138844
911.187	0.0141234
911.265	0.0141398
911.343	0.0141721
911.421	0.0139510
911.499	0.0140626
911.578	0.0140628
911.656	0.0140282
911.734	0.0139204
911.812	0.0138420
911.890	0.0140287
911.968	0.0139175
912.046	0.0137070
912.124	0.0138801
912.203	0.0138089
912.281	0.0137764
912.359	0.0136751
912.437	0.0137717
912.515	0.0137624
912.593	0.0136580
912.671	0.0137466
912.749	0.0136871
912.828	0.0137807
912.906	0.0137595
912.984	0.0137830
913.062	0.0136469
913.140	0.0138245
913.218	0.0139829
913.296	0.0137389
913.374	0.0139668
913.453	0.0139613
913.531	0.0138349
913.609	0.0138776
913.687	0.0138732
913.765	0.0137617
913.843	0.0138046
913.921	0.0138358
913.999	0.0138424
914.078	0.0138329
914.156	0.0138228
914.234	0.0139118
914.312	0.0139925
914.390	0.0138622
914.468	0.0139956
914.546	0.0139926
914.624	0.0139455
914.703	0.0139637
914.781	0.0139556
914.859	0.0140238
914.937	0.0138795
915.015	0.0139577
915.093	0.0137759
915.171	0.0139339
915.249	0.0139586
915.328	0.0139581
915.406	0.0138294
915.484	0.0138953
915.562	0.0139610
915.640	0.0138322
915.718	0.0139247
915.796	0.0139491
915.874	0.0139407
915.953	0.0139129
916.031	0.0140645
916.109	0.0139659
916.187	0.0140068
916.265	0.0141651
916.343	0.0141009
916.421	0.0139090
916.499	0.0139478
916.578	0.0139909
916.656	0.0139671
916.734	0.0138662
916.812	0.0138506
916.890	0.0139008
916.968	0.0137907
917.046	0.0138792
917.124	0.0140337
917.203	0.0138380
917.281	0.0137023
917.359	0.0137540
917.437	0.0139127
917.515	0.0138585
917.593	0.0138065
917.671	0.0139205
917.749	0.0137855
917.828	0.0139536
917.906	0.0138718
917.984	0.0137541
918.062	0.0138223
918.140	0.0139274
918.218	0.0138542
918.296	0.0139249
918.374	0.0139666
918.453	0.0139383
918.531	0.0140560
918.609	0.0138937
918.687	0.0141257
918.765	0.0139862
918.843	0.0139835
918.921	0.0140946
918.999	0.0140961
919.078	0.0139565
919.156	0.0140048
919.234	0.0140801
919.312	0.0140137
919.390	0.0139865
919.468	0.0140746
919.546	0.0139159
919.624	0.0139631
919.703	0.0139252
919.781	0.0138660
919.859	0.0139960
919.937	0.0138497
