05/06/2022	18:52:34	Ver.	4.1	UNKNOWN
Optical Delay	600.015094	Delta X		0.078125	Sweeps	1	Scan Rate	0/0
Coordinates	Axis 1	NaN	Axis 2	NaN	Axis 3	NaN	Axis 4	NaN	Axis 5	NaN	Axis 6	0.000000
TX Power	0.000000	RX Power	0.000000

600.015	0.0139886
600.093	0.0138534
600.171	0.0140701
600.249	0.0140173
600.328	0.0139294
600.406	0.0137962
600.484	0.0139753
600.562	0.0139961
600.640	0.0140644
600.718	0.0139632
600.796	0.0139798
600.874	0.0139802
600.953	0.0138593
601.031	0.0140309
601.109	0.0140705
601.187	0.0139063
601.265	0.0139757
601.343	0.0139178
601.421	0.0140271
601.499	0.0139457
601.578	0.0139603
601.656	0.0139074
601.734	0.0138992
601.812	0.0139339
601.890	0.0139359
601.968	0.0140065
602.046	0.0140260
602.124	0.0139011
602.203	0.0138319
602.281	0.0138268
602.359	0.0141207
602.437	0.0138944
602.515	0.0139350
602.593	0.0139696
602.671	0.0140026
602.749	0.0139465
602.828	0.0139341
602.906	0.0139498
602.984	0.0139832
603.062	0.0139080
603.140	0.0139263
603.218	0.0139692
603.296	0.0138173
603.374	0.0139120
603.453	0.0139130
603.531	0.0139629
603.609	0.0139534
603.687	0.0139491
603.765	0.0140389
603.843	0.0139597
603.921	0.0139319
603.999	0.0140398
604.078	0.0139577
604.156	0.0140160
604.234	0.0139883
604.312	0.0139174
604.390	0.0139587
604.468	0.0139211
604.546	0.0139647
604.624	0.0142157
604.703	0.0140169
604.781	0.0140757
604.859	0.0139218
604.937	0.0139088
605.015	0.0140887
605.093	0.0139724
605.171	0.0139755
605.249	0.0140018
605.328	0.0141200
605.406	0.0139418
605.484	0.0140649
605.562	0.0139523
605.640	0.0139635
605.718	0.0140446
605.796	0.0139661
605.874	0.0140990
605.953	0.0139613
606.031	0.0139726
606.109	0.0139388
606.187	0.0140800
606.265	0.0140131
606.343	0.0140481
606.421	0.0138892
606.499	0.0140623
606.578	0.0139235
606.656	0.0140367
606.734	0.0139861
606.812	0.0140817
606.890	0.0139774
606.968	0.0140126
607.046	0.0140083
607.124	0.0139020
607.203	0.0138678
607.281	0.0139109
607.359	0.0138710
607.437	0.0139891
607.515	0.0139299
607.593	0.0139137
607.671	0.0140149
607.749	0.0139872
607.828	0.0140700
607.906	0.0139798
607.984	0.0140238
608.062	0.0140569
608.140	0.0139541
608.218	0.0139041
608.296	0.0139917
608.374	0.0139223
608.453	0.0139639
608.531	0.0141526
608.609	0.0138813
608.687	0.0138998
608.765	0.0140598
608.843	0.0141479
608.921	0.0138938
608.999	0.0141612
609.078	0.0139551
609.156	0.0139931
609.234	0.0140703
609.312	0.0141020
609.390	0.0141021
609.468	0.0141634
609.546	0.0140153
609.624	0.0139055
609.703	0.0139362
609.781	0.0139352
609.859	0.0141720
609.937	0.0140387
610.015	0.0139186
610.093	0.0140579
610.171	0.0140884
610.249	0.0139480
610.328	0.0141269
610.406	0.0139366
610.484	0.0139664
610.562	0.0140398
610.640	0.0139926
610.718	0.0139876
610.796	0.0139950
610.874	0.0139970
610.953	0.0139490
611.031	0.0138653
611.109	0.0139576
611.187	0.0139552
611.265	0.0139346
611.343	0.0139529
611.421	0.0140647
611.499	0.0139957
611.578	0.0139605
611.656	0.0140102
611.734	0.0139987
611.812	0.0140795
611.890	0.0139845
611.968	0.0140541
612.046	0.0139918
612.124	0.0139304
612.203	0.0140156
612.281	0.0139840
612.359	0.0139654
612.437	0.0139684
612.515	0.0140922
612.593	0.0139343
612.671	0.0139515
612.749	0.0140359
612.828	0.0140109
612.906	0.0140730
612.984	0.0140534
613.062	0.0140391
613.140	0.0139259
613.218	0.0138645
613.296	0.0140132
613.374	0.0140559
613.453	0.0139121
613.531	0.0139146
613.609	0.0139918
613.687	0.0141631
613.765	0.0140064
613.843	0.0139442
613.921	0.0140483
613.999	0.0139958
614.078	0.0138628
614.156	0.0140530
614.234	0.0141386
614.312	0.0140862
614.390	0.0139328
614.468	0.0138946
614.546	0.0138932
614.624	0.0141160
614.703	0.0140729
614.781	0.0140788
614.859	0.0140367
614.937	0.0139716
615.015	0.0139481
615.093	0.0140670
615.171	0.0140308
615.249	0.0139465
615.328	0.0139880
615.406	0.0140150
615.484	0.0139581
615.562	0.0140684
615.640	0.0141051
615.718	0.0140177
615.796	0.0140780
615.874	0.0141466
615.953	0.0139450
616.031	0.0139816
616.109	0.0141614
616.187	0.0139951
616.265	0.0140737
616.343	0.0140697
616.421	0.0140157
616.499	0.0139740
616.578	0.0139601
616.656	0.0140014
616.734	0.0140275
616.812	0.0140281
616.890	0.0139843
616.968	0.0139726
617.046	0.0139946
617.124	0.0140237
617.203	0.0138634
617.281	0.0139941
617.359	0.0140965
617.437	0.0140256
617.515	0.0139397
617.593	0.0140311
617.671	0.0139749
617.749	0.0140347
617.828	0.0140144
617.906	0.0139418
617.984	0.0139989
618.062	0.0139651
618.140	0.0140366
618.218	0.0139510
618.296	0.0139850
618.374	0.0141309
618.453	0.0139685
618.531	0.0140054
618.609	0.0140009
618.687	0.0139639
618.765	0.0141013
618.843	0.0140368
618.921	0.0139561
618.999	0.0138828
619.078	0.0139836
619.156	0.0139796
619.234	0.0141613
619.312	0.0140965
619.390	0.0140910
619.468	0.0140759
619.546	0.0140481
619.624	0.0140785
619.703	0.0140153
619.781	0.0140293
619.859	0.0140513
619.937	0.0141007
620.015	0.0138701
620.093	0.0140297
620.171	0.0140797
620.249	0.0140129
620.328	0.0139761
620.406	0.0141359
620.484	0.0141698
620.562	0.0139964
620.640	0.0141435
620.718	0.0139553
620.796	0.0140311
620.874	0.0139984
620.953	0.0140411
621.031	0.0139371
621.109	0.0140830
621.187	0.0141212
621.265	0.0140025
621.343	0.0140363
621.421	0.0139756
621.499	0.0140990
621.578	0.0138480
621.656	0.0139827
621.734	0.0140267
621.812	0.0139546
621.890	0.0140457
621.968	0.0140835
622.046	0.0139480
622.124	0.0139706
622.203	0.0140190
622.281	0.0137572
622.359	0.0141284
622.437	0.0141588
622.515	0.0140310
622.593	0.0138728
622.671	0.0139359
622.749	0.0139149
622.828	0.0138841
622.906	0.0140045
622.984	0.0139999
623.062	0.0138852
623.140	0.0138691
623.218	0.0139840
623.296	0.0139700
623.374	0.0140564
623.453	0.0138572
623.531	0.0140733
623.609	0.0139590
623.687	0.0139243
623.765	0.0140894
623.843	0.0139563
623.921	0.0140652
623.999	0.0140356
624.078	0.0140214
624.156	0.0140652
624.234	0.0138729
624.312	0.0140598
624.390	0.0140561
624.468	0.0140601
624.546	0.0140147
624.624	0.0139922
624.703	0.0139627
624.781	0.0140232
624.859	0.0139971
624.937	0.0140321
625.015	0.0139675
625.093	0.0139318
625.171	0.0139004
625.249	0.0139790
625.328	0.0138596
625.406	0.0140722
625.484	0.0139455
625.562	0.0139152
625.640	0.0138963
625.718	0.0139191
625.796	0.0139960
625.874	0.0140363
625.953	0.0140000
626.031	0.0140231
626.109	0.0140288
626.187	0.0140009
626.265	0.0140901
626.343	0.0141464
626.421	0.0139100
626.499	0.0139228
626.578	0.0139161
626.656	0.0140305
626.734	0.0139427
626.812	0.0139342
626.890	0.0139471
626.968	0.0139172
627.046	0.0139679
627.124	0.0140022
627.203	0.0140337
627.281	0.0139385
627.359	0.0139285
627.437	0.0140562
627.515	0.0141890
627.593	0.0140142
627.671	0.0140141
627.749	0.0139397
627.828	0.0140919
627.906	0.0141553
627.984	0.0140811
628.062	0.0140428
628.140	0.0138622
628.218	0.0138058
628.296	0.0141197
628.374	0.0140284
628.453	0.0141602
628.531	0.0139813
628.609	0.0139374
628.687	0.0139448
628.765	0.0139838
628.843	0.0139922
628.921	0.0140925
628.999	0.0141193
629.078	0.0140462
629.156	0.0139443
629.234	0.0140280
629.312	0.0141257
629.390	0.0139631
629.468	0.0139942
629.546	0.0139523
629.624	0.0141766
629.703	0.0140565
629.781	0.0139442
629.859	0.0139297
629.937	0.0140665
630.015	0.0140060
630.093	0.0140814
630.171	0.0139935
630.249	0.0140369
630.328	0.0140591
630.406	0.0140191
630.484	0.0140488
630.562	0.0139680
630.640	0.0140952
630.718	0.0139462
630.796	0.0139832
630.874	0.0139651
630.953	0.0139430
631.031	0.0139195
631.109	0.0140048
631.187	0.0141360
631.265	0.0141146
631.343	0.0139542
631.421	0.0140475
631.499	0.0141313
631.578	0.0140897
631.656	0.0139629
631.734	0.0139684
631.812	0.0141077
631.890	0.0139270
631.968	0.0139769
632.046	0.0139928
632.124	0.0139632
632.203	0.0140652
632.281	0.0140957
632.359	0.0140902
632.437	0.0140442
632.515	0.0140006
632.593	0.0139774
632.671	0.0140753
632.749	0.0140328
632.828	0.0139111
632.906	0.0139729
632.984	0.0141059
633.062	0.0140751
633.140	0.0139594
633.218	0.0140871
633.296	0.0139022
633.374	0.0140435
633.453	0.0141265
633.531	0.0139854
633.609	0.0138201
633.687	0.0139581
633.765	0.0141352
633.843	0.0139839
633.921	0.0139735
633.999	0.0139117
634.078	0.0141091
634.156	0.0139619
634.234	0.0140774
634.312	0.0140925
634.390	0.0139969
634.468	0.0141074
634.546	0.0139030
634.624	0.0140392
634.703	0.0140144
634.781	0.0140379
634.859	0.0140549
634.937	0.0139745
635.015	0.0140009
635.093	0.0140334
635.171	0.0139355
635.249	0.0140540
635.328	0.0139430
635.406	0.0139702
635.484	0.0140330
635.562	0.0138876
635.640	0.0138754
635.718	0.0137864
635.796	0.0139706
635.874	0.0139398
635.953	0.0138895
636.031	0.0138930
636.109	0.0139925
636.187	0.0139306
636.265	0.0138718
636.343	0.0139130
636.421	0.0139426
636.499	0.0139447
636.578	0.0140112
636.656	0.0138959
636.734	0.0139706
636.812	0.0140668
636.890	0.0140694
636.968	0.0140461
637.046	0.0138726
637.124	0.0140534
637.203	0.0140638
637.281	0.0140944
637.359	0.0140258
637.437	0.0139095
637.515	0.0139244
637.593	0.0139725
637.671	0.0139450
637.749	0.0139311
637.828	0.0140217
637.906	0.0141557
637.984	0.0140231
638.062	0.0140730
638.140	0.0138913
638.218	0.0139358
638.296	0.0138692
638.374	0.0140048
638.453	0.0140457
638.531	0.0139559
638.609	0.0140054
638.687	0.0139578
638.765	0.0139132
638.843	0.0140153
638.921	0.0139492
638.999	0.0140069
639.078	0.0139424
639.156	0.0140214
639.234	0.0138062
639.312	0.0139617
639.390	0.0140829
639.468	0.0139438
639.546	0.0139734
639.624	0.0139890
639.703	0.0139407
639.781	0.0139576
639.859	0.0140425
639.937	0.0139014
640.015	0.0140307
640.093	0.0140229
640.171	0.0141207
640.249	0.0140930
640.328	0.0139807
640.406	0.0140189
640.484	0.0141312
640.562	0.0139059
640.640	0.0140439
640.718	0.0140247
640.796	0.0140646
640.874	0.0140675
640.953	0.0139182
641.031	0.0139721
641.109	0.0140874
641.187	0.0139082
641.265	0.0139603
641.343	0.0139860
641.421	0.0141438
641.499	0.0140953
641.578	0.0140650
641.656	0.0138335
641.734	0.0139951
641.812	0.0140649
641.890	0.0139142
641.968	0.0140427
642.046	0.0141365
642.124	0.0139400
642.203	0.0139622
642.281	0.0141114
642.359	0.0141232
642.437	0.0139190
642.515	0.0138998
642.593	0.0139170
642.671	0.0139970
642.749	0.0139980
642.828	0.0139811
642.906	0.0139944
642.984	0.0139906
643.062	0.0142085
643.140	0.0140553
643.218	0.0139399
643.296	0.0140937
643.374	0.0141917
643.453	0.0140718
643.531	0.0139489
643.609	0.0140420
643.687	0.0141363
643.765	0.0139271
643.843	0.0138384
643.921	0.0140338
643.999	0.0140604
644.078	0.0140317
644.156	0.0139047
644.234	0.0139864
644.312	0.0140498
644.390	0.0141093
644.468	0.0140477
644.546	0.0139206
644.624	0.0139713
644.703	0.0139326
644.781	0.0140362
644.859	0.0139663
644.937	0.0139643
645.015	0.0140827
645.093	0.0140948
645.171	0.0141214
645.249	0.0139746
645.328	0.0140096
645.406	0.0139910
645.484	0.0140626
645.562	0.0140958
645.640	0.0140128
645.718	0.0141090
645.796	0.0140643
645.874	0.0139480
645.953	0.0139838
646.031	0.0138943
646.109	0.0139651
646.187	0.0139324
646.265	0.0139302
646.343	0.0141242
646.421	0.0140306
646.499	0.0140233
646.578	0.0139784
646.656	0.0140563
646.734	0.0139187
646.812	0.0141243
646.890	0.0139429
646.968	0.0138429
647.046	0.0139625
647.124	0.0139449
647.203	0.0140441
647.281	0.0138578
647.359	0.0139455
647.437	0.0140298
647.515	0.0141061
647.593	0.0139764
647.671	0.0140038
647.749	0.0140108
647.828	0.0139209
647.906	0.0140803
647.984	0.0139980
648.062	0.0139229
648.140	0.0138621
648.218	0.0140297
648.296	0.0139375
648.374	0.0137801
648.453	0.0139137
648.531	0.0139421
648.609	0.0139039
648.687	0.0139077
648.765	0.0139450
648.843	0.0138522
648.921	0.0139259
648.999	0.0138611
649.078	0.0139062
649.156	0.0138999
649.234	0.0139710
649.312	0.0138127
649.390	0.0139228
649.468	0.0139921
649.546	0.0139141
649.624	0.0139977
649.703	0.0139845
649.781	0.0140145
649.859	0.0138755
649.937	0.0138588
650.015	0.0140020
650.093	0.0138129
650.171	0.0138318
650.249	0.0139676
650.328	0.0139249
650.406	0.0139545
650.484	0.0139649
650.562	0.0138811
650.640	0.0138995
650.718	0.0139363
650.796	0.0139684
650.874	0.0139647
650.953	0.0138857
651.031	0.0138451
651.109	0.0139465
651.187	0.0140848
651.265	0.0139795
651.343	0.0139597
651.421	0.0138820
651.499	0.0138277
651.578	0.0139217
651.656	0.0138863
651.734	0.0139776
651.812	0.0139887
651.890	0.0140576
651.968	0.0139734
652.046	0.0139362
652.124	0.0140039
652.203	0.0138998
652.281	0.0139556
652.359	0.0140655
652.437	0.0139800
652.515	0.0139705
652.593	0.0138892
652.671	0.0139469
652.749	0.0139069
652.828	0.0139377
652.906	0.0141589
652.984	0.0139956
653.062	0.0140073
653.140	0.0140669
653.218	0.0139539
653.296	0.0139548
653.374	0.0139560
653.453	0.0141405
653.531	0.0139223
653.609	0.0138584
653.687	0.0139243
653.765	0.0140611
653.843	0.0139931
653.921	0.0140627
653.999	0.0137853
654.078	0.0139334
654.156	0.0139010
654.234	0.0139894
654.312	0.0140263
654.390	0.0140223
654.468	0.0138210
654.546	0.0138644
654.624	0.0138840
654.703	0.0138766
654.781	0.0139111
654.859	0.0140231
654.937	0.0139987
655.015	0.0139536
655.093	0.0139452
655.171	0.0139252
655.249	0.0141110
655.328	0.0140369
655.406	0.0138798
655.484	0.0140408
655.562	0.0141330
655.640	0.0138935
655.718	0.0138874
655.796	0.0140112
655.874	0.0139777
655.953	0.0138959
656.031	0.0138943
656.109	0.0139304
656.187	0.0138242
656.265	0.0140473
656.343	0.0140211
656.421	0.0138643
656.499	0.0138069
656.578	0.0139156
656.656	0.0139535
656.734	0.0139390
656.812	0.0139379
656.890	0.0139326
656.968	0.0139685
657.046	0.0138931
657.124	0.0138952
657.203	0.0138692
657.281	0.0140202
657.359	0.0140255
657.437	0.0140503
657.515	0.0140142
657.593	0.0139600
657.671	0.0139756
657.749	0.0140299
657.828	0.0140054
657.906	0.0138149
657.984	0.0139206
658.062	0.0140090
658.140	0.0140542
658.218	0.0140013
658.296	0.0139543
658.374	0.0140219
658.453	0.0140490
658.531	0.0139374
658.609	0.0138612
658.687	0.0139265
658.765	0.0139657
658.843	0.0138697
658.921	0.0138927
658.999	0.0138933
659.078	0.0139644
659.156	0.0139429
659.234	0.0139577
659.312	0.0140537
659.390	0.0138897
659.468	0.0139655
659.546	0.0138838
659.624	0.0138359
659.703	0.0139868
659.781	0.0138933
659.859	0.0140017
659.937	0.0140347
660.015	0.0140423
660.093	0.0139546
660.171	0.0139962
660.249	0.0139530
660.328	0.0139899
660.406	0.0140172
660.484	0.0139274
660.562	0.0138515
660.640	0.0140397
660.718	0.0140554
660.796	0.0138918
660.874	0.0138445
660.953	0.0139424
661.031	0.0140895
661.109	0.0139794
661.187	0.0140768
661.265	0.0141131
661.343	0.0140005
661.421	0.0139412
661.499	0.0138614
661.578	0.0138727
661.656	0.0138441
661.734	0.0140029
661.812	0.0140034
661.890	0.0138630
661.968	0.0139545
662.046	0.0138727
662.124	0.0139237
662.203	0.0139155
662.281	0.0138603
662.359	0.0138236
662.437	0.0140410
662.515	0.0139394
662.593	0.0140303
662.671	0.0140855
662.749	0.0139364
662.828	0.0138953
662.906	0.0140294
662.984	0.0140771
663.062	0.0140714
663.140	0.0140460
663.218	0.0139874
663.296	0.0140466
663.374	0.0140177
663.453	0.0139878
663.531	0.0139282
663.609	0.0138528
663.687	0.0140441
663.765	0.0138949
663.843	0.0139892
663.921	0.0139586
663.999	0.0139658
664.078	0.0140138
664.156	0.0139722
664.234	0.0138693
664.312	0.0138790
664.390	0.0141293
664.468	0.0141988
664.546	0.0140588
664.624	0.0140437
664.703	0.0139142
664.781	0.0139504
664.859	0.0139291
664.937	0.0139980
665.015	0.0139271
665.093	0.0140378
665.171	0.0140388
665.249	0.0140661
665.328	0.0140408
665.406	0.0139956
665.484	0.0142396
665.562	0.0140628
665.640	0.0140282
665.718	0.0141344
665.796	0.0141169
665.874	0.0140849
665.953	0.0138999
666.031	0.0140303
666.109	0.0138703
666.187	0.0138425
666.265	0.0138450
666.343	0.0137962
666.421	0.0138250
666.499	0.0139162
666.578	0.0139950
666.656	0.0139601
666.734	0.0140202
666.812	0.0140098
666.890	0.0141593
666.968	0.0140698
667.046	0.0141681
667.124	0.0142698
667.203	0.0142014
667.281	0.0141115
667.359	0.0141515
667.437	0.0142284
667.515	0.0141122
667.593	0.0139005
667.671	0.0138593
667.749	0.0139748
667.828	0.0138466
667.906	0.0137532
667.984	0.0138815
668.062	0.0137840
668.140	0.0138309
668.218	0.0138006
668.296	0.0137923
668.374	0.0138602
668.453	0.0141711
668.531	0.0142175
668.609	0.0140726
668.687	0.0141640
668.765	0.0142062
668.843	0.0142303
668.921	0.0142306
668.999	0.0142491
669.078	0.0143569
669.156	0.0142992
669.234	0.0142143
669.312	0.0140154
669.390	0.0139532
669.468	0.0139386
669.546	0.0139039
669.624	0.0139082
669.703	0.0140342
669.781	0.0140179
669.859	0.0139302
669.937	0.0140026
670.015	0.0140096
670.093	0.0139333
670.171	0.0139164
670.249	0.0140031
670.328	0.0139474
670.406	0.0140076
670.484	0.0140916
670.562	0.0139121
670.640	0.0140894
670.718	0.0141103
670.796	0.0141187
670.874	0.0140824
670.953	0.0142047
671.031	0.0141759
671.109	0.0141240
671.187	0.0140477
671.265	0.0139789
671.343	0.0141239
671.421	0.0141782
671.499	0.0140476
671.578	0.0141765
671.656	0.0141967
671.734	0.0141233
671.812	0.0141907
671.890	0.0141312
671.968	0.0140524
672.046	0.0140909
672.124	0.0142049
672.203	0.0139466
672.281	0.0138597
672.359	0.0138223
672.437	0.0138461
672.515	0.0139297
672.593	0.0140430
672.671	0.0139897
672.749	0.0141423
672.828	0.0141225
672.906	0.0141029
672.984	0.0141006
673.062	0.0140771
673.140	0.0139974
673.218	0.0139790
673.296	0.0140795
673.374	0.0140582
673.453	0.0139606
673.531	0.0138998
673.609	0.0138478
673.687	0.0137767
673.765	0.0137343
673.843	0.0137651
673.921	0.0138277
673.999	0.0137199
674.078	0.0136131
674.156	0.0136945
674.234	0.0136633
674.312	0.0137132
674.390	0.0137003
674.468	0.0139320
674.546	0.0140117
674.624	0.0140771
674.703	0.0141061
674.781	0.0141405
674.859	0.0141447
674.937	0.0141807
675.015	0.0141723
675.093	0.0141526
675.171	0.0141795
675.249	0.0142403
675.328	0.0141441
675.406	0.0140806
675.484	0.0140823
675.562	0.0141627
675.640	0.0140157
675.718	0.0137925
675.796	0.0138564
675.874	0.0138434
675.953	0.0138655
676.031	0.0138981
676.109	0.0139215
676.187	0.0140860
676.265	0.0140971
676.343	0.0141598
676.421	0.0141132
676.499	0.0141187
676.578	0.0141313
676.656	0.0142978
676.734	0.0141856
676.812	0.0141332
676.890	0.0140623
676.968	0.0139450
677.046	0.0137791
677.124	0.0137697
677.203	0.0136082
677.281	0.0135336
677.359	0.0135303
677.437	0.0132827
677.515	0.0132262
677.593	0.0133084
677.671	0.0133292
677.749	0.0132466
677.828	0.0132304
677.906	0.0134505
677.984	0.0137055
678.062	0.0137365
678.140	0.0138973
678.218	0.0139381
678.296	0.0141360
678.374	0.0140702
678.453	0.0140927
678.531	0.0143111
678.609	0.0142980
678.687	0.0144869
678.765	0.0145124
678.843	0.0144179
678.921	0.0143307
678.999	0.0143545
679.078	0.0144512
679.156	0.0143397
679.234	0.0140458
679.312	0.0140133
679.390	0.0141189
679.468	0.0138851
679.546	0.0137926
679.624	0.0139503
679.703	0.0138132
679.781	0.0136706
679.859	0.0137740
679.937	0.0137894
680.015	0.0137206
680.093	0.0137405
680.171	0.0138538
680.249	0.0138888
680.328	0.0140415
680.406	0.0140584
680.484	0.0139944
680.562	0.0142103
680.640	0.0142154
680.718	0.0142582
680.796	0.0141624
680.874	0.0139883
680.953	0.0141256
681.031	0.0139957
681.109	0.0138208
681.187	0.0138967
681.265	0.0139568
681.343	0.0139610
681.421	0.0138665
681.499	0.0137666
681.578	0.0138895
681.656	0.0139713
681.734	0.0138584
681.812	0.0138718
681.890	0.0138227
681.968	0.0138995
682.046	0.0138419
682.124	0.0137926
682.203	0.0137367
682.281	0.0136259
682.359	0.0137576
682.437	0.0136015
682.515	0.0136483
682.593	0.0135058
682.671	0.0134735
682.749	0.0135653
682.828	0.0134793
682.906	0.0136533
682.984	0.0135529
683.062	0.0136348
683.140	0.0138007
683.218	0.0139835
683.296	0.0140856
683.374	0.0141511
683.453	0.0142711
683.531	0.0143932
683.609	0.0145673
683.687	0.0147328
683.765	0.0145843
683.843	0.0146885
683.921	0.0147101
683.999	0.0147389
684.078	0.0146435
684.156	0.0145420
684.234	0.0143486
684.312	0.0143952
684.390	0.0143812
684.468	0.0140630
684.546	0.0139899
684.624	0.0140905
684.703	0.0139863
684.781	0.0139021
684.859	0.0139644
684.937	0.0140759
685.015	0.0139417
685.093	0.0140191
685.171	0.0140873
685.249	0.0143433
685.328	0.0142287
685.406	0.0141728
685.484	0.0141659
685.562	0.0142918
685.640	0.0141557
685.718	0.0139947
685.796	0.0139179
685.874	0.0139181
685.953	0.0136711
686.031	0.0136425
686.109	0.0136108
686.187	0.0134861
686.265	0.0134450
686.343	0.0133152
686.421	0.0130358
686.499	0.0131515
686.578	0.0130729
686.656	0.0130147
686.734	0.0129949
686.812	0.0129926
686.890	0.0129840
686.968	0.0131363
687.046	0.0130189
687.124	0.0132343
687.203	0.0134123
687.281	0.0133514
687.359	0.0134284
687.437	0.0135433
687.515	0.0137901
687.593	0.0138637
687.671	0.0140305
687.749	0.0142346
687.828	0.0144166
687.906	0.0145860
687.984	0.0146896
688.062	0.0147298
688.140	0.0150323
688.218	0.0151172
688.296	0.0151096
688.374	0.0151698
688.453	0.0152327
688.531	0.0152554
688.609	0.0152874
688.687	0.0152065
688.765	0.0153277
688.843	0.0150160
688.921	0.0150555
688.999	0.0149110
689.078	0.0147403
689.156	0.0145727
689.234	0.0143395
689.312	0.0141605
689.390	0.0140334
689.468	0.0138764
689.546	0.0137109
689.624	0.0137131
689.703	0.0136710
689.781	0.0134875
689.859	0.0133691
689.937	0.0134315
690.015	0.0134459
690.093	0.0134970
690.171	0.0134364
690.249	0.0135340
690.328	0.0135120
690.406	0.0136723
690.484	0.0135529
690.562	0.0135913
690.640	0.0136340
690.718	0.0136953
690.796	0.0136490
690.874	0.0136829
690.953	0.0135975
691.031	0.0137167
691.109	0.0135927
691.187	0.0135997
691.265	0.0134890
691.343	0.0135001
691.421	0.0136161
691.499	0.0135732
691.578	0.0134322
691.656	0.0133780
691.734	0.0134635
691.812	0.0133806
691.890	0.0132970
691.968	0.0133469
692.046	0.0132043
692.124	0.0131406
692.203	0.0133091
692.281	0.0132780
692.359	0.0132568
692.437	0.0133445
692.515	0.0136221
692.593	0.0136388
692.671	0.0136853
692.749	0.0137424
692.828	0.0141170
692.906	0.0143536
692.984	0.0146683
693.062	0.0148053
693.140	0.0151561
693.218	0.0155491
693.296	0.0156731
693.374	0.0157749
693.453	0.0157830
693.531	0.0160011
693.609	0.0161860
693.687	0.0161125
693.765	0.0161062
693.843	0.0159611
693.921	0.0159429
693.999	0.0155594
694.078	0.0153469
694.156	0.0151898
694.234	0.0146470
694.312	0.0144297
694.390	0.0141893
694.468	0.0138596
694.546	0.0136569
694.624	0.0135091
694.703	0.0133225
694.781	0.0131675
694.859	0.0131161
694.937	0.0129285
695.015	0.0127268
695.093	0.0128388
695.171	0.0127793
695.249	0.0127775
695.328	0.0127142
695.406	0.0127370
695.484	0.0126688
695.562	0.0126303
695.640	0.0127244
695.718	0.0127302
695.796	0.0127661
695.874	0.0127998
695.953	0.0129941
696.031	0.0129880
696.109	0.0128860
696.187	0.0129832
696.265	0.0130630
696.343	0.0133406
696.421	0.0133694
696.499	0.0134299
696.578	0.0136999
696.656	0.0136686
696.734	0.0135976
696.812	0.0136318
696.890	0.0137532
696.968	0.0137875
697.046	0.0137394
697.124	0.0139171
697.203	0.0139773
697.281	0.0138942
697.359	0.0139444
697.437	0.0139859
697.515	0.0141055
697.593	0.0141785
697.671	0.0143215
697.749	0.0143672
697.828	0.0147023
697.906	0.0147613
697.984	0.0150576
698.062	0.0153263
698.140	0.0155118
698.218	0.0159239
698.296	0.0161430
698.374	0.0161214
698.453	0.0162486
698.531	0.0163779
698.609	0.0163788
698.687	0.0162475
698.765	0.0160119
698.843	0.0158324
698.921	0.0156909
698.999	0.0153302
699.078	0.0149588
699.156	0.0146595
699.234	0.0142603
699.312	0.0137591
699.390	0.0136016
699.468	0.0132832
699.546	0.0130430
699.624	0.0125816
699.703	0.0124745
699.781	0.0124335
699.859	0.0124190
699.937	0.0124722
700.015	0.0125799
700.093	0.0125158
700.171	0.0124439
700.249	0.0125237
700.328	0.0123918
700.406	0.0125601
700.484	0.0123393
700.562	0.0124828
700.640	0.0125145
700.718	0.0124751
700.796	0.0127055
700.874	0.0126212
700.953	0.0126185
701.031	0.0129202
701.109	0.0129422
701.187	0.0131555
701.265	0.0133171
701.343	0.0135571
701.421	0.0136062
701.499	0.0139278
701.578	0.0140855
701.656	0.0141308
701.734	0.0143118
701.812	0.0144079
701.890	0.0146101
701.968	0.0145029
702.046	0.0144916
702.124	0.0143441
702.203	0.0143007
702.281	0.0141669
702.359	0.0143490
702.437	0.0141652
702.515	0.0141736
702.593	0.0142031
702.671	0.0141796
702.749	0.0143248
702.828	0.0144834
702.906	0.0146091
702.984	0.0147002
703.062	0.0151714
703.140	0.0152676
703.218	0.0153699
703.296	0.0156744
703.374	0.0159433
703.453	0.0159660
703.531	0.0159894
703.609	0.0159630
703.687	0.0158006
703.765	0.0157523
703.843	0.0155373
703.921	0.0154578
703.999	0.0150526
704.078	0.0147836
704.156	0.0144681
704.234	0.0142760
704.312	0.0138892
704.390	0.0135334
704.468	0.0133619
704.546	0.0130835
704.624	0.0127715
704.703	0.0125768
704.781	0.0124539
704.859	0.0124573
704.937	0.0124026
705.015	0.0124200
705.093	0.0123835
705.171	0.0121931
705.249	0.0121977
705.328	0.0122623
705.406	0.0123536
705.484	0.0122469
705.562	0.0122185
705.640	0.0123270
705.718	0.0123631
705.796	0.0126148
705.874	0.0126704
705.953	0.0128565
706.031	0.0131410
706.109	0.0132181
706.187	0.0134974
706.265	0.0137878
706.343	0.0138732
706.421	0.0142661
706.499	0.0145624
706.578	0.0147683
706.656	0.0149743
706.734	0.0150871
706.812	0.0150568
706.890	0.0150571
706.968	0.0151258
707.046	0.0150638
707.124	0.0148358
707.203	0.0145212
707.281	0.0144258
707.359	0.0141447
707.437	0.0140169
707.515	0.0138146
707.593	0.0135468
707.671	0.0135070
707.749	0.0133972
707.828	0.0135667
707.906	0.0136171
707.984	0.0137898
708.062	0.0140245
708.140	0.0143784
708.218	0.0145625
708.296	0.0150187
708.374	0.0153622
708.453	0.0156195
708.531	0.0158598
708.609	0.0160537
708.687	0.0159655
708.765	0.0161195
708.843	0.0161477
708.921	0.0159914
708.999	0.0157166
709.078	0.0153708
709.156	0.0150105
709.234	0.0146545
709.312	0.0142784
709.390	0.0139589
709.468	0.0135840
709.546	0.0132865
709.624	0.0130762
709.703	0.0128061
709.781	0.0126348
709.859	0.0124879
709.937	0.0123556
710.015	0.0122182
710.093	0.0121929
710.171	0.0122762
710.249	0.0122005
710.328	0.0123335
710.406	0.0122102
710.484	0.0124606
710.562	0.0124371
710.640	0.0125729
710.718	0.0127271
710.796	0.0127245
710.874	0.0130174
710.953	0.0131966
711.031	0.0133622
711.109	0.0132971
711.187	0.0138992
711.265	0.0139516
711.343	0.0139947
711.421	0.0143222
711.499	0.0143853
711.578	0.0145780
711.656	0.0147250
711.734	0.0148625
711.812	0.0148792
711.890	0.0149001
711.968	0.0149686
712.046	0.0147998
712.124	0.0148348
712.203	0.0146981
712.281	0.0146051
712.359	0.0145098
712.437	0.0142538
712.515	0.0140807
712.593	0.0139500
712.671	0.0138128
712.749	0.0137103
712.828	0.0136634
712.906	0.0136831
712.984	0.0138273
713.062	0.0139637
713.140	0.0140175
713.218	0.0142547
713.296	0.0144783
713.374	0.0146411
713.453	0.0149089
713.531	0.0150901
713.609	0.0154823
713.687	0.0155023
713.765	0.0156157
713.843	0.0154926
713.921	0.0153873
713.999	0.0152924
714.078	0.0154299
714.156	0.0150586
714.234	0.0147749
714.312	0.0146432
714.390	0.0142349
714.468	0.0138555
714.546	0.0135777
714.624	0.0134197
714.703	0.0131480
714.781	0.0130392
714.859	0.0129177
714.937	0.0128477
715.015	0.0127064
715.093	0.0124881
715.171	0.0124646
715.249	0.0124460
715.328	0.0125177
715.406	0.0124615
715.484	0.0125493
715.562	0.0125734
715.640	0.0126875
715.718	0.0128632
715.796	0.0128162
715.874	0.0130953
715.953	0.0131186
716.031	0.0132927
716.109	0.0135930
716.187	0.0137437
716.265	0.0139225
716.343	0.0141844
716.421	0.0143752
716.499	0.0144699
716.578	0.0146447
716.656	0.0148872
716.734	0.0148532
716.812	0.0148401
716.890	0.0150954
716.968	0.0149725
717.046	0.0152187
717.124	0.0149758
717.203	0.0148071
717.281	0.0149126
717.359	0.0147448
717.437	0.0145969
717.515	0.0143995
717.593	0.0141372
717.671	0.0139722
717.749	0.0136149
717.828	0.0135027
717.906	0.0134184
717.984	0.0134351
718.062	0.0133181
718.140	0.0132496
718.218	0.0134612
718.296	0.0134836
718.374	0.0138693
718.453	0.0139970
718.531	0.0141814
718.609	0.0143137
718.687	0.0145380
718.765	0.0149052
718.843	0.0150019
718.921	0.0151935
718.999	0.0150948
719.078	0.0152190
719.156	0.0152242
719.234	0.0151032
719.312	0.0149368
719.390	0.0147189
719.468	0.0146429
719.546	0.0144913
719.624	0.0143177
719.703	0.0140236
719.781	0.0138828
719.859	0.0136105
719.937	0.0134924
720.015	0.0131298
720.093	0.0130044
720.171	0.0128834
720.249	0.0126699
720.328	0.0126216
720.406	0.0126005
720.484	0.0126216
720.562	0.0125712
720.640	0.0126740
720.718	0.0127026
720.796	0.0126872
720.874	0.0128305
720.953	0.0129726
721.031	0.0131536
721.109	0.0134047
721.187	0.0134747
721.265	0.0136762
721.343	0.0138864
721.421	0.0141796
721.499	0.0143172
721.578	0.0144900
721.656	0.0147636
721.734	0.0147520
721.812	0.0147039
721.890	0.0149119
721.968	0.0149591
722.046	0.0148942
722.124	0.0149284
722.203	0.0147607
722.281	0.0147582
722.359	0.0144854
722.437	0.0143412
722.515	0.0142356
722.593	0.0140813
722.671	0.0139486
722.749	0.0138544
722.828	0.0135996
722.906	0.0133797
722.984	0.0133235
723.062	0.0131722
723.140	0.0130782
723.218	0.0131567
723.296	0.0131178
723.374	0.0133229
723.453	0.0133975
723.531	0.0137344
723.609	0.0140313
723.687	0.0142798
723.765	0.0144263
723.843	0.0146393
723.921	0.0149683
723.999	0.0151334
724.078	0.0152860
724.156	0.0153101
724.234	0.0151938
724.312	0.0154592
724.390	0.0151392
724.468	0.0149094
724.546	0.0147252
724.624	0.0144188
724.703	0.0142693
724.781	0.0139143
724.859	0.0136523
724.937	0.0134054
725.015	0.0133543
725.093	0.0132597
725.171	0.0129026
725.249	0.0129189
725.328	0.0128007
725.406	0.0127830
725.484	0.0127539
725.562	0.0127909
725.640	0.0127490
725.718	0.0128564
725.796	0.0130206
725.874	0.0130557
725.953	0.0131918
726.031	0.0133231
726.109	0.0133404
726.187	0.0136060
726.265	0.0136911
726.343	0.0138948
726.421	0.0140917
726.499	0.0141539
726.578	0.0143388
726.656	0.0143432
726.734	0.0143890
726.812	0.0145143
726.890	0.0146434
726.968	0.0145596
727.046	0.0145321
727.124	0.0146889
727.203	0.0145147
727.281	0.0145056
727.359	0.0143208
727.437	0.0140858
727.515	0.0141858
727.593	0.0141268
727.671	0.0138729
727.749	0.0138210
727.828	0.0136402
727.906	0.0136164
727.984	0.0135677
728.062	0.0134163
728.140	0.0134464
728.218	0.0135471
728.296	0.0134519
728.374	0.0134676
728.453	0.0133992
728.531	0.0136584
728.609	0.0138828
728.687	0.0139457
728.765	0.0141306
728.843	0.0142683
728.921	0.0143736
728.999	0.0146052
729.078	0.0147660
729.156	0.0148483
729.234	0.0149039
729.312	0.0149449
729.390	0.0150199
729.468	0.0149509
729.546	0.0147765
729.624	0.0146930
729.703	0.0145837
729.781	0.0142113
729.859	0.0141313
729.937	0.0137903
730.015	0.0137155
730.093	0.0134855
730.171	0.0133146
730.249	0.0132021
730.328	0.0130766
730.406	0.0130692
730.484	0.0128878
730.562	0.0129493
730.640	0.0128553
730.718	0.0130244
730.796	0.0132049
730.874	0.0131143
730.953	0.0131796
731.031	0.0135474
731.109	0.0136553
731.187	0.0139041
731.265	0.0139500
731.343	0.0139556
731.421	0.0141486
731.499	0.0144083
731.578	0.0144695
731.656	0.0145903
731.734	0.0146281
731.812	0.0145444
731.890	0.0145094
731.968	0.0145822
732.046	0.0146629
732.124	0.0144727
732.203	0.0145668
732.281	0.0144139
732.359	0.0143366
732.437	0.0142888
732.515	0.0141755
732.593	0.0139513
732.671	0.0139403
732.749	0.0137292
732.828	0.0135218
732.906	0.0136846
732.984	0.0135236
733.062	0.0135303
733.140	0.0133504
733.218	0.0132286
733.296	0.0134006
733.374	0.0132060
733.453	0.0133641
733.531	0.0134181
733.609	0.0134972
733.687	0.0136573
733.765	0.0139177
733.843	0.0139220
733.921	0.0141389
733.999	0.0144682
734.078	0.0145827
734.156	0.0147980
734.234	0.0148283
734.312	0.0149893
734.390	0.0149379
734.468	0.0149889
734.546	0.0149519
734.624	0.0148766
734.703	0.0147752
734.781	0.0145921
734.859	0.0145796
734.937	0.0144244
735.015	0.0142165
735.093	0.0140438
735.171	0.0137587
735.249	0.0136671
735.328	0.0133885
735.406	0.0133054
735.484	0.0132554
735.562	0.0130693
735.640	0.0131709
735.718	0.0131386
735.796	0.0131363
735.874	0.0132259
735.953	0.0133105
736.031	0.0133770
736.109	0.0134904
736.187	0.0136168
736.265	0.0137276
736.343	0.0138810
736.421	0.0140459
736.499	0.0141042
736.578	0.0142601
736.656	0.0142832
736.734	0.0143462
736.812	0.0143871
736.890	0.0146306
736.968	0.0144775
737.046	0.0142989
737.124	0.0144547
737.203	0.0144204
737.281	0.0141980
737.359	0.0141247
737.437	0.0141895
737.515	0.0142492
737.593	0.0140406
737.671	0.0140101
737.749	0.0138377
737.828	0.0136191
737.906	0.0136200
737.984	0.0136353
738.062	0.0135902
738.140	0.0134350
738.218	0.0134081
738.296	0.0132276
738.374	0.0133573
738.453	0.0134962
738.531	0.0134832
738.609	0.0134914
738.687	0.0138168
738.765	0.0137032
738.843	0.0139215
738.921	0.0140581
738.999	0.0141000
739.078	0.0142644
739.156	0.0144550
739.234	0.0146132
739.312	0.0146699
739.390	0.0146426
739.468	0.0147135
739.546	0.0149083
739.624	0.0147906
739.703	0.0146471
739.781	0.0145410
739.859	0.0145437
739.937	0.0142979
740.015	0.0142345
740.093	0.0139664
740.171	0.0137977
740.249	0.0138451
740.328	0.0136404
740.406	0.0134599
740.484	0.0134562
740.562	0.0133189
740.640	0.0132560
740.718	0.0131519
740.796	0.0132162
740.874	0.0133199
740.953	0.0132230
741.031	0.0134345
741.109	0.0135389
741.187	0.0135545
741.265	0.0137133
741.343	0.0137643
741.421	0.0138774
741.499	0.0139133
741.578	0.0141234
741.656	0.0140880
741.734	0.0143835
741.812	0.0142889
741.890	0.0144525
741.968	0.0145378
742.046	0.0143860
742.124	0.0146384
742.203	0.0145635
742.281	0.0143697
742.359	0.0144350
742.437	0.0143432
742.515	0.0142242
742.593	0.0142699
742.671	0.0142379
742.749	0.0139780
742.828	0.0140250
742.906	0.0138026
742.984	0.0136842
743.062	0.0137749
743.140	0.0136263
743.218	0.0135915
743.296	0.0134389
743.374	0.0135351
743.453	0.0136979
743.531	0.0134740
743.609	0.0134314
743.687	0.0136153
743.765	0.0136121
743.843	0.0138477
743.921	0.0138282
743.999	0.0138895
744.078	0.0139114
744.156	0.0140646
744.234	0.0142170
744.312	0.0142985
744.390	0.0144464
744.468	0.0142924
744.546	0.0144778
744.624	0.0144637
744.703	0.0144952
744.781	0.0144583
744.859	0.0143304
744.937	0.0143010
745.015	0.0142725
745.093	0.0140913
745.171	0.0140819
745.249	0.0138824
745.328	0.0139444
745.406	0.0138661
745.484	0.0137122
745.562	0.0135831
745.640	0.0134377
745.718	0.0135779
745.796	0.0135461
745.874	0.0135181
745.953	0.0134322
746.031	0.0135870
746.109	0.0135973
746.187	0.0136125
746.265	0.0137544
746.343	0.0139600
746.421	0.0138984
746.499	0.0140827
746.578	0.0139809
746.656	0.0142157
746.734	0.0142606
746.812	0.0142463
746.890	0.0144039
746.968	0.0144156
747.046	0.0142931
747.124	0.0142890
747.203	0.0144589
747.281	0.0143781
747.359	0.0142802
747.437	0.0140826
747.515	0.0141224
747.593	0.0142540
747.671	0.0141103
747.749	0.0139988
747.828	0.0139715
747.906	0.0139340
747.984	0.0137838
748.062	0.0135821
748.140	0.0135948
748.218	0.0136626
748.296	0.0136063
748.374	0.0134486
748.453	0.0135907
748.531	0.0135989
748.609	0.0135610
748.687	0.0135857
748.765	0.0137168
748.843	0.0138718
748.921	0.0138451
748.999	0.0138269
749.078	0.0139673
749.156	0.0140466
749.234	0.0140874
749.312	0.0142864
749.390	0.0142125
749.468	0.0143822
749.546	0.0142999
749.624	0.0144202
749.703	0.0143924
749.781	0.0143234
749.859	0.0142875
749.937	0.0143179
750.015	0.0141773
750.093	0.0141426
750.171	0.0140253
750.249	0.0139941
750.328	0.0138917
750.406	0.0139129
750.484	0.0136929
750.562	0.0136691
750.640	0.0136956
750.718	0.0135470
750.796	0.0135696
750.874	0.0136072
750.953	0.0135444
751.031	0.0135685
751.109	0.0135757
751.187	0.0137551
751.265	0.0137824
751.343	0.0138034
751.421	0.0138513
751.499	0.0139114
751.578	0.0140772
751.656	0.0141071
751.734	0.0141652
751.812	0.0141733
751.890	0.0142785
751.968	0.0143397
752.046	0.0142494
752.124	0.0141505
752.203	0.0141898
752.281	0.0143201
752.359	0.0140881
752.437	0.0142212
752.515	0.0142460
752.593	0.0141415
752.671	0.0138575
752.749	0.0137933
752.828	0.0136887
752.906	0.0138715
752.984	0.0137029
753.062	0.0135593
753.140	0.0136470
753.218	0.0135458
753.296	0.0135110
753.374	0.0135587
753.453	0.0136472
753.531	0.0137705
753.609	0.0138318
753.687	0.0138396
753.765	0.0139033
753.843	0.0140696
753.921	0.0141238
753.999	0.0141242
754.078	0.0141949
754.156	0.0144141
754.234	0.0142002
754.312	0.0143616
754.390	0.0143997
754.468	0.0144623
754.546	0.0143534
754.624	0.0143475
754.703	0.0142097
754.781	0.0143515
754.859	0.0141985
754.937	0.0139764
755.015	0.0139759
755.093	0.0139187
755.171	0.0139125
755.249	0.0137526
755.328	0.0137193
755.406	0.0137577
755.484	0.0137242
755.562	0.0137350
755.640	0.0135769
755.718	0.0136066
755.796	0.0135820
755.874	0.0135884
755.953	0.0137479
756.031	0.0135442
756.109	0.0136677
756.187	0.0137337
756.265	0.0138862
756.343	0.0139703
756.421	0.0139117
756.499	0.0142514
756.578	0.0143136
756.656	0.0141482
756.734	0.0142874
756.812	0.0144056
756.890	0.0143799
756.968	0.0143876
757.046	0.0144138
757.124	0.0144863
757.203	0.0143141
757.281	0.0142079
757.359	0.0140189
757.437	0.0140488
757.515	0.0140065
757.593	0.0138436
757.671	0.0138119
757.749	0.0138619
757.828	0.0137653
757.906	0.0137529
757.984	0.0138414
758.062	0.0136881
758.140	0.0136488
758.218	0.0136870
758.296	0.0137904
758.374	0.0137827
758.453	0.0139468
758.531	0.0139518
758.609	0.0139762
758.687	0.0139819
758.765	0.0141263
758.843	0.0141106
758.921	0.0141151
758.999	0.0142609
759.078	0.0142190
759.156	0.0143477
759.234	0.0142983
759.312	0.0143524
759.390	0.0142355
759.468	0.0142422
759.546	0.0143664
759.624	0.0143048
759.703	0.0141946
759.781	0.0143372
759.859	0.0141359
759.937	0.0140218
760.015	0.0140980
760.093	0.0140581
760.171	0.0139577
760.249	0.0138197
760.328	0.0137807
760.406	0.0137679
760.484	0.0137421
760.562	0.0137376
760.640	0.0135748
760.718	0.0135480
760.796	0.0135815
760.874	0.0136307
760.953	0.0135583
761.031	0.0136721
761.109	0.0136666
761.187	0.0137513
761.265	0.0138459
761.343	0.0139048
761.421	0.0139266
761.499	0.0139564
761.578	0.0143073
761.656	0.0143158
761.734	0.0143429
761.812	0.0144312
761.890	0.0145409
761.968	0.0144347
762.046	0.0144527
762.124	0.0144728
762.203	0.0144674
762.281	0.0143688
762.359	0.0142339
762.437	0.0141874
762.515	0.0141698
762.593	0.0140417
762.671	0.0140335
762.749	0.0138787
762.828	0.0138210
762.906	0.0137761
762.984	0.0136841
763.062	0.0137340
763.140	0.0137406
763.218	0.0136912
763.296	0.0136567
763.374	0.0137531
763.453	0.0138612
763.531	0.0137741
763.609	0.0138252
763.687	0.0139674
763.765	0.0140174
763.843	0.0140577
763.921	0.0141176
763.999	0.0142240
764.078	0.0141893
764.156	0.0142038
764.234	0.0142754
764.312	0.0142348
764.390	0.0142381
764.468	0.0141650
764.546	0.0143004
764.624	0.0142482
764.703	0.0141497
764.781	0.0142078
764.859	0.0142857
764.937	0.0142515
765.015	0.0142253
765.093	0.0140788
765.171	0.0139614
765.249	0.0141096
765.328	0.0138653
765.406	0.0137733
765.484	0.0136794
765.562	0.0138219
765.640	0.0136848
765.718	0.0136804
765.796	0.0135746
765.874	0.0133909
765.953	0.0135964
766.031	0.0136913
766.109	0.0136407
766.187	0.0137946
766.265	0.0137876
766.343	0.0139159
766.421	0.0140927
766.499	0.0141837
766.578	0.0142404
766.656	0.0141991
766.734	0.0142561
766.812	0.0143758
766.890	0.0144061
766.968	0.0142700
767.046	0.0144109
767.124	0.0143354
767.203	0.0141969
767.281	0.0141184
767.359	0.0141783
767.437	0.0139661
767.515	0.0139783
767.593	0.0138988
767.671	0.0137496
767.749	0.0138271
767.828	0.0137963
767.906	0.0137991
767.984	0.0139136
768.062	0.0139062
768.140	0.0138210
768.218	0.0139259
768.296	0.0139625
768.374	0.0139666
768.453	0.0138827
768.531	0.0140353
768.609	0.0136884
768.687	0.0137463
768.765	0.0139480
768.843	0.0139240
768.921	0.0138682
768.999	0.0139128
769.078	0.0139388
769.156	0.0139551
769.234	0.0139758
769.312	0.0140096
769.390	0.0141669
769.468	0.0140573
769.546	0.0141678
769.624	0.0140621
769.703	0.0142424
769.781	0.0141686
769.859	0.0142749
769.937	0.0141352
770.015	0.0140840
770.093	0.0140881
770.171	0.0140789
770.249	0.0139985
770.328	0.0140758
770.406	0.0140811
770.484	0.0139828
770.562	0.0139538
770.640	0.0139199
770.718	0.0138453
770.796	0.0138056
770.874	0.0138241
770.953	0.0138665
771.031	0.0138834
771.109	0.0138555
771.187	0.0140219
771.265	0.0139771
771.343	0.0139280
771.421	0.0142152
771.499	0.0141108
771.578	0.0142941
771.656	0.0141090
771.734	0.0140479
771.812	0.0142132
771.890	0.0141714
771.968	0.0141792
772.046	0.0142326
772.124	0.0140726
772.203	0.0141074
772.281	0.0140057
772.359	0.0141612
772.437	0.0139323
772.515	0.0140515
772.593	0.0139967
772.671	0.0139469
772.749	0.0140128
772.828	0.0138714
772.906	0.0140156
772.984	0.0140096
773.062	0.0138821
773.140	0.0139872
773.218	0.0139552
773.296	0.0139255
773.374	0.0138428
773.453	0.0139374
773.531	0.0139133
773.609	0.0139672
773.687	0.0138591
773.765	0.0139271
773.843	0.0138185
773.921	0.0140716
773.999	0.0141718
774.078	0.0140427
774.156	0.0141273
774.234	0.0141606
774.312	0.0141640
774.390	0.0141646
774.468	0.0141283
774.546	0.0141465
774.624	0.0141908
774.703	0.0140590
774.781	0.0142408
774.859	0.0141553
774.937	0.0139269
775.015	0.0140361
775.093	0.0140456
775.171	0.0140321
775.249	0.0138675
775.328	0.0139304
775.406	0.0137834
775.484	0.0138676
775.562	0.0138202
775.640	0.0139346
775.718	0.0139653
775.796	0.0138447
775.874	0.0137638
775.953	0.0137766
776.031	0.0137842
776.109	0.0138370
776.187	0.0139981
776.265	0.0138309
776.343	0.0139851
776.421	0.0139255
776.499	0.0139014
776.578	0.0140092
776.656	0.0139263
776.734	0.0139595
776.812	0.0141411
776.890	0.0142152
776.968	0.0140749
777.046	0.0140968
777.124	0.0140356
777.203	0.0140589
777.281	0.0139004
777.359	0.0139600
777.437	0.0139825
777.515	0.0139417
777.593	0.0138576
777.671	0.0139307
777.749	0.0137991
777.828	0.0138393
777.906	0.0138534
777.984	0.0138455
778.062	0.0137626
778.140	0.0138641
778.218	0.0139191
778.296	0.0139101
778.374	0.0138445
778.453	0.0139194
778.531	0.0140957
778.609	0.0139798
778.687	0.0138822
778.765	0.0142039
778.843	0.0139979
778.921	0.0140038
778.999	0.0141073
779.078	0.0142661
779.156	0.0141407
779.234	0.0141970
779.312	0.0140720
779.390	0.0142390
779.468	0.0140815
779.546	0.0139547
779.624	0.0141398
779.703	0.0141663
779.781	0.0141491
779.859	0.0140237
779.937	0.0138422
780.015	0.0139657
780.093	0.0139476
780.171	0.0138256
780.249	0.0138902
780.328	0.0139059
780.406	0.0138148
780.484	0.0137682
780.562	0.0138252
780.640	0.0139288
780.718	0.0139707
780.796	0.0139201
780.874	0.0138060
780.953	0.0140040
781.031	0.0139995
781.109	0.0140672
781.187	0.0140486
781.265	0.0141458
781.343	0.0142500
781.421	0.0143242
781.499	0.0141743
781.578	0.0142628
781.656	0.0142166
781.734	0.0142654
781.812	0.0143694
781.890	0.0142409
781.968	0.0140734
782.046	0.0140897
782.124	0.0140434
782.203	0.0140103
782.281	0.0141718
782.359	0.0139252
782.437	0.0139365
782.515	0.0138953
782.593	0.0138377
782.671	0.0138602
782.749	0.0137576
782.828	0.0138821
782.906	0.0137946
782.984	0.0138670
783.062	0.0138923
783.140	0.0138744
783.218	0.0138510
783.296	0.0139298
783.374	0.0139379
783.453	0.0139876
783.531	0.0140051
783.609	0.0140511
783.687	0.0140586
783.765	0.0139927
783.843	0.0141255
783.921	0.0141499
783.999	0.0142343
784.078	0.0142176
784.156	0.0142278
784.234	0.0143430
784.312	0.0141805
784.390	0.0140965
784.468	0.0142800
784.546	0.0141954
784.624	0.0141362
784.703	0.0139615
784.781	0.0140697
784.859	0.0141090
784.937	0.0141578
785.015	0.0140735
785.093	0.0141975
785.171	0.0139475
785.249	0.0139281
785.328	0.0140369
785.406	0.0139554
785.484	0.0138169
785.562	0.0139066
785.640	0.0139961
785.718	0.0138153
785.796	0.0138477
785.874	0.0138554
785.953	0.0139364
786.031	0.0139743
786.109	0.0138500
786.187	0.0139919
786.265	0.0139024
786.343	0.0139833
786.421	0.0142434
786.499	0.0139577
786.578	0.0141570
786.656	0.0140878
786.734	0.0142242
786.812	0.0142586
786.890	0.0142513
786.968	0.0141802
787.046	0.0140056
787.124	0.0141114
787.203	0.0141217
787.281	0.0141690
787.359	0.0139871
787.437	0.0139227
787.515	0.0139256
787.593	0.0139662
787.671	0.0138031
787.749	0.0138759
787.828	0.0137434
787.906	0.0137009
787.984	0.0136288
788.062	0.0136449
788.140	0.0137886
788.218	0.0137471
788.296	0.0137962
788.374	0.0139178
788.453	0.0139867
788.531	0.0139163
788.609	0.0140017
788.687	0.0140385
788.765	0.0142084
788.843	0.0141547
788.921	0.0142610
788.999	0.0142902
789.078	0.0142569
789.156	0.0141888
789.234	0.0142137
789.312	0.0143024
789.390	0.0143800
789.468	0.0142876
789.546	0.0142458
789.624	0.0142956
789.703	0.0143093
789.781	0.0142162
789.859	0.0141174
789.937	0.0140528
790.015	0.0140030
790.093	0.0141837
790.171	0.0140771
790.249	0.0140210
790.328	0.0139365
790.406	0.0140490
790.484	0.0140391
790.562	0.0139393
790.640	0.0140775
790.718	0.0141295
790.796	0.0138945
790.874	0.0138667
790.953	0.0138817
791.031	0.0139462
791.109	0.0138943
791.187	0.0138452
791.265	0.0140247
791.343	0.0140621
791.421	0.0139642
791.499	0.0139564
791.578	0.0140208
791.656	0.0140532
791.734	0.0139569
791.812	0.0140479
791.890	0.0140137
791.968	0.0138758
792.046	0.0140439
792.124	0.0140071
792.203	0.0140261
792.281	0.0138863
792.359	0.0138023
792.437	0.0138435
792.515	0.0138195
792.593	0.0138600
792.671	0.0138425
792.749	0.0138857
792.828	0.0138796
792.906	0.0138114
792.984	0.0137766
793.062	0.0138329
793.140	0.0137629
793.218	0.0139593
793.296	0.0139126
793.374	0.0138838
793.453	0.0140318
793.531	0.0141695
793.609	0.0140997
793.687	0.0140346
793.765	0.0141586
793.843	0.0140712
793.921	0.0140552
793.999	0.0142682
794.078	0.0141263
794.156	0.0140533
794.234	0.0139824
794.312	0.0141441
794.390	0.0141068
794.468	0.0141167
794.546	0.0141925
794.624	0.0140336
794.703	0.0140575
794.781	0.0141265
794.859	0.0141405
794.937	0.0141232
795.015	0.0140129
795.093	0.0138684
795.171	0.0139801
795.249	0.0140746
795.328	0.0140252
795.406	0.0139483
795.484	0.0141802
795.562	0.0140353
795.640	0.0139928
795.718	0.0139596
795.796	0.0140385
795.874	0.0140366
795.953	0.0138931
796.031	0.0138932
796.109	0.0140254
796.187	0.0141026
796.265	0.0139260
796.343	0.0138279
796.421	0.0139416
796.499	0.0140417
796.578	0.0138456
796.656	0.0140618
796.734	0.0137378
796.812	0.0138976
796.890	0.0138931
796.968	0.0136965
797.046	0.0139334
797.124	0.0139330
797.203	0.0138858
797.281	0.0138839
797.359	0.0138250
797.437	0.0138788
797.515	0.0138415
797.593	0.0138287
797.671	0.0139333
797.749	0.0139124
797.828	0.0138979
797.906	0.0139685
797.984	0.0138673
798.062	0.0138687
798.140	0.0139883
798.218	0.0140298
798.296	0.0139236
798.374	0.0141151
798.453	0.0141230
798.531	0.0140314
798.609	0.0139615
798.687	0.0141213
798.765	0.0139710
798.843	0.0140144
798.921	0.0140350
798.999	0.0139339
799.078	0.0139037
799.156	0.0137957
799.234	0.0139833
799.312	0.0139732
799.390	0.0138918
799.468	0.0139568
799.546	0.0139167
799.624	0.0140714
799.703	0.0139340
799.781	0.0141148
799.859	0.0139451
799.937	0.0140302
800.015	0.0139818
800.093	0.0140691
800.171	0.0141447
800.249	0.0142878
800.328	0.0140987
800.406	0.0142352
800.484	0.0141852
800.562	0.0141248
800.640	0.0140776
800.718	0.0140693
800.796	0.0141518
800.874	0.0141518
800.953	0.0140293
801.031	0.0138688
801.109	0.0139192
801.187	0.0139443
801.265	0.0138300
801.343	0.0137062
801.421	0.0139418
801.499	0.0138148
801.578	0.0137837
801.656	0.0138770
801.734	0.0138157
801.812	0.0137950
801.890	0.0137614
801.968	0.0137451
802.046	0.0137872
802.124	0.0137572
802.203	0.0137592
802.281	0.0138305
802.359	0.0138133
802.437	0.0138514
802.515	0.0140173
802.593	0.0136688
802.671	0.0138028
802.749	0.0139462
802.828	0.0138056
802.906	0.0138878
802.984	0.0139968
803.062	0.0140208
803.140	0.0139015
803.218	0.0139544
803.296	0.0139555
803.374	0.0141253
803.453	0.0141486
803.531	0.0141685
803.609	0.0141599
803.687	0.0140775
803.765	0.0140819
803.843	0.0142271
803.921	0.0141798
803.999	0.0140732
804.078	0.0140186
804.156	0.0141185
804.234	0.0141017
804.312	0.0141142
804.390	0.0140527
804.468	0.0140588
804.546	0.0141621
804.624	0.0141198
804.703	0.0141576
804.781	0.0141084
804.859	0.0140471
804.937	0.0140918
805.015	0.0140685
805.093	0.0139426
805.171	0.0140241
805.249	0.0140693
805.328	0.0140807
805.406	0.0141325
805.484	0.0141179
805.562	0.0140445
805.640	0.0140996
805.718	0.0140520
805.796	0.0140077
805.874	0.0139146
805.953	0.0140361
806.031	0.0140002
806.109	0.0140262
806.187	0.0139539
806.265	0.0141236
806.343	0.0139012
806.421	0.0139161
806.499	0.0139249
806.578	0.0137951
806.656	0.0137577
806.734	0.0138894
806.812	0.0137640
806.890	0.0136846
806.968	0.0140614
807.046	0.0137074
807.124	0.0137636
807.203	0.0138270
807.281	0.0137584
807.359	0.0137833
807.437	0.0138078
807.515	0.0139399
807.593	0.0138565
807.671	0.0139114
807.749	0.0138133
807.828	0.0139234
807.906	0.0140828
807.984	0.0138180
808.062	0.0139328
808.140	0.0140366
808.218	0.0140685
808.296	0.0140254
808.374	0.0141269
808.453	0.0141557
808.531	0.0142683
808.609	0.0141093
808.687	0.0140936
808.765	0.0141426
808.843	0.0142807
808.921	0.0141834
808.999	0.0140662
809.078	0.0142052
809.156	0.0141296
809.234	0.0142126
809.312	0.0141679
809.390	0.0141656
809.468	0.0140984
809.546	0.0140484
809.624	0.0141417
809.703	0.0140179
809.781	0.0139143
809.859	0.0139723
809.937	0.0140557
810.015	0.0139446
810.093	0.0139997
810.171	0.0138602
810.249	0.0138544
810.328	0.0138879
810.406	0.0140082
810.484	0.0140007
810.562	0.0138567
810.640	0.0138313
810.718	0.0139842
810.796	0.0140071
810.874	0.0140314
810.953	0.0140337
811.031	0.0139928
811.109	0.0140563
811.187	0.0140138
811.265	0.0138971
811.343	0.0140116
811.421	0.0138752
811.499	0.0139592
811.578	0.0139630
811.656	0.0138567
811.734	0.0138374
811.812	0.0138898
811.890	0.0140092
811.968	0.0138680
812.046	0.0137753
812.124	0.0139478
812.203	0.0138946
812.281	0.0139221
812.359	0.0137557
812.437	0.0137475
812.515	0.0137330
812.593	0.0139085
812.671	0.0138596
812.749	0.0140053
812.828	0.0139812
812.906	0.0138760
812.984	0.0139494
813.062	0.0139742
813.140	0.0140516
813.218	0.0139203
813.296	0.0140151
813.374	0.0138228
813.453	0.0138290
813.531	0.0141292
813.609	0.0140652
813.687	0.0140505
813.765	0.0139784
813.843	0.0140218
813.921	0.0141455
813.999	0.0140276
814.078	0.0141109
814.156	0.0140763
814.234	0.0140570
814.312	0.0141702
814.390	0.0141273
814.468	0.0141206
814.546	0.0140908
814.624	0.0141115
814.703	0.0140483
814.781	0.0139651
814.859	0.0140302
814.937	0.0140157
815.015	0.0140800
815.093	0.0140726
815.171	0.0141084
815.249	0.0141053
815.328	0.0141483
815.406	0.0142281
815.484	0.0141002
815.562	0.0141986
815.640	0.0141492
815.718	0.0140771
815.796	0.0141114
815.874	0.0141051
815.953	0.0140911
816.031	0.0140470
816.109	0.0140572
816.187	0.0140403
816.265	0.0138435
816.343	0.0139906
816.421	0.0139418
816.499	0.0139082
816.578	0.0138243
816.656	0.0137421
816.734	0.0138618
816.812	0.0137964
816.890	0.0136810
816.968	0.0136967
817.046	0.0137819
817.124	0.0135759
817.203	0.0136512
817.281	0.0137194
817.359	0.0136936
817.437	0.0137222
817.515	0.0136997
817.593	0.0136736
817.671	0.0138501
817.749	0.0137700
817.828	0.0138534
817.906	0.0137260
817.984	0.0137098
818.062	0.0139162
818.140	0.0138152
818.218	0.0138319
818.296	0.0139478
818.374	0.0137457
818.453	0.0139131
818.531	0.0138715
818.609	0.0139666
818.687	0.0139689
818.765	0.0139978
818.843	0.0139904
818.921	0.0139919
818.999	0.0140380
819.078	0.0138823
819.156	0.0139314
819.234	0.0140028
819.312	0.0140562
819.390	0.0139834
819.468	0.0139037
819.546	0.0140672
819.624	0.0140765
819.703	0.0139080
819.781	0.0139539
819.859	0.0139923
819.937	0.0141344
820.015	0.0141093
820.093	0.0141408
820.171	0.0140769
820.249	0.0141766
820.328	0.0141264
820.406	0.0142408
820.484	0.0142222
820.562	0.0143036
820.640	0.0143488
820.718	0.0141560
820.796	0.0141714
820.874	0.0140371
820.953	0.0140927
821.031	0.0141325
821.109	0.0139220
821.187	0.0140135
821.265	0.0140253
821.343	0.0138356
821.421	0.0137032
821.499	0.0137130
821.578	0.0138124
821.656	0.0136819
821.734	0.0135432
821.812	0.0137403
821.890	0.0137144
821.968	0.0136625
822.046	0.0137794
822.124	0.0138206
822.203	0.0137303
822.281	0.0139040
822.359	0.0138508
822.437	0.0139143
822.515	0.0138052
822.593	0.0137856
822.671	0.0138889
822.749	0.0139977
822.828	0.0139834
822.906	0.0139560
822.984	0.0139032
823.062	0.0139228
823.140	0.0140905
823.218	0.0140395
823.296	0.0140308
823.374	0.0139971
823.453	0.0140204
823.531	0.0139425
823.609	0.0139537
823.687	0.0138310
823.765	0.0139877
823.843	0.0139897
823.921	0.0141413
823.999	0.0140569
824.078	0.0140809
824.156	0.0138612
824.234	0.0140288
824.312	0.0140836
824.390	0.0140376
824.468	0.0141917
824.546	0.0140368
824.624	0.0140467
824.703	0.0139852
824.781	0.0140969
824.859	0.0141064
824.937	0.0139809
825.015	0.0140902
825.093	0.0139716
825.171	0.0141370
825.249	0.0139456
825.328	0.0139200
825.406	0.0138740
825.484	0.0139619
825.562	0.0140943
825.640	0.0139835
825.718	0.0140839
825.796	0.0140694
825.874	0.0140305
825.953	0.0140251
826.031	0.0140874
826.109	0.0138396
826.187	0.0139539
826.265	0.0139706
826.343	0.0139921
826.421	0.0140181
826.499	0.0140022
826.578	0.0139001
826.656	0.0137846
826.734	0.0137556
826.812	0.0138643
826.890	0.0138456
826.968	0.0137280
827.046	0.0137578
827.124	0.0138808
827.203	0.0137716
827.281	0.0137424
827.359	0.0137524
827.437	0.0137251
827.515	0.0138103
827.593	0.0138689
827.671	0.0137983
827.749	0.0139439
827.828	0.0138327
827.906	0.0138582
827.984	0.0139822
828.062	0.0139935
828.140	0.0139131
828.218	0.0138506
828.296	0.0137991
828.374	0.0139786
828.453	0.0139252
828.531	0.0139886
828.609	0.0138152
828.687	0.0139211
828.765	0.0139797
828.843	0.0139681
828.921	0.0139256
828.999	0.0138404
829.078	0.0138763
829.156	0.0140063
829.234	0.0139672
829.312	0.0138402
829.390	0.0139436
829.468	0.0139038
829.546	0.0137904
829.624	0.0139910
829.703	0.0140172
829.781	0.0140139
829.859	0.0139709
829.937	0.0139692
830.015	0.0140013
830.093	0.0140607
830.171	0.0141196
830.249	0.0139481
830.328	0.0141026
830.406	0.0140155
830.484	0.0139607
830.562	0.0141569
830.640	0.0140342
830.718	0.0141811
830.796	0.0140092
830.874	0.0141321
830.953	0.0142105
831.031	0.0141600
831.109	0.0141792
831.187	0.0141668
831.265	0.0140315
831.343	0.0140978
831.421	0.0141796
831.499	0.0140709
831.578	0.0142023
831.656	0.0141166
831.734	0.0140476
831.812	0.0140234
831.890	0.0139725
831.968	0.0140562
832.046	0.0141763
832.124	0.0139882
832.203	0.0140987
832.281	0.0141975
832.359	0.0141769
832.437	0.0139805
832.515	0.0140224
832.593	0.0141550
832.671	0.0139333
832.749	0.0141702
832.828	0.0140366
832.906	0.0140375
832.984	0.0139388
833.062	0.0138792
833.140	0.0140221
833.218	0.0139174
833.296	0.0138832
833.374	0.0140530
833.453	0.0139808
833.531	0.0138864
833.609	0.0139299
833.687	0.0140766
833.765	0.0139816
833.843	0.0138238
833.921	0.0137887
833.999	0.0138725
834.078	0.0138759
834.156	0.0141319
834.234	0.0141937
834.312	0.0139591
834.390	0.0140612
834.468	0.0141800
834.546	0.0141680
834.624	0.0141613
834.703	0.0141525
834.781	0.0141312
834.859	0.0141904
834.937	0.0142176
835.015	0.0142111
835.093	0.0141028
835.171	0.0141351
835.249	0.0141762
835.328	0.0142002
835.406	0.0142419
835.484	0.0140787
835.562	0.0141277
835.640	0.0141657
835.718	0.0141647
835.796	0.0139539
835.874	0.0141408
835.953	0.0140887
836.031	0.0139394
836.109	0.0139779
836.187	0.0139738
836.265	0.0140578
836.343	0.0139746
836.421	0.0141475
836.499	0.0141861
836.578	0.0141424
836.656	0.0140202
836.734	0.0139587
836.812	0.0141100
836.890	0.0142225
836.968	0.0141865
837.046	0.0141486
837.124	0.0139332
837.203	0.0142803
837.281	0.0140455
837.359	0.0139237
837.437	0.0138841
837.515	0.0140393
837.593	0.0139680
837.671	0.0139966
837.749	0.0139867
837.828	0.0139447
837.906	0.0139158
837.984	0.0138522
838.062	0.0139036
838.140	0.0137560
838.218	0.0139991
838.296	0.0138544
838.374	0.0139148
838.453	0.0139983
838.531	0.0138929
838.609	0.0138702
838.687	0.0138680
838.765	0.0138794
838.843	0.0139123
838.921	0.0139874
838.999	0.0139512
839.078	0.0140313
839.156	0.0140025
839.234	0.0139244
839.312	0.0138718
839.390	0.0140738
839.468	0.0138769
839.546	0.0139881
839.624	0.0139249
839.703	0.0139891
839.781	0.0140619
839.859	0.0139635
839.937	0.0140007
840.015	0.0140263
840.093	0.0138123
840.171	0.0140350
840.249	0.0139912
840.328	0.0140403
840.406	0.0139304
840.484	0.0139750
840.562	0.0140258
840.640	0.0139367
840.718	0.0140141
840.796	0.0141023
840.874	0.0140587
840.953	0.0140400
841.031	0.0139272
841.109	0.0140244
841.187	0.0140182
841.265	0.0140330
841.343	0.0140266
841.421	0.0140543
841.499	0.0138485
841.578	0.0139616
841.656	0.0140417
841.734	0.0139617
841.812	0.0140602
841.890	0.0140610
841.968	0.0139575
842.046	0.0140437
842.124	0.0139513
842.203	0.0139083
842.281	0.0140364
842.359	0.0140745
842.437	0.0139693
842.515	0.0139277
842.593	0.0140624
842.671	0.0138264
842.749	0.0137879
842.828	0.0139497
842.906	0.0140080
842.984	0.0138644
843.062	0.0140076
843.140	0.0139639
843.218	0.0139520
843.296	0.0138157
843.374	0.0138987
843.453	0.0138488
843.531	0.0139165
843.609	0.0138795
843.687	0.0138801
843.765	0.0138406
843.843	0.0137479
843.921	0.0139297
843.999	0.0139373
844.078	0.0138463
844.156	0.0140107
844.234	0.0139328
844.312	0.0138760
844.390	0.0140928
844.468	0.0138403
844.546	0.0139227
844.624	0.0140295
844.703	0.0138180
844.781	0.0139255
844.859	0.0141168
844.937	0.0139505
845.015	0.0139605
845.093	0.0139345
845.171	0.0138654
845.249	0.0139932
845.328	0.0142337
845.406	0.0140008
845.484	0.0138646
845.562	0.0141103
845.640	0.0141994
845.718	0.0140656
845.796	0.0141080
845.874	0.0141041
845.953	0.0140582
846.031	0.0139819
846.109	0.0140979
846.187	0.0140527
846.265	0.0141039
846.343	0.0140202
846.421	0.0141193
846.499	0.0139282
846.578	0.0139150
846.656	0.0139344
846.734	0.0139951
846.812	0.0140996
846.890	0.0140269
846.968	0.0139550
847.046	0.0140751
847.124	0.0142023
847.203	0.0140044
847.281	0.0140490
847.359	0.0138699
847.437	0.0138731
847.515	0.0139932
847.593	0.0139757
847.671	0.0138709
847.749	0.0140535
847.828	0.0139221
847.906	0.0140369
847.984	0.0140897
848.062	0.0140753
848.140	0.0139166
848.218	0.0139893
848.296	0.0140218
848.374	0.0140628
848.453	0.0139455
848.531	0.0139208
848.609	0.0139503
848.687	0.0139540
848.765	0.0139250
848.843	0.0139032
848.921	0.0140363
848.999	0.0139500
849.078	0.0137661
849.156	0.0139101
849.234	0.0140029
849.312	0.0139458
849.390	0.0139500
849.468	0.0138876
849.546	0.0138668
849.624	0.0139332
849.703	0.0139475
849.781	0.0139985
849.859	0.0139157
849.937	0.0140241
850.015	0.0139694
850.093	0.0140029
850.171	0.0141376
850.249	0.0142440
850.328	0.0140802
850.406	0.0140982
850.484	0.0142520
850.562	0.0142324
850.640	0.0141331
850.718	0.0142143
850.796	0.0142181
850.874	0.0141404
850.953	0.0142445
851.031	0.0142274
851.109	0.0141858
851.187	0.0142008
851.265	0.0140665
851.343	0.0139563
851.421	0.0140648
851.499	0.0141370
851.578	0.0140328
851.656	0.0139083
851.734	0.0140563
851.812	0.0139542
851.890	0.0139639
851.968	0.0139341
852.046	0.0140233
852.124	0.0139475
852.203	0.0138667
852.281	0.0139338
852.359	0.0138918
852.437	0.0140257
852.515	0.0139168
852.593	0.0139675
852.671	0.0138943
852.749	0.0139030
852.828	0.0139042
852.906	0.0140556
852.984	0.0139745
853.062	0.0141150
853.140	0.0140628
853.218	0.0139841
853.296	0.0140963
853.374	0.0141177
853.453	0.0139984
853.531	0.0139829
853.609	0.0139227
853.687	0.0140131
853.765	0.0139396
853.843	0.0140647
853.921	0.0142214
853.999	0.0140236
854.078	0.0140052
854.156	0.0140656
854.234	0.0140094
854.312	0.0141251
854.390	0.0140872
854.468	0.0139758
854.546	0.0139119
854.624	0.0140170
854.703	0.0139081
854.781	0.0138804
854.859	0.0140466
854.937	0.0141917
855.015	0.0138914
855.093	0.0140895
855.171	0.0140338
855.249	0.0139853
855.328	0.0139631
855.406	0.0141129
855.484	0.0141059
855.562	0.0141338
855.640	0.0142662
855.718	0.0141423
855.796	0.0140453
855.874	0.0141127
855.953	0.0141522
856.031	0.0141646
856.109	0.0141519
856.187	0.0140399
856.265	0.0139154
856.343	0.0141314
856.421	0.0141196
856.499	0.0140511
856.578	0.0140099
856.656	0.0141552
856.734	0.0140158
856.812	0.0140293
856.890	0.0140350
856.968	0.0140425
857.046	0.0140092
857.124	0.0140360
857.203	0.0140440
857.281	0.0139492
857.359	0.0139497
857.437	0.0140543
857.515	0.0141926
857.593	0.0139767
857.671	0.0140390
857.749	0.0139954
857.828	0.0140352
857.906	0.0139947
857.984	0.0140148
858.062	0.0142017
858.140	0.0141431
858.218	0.0140532
858.296	0.0140152
858.374	0.0139818
858.453	0.0140034
858.531	0.0139796
858.609	0.0139637
858.687	0.0139565
858.765	0.0139467
858.843	0.0139086
858.921	0.0139748
858.999	0.0139829
859.078	0.0138264
859.156	0.0137834
859.234	0.0141399
859.312	0.0139480
859.390	0.0139973
859.468	0.0139350
859.546	0.0139055
859.624	0.0140155
859.703	0.0139513
859.781	0.0140704
859.859	0.0140309
859.937	0.0139834
860.015	0.0140142
860.093	0.0140244
860.171	0.0141199
860.249	0.0140348
860.328	0.0140122
860.406	0.0139719
860.484	0.0139336
860.562	0.0140111
860.640	0.0139990
860.718	0.0140395
860.796	0.0141232
860.874	0.0140205
860.953	0.0140194
861.031	0.0141122
861.109	0.0139794
861.187	0.0140432
861.265	0.0140388
861.343	0.0140482
861.421	0.0141944
861.499	0.0142110
861.578	0.0140189
861.656	0.0141278
861.734	0.0139915
861.812	0.0140627
861.890	0.0140292
861.968	0.0140343
862.046	0.0140105
862.124	0.0139471
862.203	0.0139855
862.281	0.0140431
862.359	0.0140147
862.437	0.0140239
862.515	0.0139769
862.593	0.0139822
862.671	0.0140215
862.749	0.0140224
862.828	0.0139449
862.906	0.0139828
862.984	0.0141368
863.062	0.0140200
863.140	0.0138406
863.218	0.0139541
863.296	0.0139073
863.374	0.0139187
863.453	0.0139964
863.531	0.0139301
863.609	0.0138875
863.687	0.0140968
863.765	0.0140026
863.843	0.0140472
863.921	0.0140809
863.999	0.0138400
864.078	0.0139382
864.156	0.0138867
864.234	0.0139918
864.312	0.0140371
864.390	0.0140258
864.468	0.0140788
864.546	0.0139781
864.624	0.0139694
864.703	0.0140693
864.781	0.0140459
864.859	0.0141134
864.937	0.0140578
865.015	0.0140144
865.093	0.0140289
865.171	0.0139810
865.249	0.0139434
865.328	0.0140683
865.406	0.0138783
865.484	0.0138964
865.562	0.0139500
865.640	0.0140607
865.718	0.0139812
865.796	0.0139456
865.874	0.0139029
865.953	0.0139980
866.031	0.0140175
866.109	0.0140625
866.187	0.0141123
866.265	0.0140534
866.343	0.0140942
866.421	0.0139924
866.499	0.0140510
866.578	0.0139937
866.656	0.0142519
866.734	0.0139973
866.812	0.0140539
866.890	0.0139041
866.968	0.0139168
867.046	0.0140108
867.124	0.0139771
867.203	0.0139588
867.281	0.0140356
867.359	0.0139968
867.437	0.0139652
867.515	0.0139355
867.593	0.0139521
867.671	0.0138866
867.749	0.0139379
867.828	0.0140469
867.906	0.0140048
867.984	0.0140620
868.062	0.0140949
868.140	0.0141016
868.218	0.0141544
868.296	0.0140173
868.374	0.0139657
868.453	0.0140436
868.531	0.0140556
868.609	0.0140253
868.687	0.0139822
868.765	0.0140595
868.843	0.0138216
868.921	0.0138977
868.999	0.0140852
869.078	0.0138922
869.156	0.0140464
869.234	0.0140582
869.312	0.0140229
869.390	0.0140386
869.468	0.0140386
869.546	0.0139326
869.624	0.0141000
869.703	0.0140410
869.781	0.0141058
869.859	0.0141217
869.937	0.0141010
870.015	0.0141248
870.093	0.0140387
870.171	0.0142291
870.249	0.0139904
870.328	0.0141592
870.406	0.0140817
870.484	0.0141808
870.562	0.0141309
870.640	0.0140877
870.718	0.0139697
870.796	0.0140036
870.874	0.0140122
870.953	0.0139516
871.031	0.0140914
871.109	0.0140544
871.187	0.0139983
871.265	0.0138524
871.343	0.0138533
871.421	0.0139338
871.499	0.0141563
871.578	0.0139718
871.656	0.0140423
871.734	0.0139581
871.812	0.0139550
871.890	0.0140309
871.968	0.0142470
872.046	0.0141199
872.124	0.0140591
872.203	0.0141879
872.281	0.0140864
872.359	0.0141698
872.437	0.0138893
872.515	0.0140005
872.593	0.0140018
872.671	0.0140569
872.749	0.0138849
872.828	0.0138554
872.906	0.0139828
872.984	0.0139153
873.062	0.0140158
873.140	0.0138535
873.218	0.0139323
873.296	0.0140251
873.374	0.0139977
873.453	0.0138708
873.531	0.0139330
873.609	0.0139676
873.687	0.0139993
873.765	0.0138909
873.843	0.0140046
873.921	0.0139986
873.999	0.0138947
874.078	0.0140258
874.156	0.0140843
874.234	0.0141260
874.312	0.0141096
874.390	0.0140186
874.468	0.0141077
874.546	0.0141462
874.624	0.0140479
874.703	0.0141532
874.781	0.0142083
874.859	0.0140865
874.937	0.0141855
875.015	0.0141123
875.093	0.0141435
875.171	0.0141014
875.249	0.0139671
875.328	0.0141991
875.406	0.0139986
875.484	0.0140059
875.562	0.0139885
875.640	0.0140456
875.718	0.0140148
875.796	0.0140453
875.874	0.0140024
875.953	0.0138377
876.031	0.0140542
876.109	0.0139747
876.187	0.0139643
876.265	0.0139435
876.343	0.0137965
876.421	0.0139722
876.499	0.0140527
876.578	0.0140672
876.656	0.0140270
876.734	0.0141214
876.812	0.0140900
876.890	0.0140314
876.968	0.0140710
877.046	0.0141881
877.124	0.0139590
877.203	0.0138396
877.281	0.0138492
877.359	0.0140575
877.437	0.0137527
877.515	0.0138670
877.593	0.0138760
877.671	0.0137814
877.749	0.0138899
877.828	0.0138531
877.906	0.0138012
877.984	0.0137479
878.062	0.0138636
878.140	0.0138129
878.218	0.0138224
878.296	0.0137666
878.374	0.0136871
878.453	0.0140059
878.531	0.0139361
878.609	0.0138726
878.687	0.0140602
878.765	0.0140011
878.843	0.0141223
878.921	0.0140582
878.999	0.0140241
879.078	0.0140689
879.156	0.0139983
879.234	0.0139631
879.312	0.0141810
879.390	0.0142996
879.468	0.0141827
879.546	0.0141996
879.624	0.0139716
879.703	0.0140476
879.781	0.0141098
879.859	0.0141392
879.937	0.0141113
880.015	0.0141983
880.093	0.0139886
880.171	0.0140141
880.249	0.0141304
880.328	0.0139037
880.406	0.0138642
880.484	0.0140320
880.562	0.0139595
880.640	0.0139304
880.718	0.0139291
880.796	0.0138808
880.874	0.0139317
880.953	0.0139834
881.031	0.0140507
881.109	0.0138382
881.187	0.0139480
881.265	0.0140109
881.343	0.0140600
881.421	0.0139765
881.499	0.0139822
881.578	0.0140751
881.656	0.0141317
881.734	0.0140585
881.812	0.0140120
881.890	0.0140552
881.968	0.0139742
882.046	0.0140234
882.124	0.0140722
882.203	0.0140816
882.281	0.0138789
882.359	0.0138657
882.437	0.0139215
882.515	0.0139631
882.593	0.0139092
882.671	0.0139436
882.749	0.0138593
882.828	0.0137598
882.906	0.0140417
882.984	0.0138513
883.062	0.0139816
883.140	0.0139184
883.218	0.0139088
883.296	0.0139563
883.374	0.0140350
883.453	0.0140614
883.531	0.0139877
883.609	0.0140241
883.687	0.0139161
883.765	0.0140140
883.843	0.0142014
883.921	0.0140188
883.999	0.0140343
884.078	0.0139921
884.156	0.0139373
884.234	0.0141027
884.312	0.0140076
884.390	0.0141255
884.468	0.0141516
884.546	0.0140634
884.624	0.0139793
884.703	0.0140364
884.781	0.0141061
884.859	0.0140964
884.937	0.0140365
885.015	0.0141616
885.093	0.0140390
885.171	0.0140383
885.249	0.0140597
885.328	0.0139771
885.406	0.0140327
885.484	0.0138847
885.562	0.0140842
885.640	0.0141174
885.718	0.0138908
885.796	0.0139878
885.874	0.0139108
885.953	0.0140882
886.031	0.0138869
886.109	0.0139306
886.187	0.0139450
886.265	0.0139314
886.343	0.0139031
886.421	0.0137946
886.499	0.0141197
886.578	0.0140930
886.656	0.0139159
886.734	0.0139384
886.812	0.0140141
886.890	0.0138660
886.968	0.0139155
887.046	0.0139761
887.124	0.0138423
887.203	0.0138269
887.281	0.0140295
887.359	0.0138979
887.437	0.0139641
887.515	0.0138911
887.593	0.0138771
887.671	0.0139228
887.749	0.0138697
887.828	0.0138708
887.906	0.0138928
887.984	0.0137812
888.062	0.0139223
888.140	0.0139417
888.218	0.0138446
888.296	0.0140236
888.374	0.0141171
888.453	0.0140096
888.531	0.0140584
888.609	0.0139819
888.687	0.0139413
888.765	0.0138991
888.843	0.0139553
888.921	0.0139349
888.999	0.0140878
889.078	0.0139259
889.156	0.0138396
889.234	0.0139069
889.312	0.0139994
889.390	0.0140572
889.468	0.0141043
889.546	0.0139778
889.624	0.0140386
889.703	0.0140034
889.781	0.0141485
889.859	0.0141270
889.937	0.0140596
890.015	0.0140531
890.093	0.0140695
890.171	0.0141091
890.249	0.0141507
890.328	0.0141332
890.406	0.0139719
890.484	0.0140376
890.562	0.0141688
890.640	0.0140845
890.718	0.0139223
890.796	0.0139623
890.874	0.0139577
890.953	0.0139772
891.031	0.0139411
891.109	0.0138236
891.187	0.0140227
891.265	0.0138548
891.343	0.0139709
891.421	0.0139871
891.499	0.0140287
891.578	0.0139175
891.656	0.0139819
891.734	0.0139210
891.812	0.0139251
891.890	0.0140182
891.968	0.0139551
892.046	0.0140489
892.124	0.0139388
892.203	0.0140173
892.281	0.0138582
892.359	0.0140288
892.437	0.0139234
892.515	0.0139461
892.593	0.0139326
892.671	0.0139434
892.749	0.0139941
892.828	0.0139422
892.906	0.0139400
892.984	0.0140715
893.062	0.0139095
893.140	0.0139149
893.218	0.0140276
893.296	0.0140313
893.374	0.0139019
893.453	0.0139593
893.531	0.0139622
893.609	0.0139127
893.687	0.0139699
893.765	0.0139684
893.843	0.0139819
893.921	0.0139795
893.999	0.0139236
894.078	0.0138837
894.156	0.0141306
894.234	0.0140803
894.312	0.0139542
894.390	0.0140558
894.468	0.0139661
894.546	0.0141418
894.624	0.0140474
894.703	0.0140218
894.781	0.0140836
894.859	0.0143217
894.937	0.0141219
895.015	0.0142590
895.093	0.0142039
895.171	0.0140910
895.249	0.0141110
895.328	0.0141644
895.406	0.0141874
895.484	0.0140535
895.562	0.0139513
895.640	0.0139729
895.718	0.0140145
895.796	0.0138404
895.874	0.0140016
895.953	0.0139088
896.031	0.0138534
896.109	0.0138541
896.187	0.0137971
896.265	0.0137723
896.343	0.0138492
896.421	0.0138760
896.499	0.0138200
896.578	0.0139418
896.656	0.0138960
896.734	0.0138328
896.812	0.0139149
896.890	0.0139513
896.968	0.0138726
897.046	0.0139131
897.124	0.0139034
897.203	0.0138866
897.281	0.0139785
897.359	0.0139668
897.437	0.0140999
897.515	0.0142150
897.593	0.0139987
897.671	0.0140517
897.749	0.0141171
897.828	0.0140683
897.906	0.0141533
897.984	0.0140331
898.062	0.0139413
898.140	0.0140836
898.218	0.0141271
898.296	0.0142563
898.374	0.0141222
898.453	0.0141737
898.531	0.0140274
898.609	0.0141281
898.687	0.0140988
898.765	0.0139783
898.843	0.0139008
898.921	0.0140135
898.999	0.0140333
899.078	0.0139165
899.156	0.0139871
899.234	0.0139581
899.312	0.0139581
899.390	0.0139805
899.468	0.0139030
899.546	0.0139951
899.624	0.0139511
899.703	0.0139488
899.781	0.0140758
899.859	0.0140540
899.937	0.0140544
900.015	0.0141416
900.093	0.0140572
900.171	0.0140820
900.249	0.0141547
900.328	0.0141771
900.406	0.0140253
900.484	0.0140075
900.562	0.0140057
900.640	0.0141653
900.718	0.0139728
900.796	0.0139214
900.874	0.0139297
900.953	0.0138591
901.031	0.0138155
901.109	0.0137952
901.187	0.0137418
901.265	0.0138878
901.343	0.0138572
901.421	0.0137883
901.499	0.0138200
901.578	0.0138361
901.656	0.0139547
901.734	0.0139681
901.812	0.0139606
901.890	0.0139729
901.968	0.0139844
902.046	0.0140576
902.124	0.0140318
902.203	0.0140508
902.281	0.0141188
902.359	0.0142915
902.437	0.0141915
902.515	0.0140723
902.593	0.0139687
902.671	0.0140125
902.749	0.0140484
902.828	0.0140821
902.906	0.0141229
902.984	0.0140573
903.062	0.0141147
903.140	0.0140234
903.218	0.0140522
903.296	0.0141679
903.374	0.0139025
903.453	0.0138866
903.531	0.0140956
903.609	0.0140516
903.687	0.0139218
903.765	0.0138314
903.843	0.0139640
903.921	0.0139674
903.999	0.0138882
904.078	0.0138760
904.156	0.0137682
904.234	0.0137737
904.312	0.0138696
904.390	0.0138214
904.468	0.0138819
904.546	0.0137946
904.624	0.0138593
904.703	0.0138766
904.781	0.0139426
904.859	0.0140018
904.937	0.0139658
905.015	0.0141072
905.093	0.0140213
905.171	0.0140350
905.249	0.0141692
905.328	0.0140789
905.406	0.0141256
905.484	0.0141374
905.562	0.0142431
905.640	0.0140745
905.718	0.0140106
905.796	0.0140717
905.874	0.0140990
905.953	0.0140086
906.031	0.0139497
906.109	0.0138589
906.187	0.0139358
906.265	0.0140822
906.343	0.0139082
906.421	0.0138053
906.499	0.0137948
906.578	0.0138081
906.656	0.0140504
906.734	0.0138160
906.812	0.0138371
906.890	0.0139308
906.968	0.0140015
907.046	0.0138216
907.124	0.0139724
907.203	0.0139680
907.281	0.0140051
907.359	0.0140551
907.437	0.0138595
907.515	0.0141299
907.593	0.0140006
907.671	0.0140239
907.749	0.0139899
907.828	0.0140290
907.906	0.0140702
907.984	0.0140545
908.062	0.0140343
908.140	0.0140329
908.218	0.0138867
908.296	0.0138503
908.374	0.0138488
908.453	0.0139301
908.531	0.0139159
908.609	0.0138645
908.687	0.0137433
908.765	0.0137428
908.843	0.0136858
908.921	0.0136600
908.999	0.0138402
909.078	0.0138208
909.156	0.0137466
909.234	0.0137936
909.312	0.0138454
909.390	0.0140038
909.468	0.0137588
909.546	0.0139072
909.624	0.0138586
909.703	0.0138995
909.781	0.0139634
909.859	0.0140482
909.937	0.0140474
910.015	0.0140123
910.093	0.0140051
910.171	0.0140076
910.249	0.0141245
910.328	0.0141457
910.406	0.0141725
910.484	0.0141273
910.562	0.0141775
910.640	0.0141206
910.718	0.0142435
910.796	0.0141422
910.874	0.0142126
910.953	0.0141553
911.031	0.0140163
911.109	0.0141246
911.187	0.0140285
911.265	0.0141557
911.343	0.0140677
911.421	0.0140059
911.499	0.0140051
911.578	0.0139490
911.656	0.0139774
911.734	0.0138365
911.812	0.0138928
911.890	0.0139616
911.968	0.0138194
912.046	0.0140078
912.124	0.0139972
912.203	0.0138799
912.281	0.0139684
912.359	0.0140058
912.437	0.0140533
912.515	0.0138461
912.593	0.0138596
912.671	0.0139733
912.749	0.0139166
912.828	0.0139725
912.906	0.0139189
912.984	0.0140532
913.062	0.0140552
913.140	0.0139835
913.218	0.0140293
913.296	0.0140492
913.374	0.0140438
913.453	0.0141055
913.531	0.0139072
913.609	0.0138654
913.687	0.0140201
913.765	0.0140276
913.843	0.0138664
913.921	0.0138766
913.999	0.0138511
914.078	0.0139346
914.156	0.0139449
914.234	0.0140063
914.312	0.0140028
914.390	0.0139529
914.468	0.0139821
914.546	0.0140332
914.624	0.0140292
914.703	0.0138608
914.781	0.0139005
914.859	0.0140291
914.937	0.0137756
915.015	0.0139754
915.093	0.0140459
915.171	0.0140755
915.249	0.0140220
915.328	0.0141070
915.406	0.0141106
915.484	0.0140350
915.562	0.0142099
915.640	0.0140625
915.718	0.0141885
915.796	0.0141770
915.874	0.0141463
915.953	0.0140997
916.031	0.0143433
916.109	0.0140971
916.187	0.0141203
916.265	0.0139551
916.343	0.0139314
916.421	0.0141055
916.499	0.0139957
916.578	0.0138730
916.656	0.0138828
916.734	0.0139686
916.812	0.0139195
916.890	0.0137299
916.968	0.0138812
917.046	0.0138882
917.124	0.0139428
917.203	0.0137546
917.281	0.0138780
917.359	0.0139581
917.437	0.0138469
917.515	0.0138568
917.593	0.0140511
917.671	0.0139620
917.749	0.0140621
917.828	0.0140554
917.906	0.0140021
917.984	0.0140408
918.062	0.0140154
918.140	0.0140745
918.218	0.0142559
918.296	0.0141840
918.374	0.0141256
918.453	0.0141172
918.531	0.0140574
918.609	0.0139664
918.687	0.0139980
918.765	0.0141327
918.843	0.0140612
918.921	0.0141010
918.999	0.0140577
919.078	0.0139253
919.156	0.0140173
919.234	0.0140270
919.312	0.0140569
919.390	0.0138743
919.468	0.0140758
919.546	0.0139522
919.624	0.0138251
919.703	0.0140459
919.781	0.0139864
919.859	0.0139395
919.937	0.0140572
