05/06/2022	18:52:54	Ver.	4.1	UNKNOWN
Optical Delay	600.015094	Delta X		0.078125	Sweeps	1	Scan Rate	0/0
Coordinates	Axis 1	NaN	Axis 2	NaN	Axis 3	NaN	Axis 4	NaN	Axis 5	NaN	Axis 6	0.000000
TX Power	0.000000	RX Power	0.000000

600.015	0.0137560
600.093	0.0136867
600.171	0.0137279
600.249	0.0138591
600.328	0.0136958
600.406	0.0135459
600.484	0.0136948
600.562	0.0138187
600.640	0.0137606
600.718	0.0136835
600.796	0.0137659
600.874	0.0137097
600.953	0.0137698
601.031	0.0138610
601.109	0.0137306
601.187	0.0137450
601.265	0.0137920
601.343	0.0137727
601.421	0.0137913
601.499	0.0136375
601.578	0.0137238
601.656	0.0137630
601.734	0.0137672
601.812	0.0137399
601.890	0.0138149
601.968	0.0138446
602.046	0.0136552
602.124	0.0138168
602.203	0.0136694
602.281	0.0137902
602.359	0.0137495
602.437	0.0136884
602.515	0.0137376
602.593	0.0138457
602.671	0.0137470
602.749	0.0135801
602.828	0.0137170
602.906	0.0136562
602.984	0.0138629
603.062	0.0137656
603.140	0.0139007
603.218	0.0136426
603.296	0.0137429
603.374	0.0137638
603.453	0.0138850
603.531	0.0136669
603.609	0.0137250
603.687	0.0138167
603.765	0.0137547
603.843	0.0137102
603.921	0.0138874
603.999	0.0138253
604.078	0.0136075
604.156	0.0137440
604.234	0.0138071
604.312	0.0137100
604.390	0.0137687
604.468	0.0137840
604.546	0.0137456
604.624	0.0137218
604.703	0.0137935
604.781	0.0138084
604.859	0.0138364
604.937	0.0138450
605.015	0.0137810
605.093	0.0137189
605.171	0.0136253
605.249	0.0137762
605.328	0.0138642
605.406	0.0137944
605.484	0.0137650
605.562	0.0138068
605.640	0.0136484
605.718	0.0138199
605.796	0.0137818
605.874	0.0135735
605.953	0.0137865
606.031	0.0136683
606.109	0.0136264
606.187	0.0138162
606.265	0.0137286
606.343	0.0138389
606.421	0.0137320
606.499	0.0138326
606.578	0.0137649
606.656	0.0136613
606.734	0.0138152
606.812	0.0137643
606.890	0.0138003
606.968	0.0137743
607.046	0.0137508
607.124	0.0137349
607.203	0.0136446
607.281	0.0137540
607.359	0.0137931
607.437	0.0137534
607.515	0.0137492
607.593	0.0137537
607.671	0.0137986
607.749	0.0138514
607.828	0.0137450
607.906	0.0137300
607.984	0.0138055
608.062	0.0137869
608.140	0.0136581
608.218	0.0138940
608.296	0.0138374
608.374	0.0138191
608.453	0.0137874
608.531	0.0138027
608.609	0.0137669
608.687	0.0137315
608.765	0.0138469
608.843	0.0136594
608.921	0.0138410
608.999	0.0139425
609.078	0.0136207
609.156	0.0137859
609.234	0.0138499
609.312	0.0137579
609.390	0.0136114
609.468	0.0137726
609.546	0.0137290
609.624	0.0138649
609.703	0.0138894
609.781	0.0138657
609.859	0.0138486
609.937	0.0137484
610.015	0.0136134
610.093	0.0137049
610.171	0.0137611
610.249	0.0137300
610.328	0.0137005
610.406	0.0138074
610.484	0.0137185
610.562	0.0137354
610.640	0.0138422
610.718	0.0137041
610.796	0.0137757
610.874	0.0136700
610.953	0.0137559
611.031	0.0138442
611.109	0.0137800
611.187	0.0137859
611.265	0.0137176
611.343	0.0137646
611.421	0.0137846
611.499	0.0137460
611.578	0.0138168
611.656	0.0138303
611.734	0.0137688
611.812	0.0138560
611.890	0.0137654
611.968	0.0137153
612.046	0.0138662
612.124	0.0138136
612.203	0.0138054
612.281	0.0136755
612.359	0.0138470
612.437	0.0137510
612.515	0.0136526
612.593	0.0138079
612.671	0.0136810
612.749	0.0136775
612.828	0.0137626
612.906	0.0138976
612.984	0.0136842
613.062	0.0138446
613.140	0.0137218
613.218	0.0137210
613.296	0.0136723
613.374	0.0137342
613.453	0.0139287
613.531	0.0138207
613.609	0.0138606
613.687	0.0137235
613.765	0.0137363
613.843	0.0137844
613.921	0.0139368
613.999	0.0138127
614.078	0.0137431
614.156	0.0137346
614.234	0.0137080
614.312	0.0136524
614.390	0.0139342
614.468	0.0138342
614.546	0.0138049
614.624	0.0138569
614.703	0.0137462
614.781	0.0136301
614.859	0.0136929
614.937	0.0139372
615.015	0.0138583
615.093	0.0135853
615.171	0.0138083
615.249	0.0138596
615.328	0.0135972
615.406	0.0136765
615.484	0.0136743
615.562	0.0136176
615.640	0.0137427
615.718	0.0137490
615.796	0.0137776
615.874	0.0139326
615.953	0.0137177
616.031	0.0136815
616.109	0.0137715
616.187	0.0138372
616.265	0.0138651
616.343	0.0137260
616.421	0.0137912
616.499	0.0137923
616.578	0.0137733
616.656	0.0137089
616.734	0.0137221
616.812	0.0137748
616.890	0.0137302
616.968	0.0136499
617.046	0.0137785
617.124	0.0138631
617.203	0.0136124
617.281	0.0138343
617.359	0.0137656
617.437	0.0136575
617.515	0.0137359
617.593	0.0137907
617.671	0.0137228
617.749	0.0137869
617.828	0.0137699
617.906	0.0138086
617.984	0.0139181
618.062	0.0136815
618.140	0.0137555
618.218	0.0137626
618.296	0.0138714
618.374	0.0138846
618.453	0.0137595
618.531	0.0136818
618.609	0.0138029
618.687	0.0137215
618.765	0.0137405
618.843	0.0138219
618.921	0.0136784
618.999	0.0136877
619.078	0.0137403
619.156	0.0137030
619.234	0.0137297
619.312	0.0136853
619.390	0.0135824
619.468	0.0137357
619.546	0.0138123
619.624	0.0136404
619.703	0.0137481
619.781	0.0136484
619.859	0.0135605
619.937	0.0137316
620.015	0.0138894
620.093	0.0136459
620.171	0.0137691
620.249	0.0137251
620.328	0.0136126
620.406	0.0136964
620.484	0.0137317
620.562	0.0136232
620.640	0.0137583
620.718	0.0138534
620.796	0.0136605
620.874	0.0136607
620.953	0.0136604
621.031	0.0137007
621.109	0.0137474
621.187	0.0137507
621.265	0.0136709
621.343	0.0136906
621.421	0.0136353
621.499	0.0135847
621.578	0.0137427
621.656	0.0136782
621.734	0.0138660
621.812	0.0138012
621.890	0.0136282
621.968	0.0137502
622.046	0.0137995
622.124	0.0137257
622.203	0.0138151
622.281	0.0137907
622.359	0.0136751
622.437	0.0136943
622.515	0.0138071
622.593	0.0136703
622.671	0.0137822
622.749	0.0138428
622.828	0.0138639
622.906	0.0138453
622.984	0.0137586
623.062	0.0136443
623.140	0.0138503
623.218	0.0137843
623.296	0.0137178
623.374	0.0136489
623.453	0.0137613
623.531	0.0136416
623.609	0.0138322
623.687	0.0135946
623.765	0.0138513
623.843	0.0136977
623.921	0.0137704
623.999	0.0137070
624.078	0.0137144
624.156	0.0137563
624.234	0.0136784
624.312	0.0136584
624.390	0.0136715
624.468	0.0136163
624.546	0.0138676
624.624	0.0138632
624.703	0.0136633
624.781	0.0137750
624.859	0.0137682
624.937	0.0137555
625.015	0.0137192
625.093	0.0139180
625.171	0.0137041
625.249	0.0136939
625.328	0.0136459
625.406	0.0136964
625.484	0.0135778
625.562	0.0135719
625.640	0.0136097
625.718	0.0137793
625.796	0.0137301
625.874	0.0136760
625.953	0.0136430
626.031	0.0138119
626.109	0.0137510
626.187	0.0138506
626.265	0.0137272
626.343	0.0136587
626.421	0.0137302
626.499	0.0138766
626.578	0.0136716
626.656	0.0136069
626.734	0.0138261
626.812	0.0137215
626.890	0.0136281
626.968	0.0137939
627.046	0.0137151
627.124	0.0136482
627.203	0.0137647
627.281	0.0136625
627.359	0.0138856
627.437	0.0137387
627.515	0.0136964
627.593	0.0135937
627.671	0.0137608
627.749	0.0137963
627.828	0.0137951
627.906	0.0136277
627.984	0.0136993
628.062	0.0137296
628.140	0.0137056
628.218	0.0136749
628.296	0.0137260
628.374	0.0137067
628.453	0.0136864
628.531	0.0137260
628.609	0.0137814
628.687	0.0136731
628.765	0.0136613
628.843	0.0137822
628.921	0.0135952
628.999	0.0137491
629.078	0.0137682
629.156	0.0138901
629.234	0.0137328
629.312	0.0136932
629.390	0.0136428
629.468	0.0137524
629.546	0.0136780
629.624	0.0137142
629.703	0.0138645
629.781	0.0137212
629.859	0.0136604
629.937	0.0138019
630.015	0.0137053
630.093	0.0137297
630.171	0.0139065
630.249	0.0136938
630.328	0.0136578
630.406	0.0137160
630.484	0.0137022
630.562	0.0138078
630.640	0.0138552
630.718	0.0136260
630.796	0.0136865
630.874	0.0137571
630.953	0.0137480
631.031	0.0137040
631.109	0.0136662
631.187	0.0136973
631.265	0.0137862
631.343	0.0138224
631.421	0.0137814
631.499	0.0137209
631.578	0.0138090
631.656	0.0137878
631.734	0.0136510
631.812	0.0138564
631.890	0.0137074
631.968	0.0137251
632.046	0.0137711
632.124	0.0136620
632.203	0.0138992
632.281	0.0137015
632.359	0.0136713
632.437	0.0138439
632.515	0.0138270
632.593	0.0135505
632.671	0.0136485
632.749	0.0138020
632.828	0.0138264
632.906	0.0136458
632.984	0.0137090
633.062	0.0136108
633.140	0.0137032
633.218	0.0138126
633.296	0.0137611
633.374	0.0136662
633.453	0.0136922
633.531	0.0138033
633.609	0.0136652
633.687	0.0137053
633.765	0.0138748
633.843	0.0138241
633.921	0.0137601
633.999	0.0138342
634.078	0.0138229
634.156	0.0136712
634.234	0.0138116
634.312	0.0137879
634.390	0.0136333
634.468	0.0137405
634.546	0.0137829
634.624	0.0136469
634.703	0.0137528
634.781	0.0138423
634.859	0.0137788
634.937	0.0136813
635.015	0.0137077
635.093	0.0137032
635.171	0.0136676
635.249	0.0137255
635.328	0.0137112
635.406	0.0137926
635.484	0.0137691
635.562	0.0137897
635.640	0.0137438
635.718	0.0138159
635.796	0.0137325
635.874	0.0137112
635.953	0.0136309
636.031	0.0138752
636.109	0.0138419
636.187	0.0136739
636.265	0.0137260
636.343	0.0138036
636.421	0.0137836
636.499	0.0137904
636.578	0.0137347
636.656	0.0137833
636.734	0.0136760
636.812	0.0136946
636.890	0.0137878
636.968	0.0137279
637.046	0.0136956
637.124	0.0137378
637.203	0.0138383
637.281	0.0138301
637.359	0.0138087
637.437	0.0137309
637.515	0.0136718
637.593	0.0137714
637.671	0.0137782
637.749	0.0138245
637.828	0.0137942
637.906	0.0137030
637.984	0.0137122
638.062	0.0137202
638.140	0.0137261
638.218	0.0137229
638.296	0.0137125
638.374	0.0138308
638.453	0.0137587
638.531	0.0138197
638.609	0.0137676
638.687	0.0136767
638.765	0.0138108
638.843	0.0137694
638.921	0.0137168
638.999	0.0137513
639.078	0.0137028
639.156	0.0136636
639.234	0.0136911
639.312	0.0136729
639.390	0.0138818
639.468	0.0138502
639.546	0.0136802
639.624	0.0137965
639.703	0.0138348
639.781	0.0137453
639.859	0.0138158
639.937	0.0137731
640.015	0.0137992
640.093	0.0138229
640.171	0.0137018
640.249	0.0136713
640.328	0.0137663
640.406	0.0137881
640.484	0.0139851
640.562	0.0137588
640.640	0.0136849
640.718	0.0138252
640.796	0.0138300
640.874	0.0137283
640.953	0.0138284
641.031	0.0136646
641.109	0.0137704
641.187	0.0136423
641.265	0.0136051
641.343	0.0137729
641.421	0.0137615
641.499	0.0137337
641.578	0.0137949
641.656	0.0138709
641.734	0.0137772
641.812	0.0137565
641.890	0.0138237
641.968	0.0138003
642.046	0.0136504
642.124	0.0137774
642.203	0.0137830
642.281	0.0136929
642.359	0.0137122
642.437	0.0136874
642.515	0.0137002
642.593	0.0137389
642.671	0.0137941
642.749	0.0139206
642.828	0.0138051
642.906	0.0137698
642.984	0.0137228
643.062	0.0136755
643.140	0.0137574
643.218	0.0137836
643.296	0.0138593
643.374	0.0137151
643.453	0.0137105
643.531	0.0137790
643.609	0.0136295
643.687	0.0137752
643.765	0.0137181
643.843	0.0137170
643.921	0.0137511
643.999	0.0137823
644.078	0.0137373
644.156	0.0137412
644.234	0.0137271
644.312	0.0137577
644.390	0.0138100
644.468	0.0137494
644.546	0.0136940
644.624	0.0136890
644.703	0.0136647
644.781	0.0136285
644.859	0.0137239
644.937	0.0137611
645.015	0.0136627
645.093	0.0139098
645.171	0.0137547
645.249	0.0138059
645.328	0.0137906
645.406	0.0136489
645.484	0.0137505
645.562	0.0136958
645.640	0.0137457
645.718	0.0136334
645.796	0.0136206
645.874	0.0136645
645.953	0.0137556
646.031	0.0136783
646.109	0.0137278
646.187	0.0137179
646.265	0.0137724
646.343	0.0137901
646.421	0.0136884
646.499	0.0137309
646.578	0.0136736
646.656	0.0137728
646.734	0.0136850
646.812	0.0136562
646.890	0.0136294
646.968	0.0137206
647.046	0.0137012
647.124	0.0136974
647.203	0.0137855
647.281	0.0136646
647.359	0.0137187
647.437	0.0137742
647.515	0.0136900
647.593	0.0135696
647.671	0.0137602
647.749	0.0136755
647.828	0.0137272
647.906	0.0138304
647.984	0.0137864
648.062	0.0137207
648.140	0.0138017
648.218	0.0137132
648.296	0.0136302
648.374	0.0138164
648.453	0.0137016
648.531	0.0135129
648.609	0.0136556
648.687	0.0136803
648.765	0.0137589
648.843	0.0136790
648.921	0.0136393
648.999	0.0136751
649.078	0.0137283
649.156	0.0137678
649.234	0.0136909
649.312	0.0136337
649.390	0.0137570
649.468	0.0137141
649.546	0.0137387
649.624	0.0136627
649.703	0.0135884
649.781	0.0137306
649.859	0.0137086
649.937	0.0137383
650.015	0.0136814
650.093	0.0136474
650.171	0.0136633
650.249	0.0137678
650.328	0.0136476
650.406	0.0137071
650.484	0.0138184
650.562	0.0137921
650.640	0.0137493
650.718	0.0137427
650.796	0.0137229
650.874	0.0137931
650.953	0.0138062
651.031	0.0137423
651.109	0.0138136
651.187	0.0137890
651.265	0.0136158
651.343	0.0138598
651.421	0.0138502
651.499	0.0137006
651.578	0.0136137
651.656	0.0136575
651.734	0.0136727
651.812	0.0138590
651.890	0.0137985
651.968	0.0137595
652.046	0.0137914
652.124	0.0136903
652.203	0.0137910
652.281	0.0136651
652.359	0.0137707
652.437	0.0136536
652.515	0.0137598
652.593	0.0137705
652.671	0.0138019
652.749	0.0137708
652.828	0.0136787
652.906	0.0137778
652.984	0.0137958
653.062	0.0137450
653.140	0.0138433
653.218	0.0137896
653.296	0.0138219
653.374	0.0137656
653.453	0.0137512
653.531	0.0136880
653.609	0.0137098
653.687	0.0136614
653.765	0.0137245
653.843	0.0137692
653.921	0.0137075
653.999	0.0136845
654.078	0.0138161
654.156	0.0137498
654.234	0.0136535
654.312	0.0135676
654.390	0.0136852
654.468	0.0138158
654.546	0.0138017
654.624	0.0137555
654.703	0.0136823
654.781	0.0137135
654.859	0.0137827
654.937	0.0137648
655.015	0.0137429
655.093	0.0138165
655.171	0.0137107
655.249	0.0136272
655.328	0.0137149
655.406	0.0137604
655.484	0.0137338
655.562	0.0136603
655.640	0.0136763
655.718	0.0137693
655.796	0.0136486
655.874	0.0136223
655.953	0.0136909
656.031	0.0137245
656.109	0.0138298
656.187	0.0137382
656.265	0.0137351
656.343	0.0137325
656.421	0.0138056
656.499	0.0136926
656.578	0.0136707
656.656	0.0137997
656.734	0.0138065
656.812	0.0137331
656.890	0.0136266
656.968	0.0138430
657.046	0.0136468
657.124	0.0137194
657.203	0.0137182
657.281	0.0136790
657.359	0.0137104
657.437	0.0137500
657.515	0.0137961
657.593	0.0137946
657.671	0.0136745
657.749	0.0137360
657.828	0.0137315
657.906	0.0137534
657.984	0.0136491
658.062	0.0137808
658.140	0.0138335
658.218	0.0137846
658.296	0.0137225
658.374	0.0138334
658.453	0.0137737
658.531	0.0138790
658.609	0.0138875
658.687	0.0138223
658.765	0.0137872
658.843	0.0137518
658.921	0.0138255
658.999	0.0138145
659.078	0.0137338
659.156	0.0137736
659.234	0.0136398
659.312	0.0136623
659.390	0.0137502
659.468	0.0138496
659.546	0.0137455
659.624	0.0136319
659.703	0.0137228
659.781	0.0137382
659.859	0.0138502
659.937	0.0138556
660.015	0.0137431
660.093	0.0138252
660.171	0.0137692
660.249	0.0139266
660.328	0.0137402
660.406	0.0137204
660.484	0.0138170
660.562	0.0137415
660.640	0.0136928
660.718	0.0136308
660.796	0.0137640
660.874	0.0137034
660.953	0.0137093
661.031	0.0137260
661.109	0.0137374
661.187	0.0136871
661.265	0.0136386
661.343	0.0137041
661.421	0.0137120
661.499	0.0138996
661.578	0.0138633
661.656	0.0138081
661.734	0.0137562
661.812	0.0137827
661.890	0.0137827
661.968	0.0137458
662.046	0.0136896
662.124	0.0137553
662.203	0.0136818
662.281	0.0138811
662.359	0.0137763
662.437	0.0137365
662.515	0.0137975
662.593	0.0138385
662.671	0.0136909
662.749	0.0137731
662.828	0.0138061
662.906	0.0137035
662.984	0.0136605
663.062	0.0137996
663.140	0.0135795
663.218	0.0136838
663.296	0.0138027
663.374	0.0137849
663.453	0.0137285
663.531	0.0135477
663.609	0.0137064
663.687	0.0137016
663.765	0.0136321
663.843	0.0137334
663.921	0.0138272
663.999	0.0137559
664.078	0.0137865
664.156	0.0137822
664.234	0.0138702
664.312	0.0138674
664.390	0.0138545
664.468	0.0138454
664.546	0.0138832
664.624	0.0138224
664.703	0.0138392
664.781	0.0138072
664.859	0.0138628
664.937	0.0138445
665.015	0.0137357
665.093	0.0137247
665.171	0.0137045
665.249	0.0135168
665.328	0.0136679
665.406	0.0135870
665.484	0.0136769
665.562	0.0137012
665.640	0.0136358
665.718	0.0138083
665.796	0.0138025
665.874	0.0138725
665.953	0.0139072
666.031	0.0139766
666.109	0.0141343
666.187	0.0139378
666.265	0.0139406
666.343	0.0139097
666.421	0.0138455
666.499	0.0139657
666.578	0.0137018
666.656	0.0137784
666.734	0.0137463
666.812	0.0135891
666.890	0.0135541
666.968	0.0135154
667.046	0.0135169
667.124	0.0133826
667.203	0.0135258
667.281	0.0134226
667.359	0.0135459
667.437	0.0135977
667.515	0.0137628
667.593	0.0139085
667.671	0.0139106
667.749	0.0139651
667.828	0.0139839
667.906	0.0139573
667.984	0.0140530
668.062	0.0140253
668.140	0.0141154
668.218	0.0140382
668.296	0.0138361
668.374	0.0138638
668.453	0.0138242
668.531	0.0138998
668.609	0.0137746
668.687	0.0137520
668.765	0.0137733
668.843	0.0137099
668.921	0.0136185
668.999	0.0135564
669.078	0.0135930
669.156	0.0135746
669.234	0.0136715
669.312	0.0136744
669.390	0.0137812
669.468	0.0138189
669.546	0.0138192
669.624	0.0140187
669.703	0.0138438
669.781	0.0139614
669.859	0.0138170
669.937	0.0139792
670.015	0.0138611
670.093	0.0139063
670.171	0.0138589
670.249	0.0138375
670.328	0.0138706
670.406	0.0138025
670.484	0.0137429
670.562	0.0136974
670.640	0.0136841
670.718	0.0138126
670.796	0.0138193
670.874	0.0136869
670.953	0.0136849
671.031	0.0137199
671.109	0.0134969
671.187	0.0137667
671.265	0.0138638
671.343	0.0138038
671.421	0.0138926
671.499	0.0138914
671.578	0.0138345
671.656	0.0136840
671.734	0.0138355
671.812	0.0138781
671.890	0.0138069
671.968	0.0137772
672.046	0.0138796
672.124	0.0138304
672.203	0.0137383
672.281	0.0136649
672.359	0.0136558
672.437	0.0135905
672.515	0.0138242
672.593	0.0136784
672.671	0.0135769
672.749	0.0133323
672.828	0.0136017
672.906	0.0134543
672.984	0.0134241
673.062	0.0133680
673.140	0.0134206
673.218	0.0133499
673.296	0.0134079
673.374	0.0134975
673.453	0.0137014
673.531	0.0134095
673.609	0.0134869
673.687	0.0137934
673.765	0.0137056
673.843	0.0136749
673.921	0.0138710
673.999	0.0137371
674.078	0.0138728
674.156	0.0140424
674.234	0.0139445
674.312	0.0139297
674.390	0.0137739
674.468	0.0137137
674.546	0.0136466
674.624	0.0137286
674.703	0.0136566
674.781	0.0135911
674.859	0.0137038
674.937	0.0135982
675.015	0.0137059
675.093	0.0135878
675.171	0.0136775
675.249	0.0137754
675.328	0.0136093
675.406	0.0137146
675.484	0.0138035
675.562	0.0138462
675.640	0.0138158
675.718	0.0138676
675.796	0.0139532
675.874	0.0139234
675.953	0.0140163
676.031	0.0139851
676.109	0.0138647
676.187	0.0137967
676.265	0.0136500
676.343	0.0135439
676.421	0.0136600
676.499	0.0133906
676.578	0.0132518
676.656	0.0132230
676.734	0.0131988
676.812	0.0130714
676.890	0.0130576
676.968	0.0129789
677.046	0.0130091
677.124	0.0131892
677.203	0.0131562
677.281	0.0132936
677.359	0.0131777
677.437	0.0132774
677.515	0.0135529
677.593	0.0136313
677.671	0.0138822
677.749	0.0139542
677.828	0.0139516
677.906	0.0142085
677.984	0.0141922
678.062	0.0143043
678.140	0.0141648
678.218	0.0144343
678.296	0.0143121
678.374	0.0142278
678.453	0.0141286
678.531	0.0141065
678.609	0.0141475
678.687	0.0140882
678.765	0.0139169
678.843	0.0136546
678.921	0.0135857
678.999	0.0134872
679.078	0.0134589
679.156	0.0133355
679.234	0.0134640
679.312	0.0136020
679.390	0.0134853
679.468	0.0135679
679.546	0.0137167
679.624	0.0137127
679.703	0.0137328
679.781	0.0138108
679.859	0.0139859
679.937	0.0138256
680.015	0.0138686
680.093	0.0139554
680.171	0.0140169
680.249	0.0140045
680.328	0.0139160
680.406	0.0138930
680.484	0.0138110
680.562	0.0138268
680.640	0.0136968
680.718	0.0137461
680.796	0.0136903
680.874	0.0136755
680.953	0.0135730
681.031	0.0135062
681.109	0.0134969
681.187	0.0135848
681.265	0.0134298
681.343	0.0135339
681.421	0.0135423
681.499	0.0133547
681.578	0.0134775
681.656	0.0132288
681.734	0.0133513
681.812	0.0134787
681.890	0.0134683
681.968	0.0134140
682.046	0.0134244
682.124	0.0135127
682.203	0.0136716
682.281	0.0136658
682.359	0.0138548
682.437	0.0137503
682.515	0.0137927
682.593	0.0139980
682.671	0.0138583
682.749	0.0140579
682.828	0.0141348
682.906	0.0141877
682.984	0.0142213
683.062	0.0142525
683.140	0.0143277
683.218	0.0142760
683.296	0.0142965
683.374	0.0141850
683.453	0.0141160
683.531	0.0139373
683.609	0.0139286
683.687	0.0139069
683.765	0.0138802
683.843	0.0138336
683.921	0.0138442
683.999	0.0137864
684.078	0.0138274
684.156	0.0138526
684.234	0.0136323
684.312	0.0138811
684.390	0.0139092
684.468	0.0139809
684.546	0.0139154
684.624	0.0140640
684.703	0.0140297
684.781	0.0139890
684.859	0.0139787
684.937	0.0139655
685.015	0.0137610
685.093	0.0136395
685.171	0.0138605
685.249	0.0135391
685.328	0.0135473
685.406	0.0133508
685.484	0.0133046
685.562	0.0133372
685.640	0.0132284
685.718	0.0131433
685.796	0.0130048
685.874	0.0130319
685.953	0.0129140
686.031	0.0129188
686.109	0.0130164
686.187	0.0128852
686.265	0.0129383
686.343	0.0130372
686.421	0.0129858
686.499	0.0131608
686.578	0.0130873
686.656	0.0131334
686.734	0.0133395
686.812	0.0134549
686.890	0.0135001
686.968	0.0135363
687.046	0.0138791
687.124	0.0138611
687.203	0.0140425
687.281	0.0142291
687.359	0.0143208
687.437	0.0144476
687.515	0.0145948
687.593	0.0148222
687.671	0.0149304
687.749	0.0149933
687.828	0.0150195
687.906	0.0150205
687.984	0.0152051
688.062	0.0150513
688.140	0.0150049
688.218	0.0147919
688.296	0.0146652
688.374	0.0147123
688.453	0.0145003
688.531	0.0143153
688.609	0.0142047
688.687	0.0142012
688.765	0.0140910
688.843	0.0139140
688.921	0.0136345
688.999	0.0136335
689.078	0.0134827
689.156	0.0135449
689.234	0.0135134
689.312	0.0132812
689.390	0.0133213
689.468	0.0133138
689.546	0.0132038
689.624	0.0131708
689.703	0.0131522
689.781	0.0129837
689.859	0.0131573
689.937	0.0130376
690.015	0.0129858
690.093	0.0130476
690.171	0.0130729
690.249	0.0129370
690.328	0.0131799
690.406	0.0132980
690.484	0.0132505
690.562	0.0134806
690.640	0.0135322
690.718	0.0135918
690.796	0.0135937
690.874	0.0136364
690.953	0.0136015
691.031	0.0137867
691.109	0.0136701
691.187	0.0137269
691.265	0.0136538
691.343	0.0135979
691.421	0.0135594
691.499	0.0134250
691.578	0.0133572
691.656	0.0130798
691.734	0.0130515
691.812	0.0130743
691.890	0.0129710
691.968	0.0130665
692.046	0.0132516
692.124	0.0132159
692.203	0.0133829
692.281	0.0136381
692.359	0.0138728
692.437	0.0140414
692.515	0.0143688
692.593	0.0147395
692.671	0.0149783
692.749	0.0154100
692.828	0.0155381
692.906	0.0155508
692.984	0.0157509
693.062	0.0157806
693.140	0.0158192
693.218	0.0157607
693.296	0.0156203
693.374	0.0154130
693.453	0.0152425
693.531	0.0149578
693.609	0.0145544
693.687	0.0142998
693.765	0.0141663
693.843	0.0138126
693.921	0.0134690
693.999	0.0132300
694.078	0.0131268
694.156	0.0129718
694.234	0.0129282
694.312	0.0129956
694.390	0.0129363
694.468	0.0127209
694.546	0.0126557
694.624	0.0127457
694.703	0.0127554
694.781	0.0128096
694.859	0.0127441
694.937	0.0126852
695.015	0.0125965
695.093	0.0125271
695.171	0.0124684
695.249	0.0125025
695.328	0.0125967
695.406	0.0125508
695.484	0.0125883
695.562	0.0127411
695.640	0.0128871
695.718	0.0128715
695.796	0.0130489
695.874	0.0131700
695.953	0.0132788
696.031	0.0134425
696.109	0.0134594
696.187	0.0134662
696.265	0.0134773
696.343	0.0136999
696.421	0.0137001
696.499	0.0136416
696.578	0.0136639
696.656	0.0135171
696.734	0.0134757
696.812	0.0135865
696.890	0.0136455
696.968	0.0136501
697.046	0.0138538
697.124	0.0139089
697.203	0.0142395
697.281	0.0143160
697.359	0.0144849
697.437	0.0148016
697.515	0.0150784
697.593	0.0152132
697.671	0.0154893
697.749	0.0156665
697.828	0.0158981
697.906	0.0158405
697.984	0.0160052
698.062	0.0159364
698.140	0.0159014
698.218	0.0158715
698.296	0.0155799
698.374	0.0154703
698.453	0.0152584
698.531	0.0146552
698.609	0.0142979
698.687	0.0140327
698.765	0.0137820
698.843	0.0133524
698.921	0.0131306
698.999	0.0129523
699.078	0.0126901
699.156	0.0125217
699.234	0.0124837
699.312	0.0123427
699.390	0.0123135
699.468	0.0123201
699.546	0.0122228
699.624	0.0122344
699.703	0.0123376
699.781	0.0122607
699.859	0.0122683
699.937	0.0122511
700.015	0.0123078
700.093	0.0121753
700.171	0.0121792
700.249	0.0122871
700.328	0.0122286
700.406	0.0125749
700.484	0.0125810
700.562	0.0127277
700.640	0.0128866
700.718	0.0130849
700.796	0.0133864
700.874	0.0134885
700.953	0.0137369
701.031	0.0139379
701.109	0.0142499
701.187	0.0143865
701.265	0.0144099
701.343	0.0143391
701.421	0.0145554
701.499	0.0145788
701.578	0.0143794
701.656	0.0143415
701.734	0.0142215
701.812	0.0139381
701.890	0.0138439
701.968	0.0139237
702.046	0.0137614
702.124	0.0139523
702.203	0.0137605
702.281	0.0139665
702.359	0.0141235
702.437	0.0143156
702.515	0.0145313
702.593	0.0148228
702.671	0.0149825
702.749	0.0152614
702.828	0.0153107
702.906	0.0156038
702.984	0.0156703
703.062	0.0156881
703.140	0.0156173
703.218	0.0156422
703.296	0.0155087
703.374	0.0153130
703.453	0.0151730
703.531	0.0147782
703.609	0.0146096
703.687	0.0144028
703.765	0.0140997
703.843	0.0136687
703.921	0.0134740
703.999	0.0130663
704.078	0.0129721
704.156	0.0127733
704.234	0.0123964
704.312	0.0123980
704.390	0.0122600
704.468	0.0122169
704.546	0.0121133
704.624	0.0121214
704.703	0.0120930
704.781	0.0120993
704.859	0.0120380
704.937	0.0122022
705.015	0.0121458
705.093	0.0121311
705.171	0.0121724
705.249	0.0123134
705.328	0.0124091
705.406	0.0124509
705.484	0.0126788
705.562	0.0128170
705.640	0.0130847
705.718	0.0134040
705.796	0.0133230
705.874	0.0136794
705.953	0.0140620
706.031	0.0143073
706.109	0.0144613
706.187	0.0146749
706.265	0.0148066
706.343	0.0148737
706.421	0.0148542
706.499	0.0148593
706.578	0.0148104
706.656	0.0145317
706.734	0.0144530
706.812	0.0142006
706.890	0.0140292
706.968	0.0138572
707.046	0.0136245
707.124	0.0135629
707.203	0.0132611
707.281	0.0132898
707.359	0.0132491
707.437	0.0134404
707.515	0.0138028
707.593	0.0138212
707.671	0.0140285
707.749	0.0144931
707.828	0.0146651
707.906	0.0149657
707.984	0.0152235
708.062	0.0153699
708.140	0.0157623
708.218	0.0157220
708.296	0.0157824
708.374	0.0158001
708.453	0.0157160
708.531	0.0154373
708.609	0.0152250
708.687	0.0151350
708.765	0.0145953
708.843	0.0143668
708.921	0.0139267
708.999	0.0136021
709.078	0.0132482
709.156	0.0130499
709.234	0.0128165
709.312	0.0124754
709.390	0.0122912
709.468	0.0122163
709.546	0.0120467
709.624	0.0119548
709.703	0.0118525
709.781	0.0118713
709.859	0.0119040
709.937	0.0119791
710.015	0.0120779
710.093	0.0121801
710.171	0.0123492
710.249	0.0125998
710.328	0.0126202
710.406	0.0128470
710.484	0.0130362
710.562	0.0132444
710.640	0.0132947
710.718	0.0137001
710.796	0.0138738
710.874	0.0141085
710.953	0.0141869
711.031	0.0141335
711.109	0.0144600
711.187	0.0145910
711.265	0.0146363
711.343	0.0148415
711.421	0.0146853
711.499	0.0146070
711.578	0.0146108
711.656	0.0145270
711.734	0.0144205
711.812	0.0142171
711.890	0.0140246
711.968	0.0138194
712.046	0.0136671
712.124	0.0136161
712.203	0.0134393
712.281	0.0134155
712.359	0.0133854
712.437	0.0134476
712.515	0.0135822
712.593	0.0135815
712.671	0.0135710
712.749	0.0139059
712.828	0.0140910
712.906	0.0145546
712.984	0.0146973
713.062	0.0149105
713.140	0.0150680
713.218	0.0152225
713.296	0.0151462
713.374	0.0153407
713.453	0.0153535
713.531	0.0153596
713.609	0.0151658
713.687	0.0149570
713.765	0.0148091
713.843	0.0145564
713.921	0.0142734
713.999	0.0138444
714.078	0.0136636
714.156	0.0131915
714.234	0.0131081
714.312	0.0130226
714.390	0.0128941
714.468	0.0127660
714.546	0.0125723
714.624	0.0123792
714.703	0.0124489
714.781	0.0123253
714.859	0.0123486
714.937	0.0123232
715.015	0.0124482
715.093	0.0125382
715.171	0.0124470
715.249	0.0125432
715.328	0.0126691
715.406	0.0127800
715.484	0.0128360
715.562	0.0129704
715.640	0.0130354
715.718	0.0134426
715.796	0.0135390
715.874	0.0137128
715.953	0.0140198
716.031	0.0141293
716.109	0.0142121
716.187	0.0142659
716.265	0.0144784
716.343	0.0145573
716.421	0.0145820
716.499	0.0147711
716.578	0.0146497
716.656	0.0145512
716.734	0.0148673
716.812	0.0147776
716.890	0.0145095
716.968	0.0143550
717.046	0.0143030
717.124	0.0141032
717.203	0.0137586
717.281	0.0136519
717.359	0.0134129
717.437	0.0132377
717.515	0.0132014
717.593	0.0129302
717.671	0.0129882
717.749	0.0130512
717.828	0.0132259
717.906	0.0133984
717.984	0.0134880
718.062	0.0137620
718.140	0.0139858
718.218	0.0142136
718.296	0.0144770
718.374	0.0147641
718.453	0.0149556
718.531	0.0148657
718.609	0.0150330
718.687	0.0151588
718.765	0.0152363
718.843	0.0150258
718.921	0.0148375
718.999	0.0149034
719.078	0.0148882
719.156	0.0144510
719.234	0.0140754
719.312	0.0139173
719.390	0.0137109
719.468	0.0134090
719.546	0.0131698
719.624	0.0129214
719.703	0.0127831
719.781	0.0124476
719.859	0.0122957
719.937	0.0124247
720.015	0.0124058
720.093	0.0122276
720.171	0.0122556
720.249	0.0124287
720.328	0.0122724
720.406	0.0124390
720.484	0.0125646
720.562	0.0127992
720.640	0.0128146
720.718	0.0131928
720.796	0.0133318
720.874	0.0134126
720.953	0.0136291
721.031	0.0138731
721.109	0.0139497
721.187	0.0140192
721.265	0.0142527
721.343	0.0143761
721.421	0.0145531
721.499	0.0144753
721.578	0.0145014
721.656	0.0145312
721.734	0.0144721
721.812	0.0145671
721.890	0.0145268
721.968	0.0143854
722.046	0.0143110
722.124	0.0140801
722.203	0.0138583
722.281	0.0136514
722.359	0.0136473
722.437	0.0133035
722.515	0.0131779
722.593	0.0131947
722.671	0.0131816
722.749	0.0129745
722.828	0.0129826
722.906	0.0129256
722.984	0.0130453
723.062	0.0133328
723.140	0.0134425
723.218	0.0136657
723.296	0.0139647
723.374	0.0142567
723.453	0.0144714
723.531	0.0146297
723.609	0.0147724
723.687	0.0149969
723.765	0.0151196
723.843	0.0151097
723.921	0.0150597
723.999	0.0150019
724.078	0.0149052
724.156	0.0147430
724.234	0.0145972
724.312	0.0141108
724.390	0.0142560
724.468	0.0138721
724.546	0.0136767
724.624	0.0133932
724.703	0.0131375
724.781	0.0129622
724.859	0.0128589
724.937	0.0125875
725.015	0.0123249
725.093	0.0123872
725.171	0.0124097
725.249	0.0122443
725.328	0.0123698
725.406	0.0122069
725.484	0.0126244
725.562	0.0126671
725.640	0.0127385
725.718	0.0129199
725.796	0.0132462
725.874	0.0133538
725.953	0.0135335
726.031	0.0135678
726.109	0.0138566
726.187	0.0141311
726.265	0.0142307
726.343	0.0142860
726.421	0.0144238
726.499	0.0144787
726.578	0.0145600
726.656	0.0144179
726.734	0.0144131
726.812	0.0143072
726.890	0.0143243
726.968	0.0141142
727.046	0.0140236
727.124	0.0139558
727.203	0.0138072
727.281	0.0136536
727.359	0.0134807
727.437	0.0136061
727.515	0.0134351
727.593	0.0132052
727.671	0.0131467
727.749	0.0131873
727.828	0.0132988
727.906	0.0130882
727.984	0.0131806
728.062	0.0133272
728.140	0.0134710
728.218	0.0135953
728.296	0.0137790
728.374	0.0138631
728.453	0.0139426
728.531	0.0142317
728.609	0.0144183
728.687	0.0145653
728.765	0.0145946
728.843	0.0147999
728.921	0.0148587
728.999	0.0148342
729.078	0.0147145
729.156	0.0146208
729.234	0.0145395
729.312	0.0144960
729.390	0.0143037
729.468	0.0138750
729.546	0.0138000
729.624	0.0138364
729.703	0.0134747
729.781	0.0131123
729.859	0.0130166
729.937	0.0130254
730.015	0.0130004
730.093	0.0127475
730.171	0.0127085
730.249	0.0127738
730.328	0.0128068
730.406	0.0128887
730.484	0.0130169
730.562	0.0130025
730.640	0.0131778
730.718	0.0131531
730.796	0.0132957
730.874	0.0134711
730.953	0.0136079
731.031	0.0138412
731.109	0.0139462
731.187	0.0140429
731.265	0.0141889
731.343	0.0141887
731.421	0.0141945
731.499	0.0141589
731.578	0.0142385
731.656	0.0144389
731.734	0.0140838
731.812	0.0141973
731.890	0.0143179
731.968	0.0140868
732.046	0.0140542
732.124	0.0140108
732.203	0.0139766
732.281	0.0138166
732.359	0.0137220
732.437	0.0136047
732.515	0.0135895
732.593	0.0134930
732.671	0.0133637
732.749	0.0132729
732.828	0.0130476
732.906	0.0131161
732.984	0.0133873
733.062	0.0132822
733.140	0.0134027
733.218	0.0133815
733.296	0.0134472
733.374	0.0135330
733.453	0.0135806
733.531	0.0138631
733.609	0.0140861
733.687	0.0142506
733.765	0.0142848
733.843	0.0143293
733.921	0.0144505
733.999	0.0146412
734.078	0.0147482
734.156	0.0147211
734.234	0.0146982
734.312	0.0145577
734.390	0.0144920
734.468	0.0144704
734.546	0.0142585
734.624	0.0140931
734.703	0.0140384
734.781	0.0138169
734.859	0.0136349
734.937	0.0133667
735.015	0.0132858
735.093	0.0132078
735.171	0.0129913
735.249	0.0129889
735.328	0.0129955
735.406	0.0129213
735.484	0.0130409
735.562	0.0129746
735.640	0.0131626
735.718	0.0132864
735.796	0.0131777
735.874	0.0133353
735.953	0.0133926
736.031	0.0135683
736.109	0.0137125
736.187	0.0138145
736.265	0.0138959
736.343	0.0139759
736.421	0.0141783
736.499	0.0140970
736.578	0.0141116
736.656	0.0140890
736.734	0.0140989
736.812	0.0142480
736.890	0.0141782
736.968	0.0140405
737.046	0.0139121
737.124	0.0139236
737.203	0.0138400
737.281	0.0139111
737.359	0.0137690
737.437	0.0136129
737.515	0.0135474
737.593	0.0134689
737.671	0.0134117
737.749	0.0135108
737.828	0.0133186
737.906	0.0134326
737.984	0.0133642
738.062	0.0133021
738.140	0.0132590
738.218	0.0133474
738.296	0.0133828
738.374	0.0135778
738.453	0.0135126
738.531	0.0137471
738.609	0.0138120
738.687	0.0140667
738.765	0.0140619
738.843	0.0141667
738.921	0.0142854
738.999	0.0142316
739.078	0.0143656
739.156	0.0143328
739.234	0.0145636
739.312	0.0145059
739.390	0.0143802
739.468	0.0143595
739.546	0.0141521
739.624	0.0140434
739.703	0.0140946
739.781	0.0138771
739.859	0.0136102
739.937	0.0135249
740.015	0.0135603
740.093	0.0133168
740.171	0.0131229
740.249	0.0130302
740.328	0.0129838
740.406	0.0130235
740.484	0.0130743
740.562	0.0130086
740.640	0.0131710
740.718	0.0131263
740.796	0.0133182
740.874	0.0132873
740.953	0.0133892
741.031	0.0136646
741.109	0.0137088
741.187	0.0137913
741.265	0.0139351
741.343	0.0139929
741.421	0.0140142
741.499	0.0141068
741.578	0.0141116
741.656	0.0140101
741.734	0.0142758
741.812	0.0143472
741.890	0.0140081
741.968	0.0140963
742.046	0.0141258
742.124	0.0141041
742.203	0.0139705
742.281	0.0139993
742.359	0.0138292
742.437	0.0138202
742.515	0.0137442
742.593	0.0135415
742.671	0.0135516
742.749	0.0135409
742.828	0.0134370
742.906	0.0133489
742.984	0.0134193
743.062	0.0133635
743.140	0.0134254
743.218	0.0133278
743.296	0.0133122
743.374	0.0134286
743.453	0.0133263
743.531	0.0134952
743.609	0.0137562
743.687	0.0138100
743.765	0.0136489
743.843	0.0138672
743.921	0.0139781
743.999	0.0140529
744.078	0.0141754
744.156	0.0141190
744.234	0.0141552
744.312	0.0143118
744.390	0.0141801
744.468	0.0141557
744.546	0.0141485
744.624	0.0140948
744.703	0.0139877
744.781	0.0138446
744.859	0.0137831
744.937	0.0138335
745.015	0.0136100
745.093	0.0134575
745.171	0.0134098
745.249	0.0133964
745.328	0.0132777
745.406	0.0132590
745.484	0.0131591
745.562	0.0133047
745.640	0.0132076
745.718	0.0132521
745.796	0.0133865
745.874	0.0134777
745.953	0.0134959
746.031	0.0136035
746.109	0.0136613
746.187	0.0137009
746.265	0.0138058
746.343	0.0139635
746.421	0.0139566
746.499	0.0139175
746.578	0.0139723
746.656	0.0139077
746.734	0.0140016
746.812	0.0140826
746.890	0.0141370
746.968	0.0141380
747.046	0.0139528
747.124	0.0137801
747.203	0.0138712
747.281	0.0137798
747.359	0.0136488
747.437	0.0136493
747.515	0.0135418
747.593	0.0135953
747.671	0.0134764
747.749	0.0133267
747.828	0.0133537
747.906	0.0133801
747.984	0.0133408
748.062	0.0134018
748.140	0.0133803
748.218	0.0133118
748.296	0.0134277
748.374	0.0135117
748.453	0.0135029
748.531	0.0135440
748.609	0.0136917
748.687	0.0137705
748.765	0.0138311
748.843	0.0137476
748.921	0.0139661
748.999	0.0139529
749.078	0.0140907
749.156	0.0141090
749.234	0.0138632
749.312	0.0139418
749.390	0.0138843
749.468	0.0140821
749.546	0.0139481
749.624	0.0138763
749.703	0.0139465
749.781	0.0137364
749.859	0.0138198
749.937	0.0136188
750.015	0.0136076
750.093	0.0134698
750.171	0.0134037
750.249	0.0133479
750.328	0.0132874
750.406	0.0133742
750.484	0.0133648
750.562	0.0134347
750.640	0.0133644
750.718	0.0134534
750.796	0.0136341
750.874	0.0134962
750.953	0.0134439
751.031	0.0137429
751.109	0.0136935
751.187	0.0137594
751.265	0.0139298
751.343	0.0138273
751.421	0.0140532
751.499	0.0141243
751.578	0.0140481
751.656	0.0140448
751.734	0.0140083
751.812	0.0141412
751.890	0.0140332
751.968	0.0140605
752.046	0.0138042
752.124	0.0138091
752.203	0.0137613
752.281	0.0136417
752.359	0.0134785
752.437	0.0135407
752.515	0.0133517
752.593	0.0133509
752.671	0.0133414
752.749	0.0133481
752.828	0.0132970
752.906	0.0134119
752.984	0.0134213
753.062	0.0134486
753.140	0.0135991
753.218	0.0136258
753.296	0.0135790
753.374	0.0138109
753.453	0.0139337
753.531	0.0139086
753.609	0.0139996
753.687	0.0139964
753.765	0.0140850
753.843	0.0139287
753.921	0.0140988
753.999	0.0141705
754.078	0.0141104
754.156	0.0141860
754.234	0.0141004
754.312	0.0140968
754.390	0.0139703
754.468	0.0137938
754.546	0.0137087
754.624	0.0138326
754.703	0.0139306
754.781	0.0138842
754.859	0.0136594
754.937	0.0136675
755.015	0.0136272
755.093	0.0135002
755.171	0.0133503
755.249	0.0133280
755.328	0.0134325
755.406	0.0132722
755.484	0.0132236
755.562	0.0133116
755.640	0.0132899
755.718	0.0133454
755.796	0.0134676
755.874	0.0136401
755.953	0.0137035
756.031	0.0136125
756.109	0.0137370
756.187	0.0139215
756.265	0.0138622
756.343	0.0140652
756.421	0.0141275
756.499	0.0141290
756.578	0.0140100
756.656	0.0140671
756.734	0.0141129
756.812	0.0141018
756.890	0.0138938
756.968	0.0138208
757.046	0.0139677
757.124	0.0138032
757.203	0.0137856
757.281	0.0136886
757.359	0.0136462
757.437	0.0137408
757.515	0.0135631
757.593	0.0136363
757.671	0.0135832
757.749	0.0136426
757.828	0.0136738
757.906	0.0136070
757.984	0.0136516
758.062	0.0136261
758.140	0.0136837
758.218	0.0136792
758.296	0.0137225
758.374	0.0136824
758.453	0.0138563
758.531	0.0138223
758.609	0.0137676
758.687	0.0141096
758.765	0.0139908
758.843	0.0140010
758.921	0.0141540
758.999	0.0142116
759.078	0.0141801
759.156	0.0140900
759.234	0.0140453
759.312	0.0141024
759.390	0.0141275
759.468	0.0139458
759.546	0.0139659
759.624	0.0140611
759.703	0.0138427
759.781	0.0137330
759.859	0.0137801
759.937	0.0136028
760.015	0.0136124
760.093	0.0133798
760.171	0.0134966
760.249	0.0134289
760.328	0.0133674
760.406	0.0133892
760.484	0.0132461
760.562	0.0132552
760.640	0.0134515
760.718	0.0134610
760.796	0.0133861
760.874	0.0133978
760.953	0.0135401
761.031	0.0136534
761.109	0.0138602
761.187	0.0140147
761.265	0.0140363
761.343	0.0139803
761.421	0.0141764
761.499	0.0142561
761.578	0.0142999
761.656	0.0143768
761.734	0.0141560
761.812	0.0143507
761.890	0.0142821
761.968	0.0139832
762.046	0.0140424
762.124	0.0139803
762.203	0.0137756
762.281	0.0139441
762.359	0.0138335
762.437	0.0136453
762.515	0.0135503
762.593	0.0136748
762.671	0.0136006
762.749	0.0136866
762.828	0.0135376
762.906	0.0134492
762.984	0.0135149
763.062	0.0135268
763.140	0.0136128
763.218	0.0135895
763.296	0.0136006
763.374	0.0137125
763.453	0.0136227
763.531	0.0136931
763.609	0.0138959
763.687	0.0138712
763.765	0.0139494
763.843	0.0139731
763.921	0.0139598
763.999	0.0138519
764.078	0.0139212
764.156	0.0139906
764.234	0.0140313
764.312	0.0140394
764.390	0.0140334
764.468	0.0138536
764.546	0.0140206
764.624	0.0139730
764.703	0.0139844
764.781	0.0137991
764.859	0.0137663
764.937	0.0137730
765.015	0.0136992
765.093	0.0137264
765.171	0.0136357
765.249	0.0134181
765.328	0.0133554
765.406	0.0134117
765.484	0.0133715
765.562	0.0134541
765.640	0.0133627
765.718	0.0134451
765.796	0.0136031
765.874	0.0136559
765.953	0.0137363
766.031	0.0137488
766.109	0.0137852
766.187	0.0138642
766.265	0.0138778
766.343	0.0139229
766.421	0.0138316
766.499	0.0140355
766.578	0.0139093
766.656	0.0140832
766.734	0.0139838
766.812	0.0139982
766.890	0.0139426
766.968	0.0138525
767.046	0.0138136
767.124	0.0137806
767.203	0.0137540
767.281	0.0137070
767.359	0.0136626
767.437	0.0135632
767.515	0.0137657
767.593	0.0138007
767.671	0.0136323
767.749	0.0137485
767.828	0.0138404
767.906	0.0137759
767.984	0.0136766
768.062	0.0136885
768.140	0.0137698
768.218	0.0136114
768.296	0.0136493
768.374	0.0136954
768.453	0.0137045
768.531	0.0136046
768.609	0.0137838
768.687	0.0137344
768.765	0.0136037
768.843	0.0137627
768.921	0.0136642
768.999	0.0135798
769.078	0.0139021
769.156	0.0139355
769.234	0.0138811
769.312	0.0138248
769.390	0.0138162
769.468	0.0138491
769.546	0.0138094
769.624	0.0139523
769.703	0.0138560
769.781	0.0137884
769.859	0.0138931
769.937	0.0138029
770.015	0.0137386
770.093	0.0137775
770.171	0.0136810
770.249	0.0137127
770.328	0.0137051
770.406	0.0136575
770.484	0.0136108
770.562	0.0135119
770.640	0.0136057
770.718	0.0137854
770.796	0.0137771
770.874	0.0138528
770.953	0.0138891
771.031	0.0137719
771.109	0.0137378
771.187	0.0138885
771.265	0.0138049
771.343	0.0138007
771.421	0.0138457
771.499	0.0137064
771.578	0.0138789
771.656	0.0139163
771.734	0.0138316
771.812	0.0137415
771.890	0.0138148
771.968	0.0138818
772.046	0.0138614
772.124	0.0138013
772.203	0.0136832
772.281	0.0138941
772.359	0.0138345
772.437	0.0138170
772.515	0.0137910
772.593	0.0137062
772.671	0.0138480
772.749	0.0137057
772.828	0.0136269
772.906	0.0135571
772.984	0.0135899
773.062	0.0136205
773.140	0.0135197
773.218	0.0135640
773.296	0.0135657
773.374	0.0134449
773.453	0.0136441
773.531	0.0137418
773.609	0.0136998
773.687	0.0136886
773.765	0.0138866
773.843	0.0139414
773.921	0.0138966
773.999	0.0137804
774.078	0.0139118
774.156	0.0138224
774.234	0.0136816
774.312	0.0136436
774.390	0.0138419
774.468	0.0136710
774.546	0.0138094
774.624	0.0137151
774.703	0.0138937
774.781	0.0137006
774.859	0.0135344
774.937	0.0137089
775.015	0.0137210
775.093	0.0136327
775.171	0.0136600
775.249	0.0136842
775.328	0.0136732
775.406	0.0136864
775.484	0.0136690
775.562	0.0136472
775.640	0.0136230
775.718	0.0137262
775.796	0.0138107
775.874	0.0136388
775.953	0.0137759
776.031	0.0137177
776.109	0.0138050
776.187	0.0137636
776.265	0.0137071
776.343	0.0138149
776.421	0.0136707
776.499	0.0137940
776.578	0.0137434
776.656	0.0138335
776.734	0.0138157
776.812	0.0137579
776.890	0.0137813
776.968	0.0136957
777.046	0.0135458
777.124	0.0137017
777.203	0.0137525
777.281	0.0135892
777.359	0.0136138
777.437	0.0135602
777.515	0.0136378
777.593	0.0135503
777.671	0.0136164
777.749	0.0135968
777.828	0.0137310
777.906	0.0136388
777.984	0.0137656
778.062	0.0137836
778.140	0.0138361
778.218	0.0138468
778.296	0.0138038
778.374	0.0137727
778.453	0.0137637
778.531	0.0137837
778.609	0.0139079
778.687	0.0139189
778.765	0.0137437
778.843	0.0138145
778.921	0.0138109
778.999	0.0137455
779.078	0.0137928
779.156	0.0138351
779.234	0.0138037
779.312	0.0137418
779.390	0.0137183
779.468	0.0137367
779.546	0.0136567
779.624	0.0136532
779.703	0.0135777
779.781	0.0136601
779.859	0.0136251
779.937	0.0137524
780.015	0.0136248
780.093	0.0135432
780.171	0.0136485
780.249	0.0136378
780.328	0.0137431
780.406	0.0137047
780.484	0.0137959
780.562	0.0138771
780.640	0.0137894
780.718	0.0137671
780.796	0.0138677
780.874	0.0139045
780.953	0.0139647
781.031	0.0139018
781.109	0.0139980
781.187	0.0140154
781.265	0.0139480
781.343	0.0138527
781.421	0.0138696
781.499	0.0138428
781.578	0.0138065
781.656	0.0138996
781.734	0.0138113
781.812	0.0139082
781.890	0.0138270
781.968	0.0137135
782.046	0.0136493
782.124	0.0136787
782.203	0.0136498
782.281	0.0135723
782.359	0.0135199
782.437	0.0136131
782.515	0.0135544
782.593	0.0135499
782.671	0.0135651
782.749	0.0136508
782.828	0.0135838
782.906	0.0136404
782.984	0.0136989
783.062	0.0137867
783.140	0.0137582
783.218	0.0138268
783.296	0.0137470
783.374	0.0139079
783.453	0.0140828
783.531	0.0139795
783.609	0.0141337
783.687	0.0139593
783.765	0.0141022
783.843	0.0141134
783.921	0.0140339
783.999	0.0140566
784.078	0.0140539
784.156	0.0139305
784.234	0.0139159
784.312	0.0140441
784.390	0.0141081
784.468	0.0137711
784.546	0.0137852
784.624	0.0140165
784.703	0.0137708
784.781	0.0137418
784.859	0.0138868
784.937	0.0137337
785.015	0.0136121
785.093	0.0137537
785.171	0.0137379
785.249	0.0135588
785.328	0.0136190
785.406	0.0137475
785.484	0.0137046
785.562	0.0136522
785.640	0.0136883
785.718	0.0137558
785.796	0.0137278
785.874	0.0136993
785.953	0.0137063
786.031	0.0137576
786.109	0.0138415
786.187	0.0138388
786.265	0.0138867
786.343	0.0139420
786.421	0.0137815
786.499	0.0139055
786.578	0.0139641
786.656	0.0137320
786.734	0.0138686
786.812	0.0138470
786.890	0.0137083
786.968	0.0137495
787.046	0.0137568
787.124	0.0136662
787.203	0.0136219
787.281	0.0136568
787.359	0.0135971
787.437	0.0134760
787.515	0.0135654
787.593	0.0135118
787.671	0.0136602
787.749	0.0136183
787.828	0.0136233
787.906	0.0136074
787.984	0.0136520
788.062	0.0137178
788.140	0.0138169
788.218	0.0137390
788.296	0.0138708
788.374	0.0138715
788.453	0.0137238
788.531	0.0139874
788.609	0.0139592
788.687	0.0138939
788.765	0.0139977
788.843	0.0139693
788.921	0.0139708
788.999	0.0139195
789.078	0.0140546
789.156	0.0139881
789.234	0.0139326
789.312	0.0137874
789.390	0.0138413
789.468	0.0139915
789.546	0.0138828
789.624	0.0138918
789.703	0.0138497
789.781	0.0139428
789.859	0.0138174
789.937	0.0137268
790.015	0.0137327
790.093	0.0138023
790.171	0.0136774
790.249	0.0137118
790.328	0.0136686
790.406	0.0137659
790.484	0.0139073
790.562	0.0137456
790.640	0.0135920
790.718	0.0136803
790.796	0.0136395
790.874	0.0135394
790.953	0.0135416
791.031	0.0138100
791.109	0.0136658
791.187	0.0138530
791.265	0.0136523
791.343	0.0136256
791.421	0.0136585
791.499	0.0135825
791.578	0.0136363
791.656	0.0136668
791.734	0.0137151
791.812	0.0136160
791.890	0.0135767
791.968	0.0135612
792.046	0.0135177
792.124	0.0135271
792.203	0.0133962
792.281	0.0135094
792.359	0.0135812
792.437	0.0134442
792.515	0.0134546
792.593	0.0135470
792.671	0.0137109
792.749	0.0136889
792.828	0.0136930
792.906	0.0136935
792.984	0.0137003
793.062	0.0138465
793.140	0.0138712
793.218	0.0138540
793.296	0.0138815
793.374	0.0140355
793.453	0.0139267
793.531	0.0138793
793.609	0.0137812
793.687	0.0138124
793.765	0.0139787
793.843	0.0137711
793.921	0.0137709
793.999	0.0138492
794.078	0.0138219
794.156	0.0138097
794.234	0.0138195
794.312	0.0138097
794.390	0.0139423
794.468	0.0137686
794.546	0.0137638
794.624	0.0139455
794.703	0.0139568
794.781	0.0138078
794.859	0.0137812
794.937	0.0136616
795.015	0.0136512
795.093	0.0137457
795.171	0.0137946
795.249	0.0137244
795.328	0.0136797
795.406	0.0138140
795.484	0.0138152
795.562	0.0136468
795.640	0.0138443
795.718	0.0138020
795.796	0.0137022
795.874	0.0135883
795.953	0.0135983
796.031	0.0135928
796.109	0.0135913
796.187	0.0134697
796.265	0.0134126
796.343	0.0135506
796.421	0.0136666
796.499	0.0134126
796.578	0.0135761
796.656	0.0135662
796.734	0.0134981
796.812	0.0134618
796.890	0.0134695
796.968	0.0135423
797.046	0.0135669
797.124	0.0136472
797.203	0.0137303
797.281	0.0137138
797.359	0.0137446
797.437	0.0137116
797.515	0.0137157
797.593	0.0137078
797.671	0.0137244
797.749	0.0136043
797.828	0.0137674
797.906	0.0136466
797.984	0.0138027
798.062	0.0137439
798.140	0.0137978
798.218	0.0137693
798.296	0.0137794
798.374	0.0137819
798.453	0.0136938
798.531	0.0136834
798.609	0.0138346
798.687	0.0137740
798.765	0.0137993
798.843	0.0137794
798.921	0.0136413
798.999	0.0137386
799.078	0.0137972
799.156	0.0137029
799.234	0.0137767
799.312	0.0137796
799.390	0.0135670
799.468	0.0137445
799.546	0.0138203
799.624	0.0138544
799.703	0.0138776
799.781	0.0137944
799.859	0.0138986
799.937	0.0138367
800.015	0.0138477
800.093	0.0139494
800.171	0.0137841
800.249	0.0138336
800.328	0.0138603
800.406	0.0137756
800.484	0.0136274
800.562	0.0137534
800.640	0.0137884
800.718	0.0137320
800.796	0.0136604
800.874	0.0134232
800.953	0.0135395
801.031	0.0134396
801.109	0.0136062
801.187	0.0134849
801.265	0.0134760
801.343	0.0136128
801.421	0.0135339
801.499	0.0134254
801.578	0.0134949
801.656	0.0135535
801.734	0.0135865
801.812	0.0135412
801.890	0.0135275
801.968	0.0134982
802.046	0.0135276
802.124	0.0136455
802.203	0.0136642
802.281	0.0136423
802.359	0.0137734
802.437	0.0137864
802.515	0.0137914
802.593	0.0137942
802.671	0.0136130
802.749	0.0137736
802.828	0.0138317
802.906	0.0138725
802.984	0.0138993
803.062	0.0139229
803.140	0.0137923
803.218	0.0139001
803.296	0.0138174
803.374	0.0139009
803.453	0.0140018
803.531	0.0138361
803.609	0.0138546
803.687	0.0139175
803.765	0.0139085
803.843	0.0137213
803.921	0.0137276
803.999	0.0140442
804.078	0.0140490
804.156	0.0138039
804.234	0.0137203
804.312	0.0138456
804.390	0.0137412
804.468	0.0138100
804.546	0.0136938
804.624	0.0137114
804.703	0.0137753
804.781	0.0136213
804.859	0.0135618
804.937	0.0137714
805.015	0.0137944
805.093	0.0139174
805.171	0.0137973
805.249	0.0137001
805.328	0.0138009
805.406	0.0137495
805.484	0.0136778
805.562	0.0137997
805.640	0.0136848
805.718	0.0137019
805.796	0.0137948
805.874	0.0136709
805.953	0.0137821
806.031	0.0137383
806.109	0.0135824
806.187	0.0136322
806.265	0.0136505
806.343	0.0135797
806.421	0.0135529
806.499	0.0135754
806.578	0.0135084
806.656	0.0134771
806.734	0.0135878
806.812	0.0134706
806.890	0.0135572
806.968	0.0136018
807.046	0.0135956
807.124	0.0135223
807.203	0.0136233
807.281	0.0136552
807.359	0.0135165
807.437	0.0136660
807.515	0.0136900
807.593	0.0134821
807.671	0.0135825
807.749	0.0138623
807.828	0.0138394
807.906	0.0138474
807.984	0.0137930
808.062	0.0138743
808.140	0.0138086
808.218	0.0140173
808.296	0.0137901
808.374	0.0139690
808.453	0.0140569
808.531	0.0138707
808.609	0.0138493
808.687	0.0138567
808.765	0.0139676
808.843	0.0139047
808.921	0.0138197
808.999	0.0139021
809.078	0.0139190
809.156	0.0138774
809.234	0.0137678
809.312	0.0137183
809.390	0.0136142
809.468	0.0137264
809.546	0.0137782
809.624	0.0137204
809.703	0.0136954
809.781	0.0136574
809.859	0.0135170
809.937	0.0136420
810.015	0.0137271
810.093	0.0137866
810.171	0.0137727
810.249	0.0138565
810.328	0.0136269
810.406	0.0137068
810.484	0.0138248
810.562	0.0137071
810.640	0.0137598
810.718	0.0137361
810.796	0.0137331
810.874	0.0138194
810.953	0.0137674
811.031	0.0136523
811.109	0.0137873
811.187	0.0138571
811.265	0.0136745
811.343	0.0135152
811.421	0.0135983
811.499	0.0137743
811.578	0.0136589
811.656	0.0135726
811.734	0.0136214
811.812	0.0136761
811.890	0.0135653
811.968	0.0136015
812.046	0.0134632
812.124	0.0136299
812.203	0.0135669
812.281	0.0136137
812.359	0.0137126
812.437	0.0135684
812.515	0.0137037
812.593	0.0135963
812.671	0.0137010
812.749	0.0138060
812.828	0.0136575
812.906	0.0136819
812.984	0.0138331
813.062	0.0137430
813.140	0.0137294
813.218	0.0137312
813.296	0.0136935
813.374	0.0138088
813.453	0.0138123
813.531	0.0139091
813.609	0.0139452
813.687	0.0137811
813.765	0.0137687
813.843	0.0138004
813.921	0.0138190
813.999	0.0135796
814.078	0.0138511
814.156	0.0138145
814.234	0.0137418
814.312	0.0136698
814.390	0.0136982
814.468	0.0138729
814.546	0.0137372
814.624	0.0137601
814.703	0.0137244
814.781	0.0138309
814.859	0.0138050
814.937	0.0138517
815.015	0.0138046
815.093	0.0138842
815.171	0.0137826
815.249	0.0138124
815.328	0.0136604
815.406	0.0137177
815.484	0.0137529
815.562	0.0137967
815.640	0.0138666
815.718	0.0139461
815.796	0.0137904
815.874	0.0137550
815.953	0.0134982
816.031	0.0135464
816.109	0.0137383
816.187	0.0136781
816.265	0.0135844
816.343	0.0134763
816.421	0.0135884
816.499	0.0135294
816.578	0.0135528
816.656	0.0136558
816.734	0.0135126
816.812	0.0133701
816.890	0.0135265
816.968	0.0136071
817.046	0.0135225
817.124	0.0134992
817.203	0.0133858
817.281	0.0135706
817.359	0.0134182
817.437	0.0134139
817.515	0.0134973
817.593	0.0135483
817.671	0.0135538
817.749	0.0134741
817.828	0.0136842
817.906	0.0136143
817.984	0.0135836
818.062	0.0137338
818.140	0.0136292
818.218	0.0137447
818.296	0.0136292
818.374	0.0136347
818.453	0.0139010
818.531	0.0138019
818.609	0.0137331
818.687	0.0137160
818.765	0.0138067
818.843	0.0139080
818.921	0.0137215
818.999	0.0137241
819.078	0.0136643
819.156	0.0136637
819.234	0.0138380
819.312	0.0136877
819.390	0.0139054
819.468	0.0138629
819.546	0.0137937
819.624	0.0137673
819.703	0.0138381
819.781	0.0138598
819.859	0.0139285
819.937	0.0139473
820.015	0.0139561
820.093	0.0138558
820.171	0.0137807
820.249	0.0139691
820.328	0.0139225
820.406	0.0140158
820.484	0.0138346
820.562	0.0138467
820.640	0.0138494
820.718	0.0137220
820.796	0.0137810
820.874	0.0136120
820.953	0.0136410
821.031	0.0136169
821.109	0.0135420
821.187	0.0134928
821.265	0.0134956
821.343	0.0132590
821.421	0.0135116
821.499	0.0136230
821.578	0.0135134
821.656	0.0135622
821.734	0.0134533
821.812	0.0135923
821.890	0.0134886
821.968	0.0134458
822.046	0.0134561
822.124	0.0135892
822.203	0.0137086
822.281	0.0136861
822.359	0.0135565
822.437	0.0136562
822.515	0.0136169
822.593	0.0137015
822.671	0.0136983
822.749	0.0135394
822.828	0.0135902
822.906	0.0136180
822.984	0.0136639
823.062	0.0137280
823.140	0.0138318
823.218	0.0137949
823.296	0.0138544
823.374	0.0136285
823.453	0.0137977
823.531	0.0137572
823.609	0.0137719
823.687	0.0138641
823.765	0.0138571
823.843	0.0139263
823.921	0.0138757
823.999	0.0138074
824.078	0.0137472
824.156	0.0138673
824.234	0.0139282
824.312	0.0138441
824.390	0.0138801
824.468	0.0138486
824.546	0.0138085
824.624	0.0138607
824.703	0.0136947
824.781	0.0139017
824.859	0.0137154
824.937	0.0137761
825.015	0.0138489
825.093	0.0137472
825.171	0.0138507
825.249	0.0138140
825.328	0.0137402
825.406	0.0138727
825.484	0.0137634
825.562	0.0136840
825.640	0.0137553
825.718	0.0136755
825.796	0.0135550
825.874	0.0137011
825.953	0.0137128
826.031	0.0137809
826.109	0.0136270
826.187	0.0137229
826.265	0.0136711
826.343	0.0137068
826.421	0.0136269
826.499	0.0135708
826.578	0.0135554
826.656	0.0136235
826.734	0.0134962
826.812	0.0135838
826.890	0.0135013
826.968	0.0135369
827.046	0.0134640
827.124	0.0135686
827.203	0.0136367
827.281	0.0135514
827.359	0.0135240
827.437	0.0135745
827.515	0.0136755
827.593	0.0136098
827.671	0.0135963
827.749	0.0137070
827.828	0.0136665
827.906	0.0137681
827.984	0.0136591
828.062	0.0136772
828.140	0.0138120
828.218	0.0137454
828.296	0.0137886
828.374	0.0137157
828.453	0.0136802
828.531	0.0136706
828.609	0.0136810
828.687	0.0138306
828.765	0.0137880
828.843	0.0137198
828.921	0.0136808
828.999	0.0136761
829.078	0.0136887
829.156	0.0136434
829.234	0.0137930
829.312	0.0137791
829.390	0.0137889
829.468	0.0137346
829.546	0.0137905
829.624	0.0137609
829.703	0.0136279
829.781	0.0137143
829.859	0.0139713
829.937	0.0138113
830.015	0.0138244
830.093	0.0137082
830.171	0.0137641
830.249	0.0138160
830.328	0.0139014
830.406	0.0138535
830.484	0.0139051
830.562	0.0139122
830.640	0.0138866
830.718	0.0138023
830.796	0.0138269
830.874	0.0139191
830.953	0.0139104
831.031	0.0138519
831.109	0.0139211
831.187	0.0137362
831.265	0.0138082
831.343	0.0138647
831.421	0.0137965
831.499	0.0139513
831.578	0.0138120
831.656	0.0138474
831.734	0.0138396
831.812	0.0138653
831.890	0.0138323
831.968	0.0138308
832.046	0.0137044
832.124	0.0136987
832.203	0.0137372
832.281	0.0136602
832.359	0.0137133
832.437	0.0136429
832.515	0.0136990
832.593	0.0136589
832.671	0.0136552
832.749	0.0137839
832.828	0.0135170
832.906	0.0136337
832.984	0.0136074
833.062	0.0137330
833.140	0.0137041
833.218	0.0136553
833.296	0.0136318
833.374	0.0136520
833.453	0.0137904
833.531	0.0137333
833.609	0.0137396
833.687	0.0138092
833.765	0.0139167
833.843	0.0138033
833.921	0.0138363
833.999	0.0139284
834.078	0.0138032
834.156	0.0137726
834.234	0.0138647
834.312	0.0138337
834.390	0.0138869
834.468	0.0138628
834.546	0.0139796
834.624	0.0137876
834.703	0.0137652
834.781	0.0137650
834.859	0.0138407
834.937	0.0138989
835.015	0.0139899
835.093	0.0139313
835.171	0.0139094
835.249	0.0137502
835.328	0.0136291
835.406	0.0138824
835.484	0.0138950
835.562	0.0137840
835.640	0.0138444
835.718	0.0137335
835.796	0.0136803
835.874	0.0136842
835.953	0.0137486
836.031	0.0137154
836.109	0.0136386
836.187	0.0138841
836.265	0.0138364
836.343	0.0137592
836.421	0.0138289
836.499	0.0138978
836.578	0.0136604
836.656	0.0137347
836.734	0.0137482
836.812	0.0138039
836.890	0.0138747
836.968	0.0136223
837.046	0.0134837
837.124	0.0137045
837.203	0.0136461
837.281	0.0135690
837.359	0.0135369
837.437	0.0136640
837.515	0.0135997
837.593	0.0135374
837.671	0.0136632
837.749	0.0135656
837.828	0.0136353
837.906	0.0136574
837.984	0.0136246
838.062	0.0135909
838.140	0.0135326
838.218	0.0136665
838.296	0.0136861
838.374	0.0137254
838.453	0.0136501
838.531	0.0136637
838.609	0.0137969
838.687	0.0137070
838.765	0.0138280
838.843	0.0137937
838.921	0.0136660
838.999	0.0138207
839.078	0.0137289
839.156	0.0136303
839.234	0.0136473
839.312	0.0137743
839.390	0.0136451
839.468	0.0137245
839.546	0.0137241
839.624	0.0138269
839.703	0.0137913
839.781	0.0137482
839.859	0.0138387
839.937	0.0137161
840.015	0.0137256
840.093	0.0138269
840.171	0.0138875
840.249	0.0137955
840.328	0.0136498
840.406	0.0137436
840.484	0.0137676
840.562	0.0137669
840.640	0.0137483
840.718	0.0139013
840.796	0.0137163
840.874	0.0137241
840.953	0.0136931
841.031	0.0137125
841.109	0.0138375
841.187	0.0137714
841.265	0.0137379
841.343	0.0137010
841.421	0.0138141
841.499	0.0137884
841.578	0.0138419
841.656	0.0138255
841.734	0.0137538
841.812	0.0137575
841.890	0.0137610
841.968	0.0136977
842.046	0.0137103
842.124	0.0138349
842.203	0.0138000
842.281	0.0138618
842.359	0.0137468
842.437	0.0138269
842.515	0.0137228
842.593	0.0137283
842.671	0.0137193
842.749	0.0136660
842.828	0.0137024
842.906	0.0136534
842.984	0.0136977
843.062	0.0137615
843.140	0.0137955
843.218	0.0136269
843.296	0.0138013
843.374	0.0137551
843.453	0.0136675
843.531	0.0137251
843.609	0.0137549
843.687	0.0137010
843.765	0.0136399
843.843	0.0135915
843.921	0.0134383
843.999	0.0137552
844.078	0.0137037
844.156	0.0136938
844.234	0.0136877
844.312	0.0138039
844.390	0.0137784
844.468	0.0138116
844.546	0.0136896
844.624	0.0136457
844.703	0.0138567
844.781	0.0138662
844.859	0.0138660
844.937	0.0137772
845.015	0.0137258
845.093	0.0136760
845.171	0.0139043
845.249	0.0137965
845.328	0.0137212
845.406	0.0138350
845.484	0.0138472
845.562	0.0137762
845.640	0.0137949
845.718	0.0138863
845.796	0.0139330
845.874	0.0138554
845.953	0.0137605
846.031	0.0136699
846.109	0.0136894
846.187	0.0137289
846.265	0.0134926
846.343	0.0135861
846.421	0.0137375
846.499	0.0137694
846.578	0.0136873
846.656	0.0136654
846.734	0.0136640
846.812	0.0136755
846.890	0.0136226
846.968	0.0137970
847.046	0.0136578
847.124	0.0137342
847.203	0.0137060
847.281	0.0136987
847.359	0.0136546
847.437	0.0137649
847.515	0.0137265
847.593	0.0136746
847.671	0.0136956
847.749	0.0137450
847.828	0.0137071
847.906	0.0136864
847.984	0.0136928
848.062	0.0137077
848.140	0.0135405
848.218	0.0137369
848.296	0.0137344
848.374	0.0135950
848.453	0.0137012
848.531	0.0136127
848.609	0.0136294
848.687	0.0135741
848.765	0.0135941
848.843	0.0137670
848.921	0.0136832
848.999	0.0136059
849.078	0.0135356
849.156	0.0136445
849.234	0.0136127
849.312	0.0135287
849.390	0.0137511
849.468	0.0137178
849.546	0.0136127
849.624	0.0137662
849.703	0.0137482
849.781	0.0138052
849.859	0.0138720
849.937	0.0138492
850.015	0.0138641
850.093	0.0138158
850.171	0.0139855
850.249	0.0138406
850.328	0.0139185
850.406	0.0138999
850.484	0.0139973
850.562	0.0139131
850.640	0.0138028
850.718	0.0138467
850.796	0.0139281
850.874	0.0137837
850.953	0.0137594
851.031	0.0137434
851.109	0.0137195
851.187	0.0138052
851.265	0.0137787
851.343	0.0137729
851.421	0.0137891
851.499	0.0138003
851.578	0.0136372
851.656	0.0136697
851.734	0.0136093
851.812	0.0136159
851.890	0.0137720
851.968	0.0136290
852.046	0.0136984
852.124	0.0137355
852.203	0.0137315
852.281	0.0137318
852.359	0.0137960
852.437	0.0136777
852.515	0.0136729
852.593	0.0138037
852.671	0.0139179
852.749	0.0138030
852.828	0.0139108
852.906	0.0138854
852.984	0.0138444
853.062	0.0138641
853.140	0.0137691
853.218	0.0139571
853.296	0.0137183
853.374	0.0137426
853.453	0.0139107
853.531	0.0137639
853.609	0.0137527
853.687	0.0137765
853.765	0.0138335
853.843	0.0136796
853.921	0.0138354
853.999	0.0136859
854.078	0.0136688
854.156	0.0136251
854.234	0.0137170
854.312	0.0137405
854.390	0.0137090
854.468	0.0136934
854.546	0.0137675
854.624	0.0137692
854.703	0.0137315
854.781	0.0137748
854.859	0.0137410
854.937	0.0137709
855.015	0.0138533
855.093	0.0138274
855.171	0.0137186
855.249	0.0137807
855.328	0.0137779
855.406	0.0138620
855.484	0.0139888
855.562	0.0138658
855.640	0.0138978
855.718	0.0139968
855.796	0.0138692
855.874	0.0138354
855.953	0.0138796
856.031	0.0138543
856.109	0.0138448
856.187	0.0137814
856.265	0.0137525
856.343	0.0137605
856.421	0.0137077
856.499	0.0137598
856.578	0.0137037
856.656	0.0137436
856.734	0.0136522
856.812	0.0135504
856.890	0.0137545
856.968	0.0137182
857.046	0.0136584
857.124	0.0138279
857.203	0.0138779
857.281	0.0137731
857.359	0.0136410
857.437	0.0138065
857.515	0.0139662
857.593	0.0137725
857.671	0.0136440
857.749	0.0138300
857.828	0.0136871
857.906	0.0138279
857.984	0.0137960
858.062	0.0138665
858.140	0.0136081
858.218	0.0137698
858.296	0.0137943
858.374	0.0136895
858.453	0.0137208
858.531	0.0137497
858.609	0.0137691
858.687	0.0137015
858.765	0.0137208
858.843	0.0135902
858.921	0.0138203
858.999	0.0136131
859.078	0.0136979
859.156	0.0137038
859.234	0.0135937
859.312	0.0137448
859.390	0.0137469
859.468	0.0138256
859.546	0.0138513
859.624	0.0137615
859.703	0.0137919
859.781	0.0137609
859.859	0.0136684
859.937	0.0136842
860.015	0.0137236
860.093	0.0137096
860.171	0.0136197
860.249	0.0136939
860.328	0.0135811
860.406	0.0137716
860.484	0.0137677
860.562	0.0137957
860.640	0.0137671
860.718	0.0138844
860.796	0.0138393
860.874	0.0137756
860.953	0.0137241
861.031	0.0137918
861.109	0.0138914
861.187	0.0138921
861.265	0.0138058
861.343	0.0139111
861.421	0.0137566
861.499	0.0137084
861.578	0.0138007
861.656	0.0137731
861.734	0.0137675
861.812	0.0138187
861.890	0.0137486
861.968	0.0136961
862.046	0.0137341
862.124	0.0136546
862.203	0.0135586
862.281	0.0136225
862.359	0.0135262
862.437	0.0135604
862.515	0.0136810
862.593	0.0136874
862.671	0.0136066
862.749	0.0136253
862.828	0.0137374
862.906	0.0136578
862.984	0.0136673
863.062	0.0137188
863.140	0.0136432
863.218	0.0136292
863.296	0.0138268
863.374	0.0137381
863.453	0.0136285
863.531	0.0137573
863.609	0.0137431
863.687	0.0137660
863.765	0.0136881
863.843	0.0137771
863.921	0.0137855
863.999	0.0137141
864.078	0.0137383
864.156	0.0136653
864.234	0.0137495
864.312	0.0137910
864.390	0.0139118
864.468	0.0136998
864.546	0.0137346
864.624	0.0137843
864.703	0.0135979
864.781	0.0137873
864.859	0.0136369
864.937	0.0136857
865.015	0.0138105
865.093	0.0136980
865.171	0.0136988
865.249	0.0137133
865.328	0.0136118
865.406	0.0136338
865.484	0.0136304
865.562	0.0137604
865.640	0.0137015
865.718	0.0137623
865.796	0.0136601
865.874	0.0137121
865.953	0.0137386
866.031	0.0137952
866.109	0.0136835
866.187	0.0137670
866.265	0.0137254
866.343	0.0137511
866.421	0.0136575
866.499	0.0138029
866.578	0.0137202
866.656	0.0137779
866.734	0.0137051
866.812	0.0137159
866.890	0.0136952
866.968	0.0137059
867.046	0.0136627
867.124	0.0136705
867.203	0.0136520
867.281	0.0137167
867.359	0.0136681
867.437	0.0138385
867.515	0.0136729
867.593	0.0137589
867.671	0.0138178
867.749	0.0138544
867.828	0.0136986
867.906	0.0137315
867.984	0.0137625
868.062	0.0137585
868.140	0.0137303
868.218	0.0135889
868.296	0.0135390
868.374	0.0137318
868.453	0.0136180
868.531	0.0136948
868.609	0.0138526
868.687	0.0135867
868.765	0.0137170
868.843	0.0137907
868.921	0.0137730
868.999	0.0137688
869.078	0.0137181
869.156	0.0137988
869.234	0.0138792
869.312	0.0139202
869.390	0.0140681
869.468	0.0139255
869.546	0.0138963
869.624	0.0138474
869.703	0.0139693
869.781	0.0140414
869.859	0.0138461
869.937	0.0138567
870.015	0.0137655
870.093	0.0137303
870.171	0.0137103
870.249	0.0138144
870.328	0.0138171
870.406	0.0137051
870.484	0.0137041
870.562	0.0136717
870.640	0.0137110
870.718	0.0137247
870.796	0.0135817
870.874	0.0137746
870.953	0.0137498
871.031	0.0137344
871.109	0.0137060
871.187	0.0137447
871.265	0.0138972
871.343	0.0137571
871.421	0.0138677
871.499	0.0138816
871.578	0.0139050
871.656	0.0136900
871.734	0.0138682
871.812	0.0136949
871.890	0.0136375
871.968	0.0139015
872.046	0.0138114
872.124	0.0137034
872.203	0.0137766
872.281	0.0135739
872.359	0.0136826
872.437	0.0136720
872.515	0.0137119
872.593	0.0136694
872.671	0.0136757
872.749	0.0134865
872.828	0.0135842
872.906	0.0137754
872.984	0.0137373
873.062	0.0136461
873.140	0.0136886
873.218	0.0136305
873.296	0.0136436
873.374	0.0137785
873.453	0.0137904
873.531	0.0137297
873.609	0.0136889
873.687	0.0137854
873.765	0.0138784
873.843	0.0138881
873.921	0.0137366
873.999	0.0139024
874.078	0.0138962
874.156	0.0139323
874.234	0.0139140
874.312	0.0138274
874.390	0.0136421
874.468	0.0139239
874.546	0.0137585
874.624	0.0137904
874.703	0.0136626
874.781	0.0138246
874.859	0.0138818
874.937	0.0137936
875.015	0.0137969
875.093	0.0137383
875.171	0.0136938
875.249	0.0138969
875.328	0.0138083
875.406	0.0136754
875.484	0.0136637
875.562	0.0138188
875.640	0.0136576
875.718	0.0136858
875.796	0.0138399
875.874	0.0138270
875.953	0.0137882
876.031	0.0136623
876.109	0.0136517
876.187	0.0136137
876.265	0.0137984
876.343	0.0136537
876.421	0.0136922
876.499	0.0136359
876.578	0.0137283
876.656	0.0135987
876.734	0.0136724
876.812	0.0137962
876.890	0.0136491
876.968	0.0136167
877.046	0.0135432
877.124	0.0136120
877.203	0.0137107
877.281	0.0136920
877.359	0.0135580
877.437	0.0135487
877.515	0.0136671
877.593	0.0136299
877.671	0.0136826
877.749	0.0138044
877.828	0.0136779
877.906	0.0136558
877.984	0.0137742
878.062	0.0138289
878.140	0.0137582
878.218	0.0136494
878.296	0.0138438
878.374	0.0138560
878.453	0.0138801
878.531	0.0139514
878.609	0.0139597
878.687	0.0137408
878.765	0.0138977
878.843	0.0139203
878.921	0.0138780
878.999	0.0139063
879.078	0.0137881
879.156	0.0139518
879.234	0.0138931
879.312	0.0136830
879.390	0.0137751
879.468	0.0136613
879.546	0.0137982
879.624	0.0138436
879.703	0.0137835
879.781	0.0137979
879.859	0.0136840
879.937	0.0137640
880.015	0.0135968
880.093	0.0137149
880.171	0.0137542
880.249	0.0138412
880.328	0.0137897
880.406	0.0138065
880.484	0.0137428
880.562	0.0137701
880.640	0.0138018
880.718	0.0137046
880.796	0.0136797
880.874	0.0138052
880.953	0.0137991
881.031	0.0137058
881.109	0.0137450
881.187	0.0138037
881.265	0.0137470
881.343	0.0137067
881.421	0.0136333
881.499	0.0136594
881.578	0.0136881
881.656	0.0137161
881.734	0.0136377
881.812	0.0136590
881.890	0.0136501
881.968	0.0136670
882.046	0.0136425
882.124	0.0136131
882.203	0.0136818
882.281	0.0137856
882.359	0.0136917
882.437	0.0135869
882.515	0.0136768
882.593	0.0137656
882.671	0.0137642
882.749	0.0136941
882.828	0.0137962
882.906	0.0137525
882.984	0.0138149
883.062	0.0137994
883.140	0.0137343
883.218	0.0138770
883.296	0.0137725
883.374	0.0137622
883.453	0.0134837
883.531	0.0137060
883.609	0.0137971
883.687	0.0136468
883.765	0.0137412
883.843	0.0137225
883.921	0.0135707
883.999	0.0137560
884.078	0.0138046
884.156	0.0138023
884.234	0.0139694
884.312	0.0139601
884.390	0.0139137
884.468	0.0138017
884.546	0.0138340
884.624	0.0138738
884.703	0.0139014
884.781	0.0138075
884.859	0.0138856
884.937	0.0136392
885.015	0.0137903
885.093	0.0137539
885.171	0.0138752
885.249	0.0137062
885.328	0.0136012
885.406	0.0136518
885.484	0.0136118
885.562	0.0138185
885.640	0.0137060
885.718	0.0137208
885.796	0.0137579
885.874	0.0136458
885.953	0.0135585
886.031	0.0137364
886.109	0.0137622
886.187	0.0137071
886.265	0.0137230
886.343	0.0136683
886.421	0.0136893
886.499	0.0137627
886.578	0.0136330
886.656	0.0136260
886.734	0.0136487
886.812	0.0135196
886.890	0.0137266
886.968	0.0134032
887.046	0.0134476
887.124	0.0137244
887.203	0.0136402
887.281	0.0136211
887.359	0.0135986
887.437	0.0136324
887.515	0.0137316
887.593	0.0135535
887.671	0.0137006
887.749	0.0137191
887.828	0.0139000
887.906	0.0136627
887.984	0.0137855
888.062	0.0137618
888.140	0.0138973
888.218	0.0137349
888.296	0.0137063
888.374	0.0137339
888.453	0.0136984
888.531	0.0137948
888.609	0.0136430
888.687	0.0137690
888.765	0.0136818
888.843	0.0137415
888.921	0.0136089
888.999	0.0136890
889.078	0.0138607
889.156	0.0138608
889.234	0.0138331
889.312	0.0137389
889.390	0.0139128
889.468	0.0138609
889.546	0.0138683
889.624	0.0137980
889.703	0.0139026
889.781	0.0139501
889.859	0.0138318
889.937	0.0138351
890.015	0.0138071
890.093	0.0138000
890.171	0.0137069
890.249	0.0136892
890.328	0.0137318
890.406	0.0137811
890.484	0.0137089
890.562	0.0136816
890.640	0.0136222
890.718	0.0136251
890.796	0.0137048
890.874	0.0138696
890.953	0.0136835
891.031	0.0135429
891.109	0.0137069
891.187	0.0138415
891.265	0.0137474
891.343	0.0137648
891.421	0.0137497
891.499	0.0137556
891.578	0.0137379
891.656	0.0138197
891.734	0.0136942
891.812	0.0137007
891.890	0.0137809
891.968	0.0137621
892.046	0.0136522
892.124	0.0138199
892.203	0.0136509
892.281	0.0137823
892.359	0.0137446
892.437	0.0136810
892.515	0.0136932
892.593	0.0135595
892.671	0.0136449
892.749	0.0138371
892.828	0.0137960
892.906	0.0138388
892.984	0.0136386
893.062	0.0137353
893.140	0.0137856
893.218	0.0137678
893.296	0.0137679
893.374	0.0136889
893.453	0.0137749
893.531	0.0137851
893.609	0.0137916
893.687	0.0137461
893.765	0.0136546
893.843	0.0138700
893.921	0.0137566
893.999	0.0138367
894.078	0.0138185
894.156	0.0137976
894.234	0.0138749
894.312	0.0138721
894.390	0.0138792
894.468	0.0140295
894.546	0.0139297
894.624	0.0138988
894.703	0.0139079
894.781	0.0140072
894.859	0.0138258
894.937	0.0137624
895.015	0.0137627
895.093	0.0136534
895.171	0.0137299
895.249	0.0136364
895.328	0.0137034
895.406	0.0136371
895.484	0.0136106
895.562	0.0136682
895.640	0.0135448
895.718	0.0135355
895.796	0.0134818
895.874	0.0134443
895.953	0.0135441
896.031	0.0134745
896.109	0.0136690
896.187	0.0135147
896.265	0.0136354
896.343	0.0137939
896.421	0.0136082
896.499	0.0137402
896.578	0.0136324
896.656	0.0136079
896.734	0.0135365
896.812	0.0137284
896.890	0.0137862
896.968	0.0135977
897.046	0.0137293
897.124	0.0138063
897.203	0.0138605
897.281	0.0137101
897.359	0.0138121
897.437	0.0137202
897.515	0.0136790
897.593	0.0139125
897.671	0.0138204
897.749	0.0137133
897.828	0.0139507
897.906	0.0138136
897.984	0.0137449
898.062	0.0137506
898.140	0.0138533
898.218	0.0136724
898.296	0.0136452
898.374	0.0136494
898.453	0.0136728
898.531	0.0136150
898.609	0.0136653
898.687	0.0135992
898.765	0.0135255
898.843	0.0135598
898.921	0.0135713
898.999	0.0136295
899.078	0.0136674
899.156	0.0136712
899.234	0.0136913
899.312	0.0138219
899.390	0.0138307
899.468	0.0138918
899.546	0.0138701
899.624	0.0138858
899.703	0.0138764
899.781	0.0139403
899.859	0.0138675
899.937	0.0137057
900.015	0.0138624
900.093	0.0138685
900.171	0.0138213
900.249	0.0135776
900.328	0.0136980
900.406	0.0136376
900.484	0.0137008
900.562	0.0135356
900.640	0.0135237
900.718	0.0136291
900.796	0.0135565
900.874	0.0136739
900.953	0.0136341
901.031	0.0136870
901.109	0.0136452
901.187	0.0137325
901.265	0.0136962
901.343	0.0136712
901.421	0.0137425
901.499	0.0136619
901.578	0.0139458
901.656	0.0137057
901.734	0.0137164
901.812	0.0137888
901.890	0.0138074
901.968	0.0138603
902.046	0.0137899
902.124	0.0138219
902.203	0.0138306
902.281	0.0138476
902.359	0.0137794
902.437	0.0138856
902.515	0.0139647
902.593	0.0138390
902.671	0.0138205
902.749	0.0137961
902.828	0.0136869
902.906	0.0136758
902.984	0.0136799
903.062	0.0136916
903.140	0.0136307
903.218	0.0135172
903.296	0.0136065
903.374	0.0135031
903.453	0.0136398
903.531	0.0136551
903.609	0.0135385
903.687	0.0135136
903.765	0.0134366
903.843	0.0135052
903.921	0.0135456
903.999	0.0136137
904.078	0.0136991
904.156	0.0137104
904.234	0.0135940
904.312	0.0136725
904.390	0.0137445
904.468	0.0137477
904.546	0.0138420
904.624	0.0138316
904.703	0.0138757
904.781	0.0139613
904.859	0.0140092
904.937	0.0138435
905.015	0.0139965
905.093	0.0139454
905.171	0.0139360
905.249	0.0140159
905.328	0.0139796
905.406	0.0137270
905.484	0.0137244
905.562	0.0138511
905.640	0.0137002
905.718	0.0137437
905.796	0.0137183
905.874	0.0136033
905.953	0.0135185
906.031	0.0135318
906.109	0.0136202
906.187	0.0137635
906.265	0.0136528
906.343	0.0137187
906.421	0.0136350
906.499	0.0136103
906.578	0.0137233
906.656	0.0137216
906.734	0.0137025
906.812	0.0136086
906.890	0.0136608
906.968	0.0139518
907.046	0.0138145
907.124	0.0137731
907.203	0.0138094
907.281	0.0138187
907.359	0.0138245
907.437	0.0138120
907.515	0.0138613
907.593	0.0137774
907.671	0.0137233
907.749	0.0137428
907.828	0.0137903
907.906	0.0136261
907.984	0.0136050
908.062	0.0135284
908.140	0.0135455
908.218	0.0136593
908.296	0.0134397
908.374	0.0136123
908.453	0.0136222
908.531	0.0135854
908.609	0.0137041
908.687	0.0134779
908.765	0.0134647
908.843	0.0136605
908.921	0.0136097
908.999	0.0135117
909.078	0.0136187
909.156	0.0136618
909.234	0.0136661
909.312	0.0137147
909.390	0.0137304
909.468	0.0137258
909.546	0.0137392
909.624	0.0137233
909.703	0.0138183
909.781	0.0139074
909.859	0.0137859
909.937	0.0138221
910.015	0.0139956
910.093	0.0138586
910.171	0.0139748
910.249	0.0140236
910.328	0.0140006
910.406	0.0138332
910.484	0.0139708
910.562	0.0140241
910.640	0.0138702
910.718	0.0138634
910.796	0.0139092
910.874	0.0136874
910.953	0.0136794
911.031	0.0137960
911.109	0.0136121
911.187	0.0135614
911.265	0.0135925
911.343	0.0136386
911.421	0.0135417
911.499	0.0137540
911.578	0.0135283
911.656	0.0135825
911.734	0.0136182
911.812	0.0135170
911.890	0.0136999
911.968	0.0137534
912.046	0.0136973
912.124	0.0137326
912.203	0.0136117
912.281	0.0137354
912.359	0.0138911
912.437	0.0138049
912.515	0.0138125
912.593	0.0138001
912.671	0.0137083
912.749	0.0138531
912.828	0.0137608
912.906	0.0137196
912.984	0.0136984
913.062	0.0138100
913.140	0.0137165
913.218	0.0136475
913.296	0.0136596
913.374	0.0137212
913.453	0.0137069
913.531	0.0137471
913.609	0.0137296
913.687	0.0136800
913.765	0.0137158
913.843	0.0137170
913.921	0.0137326
913.999	0.0138356
914.078	0.0137427
914.156	0.0138131
914.234	0.0138916
914.312	0.0138206
914.390	0.0137638
914.468	0.0137174
914.546	0.0136668
914.624	0.0137199
914.703	0.0137334
914.781	0.0137774
914.859	0.0137873
914.937	0.0137578
915.015	0.0136850
915.093	0.0138626
915.171	0.0138113
915.249	0.0139961
915.328	0.0138613
915.406	0.0138419
915.484	0.0138932
915.562	0.0137839
915.640	0.0139257
915.718	0.0137833
915.796	0.0139224
915.874	0.0139333
915.953	0.0137759
916.031	0.0136208
916.109	0.0138091
916.187	0.0137048
916.265	0.0138389
916.343	0.0137329
916.421	0.0137130
916.499	0.0137075
916.578	0.0136656
916.656	0.0135955
916.734	0.0135619
916.812	0.0136388
916.890	0.0135831
916.968	0.0136100
917.046	0.0136629
917.124	0.0136508
917.203	0.0136391
917.281	0.0136840
917.359	0.0137815
917.437	0.0137444
917.515	0.0138940
917.593	0.0139684
917.671	0.0139235
917.749	0.0137941
917.828	0.0138816
917.906	0.0137942
917.984	0.0137499
918.062	0.0139442
918.140	0.0138566
918.218	0.0138712
918.296	0.0139134
918.374	0.0138154
918.453	0.0138940
918.531	0.0137396
918.609	0.0137915
918.687	0.0137577
918.765	0.0137826
918.843	0.0137234
918.921	0.0137177
918.999	0.0137580
919.078	0.0138422
919.156	0.0137498
919.234	0.0137314
919.312	0.0137479
919.390	0.0136971
919.468	0.0137573
919.546	0.0138915
919.624	0.0136714
919.703	0.0136762
919.781	0.0136314
919.859	0.0137909
919.937	0.0137752
