05/06/2022	18:53:24	Ver.	4.1	UNKNOWN
Optical Delay	600.015094	Delta X		0.078125	Sweeps	1	Scan Rate	0/0
Coordinates	Axis 1	NaN	Axis 2	NaN	Axis 3	NaN	Axis 4	NaN	Axis 5	NaN	Axis 6	0.000000
TX Power	0.000000	RX Power	0.000000

600.015	0.0138311
600.093	0.0137139
600.171	0.0137908
600.249	0.0140473
600.328	0.0136755
600.406	0.0139294
600.484	0.0138945
600.562	0.0137586
600.640	0.0137142
600.718	0.0138823
600.796	0.0138393
600.874	0.0138190
600.953	0.0139774
601.031	0.0138395
601.109	0.0138230
601.187	0.0138482
601.265	0.0138812
601.343	0.0138200
601.421	0.0139319
601.499	0.0138840
601.578	0.0138699
601.656	0.0137518
601.734	0.0138667
601.812	0.0139119
601.890	0.0139214
601.968	0.0137109
602.046	0.0138530
602.124	0.0139939
602.203	0.0139474
602.281	0.0137351
602.359	0.0137607
602.437	0.0139202
602.515	0.0138770
602.593	0.0137701
602.671	0.0137661
602.749	0.0138854
602.828	0.0138560
602.906	0.0137656
602.984	0.0140086
603.062	0.0138568
603.140	0.0138873
603.218	0.0138474
603.296	0.0138408
603.374	0.0138564
603.453	0.0138333
603.531	0.0137775
603.609	0.0138853
603.687	0.0140101
603.765	0.0140565
603.843	0.0137435
603.921	0.0136905
603.999	0.0138694
604.078	0.0138927
604.156	0.0138459
604.234	0.0137840
604.312	0.0139162
604.390	0.0137930
604.468	0.0138165
604.546	0.0138585
604.624	0.0139366
604.703	0.0137666
604.781	0.0138180
604.859	0.0138084
604.937	0.0138127
605.015	0.0138860
605.093	0.0138127
605.171	0.0137250
605.249	0.0138493
605.328	0.0138985
605.406	0.0138333
605.484	0.0138774
605.562	0.0138882
605.640	0.0138960
605.718	0.0138714
605.796	0.0139481
605.874	0.0138316
605.953	0.0140274
606.031	0.0137783
606.109	0.0138242
606.187	0.0139151
606.265	0.0138538
606.343	0.0139419
606.421	0.0138754
606.499	0.0137383
606.578	0.0138663
606.656	0.0139694
606.734	0.0137939
606.812	0.0137690
606.890	0.0139087
606.968	0.0137389
607.046	0.0140361
607.124	0.0139027
607.203	0.0139502
607.281	0.0137842
607.359	0.0137972
607.437	0.0140024
607.515	0.0139680
607.593	0.0139242
607.671	0.0139192
607.749	0.0138799
607.828	0.0139715
607.906	0.0137702
607.984	0.0137533
608.062	0.0138831
608.140	0.0139120
608.218	0.0138181
608.296	0.0138158
608.374	0.0139710
608.453	0.0139394
608.531	0.0138681
608.609	0.0136572
608.687	0.0136684
608.765	0.0138941
608.843	0.0138905
608.921	0.0138789
608.999	0.0139568
609.078	0.0137805
609.156	0.0138046
609.234	0.0138830
609.312	0.0136818
609.390	0.0139291
609.468	0.0138160
609.546	0.0138498
609.624	0.0139398
609.703	0.0139720
609.781	0.0138560
609.859	0.0138651
609.937	0.0136471
610.015	0.0138033
610.093	0.0138513
610.171	0.0138587
610.249	0.0138898
610.328	0.0139371
610.406	0.0137291
610.484	0.0138184
610.562	0.0138941
610.640	0.0138488
610.718	0.0138361
610.796	0.0137248
610.874	0.0138355
610.953	0.0138186
611.031	0.0138607
611.109	0.0137851
611.187	0.0138631
611.265	0.0138954
611.343	0.0138554
611.421	0.0137041
611.499	0.0139185
611.578	0.0137780
611.656	0.0138091
611.734	0.0138499
611.812	0.0137546
611.890	0.0138026
611.968	0.0138210
612.046	0.0137974
612.124	0.0137025
612.203	0.0137801
612.281	0.0139405
612.359	0.0137778
612.437	0.0137234
612.515	0.0138017
612.593	0.0137823
612.671	0.0138207
612.749	0.0138431
612.828	0.0138204
612.906	0.0138210
612.984	0.0138356
613.062	0.0137129
613.140	0.0138577
613.218	0.0138907
613.296	0.0138286
613.374	0.0138765
613.453	0.0137621
613.531	0.0138988
613.609	0.0138615
613.687	0.0138235
613.765	0.0138381
613.843	0.0139262
613.921	0.0138223
613.999	0.0135724
614.078	0.0136944
614.156	0.0140500
614.234	0.0137799
614.312	0.0137202
614.390	0.0136186
614.468	0.0138539
614.546	0.0137996
614.624	0.0136268
614.703	0.0137040
614.781	0.0137822
614.859	0.0139589
614.937	0.0139167
615.015	0.0137736
615.093	0.0137606
615.171	0.0137773
615.249	0.0138530
615.328	0.0137421
615.406	0.0138422
615.484	0.0138297
615.562	0.0139537
615.640	0.0137357
615.718	0.0136977
615.796	0.0139015
615.874	0.0139223
615.953	0.0137757
616.031	0.0138361
616.109	0.0138416
616.187	0.0138246
616.265	0.0138161
616.343	0.0138460
616.421	0.0139442
616.499	0.0138211
616.578	0.0138739
616.656	0.0138223
616.734	0.0138326
616.812	0.0138068
616.890	0.0138094
616.968	0.0137381
617.046	0.0138966
617.124	0.0139613
617.203	0.0137591
617.281	0.0138320
617.359	0.0137045
617.437	0.0138003
617.515	0.0138910
617.593	0.0137295
617.671	0.0138458
617.749	0.0138710
617.828	0.0139750
617.906	0.0137843
617.984	0.0137990
618.062	0.0138698
618.140	0.0139414
618.218	0.0138622
618.296	0.0139032
618.374	0.0139230
618.453	0.0137945
618.531	0.0138080
618.609	0.0139046
618.687	0.0137581
618.765	0.0139267
618.843	0.0139278
618.921	0.0139259
618.999	0.0138634
619.078	0.0136502
619.156	0.0138488
619.234	0.0138251
619.312	0.0139718
619.390	0.0137654
619.468	0.0138213
619.546	0.0137669
619.624	0.0138738
619.703	0.0139277
619.781	0.0138702
619.859	0.0138529
619.937	0.0138229
620.015	0.0138761
620.093	0.0137650
620.171	0.0138659
620.249	0.0138519
620.328	0.0138889
620.406	0.0138463
620.484	0.0139403
620.562	0.0139051
620.640	0.0138521
620.718	0.0137896
620.796	0.0138477
620.874	0.0137917
620.953	0.0137988
621.031	0.0138396
621.109	0.0139081
621.187	0.0138527
621.265	0.0139113
621.343	0.0138924
621.421	0.0137799
621.499	0.0137955
621.578	0.0138554
621.656	0.0139273
621.734	0.0138413
621.812	0.0138968
621.890	0.0137690
621.968	0.0138654
622.046	0.0138321
622.124	0.0138097
622.203	0.0138624
622.281	0.0138871
622.359	0.0139163
622.437	0.0137747
622.515	0.0138245
622.593	0.0139262
622.671	0.0138882
622.749	0.0137965
622.828	0.0138139
622.906	0.0137189
622.984	0.0138100
623.062	0.0137093
623.140	0.0139764
623.218	0.0138055
623.296	0.0138381
623.374	0.0137599
623.453	0.0138461
623.531	0.0139653
623.609	0.0137725
623.687	0.0137729
623.765	0.0139217
623.843	0.0138483
623.921	0.0137808
623.999	0.0139509
624.078	0.0140253
624.156	0.0138319
624.234	0.0137482
624.312	0.0139376
624.390	0.0137733
624.468	0.0140409
624.546	0.0140130
624.624	0.0137988
624.703	0.0138078
624.781	0.0138326
624.859	0.0136784
624.937	0.0138166
625.015	0.0138844
625.093	0.0137367
625.171	0.0139885
625.249	0.0139142
625.328	0.0138591
625.406	0.0138559
625.484	0.0138820
625.562	0.0137207
625.640	0.0137991
625.718	0.0139760
625.796	0.0138649
625.874	0.0139319
625.953	0.0140354
626.031	0.0138327
626.109	0.0138893
626.187	0.0137926
626.265	0.0139048
626.343	0.0139626
626.421	0.0138919
626.499	0.0138107
626.578	0.0138233
626.656	0.0138867
626.734	0.0139220
626.812	0.0139053
626.890	0.0138438
626.968	0.0137887
627.046	0.0138378
627.124	0.0137859
627.203	0.0137542
627.281	0.0138504
627.359	0.0137695
627.437	0.0138387
627.515	0.0138511
627.593	0.0137913
627.671	0.0138884
627.749	0.0139837
627.828	0.0137804
627.906	0.0135796
627.984	0.0136980
628.062	0.0137284
628.140	0.0138646
628.218	0.0138063
628.296	0.0139006
628.374	0.0138092
628.453	0.0137991
628.531	0.0139413
628.609	0.0140002
628.687	0.0136758
628.765	0.0138555
628.843	0.0137484
628.921	0.0138432
628.999	0.0140369
629.078	0.0139826
629.156	0.0138216
629.234	0.0138622
629.312	0.0136765
629.390	0.0137557
629.468	0.0138274
629.546	0.0139185
629.624	0.0138873
629.703	0.0138869
629.781	0.0139518
629.859	0.0137640
629.937	0.0137636
630.015	0.0138975
630.093	0.0138734
630.171	0.0137864
630.249	0.0136446
630.328	0.0138330
630.406	0.0139468
630.484	0.0138996
630.562	0.0137152
630.640	0.0137941
630.718	0.0138583
630.796	0.0138667
630.874	0.0138787
630.953	0.0137290
631.031	0.0138303
631.109	0.0137981
631.187	0.0139769
631.265	0.0138162
631.343	0.0138297
631.421	0.0138112
631.499	0.0137705
631.578	0.0137810
631.656	0.0137991
631.734	0.0137784
631.812	0.0137212
631.890	0.0138924
631.968	0.0138017
632.046	0.0138998
632.124	0.0137605
632.203	0.0138622
632.281	0.0138068
632.359	0.0138434
632.437	0.0139248
632.515	0.0138855
632.593	0.0138661
632.671	0.0138713
632.749	0.0137604
632.828	0.0139225
632.906	0.0138100
632.984	0.0137748
633.062	0.0137519
633.140	0.0137625
633.218	0.0138667
633.296	0.0138749
633.374	0.0138113
633.453	0.0137479
633.531	0.0140216
633.609	0.0137975
633.687	0.0138893
633.765	0.0139151
633.843	0.0138286
633.921	0.0137696
633.999	0.0139336
634.078	0.0138196
634.156	0.0138065
634.234	0.0138488
634.312	0.0138589
634.390	0.0139077
634.468	0.0137788
634.546	0.0138831
634.624	0.0138320
634.703	0.0138203
634.781	0.0137366
634.859	0.0138051
634.937	0.0139043
635.015	0.0137371
635.093	0.0137749
635.171	0.0137347
635.249	0.0138148
635.328	0.0139259
635.406	0.0138270
635.484	0.0137673
635.562	0.0138918
635.640	0.0138431
635.718	0.0138231
635.796	0.0138297
635.874	0.0139108
635.953	0.0138311
636.031	0.0136829
636.109	0.0138853
636.187	0.0138900
636.265	0.0138474
636.343	0.0137482
636.421	0.0138560
636.499	0.0137759
636.578	0.0137537
636.656	0.0137994
636.734	0.0138210
636.812	0.0138390
636.890	0.0137717
636.968	0.0137438
637.046	0.0138628
637.124	0.0138857
637.203	0.0138455
637.281	0.0137175
637.359	0.0139115
637.437	0.0138154
637.515	0.0138848
637.593	0.0138644
637.671	0.0138788
637.749	0.0138822
637.828	0.0138638
637.906	0.0137597
637.984	0.0137165
638.062	0.0136502
638.140	0.0137080
638.218	0.0138152
638.296	0.0137707
638.374	0.0137489
638.453	0.0138513
638.531	0.0138965
638.609	0.0139322
638.687	0.0138840
638.765	0.0138496
638.843	0.0138935
638.921	0.0137164
638.999	0.0138779
639.078	0.0137946
639.156	0.0137960
639.234	0.0137979
639.312	0.0138351
639.390	0.0137918
639.468	0.0138114
639.546	0.0138152
639.624	0.0138096
639.703	0.0139281
639.781	0.0138038
639.859	0.0137833
639.937	0.0137103
640.015	0.0138011
640.093	0.0139025
640.171	0.0137611
640.249	0.0137293
640.328	0.0137762
640.406	0.0137842
640.484	0.0138099
640.562	0.0138056
640.640	0.0135978
640.718	0.0137661
640.796	0.0138424
640.874	0.0138107
640.953	0.0139161
641.031	0.0137947
641.109	0.0137663
641.187	0.0139420
641.265	0.0139703
641.343	0.0138712
641.421	0.0138597
641.499	0.0137858
641.578	0.0139578
641.656	0.0138650
641.734	0.0138219
641.812	0.0138266
641.890	0.0138956
641.968	0.0137405
642.046	0.0138405
642.124	0.0138987
642.203	0.0139192
642.281	0.0138232
642.359	0.0138249
642.437	0.0138014
642.515	0.0138449
642.593	0.0136959
642.671	0.0138242
642.749	0.0140150
642.828	0.0139002
642.906	0.0138331
642.984	0.0139558
643.062	0.0138882
643.140	0.0137880
643.218	0.0138399
643.296	0.0138856
643.374	0.0138344
643.453	0.0137450
643.531	0.0138761
643.609	0.0138686
643.687	0.0136693
643.765	0.0136856
643.843	0.0137537
643.921	0.0138512
643.999	0.0138238
644.078	0.0138282
644.156	0.0137526
644.234	0.0137875
644.312	0.0138007
644.390	0.0137691
644.468	0.0138679
644.546	0.0138407
644.624	0.0137487
644.703	0.0138100
644.781	0.0137009
644.859	0.0137341
644.937	0.0137843
645.015	0.0137208
645.093	0.0136282
645.171	0.0136911
645.249	0.0137936
645.328	0.0138435
645.406	0.0137536
645.484	0.0137700
645.562	0.0139076
645.640	0.0137477
645.718	0.0138499
645.796	0.0139448
645.874	0.0137543
645.953	0.0137361
646.031	0.0139457
646.109	0.0137091
646.187	0.0137027
646.265	0.0137546
646.343	0.0137637
646.421	0.0137897
646.499	0.0138850
646.578	0.0137620
646.656	0.0136638
646.734	0.0136875
646.812	0.0138432
646.890	0.0138982
646.968	0.0139165
647.046	0.0137685
647.124	0.0138806
647.203	0.0139968
647.281	0.0139188
647.359	0.0138366
647.437	0.0138869
647.515	0.0137452
647.593	0.0137801
647.671	0.0138008
647.749	0.0138432
647.828	0.0137501
647.906	0.0139272
647.984	0.0138905
648.062	0.0137807
648.140	0.0138836
648.218	0.0139540
648.296	0.0138865
648.374	0.0138248
648.453	0.0137560
648.531	0.0138973
648.609	0.0138553
648.687	0.0138421
648.765	0.0140353
648.843	0.0137382
648.921	0.0138577
648.999	0.0137817
649.078	0.0139138
649.156	0.0139107
649.234	0.0139567
649.312	0.0138329
649.390	0.0138425
649.468	0.0137653
649.546	0.0137702
649.624	0.0137981
649.703	0.0138354
649.781	0.0138652
649.859	0.0137978
649.937	0.0137311
650.015	0.0138728
650.093	0.0139281
650.171	0.0138602
650.249	0.0139077
650.328	0.0138805
650.406	0.0138314
650.484	0.0139442
650.562	0.0137766
650.640	0.0139095
650.718	0.0138811
650.796	0.0138992
650.874	0.0137907
650.953	0.0138506
651.031	0.0139319
651.109	0.0140605
651.187	0.0139112
651.265	0.0138783
651.343	0.0138699
651.421	0.0139386
651.499	0.0139021
651.578	0.0138689
651.656	0.0139977
651.734	0.0138747
651.812	0.0139225
651.890	0.0139538
651.968	0.0138640
652.046	0.0137309
652.124	0.0138307
652.203	0.0138860
652.281	0.0139007
652.359	0.0139001
652.437	0.0139832
652.515	0.0140366
652.593	0.0137376
652.671	0.0138283
652.749	0.0139537
652.828	0.0139024
652.906	0.0139446
652.984	0.0139780
653.062	0.0137562
653.140	0.0138943
653.218	0.0140342
653.296	0.0138372
653.374	0.0140196
653.453	0.0139281
653.531	0.0138699
653.609	0.0138898
653.687	0.0137646
653.765	0.0137440
653.843	0.0138898
653.921	0.0138048
653.999	0.0139402
654.078	0.0138905
654.156	0.0138979
654.234	0.0138866
654.312	0.0140088
654.390	0.0138680
654.468	0.0137695
654.546	0.0138725
654.624	0.0138506
654.703	0.0138016
654.781	0.0138361
654.859	0.0138470
654.937	0.0140208
655.015	0.0139775
655.093	0.0138699
655.171	0.0138572
655.249	0.0138857
655.328	0.0138473
655.406	0.0137902
655.484	0.0138837
655.562	0.0139328
655.640	0.0139579
655.718	0.0137806
655.796	0.0136543
655.874	0.0139403
655.953	0.0138873
656.031	0.0139702
656.109	0.0139378
656.187	0.0138078
656.265	0.0138085
656.343	0.0138587
656.421	0.0138859
656.499	0.0138928
656.578	0.0138267
656.656	0.0139690
656.734	0.0139545
656.812	0.0137186
656.890	0.0136790
656.968	0.0138112
657.046	0.0138409
657.124	0.0138515
657.203	0.0138699
657.281	0.0138895
657.359	0.0138908
657.437	0.0137305
657.515	0.0137680
657.593	0.0139234
657.671	0.0140180
657.749	0.0139907
657.828	0.0138143
657.906	0.0139176
657.984	0.0139575
658.062	0.0138788
658.140	0.0139094
658.218	0.0140118
658.296	0.0138767
658.374	0.0138108
658.453	0.0139004
658.531	0.0138129
658.609	0.0136936
658.687	0.0138029
658.765	0.0138533
658.843	0.0139314
658.921	0.0138769
658.999	0.0137070
659.078	0.0138303
659.156	0.0138552
659.234	0.0138217
659.312	0.0138042
659.390	0.0139189
659.468	0.0140815
659.546	0.0138812
659.624	0.0139665
659.703	0.0139500
659.781	0.0137967
659.859	0.0138863
659.937	0.0138622
660.015	0.0138699
660.093	0.0137312
660.171	0.0138960
660.249	0.0138763
660.328	0.0139711
660.406	0.0139260
660.484	0.0138408
660.562	0.0139559
660.640	0.0137898
660.718	0.0136964
660.796	0.0138506
660.874	0.0138483
660.953	0.0137484
661.031	0.0138526
661.109	0.0137280
661.187	0.0139483
661.265	0.0138645
661.343	0.0137016
661.421	0.0138496
661.499	0.0138865
661.578	0.0137986
661.656	0.0139198
661.734	0.0138419
661.812	0.0139019
661.890	0.0139299
661.968	0.0137173
662.046	0.0139938
662.124	0.0138332
662.203	0.0138881
662.281	0.0138909
662.359	0.0138190
662.437	0.0139919
662.515	0.0138483
662.593	0.0139641
662.671	0.0138499
662.749	0.0138532
662.828	0.0138038
662.906	0.0137363
662.984	0.0137704
663.062	0.0138186
663.140	0.0136886
663.218	0.0138221
663.296	0.0136196
663.374	0.0136835
663.453	0.0138390
663.531	0.0138695
663.609	0.0138425
663.687	0.0140282
663.765	0.0139081
663.843	0.0140017
663.921	0.0139692
663.999	0.0139952
664.078	0.0140926
664.156	0.0140178
664.234	0.0140450
664.312	0.0139565
664.390	0.0138750
664.468	0.0139059
664.546	0.0138925
664.624	0.0137450
664.703	0.0137790
664.781	0.0137362
664.859	0.0135934
664.937	0.0137542
665.015	0.0137089
665.093	0.0136702
665.171	0.0137792
665.249	0.0137404
665.328	0.0137354
665.406	0.0137992
665.484	0.0139925
665.562	0.0138403
665.640	0.0140350
665.718	0.0141091
665.796	0.0140038
665.874	0.0140533
665.953	0.0139911
666.031	0.0138802
666.109	0.0139819
666.187	0.0138632
666.265	0.0139610
666.343	0.0137909
666.421	0.0137955
666.499	0.0139291
666.578	0.0140303
666.656	0.0139385
666.734	0.0137955
666.812	0.0138113
666.890	0.0137829
666.968	0.0138467
667.046	0.0139092
667.124	0.0137881
667.203	0.0137688
667.281	0.0137600
667.359	0.0138605
667.437	0.0139182
667.515	0.0139614
667.593	0.0138474
667.671	0.0138424
667.749	0.0139705
667.828	0.0139113
667.906	0.0139745
667.984	0.0139789
668.062	0.0138814
668.140	0.0139034
668.218	0.0140462
668.296	0.0139425
668.374	0.0138599
668.453	0.0139053
668.531	0.0138254
668.609	0.0137806
668.687	0.0137720
668.765	0.0137726
668.843	0.0136555
668.921	0.0137071
668.999	0.0136688
669.078	0.0135751
669.156	0.0137009
669.234	0.0136872
669.312	0.0137146
669.390	0.0138435
669.468	0.0138905
669.546	0.0138039
669.624	0.0138454
669.703	0.0138202
669.781	0.0139884
669.859	0.0139503
669.937	0.0139770
670.015	0.0139445
670.093	0.0138461
670.171	0.0138934
670.249	0.0140060
670.328	0.0139549
670.406	0.0139824
670.484	0.0137400
670.562	0.0137608
670.640	0.0138536
670.718	0.0138052
670.796	0.0136562
670.874	0.0135423
670.953	0.0135400
671.031	0.0135500
671.109	0.0135928
671.187	0.0134943
671.265	0.0135566
671.343	0.0137419
671.421	0.0137210
671.499	0.0138096
671.578	0.0138820
671.656	0.0138412
671.734	0.0140655
671.812	0.0139542
671.890	0.0138655
671.968	0.0139349
672.046	0.0140008
672.124	0.0136873
672.203	0.0137933
672.281	0.0137416
672.359	0.0136562
672.437	0.0137292
672.515	0.0136761
672.593	0.0137537
672.671	0.0136290
672.749	0.0137870
672.828	0.0137933
672.906	0.0137132
672.984	0.0138290
673.062	0.0137720
673.140	0.0137612
673.218	0.0138436
673.296	0.0138705
673.374	0.0138041
673.453	0.0140015
673.531	0.0140007
673.609	0.0140685
673.687	0.0140951
673.765	0.0140589
673.843	0.0139622
673.921	0.0141100
673.999	0.0140946
674.078	0.0142767
674.156	0.0140467
674.234	0.0140240
674.312	0.0140090
674.390	0.0141410
674.468	0.0141476
674.546	0.0139479
674.624	0.0141537
674.703	0.0139697
674.781	0.0139793
674.859	0.0138963
674.937	0.0137069
675.015	0.0137442
675.093	0.0138240
675.171	0.0136143
675.249	0.0135976
675.328	0.0136437
675.406	0.0134675
675.484	0.0133817
675.562	0.0134344
675.640	0.0134354
675.718	0.0134891
675.796	0.0134129
675.874	0.0133369
675.953	0.0133887
676.031	0.0134018
676.109	0.0134641
676.187	0.0135411
676.265	0.0138148
676.343	0.0138417
676.421	0.0135511
676.499	0.0137713
676.578	0.0139935
676.656	0.0140499
676.734	0.0142176
676.812	0.0142087
676.890	0.0142117
676.968	0.0141753
677.046	0.0141946
677.124	0.0142529
677.203	0.0143676
677.281	0.0143373
677.359	0.0143739
677.437	0.0142941
677.515	0.0142896
677.593	0.0143835
677.671	0.0143509
677.749	0.0141974
677.828	0.0140832
677.906	0.0139878
677.984	0.0138040
678.062	0.0137206
678.140	0.0136513
678.218	0.0137273
678.296	0.0137764
678.374	0.0138521
678.453	0.0138793
678.531	0.0137271
678.609	0.0137698
678.687	0.0138803
678.765	0.0138611
678.843	0.0138094
678.921	0.0137584
678.999	0.0138039
679.078	0.0138441
679.156	0.0139201
679.234	0.0138396
679.312	0.0137575
679.390	0.0139215
679.468	0.0137116
679.546	0.0137515
679.624	0.0138074
679.703	0.0138093
679.781	0.0138674
679.859	0.0135768
679.937	0.0137627
680.015	0.0136747
680.093	0.0137127
680.171	0.0136276
680.249	0.0134280
680.328	0.0137147
680.406	0.0136248
680.484	0.0135404
680.562	0.0136930
680.640	0.0136778
680.718	0.0136575
680.796	0.0137386
680.874	0.0137226
680.953	0.0138315
681.031	0.0138317
681.109	0.0140586
681.187	0.0139367
681.265	0.0140029
681.343	0.0141376
681.421	0.0141222
681.499	0.0141521
681.578	0.0142555
681.656	0.0141723
681.734	0.0142647
681.812	0.0141425
681.890	0.0141758
681.968	0.0140850
682.046	0.0140393
682.124	0.0139047
682.203	0.0140026
682.281	0.0140528
682.359	0.0138999
682.437	0.0137673
682.515	0.0138859
682.593	0.0136916
682.671	0.0137817
682.749	0.0137595
682.828	0.0137373
682.906	0.0138127
682.984	0.0138828
683.062	0.0138761
683.140	0.0139641
683.218	0.0140465
683.296	0.0140035
683.374	0.0140849
683.453	0.0138906
683.531	0.0140378
683.609	0.0142523
683.687	0.0140318
683.765	0.0138557
683.843	0.0139188
683.921	0.0138891
683.999	0.0138388
684.078	0.0137436
684.156	0.0135468
684.234	0.0135667
684.312	0.0136037
684.390	0.0135519
684.468	0.0136343
684.546	0.0135109
684.624	0.0134200
684.703	0.0136041
684.781	0.0136217
684.859	0.0133253
684.937	0.0134972
685.015	0.0135017
685.093	0.0134043
685.171	0.0133990
685.249	0.0133382
685.328	0.0133170
685.406	0.0133512
685.484	0.0133215
685.562	0.0132983
685.640	0.0134637
685.718	0.0134357
685.796	0.0135110
685.874	0.0136980
685.953	0.0136655
686.031	0.0139573
686.109	0.0139523
686.187	0.0142136
686.265	0.0142950
686.343	0.0143639
686.421	0.0144479
686.499	0.0146206
686.578	0.0146037
686.656	0.0147195
686.734	0.0147695
686.812	0.0148263
686.890	0.0147099
686.968	0.0146859
687.046	0.0147285
687.124	0.0146323
687.203	0.0145372
687.281	0.0144234
687.359	0.0143054
687.437	0.0142237
687.515	0.0141113
687.593	0.0141393
687.671	0.0141008
687.749	0.0141296
687.828	0.0139706
687.906	0.0141007
687.984	0.0140282
688.062	0.0139510
688.140	0.0138528
688.218	0.0139110
688.296	0.0137698
688.374	0.0137689
688.453	0.0136040
688.531	0.0135461
688.609	0.0135392
688.687	0.0134237
688.765	0.0130674
688.843	0.0131409
688.921	0.0130113
688.999	0.0129786
689.078	0.0131464
689.156	0.0130563
689.234	0.0131525
689.312	0.0130314
689.390	0.0129308
689.468	0.0132762
689.546	0.0132984
689.624	0.0132659
689.703	0.0134021
689.781	0.0135434
689.859	0.0134806
689.937	0.0136558
690.015	0.0138023
690.093	0.0138696
690.171	0.0138347
690.249	0.0138875
690.328	0.0137256
690.406	0.0138924
690.484	0.0138858
690.562	0.0139617
690.640	0.0138069
690.718	0.0137634
690.796	0.0137649
690.874	0.0137476
690.953	0.0136666
691.031	0.0137167
691.109	0.0137060
691.187	0.0138057
691.265	0.0139116
691.343	0.0139896
691.421	0.0141278
691.499	0.0143118
691.578	0.0145053
691.656	0.0146557
691.734	0.0148346
691.812	0.0148724
691.890	0.0148236
691.968	0.0150293
692.046	0.0149769
692.124	0.0149284
692.203	0.0149692
692.281	0.0149254
692.359	0.0148434
692.437	0.0146406
692.515	0.0145346
692.593	0.0144186
692.671	0.0142875
692.749	0.0141273
692.828	0.0139285
692.906	0.0137492
692.984	0.0136753
693.062	0.0135113
693.140	0.0135253
693.218	0.0135426
693.296	0.0134599
693.374	0.0133427
693.453	0.0133482
693.531	0.0133241
693.609	0.0132887
693.687	0.0131416
693.765	0.0132504
693.843	0.0131457
693.921	0.0131519
693.999	0.0130795
694.078	0.0130186
694.156	0.0129885
694.234	0.0131142
694.312	0.0128741
694.390	0.0129498
694.468	0.0130328
694.546	0.0129718
694.624	0.0129802
694.703	0.0131217
694.781	0.0131325
694.859	0.0132565
694.937	0.0133273
695.015	0.0134753
695.093	0.0135466
695.171	0.0136347
695.249	0.0136137
695.328	0.0136697
695.406	0.0137052
695.484	0.0137739
695.562	0.0137000
695.640	0.0135673
695.718	0.0134227
695.796	0.0134386
695.874	0.0134153
695.953	0.0136070
696.031	0.0136037
696.109	0.0136983
696.187	0.0137024
696.265	0.0135365
696.343	0.0140894
696.421	0.0142807
696.499	0.0143914
696.578	0.0145652
696.656	0.0149959
696.734	0.0150961
696.812	0.0153915
696.890	0.0155365
696.968	0.0159286
697.046	0.0158483
697.124	0.0158887
697.203	0.0160832
697.281	0.0158899
697.359	0.0156238
697.437	0.0155119
697.515	0.0151768
697.593	0.0149603
697.671	0.0146660
697.749	0.0143198
697.828	0.0140452
697.906	0.0136861
697.984	0.0134418
698.062	0.0131689
698.140	0.0129656
698.218	0.0128969
698.296	0.0126685
698.374	0.0127651
698.453	0.0127428
698.531	0.0126962
698.609	0.0128237
698.687	0.0127026
698.765	0.0126614
698.843	0.0128989
698.921	0.0129593
698.999	0.0129241
699.078	0.0127827
699.156	0.0129837
699.234	0.0129440
699.312	0.0128893
699.390	0.0128983
699.468	0.0127488
699.546	0.0129736
699.624	0.0129934
699.703	0.0127757
699.781	0.0130262
699.859	0.0132576
699.937	0.0133157
700.015	0.0134198
700.093	0.0135835
700.171	0.0135959
700.249	0.0137018
700.328	0.0139476
700.406	0.0140195
700.484	0.0140878
700.562	0.0141502
700.640	0.0141604
700.718	0.0143020
700.796	0.0141651
700.874	0.0140748
700.953	0.0141957
701.031	0.0141604
701.109	0.0140837
701.187	0.0140726
701.265	0.0141080
701.343	0.0141938
701.421	0.0142139
701.499	0.0143813
701.578	0.0143669
701.656	0.0145138
701.734	0.0148623
701.812	0.0150715
701.890	0.0151669
701.968	0.0152515
702.046	0.0152554
702.124	0.0155671
702.203	0.0154246
702.281	0.0155219
702.359	0.0155029
702.437	0.0154465
702.515	0.0151552
702.593	0.0150703
702.671	0.0148476
702.749	0.0145782
702.828	0.0143978
702.906	0.0141694
702.984	0.0138519
703.062	0.0136847
703.140	0.0135529
703.218	0.0134221
703.296	0.0131713
703.374	0.0129729
703.453	0.0130598
703.531	0.0129889
703.609	0.0127731
703.687	0.0128268
703.765	0.0127457
703.843	0.0127470
703.921	0.0127492
703.999	0.0125413
704.078	0.0125072
704.156	0.0125111
704.234	0.0126009
704.312	0.0124583
704.390	0.0125285
704.468	0.0125423
704.546	0.0124647
704.624	0.0124332
704.703	0.0126481
704.781	0.0128574
704.859	0.0131482
704.937	0.0132674
705.015	0.0134042
705.093	0.0134511
705.171	0.0137798
705.249	0.0139650
705.328	0.0142402
705.406	0.0145114
705.484	0.0146365
705.562	0.0146131
705.640	0.0147793
705.718	0.0148968
705.796	0.0147997
705.874	0.0146694
705.953	0.0147738
706.031	0.0145242
706.109	0.0144726
706.187	0.0142237
706.265	0.0139271
706.343	0.0138620
706.421	0.0138078
706.499	0.0137586
706.578	0.0136748
706.656	0.0135823
706.734	0.0135604
706.812	0.0138182
706.890	0.0139075
706.968	0.0141869
707.046	0.0144526
707.124	0.0148085
707.203	0.0150205
707.281	0.0151486
707.359	0.0153822
707.437	0.0155334
707.515	0.0155863
707.593	0.0154816
707.671	0.0157314
707.749	0.0155875
707.828	0.0153794
707.906	0.0151641
707.984	0.0149426
708.062	0.0147511
708.140	0.0146458
708.218	0.0140849
708.296	0.0138963
708.374	0.0134029
708.453	0.0134673
708.531	0.0133010
708.609	0.0129362
708.687	0.0126939
708.765	0.0126064
708.843	0.0124052
708.921	0.0121608
708.999	0.0121591
709.078	0.0121143
709.156	0.0120560
709.234	0.0120240
709.312	0.0121633
709.390	0.0122727
709.468	0.0122194
709.546	0.0124954
709.624	0.0126599
709.703	0.0127534
709.781	0.0129084
709.859	0.0130472
709.937	0.0133020
710.015	0.0135535
710.093	0.0138896
710.171	0.0140498
710.249	0.0143025
710.328	0.0143997
710.406	0.0145017
710.484	0.0146618
710.562	0.0147673
710.640	0.0146708
710.718	0.0149809
710.796	0.0147809
710.874	0.0146764
710.953	0.0146716
711.031	0.0146165
711.109	0.0145091
711.187	0.0144152
711.265	0.0141506
711.343	0.0138691
711.421	0.0137435
711.499	0.0134996
711.578	0.0134485
711.656	0.0133498
711.734	0.0133232
711.812	0.0135320
711.890	0.0135268
711.968	0.0134474
712.046	0.0135962
712.124	0.0138398
712.203	0.0140142
712.281	0.0143551
712.359	0.0143848
712.437	0.0146952
712.515	0.0149186
712.593	0.0149162
712.671	0.0151976
712.749	0.0151704
712.828	0.0153142
712.906	0.0154400
712.984	0.0151839
713.062	0.0150676
713.140	0.0148601
713.218	0.0147561
713.296	0.0145567
713.374	0.0142390
713.453	0.0139613
713.531	0.0137113
713.609	0.0137019
713.687	0.0134290
713.765	0.0133568
713.843	0.0131014
713.921	0.0129362
713.999	0.0128052
714.078	0.0126448
714.156	0.0126337
714.234	0.0123774
714.312	0.0125249
714.390	0.0122105
714.468	0.0124568
714.546	0.0124516
714.624	0.0124682
714.703	0.0126407
714.781	0.0126273
714.859	0.0127721
714.937	0.0130083
715.015	0.0132659
715.093	0.0132845
715.171	0.0135368
715.249	0.0139269
715.328	0.0139506
715.406	0.0139536
715.484	0.0139995
715.562	0.0142416
715.640	0.0143418
715.718	0.0142493
715.796	0.0142815
715.874	0.0144313
715.953	0.0143675
716.031	0.0144465
716.109	0.0144534
716.187	0.0142980
716.265	0.0144271
716.343	0.0141833
716.421	0.0140230
716.499	0.0141368
716.578	0.0139178
716.656	0.0138803
716.734	0.0138131
716.812	0.0134574
716.890	0.0135269
716.968	0.0134425
717.046	0.0135127
717.124	0.0135545
717.203	0.0134905
717.281	0.0136871
717.359	0.0137357
717.437	0.0135547
717.515	0.0137797
717.593	0.0139730
717.671	0.0141357
717.749	0.0143394
717.828	0.0145913
717.906	0.0146302
717.984	0.0147128
718.062	0.0147872
718.140	0.0147891
718.218	0.0148474
718.296	0.0150816
718.374	0.0150040
718.453	0.0149828
718.531	0.0150764
718.609	0.0147412
718.687	0.0146065
718.765	0.0145999
718.843	0.0144111
718.921	0.0140914
718.999	0.0137832
719.078	0.0135399
719.156	0.0134352
719.234	0.0132021
719.312	0.0130865
719.390	0.0130058
719.468	0.0125815
719.546	0.0125387
719.624	0.0123276
719.703	0.0123627
719.781	0.0124434
719.859	0.0123597
719.937	0.0123093
720.015	0.0124796
720.093	0.0124747
720.171	0.0127728
720.249	0.0130574
720.328	0.0132465
720.406	0.0132967
720.484	0.0136806
720.562	0.0137763
720.640	0.0137659
720.718	0.0140592
720.796	0.0142193
720.874	0.0143161
720.953	0.0142750
721.031	0.0142960
721.109	0.0143025
721.187	0.0142292
721.265	0.0143098
721.343	0.0144289
721.421	0.0142792
721.499	0.0142196
721.578	0.0143203
721.656	0.0141875
721.734	0.0140610
721.812	0.0140701
721.890	0.0139851
721.968	0.0138960
722.046	0.0137296
722.124	0.0136321
722.203	0.0134528
722.281	0.0136565
722.359	0.0135021
722.437	0.0135302
722.515	0.0134437
722.593	0.0135764
722.671	0.0137328
722.749	0.0137151
722.828	0.0138057
722.906	0.0141115
722.984	0.0141389
723.062	0.0141540
723.140	0.0144770
723.218	0.0144101
723.296	0.0147176
723.374	0.0148338
723.453	0.0148354
723.531	0.0149493
723.609	0.0149742
723.687	0.0148586
723.765	0.0149525
723.843	0.0148485
723.921	0.0149126
723.999	0.0146275
724.078	0.0144402
724.156	0.0143546
724.234	0.0140876
724.312	0.0137167
724.390	0.0135733
724.468	0.0134491
724.546	0.0131729
724.624	0.0130071
724.703	0.0129501
724.781	0.0127087
724.859	0.0125262
724.937	0.0125697
725.015	0.0124418
725.093	0.0126636
725.171	0.0125097
725.249	0.0126777
725.328	0.0127355
725.406	0.0130550
725.484	0.0130099
725.562	0.0131609
725.640	0.0133389
725.718	0.0135767
725.796	0.0136721
725.874	0.0136412
725.953	0.0140430
726.031	0.0141759
726.109	0.0140899
726.187	0.0143676
726.265	0.0143991
726.343	0.0143373
726.421	0.0143744
726.499	0.0144769
726.578	0.0145123
726.656	0.0144035
726.734	0.0143433
726.812	0.0144923
726.890	0.0142549
726.968	0.0141382
727.046	0.0141101
727.124	0.0139836
727.203	0.0139169
727.281	0.0139760
727.359	0.0138596
727.437	0.0136221
727.515	0.0135602
727.593	0.0134601
727.671	0.0135622
727.749	0.0134306
727.828	0.0136182
727.906	0.0135810
727.984	0.0137441
728.062	0.0138788
728.140	0.0138470
728.218	0.0141409
728.296	0.0142809
728.374	0.0143182
728.453	0.0144630
728.531	0.0145726
728.609	0.0146104
728.687	0.0146996
728.765	0.0147126
728.843	0.0146591
728.921	0.0146033
728.999	0.0146100
729.078	0.0145397
729.156	0.0143872
729.234	0.0143884
729.312	0.0143258
729.390	0.0142303
729.468	0.0140031
729.546	0.0139223
729.624	0.0136494
729.703	0.0136462
729.781	0.0133607
729.859	0.0133762
729.937	0.0133120
730.015	0.0130009
730.093	0.0130203
730.171	0.0129169
730.249	0.0128509
730.328	0.0130161
730.406	0.0129909
730.484	0.0130609
730.562	0.0130010
730.640	0.0132497
730.718	0.0132603
730.796	0.0133386
730.874	0.0133994
730.953	0.0135027
731.031	0.0137914
731.109	0.0137352
731.187	0.0140456
731.265	0.0141079
731.343	0.0141299
731.421	0.0142495
731.499	0.0142120
731.578	0.0141367
731.656	0.0141913
731.734	0.0141857
731.812	0.0141548
731.890	0.0140402
731.968	0.0140258
732.046	0.0140705
732.124	0.0140799
732.203	0.0140790
732.281	0.0139027
732.359	0.0139896
732.437	0.0139317
732.515	0.0137395
732.593	0.0137492
732.671	0.0138318
732.749	0.0138590
732.828	0.0139272
732.906	0.0137350
732.984	0.0138958
733.062	0.0137502
733.140	0.0137701
733.218	0.0138242
733.296	0.0138475
733.374	0.0138529
733.453	0.0139858
733.531	0.0140233
733.609	0.0140852
733.687	0.0142335
733.765	0.0142154
733.843	0.0142838
733.921	0.0142442
733.999	0.0142916
734.078	0.0143087
734.156	0.0143175
734.234	0.0142422
734.312	0.0142746
734.390	0.0142812
734.468	0.0142832
734.546	0.0141364
734.624	0.0140279
734.703	0.0139934
734.781	0.0138932
734.859	0.0138659
734.937	0.0139452
735.015	0.0136062
735.093	0.0135725
735.171	0.0135347
735.249	0.0133120
735.328	0.0132861
735.406	0.0132853
735.484	0.0131944
735.562	0.0133264
735.640	0.0133101
735.718	0.0135117
735.796	0.0132187
735.874	0.0132541
735.953	0.0133857
736.031	0.0132487
736.109	0.0134350
736.187	0.0134805
736.265	0.0136509
736.343	0.0136610
736.421	0.0136282
736.499	0.0137950
736.578	0.0140376
736.656	0.0139394
736.734	0.0139183
736.812	0.0140071
736.890	0.0140257
736.968	0.0140380
737.046	0.0139557
737.124	0.0139949
737.203	0.0142403
737.281	0.0139722
737.359	0.0140705
737.437	0.0138732
737.515	0.0139923
737.593	0.0140822
737.671	0.0139606
737.749	0.0140057
737.828	0.0140527
737.906	0.0140705
737.984	0.0140691
738.062	0.0140054
738.140	0.0138703
738.218	0.0140410
738.296	0.0138676
738.374	0.0138933
738.453	0.0140398
738.531	0.0140135
738.609	0.0138986
738.687	0.0138297
738.765	0.0138223
738.843	0.0140913
738.921	0.0140549
738.999	0.0139492
739.078	0.0140579
739.156	0.0138701
739.234	0.0140646
739.312	0.0140050
739.390	0.0139449
739.468	0.0140678
739.546	0.0140247
739.624	0.0139433
739.703	0.0138258
739.781	0.0139501
739.859	0.0139050
739.937	0.0138206
740.015	0.0137357
740.093	0.0138336
740.171	0.0137151
740.249	0.0135594
740.328	0.0136220
740.406	0.0135846
740.484	0.0137479
740.562	0.0136400
740.640	0.0135734
740.718	0.0134998
740.796	0.0137250
740.874	0.0136306
740.953	0.0135423
741.031	0.0135011
741.109	0.0135435
741.187	0.0135612
741.265	0.0135380
741.343	0.0135999
741.421	0.0136536
741.499	0.0137421
741.578	0.0136602
741.656	0.0137103
741.734	0.0137806
741.812	0.0138509
741.890	0.0139808
741.968	0.0139686
742.046	0.0138966
742.124	0.0139852
742.203	0.0138794
742.281	0.0139149
742.359	0.0139342
742.437	0.0138377
742.515	0.0139430
742.593	0.0138954
742.671	0.0139592
742.749	0.0139757
742.828	0.0140286
742.906	0.0139139
742.984	0.0139340
743.062	0.0138949
743.140	0.0138631
743.218	0.0139462
743.296	0.0139417
743.374	0.0139258
743.453	0.0138174
743.531	0.0140133
743.609	0.0139807
743.687	0.0136556
743.765	0.0136739
743.843	0.0137185
743.921	0.0138291
743.999	0.0136719
744.078	0.0138174
744.156	0.0138044
744.234	0.0136628
744.312	0.0138106
744.390	0.0138097
744.468	0.0138419
744.546	0.0137939
744.624	0.0138450
744.703	0.0138264
744.781	0.0139492
744.859	0.0137883
744.937	0.0138810
745.015	0.0137645
745.093	0.0139127
745.171	0.0139948
745.249	0.0139549
745.328	0.0139801
745.406	0.0139263
745.484	0.0138518
745.562	0.0139015
745.640	0.0138178
745.718	0.0138710
745.796	0.0139480
745.874	0.0139350
745.953	0.0139546
746.031	0.0139134
746.109	0.0138255
746.187	0.0138443
746.265	0.0138023
746.343	0.0138068
746.421	0.0138028
746.499	0.0138158
746.578	0.0135347
746.656	0.0135612
746.734	0.0135709
746.812	0.0136060
746.890	0.0136046
746.968	0.0135038
747.046	0.0134505
747.124	0.0136192
747.203	0.0136565
747.281	0.0136691
747.359	0.0137051
747.437	0.0135640
747.515	0.0137415
747.593	0.0138829
747.671	0.0139151
747.749	0.0138319
747.828	0.0138980
747.906	0.0138650
747.984	0.0140719
748.062	0.0139058
748.140	0.0138351
748.218	0.0139635
748.296	0.0140121
748.374	0.0138787
748.453	0.0140874
748.531	0.0139774
748.609	0.0139938
748.687	0.0139628
748.765	0.0139719
748.843	0.0139968
748.921	0.0137968
748.999	0.0138858
749.078	0.0139966
749.156	0.0138377
749.234	0.0138372
749.312	0.0138427
749.390	0.0139312
749.468	0.0137430
749.546	0.0138249
749.624	0.0136858
749.703	0.0136983
749.781	0.0138805
749.859	0.0137678
749.937	0.0139645
750.015	0.0139007
750.093	0.0138477
750.171	0.0139639
750.249	0.0139205
750.328	0.0138691
750.406	0.0138719
750.484	0.0140421
750.562	0.0139697
750.640	0.0138029
750.718	0.0138310
750.796	0.0140054
750.874	0.0139027
750.953	0.0139186
751.031	0.0139457
751.109	0.0138564
751.187	0.0139539
751.265	0.0139837
751.343	0.0138407
751.421	0.0137951
751.499	0.0139781
751.578	0.0140416
751.656	0.0138914
751.734	0.0138706
751.812	0.0137273
751.890	0.0137952
751.968	0.0137405
752.046	0.0137640
752.124	0.0137310
752.203	0.0136235
752.281	0.0136970
752.359	0.0136499
752.437	0.0136820
752.515	0.0138313
752.593	0.0137684
752.671	0.0138560
752.749	0.0138545
752.828	0.0138139
752.906	0.0138031
752.984	0.0140023
753.062	0.0139984
753.140	0.0141433
753.218	0.0140398
753.296	0.0140211
753.374	0.0141225
753.453	0.0140769
753.531	0.0140961
753.609	0.0141689
753.687	0.0140080
753.765	0.0139839
753.843	0.0141219
753.921	0.0141180
753.999	0.0139989
754.078	0.0141000
754.156	0.0139564
754.234	0.0139094
754.312	0.0138211
754.390	0.0138216
754.468	0.0137674
754.546	0.0137784
754.624	0.0136760
754.703	0.0135971
754.781	0.0136681
754.859	0.0137712
754.937	0.0136658
755.015	0.0137178
755.093	0.0137311
755.171	0.0136235
755.249	0.0136896
755.328	0.0136636
755.406	0.0137334
755.484	0.0136957
755.562	0.0137007
755.640	0.0138929
755.718	0.0138869
755.796	0.0138680
755.874	0.0137683
755.953	0.0137219
756.031	0.0139074
756.109	0.0139241
756.187	0.0139043
756.265	0.0140636
756.343	0.0141175
756.421	0.0140322
756.499	0.0140761
756.578	0.0141981
756.656	0.0140787
756.734	0.0140959
756.812	0.0141805
756.890	0.0141930
756.968	0.0140156
757.046	0.0138057
757.124	0.0139797
757.203	0.0138807
757.281	0.0139376
757.359	0.0138145
757.437	0.0139085
757.515	0.0138058
757.593	0.0137645
757.671	0.0137485
757.749	0.0137730
757.828	0.0137056
757.906	0.0138175
757.984	0.0138900
758.062	0.0139325
758.140	0.0139542
758.218	0.0139412
758.296	0.0137586
758.374	0.0139762
758.453	0.0139879
758.531	0.0140917
758.609	0.0140459
758.687	0.0140419
758.765	0.0140314
758.843	0.0140623
758.921	0.0141919
758.999	0.0139762
759.078	0.0139221
759.156	0.0138474
759.234	0.0138435
759.312	0.0137926
759.390	0.0137729
759.468	0.0137637
759.546	0.0137930
759.624	0.0137158
759.703	0.0138074
759.781	0.0137509
759.859	0.0135658
759.937	0.0136337
760.015	0.0137214
760.093	0.0136926
760.171	0.0138116
760.249	0.0138551
760.328	0.0137353
760.406	0.0137414
760.484	0.0137909
760.562	0.0137965
760.640	0.0138055
760.718	0.0139889
760.796	0.0141322
760.874	0.0139075
760.953	0.0140654
761.031	0.0140702
761.109	0.0139210
761.187	0.0141486
761.265	0.0141656
761.343	0.0141175
761.421	0.0140554
761.499	0.0140227
761.578	0.0139831
761.656	0.0139365
761.734	0.0139504
761.812	0.0138272
761.890	0.0138766
761.968	0.0137589
762.046	0.0137978
762.124	0.0138483
762.203	0.0138364
762.281	0.0136809
762.359	0.0137051
762.437	0.0137429
762.515	0.0138294
762.593	0.0137659
762.671	0.0136958
762.749	0.0139424
762.828	0.0140013
762.906	0.0138821
762.984	0.0137875
763.062	0.0138609
763.140	0.0138055
763.218	0.0137955
763.296	0.0139014
763.374	0.0138107
763.453	0.0136478
763.531	0.0137992
763.609	0.0138074
763.687	0.0137896
763.765	0.0138576
763.843	0.0139070
763.921	0.0140513
763.999	0.0139519
764.078	0.0139198
764.156	0.0139241
764.234	0.0138805
764.312	0.0139269
764.390	0.0139623
764.468	0.0139371
764.546	0.0138336
764.624	0.0138004
764.703	0.0139194
764.781	0.0139049
764.859	0.0138490
764.937	0.0138647
765.015	0.0138743
765.093	0.0137725
765.171	0.0139485
765.249	0.0138937
765.328	0.0138072
765.406	0.0138533
765.484	0.0137963
765.562	0.0137994
765.640	0.0138215
765.718	0.0139002
765.796	0.0137927
765.874	0.0138599
765.953	0.0138567
766.031	0.0137406
766.109	0.0137441
766.187	0.0138414
766.265	0.0137000
766.343	0.0137707
766.421	0.0137601
766.499	0.0137106
766.578	0.0138895
766.656	0.0138354
766.734	0.0135516
766.812	0.0137952
766.890	0.0138259
766.968	0.0140427
767.046	0.0139631
767.124	0.0140406
767.203	0.0138493
767.281	0.0139145
767.359	0.0138945
767.437	0.0140062
767.515	0.0139306
767.593	0.0139855
767.671	0.0139610
767.749	0.0140095
767.828	0.0140343
767.906	0.0138927
767.984	0.0138869
768.062	0.0138898
768.140	0.0140442
768.218	0.0139491
768.296	0.0139438
768.374	0.0138352
768.453	0.0137908
768.531	0.0138171
768.609	0.0139854
768.687	0.0139130
768.765	0.0138735
768.843	0.0139814
768.921	0.0137723
768.999	0.0138548
769.078	0.0140263
769.156	0.0138464
769.234	0.0138519
769.312	0.0140023
769.390	0.0137553
769.468	0.0138148
769.546	0.0139217
769.624	0.0137419
769.703	0.0139524
769.781	0.0138727
769.859	0.0137991
769.937	0.0139639
770.015	0.0140300
770.093	0.0140346
770.171	0.0140423
770.249	0.0140757
770.328	0.0141058
770.406	0.0139071
770.484	0.0142536
770.562	0.0141015
770.640	0.0138932
770.718	0.0139622
770.796	0.0139669
770.874	0.0138773
770.953	0.0138873
771.031	0.0138921
771.109	0.0138811
771.187	0.0136499
771.265	0.0138990
771.343	0.0137461
771.421	0.0137698
771.499	0.0139230
771.578	0.0137949
771.656	0.0139045
771.734	0.0138198
771.812	0.0138418
771.890	0.0137882
771.968	0.0138166
772.046	0.0138574
772.124	0.0138660
772.203	0.0139104
772.281	0.0138960
772.359	0.0138934
772.437	0.0138728
772.515	0.0138214
772.593	0.0138151
772.671	0.0137728
772.749	0.0138727
772.828	0.0138363
772.906	0.0138512
772.984	0.0139872
773.062	0.0138766
773.140	0.0138821
773.218	0.0138935
773.296	0.0139529
773.374	0.0139631
773.453	0.0140047
773.531	0.0139432
773.609	0.0138844
773.687	0.0138680
773.765	0.0138329
773.843	0.0138316
773.921	0.0139094
773.999	0.0138457
774.078	0.0138654
774.156	0.0139330
774.234	0.0139915
774.312	0.0138645
774.390	0.0139184
774.468	0.0138646
774.546	0.0139472
774.624	0.0139385
774.703	0.0138644
774.781	0.0138627
774.859	0.0137961
774.937	0.0138037
775.015	0.0139086
775.093	0.0137480
775.171	0.0138654
775.249	0.0138953
775.328	0.0139610
775.406	0.0138198
775.484	0.0138908
775.562	0.0139371
775.640	0.0139399
775.718	0.0139051
775.796	0.0138294
775.874	0.0137973
775.953	0.0140495
776.031	0.0140427
776.109	0.0138393
776.187	0.0139383
776.265	0.0138064
776.343	0.0138713
776.421	0.0138191
776.499	0.0137640
776.578	0.0138862
776.656	0.0138302
776.734	0.0136986
776.812	0.0135791
776.890	0.0137786
776.968	0.0136092
777.046	0.0138119
777.124	0.0137469
777.203	0.0136909
777.281	0.0139865
777.359	0.0139802
777.437	0.0138261
777.515	0.0138343
777.593	0.0138521
777.671	0.0138200
777.749	0.0138850
777.828	0.0138361
777.906	0.0138894
777.984	0.0139497
778.062	0.0140616
778.140	0.0140736
778.218	0.0139697
778.296	0.0140038
778.374	0.0139584
778.453	0.0139039
778.531	0.0139552
778.609	0.0140587
778.687	0.0138699
778.765	0.0137109
778.843	0.0138827
778.921	0.0137369
778.999	0.0138112
779.078	0.0139410
779.156	0.0139112
779.234	0.0137216
779.312	0.0139016
779.390	0.0138682
779.468	0.0137816
779.546	0.0137568
779.624	0.0138734
779.703	0.0138471
779.781	0.0138552
779.859	0.0139924
779.937	0.0140405
780.015	0.0140121
780.093	0.0141235
780.171	0.0141599
780.249	0.0138670
780.328	0.0140188
780.406	0.0138564
780.484	0.0139917
780.562	0.0140146
780.640	0.0139897
780.718	0.0139657
780.796	0.0137379
780.874	0.0139339
780.953	0.0138735
781.031	0.0139883
781.109	0.0139477
781.187	0.0138118
781.265	0.0137703
781.343	0.0139551
781.421	0.0138409
781.499	0.0136959
781.578	0.0138396
781.656	0.0137669
781.734	0.0139394
781.812	0.0136782
781.890	0.0137936
781.968	0.0138626
782.046	0.0138519
782.124	0.0138876
782.203	0.0138025
782.281	0.0137517
782.359	0.0136719
782.437	0.0137752
782.515	0.0139289
782.593	0.0136834
782.671	0.0136343
782.749	0.0138116
782.828	0.0138956
782.906	0.0139194
782.984	0.0138251
783.062	0.0140691
783.140	0.0140157
783.218	0.0138926
783.296	0.0139737
783.374	0.0138560
783.453	0.0138988
783.531	0.0140366
783.609	0.0140398
783.687	0.0138743
783.765	0.0138820
783.843	0.0140788
783.921	0.0141039
783.999	0.0140399
784.078	0.0139290
784.156	0.0140453
784.234	0.0139339
784.312	0.0138670
784.390	0.0138818
784.468	0.0138412
784.546	0.0138302
784.624	0.0137345
784.703	0.0137506
784.781	0.0138757
784.859	0.0139972
784.937	0.0138393
785.015	0.0137110
785.093	0.0136780
785.171	0.0137984
785.249	0.0136906
785.328	0.0138257
785.406	0.0136253
785.484	0.0139151
785.562	0.0140720
785.640	0.0139053
785.718	0.0137840
785.796	0.0138767
785.874	0.0137802
785.953	0.0136282
786.031	0.0136240
786.109	0.0137718
786.187	0.0138807
786.265	0.0137813
786.343	0.0135667
786.421	0.0138666
786.499	0.0138190
786.578	0.0137453
786.656	0.0137692
786.734	0.0137105
786.812	0.0137773
786.890	0.0138298
786.968	0.0138111
787.046	0.0139709
787.124	0.0138742
787.203	0.0138834
787.281	0.0138062
787.359	0.0139893
787.437	0.0141242
787.515	0.0138378
787.593	0.0137984
787.671	0.0138756
787.749	0.0140086
787.828	0.0140623
787.906	0.0137563
787.984	0.0139719
788.062	0.0139473
788.140	0.0138770
788.218	0.0137975
788.296	0.0140102
788.374	0.0139033
788.453	0.0137759
788.531	0.0138632
788.609	0.0138255
788.687	0.0138308
788.765	0.0138758
788.843	0.0138070
788.921	0.0138739
788.999	0.0137916
789.078	0.0138801
789.156	0.0138651
789.234	0.0138226
789.312	0.0136606
789.390	0.0138216
789.468	0.0139242
789.546	0.0138266
789.624	0.0137759
789.703	0.0138131
789.781	0.0136207
789.859	0.0137131
789.937	0.0137462
790.015	0.0137321
790.093	0.0136333
790.171	0.0137234
790.249	0.0137893
790.328	0.0136842
790.406	0.0138487
790.484	0.0137125
790.562	0.0137675
790.640	0.0137958
790.718	0.0138726
790.796	0.0138348
790.874	0.0138041
790.953	0.0137921
791.031	0.0137221
791.109	0.0139183
791.187	0.0137639
791.265	0.0137777
791.343	0.0136095
791.421	0.0137132
791.499	0.0136080
791.578	0.0136468
791.656	0.0136400
791.734	0.0136201
791.812	0.0137000
791.890	0.0135893
791.968	0.0136038
792.046	0.0136703
792.124	0.0137955
792.203	0.0137475
792.281	0.0138247
792.359	0.0138825
792.437	0.0137569
792.515	0.0137952
792.593	0.0139312
792.671	0.0138729
792.749	0.0138319
792.828	0.0139294
792.906	0.0139920
792.984	0.0139057
793.062	0.0139063
793.140	0.0139017
793.218	0.0140015
793.296	0.0139713
793.374	0.0139833
793.453	0.0138795
793.531	0.0137448
793.609	0.0137339
793.687	0.0139079
793.765	0.0137634
793.843	0.0137875
793.921	0.0139037
793.999	0.0139368
794.078	0.0137856
794.156	0.0137008
794.234	0.0137591
794.312	0.0138946
794.390	0.0139787
794.468	0.0137897
794.546	0.0137316
794.624	0.0137608
794.703	0.0138616
794.781	0.0139640
794.859	0.0138409
794.937	0.0138922
795.015	0.0138435
795.093	0.0137364
795.171	0.0137881
795.249	0.0137891
795.328	0.0138176
795.406	0.0137534
795.484	0.0136062
795.562	0.0136240
795.640	0.0136829
795.718	0.0135212
795.796	0.0136680
795.874	0.0136458
795.953	0.0136052
796.031	0.0137736
796.109	0.0135705
796.187	0.0136824
796.265	0.0136745
796.343	0.0136122
796.421	0.0136977
796.499	0.0138506
796.578	0.0137163
796.656	0.0138269
796.734	0.0138845
796.812	0.0137298
796.890	0.0137888
796.968	0.0138696
797.046	0.0138400
797.124	0.0139047
797.203	0.0139272
797.281	0.0138900
797.359	0.0138815
797.437	0.0138484
797.515	0.0139291
797.593	0.0138251
797.671	0.0137607
797.749	0.0139166
797.828	0.0139606
797.906	0.0140119
797.984	0.0140289
798.062	0.0140071
798.140	0.0140632
798.218	0.0140144
798.296	0.0139124
798.374	0.0139735
798.453	0.0138950
798.531	0.0140150
798.609	0.0140663
798.687	0.0140018
798.765	0.0140060
798.843	0.0138525
798.921	0.0137730
798.999	0.0138941
799.078	0.0139431
799.156	0.0138628
799.234	0.0137653
799.312	0.0136819
799.390	0.0138198
799.468	0.0139185
799.546	0.0138353
799.624	0.0135851
799.703	0.0138792
799.781	0.0138635
799.859	0.0138345
799.937	0.0135928
800.015	0.0137755
800.093	0.0137378
800.171	0.0137162
800.249	0.0138197
800.328	0.0135939
800.406	0.0136902
800.484	0.0137836
800.562	0.0136088
800.640	0.0135773
800.718	0.0136411
800.796	0.0136891
800.874	0.0135584
800.953	0.0136040
801.031	0.0136322
801.109	0.0136603
801.187	0.0139109
801.265	0.0138260
801.343	0.0135822
801.421	0.0136087
801.499	0.0137763
801.578	0.0138267
801.656	0.0138974
801.734	0.0138382
801.812	0.0139828
801.890	0.0139461
801.968	0.0138548
802.046	0.0138821
802.124	0.0139408
802.203	0.0137569
802.281	0.0139223
802.359	0.0140757
802.437	0.0139700
802.515	0.0138575
802.593	0.0139783
802.671	0.0139358
802.749	0.0139132
802.828	0.0141023
802.906	0.0141417
802.984	0.0138959
803.062	0.0139971
803.140	0.0139997
803.218	0.0140678
803.296	0.0141582
803.374	0.0139237
803.453	0.0139911
803.531	0.0141629
803.609	0.0140836
803.687	0.0139063
803.765	0.0139980
803.843	0.0139214
803.921	0.0138745
803.999	0.0139951
804.078	0.0139370
804.156	0.0138173
804.234	0.0137456
804.312	0.0137662
804.390	0.0137539
804.468	0.0139620
804.546	0.0138782
804.624	0.0136903
804.703	0.0136885
804.781	0.0137780
804.859	0.0137462
804.937	0.0137305
805.015	0.0137270
805.093	0.0138353
805.171	0.0138057
805.249	0.0137500
805.328	0.0137486
805.406	0.0138213
805.484	0.0137975
805.562	0.0137220
805.640	0.0137592
805.718	0.0138358
805.796	0.0138491
805.874	0.0138139
805.953	0.0138196
806.031	0.0136662
806.109	0.0138089
806.187	0.0138132
806.265	0.0136796
806.343	0.0140412
806.421	0.0137813
806.499	0.0137881
806.578	0.0138570
806.656	0.0138429
806.734	0.0137527
806.812	0.0138441
806.890	0.0138653
806.968	0.0137296
807.046	0.0138715
807.124	0.0137263
807.203	0.0137357
807.281	0.0139571
807.359	0.0139948
807.437	0.0138081
807.515	0.0137946
807.593	0.0139109
807.671	0.0137595
807.749	0.0140424
807.828	0.0140103
807.906	0.0139474
807.984	0.0139353
808.062	0.0140946
808.140	0.0140234
808.218	0.0138686
808.296	0.0140514
808.374	0.0140596
808.453	0.0139230
808.531	0.0138593
808.609	0.0138489
808.687	0.0139220
808.765	0.0139462
808.843	0.0138481
808.921	0.0139572
808.999	0.0138429
809.078	0.0137619
809.156	0.0138055
809.234	0.0136856
809.312	0.0138213
809.390	0.0139203
809.468	0.0138720
809.546	0.0138351
809.624	0.0137762
809.703	0.0138249
809.781	0.0138577
809.859	0.0139368
809.937	0.0138929
810.015	0.0138372
810.093	0.0138399
810.171	0.0138850
810.249	0.0137896
810.328	0.0138585
810.406	0.0138872
810.484	0.0138641
810.562	0.0137624
810.640	0.0138413
810.718	0.0137650
810.796	0.0137128
810.874	0.0137878
810.953	0.0138335
811.031	0.0137617
811.109	0.0136255
811.187	0.0137688
811.265	0.0137340
811.343	0.0138419
811.421	0.0137722
811.499	0.0138553
811.578	0.0137625
811.656	0.0137248
811.734	0.0137451
811.812	0.0137336
811.890	0.0139021
811.968	0.0137851
812.046	0.0138253
812.124	0.0137833
812.203	0.0138084
812.281	0.0138940
812.359	0.0138844
812.437	0.0138064
812.515	0.0138781
812.593	0.0139584
812.671	0.0139461
812.749	0.0140086
812.828	0.0139593
812.906	0.0138758
812.984	0.0138852
813.062	0.0139242
813.140	0.0139122
813.218	0.0138849
813.296	0.0138493
813.374	0.0138777
813.453	0.0138342
813.531	0.0138142
813.609	0.0137577
813.687	0.0138630
813.765	0.0138498
813.843	0.0137840
813.921	0.0137885
813.999	0.0137794
814.078	0.0138521
814.156	0.0139248
814.234	0.0139427
814.312	0.0137599
814.390	0.0138872
814.468	0.0139210
814.546	0.0138639
814.624	0.0139291
814.703	0.0139465
814.781	0.0138916
814.859	0.0140337
814.937	0.0139764
815.015	0.0138872
815.093	0.0138439
815.171	0.0139710
815.249	0.0138788
815.328	0.0138445
815.406	0.0137784
815.484	0.0137854
815.562	0.0137665
815.640	0.0136524
815.718	0.0137562
815.796	0.0137496
815.874	0.0136465
815.953	0.0136320
816.031	0.0136629
816.109	0.0136306
816.187	0.0135625
816.265	0.0135042
816.343	0.0135712
816.421	0.0135512
816.499	0.0136887
816.578	0.0135552
816.656	0.0135649
816.734	0.0134344
816.812	0.0135673
816.890	0.0136652
816.968	0.0136571
817.046	0.0136089
817.124	0.0136596
817.203	0.0136253
817.281	0.0137285
817.359	0.0138319
817.437	0.0138631
817.515	0.0137508
817.593	0.0138156
817.671	0.0138473
817.749	0.0136986
817.828	0.0138560
817.906	0.0137814
817.984	0.0138538
818.062	0.0138707
818.140	0.0138925
818.218	0.0138261
818.296	0.0137350
818.374	0.0138552
818.453	0.0138391
818.531	0.0138859
818.609	0.0139786
818.687	0.0137759
818.765	0.0136632
818.843	0.0138417
818.921	0.0140052
818.999	0.0139626
819.078	0.0138574
819.156	0.0139173
819.234	0.0139424
819.312	0.0139888
819.390	0.0140236
819.468	0.0140102
819.546	0.0140473
819.624	0.0141494
819.703	0.0139380
819.781	0.0140482
819.859	0.0139172
819.937	0.0139307
820.015	0.0139851
820.093	0.0139335
820.171	0.0140197
820.249	0.0139005
820.328	0.0138635
820.406	0.0137609
820.484	0.0139966
820.562	0.0138696
820.640	0.0138950
820.718	0.0138142
820.796	0.0137932
820.874	0.0136495
820.953	0.0137399
821.031	0.0135702
821.109	0.0136555
821.187	0.0137022
821.265	0.0136816
821.343	0.0136263
821.421	0.0135476
821.499	0.0136305
821.578	0.0135682
821.656	0.0136477
821.734	0.0135951
821.812	0.0135286
821.890	0.0136572
821.968	0.0136491
822.046	0.0135819
822.124	0.0136667
822.203	0.0135464
822.281	0.0137511
822.359	0.0136970
822.437	0.0136952
822.515	0.0138740
822.593	0.0138303
822.671	0.0138020
822.749	0.0137344
822.828	0.0139638
822.906	0.0139742
822.984	0.0138613
823.062	0.0138390
823.140	0.0138876
823.218	0.0139181
823.296	0.0138637
823.374	0.0140677
823.453	0.0139479
823.531	0.0139826
823.609	0.0138964
823.687	0.0138599
823.765	0.0139452
823.843	0.0139348
823.921	0.0140936
823.999	0.0139459
824.078	0.0139239
824.156	0.0139503
824.234	0.0139780
824.312	0.0138813
824.390	0.0138496
824.468	0.0138412
824.546	0.0138660
824.624	0.0138261
824.703	0.0140321
824.781	0.0139069
824.859	0.0137594
824.937	0.0137359
825.015	0.0138831
825.093	0.0138425
825.171	0.0139199
825.249	0.0139370
825.328	0.0138816
825.406	0.0138690
825.484	0.0139701
825.562	0.0138749
825.640	0.0138356
825.718	0.0137679
825.796	0.0137486
825.874	0.0138656
825.953	0.0138178
826.031	0.0137059
826.109	0.0137386
826.187	0.0137086
826.265	0.0136546
826.343	0.0137173
826.421	0.0136433
826.499	0.0135937
826.578	0.0135825
826.656	0.0136001
826.734	0.0136024
826.812	0.0136070
826.890	0.0134285
826.968	0.0134731
827.046	0.0134383
827.124	0.0134719
827.203	0.0136398
827.281	0.0137974
827.359	0.0135506
827.437	0.0136501
827.515	0.0138128
827.593	0.0137395
827.671	0.0138570
827.749	0.0138441
827.828	0.0137168
827.906	0.0137217
827.984	0.0138686
828.062	0.0138168
828.140	0.0138770
828.218	0.0138612
828.296	0.0140492
828.374	0.0139662
828.453	0.0140070
828.531	0.0140399
828.609	0.0139916
828.687	0.0139481
828.765	0.0139414
828.843	0.0139003
828.921	0.0140634
828.999	0.0140690
829.078	0.0139919
829.156	0.0139256
829.234	0.0140501
829.312	0.0139185
829.390	0.0139194
829.468	0.0139645
829.546	0.0139642
829.624	0.0140756
829.703	0.0139452
829.781	0.0140031
829.859	0.0138935
829.937	0.0138633
830.015	0.0138520
830.093	0.0139335
830.171	0.0139258
830.249	0.0138945
830.328	0.0138750
830.406	0.0138894
830.484	0.0140291
830.562	0.0139813
830.640	0.0139061
830.718	0.0139719
830.796	0.0140071
830.874	0.0139460
830.953	0.0138960
831.031	0.0139314
831.109	0.0139870
831.187	0.0140105
831.265	0.0138785
831.343	0.0140482
831.421	0.0140104
831.499	0.0138065
831.578	0.0138206
831.656	0.0137804
831.734	0.0137280
831.812	0.0138491
831.890	0.0138805
831.968	0.0137997
832.046	0.0138194
832.124	0.0135987
832.203	0.0136832
832.281	0.0137955
832.359	0.0137663
832.437	0.0136557
832.515	0.0137582
832.593	0.0137524
832.671	0.0137973
832.749	0.0138492
832.828	0.0138377
832.906	0.0138904
832.984	0.0138636
833.062	0.0136932
833.140	0.0139391
833.218	0.0138178
833.296	0.0139624
833.374	0.0139223
833.453	0.0139913
833.531	0.0139422
833.609	0.0138924
833.687	0.0139064
833.765	0.0138838
833.843	0.0141136
833.921	0.0140396
833.999	0.0139005
834.078	0.0139341
834.156	0.0138304
834.234	0.0137664
834.312	0.0138867
834.390	0.0138892
834.468	0.0139198
834.546	0.0138357
834.624	0.0137870
834.703	0.0138439
834.781	0.0139757
834.859	0.0139318
834.937	0.0138529
835.015	0.0138788
835.093	0.0139070
835.171	0.0139426
835.249	0.0137417
835.328	0.0139210
835.406	0.0139590
835.484	0.0138921
835.562	0.0138854
835.640	0.0138647
835.718	0.0140852
835.796	0.0139299
835.874	0.0138531
835.953	0.0138382
836.031	0.0138361
836.109	0.0137326
836.187	0.0139407
836.265	0.0139387
836.343	0.0138454
836.421	0.0138585
836.499	0.0137214
836.578	0.0138122
836.656	0.0138168
836.734	0.0139021
836.812	0.0136861
836.890	0.0136840
836.968	0.0138805
837.046	0.0137570
837.124	0.0136488
837.203	0.0136244
837.281	0.0136948
837.359	0.0136874
837.437	0.0137254
837.515	0.0136958
837.593	0.0136733
837.671	0.0137370
837.749	0.0136230
837.828	0.0137748
837.906	0.0138255
837.984	0.0136997
838.062	0.0136857
838.140	0.0138273
838.218	0.0137717
838.296	0.0137655
838.374	0.0138008
838.453	0.0137434
838.531	0.0137352
838.609	0.0138213
838.687	0.0136983
838.765	0.0138280
838.843	0.0138256
838.921	0.0139005
838.999	0.0137851
839.078	0.0139215
839.156	0.0140151
839.234	0.0139534
839.312	0.0138402
839.390	0.0139124
839.468	0.0138360
839.546	0.0138870
839.624	0.0140096
839.703	0.0140852
839.781	0.0139696
839.859	0.0139954
839.937	0.0138447
840.015	0.0138113
840.093	0.0138750
840.171	0.0139507
840.249	0.0139070
840.328	0.0140071
840.406	0.0138593
840.484	0.0138107
840.562	0.0138387
840.640	0.0139789
840.718	0.0139292
840.796	0.0138407
840.874	0.0137010
840.953	0.0138097
841.031	0.0138142
841.109	0.0138787
841.187	0.0137790
841.265	0.0138880
841.343	0.0137546
841.421	0.0138074
841.499	0.0139381
841.578	0.0137837
841.656	0.0138343
841.734	0.0138960
841.812	0.0137470
841.890	0.0138210
841.968	0.0138871
842.046	0.0139472
842.124	0.0137883
842.203	0.0137945
842.281	0.0137253
842.359	0.0139056
842.437	0.0137625
842.515	0.0138319
842.593	0.0138328
842.671	0.0137640
842.749	0.0137635
842.828	0.0137766
842.906	0.0138614
842.984	0.0137466
843.062	0.0137241
843.140	0.0137638
843.218	0.0137843
843.296	0.0136267
843.374	0.0137054
843.453	0.0136132
843.531	0.0138075
843.609	0.0139675
843.687	0.0138012
843.765	0.0137550
843.843	0.0138445
843.921	0.0139748
843.999	0.0139002
844.078	0.0140302
844.156	0.0140028
844.234	0.0139658
844.312	0.0140739
844.390	0.0139889
844.468	0.0137788
844.546	0.0138613
844.624	0.0139122
844.703	0.0139075
844.781	0.0138548
844.859	0.0138030
844.937	0.0137484
845.015	0.0138839
845.093	0.0138906
845.171	0.0138726
845.249	0.0138712
845.328	0.0137119
845.406	0.0139228
845.484	0.0138881
845.562	0.0138074
845.640	0.0137815
845.718	0.0137991
845.796	0.0138532
845.874	0.0137953
845.953	0.0138667
846.031	0.0138795
846.109	0.0138969
846.187	0.0138217
846.265	0.0137619
846.343	0.0138525
846.421	0.0136192
846.499	0.0137376
846.578	0.0137937
846.656	0.0138953
846.734	0.0138084
846.812	0.0138319
846.890	0.0138908
846.968	0.0138554
847.046	0.0138550
847.124	0.0138183
847.203	0.0137228
847.281	0.0136995
847.359	0.0138243
847.437	0.0136819
847.515	0.0136713
847.593	0.0137416
847.671	0.0137281
847.749	0.0138247
847.828	0.0138602
847.906	0.0138789
847.984	0.0137452
848.062	0.0139217
848.140	0.0138418
848.218	0.0137495
848.296	0.0137593
848.374	0.0138625
848.453	0.0137041
848.531	0.0138039
848.609	0.0137756
848.687	0.0138094
848.765	0.0138786
848.843	0.0137238
848.921	0.0138278
848.999	0.0137955
849.078	0.0137979
849.156	0.0138103
849.234	0.0138674
849.312	0.0137315
849.390	0.0140243
849.468	0.0140655
849.546	0.0139890
849.624	0.0140328
849.703	0.0138873
849.781	0.0141496
849.859	0.0139754
849.937	0.0139314
850.015	0.0138114
850.093	0.0138911
850.171	0.0140454
850.249	0.0139418
850.328	0.0140367
850.406	0.0139001
850.484	0.0138507
850.562	0.0139020
850.640	0.0139024
850.718	0.0138319
850.796	0.0139791
850.874	0.0139841
850.953	0.0138400
851.031	0.0138731
851.109	0.0139064
851.187	0.0138853
851.265	0.0138786
851.343	0.0138116
851.421	0.0137993
851.499	0.0138740
851.578	0.0137540
851.656	0.0138223
851.734	0.0138024
851.812	0.0138805
851.890	0.0140152
851.968	0.0139355
852.046	0.0140894
852.124	0.0139288
852.203	0.0139995
852.281	0.0139716
852.359	0.0139325
852.437	0.0139283
852.515	0.0138457
852.593	0.0138560
852.671	0.0139690
852.749	0.0138631
852.828	0.0138989
852.906	0.0136653
852.984	0.0138414
853.062	0.0138678
853.140	0.0138284
853.218	0.0138621
853.296	0.0139102
853.374	0.0138445
853.453	0.0138618
853.531	0.0137805
853.609	0.0138303
853.687	0.0138499
853.765	0.0140154
853.843	0.0139153
853.921	0.0138058
853.999	0.0137728
854.078	0.0139037
854.156	0.0138323
854.234	0.0137329
854.312	0.0139692
854.390	0.0138239
854.468	0.0138908
854.546	0.0139172
854.624	0.0139265
854.703	0.0140028
854.781	0.0140270
854.859	0.0140181
854.937	0.0138968
855.015	0.0139368
855.093	0.0139466
855.171	0.0140839
855.249	0.0140120
855.328	0.0140492
855.406	0.0139509
855.484	0.0140485
855.562	0.0140006
855.640	0.0139822
855.718	0.0138879
855.796	0.0140131
855.874	0.0138593
855.953	0.0139273
856.031	0.0139452
856.109	0.0138012
856.187	0.0138847
856.265	0.0138305
856.343	0.0138197
856.421	0.0138979
856.499	0.0137652
856.578	0.0137167
856.656	0.0138148
856.734	0.0138597
856.812	0.0138321
856.890	0.0139350
856.968	0.0138195
857.046	0.0136848
857.124	0.0139368
857.203	0.0138432
857.281	0.0138756
857.359	0.0139236
857.437	0.0137282
857.515	0.0138758
857.593	0.0139779
857.671	0.0138623
857.749	0.0137005
857.828	0.0138336
857.906	0.0138461
857.984	0.0138702
858.062	0.0139655
858.140	0.0138402
858.218	0.0138503
858.296	0.0138528
858.374	0.0139215
858.453	0.0138276
858.531	0.0138496
858.609	0.0138560
858.687	0.0137598
858.765	0.0139797
858.843	0.0138853
858.921	0.0138340
858.999	0.0137521
859.078	0.0137569
859.156	0.0137656
859.234	0.0138818
859.312	0.0137811
859.390	0.0137669
859.468	0.0137694
859.546	0.0138213
859.624	0.0138216
859.703	0.0138905
859.781	0.0137995
859.859	0.0138771
859.937	0.0138777
860.015	0.0138984
860.093	0.0138311
860.171	0.0138587
860.249	0.0138898
860.328	0.0139612
860.406	0.0139564
860.484	0.0139444
860.562	0.0139355
860.640	0.0139671
860.718	0.0139605
860.796	0.0138937
860.874	0.0138484
860.953	0.0138637
861.031	0.0139051
861.109	0.0138251
861.187	0.0138519
861.265	0.0137543
861.343	0.0138447
861.421	0.0137263
861.499	0.0138432
861.578	0.0138277
861.656	0.0138302
861.734	0.0137093
861.812	0.0138342
861.890	0.0136972
861.968	0.0137541
862.046	0.0139301
862.124	0.0139177
862.203	0.0136270
862.281	0.0137693
862.359	0.0138769
862.437	0.0137657
862.515	0.0137421
862.593	0.0136475
862.671	0.0138460
862.749	0.0137968
862.828	0.0138786
862.906	0.0138602
862.984	0.0138991
863.062	0.0138860
863.140	0.0138032
863.218	0.0138014
863.296	0.0139825
863.374	0.0138692
863.453	0.0137597
863.531	0.0140176
863.609	0.0139409
863.687	0.0138274
863.765	0.0138133
863.843	0.0139847
863.921	0.0138866
863.999	0.0138528
864.078	0.0139079
864.156	0.0139338
864.234	0.0138121
864.312	0.0136665
864.390	0.0138811
864.468	0.0139941
864.546	0.0137408
864.624	0.0138361
864.703	0.0139151
864.781	0.0139072
864.859	0.0138270
864.937	0.0138904
865.015	0.0138885
865.093	0.0138697
865.171	0.0138400
865.249	0.0138877
865.328	0.0138601
865.406	0.0139363
865.484	0.0138863
865.562	0.0139207
865.640	0.0139097
865.718	0.0139603
865.796	0.0138788
865.874	0.0139081
865.953	0.0139455
866.031	0.0139073
866.109	0.0138120
866.187	0.0138455
866.265	0.0140104
866.343	0.0138719
866.421	0.0138517
866.499	0.0138744
866.578	0.0137350
866.656	0.0138312
866.734	0.0138978
866.812	0.0137279
866.890	0.0138658
866.968	0.0138527
867.046	0.0138159
867.124	0.0138302
867.203	0.0138314
867.281	0.0138696
867.359	0.0139176
867.437	0.0137489
867.515	0.0138217
867.593	0.0138768
867.671	0.0138895
867.749	0.0140250
867.828	0.0139724
867.906	0.0139463
867.984	0.0139700
868.062	0.0139138
868.140	0.0138556
868.218	0.0139568
868.296	0.0138905
868.374	0.0138811
868.453	0.0138845
868.531	0.0138667
868.609	0.0138486
868.687	0.0138476
868.765	0.0138776
868.843	0.0137640
868.921	0.0137807
868.999	0.0137914
869.078	0.0138803
869.156	0.0139758
869.234	0.0138340
869.312	0.0138248
869.390	0.0138638
869.468	0.0138832
869.546	0.0138717
869.624	0.0138766
869.703	0.0139168
869.781	0.0139791
869.859	0.0139239
869.937	0.0138654
870.015	0.0139508
870.093	0.0139587
870.171	0.0138185
870.249	0.0139352
870.328	0.0138187
870.406	0.0138084
870.484	0.0139596
870.562	0.0139442
870.640	0.0138346
870.718	0.0138541
870.796	0.0138834
870.874	0.0137674
870.953	0.0138191
871.031	0.0139110
871.109	0.0138759
871.187	0.0137945
871.265	0.0138267
871.343	0.0138231
871.421	0.0138714
871.499	0.0138116
871.578	0.0138912
871.656	0.0138715
871.734	0.0137130
871.812	0.0137986
871.890	0.0137960
871.968	0.0137691
872.046	0.0138527
872.124	0.0138542
872.203	0.0138144
872.281	0.0137372
872.359	0.0137880
872.437	0.0139022
872.515	0.0137257
872.593	0.0139528
872.671	0.0140564
872.749	0.0139489
872.828	0.0139736
872.906	0.0138956
872.984	0.0137521
873.062	0.0138564
873.140	0.0139317
873.218	0.0136460
873.296	0.0139265
873.374	0.0139268
873.453	0.0139690
873.531	0.0138572
873.609	0.0139438
873.687	0.0138486
873.765	0.0138725
873.843	0.0138086
873.921	0.0137405
873.999	0.0139251
874.078	0.0139072
874.156	0.0137843
874.234	0.0137497
874.312	0.0139052
874.390	0.0139486
874.468	0.0138798
874.546	0.0139488
874.624	0.0138865
874.703	0.0139908
874.781	0.0138590
874.859	0.0138448
874.937	0.0139311
875.015	0.0138928
875.093	0.0139148
875.171	0.0138733
875.249	0.0139109
875.328	0.0139828
875.406	0.0137812
875.484	0.0137055
875.562	0.0135990
875.640	0.0137234
875.718	0.0137151
875.796	0.0137890
875.874	0.0137994
875.953	0.0137562
876.031	0.0136472
876.109	0.0136953
876.187	0.0137289
876.265	0.0137525
876.343	0.0136842
876.421	0.0137219
876.499	0.0138757
876.578	0.0137921
876.656	0.0138586
876.734	0.0138377
876.812	0.0137419
876.890	0.0139350
876.968	0.0138046
877.046	0.0140086
877.124	0.0138351
877.203	0.0138350
877.281	0.0138354
877.359	0.0138592
877.437	0.0138750
877.515	0.0139232
877.593	0.0139383
877.671	0.0139977
877.749	0.0139852
877.828	0.0137913
877.906	0.0139619
877.984	0.0138886
878.062	0.0139048
878.140	0.0140044
878.218	0.0140214
878.296	0.0138693
878.374	0.0139907
878.453	0.0138609
878.531	0.0138039
878.609	0.0140088
878.687	0.0140077
878.765	0.0139951
878.843	0.0140092
878.921	0.0138582
878.999	0.0138906
879.078	0.0139069
879.156	0.0139534
879.234	0.0140971
879.312	0.0139105
879.390	0.0139354
879.468	0.0139304
879.546	0.0138700
879.624	0.0140848
879.703	0.0139253
879.781	0.0139688
879.859	0.0138520
879.937	0.0138377
880.015	0.0138811
880.093	0.0138176
880.171	0.0137778
880.249	0.0137727
880.328	0.0136984
880.406	0.0136841
880.484	0.0138721
880.562	0.0139090
880.640	0.0138954
880.718	0.0136973
880.796	0.0137425
880.874	0.0138535
880.953	0.0137901
881.031	0.0138287
881.109	0.0138826
881.187	0.0139091
881.265	0.0138450
881.343	0.0138010
881.421	0.0137722
881.499	0.0137905
881.578	0.0138678
881.656	0.0138501
881.734	0.0137955
881.812	0.0139433
881.890	0.0139471
881.968	0.0139399
882.046	0.0138472
882.124	0.0139023
882.203	0.0139310
882.281	0.0138510
882.359	0.0138506
882.437	0.0139827
882.515	0.0139808
882.593	0.0138560
882.671	0.0138853
882.749	0.0138807
882.828	0.0139470
882.906	0.0138078
882.984	0.0140733
883.062	0.0138788
883.140	0.0139429
883.218	0.0138328
883.296	0.0139085
883.374	0.0138338
883.453	0.0137526
883.531	0.0138155
883.609	0.0138719
883.687	0.0138738
883.765	0.0138875
883.843	0.0138309
883.921	0.0138185
883.999	0.0138599
884.078	0.0139747
884.156	0.0137894
884.234	0.0138871
884.312	0.0139629
884.390	0.0139556
884.468	0.0139222
884.546	0.0138363
884.624	0.0138103
884.703	0.0138257
884.781	0.0139068
884.859	0.0136827
884.937	0.0137847
885.015	0.0138223
885.093	0.0138371
885.171	0.0138310
885.249	0.0137793
885.328	0.0138492
885.406	0.0138503
885.484	0.0138152
885.562	0.0136748
885.640	0.0137226
885.718	0.0136803
885.796	0.0135651
885.874	0.0138344
885.953	0.0137280
886.031	0.0136838
886.109	0.0137115
886.187	0.0137392
886.265	0.0137205
886.343	0.0137225
886.421	0.0138021
886.499	0.0136449
886.578	0.0137871
886.656	0.0138061
886.734	0.0137172
886.812	0.0137637
886.890	0.0138135
886.968	0.0137680
887.046	0.0137709
887.124	0.0138422
887.203	0.0139308
887.281	0.0137772
887.359	0.0138232
887.437	0.0138329
887.515	0.0139278
887.593	0.0137713
887.671	0.0138795
887.749	0.0138995
887.828	0.0138007
887.906	0.0137234
887.984	0.0138074
888.062	0.0138721
888.140	0.0138728
888.218	0.0138541
888.296	0.0138961
888.374	0.0139455
888.453	0.0139739
888.531	0.0138149
888.609	0.0138963
888.687	0.0139897
888.765	0.0139909
888.843	0.0140263
888.921	0.0138602
888.999	0.0137558
889.078	0.0139021
889.156	0.0138795
889.234	0.0140089
889.312	0.0138092
889.390	0.0138127
889.468	0.0138787
889.546	0.0138215
889.624	0.0138737
889.703	0.0138604
889.781	0.0136341
889.859	0.0138670
889.937	0.0138137
890.015	0.0137830
890.093	0.0138782
890.171	0.0139381
890.249	0.0138955
890.328	0.0138177
890.406	0.0139319
890.484	0.0138797
890.562	0.0136983
890.640	0.0138707
890.718	0.0138129
890.796	0.0137512
890.874	0.0137229
890.953	0.0137954
891.031	0.0137041
891.109	0.0136920
891.187	0.0136531
891.265	0.0136268
891.343	0.0136884
891.421	0.0136913
891.499	0.0137474
891.578	0.0138728
891.656	0.0138347
891.734	0.0138103
891.812	0.0137704
891.890	0.0138726
891.968	0.0138026
892.046	0.0138340
892.124	0.0138731
892.203	0.0139116
892.281	0.0138348
892.359	0.0138945
892.437	0.0138306
892.515	0.0138286
892.593	0.0137785
892.671	0.0138968
892.749	0.0139818
892.828	0.0138258
892.906	0.0139111
892.984	0.0138807
893.062	0.0140249
893.140	0.0138637
893.218	0.0138857
893.296	0.0139008
893.374	0.0140002
893.453	0.0139598
893.531	0.0141162
893.609	0.0140223
893.687	0.0139587
893.765	0.0140151
893.843	0.0138625
893.921	0.0140038
893.999	0.0141020
894.078	0.0138212
894.156	0.0139542
894.234	0.0139999
894.312	0.0139407
894.390	0.0137476
894.468	0.0138886
894.546	0.0138509
894.624	0.0138010
894.703	0.0137408
894.781	0.0138263
894.859	0.0138822
894.937	0.0138253
895.015	0.0138369
895.093	0.0137507
895.171	0.0138377
895.249	0.0137624
895.328	0.0139224
895.406	0.0138221
895.484	0.0138422
895.562	0.0137727
895.640	0.0138239
895.718	0.0137184
895.796	0.0138173
895.874	0.0137487
895.953	0.0137852
896.031	0.0138033
896.109	0.0138044
896.187	0.0137266
896.265	0.0136922
896.343	0.0137383
896.421	0.0137617
896.499	0.0137219
896.578	0.0136414
896.656	0.0137497
896.734	0.0137051
896.812	0.0138427
896.890	0.0139644
896.968	0.0139075
897.046	0.0137511
897.124	0.0137994
897.203	0.0139266
897.281	0.0138832
897.359	0.0137965
897.437	0.0138345
897.515	0.0139573
897.593	0.0139056
897.671	0.0137179
897.749	0.0138055
897.828	0.0137431
897.906	0.0138879
897.984	0.0139203
898.062	0.0138801
898.140	0.0138219
898.218	0.0136818
898.296	0.0137383
898.374	0.0138171
898.453	0.0138017
898.531	0.0138959
898.609	0.0139894
898.687	0.0139690
898.765	0.0138769
898.843	0.0139241
898.921	0.0140732
898.999	0.0140049
899.078	0.0140454
899.156	0.0141317
899.234	0.0141209
899.312	0.0138667
899.390	0.0140981
899.468	0.0139278
899.546	0.0138730
899.624	0.0138612
899.703	0.0138329
899.781	0.0138013
899.859	0.0138987
899.937	0.0138892
900.015	0.0138833
900.093	0.0138702
900.171	0.0138168
900.249	0.0139110
900.328	0.0139017
900.406	0.0138161
900.484	0.0139063
900.562	0.0138351
900.640	0.0138176
900.718	0.0139014
900.796	0.0138889
900.874	0.0137991
900.953	0.0138464
901.031	0.0138592
901.109	0.0139220
901.187	0.0138962
901.265	0.0138892
901.343	0.0138324
901.421	0.0138342
901.499	0.0137837
901.578	0.0139463
901.656	0.0139839
901.734	0.0138574
901.812	0.0140166
901.890	0.0138656
901.968	0.0139690
902.046	0.0138798
902.124	0.0138248
902.203	0.0138120
902.281	0.0138588
902.359	0.0138601
902.437	0.0137924
902.515	0.0138882
902.593	0.0138680
902.671	0.0138910
902.749	0.0137980
902.828	0.0136689
902.906	0.0136676
902.984	0.0137576
903.062	0.0136985
903.140	0.0137967
903.218	0.0136501
903.296	0.0137154
903.374	0.0136700
903.453	0.0137781
903.531	0.0136965
903.609	0.0136781
903.687	0.0136010
903.765	0.0136665
903.843	0.0139211
903.921	0.0138058
903.999	0.0136066
904.078	0.0138278
904.156	0.0138841
904.234	0.0139585
904.312	0.0139320
904.390	0.0138667
904.468	0.0139138
904.546	0.0139117
904.624	0.0139453
904.703	0.0139359
904.781	0.0137209
904.859	0.0138477
904.937	0.0140157
905.015	0.0138626
905.093	0.0137906
905.171	0.0139266
905.249	0.0138434
905.328	0.0138462
905.406	0.0136990
905.484	0.0138448
905.562	0.0138177
905.640	0.0138062
905.718	0.0138731
905.796	0.0137169
905.874	0.0139271
905.953	0.0138741
906.031	0.0138235
906.109	0.0138126
906.187	0.0139050
906.265	0.0139041
906.343	0.0138823
906.421	0.0139511
906.499	0.0138752
906.578	0.0139053
906.656	0.0138413
906.734	0.0139410
906.812	0.0139801
906.890	0.0139015
906.968	0.0138468
907.046	0.0138791
907.124	0.0137040
907.203	0.0139169
907.281	0.0138503
907.359	0.0138488
907.437	0.0137025
907.515	0.0137656
907.593	0.0136771
907.671	0.0136095
907.749	0.0137284
907.828	0.0137900
907.906	0.0137471
907.984	0.0138609
908.062	0.0137814
908.140	0.0138315
908.218	0.0137357
908.296	0.0137215
908.374	0.0137775
908.453	0.0137284
908.531	0.0136706
908.609	0.0138017
908.687	0.0137157
908.765	0.0138562
908.843	0.0137202
908.921	0.0137385
908.999	0.0136806
909.078	0.0137267
909.156	0.0138245
909.234	0.0137628
909.312	0.0137653
909.390	0.0139034
909.468	0.0139574
909.546	0.0140327
909.624	0.0139630
909.703	0.0139698
909.781	0.0139603
909.859	0.0139423
909.937	0.0139139
910.015	0.0140125
910.093	0.0138548
910.171	0.0139474
910.249	0.0140119
910.328	0.0139858
910.406	0.0139662
910.484	0.0140189
910.562	0.0139643
910.640	0.0138364
910.718	0.0140203
910.796	0.0140429
910.874	0.0139110
910.953	0.0136860
911.031	0.0137009
911.109	0.0137015
911.187	0.0138407
911.265	0.0138580
911.343	0.0136905
911.421	0.0138206
911.499	0.0138417
911.578	0.0137864
911.656	0.0136732
911.734	0.0136588
911.812	0.0138975
911.890	0.0139492
911.968	0.0139408
912.046	0.0139622
912.124	0.0138039
912.203	0.0138348
912.281	0.0138908
912.359	0.0138435
912.437	0.0139517
912.515	0.0138245
912.593	0.0138688
912.671	0.0139588
912.749	0.0139410
912.828	0.0138330
912.906	0.0137547
912.984	0.0138052
913.062	0.0138973
913.140	0.0139011
913.218	0.0138485
913.296	0.0137802
913.374	0.0138372
913.453	0.0138415
913.531	0.0137712
913.609	0.0137866
913.687	0.0137888
913.765	0.0138676
913.843	0.0137697
913.921	0.0137849
913.999	0.0138926
914.078	0.0138303
914.156	0.0137595
914.234	0.0137949
914.312	0.0137871
914.390	0.0138435
914.468	0.0138382
914.546	0.0138586
914.624	0.0138967
914.703	0.0138386
914.781	0.0139994
914.859	0.0139767
914.937	0.0139684
915.015	0.0139023
915.093	0.0139431
915.171	0.0138561
915.249	0.0141077
915.328	0.0140835
915.406	0.0140026
915.484	0.0139431
915.562	0.0139621
915.640	0.0139582
915.718	0.0140968
915.796	0.0139590
915.874	0.0138765
915.953	0.0139421
916.031	0.0137856
916.109	0.0137483
916.187	0.0137798
916.265	0.0138419
916.343	0.0137669
916.421	0.0138255
916.499	0.0138087
916.578	0.0136724
916.656	0.0137109
916.734	0.0137515
916.812	0.0136699
916.890	0.0138616
916.968	0.0138855
917.046	0.0138789
917.124	0.0139004
917.203	0.0138840
917.281	0.0139983
917.359	0.0139685
917.437	0.0139349
917.515	0.0140638
917.593	0.0140183
917.671	0.0139098
917.749	0.0140290
917.828	0.0139104
917.906	0.0139043
917.984	0.0139452
918.062	0.0139650
918.140	0.0138992
918.218	0.0139717
918.296	0.0138737
918.374	0.0138271
918.453	0.0138702
918.531	0.0137789
918.609	0.0138614
918.687	0.0138763
918.765	0.0139040
918.843	0.0137206
918.921	0.0137660
918.999	0.0137448
919.078	0.0136898
919.156	0.0138452
919.234	0.0137179
919.312	0.0138424
919.390	0.0137271
919.468	0.0137717
919.546	0.0137472
919.624	0.0136559
919.703	0.0137882
919.781	0.0137992
919.859	0.0137910
919.937	0.0138168
