05/06/2022	18:53:44	Ver.	4.1	UNKNOWN
Optical Delay	600.015094	Delta X		0.078125	Sweeps	1	Scan Rate	0/0
Coordinates	Axis 1	NaN	Axis 2	NaN	Axis 3	NaN	Axis 4	NaN	Axis 5	NaN	Axis 6	0.000000
TX Power	0.000000	RX Power	0.000000

600.015	0.0135528
600.093	0.0136005
600.171	0.0136086
600.249	0.0135348
600.328	0.0136046
600.406	0.0136469
600.484	0.0136038
600.562	0.0136740
600.640	0.0135061
600.718	0.0135936
600.796	0.0136109
600.874	0.0135602
600.953	0.0135219
601.031	0.0135930
601.109	0.0136934
601.187	0.0135818
601.265	0.0134867
601.343	0.0134537
601.421	0.0134943
601.499	0.0134354
601.578	0.0134843
601.656	0.0136857
601.734	0.0136094
601.812	0.0135628
601.890	0.0135183
601.968	0.0135293
602.046	0.0136007
602.124	0.0135681
602.203	0.0134193
602.281	0.0134381
602.359	0.0135593
602.437	0.0135583
602.515	0.0135117
602.593	0.0136137
602.671	0.0135915
602.749	0.0135986
602.828	0.0135231
602.906	0.0135332
602.984	0.0134549
603.062	0.0135962
603.140	0.0134990
603.218	0.0136151
603.296	0.0135133
603.374	0.0136086
603.453	0.0135165
603.531	0.0135334
603.609	0.0136842
603.687	0.0135835
603.765	0.0136266
603.843	0.0135352
603.921	0.0136304
603.999	0.0135787
604.078	0.0135592
604.156	0.0135389
604.234	0.0134868
604.312	0.0135327
604.390	0.0134373
604.468	0.0134365
604.546	0.0135870
604.624	0.0136621
604.703	0.0134892
604.781	0.0135361
604.859	0.0135005
604.937	0.0134648
605.015	0.0136417
605.093	0.0136027
605.171	0.0135265
605.249	0.0135402
605.328	0.0134797
605.406	0.0135262
605.484	0.0135332
605.562	0.0134612
605.640	0.0135494
605.718	0.0135595
605.796	0.0134361
605.874	0.0137067
605.953	0.0135752
606.031	0.0135490
606.109	0.0135070
606.187	0.0135509
606.265	0.0135476
606.343	0.0135617
606.421	0.0135006
606.499	0.0136497
606.578	0.0134827
606.656	0.0135201
606.734	0.0134763
606.812	0.0136005
606.890	0.0134751
606.968	0.0135426
607.046	0.0136394
607.124	0.0136564
607.203	0.0135455
607.281	0.0136429
607.359	0.0134505
607.437	0.0134812
607.515	0.0134568
607.593	0.0134343
607.671	0.0135412
607.749	0.0134995
607.828	0.0135525
607.906	0.0135521
607.984	0.0134888
608.062	0.0136040
608.140	0.0135328
608.218	0.0135962
608.296	0.0135780
608.374	0.0135392
608.453	0.0135214
608.531	0.0135705
608.609	0.0134293
608.687	0.0135077
608.765	0.0135332
608.843	0.0135652
608.921	0.0134904
608.999	0.0134948
609.078	0.0135144
609.156	0.0136050
609.234	0.0136729
609.312	0.0135863
609.390	0.0134709
609.468	0.0134700
609.546	0.0134497
609.624	0.0134478
609.703	0.0135922
609.781	0.0134975
609.859	0.0135220
609.937	0.0135641
610.015	0.0135677
610.093	0.0135931
610.171	0.0134059
610.249	0.0134618
610.328	0.0136713
610.406	0.0135506
610.484	0.0135956
610.562	0.0135535
610.640	0.0135797
610.718	0.0136062
610.796	0.0134264
610.874	0.0134625
610.953	0.0135428
611.031	0.0136752
611.109	0.0135355
611.187	0.0135443
611.265	0.0134012
611.343	0.0136180
611.421	0.0135691
611.499	0.0134894
611.578	0.0135323
611.656	0.0135738
611.734	0.0135905
611.812	0.0137520
611.890	0.0135725
611.968	0.0134651
612.046	0.0135427
612.124	0.0135773
612.203	0.0135432
612.281	0.0134898
612.359	0.0135683
612.437	0.0135641
612.515	0.0136549
612.593	0.0135404
612.671	0.0134556
612.749	0.0135390
612.828	0.0136071
612.906	0.0134418
612.984	0.0134872
613.062	0.0134594
613.140	0.0134621
613.218	0.0136230
613.296	0.0135128
613.374	0.0134501
613.453	0.0135506
613.531	0.0136230
613.609	0.0135497
613.687	0.0136357
613.765	0.0134620
613.843	0.0134612
613.921	0.0135234
613.999	0.0134547
614.078	0.0133903
614.156	0.0136165
614.234	0.0136260
614.312	0.0134977
614.390	0.0136172
614.468	0.0135210
614.546	0.0137133
614.624	0.0135421
614.703	0.0135275
614.781	0.0135287
614.859	0.0134833
614.937	0.0134997
615.015	0.0135893
615.093	0.0135855
615.171	0.0134853
615.249	0.0136703
615.328	0.0137474
615.406	0.0136871
615.484	0.0135488
615.562	0.0135690
615.640	0.0135107
615.718	0.0135535
615.796	0.0134643
615.874	0.0136066
615.953	0.0136149
616.031	0.0135863
616.109	0.0136633
616.187	0.0135297
616.265	0.0134814
616.343	0.0136128
616.421	0.0135837
616.499	0.0136372
616.578	0.0136090
616.656	0.0135893
616.734	0.0135072
616.812	0.0135937
616.890	0.0135815
616.968	0.0135465
617.046	0.0135106
617.124	0.0138274
617.203	0.0135291
617.281	0.0135377
617.359	0.0136308
617.437	0.0136460
617.515	0.0136192
617.593	0.0135258
617.671	0.0134750
617.749	0.0135641
617.828	0.0135039
617.906	0.0136069
617.984	0.0135258
618.062	0.0136494
618.140	0.0135617
618.218	0.0135693
618.296	0.0134973
618.374	0.0135016
618.453	0.0134411
618.531	0.0135668
618.609	0.0135825
618.687	0.0135120
618.765	0.0135235
618.843	0.0134611
618.921	0.0134597
618.999	0.0134691
619.078	0.0134293
619.156	0.0134545
619.234	0.0136166
619.312	0.0135900
619.390	0.0136447
619.468	0.0134792
619.546	0.0135236
619.624	0.0135448
619.703	0.0136044
619.781	0.0134391
619.859	0.0134341
619.937	0.0136255
620.015	0.0135101
620.093	0.0135653
620.171	0.0135734
620.249	0.0137037
620.328	0.0135918
620.406	0.0134476
620.484	0.0134766
620.562	0.0137618
620.640	0.0135751
620.718	0.0136205
620.796	0.0136486
620.874	0.0135059
620.953	0.0136804
621.031	0.0135687
621.109	0.0134673
621.187	0.0135834
621.265	0.0135504
621.343	0.0135799
621.421	0.0137259
621.499	0.0134038
621.578	0.0134795
621.656	0.0136380
621.734	0.0135231
621.812	0.0134673
621.890	0.0134967
621.968	0.0135433
622.046	0.0136055
622.124	0.0135036
622.203	0.0135793
622.281	0.0136022
622.359	0.0136338
622.437	0.0135605
622.515	0.0134920
622.593	0.0136610
622.671	0.0135480
622.749	0.0136205
622.828	0.0135478
622.906	0.0135744
622.984	0.0136803
623.062	0.0135056
623.140	0.0135312
623.218	0.0136767
623.296	0.0135654
623.374	0.0136623
623.453	0.0135468
623.531	0.0134766
623.609	0.0135824
623.687	0.0135051
623.765	0.0136254
623.843	0.0136194
623.921	0.0135004
623.999	0.0135522
624.078	0.0135297
624.156	0.0134559
624.234	0.0135323
624.312	0.0135724
624.390	0.0134731
624.468	0.0134518
624.546	0.0135381
624.624	0.0136085
624.703	0.0136075
624.781	0.0135801
624.859	0.0136361
624.937	0.0135670
625.015	0.0135645
625.093	0.0135735
625.171	0.0136587
625.249	0.0134671
625.328	0.0134599
625.406	0.0135310
625.484	0.0136627
625.562	0.0135700
625.640	0.0134946
625.718	0.0134991
625.796	0.0134525
625.874	0.0136795
625.953	0.0134207
626.031	0.0135862
626.109	0.0135629
626.187	0.0134628
626.265	0.0134364
626.343	0.0136273
626.421	0.0134294
626.499	0.0134341
626.578	0.0136374
626.656	0.0136376
626.734	0.0136552
626.812	0.0135987
626.890	0.0135662
626.968	0.0136353
627.046	0.0135470
627.124	0.0135921
627.203	0.0135480
627.281	0.0135049
627.359	0.0134689
627.437	0.0136078
627.515	0.0136517
627.593	0.0134997
627.671	0.0135132
627.749	0.0135360
627.828	0.0135153
627.906	0.0135892
627.984	0.0135687
628.062	0.0134376
628.140	0.0135334
628.218	0.0135513
628.296	0.0134645
628.374	0.0135350
628.453	0.0135973
628.531	0.0134991
628.609	0.0134841
628.687	0.0135175
628.765	0.0134911
628.843	0.0135104
628.921	0.0135818
628.999	0.0135138
629.078	0.0134789
629.156	0.0134978
629.234	0.0135676
629.312	0.0135876
629.390	0.0135361
629.468	0.0134495
629.546	0.0134331
629.624	0.0135299
629.703	0.0135506
629.781	0.0135184
629.859	0.0135255
629.937	0.0136732
630.015	0.0136969
630.093	0.0134967
630.171	0.0135515
630.249	0.0135661
630.328	0.0134592
630.406	0.0134605
630.484	0.0135409
630.562	0.0136197
630.640	0.0135551
630.718	0.0133047
630.796	0.0136035
630.874	0.0136777
630.953	0.0135088
631.031	0.0135026
631.109	0.0135290
631.187	0.0134634
631.265	0.0134364
631.343	0.0135612
631.421	0.0135290
631.499	0.0135112
631.578	0.0136976
631.656	0.0135543
631.734	0.0134325
631.812	0.0136315
631.890	0.0134318
631.968	0.0135596
632.046	0.0134666
632.124	0.0135020
632.203	0.0136621
632.281	0.0135609
632.359	0.0134323
632.437	0.0134647
632.515	0.0136407
632.593	0.0136089
632.671	0.0135313
632.749	0.0134557
632.828	0.0137756
632.906	0.0136649
632.984	0.0134996
633.062	0.0135976
633.140	0.0136473
633.218	0.0135499
633.296	0.0134515
633.374	0.0136462
633.453	0.0136413
633.531	0.0137227
633.609	0.0135256
633.687	0.0135685
633.765	0.0135853
633.843	0.0136243
633.921	0.0135865
633.999	0.0135210
634.078	0.0135601
634.156	0.0135626
634.234	0.0135180
634.312	0.0135110
634.390	0.0135395
634.468	0.0136903
634.546	0.0135521
634.624	0.0135065
634.703	0.0135979
634.781	0.0135085
634.859	0.0135957
634.937	0.0135760
635.015	0.0134996
635.093	0.0135738
635.171	0.0136290
635.249	0.0136308
635.328	0.0135547
635.406	0.0134943
635.484	0.0134914
635.562	0.0135547
635.640	0.0136076
635.718	0.0134801
635.796	0.0133920
635.874	0.0134888
635.953	0.0134990
636.031	0.0135402
636.109	0.0135826
636.187	0.0135138
636.265	0.0135540
636.343	0.0135168
636.421	0.0135963
636.499	0.0136364
636.578	0.0135961
636.656	0.0135983
636.734	0.0136054
636.812	0.0135402
636.890	0.0134711
636.968	0.0134783
637.046	0.0135853
637.124	0.0136154
637.203	0.0136811
637.281	0.0134839
637.359	0.0136395
637.437	0.0135761
637.515	0.0134898
637.593	0.0135226
637.671	0.0136269
637.749	0.0134660
637.828	0.0135611
637.906	0.0136913
637.984	0.0135142
638.062	0.0134301
638.140	0.0136000
638.218	0.0135495
638.296	0.0135571
638.374	0.0136613
638.453	0.0135252
638.531	0.0135992
638.609	0.0136578
638.687	0.0135474
638.765	0.0136027
638.843	0.0136620
638.921	0.0135828
638.999	0.0135275
639.078	0.0135108
639.156	0.0134898
639.234	0.0135380
639.312	0.0136488
639.390	0.0135891
639.468	0.0136269
639.546	0.0135403
639.624	0.0135448
639.703	0.0134181
639.781	0.0134377
639.859	0.0134991
639.937	0.0135842
640.015	0.0135827
640.093	0.0135966
640.171	0.0136118
640.249	0.0135365
640.328	0.0136181
640.406	0.0136070
640.484	0.0134882
640.562	0.0135835
640.640	0.0135118
640.718	0.0135717
640.796	0.0134476
640.874	0.0135705
640.953	0.0137375
641.031	0.0135937
641.109	0.0135152
641.187	0.0135661
641.265	0.0136613
641.343	0.0135891
641.421	0.0136714
641.499	0.0135110
641.578	0.0135241
641.656	0.0135583
641.734	0.0135587
641.812	0.0136348
641.890	0.0136137
641.968	0.0135444
642.046	0.0135525
642.124	0.0134603
642.203	0.0135848
642.281	0.0136343
642.359	0.0134928
642.437	0.0134837
642.515	0.0134916
642.593	0.0135030
642.671	0.0135445
642.749	0.0136010
642.828	0.0134033
642.906	0.0135190
642.984	0.0135477
643.062	0.0136068
643.140	0.0135173
643.218	0.0134387
643.296	0.0135504
643.374	0.0135661
643.453	0.0135357
643.531	0.0135223
643.609	0.0134893
643.687	0.0135845
643.765	0.0134888
643.843	0.0134982
643.921	0.0135789
643.999	0.0133772
644.078	0.0136240
644.156	0.0136572
644.234	0.0135523
644.312	0.0134874
644.390	0.0136460
644.468	0.0136303
644.546	0.0135582
644.624	0.0134720
644.703	0.0134069
644.781	0.0136159
644.859	0.0134469
644.937	0.0135387
645.015	0.0135204
645.093	0.0134466
645.171	0.0135003
645.249	0.0134731
645.328	0.0135304
645.406	0.0134398
645.484	0.0137502
645.562	0.0135339
645.640	0.0135845
645.718	0.0135092
645.796	0.0134647
645.874	0.0136164
645.953	0.0134903
646.031	0.0135060
646.109	0.0135087
646.187	0.0136743
646.265	0.0136401
646.343	0.0136375
646.421	0.0136453
646.499	0.0135498
646.578	0.0136080
646.656	0.0134885
646.734	0.0135452
646.812	0.0135292
646.890	0.0135852
646.968	0.0135184
647.046	0.0135990
647.124	0.0134982
647.203	0.0135879
647.281	0.0135302
647.359	0.0136419
647.437	0.0134816
647.515	0.0135583
647.593	0.0136337
647.671	0.0135664
647.749	0.0135767
647.828	0.0135138
647.906	0.0136635
647.984	0.0135578
648.062	0.0135726
648.140	0.0136389
648.218	0.0135901
648.296	0.0136218
648.374	0.0135278
648.453	0.0135581
648.531	0.0136929
648.609	0.0135801
648.687	0.0135869
648.765	0.0136263
648.843	0.0135557
648.921	0.0136465
648.999	0.0135921
649.078	0.0135872
649.156	0.0135236
649.234	0.0135654
649.312	0.0135538
649.390	0.0134647
649.468	0.0136340
649.546	0.0135694
649.624	0.0135115
649.703	0.0135486
649.781	0.0135440
649.859	0.0136607
649.937	0.0136676
650.015	0.0136183
650.093	0.0135620
650.171	0.0134603
650.249	0.0135975
650.328	0.0135950
650.406	0.0135821
650.484	0.0136350
650.562	0.0135795
650.640	0.0135137
650.718	0.0133989
650.796	0.0136028
650.874	0.0135119
650.953	0.0135616
651.031	0.0136639
651.109	0.0135998
651.187	0.0134841
651.265	0.0134124
651.343	0.0135352
651.421	0.0134866
651.499	0.0134563
651.578	0.0135764
651.656	0.0136476
651.734	0.0136504
651.812	0.0135429
651.890	0.0134328
651.968	0.0135051
652.046	0.0134448
652.124	0.0136297
652.203	0.0134965
652.281	0.0135167
652.359	0.0135344
652.437	0.0136008
652.515	0.0136253
652.593	0.0136254
652.671	0.0135315
652.749	0.0136112
652.828	0.0135195
652.906	0.0134708
652.984	0.0134293
653.062	0.0134704
653.140	0.0135561
653.218	0.0134534
653.296	0.0136343
653.374	0.0136254
653.453	0.0134746
653.531	0.0135680
653.609	0.0134960
653.687	0.0134740
653.765	0.0135876
653.843	0.0136712
653.921	0.0135213
653.999	0.0136395
654.078	0.0136855
654.156	0.0135757
654.234	0.0136411
654.312	0.0137332
654.390	0.0135277
654.468	0.0134931
654.546	0.0136472
654.624	0.0135593
654.703	0.0135354
654.781	0.0135287
654.859	0.0136010
654.937	0.0134552
655.015	0.0135288
655.093	0.0135916
655.171	0.0133423
655.249	0.0136127
655.328	0.0134372
655.406	0.0135584
655.484	0.0133315
655.562	0.0134795
655.640	0.0136627
655.718	0.0135426
655.796	0.0135781
655.874	0.0134737
655.953	0.0135314
656.031	0.0136153
656.109	0.0135550
656.187	0.0136482
656.265	0.0135699
656.343	0.0135012
656.421	0.0134443
656.499	0.0135072
656.578	0.0135060
656.656	0.0134495
656.734	0.0132950
656.812	0.0134405
656.890	0.0135912
656.968	0.0135320
657.046	0.0134415
657.124	0.0134989
657.203	0.0136364
657.281	0.0134892
657.359	0.0135645
657.437	0.0135781
657.515	0.0136365
657.593	0.0137175
657.671	0.0135850
657.749	0.0136403
657.828	0.0136212
657.906	0.0135918
657.984	0.0134769
658.062	0.0134794
658.140	0.0136047
658.218	0.0135271
658.296	0.0134682
658.374	0.0136555
658.453	0.0134476
658.531	0.0135076
658.609	0.0135523
658.687	0.0136406
658.765	0.0134888
658.843	0.0135502
658.921	0.0136931
658.999	0.0134646
659.078	0.0133862
659.156	0.0134615
659.234	0.0133675
659.312	0.0135202
659.390	0.0134471
659.468	0.0135222
659.546	0.0134795
659.624	0.0133920
659.703	0.0133497
659.781	0.0136192
659.859	0.0135859
659.937	0.0135754
660.015	0.0135863
660.093	0.0136255
660.171	0.0136022
660.249	0.0135188
660.328	0.0135226
660.406	0.0137614
660.484	0.0135819
660.562	0.0136535
660.640	0.0136763
660.718	0.0134814
660.796	0.0135410
660.874	0.0136233
660.953	0.0134506
661.031	0.0133468
661.109	0.0133089
661.187	0.0134861
661.265	0.0134457
661.343	0.0133706
661.421	0.0134354
661.499	0.0133793
661.578	0.0135255
661.656	0.0134700
661.734	0.0135894
661.812	0.0136674
661.890	0.0136784
661.968	0.0135104
662.046	0.0136297
662.124	0.0136490
662.203	0.0137216
662.281	0.0137440
662.359	0.0136825
662.437	0.0135246
662.515	0.0136205
662.593	0.0135168
662.671	0.0135275
662.749	0.0134033
662.828	0.0134473
662.906	0.0133593
662.984	0.0133481
663.062	0.0134530
663.140	0.0133392
663.218	0.0135477
663.296	0.0134752
663.374	0.0134775
663.453	0.0134735
663.531	0.0137120
663.609	0.0136454
663.687	0.0135939
663.765	0.0136471
663.843	0.0135950
663.921	0.0136848
663.999	0.0136937
664.078	0.0135838
664.156	0.0135176
664.234	0.0136096
664.312	0.0135508
664.390	0.0134495
664.468	0.0134391
664.546	0.0134351
664.624	0.0135370
664.703	0.0133749
664.781	0.0135180
664.859	0.0135676
664.937	0.0135571
665.015	0.0134839
665.093	0.0135793
665.171	0.0135876
665.249	0.0137288
665.328	0.0137025
665.406	0.0137047
665.484	0.0135992
665.562	0.0136760
665.640	0.0134591
665.718	0.0135195
665.796	0.0135750
665.874	0.0136831
665.953	0.0137984
666.031	0.0136978
666.109	0.0135857
666.187	0.0135807
666.265	0.0134827
666.343	0.0134879
666.421	0.0135968
666.499	0.0134934
666.578	0.0135135
666.656	0.0134560
666.734	0.0135025
666.812	0.0135031
666.890	0.0135461
666.968	0.0134820
667.046	0.0133611
667.124	0.0134715
667.203	0.0135354
667.281	0.0135548
667.359	0.0135299
667.437	0.0134636
667.515	0.0136497
667.593	0.0136770
667.671	0.0136777
667.749	0.0136839
667.828	0.0137322
667.906	0.0136426
667.984	0.0135493
668.062	0.0135905
668.140	0.0136765
668.218	0.0137189
668.296	0.0136136
668.374	0.0136195
668.453	0.0136454
668.531	0.0135443
668.609	0.0136629
668.687	0.0136340
668.765	0.0136072
668.843	0.0134225
668.921	0.0133369
668.999	0.0134056
669.078	0.0135426
669.156	0.0133778
669.234	0.0133803
669.312	0.0135598
669.390	0.0136600
669.468	0.0135647
669.546	0.0135315
669.624	0.0137679
669.703	0.0137231
669.781	0.0135747
669.859	0.0135995
669.937	0.0137253
670.015	0.0134032
670.093	0.0135047
670.171	0.0135326
670.249	0.0134155
670.328	0.0134295
670.406	0.0135441
670.484	0.0135710
670.562	0.0135401
670.640	0.0135033
670.718	0.0136945
670.796	0.0135083
670.874	0.0135880
670.953	0.0136758
671.031	0.0135314
671.109	0.0134610
671.187	0.0133978
671.265	0.0134682
671.343	0.0135287
671.421	0.0135116
671.499	0.0136055
671.578	0.0135168
671.656	0.0136092
671.734	0.0136477
671.812	0.0138678
671.890	0.0138865
671.968	0.0136718
672.046	0.0137895
672.124	0.0136669
672.203	0.0136152
672.281	0.0136891
672.359	0.0136282
672.437	0.0135252
672.515	0.0136309
672.593	0.0137306
672.671	0.0137389
672.749	0.0136992
672.828	0.0137434
672.906	0.0138269
672.984	0.0137342
673.062	0.0138313
673.140	0.0137551
673.218	0.0137656
673.296	0.0136706
673.374	0.0135296
673.453	0.0136980
673.531	0.0136787
673.609	0.0137116
673.687	0.0136034
673.765	0.0136632
673.843	0.0135047
673.921	0.0135657
673.999	0.0135189
674.078	0.0134490
674.156	0.0133492
674.234	0.0133490
674.312	0.0133659
674.390	0.0132944
674.468	0.0132325
674.546	0.0131618
674.624	0.0131429
674.703	0.0133125
674.781	0.0131382
674.859	0.0133382
674.937	0.0133218
675.015	0.0134952
675.093	0.0134261
675.171	0.0135552
675.249	0.0135616
675.328	0.0133618
675.406	0.0136124
675.484	0.0138625
675.562	0.0138696
675.640	0.0137566
675.718	0.0140255
675.796	0.0139756
675.874	0.0139781
675.953	0.0140308
676.031	0.0138718
676.109	0.0138587
676.187	0.0138942
676.265	0.0139342
676.343	0.0138702
676.421	0.0138335
676.499	0.0139027
676.578	0.0137956
676.656	0.0138145
676.734	0.0137917
676.812	0.0138202
676.890	0.0136166
676.968	0.0137394
677.046	0.0136658
677.124	0.0135977
677.203	0.0136385
677.281	0.0136463
677.359	0.0135143
677.437	0.0133799
677.515	0.0134373
677.593	0.0135117
677.671	0.0135096
677.749	0.0134151
677.828	0.0133544
677.906	0.0132768
677.984	0.0133303
678.062	0.0133691
678.140	0.0132906
678.218	0.0133797
678.296	0.0132533
678.374	0.0134219
678.453	0.0134075
678.531	0.0134534
678.609	0.0133522
678.687	0.0134948
678.765	0.0134747
678.843	0.0135230
678.921	0.0134276
678.999	0.0136077
679.078	0.0133886
679.156	0.0132061
679.234	0.0133432
679.312	0.0133810
679.390	0.0133467
679.468	0.0134118
679.546	0.0132728
679.624	0.0132549
679.703	0.0134911
679.781	0.0136880
679.859	0.0136224
679.937	0.0136173
680.015	0.0136875
680.093	0.0137051
680.171	0.0138487
680.249	0.0141155
680.328	0.0138081
680.406	0.0138016
680.484	0.0140551
680.562	0.0138493
680.640	0.0138602
680.718	0.0139350
680.796	0.0138651
680.874	0.0138644
680.953	0.0136618
681.031	0.0136588
681.109	0.0135780
681.187	0.0135378
681.265	0.0133481
681.343	0.0134235
681.421	0.0133562
681.499	0.0132343
681.578	0.0132428
681.656	0.0131908
681.734	0.0132734
681.812	0.0134151
681.890	0.0133753
681.968	0.0133978
682.046	0.0133981
682.124	0.0134022
682.203	0.0136009
682.281	0.0136021
682.359	0.0134999
682.437	0.0136346
682.515	0.0136887
682.593	0.0137070
682.671	0.0135963
682.749	0.0137095
682.828	0.0138191
682.906	0.0137799
682.984	0.0136559
683.062	0.0137988
683.140	0.0134617
683.218	0.0134923
683.296	0.0135194
683.374	0.0134688
683.453	0.0132077
683.531	0.0131689
683.609	0.0129484
683.687	0.0130907
683.765	0.0131239
683.843	0.0130653
683.921	0.0131467
683.999	0.0130123
684.078	0.0131182
684.156	0.0130169
684.234	0.0132195
684.312	0.0132146
684.390	0.0132364
684.468	0.0132579
684.546	0.0134197
684.624	0.0134326
684.703	0.0134895
684.781	0.0135136
684.859	0.0135992
684.937	0.0137875
685.015	0.0138395
685.093	0.0140051
685.171	0.0139430
685.249	0.0139869
685.328	0.0141737
685.406	0.0141196
685.484	0.0138155
685.562	0.0140393
685.640	0.0142357
685.718	0.0139293
685.796	0.0138887
685.874	0.0139673
685.953	0.0139052
686.031	0.0139201
686.109	0.0137954
686.187	0.0139277
686.265	0.0138751
686.343	0.0137076
686.421	0.0138266
686.499	0.0137912
686.578	0.0137609
686.656	0.0138091
686.734	0.0137603
686.812	0.0137035
686.890	0.0136735
686.968	0.0137175
687.046	0.0136662
687.124	0.0136862
687.203	0.0135855
687.281	0.0134734
687.359	0.0134992
687.437	0.0134238
687.515	0.0133930
687.593	0.0131498
687.671	0.0130740
687.749	0.0130230
687.828	0.0129056
687.906	0.0127705
687.984	0.0127560
688.062	0.0126777
688.140	0.0127959
688.218	0.0127718
688.296	0.0127367
688.374	0.0128967
688.453	0.0129561
688.531	0.0129427
688.609	0.0131331
688.687	0.0132164
688.765	0.0134286
688.843	0.0136059
688.921	0.0135562
688.999	0.0135339
689.078	0.0136374
689.156	0.0137606
689.234	0.0138184
689.312	0.0138254
689.390	0.0136359
689.468	0.0136373
689.546	0.0135983
689.624	0.0134023
689.703	0.0133685
689.781	0.0132765
689.859	0.0133010
689.937	0.0131934
690.015	0.0131924
690.093	0.0134814
690.171	0.0135530
690.249	0.0137746
690.328	0.0139098
690.406	0.0140704
690.484	0.0141196
690.562	0.0142957
690.640	0.0143178
690.718	0.0144556
690.796	0.0146178
690.874	0.0146716
690.953	0.0145419
691.031	0.0146355
691.109	0.0145928
691.187	0.0144597
691.265	0.0144538
691.343	0.0142844
691.421	0.0142288
691.499	0.0140895
691.578	0.0139119
691.656	0.0137134
691.734	0.0136571
691.812	0.0134154
691.890	0.0134172
691.968	0.0132354
692.046	0.0130651
692.124	0.0130417
692.203	0.0128533
692.281	0.0129425
692.359	0.0129012
692.437	0.0129021
692.515	0.0128377
692.593	0.0128443
692.671	0.0129072
692.749	0.0129917
692.828	0.0129785
692.906	0.0129256
692.984	0.0129656
693.062	0.0130562
693.140	0.0130408
693.218	0.0129399
693.296	0.0130708
693.374	0.0131943
693.453	0.0131294
693.531	0.0131115
693.609	0.0132465
693.687	0.0132702
693.765	0.0133422
693.843	0.0133572
693.921	0.0133666
693.999	0.0131624
694.078	0.0133573
694.156	0.0134264
694.234	0.0134028
694.312	0.0132385
694.390	0.0133664
694.468	0.0132270
694.546	0.0132229
694.624	0.0131936
694.703	0.0130949
694.781	0.0132230
694.859	0.0132288
694.937	0.0131722
695.015	0.0131698
695.093	0.0134377
695.171	0.0136385
695.249	0.0139082
695.328	0.0139289
695.406	0.0140111
695.484	0.0143262
695.562	0.0146503
695.640	0.0148547
695.718	0.0148879
695.796	0.0151459
695.874	0.0153049
695.953	0.0152984
696.031	0.0153577
696.109	0.0152375
696.187	0.0151169
696.265	0.0149758
696.343	0.0147116
696.421	0.0145930
696.499	0.0143951
696.578	0.0141434
696.656	0.0139645
696.734	0.0136015
696.812	0.0134739
696.890	0.0132809
696.968	0.0131419
697.046	0.0130072
697.124	0.0128201
697.203	0.0125502
697.281	0.0126292
697.359	0.0126736
697.437	0.0124918
697.515	0.0124116
697.593	0.0126885
697.671	0.0127017
697.749	0.0125605
697.828	0.0127353
697.906	0.0127530
697.984	0.0127428
698.062	0.0127247
698.140	0.0127981
698.218	0.0125736
698.296	0.0129448
698.374	0.0128366
698.453	0.0126561
698.531	0.0126663
698.609	0.0127481
698.687	0.0129605
698.765	0.0129586
698.843	0.0130405
698.921	0.0130588
698.999	0.0132237
699.078	0.0132747
699.156	0.0134053
699.234	0.0135143
699.312	0.0136648
699.390	0.0137043
699.468	0.0138766
699.546	0.0138895
699.624	0.0138413
699.703	0.0137591
699.781	0.0137540
699.859	0.0138309
699.937	0.0138647
700.015	0.0138788
700.093	0.0137697
700.171	0.0137033
700.249	0.0135188
700.328	0.0137436
700.406	0.0137905
700.484	0.0137489
700.562	0.0139175
700.640	0.0141376
700.718	0.0140781
700.796	0.0144154
700.874	0.0146413
700.953	0.0148837
701.031	0.0151360
701.109	0.0151354
701.187	0.0153452
701.265	0.0152233
701.343	0.0154022
701.421	0.0151844
701.499	0.0149047
701.578	0.0148851
701.656	0.0146192
701.734	0.0144507
701.812	0.0142760
701.890	0.0138886
701.968	0.0135260
702.046	0.0133415
702.124	0.0132534
702.203	0.0129351
702.281	0.0126491
702.359	0.0125916
702.437	0.0126040
702.515	0.0125658
702.593	0.0123215
702.671	0.0123159
702.749	0.0124214
702.828	0.0123741
702.906	0.0123369
702.984	0.0124148
703.062	0.0123478
703.140	0.0124055
703.218	0.0125090
703.296	0.0125855
703.374	0.0126694
703.453	0.0127372
703.531	0.0125576
703.609	0.0125600
703.687	0.0128000
703.765	0.0127704
703.843	0.0128571
703.921	0.0128253
703.999	0.0129032
704.078	0.0131722
704.156	0.0133696
704.234	0.0134689
704.312	0.0135488
704.390	0.0138264
704.468	0.0139280
704.546	0.0139725
704.624	0.0142432
704.703	0.0142300
704.781	0.0144220
704.859	0.0142652
704.937	0.0142990
705.015	0.0141943
705.093	0.0140176
705.171	0.0138128
705.249	0.0138864
705.328	0.0137840
705.406	0.0137321
705.484	0.0135047
705.562	0.0135733
705.640	0.0135902
705.718	0.0135571
705.796	0.0136751
705.874	0.0136142
705.953	0.0138222
706.031	0.0138727
706.109	0.0140833
706.187	0.0142952
706.265	0.0144829
706.343	0.0146414
706.421	0.0148055
706.499	0.0148537
706.578	0.0152280
706.656	0.0151780
706.734	0.0149060
706.812	0.0147295
706.890	0.0147870
706.968	0.0146381
707.046	0.0144418
707.124	0.0143652
707.203	0.0139851
707.281	0.0137648
707.359	0.0135552
707.437	0.0133589
707.515	0.0132477
707.593	0.0130000
707.671	0.0127882
707.749	0.0127402
707.828	0.0124921
707.906	0.0122690
707.984	0.0120709
708.062	0.0121174
708.140	0.0119713
708.218	0.0118955
708.296	0.0118782
708.374	0.0120020
708.453	0.0121033
708.531	0.0119835
708.609	0.0122475
708.687	0.0124160
708.765	0.0125874
708.843	0.0127123
708.921	0.0128043
708.999	0.0130885
709.078	0.0131406
709.156	0.0133519
709.234	0.0133916
709.312	0.0135658
709.390	0.0137257
709.468	0.0138816
709.546	0.0140546
709.624	0.0142690
709.703	0.0142701
709.781	0.0144331
709.859	0.0144855
709.937	0.0145934
710.015	0.0143488
710.093	0.0142359
710.171	0.0142397
710.249	0.0139996
710.328	0.0138990
710.406	0.0138527
710.484	0.0138313
710.562	0.0135699
710.640	0.0134996
710.718	0.0132790
710.796	0.0132251
710.874	0.0133240
710.953	0.0131752
711.031	0.0132996
711.109	0.0131513
711.187	0.0132931
711.265	0.0136310
711.343	0.0136268
711.421	0.0137128
711.499	0.0139526
711.578	0.0141090
711.656	0.0143425
711.734	0.0145873
711.812	0.0145583
711.890	0.0147252
711.968	0.0147855
712.046	0.0148219
712.124	0.0147908
712.203	0.0147472
712.281	0.0146140
712.359	0.0145805
712.437	0.0144029
712.515	0.0140315
712.593	0.0138407
712.671	0.0137212
712.749	0.0134899
712.828	0.0131185
712.906	0.0129468
712.984	0.0129503
713.062	0.0128409
713.140	0.0126301
713.218	0.0123161
713.296	0.0121857
713.374	0.0121373
713.453	0.0121115
713.531	0.0120363
713.609	0.0120723
713.687	0.0120181
713.765	0.0122596
713.843	0.0122829
713.921	0.0123411
713.999	0.0125333
714.078	0.0127551
714.156	0.0129447
714.234	0.0130841
714.312	0.0133179
714.390	0.0134517
714.468	0.0136254
714.546	0.0138318
714.624	0.0138200
714.703	0.0138036
714.781	0.0138195
714.859	0.0140862
714.937	0.0140910
715.015	0.0141043
715.093	0.0141681
715.171	0.0140941
715.249	0.0140131
715.328	0.0139970
715.406	0.0139231
715.484	0.0138888
715.562	0.0137577
715.640	0.0135731
715.718	0.0136994
715.796	0.0133618
715.874	0.0134203
715.953	0.0134337
716.031	0.0133696
716.109	0.0134090
716.187	0.0132751
716.265	0.0133131
716.343	0.0133533
716.421	0.0134523
716.499	0.0134853
716.578	0.0135629
716.656	0.0136411
716.734	0.0138115
716.812	0.0139281
716.890	0.0139282
716.968	0.0141135
717.046	0.0141973
717.124	0.0142513
717.203	0.0143665
717.281	0.0144730
717.359	0.0145193
717.437	0.0146443
717.515	0.0146121
717.593	0.0145737
717.671	0.0143858
717.749	0.0144704
717.828	0.0142153
717.906	0.0139969
717.984	0.0138091
718.062	0.0137651
718.140	0.0136792
718.218	0.0133510
718.296	0.0131042
718.374	0.0130992
718.453	0.0129451
718.531	0.0127164
718.609	0.0125911
718.687	0.0124124
718.765	0.0123302
718.843	0.0122535
718.921	0.0123199
718.999	0.0122874
719.078	0.0122647
719.156	0.0123220
719.234	0.0124494
719.312	0.0125648
719.390	0.0127547
719.468	0.0128622
719.546	0.0131825
719.624	0.0132037
719.703	0.0132159
719.781	0.0134159
719.859	0.0134552
719.937	0.0136539
720.015	0.0136938
720.093	0.0137893
720.171	0.0138963
720.249	0.0137980
720.328	0.0138646
720.406	0.0139511
720.484	0.0139482
720.562	0.0139436
720.640	0.0140063
720.718	0.0140761
720.796	0.0140607
720.874	0.0139502
720.953	0.0137086
721.031	0.0137659
721.109	0.0137361
721.187	0.0136330
721.265	0.0134653
721.343	0.0133118
721.421	0.0133089
721.499	0.0133498
721.578	0.0133775
721.656	0.0133016
721.734	0.0133530
721.812	0.0133931
721.890	0.0134985
721.968	0.0135781
722.046	0.0135922
722.124	0.0137459
722.203	0.0137128
722.281	0.0138267
722.359	0.0138950
722.437	0.0140586
722.515	0.0141923
722.593	0.0142580
722.671	0.0142824
722.749	0.0143486
722.828	0.0145721
722.906	0.0143861
722.984	0.0147269
723.062	0.0145819
723.140	0.0145317
723.218	0.0142708
723.296	0.0143346
723.374	0.0140864
723.453	0.0137109
723.531	0.0135942
723.609	0.0134333
723.687	0.0132749
723.765	0.0129363
723.843	0.0130041
723.921	0.0127362
723.999	0.0125975
724.078	0.0124510
724.156	0.0124115
724.234	0.0123357
724.312	0.0122862
724.390	0.0123132
724.468	0.0123866
724.546	0.0124072
724.624	0.0125796
724.703	0.0125841
724.781	0.0126812
724.859	0.0129325
724.937	0.0129824
725.015	0.0132263
725.093	0.0133257
725.171	0.0134207
725.249	0.0135773
725.328	0.0137283
725.406	0.0137412
725.484	0.0138095
725.562	0.0138489
725.640	0.0139403
725.718	0.0140527
725.796	0.0139471
725.874	0.0139630
725.953	0.0140546
726.031	0.0140041
726.109	0.0140394
726.187	0.0140584
726.265	0.0140305
726.343	0.0139768
726.421	0.0139209
726.499	0.0137991
726.578	0.0137269
726.656	0.0136708
726.734	0.0136362
726.812	0.0136328
726.890	0.0134586
726.968	0.0132881
727.046	0.0133944
727.124	0.0134550
727.203	0.0134753
727.281	0.0134866
727.359	0.0134768
727.437	0.0136183
727.515	0.0137060
727.593	0.0137866
727.671	0.0139030
727.749	0.0138589
727.828	0.0140247
727.906	0.0139793
727.984	0.0141034
728.062	0.0141311
728.140	0.0142680
728.218	0.0142498
728.296	0.0144628
728.374	0.0144578
728.453	0.0142687
728.531	0.0142910
728.609	0.0143105
728.687	0.0141559
728.765	0.0141130
728.843	0.0138545
728.921	0.0138027
728.999	0.0135679
729.078	0.0132882
729.156	0.0131252
729.234	0.0129748
729.312	0.0128977
729.390	0.0127105
729.468	0.0126530
729.546	0.0125246
729.624	0.0125237
729.703	0.0124318
729.781	0.0123550
729.859	0.0125701
729.937	0.0127179
730.015	0.0128034
730.093	0.0127737
730.171	0.0128513
730.249	0.0131624
730.328	0.0132896
730.406	0.0133956
730.484	0.0134445
730.562	0.0137427
730.640	0.0137487
730.718	0.0138359
730.796	0.0139390
730.874	0.0139813
730.953	0.0141328
731.031	0.0139709
731.109	0.0139012
731.187	0.0141421
731.265	0.0141862
731.343	0.0139123
731.421	0.0139182
731.499	0.0139394
731.578	0.0138168
731.656	0.0137380
731.734	0.0138703
731.812	0.0137772
731.890	0.0136075
731.968	0.0135731
732.046	0.0135462
732.124	0.0134518
732.203	0.0133537
732.281	0.0133710
732.359	0.0133897
732.437	0.0134167
732.515	0.0134592
732.593	0.0135929
732.671	0.0136272
732.749	0.0135880
732.828	0.0136054
732.906	0.0136364
732.984	0.0137212
733.062	0.0138297
733.140	0.0137351
733.218	0.0137187
733.296	0.0139941
733.374	0.0139983
733.453	0.0139293
733.531	0.0139330
733.609	0.0140132
733.687	0.0140530
733.765	0.0139079
733.843	0.0139240
733.921	0.0140366
733.999	0.0139713
734.078	0.0137972
734.156	0.0137298
734.234	0.0137166
734.312	0.0135310
734.390	0.0136188
734.468	0.0135178
734.546	0.0133500
734.624	0.0132726
734.703	0.0131113
734.781	0.0131751
734.859	0.0130227
734.937	0.0128931
735.015	0.0129170
735.093	0.0128171
735.171	0.0128054
735.249	0.0130058
735.328	0.0128471
735.406	0.0129031
735.484	0.0128766
735.562	0.0129425
735.640	0.0131759
735.718	0.0132247
735.796	0.0133115
735.874	0.0134005
735.953	0.0135226
736.031	0.0135217
736.109	0.0136782
736.187	0.0137432
736.265	0.0137251
736.343	0.0138711
736.421	0.0138577
736.499	0.0138361
736.578	0.0139598
736.656	0.0139178
736.734	0.0138859
736.812	0.0139103
736.890	0.0137972
736.968	0.0138135
737.046	0.0138692
737.124	0.0137848
737.203	0.0137663
737.281	0.0138030
737.359	0.0137614
737.437	0.0138137
737.515	0.0136974
737.593	0.0137576
737.671	0.0137617
737.749	0.0136172
737.828	0.0136225
737.906	0.0135726
737.984	0.0136445
738.062	0.0134788
738.140	0.0135406
738.218	0.0135169
738.296	0.0137141
738.374	0.0135830
738.453	0.0135312
738.531	0.0136615
738.609	0.0135526
738.687	0.0135104
738.765	0.0135920
738.843	0.0136445
738.921	0.0135366
738.999	0.0136169
739.078	0.0137392
739.156	0.0136581
739.234	0.0136745
739.312	0.0136918
739.390	0.0137458
739.468	0.0137775
739.546	0.0137261
739.624	0.0136990
739.703	0.0136826
739.781	0.0137137
739.859	0.0135175
739.937	0.0136648
740.015	0.0134832
740.093	0.0134147
740.171	0.0132643
740.249	0.0132215
740.328	0.0131594
740.406	0.0130910
740.484	0.0129974
740.562	0.0130369
740.640	0.0129813
740.718	0.0130140
740.796	0.0130079
740.874	0.0131950
740.953	0.0132523
741.031	0.0132779
741.109	0.0133657
741.187	0.0134184
741.265	0.0134961
741.343	0.0134081
741.421	0.0136168
741.499	0.0136034
741.578	0.0136154
741.656	0.0136404
741.734	0.0138661
741.812	0.0136591
741.890	0.0138551
741.968	0.0138870
742.046	0.0136733
742.124	0.0137262
742.203	0.0138660
742.281	0.0138302
742.359	0.0138966
742.437	0.0137713
742.515	0.0137006
742.593	0.0137366
742.671	0.0136205
742.749	0.0134913
742.828	0.0135075
742.906	0.0136633
742.984	0.0136136
743.062	0.0133994
743.140	0.0134298
743.218	0.0133642
743.296	0.0134713
743.374	0.0133777
743.453	0.0134782
743.531	0.0134085
743.609	0.0135063
743.687	0.0132528
743.765	0.0133865
743.843	0.0135119
743.921	0.0133131
743.999	0.0134830
744.078	0.0132849
744.156	0.0134354
744.234	0.0135443
744.312	0.0136205
744.390	0.0136926
744.468	0.0135508
744.546	0.0137112
744.624	0.0136351
744.703	0.0136115
744.781	0.0136842
744.859	0.0137480
744.937	0.0137128
745.015	0.0137654
745.093	0.0137120
745.171	0.0138091
745.249	0.0136187
745.328	0.0137428
745.406	0.0137558
745.484	0.0135028
745.562	0.0135369
745.640	0.0134819
745.718	0.0133743
745.796	0.0133543
745.874	0.0133872
745.953	0.0133107
746.031	0.0131828
746.109	0.0132673
746.187	0.0133131
746.265	0.0131918
746.343	0.0130948
746.421	0.0133562
746.499	0.0133716
746.578	0.0135352
746.656	0.0135726
746.734	0.0136169
746.812	0.0138149
746.890	0.0137453
746.968	0.0137402
747.046	0.0136668
747.124	0.0138531
747.203	0.0136945
747.281	0.0138544
747.359	0.0137740
747.437	0.0136935
747.515	0.0138264
747.593	0.0138007
747.671	0.0138582
747.749	0.0135247
747.828	0.0135384
747.906	0.0137978
747.984	0.0137097
748.062	0.0136001
748.140	0.0136127
748.218	0.0135107
748.296	0.0133762
748.374	0.0136732
748.453	0.0135398
748.531	0.0134363
748.609	0.0136563
748.687	0.0136185
748.765	0.0135570
748.843	0.0136002
748.921	0.0135748
748.999	0.0135611
749.078	0.0135451
749.156	0.0135468
749.234	0.0134653
749.312	0.0135710
749.390	0.0135544
749.468	0.0135878
749.546	0.0136160
749.624	0.0136531
749.703	0.0136530
749.781	0.0136250
749.859	0.0135778
749.937	0.0136296
750.015	0.0136266
750.093	0.0137036
750.171	0.0136238
750.249	0.0136549
750.328	0.0138240
750.406	0.0137234
750.484	0.0137516
750.562	0.0136916
750.640	0.0136163
750.718	0.0136357
750.796	0.0136691
750.874	0.0136666
750.953	0.0134160
751.031	0.0133634
751.109	0.0134344
751.187	0.0134333
751.265	0.0135088
751.343	0.0133350
751.421	0.0134435
751.499	0.0132106
751.578	0.0134102
751.656	0.0132727
751.734	0.0133563
751.812	0.0133170
751.890	0.0133262
751.968	0.0135090
752.046	0.0136130
752.124	0.0136543
752.203	0.0136509
752.281	0.0136488
752.359	0.0137605
752.437	0.0138952
752.515	0.0139655
752.593	0.0138909
752.671	0.0137476
752.749	0.0135882
752.828	0.0137521
752.906	0.0136476
752.984	0.0137226
753.062	0.0137321
753.140	0.0136909
753.218	0.0136148
753.296	0.0136240
753.374	0.0136219
753.453	0.0136017
753.531	0.0136089
753.609	0.0136140
753.687	0.0136150
753.765	0.0137224
753.843	0.0135369
753.921	0.0134859
753.999	0.0135529
754.078	0.0134754
754.156	0.0134379
754.234	0.0133691
754.312	0.0135274
754.390	0.0134803
754.468	0.0135469
754.546	0.0135767
754.624	0.0134686
754.703	0.0134351
754.781	0.0135421
754.859	0.0136842
754.937	0.0136337
755.015	0.0135361
755.093	0.0136386
755.171	0.0136300
755.249	0.0138100
755.328	0.0137265
755.406	0.0137796
755.484	0.0136800
755.562	0.0136064
755.640	0.0135448
755.718	0.0137217
755.796	0.0137067
755.874	0.0136594
755.953	0.0135567
756.031	0.0137186
756.109	0.0137228
756.187	0.0136558
756.265	0.0137269
756.343	0.0136899
756.421	0.0136773
756.499	0.0136403
756.578	0.0136490
756.656	0.0135448
756.734	0.0135760
756.812	0.0135526
756.890	0.0137272
756.968	0.0134649
757.046	0.0135289
757.124	0.0137375
757.203	0.0136640
757.281	0.0134697
757.359	0.0137663
757.437	0.0136889
757.515	0.0136720
757.593	0.0138277
757.671	0.0137619
757.749	0.0137347
757.828	0.0137150
757.906	0.0136001
757.984	0.0137415
758.062	0.0136195
758.140	0.0136215
758.218	0.0136097
758.296	0.0135307
758.374	0.0136110
758.453	0.0134540
758.531	0.0132876
758.609	0.0134379
758.687	0.0136356
758.765	0.0133827
758.843	0.0135201
758.921	0.0135588
758.999	0.0134035
759.078	0.0134879
759.156	0.0134701
759.234	0.0133835
759.312	0.0134532
759.390	0.0135147
759.468	0.0135128
759.546	0.0135385
759.624	0.0133350
759.703	0.0134962
759.781	0.0134737
759.859	0.0135269
759.937	0.0135526
760.015	0.0135420
760.093	0.0136231
760.171	0.0136185
760.249	0.0136340
760.328	0.0135629
760.406	0.0135914
760.484	0.0135709
760.562	0.0136680
760.640	0.0136355
760.718	0.0136471
760.796	0.0134727
760.874	0.0134808
760.953	0.0135188
761.031	0.0135421
761.109	0.0134096
761.187	0.0135779
761.265	0.0134763
761.343	0.0135558
761.421	0.0135967
761.499	0.0136977
761.578	0.0136472
761.656	0.0134963
761.734	0.0135377
761.812	0.0135932
761.890	0.0136211
761.968	0.0135760
762.046	0.0136264
762.124	0.0136572
762.203	0.0135516
762.281	0.0137233
762.359	0.0135887
762.437	0.0135417
762.515	0.0136192
762.593	0.0136862
762.671	0.0138192
762.749	0.0136264
762.828	0.0136887
762.906	0.0136266
762.984	0.0135856
763.062	0.0136689
763.140	0.0136941
763.218	0.0136766
763.296	0.0135934
763.374	0.0134955
763.453	0.0136013
763.531	0.0135732
763.609	0.0136405
763.687	0.0135542
763.765	0.0135941
763.843	0.0135383
763.921	0.0135315
763.999	0.0135838
764.078	0.0135335
764.156	0.0134014
764.234	0.0133795
764.312	0.0136180
764.390	0.0135500
764.468	0.0135663
764.546	0.0135378
764.624	0.0135191
764.703	0.0134056
764.781	0.0135711
764.859	0.0135764
764.937	0.0134806
765.015	0.0135987
765.093	0.0134856
765.171	0.0135481
765.249	0.0136361
765.328	0.0135880
765.406	0.0135608
765.484	0.0135744
765.562	0.0134901
765.640	0.0135709
765.718	0.0135411
765.796	0.0135894
765.874	0.0134780
765.953	0.0135387
766.031	0.0134008
766.109	0.0135318
766.187	0.0134663
766.265	0.0133875
766.343	0.0135387
766.421	0.0135091
766.499	0.0135439
766.578	0.0135039
766.656	0.0134084
766.734	0.0135184
766.812	0.0136012
766.890	0.0138120
766.968	0.0138348
767.046	0.0136739
767.124	0.0136423
767.203	0.0136733
767.281	0.0137022
767.359	0.0138042
767.437	0.0136795
767.515	0.0135841
767.593	0.0137414
767.671	0.0138616
767.749	0.0136449
767.828	0.0137093
767.906	0.0137170
767.984	0.0136531
768.062	0.0137453
768.140	0.0138505
768.218	0.0136873
768.296	0.0137778
768.374	0.0135130
768.453	0.0134599
768.531	0.0137206
768.609	0.0136478
768.687	0.0135510
768.765	0.0135577
768.843	0.0134988
768.921	0.0135110
768.999	0.0136504
769.078	0.0136110
769.156	0.0136752
769.234	0.0135742
769.312	0.0135255
769.390	0.0136217
769.468	0.0135561
769.546	0.0135624
769.624	0.0135368
769.703	0.0135825
769.781	0.0136732
769.859	0.0135632
769.937	0.0135861
770.015	0.0134935
770.093	0.0136291
770.171	0.0135840
770.249	0.0136352
770.328	0.0136684
770.406	0.0136195
770.484	0.0136078
770.562	0.0137840
770.640	0.0136777
770.718	0.0135809
770.796	0.0136197
770.874	0.0137736
770.953	0.0134908
771.031	0.0134042
771.109	0.0135184
771.187	0.0134274
771.265	0.0134499
771.343	0.0134327
771.421	0.0134912
771.499	0.0133818
771.578	0.0134115
771.656	0.0134727
771.734	0.0133822
771.812	0.0133112
771.890	0.0133707
771.968	0.0135443
772.046	0.0135593
772.124	0.0136497
772.203	0.0136871
772.281	0.0136813
772.359	0.0135335
772.437	0.0136491
772.515	0.0136438
772.593	0.0137309
772.671	0.0137701
772.749	0.0137319
772.828	0.0136739
772.906	0.0136667
772.984	0.0136426
773.062	0.0136575
773.140	0.0134800
773.218	0.0135926
773.296	0.0135717
773.374	0.0134757
773.453	0.0135154
773.531	0.0134540
773.609	0.0134767
773.687	0.0137270
773.765	0.0134726
773.843	0.0136062
773.921	0.0135368
773.999	0.0136777
774.078	0.0135439
774.156	0.0135194
774.234	0.0136731
774.312	0.0136695
774.390	0.0136464
774.468	0.0134483
774.546	0.0135430
774.624	0.0135737
774.703	0.0135199
774.781	0.0135419
774.859	0.0135746
774.937	0.0135972
775.015	0.0135516
775.093	0.0136482
775.171	0.0137064
775.249	0.0136919
775.328	0.0136327
775.406	0.0136044
775.484	0.0136150
775.562	0.0136371
775.640	0.0137201
775.718	0.0136353
775.796	0.0137406
775.874	0.0135566
775.953	0.0135494
776.031	0.0136277
776.109	0.0135610
776.187	0.0135279
776.265	0.0134110
776.343	0.0135360
776.421	0.0134799
776.499	0.0134602
776.578	0.0136354
776.656	0.0136719
776.734	0.0136121
776.812	0.0134779
776.890	0.0136445
776.968	0.0135942
777.046	0.0135654
777.124	0.0137256
777.203	0.0136490
777.281	0.0136092
777.359	0.0135933
777.437	0.0135743
777.515	0.0135778
777.593	0.0137436
777.671	0.0137106
777.749	0.0136665
777.828	0.0136188
777.906	0.0135442
777.984	0.0135264
778.062	0.0134933
778.140	0.0137709
778.218	0.0136590
778.296	0.0135896
778.374	0.0134526
778.453	0.0135901
778.531	0.0135523
778.609	0.0135992
778.687	0.0136863
778.765	0.0135464
778.843	0.0136283
778.921	0.0137550
778.999	0.0136206
779.078	0.0137578
779.156	0.0136367
779.234	0.0136383
779.312	0.0136411
779.390	0.0137553
779.468	0.0136646
779.546	0.0137032
779.624	0.0137951
779.703	0.0136816
779.781	0.0136465
779.859	0.0135413
779.937	0.0136839
780.015	0.0136735
780.093	0.0135219
780.171	0.0135347
780.249	0.0135849
780.328	0.0135596
780.406	0.0135138
780.484	0.0134859
780.562	0.0135464
780.640	0.0135567
780.718	0.0135174
780.796	0.0133673
780.874	0.0134319
780.953	0.0135960
781.031	0.0135421
781.109	0.0135080
781.187	0.0135274
781.265	0.0134523
781.343	0.0136150
781.421	0.0136271
781.499	0.0136280
781.578	0.0136079
781.656	0.0135613
781.734	0.0136220
781.812	0.0136254
781.890	0.0137207
781.968	0.0136387
782.046	0.0136327
782.124	0.0134500
782.203	0.0136327
782.281	0.0135843
782.359	0.0136424
782.437	0.0137489
782.515	0.0136642
782.593	0.0135758
782.671	0.0136473
782.749	0.0138571
782.828	0.0136776
782.906	0.0135732
782.984	0.0136456
783.062	0.0136701
783.140	0.0138204
783.218	0.0137747
783.296	0.0137273
783.374	0.0136489
783.453	0.0136182
783.531	0.0135871
783.609	0.0137337
783.687	0.0136996
783.765	0.0136075
783.843	0.0135423
783.921	0.0135719
783.999	0.0135117
784.078	0.0135082
784.156	0.0135602
784.234	0.0135222
784.312	0.0135172
784.390	0.0134820
784.468	0.0135279
784.546	0.0134653
784.624	0.0135941
784.703	0.0135337
784.781	0.0135348
784.859	0.0134327
784.937	0.0134951
785.015	0.0134387
785.093	0.0135384
785.171	0.0134750
785.249	0.0134576
785.328	0.0134158
785.406	0.0133167
785.484	0.0134721
785.562	0.0134443
785.640	0.0134329
785.718	0.0133694
785.796	0.0134824
785.874	0.0134121
785.953	0.0134042
786.031	0.0134872
786.109	0.0134289
786.187	0.0135405
786.265	0.0134321
786.343	0.0135179
786.421	0.0136751
786.499	0.0136544
786.578	0.0137084
786.656	0.0137313
786.734	0.0136770
786.812	0.0136164
786.890	0.0136614
786.968	0.0138352
787.046	0.0136452
787.124	0.0137183
787.203	0.0137334
787.281	0.0137572
787.359	0.0136452
787.437	0.0136177
787.515	0.0136695
787.593	0.0136298
787.671	0.0135977
787.749	0.0135834
787.828	0.0136238
787.906	0.0134827
787.984	0.0133977
788.062	0.0133599
788.140	0.0134421
788.218	0.0134058
788.296	0.0133638
788.374	0.0134418
788.453	0.0133073
788.531	0.0133044
788.609	0.0134386
788.687	0.0134544
788.765	0.0134733
788.843	0.0134540
788.921	0.0134630
788.999	0.0135089
789.078	0.0135714
789.156	0.0134505
789.234	0.0135231
789.312	0.0135753
789.390	0.0135067
789.468	0.0134983
789.546	0.0135419
789.624	0.0133667
789.703	0.0136385
789.781	0.0134171
789.859	0.0135558
789.937	0.0136784
790.015	0.0135384
790.093	0.0133868
790.171	0.0134630
790.249	0.0135664
790.328	0.0135975
790.406	0.0136404
790.484	0.0135339
790.562	0.0134850
790.640	0.0134956
790.718	0.0134415
790.796	0.0134312
790.874	0.0135234
790.953	0.0134318
791.031	0.0133924
791.109	0.0135170
791.187	0.0135255
791.265	0.0134588
791.343	0.0134084
791.421	0.0135783
791.499	0.0136758
791.578	0.0135096
791.656	0.0135836
791.734	0.0136073
791.812	0.0136766
791.890	0.0135420
791.968	0.0135995
792.046	0.0136185
792.124	0.0137041
792.203	0.0137969
792.281	0.0137297
792.359	0.0135905
792.437	0.0137579
792.515	0.0136164
792.593	0.0136933
792.671	0.0135777
792.749	0.0137720
792.828	0.0137028
792.906	0.0136673
792.984	0.0136571
793.062	0.0135970
793.140	0.0136153
793.218	0.0137549
793.296	0.0136641
793.374	0.0136144
793.453	0.0136028
793.531	0.0134648
793.609	0.0134902
793.687	0.0136134
793.765	0.0135154
793.843	0.0134884
793.921	0.0135382
793.999	0.0136922
794.078	0.0136161
794.156	0.0135117
794.234	0.0136245
794.312	0.0134338
794.390	0.0135041
794.468	0.0134820
794.546	0.0135221
794.624	0.0136210
794.703	0.0134320
794.781	0.0134583
794.859	0.0134671
794.937	0.0134463
795.015	0.0134638
795.093	0.0134709
795.171	0.0135328
795.249	0.0133501
795.328	0.0133923
795.406	0.0134367
795.484	0.0134428
795.562	0.0135638
795.640	0.0134333
795.718	0.0134217
795.796	0.0134093
795.874	0.0135373
795.953	0.0135239
796.031	0.0135963
796.109	0.0136024
796.187	0.0135473
796.265	0.0136796
796.343	0.0135265
796.421	0.0135825
796.499	0.0135041
796.578	0.0135018
796.656	0.0135712
796.734	0.0135666
796.812	0.0135064
796.890	0.0135871
796.968	0.0135101
797.046	0.0135778
797.124	0.0136081
797.203	0.0137270
797.281	0.0136730
797.359	0.0139013
797.437	0.0137910
797.515	0.0137275
797.593	0.0137715
797.671	0.0137905
797.749	0.0137497
797.828	0.0137039
797.906	0.0137193
797.984	0.0138010
798.062	0.0136070
798.140	0.0137171
798.218	0.0137370
798.296	0.0136964
798.374	0.0137457
798.453	0.0135618
798.531	0.0135947
798.609	0.0134774
798.687	0.0134094
798.765	0.0135732
798.843	0.0135139
798.921	0.0134402
798.999	0.0134110
799.078	0.0132909
799.156	0.0134268
799.234	0.0133810
799.312	0.0133230
799.390	0.0134023
799.468	0.0133994
799.546	0.0133616
799.624	0.0133678
799.703	0.0133736
799.781	0.0134568
799.859	0.0134999
799.937	0.0133383
800.015	0.0133923
800.093	0.0134976
800.171	0.0134473
800.249	0.0134131
800.328	0.0134136
800.406	0.0133846
800.484	0.0134753
800.562	0.0134771
800.640	0.0134772
800.718	0.0134075
800.796	0.0134477
800.874	0.0136156
800.953	0.0135049
801.031	0.0138147
801.109	0.0135930
801.187	0.0136234
801.265	0.0135162
801.343	0.0136421
801.421	0.0137212
801.499	0.0136462
801.578	0.0137135
801.656	0.0136609
801.734	0.0136694
801.812	0.0138573
801.890	0.0137285
801.968	0.0136606
802.046	0.0137254
802.124	0.0137438
802.203	0.0138020
802.281	0.0137956
802.359	0.0137640
802.437	0.0138072
802.515	0.0137989
802.593	0.0137607
802.671	0.0137658
802.749	0.0136923
802.828	0.0138115
802.906	0.0136520
802.984	0.0136477
803.062	0.0135737
803.140	0.0136305
803.218	0.0135397
803.296	0.0135591
803.374	0.0135281
803.453	0.0134623
803.531	0.0134402
803.609	0.0135010
803.687	0.0134672
803.765	0.0133210
803.843	0.0133915
803.921	0.0134361
803.999	0.0134233
804.078	0.0133379
804.156	0.0134423
804.234	0.0132175
804.312	0.0133192
804.390	0.0134847
804.468	0.0133406
804.546	0.0133711
804.624	0.0133674
804.703	0.0134077
804.781	0.0136076
804.859	0.0135049
804.937	0.0135732
805.015	0.0134782
805.093	0.0135584
805.171	0.0135784
805.249	0.0135744
805.328	0.0135362
805.406	0.0134396
805.484	0.0134739
805.562	0.0135733
805.640	0.0133833
805.718	0.0135446
805.796	0.0135932
805.874	0.0136535
805.953	0.0134987
806.031	0.0134777
806.109	0.0135265
806.187	0.0136763
806.265	0.0135371
806.343	0.0135168
806.421	0.0136227
806.499	0.0135892
806.578	0.0135495
806.656	0.0136793
806.734	0.0138251
806.812	0.0136080
806.890	0.0136561
806.968	0.0137254
807.046	0.0137414
807.124	0.0136221
807.203	0.0136720
807.281	0.0135699
807.359	0.0137896
807.437	0.0136579
807.515	0.0136378
807.593	0.0138531
807.671	0.0137225
807.749	0.0136368
807.828	0.0136919
807.906	0.0136720
807.984	0.0136352
808.062	0.0136378
808.140	0.0136707
808.218	0.0133952
808.296	0.0135934
808.374	0.0134452
808.453	0.0135398
808.531	0.0135192
808.609	0.0135151
808.687	0.0135924
808.765	0.0135280
808.843	0.0134203
808.921	0.0135456
808.999	0.0135117
809.078	0.0134438
809.156	0.0136135
809.234	0.0135516
809.312	0.0135977
809.390	0.0133855
809.468	0.0134128
809.546	0.0134879
809.624	0.0133514
809.703	0.0134698
809.781	0.0135796
809.859	0.0135178
809.937	0.0134921
810.015	0.0136391
810.093	0.0135862
810.171	0.0133272
810.249	0.0135201
810.328	0.0135033
810.406	0.0134146
810.484	0.0134884
810.562	0.0135767
810.640	0.0132463
810.718	0.0135336
810.796	0.0135365
810.874	0.0134896
810.953	0.0134727
811.031	0.0136190
811.109	0.0135738
811.187	0.0133723
811.265	0.0133907
811.343	0.0136458
811.421	0.0135353
811.499	0.0136002
811.578	0.0135789
811.656	0.0135841
811.734	0.0135696
811.812	0.0135751
811.890	0.0136653
811.968	0.0135828
812.046	0.0136243
812.124	0.0135738
812.203	0.0135598
812.281	0.0135913
812.359	0.0136971
812.437	0.0136430
812.515	0.0136236
812.593	0.0136005
812.671	0.0136769
812.749	0.0135532
812.828	0.0135690
812.906	0.0135435
812.984	0.0135952
813.062	0.0135129
813.140	0.0137444
813.218	0.0134333
813.296	0.0135160
813.374	0.0136628
813.453	0.0134415
813.531	0.0137029
813.609	0.0135984
813.687	0.0136584
813.765	0.0135887
813.843	0.0137147
813.921	0.0136198
813.999	0.0134075
814.078	0.0134866
814.156	0.0135689
814.234	0.0135377
814.312	0.0135663
814.390	0.0135701
814.468	0.0134415
814.546	0.0134788
814.624	0.0134244
814.703	0.0133729
814.781	0.0132822
814.859	0.0134363
814.937	0.0135017
815.015	0.0132975
815.093	0.0133234
815.171	0.0132925
815.249	0.0134363
815.328	0.0134075
815.406	0.0133276
815.484	0.0133593
815.562	0.0134673
815.640	0.0133967
815.718	0.0134756
815.796	0.0134245
815.874	0.0133826
815.953	0.0133953
816.031	0.0135237
816.109	0.0134447
816.187	0.0135758
816.265	0.0135450
816.343	0.0135062
816.421	0.0135789
816.499	0.0135254
816.578	0.0135918
816.656	0.0135858
816.734	0.0136534
816.812	0.0135694
816.890	0.0135460
816.968	0.0136601
817.046	0.0136923
817.124	0.0138166
817.203	0.0135851
817.281	0.0136207
817.359	0.0135934
817.437	0.0135153
817.515	0.0136997
817.593	0.0134589
817.671	0.0136007
817.749	0.0135950
817.828	0.0136581
817.906	0.0137373
817.984	0.0135699
818.062	0.0135023
818.140	0.0136367
818.218	0.0137453
818.296	0.0136418
818.374	0.0135572
818.453	0.0136323
818.531	0.0137444
818.609	0.0136501
818.687	0.0136725
818.765	0.0136894
818.843	0.0136868
818.921	0.0138000
818.999	0.0137624
819.078	0.0137999
819.156	0.0136216
819.234	0.0138360
819.312	0.0136245
819.390	0.0135895
819.468	0.0136656
819.546	0.0137258
819.624	0.0136671
819.703	0.0135696
819.781	0.0134942
819.859	0.0135823
819.937	0.0136489
820.015	0.0136827
820.093	0.0135506
820.171	0.0135518
820.249	0.0135610
820.328	0.0135404
820.406	0.0134538
820.484	0.0134882
820.562	0.0134750
820.640	0.0135247
820.718	0.0134477
820.796	0.0133989
820.874	0.0133858
820.953	0.0134211
821.031	0.0134508
821.109	0.0135046
821.187	0.0134983
821.265	0.0133876
821.343	0.0134012
821.421	0.0133950
821.499	0.0135075
821.578	0.0135376
821.656	0.0135818
821.734	0.0136987
821.812	0.0135109
821.890	0.0136771
821.968	0.0135409
822.046	0.0135474
822.124	0.0136178
822.203	0.0137261
822.281	0.0136279
822.359	0.0135941
822.437	0.0136888
822.515	0.0137437
822.593	0.0137497
822.671	0.0136534
822.749	0.0134641
822.828	0.0136374
822.906	0.0135726
822.984	0.0135467
823.062	0.0135518
823.140	0.0136800
823.218	0.0137572
823.296	0.0137579
823.374	0.0136306
823.453	0.0135651
823.531	0.0135439
823.609	0.0136485
823.687	0.0135752
823.765	0.0137009
823.843	0.0135243
823.921	0.0135022
823.999	0.0134838
824.078	0.0135497
824.156	0.0135182
824.234	0.0135923
824.312	0.0135818
824.390	0.0135040
824.468	0.0135419
824.546	0.0136533
824.624	0.0136084
824.703	0.0137479
824.781	0.0137134
824.859	0.0135489
824.937	0.0135701
825.015	0.0137366
825.093	0.0137152
825.171	0.0134055
825.249	0.0136301
825.328	0.0134695
825.406	0.0134621
825.484	0.0134366
825.562	0.0136193
825.640	0.0135266
825.718	0.0132778
825.796	0.0133915
825.874	0.0133884
825.953	0.0135262
826.031	0.0133400
826.109	0.0133613
826.187	0.0133228
826.265	0.0132318
826.343	0.0131357
826.421	0.0133187
826.499	0.0133520
826.578	0.0133392
826.656	0.0133969
826.734	0.0133733
826.812	0.0134274
826.890	0.0134966
826.968	0.0135555
827.046	0.0133772
827.124	0.0136010
827.203	0.0136088
827.281	0.0135949
827.359	0.0135795
827.437	0.0137216
827.515	0.0136069
827.593	0.0136957
827.671	0.0137577
827.749	0.0137355
827.828	0.0135462
827.906	0.0137316
827.984	0.0138179
828.062	0.0136662
828.140	0.0135714
828.218	0.0137005
828.296	0.0137075
828.374	0.0137131
828.453	0.0136761
828.531	0.0135758
828.609	0.0136460
828.687	0.0136911
828.765	0.0137271
828.843	0.0136520
828.921	0.0136754
828.999	0.0135762
829.078	0.0138190
829.156	0.0136798
829.234	0.0135999
829.312	0.0135687
829.390	0.0137785
829.468	0.0136019
829.546	0.0138019
829.624	0.0136754
829.703	0.0136599
829.781	0.0137289
829.859	0.0137830
829.937	0.0136818
830.015	0.0137348
830.093	0.0137082
830.171	0.0136433
830.249	0.0136857
830.328	0.0136031
830.406	0.0135605
830.484	0.0136580
830.562	0.0135748
830.640	0.0135489
830.718	0.0136733
830.796	0.0137081
830.874	0.0136134
830.953	0.0135522
831.031	0.0135770
831.109	0.0135409
831.187	0.0135323
831.265	0.0135648
831.343	0.0136225
831.421	0.0134843
831.499	0.0135126
831.578	0.0136222
831.656	0.0137183
831.734	0.0134917
831.812	0.0134866
831.890	0.0135551
831.968	0.0135395
832.046	0.0134256
832.124	0.0136309
832.203	0.0134962
832.281	0.0135750
832.359	0.0135390
832.437	0.0135618
832.515	0.0133424
832.593	0.0134902
832.671	0.0136023
832.749	0.0135719
832.828	0.0136961
832.906	0.0136882
832.984	0.0136473
833.062	0.0135912
833.140	0.0134801
833.218	0.0136265
833.296	0.0136735
833.374	0.0137566
833.453	0.0137126
833.531	0.0136945
833.609	0.0135193
833.687	0.0134606
833.765	0.0136004
833.843	0.0136943
833.921	0.0135546
833.999	0.0136925
834.078	0.0135407
834.156	0.0135384
834.234	0.0137183
834.312	0.0136681
834.390	0.0135274
834.468	0.0135799
834.546	0.0136314
834.624	0.0136323
834.703	0.0135902
834.781	0.0137045
834.859	0.0136081
834.937	0.0135369
835.015	0.0134956
835.093	0.0134215
835.171	0.0135842
835.249	0.0135802
835.328	0.0135543
835.406	0.0135615
835.484	0.0136488
835.562	0.0135885
835.640	0.0135943
835.718	0.0136591
835.796	0.0136516
835.874	0.0135368
835.953	0.0136089
836.031	0.0137024
836.109	0.0135567
836.187	0.0135957
836.265	0.0135197
836.343	0.0135925
836.421	0.0136046
836.499	0.0135043
836.578	0.0134109
836.656	0.0136818
836.734	0.0135095
836.812	0.0133841
836.890	0.0134262
836.968	0.0133411
837.046	0.0134403
837.124	0.0133768
837.203	0.0133939
837.281	0.0134641
837.359	0.0133656
837.437	0.0134559
837.515	0.0134936
837.593	0.0135257
837.671	0.0135035
837.749	0.0135604
837.828	0.0135229
837.906	0.0136085
837.984	0.0134994
838.062	0.0136744
838.140	0.0136382
838.218	0.0136826
838.296	0.0135122
838.374	0.0136118
838.453	0.0136824
838.531	0.0136464
838.609	0.0137073
838.687	0.0137366
838.765	0.0135973
838.843	0.0134737
838.921	0.0136008
838.999	0.0135171
839.078	0.0135717
839.156	0.0135564
839.234	0.0136001
839.312	0.0135936
839.390	0.0136407
839.468	0.0135168
839.546	0.0137212
839.624	0.0136109
839.703	0.0136105
839.781	0.0136189
839.859	0.0136127
839.937	0.0134196
840.015	0.0136588
840.093	0.0135051
840.171	0.0134082
840.249	0.0135447
840.328	0.0136554
840.406	0.0134184
840.484	0.0135835
840.562	0.0136610
840.640	0.0135990
840.718	0.0135631
840.796	0.0136443
840.874	0.0137568
840.953	0.0136684
841.031	0.0135483
841.109	0.0135639
841.187	0.0135193
841.265	0.0135779
841.343	0.0136111
841.421	0.0134721
841.499	0.0136174
841.578	0.0134427
841.656	0.0136367
841.734	0.0136031
841.812	0.0134343
841.890	0.0134302
841.968	0.0133627
842.046	0.0135558
842.124	0.0135452
842.203	0.0135910
842.281	0.0135377
842.359	0.0135442
842.437	0.0135313
842.515	0.0134786
842.593	0.0134766
842.671	0.0136604
842.749	0.0137345
842.828	0.0135989
842.906	0.0136811
842.984	0.0136874
843.062	0.0135173
843.140	0.0137299
843.218	0.0136935
843.296	0.0135536
843.374	0.0136436
843.453	0.0135843
843.531	0.0136888
843.609	0.0135629
843.687	0.0136810
843.765	0.0137488
843.843	0.0135633
843.921	0.0136387
843.999	0.0137436
844.078	0.0137910
844.156	0.0136261
844.234	0.0136240
844.312	0.0135093
844.390	0.0133965
844.468	0.0136307
844.546	0.0136255
844.624	0.0135229
844.703	0.0135124
844.781	0.0135883
844.859	0.0135277
844.937	0.0136681
845.015	0.0135191
845.093	0.0134563
845.171	0.0135668
845.249	0.0135224
845.328	0.0134296
845.406	0.0134586
845.484	0.0135829
845.562	0.0135110
845.640	0.0135355
845.718	0.0136579
845.796	0.0135602
845.874	0.0134949
845.953	0.0136237
846.031	0.0136085
846.109	0.0136140
846.187	0.0135321
846.265	0.0135486
846.343	0.0134900
846.421	0.0134927
846.499	0.0134985
846.578	0.0135432
846.656	0.0135703
846.734	0.0135062
846.812	0.0136198
846.890	0.0136658
846.968	0.0134885
847.046	0.0134934
847.124	0.0135033
847.203	0.0133426
847.281	0.0134743
847.359	0.0136066
847.437	0.0135941
847.515	0.0134930
847.593	0.0135916
847.671	0.0135988
847.749	0.0135320
847.828	0.0136523
847.906	0.0135912
847.984	0.0135293
848.062	0.0135513
848.140	0.0136510
848.218	0.0136428
848.296	0.0136706
848.374	0.0136928
848.453	0.0136140
848.531	0.0136336
848.609	0.0135712
848.687	0.0135144
848.765	0.0136581
848.843	0.0136369
848.921	0.0136694
848.999	0.0135822
849.078	0.0135878
849.156	0.0137465
849.234	0.0137507
849.312	0.0136295
849.390	0.0135963
849.468	0.0136335
849.546	0.0136932
849.624	0.0136003
849.703	0.0135846
849.781	0.0135937
849.859	0.0135999
849.937	0.0135426
850.015	0.0135857
850.093	0.0136076
850.171	0.0135840
850.249	0.0134054
850.328	0.0134258
850.406	0.0136683
850.484	0.0135594
850.562	0.0134252
850.640	0.0134570
850.718	0.0135336
850.796	0.0135056
850.874	0.0134898
850.953	0.0136314
851.031	0.0136358
851.109	0.0136197
851.187	0.0135316
851.265	0.0135902
851.343	0.0135577
851.421	0.0135272
851.499	0.0137270
851.578	0.0135439
851.656	0.0135560
851.734	0.0136189
851.812	0.0136126
851.890	0.0135255
851.968	0.0135820
852.046	0.0135630
852.124	0.0134805
852.203	0.0137263
852.281	0.0135802
852.359	0.0136763
852.437	0.0136227
852.515	0.0136110
852.593	0.0135995
852.671	0.0136509
852.749	0.0136484
852.828	0.0135961
852.906	0.0136119
852.984	0.0136166
853.062	0.0136240
853.140	0.0135996
853.218	0.0136160
853.296	0.0135181
853.374	0.0136976
853.453	0.0136177
853.531	0.0136027
853.609	0.0135883
853.687	0.0134990
853.765	0.0135541
853.843	0.0134788
853.921	0.0135260
853.999	0.0134825
854.078	0.0137191
854.156	0.0136544
854.234	0.0134849
854.312	0.0135645
854.390	0.0135937
854.468	0.0136599
854.546	0.0136373
854.624	0.0135965
854.703	0.0135609
854.781	0.0136709
854.859	0.0136695
854.937	0.0136454
855.015	0.0135921
855.093	0.0136766
855.171	0.0136892
855.249	0.0137248
855.328	0.0135799
855.406	0.0137502
855.484	0.0135414
855.562	0.0136701
855.640	0.0136721
855.718	0.0135534
855.796	0.0136275
855.874	0.0134483
855.953	0.0135724
856.031	0.0134620
856.109	0.0134555
856.187	0.0134355
856.265	0.0134381
856.343	0.0135493
856.421	0.0135031
856.499	0.0134918
856.578	0.0135030
856.656	0.0135937
856.734	0.0135204
856.812	0.0134710
856.890	0.0136211
856.968	0.0135210
857.046	0.0136348
857.124	0.0135401
857.203	0.0135246
857.281	0.0134588
857.359	0.0136000
857.437	0.0137209
857.515	0.0136230
857.593	0.0135003
857.671	0.0134807
857.749	0.0136973
857.828	0.0136456
857.906	0.0136511
857.984	0.0136937
858.062	0.0135322
858.140	0.0134629
858.218	0.0136390
858.296	0.0135245
858.374	0.0135237
858.453	0.0136176
858.531	0.0134309
858.609	0.0135155
858.687	0.0134903
858.765	0.0134664
858.843	0.0134383
858.921	0.0137318
858.999	0.0136468
859.078	0.0134620
859.156	0.0135229
859.234	0.0135978
859.312	0.0134971
859.390	0.0136430
859.468	0.0134870
859.546	0.0134917
859.624	0.0135973
859.703	0.0136600
859.781	0.0135722
859.859	0.0135845
859.937	0.0136108
860.015	0.0136961
860.093	0.0136485
860.171	0.0135418
860.249	0.0135532
860.328	0.0136474
860.406	0.0136781
860.484	0.0136917
860.562	0.0134943
860.640	0.0135334
860.718	0.0136075
860.796	0.0134602
860.874	0.0135187
860.953	0.0135920
861.031	0.0134840
861.109	0.0135085
861.187	0.0135335
861.265	0.0135906
861.343	0.0136051
861.421	0.0134741
861.499	0.0135229
861.578	0.0135719
861.656	0.0134813
861.734	0.0135791
861.812	0.0136117
861.890	0.0135151
861.968	0.0134811
862.046	0.0135506
862.124	0.0135239
862.203	0.0136314
862.281	0.0134973
862.359	0.0134534
862.437	0.0134433
862.515	0.0135346
862.593	0.0136742
862.671	0.0135680
862.749	0.0136182
862.828	0.0135144
862.906	0.0134781
862.984	0.0136979
863.062	0.0136461
863.140	0.0135145
863.218	0.0135265
863.296	0.0135275
863.374	0.0136282
863.453	0.0135496
863.531	0.0136052
863.609	0.0136425
863.687	0.0137566
863.765	0.0136739
863.843	0.0136058
863.921	0.0136221
863.999	0.0135632
864.078	0.0136156
864.156	0.0136492
864.234	0.0136820
864.312	0.0136851
864.390	0.0136343
864.468	0.0136430
864.546	0.0135760
864.624	0.0136082
864.703	0.0136207
864.781	0.0136625
864.859	0.0135977
864.937	0.0134579
865.015	0.0135333
865.093	0.0134801
865.171	0.0135178
865.249	0.0135832
865.328	0.0135260
865.406	0.0136789
865.484	0.0135308
865.562	0.0135562
865.640	0.0136233
865.718	0.0135706
865.796	0.0136322
865.874	0.0136560
865.953	0.0136488
866.031	0.0135923
866.109	0.0136929
866.187	0.0134768
866.265	0.0135756
866.343	0.0135474
866.421	0.0136024
866.499	0.0134559
866.578	0.0136210
866.656	0.0136234
866.734	0.0135943
866.812	0.0137272
866.890	0.0136170
866.968	0.0135777
867.046	0.0135535
867.124	0.0134679
867.203	0.0134859
867.281	0.0136414
867.359	0.0135448
867.437	0.0136547
867.515	0.0135182
867.593	0.0135643
867.671	0.0136352
867.749	0.0136503
867.828	0.0135847
867.906	0.0134880
867.984	0.0134547
868.062	0.0134477
868.140	0.0135170
868.218	0.0136225
868.296	0.0134947
868.374	0.0136636
868.453	0.0136575
868.531	0.0135976
868.609	0.0133897
868.687	0.0134850
868.765	0.0136678
868.843	0.0137198
868.921	0.0135748
868.999	0.0135440
869.078	0.0134904
869.156	0.0134887
869.234	0.0134816
869.312	0.0135316
869.390	0.0134811
869.468	0.0135434
869.546	0.0135476
869.624	0.0134106
869.703	0.0134187
869.781	0.0135000
869.859	0.0134366
869.937	0.0134341
870.015	0.0134599
870.093	0.0134611
870.171	0.0135221
870.249	0.0134322
870.328	0.0133247
870.406	0.0135478
870.484	0.0133749
870.562	0.0134949
870.640	0.0135196
870.718	0.0134149
870.796	0.0135506
870.874	0.0133841
870.953	0.0135019
871.031	0.0134635
871.109	0.0135469
871.187	0.0135339
871.265	0.0135494
871.343	0.0137144
871.421	0.0136300
871.499	0.0135212
871.578	0.0135941
871.656	0.0136789
871.734	0.0137337
871.812	0.0136751
871.890	0.0135275
871.968	0.0135837
872.046	0.0135626
872.124	0.0135637
872.203	0.0134776
872.281	0.0136271
872.359	0.0134026
872.437	0.0135097
872.515	0.0135403
872.593	0.0135363
872.671	0.0135982
872.749	0.0136910
872.828	0.0135847
872.906	0.0135171
872.984	0.0135802
873.062	0.0137154
873.140	0.0137274
873.218	0.0136161
873.296	0.0136006
873.374	0.0136459
873.453	0.0135003
873.531	0.0135600
873.609	0.0135020
873.687	0.0136638
873.765	0.0135912
873.843	0.0136376
873.921	0.0135136
873.999	0.0135653
874.078	0.0135695
874.156	0.0134901
874.234	0.0135704
874.312	0.0133793
874.390	0.0134178
874.468	0.0136017
874.546	0.0135898
874.624	0.0134491
874.703	0.0135046
874.781	0.0134467
874.859	0.0136075
874.937	0.0134385
875.015	0.0134604
875.093	0.0134999
875.171	0.0134637
875.249	0.0134873
875.328	0.0134109
875.406	0.0133498
875.484	0.0135991
875.562	0.0134300
875.640	0.0133820
875.718	0.0135738
875.796	0.0134809
875.874	0.0135197
875.953	0.0135046
876.031	0.0135268
876.109	0.0136481
876.187	0.0136038
876.265	0.0136100
876.343	0.0137320
876.421	0.0136671
876.499	0.0135699
876.578	0.0136375
876.656	0.0136053
876.734	0.0136706
876.812	0.0138316
876.890	0.0137424
876.968	0.0136483
877.046	0.0136430
877.124	0.0136307
877.203	0.0135632
877.281	0.0135989
877.359	0.0136952
877.437	0.0137213
877.515	0.0135696
877.593	0.0136830
877.671	0.0135982
877.749	0.0135540
877.828	0.0135989
877.906	0.0135094
877.984	0.0137122
878.062	0.0136899
878.140	0.0137136
878.218	0.0135606
878.296	0.0134332
878.374	0.0136014
878.453	0.0135230
878.531	0.0135774
878.609	0.0135453
878.687	0.0134679
878.765	0.0134546
878.843	0.0133050
878.921	0.0134669
878.999	0.0133952
879.078	0.0134313
879.156	0.0134717
879.234	0.0133395
879.312	0.0133649
879.390	0.0134455
879.468	0.0133933
879.546	0.0134676
879.624	0.0134506
879.703	0.0135298
879.781	0.0134116
879.859	0.0134456
879.937	0.0134124
880.015	0.0133945
880.093	0.0135095
880.171	0.0134277
880.249	0.0135159
880.328	0.0134963
880.406	0.0136225
880.484	0.0136819
880.562	0.0135336
880.640	0.0135233
880.718	0.0137006
880.796	0.0136857
880.874	0.0135461
880.953	0.0134993
881.031	0.0136656
881.109	0.0135698
881.187	0.0135699
881.265	0.0136489
881.343	0.0135956
881.421	0.0136302
881.499	0.0136279
881.578	0.0135058
881.656	0.0135484
881.734	0.0134763
881.812	0.0136766
881.890	0.0135333
881.968	0.0135859
882.046	0.0135576
882.124	0.0136413
882.203	0.0135888
882.281	0.0137011
882.359	0.0136089
882.437	0.0136137
882.515	0.0135892
882.593	0.0134892
882.671	0.0135149
882.749	0.0136265
882.828	0.0135290
882.906	0.0135760
882.984	0.0136192
883.062	0.0135120
883.140	0.0136436
883.218	0.0135785
883.296	0.0134726
883.374	0.0134885
883.453	0.0136196
883.531	0.0134483
883.609	0.0135158
883.687	0.0136577
883.765	0.0135006
883.843	0.0135435
883.921	0.0134724
883.999	0.0134193
884.078	0.0134687
884.156	0.0134631
884.234	0.0135397
884.312	0.0133891
884.390	0.0133242
884.468	0.0135062
884.546	0.0134432
884.624	0.0134508
884.703	0.0134433
884.781	0.0135606
884.859	0.0136040
884.937	0.0133934
885.015	0.0133441
885.093	0.0134629
885.171	0.0136221
885.249	0.0134383
885.328	0.0134081
885.406	0.0135083
885.484	0.0134153
885.562	0.0134810
885.640	0.0134366
885.718	0.0135492
885.796	0.0135533
885.874	0.0135990
885.953	0.0134699
886.031	0.0135130
886.109	0.0136343
886.187	0.0135416
886.265	0.0134907
886.343	0.0136906
886.421	0.0134107
886.499	0.0135270
886.578	0.0136761
886.656	0.0136214
886.734	0.0136819
886.812	0.0134509
886.890	0.0134832
886.968	0.0136348
887.046	0.0135818
887.124	0.0137083
887.203	0.0134412
887.281	0.0135120
887.359	0.0136914
887.437	0.0136103
887.515	0.0135595
887.593	0.0136759
887.671	0.0135550
887.749	0.0134683
887.828	0.0137145
887.906	0.0135779
887.984	0.0136073
888.062	0.0136216
888.140	0.0135647
888.218	0.0136275
888.296	0.0135117
888.374	0.0133983
888.453	0.0136881
888.531	0.0136270
888.609	0.0136237
888.687	0.0135963
888.765	0.0135878
888.843	0.0136044
888.921	0.0135636
888.999	0.0137199
889.078	0.0135364
889.156	0.0136237
889.234	0.0136971
889.312	0.0136198
889.390	0.0136685
889.468	0.0135132
889.546	0.0134444
889.624	0.0135215
889.703	0.0135255
889.781	0.0134113
889.859	0.0134623
889.937	0.0133983
890.015	0.0135147
890.093	0.0131749
890.171	0.0133913
890.249	0.0133345
890.328	0.0134874
890.406	0.0134643
890.484	0.0135561
890.562	0.0135213
890.640	0.0134679
890.718	0.0134937
890.796	0.0134135
890.874	0.0135426
890.953	0.0134549
891.031	0.0135410
891.109	0.0136063
891.187	0.0136723
891.265	0.0135454
891.343	0.0136689
891.421	0.0135320
891.499	0.0136009
891.578	0.0136471
891.656	0.0137486
891.734	0.0135641
891.812	0.0135442
891.890	0.0135341
891.968	0.0137196
892.046	0.0136720
892.124	0.0135831
892.203	0.0136389
892.281	0.0136575
892.359	0.0136706
892.437	0.0137210
892.515	0.0136499
892.593	0.0138262
892.671	0.0136247
892.749	0.0135970
892.828	0.0136434
892.906	0.0136944
892.984	0.0135841
893.062	0.0136734
893.140	0.0135452
893.218	0.0135712
893.296	0.0136132
893.374	0.0135586
893.453	0.0135732
893.531	0.0134718
893.609	0.0135505
893.687	0.0135012
893.765	0.0135680
893.843	0.0135214
893.921	0.0135823
893.999	0.0135114
894.078	0.0137937
894.156	0.0135558
894.234	0.0135196
894.312	0.0136198
894.390	0.0136054
894.468	0.0135996
894.546	0.0135076
894.624	0.0134583
894.703	0.0135525
894.781	0.0135295
894.859	0.0134496
894.937	0.0134272
895.015	0.0134248
895.093	0.0133900
895.171	0.0135458
895.249	0.0134912
895.328	0.0134247
895.406	0.0133867
895.484	0.0134774
895.562	0.0134713
895.640	0.0134017
895.718	0.0134696
895.796	0.0135072
895.874	0.0135044
895.953	0.0135049
896.031	0.0134237
896.109	0.0134962
896.187	0.0135378
896.265	0.0135095
896.343	0.0136150
896.421	0.0137415
896.499	0.0135040
896.578	0.0135555
896.656	0.0137142
896.734	0.0135108
896.812	0.0136879
896.890	0.0137106
896.968	0.0134700
897.046	0.0135229
897.124	0.0134877
897.203	0.0136418
897.281	0.0137547
897.359	0.0134702
897.437	0.0136122
897.515	0.0136143
897.593	0.0135758
897.671	0.0134369
897.749	0.0136500
897.828	0.0136921
897.906	0.0136760
897.984	0.0136604
898.062	0.0136063
898.140	0.0135699
898.218	0.0135734
898.296	0.0135259
898.374	0.0135778
898.453	0.0136768
898.531	0.0135828
898.609	0.0135229
898.687	0.0135809
898.765	0.0135072
898.843	0.0135287
898.921	0.0135989
898.999	0.0134458
899.078	0.0133497
899.156	0.0136824
899.234	0.0135927
899.312	0.0135349
899.390	0.0136114
899.468	0.0137062
899.546	0.0136092
899.624	0.0136674
899.703	0.0135703
899.781	0.0134720
899.859	0.0135690
899.937	0.0136499
900.015	0.0135863
900.093	0.0135300
900.171	0.0135385
900.249	0.0135029
900.328	0.0134093
900.406	0.0134535
900.484	0.0135423
900.562	0.0135365
900.640	0.0135028
900.718	0.0136177
900.796	0.0135556
900.874	0.0136660
900.953	0.0134271
901.031	0.0135867
901.109	0.0136519
901.187	0.0136366
901.265	0.0135542
901.343	0.0136757
901.421	0.0136620
901.499	0.0136031
901.578	0.0133787
901.656	0.0135471
901.734	0.0135909
901.812	0.0135104
901.890	0.0136501
901.968	0.0136144
902.046	0.0135887
902.124	0.0135257
902.203	0.0134614
902.281	0.0134354
902.359	0.0134722
902.437	0.0135564
902.515	0.0134361
902.593	0.0134325
902.671	0.0133850
902.749	0.0135765
902.828	0.0135935
902.906	0.0135376
902.984	0.0134159
903.062	0.0133831
903.140	0.0135587
903.218	0.0135013
903.296	0.0135948
903.374	0.0136320
903.453	0.0135997
903.531	0.0136264
903.609	0.0135748
903.687	0.0135872
903.765	0.0136701
903.843	0.0135718
903.921	0.0134679
903.999	0.0137463
904.078	0.0135503
904.156	0.0135251
904.234	0.0134017
904.312	0.0135817
904.390	0.0136320
904.468	0.0134884
904.546	0.0134915
904.624	0.0134296
904.703	0.0135992
904.781	0.0135123
904.859	0.0135540
904.937	0.0135433
905.015	0.0135312
905.093	0.0135213
905.171	0.0135582
905.249	0.0135798
905.328	0.0135692
905.406	0.0134900
905.484	0.0134589
905.562	0.0135916
905.640	0.0136153
905.718	0.0136464
905.796	0.0136066
905.874	0.0135201
905.953	0.0135197
906.031	0.0135973
906.109	0.0135297
906.187	0.0136098
906.265	0.0135477
906.343	0.0136313
906.421	0.0134296
906.499	0.0135187
906.578	0.0135944
906.656	0.0134850
906.734	0.0135543
906.812	0.0133820
906.890	0.0134377
906.968	0.0135038
907.046	0.0133318
907.124	0.0135210
907.203	0.0134544
907.281	0.0135252
907.359	0.0134871
907.437	0.0134605
907.515	0.0134496
907.593	0.0134863
907.671	0.0134489
907.749	0.0135884
907.828	0.0135383
907.906	0.0135332
907.984	0.0133524
908.062	0.0135651
908.140	0.0135073
908.218	0.0135908
908.296	0.0135180
908.374	0.0135038
908.453	0.0134914
908.531	0.0135167
908.609	0.0137238
908.687	0.0136868
908.765	0.0136314
908.843	0.0135538
908.921	0.0136379
908.999	0.0136375
909.078	0.0136768
909.156	0.0136207
909.234	0.0136871
909.312	0.0136485
909.390	0.0134982
909.468	0.0135921
909.546	0.0133714
909.624	0.0135096
909.703	0.0137663
909.781	0.0134463
909.859	0.0133582
909.937	0.0135972
910.015	0.0136356
910.093	0.0135393
910.171	0.0135929
910.249	0.0135544
910.328	0.0136282
910.406	0.0135432
910.484	0.0134814
910.562	0.0134184
910.640	0.0135574
910.718	0.0135403
910.796	0.0135361
910.874	0.0135387
910.953	0.0135283
911.031	0.0134643
911.109	0.0134888
911.187	0.0134933
911.265	0.0134831
911.343	0.0134899
911.421	0.0134948
911.499	0.0135110
911.578	0.0135441
911.656	0.0135563
911.734	0.0135024
911.812	0.0135917
911.890	0.0136242
911.968	0.0134336
912.046	0.0134975
912.124	0.0135182
912.203	0.0134515
912.281	0.0135051
912.359	0.0135689
912.437	0.0135897
912.515	0.0135978
912.593	0.0135367
912.671	0.0134998
912.749	0.0135616
912.828	0.0136015
912.906	0.0135393
912.984	0.0136579
913.062	0.0135236
913.140	0.0135223
913.218	0.0135361
913.296	0.0136365
913.374	0.0134429
913.453	0.0135439
913.531	0.0135851
913.609	0.0136157
913.687	0.0136487
913.765	0.0135676
913.843	0.0135775
913.921	0.0136601
913.999	0.0136715
914.078	0.0137478
914.156	0.0136916
914.234	0.0136398
914.312	0.0138245
914.390	0.0136330
914.468	0.0135915
914.546	0.0138319
914.624	0.0137496
914.703	0.0135212
914.781	0.0135673
914.859	0.0135242
914.937	0.0136061
915.015	0.0136223
915.093	0.0135191
915.171	0.0136494
915.249	0.0134361
915.328	0.0133250
915.406	0.0133688
915.484	0.0134337
915.562	0.0133377
915.640	0.0133818
915.718	0.0135009
915.796	0.0135378
915.874	0.0135448
915.953	0.0135229
916.031	0.0133858
916.109	0.0134872
916.187	0.0135250
916.265	0.0136729
916.343	0.0135201
916.421	0.0136604
916.499	0.0136181
916.578	0.0136679
916.656	0.0137777
916.734	0.0137148
916.812	0.0136591
916.890	0.0138038
916.968	0.0135841
917.046	0.0135142
917.124	0.0136398
917.203	0.0135462
917.281	0.0135808
917.359	0.0135199
917.437	0.0135117
917.515	0.0137100
917.593	0.0135418
917.671	0.0134085
917.749	0.0135274
917.828	0.0135818
917.906	0.0134743
917.984	0.0135437
918.062	0.0134928
918.140	0.0134634
918.218	0.0134957
918.296	0.0134016
918.374	0.0135216
918.453	0.0134035
918.531	0.0135636
918.609	0.0135669
918.687	0.0135086
918.765	0.0134435
918.843	0.0134596
918.921	0.0136076
918.999	0.0134980
919.078	0.0134986
919.156	0.0136028
919.234	0.0134874
919.312	0.0135229
919.390	0.0135120
919.468	0.0135369
919.546	0.0135655
919.624	0.0136015
919.703	0.0137878
919.781	0.0137195
919.859	0.0137794
919.937	0.0136491
