05/06/2022	18:54:19	Ver.	4.1	UNKNOWN
Optical Delay	600.015094	Delta X		0.078125	Sweeps	1	Scan Rate	0/0
Coordinates	Axis 1	NaN	Axis 2	NaN	Axis 3	NaN	Axis 4	NaN	Axis 5	NaN	Axis 6	0.000000
TX Power	0.000000	RX Power	0.000000

600.015	0.0138283
600.093	0.0138369
600.171	0.0138576
600.249	0.0139213
600.328	0.0138551
600.406	0.0138515
600.484	0.0137733
600.562	0.0139184
600.640	0.0139519
600.718	0.0139605
600.796	0.0138583
600.874	0.0138625
600.953	0.0137857
601.031	0.0137798
601.109	0.0140200
601.187	0.0138361
601.265	0.0138991
601.343	0.0139709
601.421	0.0138497
601.499	0.0139319
601.578	0.0138284
601.656	0.0138997
601.734	0.0138233
601.812	0.0137848
601.890	0.0137994
601.968	0.0138081
602.046	0.0138698
602.124	0.0138360
602.203	0.0139247
602.281	0.0138554
602.359	0.0138757
602.437	0.0138982
602.515	0.0138758
602.593	0.0138094
602.671	0.0139161
602.749	0.0137585
602.828	0.0138014
602.906	0.0139285
602.984	0.0138670
603.062	0.0138876
603.140	0.0139217
603.218	0.0138553
603.296	0.0139497
603.374	0.0139359
603.453	0.0138818
603.531	0.0138126
603.609	0.0138470
603.687	0.0138337
603.765	0.0138229
603.843	0.0139013
603.921	0.0138981
603.999	0.0139039
604.078	0.0138380
604.156	0.0139818
604.234	0.0138538
604.312	0.0137646
604.390	0.0138557
604.468	0.0138451
604.546	0.0137487
604.624	0.0139851
604.703	0.0137859
604.781	0.0138706
604.859	0.0139190
604.937	0.0139605
605.015	0.0137842
605.093	0.0137617
605.171	0.0139078
605.249	0.0139507
605.328	0.0140171
605.406	0.0139132
605.484	0.0139339
605.562	0.0138518
605.640	0.0138732
605.718	0.0138361
605.796	0.0137408
605.874	0.0138891
605.953	0.0138374
606.031	0.0138483
606.109	0.0137718
606.187	0.0140031
606.265	0.0138799
606.343	0.0139213
606.421	0.0138528
606.499	0.0138005
606.578	0.0139332
606.656	0.0140092
606.734	0.0139705
606.812	0.0138175
606.890	0.0138266
606.968	0.0137467
607.046	0.0138506
607.124	0.0140067
607.203	0.0137481
607.281	0.0138342
607.359	0.0139426
607.437	0.0140055
607.515	0.0138676
607.593	0.0137634
607.671	0.0137924
607.749	0.0137951
607.828	0.0138498
607.906	0.0138892
607.984	0.0138899
608.062	0.0139027
608.140	0.0138159
608.218	0.0138175
608.296	0.0138691
608.374	0.0138326
608.453	0.0137441
608.531	0.0137516
608.609	0.0138933
608.687	0.0137628
608.765	0.0138718
608.843	0.0138133
608.921	0.0138496
608.999	0.0139832
609.078	0.0139034
609.156	0.0138403
609.234	0.0140305
609.312	0.0138263
609.390	0.0138157
609.468	0.0139234
609.546	0.0137196
609.624	0.0138484
609.703	0.0138258
609.781	0.0138426
609.859	0.0137208
609.937	0.0138576
610.015	0.0138113
610.093	0.0138268
610.171	0.0138571
610.249	0.0138145
610.328	0.0138448
610.406	0.0138690
610.484	0.0138606
610.562	0.0138432
610.640	0.0138412
610.718	0.0137519
610.796	0.0138191
610.874	0.0139150
610.953	0.0138916
611.031	0.0138051
611.109	0.0138277
611.187	0.0137915
611.265	0.0139779
611.343	0.0139902
611.421	0.0138077
611.499	0.0138742
611.578	0.0138576
611.656	0.0139526
611.734	0.0137919
611.812	0.0139238
611.890	0.0138620
611.968	0.0138978
612.046	0.0140319
612.124	0.0139920
612.203	0.0138984
612.281	0.0139085
612.359	0.0138023
612.437	0.0139230
612.515	0.0139730
612.593	0.0139622
612.671	0.0139051
612.749	0.0137193
612.828	0.0138326
612.906	0.0139133
612.984	0.0139870
613.062	0.0139187
613.140	0.0138311
613.218	0.0138650
613.296	0.0139690
613.374	0.0138674
613.453	0.0138674
613.531	0.0137643
613.609	0.0139297
613.687	0.0138863
613.765	0.0138365
613.843	0.0139055
613.921	0.0139209
613.999	0.0138232
614.078	0.0138235
614.156	0.0137696
614.234	0.0138847
614.312	0.0138223
614.390	0.0138225
614.468	0.0139142
614.546	0.0139132
614.624	0.0138831
614.703	0.0138267
614.781	0.0139307
614.859	0.0138274
614.937	0.0139305
615.015	0.0139403
615.093	0.0138442
615.171	0.0137517
615.249	0.0139655
615.328	0.0138078
615.406	0.0136961
615.484	0.0138138
615.562	0.0139933
615.640	0.0139807
615.718	0.0139095
615.796	0.0139005
615.874	0.0137885
615.953	0.0138277
616.031	0.0138618
616.109	0.0138816
616.187	0.0138879
616.265	0.0137939
616.343	0.0138649
616.421	0.0138313
616.499	0.0138618
616.578	0.0139455
616.656	0.0137848
616.734	0.0138945
616.812	0.0139203
616.890	0.0139424
616.968	0.0138301
617.046	0.0139500
617.124	0.0138016
617.203	0.0138406
617.281	0.0139230
617.359	0.0138824
617.437	0.0139708
617.515	0.0138100
617.593	0.0138674
617.671	0.0137617
617.749	0.0138381
617.828	0.0139552
617.906	0.0140029
617.984	0.0138868
618.062	0.0138455
618.140	0.0139429
618.218	0.0139533
618.296	0.0138795
618.374	0.0138404
618.453	0.0138848
618.531	0.0137905
618.609	0.0137795
618.687	0.0138921
618.765	0.0139051
618.843	0.0139579
618.921	0.0138342
618.999	0.0138165
619.078	0.0139565
619.156	0.0139400
619.234	0.0138125
619.312	0.0137676
619.390	0.0136552
619.468	0.0137087
619.546	0.0138969
619.624	0.0138381
619.703	0.0138606
619.781	0.0138603
619.859	0.0138395
619.937	0.0137875
620.015	0.0139606
620.093	0.0139573
620.171	0.0139104
620.249	0.0138586
620.328	0.0139093
620.406	0.0138412
620.484	0.0138461
620.562	0.0139573
620.640	0.0138403
620.718	0.0138177
620.796	0.0139182
620.874	0.0137854
620.953	0.0139105
621.031	0.0139149
621.109	0.0138336
621.187	0.0138427
621.265	0.0138682
621.343	0.0138107
621.421	0.0138074
621.499	0.0138432
621.578	0.0139730
621.656	0.0137185
621.734	0.0138759
621.812	0.0138689
621.890	0.0138713
621.968	0.0136900
622.046	0.0138394
622.124	0.0139399
622.203	0.0139148
622.281	0.0138361
622.359	0.0138290
622.437	0.0138731
622.515	0.0137904
622.593	0.0137801
622.671	0.0137820
622.749	0.0138024
622.828	0.0138186
622.906	0.0138641
622.984	0.0137741
623.062	0.0137577
623.140	0.0137955
623.218	0.0138566
623.296	0.0137196
623.374	0.0137904
623.453	0.0137689
623.531	0.0139075
623.609	0.0138770
623.687	0.0139285
623.765	0.0138131
623.843	0.0137757
623.921	0.0138148
623.999	0.0138588
624.078	0.0139511
624.156	0.0140019
624.234	0.0138879
624.312	0.0137841
624.390	0.0138171
624.468	0.0140224
624.546	0.0140052
624.624	0.0139221
624.703	0.0139063
624.781	0.0139600
624.859	0.0137663
624.937	0.0139886
625.015	0.0139229
625.093	0.0139256
625.171	0.0139856
625.249	0.0138271
625.328	0.0139767
625.406	0.0139786
625.484	0.0138567
625.562	0.0139706
625.640	0.0139091
625.718	0.0137978
625.796	0.0139274
625.874	0.0138336
625.953	0.0138857
626.031	0.0138409
626.109	0.0138438
626.187	0.0138510
626.265	0.0140714
626.343	0.0138107
626.421	0.0137885
626.499	0.0139356
626.578	0.0139050
626.656	0.0137909
626.734	0.0138748
626.812	0.0137589
626.890	0.0138683
626.968	0.0138229
627.046	0.0139633
627.124	0.0140075
627.203	0.0138944
627.281	0.0137969
627.359	0.0138635
627.437	0.0138712
627.515	0.0138090
627.593	0.0138544
627.671	0.0139452
627.749	0.0138645
627.828	0.0139338
627.906	0.0138167
627.984	0.0138366
628.062	0.0138448
628.140	0.0138699
628.218	0.0138078
628.296	0.0138836
628.374	0.0138986
628.453	0.0138742
628.531	0.0139690
628.609	0.0138139
628.687	0.0138697
628.765	0.0138962
628.843	0.0139570
628.921	0.0138562
628.999	0.0137781
629.078	0.0138178
629.156	0.0139597
629.234	0.0139846
629.312	0.0138083
629.390	0.0138593
629.468	0.0138976
629.546	0.0139210
629.624	0.0138902
629.703	0.0138315
629.781	0.0139391
629.859	0.0138824
629.937	0.0138155
630.015	0.0137607
630.093	0.0138615
630.171	0.0138197
630.249	0.0138504
630.328	0.0138846
630.406	0.0139225
630.484	0.0139324
630.562	0.0139349
630.640	0.0138033
630.718	0.0138666
630.796	0.0138925
630.874	0.0138292
630.953	0.0138824
631.031	0.0139263
631.109	0.0138847
631.187	0.0137487
631.265	0.0139407
631.343	0.0139680
631.421	0.0138972
631.499	0.0138626
631.578	0.0139004
631.656	0.0138903
631.734	0.0139229
631.812	0.0138219
631.890	0.0139091
631.968	0.0138889
632.046	0.0138262
632.124	0.0138907
632.203	0.0138918
632.281	0.0138470
632.359	0.0139129
632.437	0.0138752
632.515	0.0138132
632.593	0.0138373
632.671	0.0138030
632.749	0.0139151
632.828	0.0137872
632.906	0.0138605
632.984	0.0139919
633.062	0.0138864
633.140	0.0139584
633.218	0.0139219
633.296	0.0138129
633.374	0.0138315
633.453	0.0138220
633.531	0.0138990
633.609	0.0139594
633.687	0.0137413
633.765	0.0138841
633.843	0.0138842
633.921	0.0138199
633.999	0.0138356
634.078	0.0139525
634.156	0.0137891
634.234	0.0138475
634.312	0.0136508
634.390	0.0138839
634.468	0.0138731
634.546	0.0139752
634.624	0.0138738
634.703	0.0139327
634.781	0.0139349
634.859	0.0138120
634.937	0.0139553
635.015	0.0138416
635.093	0.0139332
635.171	0.0140600
635.249	0.0137796
635.328	0.0138088
635.406	0.0137756
635.484	0.0138606
635.562	0.0139677
635.640	0.0139254
635.718	0.0141235
635.796	0.0139272
635.874	0.0139211
635.953	0.0138132
636.031	0.0138538
636.109	0.0138451
636.187	0.0138153
636.265	0.0139082
636.343	0.0138938
636.421	0.0137846
636.499	0.0139184
636.578	0.0140311
636.656	0.0138125
636.734	0.0138805
636.812	0.0138603
636.890	0.0138592
636.968	0.0138729
637.046	0.0139354
637.124	0.0140041
637.203	0.0139407
637.281	0.0138738
637.359	0.0139496
637.437	0.0139855
637.515	0.0139316
637.593	0.0138917
637.671	0.0138609
637.749	0.0139554
637.828	0.0140197
637.906	0.0138961
637.984	0.0138485
638.062	0.0139032
638.140	0.0138641
638.218	0.0139357
638.296	0.0139432
638.374	0.0139415
638.453	0.0139209
638.531	0.0140667
638.609	0.0139854
638.687	0.0138292
638.765	0.0138766
638.843	0.0138862
638.921	0.0138406
638.999	0.0137885
639.078	0.0139322
639.156	0.0139735
639.234	0.0137820
639.312	0.0138942
639.390	0.0138809
639.468	0.0138480
639.546	0.0138927
639.624	0.0139156
639.703	0.0140463
639.781	0.0138952
639.859	0.0139735
639.937	0.0139166
640.015	0.0137808
640.093	0.0139751
640.171	0.0139433
640.249	0.0138602
640.328	0.0137842
640.406	0.0138686
640.484	0.0139665
640.562	0.0139008
640.640	0.0139017
640.718	0.0138773
640.796	0.0139277
640.874	0.0139697
640.953	0.0139968
641.031	0.0137107
641.109	0.0138582
641.187	0.0139880
641.265	0.0139325
641.343	0.0138869
641.421	0.0139305
641.499	0.0139697
641.578	0.0137996
641.656	0.0139342
641.734	0.0139372
641.812	0.0139311
641.890	0.0139668
641.968	0.0139622
642.046	0.0138625
642.124	0.0139291
642.203	0.0139301
642.281	0.0139283
642.359	0.0140469
642.437	0.0138509
642.515	0.0138930
642.593	0.0140770
642.671	0.0140690
642.749	0.0138264
642.828	0.0138274
642.906	0.0139567
642.984	0.0139717
643.062	0.0139716
643.140	0.0138699
643.218	0.0139832
643.296	0.0139564
643.374	0.0139041
643.453	0.0139075
643.531	0.0138011
643.609	0.0139703
643.687	0.0138936
643.765	0.0139231
643.843	0.0139424
643.921	0.0138969
643.999	0.0139000
644.078	0.0138938
644.156	0.0138917
644.234	0.0140591
644.312	0.0139185
644.390	0.0139387
644.468	0.0139570
644.546	0.0140328
644.624	0.0139104
644.703	0.0139948
644.781	0.0138657
644.859	0.0138615
644.937	0.0140016
645.015	0.0139219
645.093	0.0138573
645.171	0.0139151
645.249	0.0139477
645.328	0.0139989
645.406	0.0138039
645.484	0.0139226
645.562	0.0139236
645.640	0.0139007
645.718	0.0139443
645.796	0.0138695
645.874	0.0137916
645.953	0.0139924
646.031	0.0139182
646.109	0.0138506
646.187	0.0137805
646.265	0.0138970
646.343	0.0139956
646.421	0.0136984
646.499	0.0137816
646.578	0.0138707
646.656	0.0138390
646.734	0.0138458
646.812	0.0138460
646.890	0.0139024
646.968	0.0137576
647.046	0.0138334
647.124	0.0140210
647.203	0.0140035
647.281	0.0138564
647.359	0.0138340
647.437	0.0137618
647.515	0.0138303
647.593	0.0138898
647.671	0.0138632
647.749	0.0139191
647.828	0.0138918
647.906	0.0137752
647.984	0.0138814
648.062	0.0139091
648.140	0.0138860
648.218	0.0138822
648.296	0.0138229
648.374	0.0138491
648.453	0.0137380
648.531	0.0138349
648.609	0.0138670
648.687	0.0138612
648.765	0.0139153
648.843	0.0137722
648.921	0.0138226
648.999	0.0138932
649.078	0.0138564
649.156	0.0137781
649.234	0.0136954
649.312	0.0139455
649.390	0.0137199
649.468	0.0137737
649.546	0.0137645
649.624	0.0138670
649.703	0.0137591
649.781	0.0139014
649.859	0.0140091
649.937	0.0138645
650.015	0.0136834
650.093	0.0137992
650.171	0.0139268
650.249	0.0139317
650.328	0.0138485
650.406	0.0137744
650.484	0.0137903
650.562	0.0136728
650.640	0.0137149
650.718	0.0139515
650.796	0.0137669
650.874	0.0136890
650.953	0.0139254
651.031	0.0138747
651.109	0.0138309
651.187	0.0138290
651.265	0.0139416
651.343	0.0138780
651.421	0.0138406
651.499	0.0138814
651.578	0.0138709
651.656	0.0137649
651.734	0.0137621
651.812	0.0139333
651.890	0.0138957
651.968	0.0140186
652.046	0.0138090
652.124	0.0138766
652.203	0.0138762
652.281	0.0138737
652.359	0.0139537
652.437	0.0138144
652.515	0.0138976
652.593	0.0137237
652.671	0.0138646
652.749	0.0137989
652.828	0.0139273
652.906	0.0138051
652.984	0.0138638
653.062	0.0138343
653.140	0.0138781
653.218	0.0138243
653.296	0.0139307
653.374	0.0139330
653.453	0.0138880
653.531	0.0138374
653.609	0.0139467
653.687	0.0139264
653.765	0.0138911
653.843	0.0138924
653.921	0.0139059
653.999	0.0138000
654.078	0.0138329
654.156	0.0138550
654.234	0.0138694
654.312	0.0138395
654.390	0.0137195
654.468	0.0136608
654.546	0.0138198
654.624	0.0137710
654.703	0.0137968
654.781	0.0138181
654.859	0.0138636
654.937	0.0137860
655.015	0.0138102
655.093	0.0139777
655.171	0.0139706
655.249	0.0136572
655.328	0.0138994
655.406	0.0139353
655.484	0.0139500
655.562	0.0138410
655.640	0.0139139
655.718	0.0137653
655.796	0.0137909
655.874	0.0139170
655.953	0.0138920
656.031	0.0138432
656.109	0.0138622
656.187	0.0140314
656.265	0.0138805
656.343	0.0138093
656.421	0.0137098
656.499	0.0138493
656.578	0.0138117
656.656	0.0137949
656.734	0.0138257
656.812	0.0139390
656.890	0.0139044
656.968	0.0137911
657.046	0.0138661
657.124	0.0137647
657.203	0.0137212
657.281	0.0137740
657.359	0.0136913
657.437	0.0137222
657.515	0.0138915
657.593	0.0137511
657.671	0.0138836
657.749	0.0139101
657.828	0.0138493
657.906	0.0139927
657.984	0.0138721
658.062	0.0139036
658.140	0.0139619
658.218	0.0138864
658.296	0.0140308
658.374	0.0138567
658.453	0.0136950
658.531	0.0138191
658.609	0.0137045
658.687	0.0136889
658.765	0.0136637
658.843	0.0136215
658.921	0.0137244
658.999	0.0137877
659.078	0.0137823
659.156	0.0138333
659.234	0.0139713
659.312	0.0139596
659.390	0.0139801
659.468	0.0138157
659.546	0.0140807
659.624	0.0139635
659.703	0.0140134
659.781	0.0140296
659.859	0.0138680
659.937	0.0139559
660.015	0.0139480
660.093	0.0140144
660.171	0.0138609
660.249	0.0138310
660.328	0.0137499
660.406	0.0136295
660.484	0.0136789
660.562	0.0135314
660.640	0.0137286
660.718	0.0138044
660.796	0.0136435
660.874	0.0137502
660.953	0.0139118
661.031	0.0139217
661.109	0.0138936
661.187	0.0140037
661.265	0.0139134
661.343	0.0140101
661.421	0.0140180
661.499	0.0139439
661.578	0.0141129
661.656	0.0139570
661.734	0.0140466
661.812	0.0140770
661.890	0.0139312
661.968	0.0138475
662.046	0.0139473
662.124	0.0138725
662.203	0.0138433
662.281	0.0139149
662.359	0.0138257
662.437	0.0138375
662.515	0.0138155
662.593	0.0140054
662.671	0.0137605
662.749	0.0136515
662.828	0.0139307
662.906	0.0139432
662.984	0.0139554
663.062	0.0138634
663.140	0.0139822
663.218	0.0139567
663.296	0.0141911
663.374	0.0140858
663.453	0.0138435
663.531	0.0140675
663.609	0.0140398
663.687	0.0140125
663.765	0.0140115
663.843	0.0142024
663.921	0.0139878
663.999	0.0139484
664.078	0.0140112
664.156	0.0140467
664.234	0.0140157
664.312	0.0139576
664.390	0.0136804
664.468	0.0139776
664.546	0.0137521
664.624	0.0138329
664.703	0.0138124
664.781	0.0138258
664.859	0.0138053
664.937	0.0136646
665.015	0.0138245
665.093	0.0138179
665.171	0.0139402
665.249	0.0139813
665.328	0.0140264
665.406	0.0140685
665.484	0.0140672
665.562	0.0140115
665.640	0.0139684
665.718	0.0140397
665.796	0.0139967
665.874	0.0140447
665.953	0.0141249
666.031	0.0139760
666.109	0.0139298
666.187	0.0139635
666.265	0.0139269
666.343	0.0138196
666.421	0.0138823
666.499	0.0138351
666.578	0.0139990
666.656	0.0138450
666.734	0.0137112
666.812	0.0136283
666.890	0.0137399
666.968	0.0138811
667.046	0.0138250
667.124	0.0138644
667.203	0.0140012
667.281	0.0140985
667.359	0.0139724
667.437	0.0138647
667.515	0.0140399
667.593	0.0140382
667.671	0.0139565
667.749	0.0140047
667.828	0.0139854
667.906	0.0141721
667.984	0.0140134
668.062	0.0138318
668.140	0.0139278
668.218	0.0139302
668.296	0.0139415
668.374	0.0139242
668.453	0.0137607
668.531	0.0137412
668.609	0.0137765
668.687	0.0138300
668.765	0.0138689
668.843	0.0137709
668.921	0.0137872
668.999	0.0137547
669.078	0.0137637
669.156	0.0138545
669.234	0.0138618
669.312	0.0138194
669.390	0.0138599
669.468	0.0140306
669.546	0.0139675
669.624	0.0139552
669.703	0.0139831
669.781	0.0141586
669.859	0.0140268
669.937	0.0140141
670.015	0.0140220
670.093	0.0138354
670.171	0.0138839
670.249	0.0137919
670.328	0.0138295
670.406	0.0138564
670.484	0.0138351
670.562	0.0137662
670.640	0.0138393
670.718	0.0138314
670.796	0.0139806
670.874	0.0139366
670.953	0.0139410
671.031	0.0139330
671.109	0.0138692
671.187	0.0140868
671.265	0.0138722
671.343	0.0139667
671.421	0.0139026
671.499	0.0140645
671.578	0.0139594
671.656	0.0140869
671.734	0.0141516
671.812	0.0142373
671.890	0.0142688
671.968	0.0142818
672.046	0.0141634
672.124	0.0140247
672.203	0.0140282
672.281	0.0138513
672.359	0.0138732
672.437	0.0138052
672.515	0.0137877
672.593	0.0134579
672.671	0.0136055
672.749	0.0135094
672.828	0.0135651
672.906	0.0135656
672.984	0.0136562
673.062	0.0137020
673.140	0.0136201
673.218	0.0137679
673.296	0.0136808
673.374	0.0137357
673.453	0.0138094
673.531	0.0137403
673.609	0.0138275
673.687	0.0138284
673.765	0.0140226
673.843	0.0139880
673.921	0.0139964
673.999	0.0140932
674.078	0.0140428
674.156	0.0141801
674.234	0.0141454
674.312	0.0140768
674.390	0.0143159
674.468	0.0140905
674.546	0.0141430
674.624	0.0140623
674.703	0.0138635
674.781	0.0140828
674.859	0.0140493
674.937	0.0139304
675.015	0.0140573
675.093	0.0139730
675.171	0.0136961
675.249	0.0139766
675.328	0.0138471
675.406	0.0138898
675.484	0.0141277
675.562	0.0139709
675.640	0.0139467
675.718	0.0140301
675.796	0.0140569
675.874	0.0139481
675.953	0.0138622
676.031	0.0138902
676.109	0.0139387
676.187	0.0139510
676.265	0.0140482
676.343	0.0138541
676.421	0.0139076
676.499	0.0138049
676.578	0.0136491
676.656	0.0137500
676.734	0.0137380
676.812	0.0135109
676.890	0.0133669
676.968	0.0134899
677.046	0.0135001
677.124	0.0133909
677.203	0.0133595
677.281	0.0134718
677.359	0.0135696
677.437	0.0134670
677.515	0.0135857
677.593	0.0135216
677.671	0.0134505
677.749	0.0137132
677.828	0.0137379
677.906	0.0136396
677.984	0.0136123
678.062	0.0137695
678.140	0.0140388
678.218	0.0139299
678.296	0.0139394
678.374	0.0141441
678.453	0.0141843
678.531	0.0142825
678.609	0.0142419
678.687	0.0143092
678.765	0.0143619
678.843	0.0143853
678.921	0.0144260
678.999	0.0142848
679.078	0.0142677
679.156	0.0141784
679.234	0.0141096
679.312	0.0140821
679.390	0.0140566
679.468	0.0139816
679.546	0.0137968
679.624	0.0137383
679.703	0.0136510
679.781	0.0138087
679.859	0.0136288
679.937	0.0136481
680.015	0.0135307
680.093	0.0135422
680.171	0.0136557
680.249	0.0137624
680.328	0.0138894
680.406	0.0138091
680.484	0.0138367
680.562	0.0138549
680.640	0.0139877
680.718	0.0139172
680.796	0.0140037
680.874	0.0139609
680.953	0.0139697
681.031	0.0137635
681.109	0.0137012
681.187	0.0138057
681.265	0.0137591
681.343	0.0137740
681.421	0.0138596
681.499	0.0137538
681.578	0.0137774
681.656	0.0137839
681.734	0.0137824
681.812	0.0135870
681.890	0.0136702
681.968	0.0136376
682.046	0.0136589
682.124	0.0135835
682.203	0.0135396
682.281	0.0136367
682.359	0.0137622
682.437	0.0137140
682.515	0.0137834
682.593	0.0137370
682.671	0.0138254
682.749	0.0138130
682.828	0.0139038
682.906	0.0139080
682.984	0.0138170
683.062	0.0139530
683.140	0.0138932
683.218	0.0137861
683.296	0.0138669
683.374	0.0139218
683.453	0.0137930
683.531	0.0139444
683.609	0.0140219
683.687	0.0140455
683.765	0.0140381
683.843	0.0139700
683.921	0.0139385
683.999	0.0140693
684.078	0.0140717
684.156	0.0140633
684.234	0.0139761
684.312	0.0139828
684.390	0.0140601
684.468	0.0141092
684.546	0.0140609
684.624	0.0140264
684.703	0.0137795
684.781	0.0140417
684.859	0.0139493
684.937	0.0139045
685.015	0.0141002
685.093	0.0139895
685.171	0.0140503
685.249	0.0140302
685.328	0.0141338
685.406	0.0140394
685.484	0.0139758
685.562	0.0140261
685.640	0.0141900
685.718	0.0141950
685.796	0.0139857
685.874	0.0140424
685.953	0.0138650
686.031	0.0137923
686.109	0.0138084
686.187	0.0136980
686.265	0.0136456
686.343	0.0133976
686.421	0.0133958
686.499	0.0133642
686.578	0.0135205
686.656	0.0133308
686.734	0.0135272
686.812	0.0134711
686.890	0.0132718
686.968	0.0133391
687.046	0.0134412
687.124	0.0136787
687.203	0.0136451
687.281	0.0135115
687.359	0.0135334
687.437	0.0136393
687.515	0.0136826
687.593	0.0137210
687.671	0.0137504
687.749	0.0137456
687.828	0.0138096
687.906	0.0139605
687.984	0.0138897
688.062	0.0138211
688.140	0.0138776
688.218	0.0138393
688.296	0.0138036
688.374	0.0138523
688.453	0.0137597
688.531	0.0139420
688.609	0.0138701
688.687	0.0138227
688.765	0.0139867
688.843	0.0141500
688.921	0.0142640
688.999	0.0141790
689.078	0.0140587
689.156	0.0143760
689.234	0.0143720
689.312	0.0144892
689.390	0.0144009
689.468	0.0143968
689.546	0.0144196
689.624	0.0144685
689.703	0.0142551
689.781	0.0141989
689.859	0.0143341
689.937	0.0141343
690.015	0.0142006
690.093	0.0141415
690.171	0.0141341
690.249	0.0140247
690.328	0.0140730
690.406	0.0140482
690.484	0.0141710
690.562	0.0139673
690.640	0.0138831
690.718	0.0140042
690.796	0.0140306
690.874	0.0137908
690.953	0.0137055
691.031	0.0136568
691.109	0.0135528
691.187	0.0135003
691.265	0.0135091
691.343	0.0134241
691.421	0.0134020
691.499	0.0134058
691.578	0.0132071
691.656	0.0133349
691.734	0.0133639
691.812	0.0133755
691.890	0.0132731
691.968	0.0133022
692.046	0.0132062
692.124	0.0131875
692.203	0.0134453
692.281	0.0134269
692.359	0.0135209
692.437	0.0135450
692.515	0.0136375
692.593	0.0136449
692.671	0.0137258
692.749	0.0138422
692.828	0.0139207
692.906	0.0139650
692.984	0.0140289
693.062	0.0139249
693.140	0.0139516
693.218	0.0139442
693.296	0.0138079
693.374	0.0139642
693.453	0.0138657
693.531	0.0137612
693.609	0.0137093
693.687	0.0137142
693.765	0.0136289
693.843	0.0137936
693.921	0.0138190
693.999	0.0139312
694.078	0.0140714
694.156	0.0142607
694.234	0.0142535
694.312	0.0144877
694.390	0.0145981
694.468	0.0147173
694.546	0.0148984
694.624	0.0149850
694.703	0.0149988
694.781	0.0149709
694.859	0.0150467
694.937	0.0149779
695.015	0.0148957
695.093	0.0148078
695.171	0.0146595
695.249	0.0144078
695.328	0.0143571
695.406	0.0140482
695.484	0.0140569
695.562	0.0138728
695.640	0.0137492
695.718	0.0136566
695.796	0.0134298
695.874	0.0133846
695.953	0.0133169
696.031	0.0132280
696.109	0.0131544
696.187	0.0132497
696.265	0.0132923
696.343	0.0130628
696.421	0.0130877
696.499	0.0133277
696.578	0.0133276
696.656	0.0133701
696.734	0.0133456
696.812	0.0133035
696.890	0.0133604
696.968	0.0134058
697.046	0.0135215
697.124	0.0134232
697.203	0.0134274
697.281	0.0136064
697.359	0.0133934
697.437	0.0133757
697.515	0.0134742
697.593	0.0134819
697.671	0.0134560
697.749	0.0135815
697.828	0.0135821
697.906	0.0135273
697.984	0.0136553
698.062	0.0136573
698.140	0.0137025
698.218	0.0137977
698.296	0.0139452
698.374	0.0137640
698.453	0.0138780
698.531	0.0137975
698.609	0.0137801
698.687	0.0139028
698.765	0.0138830
698.843	0.0139265
698.921	0.0139518
698.999	0.0139952
699.078	0.0140162
699.156	0.0140189
699.234	0.0140871
699.312	0.0139890
699.390	0.0141957
699.468	0.0141349
699.546	0.0142574
699.624	0.0144122
699.703	0.0145725
699.781	0.0147695
699.859	0.0148415
699.937	0.0150864
700.015	0.0150488
700.093	0.0150287
700.171	0.0151629
700.249	0.0151749
700.328	0.0150589
700.406	0.0148142
700.484	0.0147951
700.562	0.0146913
700.640	0.0144344
700.718	0.0143293
700.796	0.0142464
700.874	0.0138985
700.953	0.0137075
701.031	0.0135699
701.109	0.0133827
701.187	0.0132572
701.265	0.0131681
701.343	0.0130101
701.421	0.0131375
701.499	0.0129008
701.578	0.0128638
701.656	0.0128622
701.734	0.0129946
701.812	0.0130514
701.890	0.0131148
701.968	0.0130008
702.046	0.0130652
702.124	0.0131581
702.203	0.0131604
702.281	0.0131827
702.359	0.0132129
702.437	0.0132310
702.515	0.0131734
702.593	0.0132069
702.671	0.0129602
702.749	0.0131269
702.828	0.0131041
702.906	0.0132162
702.984	0.0133542
703.062	0.0134813
703.140	0.0134032
703.218	0.0135644
703.296	0.0136658
703.374	0.0140194
703.453	0.0139513
703.531	0.0139256
703.609	0.0141189
703.687	0.0140736
703.765	0.0141271
703.843	0.0142609
703.921	0.0144099
703.999	0.0142525
704.078	0.0141665
704.156	0.0143667
704.234	0.0142832
704.312	0.0141738
704.390	0.0140497
704.468	0.0141695
704.546	0.0140237
704.624	0.0140201
704.703	0.0141357
704.781	0.0141139
704.859	0.0142466
704.937	0.0142280
705.015	0.0142326
705.093	0.0145073
705.171	0.0146120
705.249	0.0146871
705.328	0.0148285
705.406	0.0148701
705.484	0.0150235
705.562	0.0149632
705.640	0.0149921
705.718	0.0149157
705.796	0.0147976
705.874	0.0146207
705.953	0.0145957
706.031	0.0144486
706.109	0.0142287
706.187	0.0139797
706.265	0.0139291
706.343	0.0137521
706.421	0.0135184
706.499	0.0134724
706.578	0.0133614
706.656	0.0130308
706.734	0.0128831
706.812	0.0129536
706.890	0.0128965
706.968	0.0126479
707.046	0.0126759
707.124	0.0125384
707.203	0.0126483
707.281	0.0127820
707.359	0.0126890
707.437	0.0127583
707.515	0.0129345
707.593	0.0127560
707.671	0.0129250
707.749	0.0130546
707.828	0.0132005
707.906	0.0133509
707.984	0.0131827
708.062	0.0134038
708.140	0.0135453
708.218	0.0134897
708.296	0.0136375
708.374	0.0138064
708.453	0.0139857
708.531	0.0139610
708.609	0.0142313
708.687	0.0142922
708.765	0.0143450
708.843	0.0144119
708.921	0.0144868
708.999	0.0144863
709.078	0.0144924
709.156	0.0142798
709.234	0.0142956
709.312	0.0143486
709.390	0.0142123
709.468	0.0140912
709.546	0.0142153
709.624	0.0139375
709.703	0.0139754
709.781	0.0138889
709.859	0.0139066
709.937	0.0138425
710.015	0.0137774
710.093	0.0139965
710.171	0.0136816
710.249	0.0137746
710.328	0.0138665
710.406	0.0139105
710.484	0.0139777
710.562	0.0141750
710.640	0.0142734
710.718	0.0144443
710.796	0.0145963
710.874	0.0146315
710.953	0.0146913
711.031	0.0148792
711.109	0.0148940
711.187	0.0148071
711.265	0.0148190
711.343	0.0146140
711.421	0.0146023
711.499	0.0145731
711.578	0.0143877
711.656	0.0142554
711.734	0.0142383
711.812	0.0139711
711.890	0.0138118
711.968	0.0138289
712.046	0.0134628
712.124	0.0132439
712.203	0.0131512
712.281	0.0130457
712.359	0.0129807
712.437	0.0127280
712.515	0.0126529
712.593	0.0126949
712.671	0.0125378
712.749	0.0124911
712.828	0.0126192
712.906	0.0128105
712.984	0.0129218
713.062	0.0128922
713.140	0.0130123
713.218	0.0131499
713.296	0.0132078
713.374	0.0133954
713.453	0.0134850
713.531	0.0136317
713.609	0.0137617
713.687	0.0138976
713.765	0.0139654
713.843	0.0139312
713.921	0.0140894
713.999	0.0143297
714.078	0.0142628
714.156	0.0144237
714.234	0.0143579
714.312	0.0143800
714.390	0.0144346
714.468	0.0143393
714.546	0.0142568
714.624	0.0142515
714.703	0.0141758
714.781	0.0141669
714.859	0.0139663
714.937	0.0139501
715.015	0.0139996
715.093	0.0137762
715.171	0.0136295
715.249	0.0138600
715.328	0.0137592
715.406	0.0138962
715.484	0.0137860
715.562	0.0138885
715.640	0.0139772
715.718	0.0138306
715.796	0.0140882
715.874	0.0141921
715.953	0.0140475
716.031	0.0141907
716.109	0.0143647
716.187	0.0144701
716.265	0.0146272
716.343	0.0146853
716.421	0.0148726
716.499	0.0148650
716.578	0.0148692
716.656	0.0148978
716.734	0.0147697
716.812	0.0148436
716.890	0.0146513
716.968	0.0144427
717.046	0.0143645
717.124	0.0143179
717.203	0.0140540
717.281	0.0138171
717.359	0.0136158
717.437	0.0134972
717.515	0.0132480
717.593	0.0132067
717.671	0.0129983
717.749	0.0128074
717.828	0.0127169
717.906	0.0127160
717.984	0.0125606
718.062	0.0126225
718.140	0.0126471
718.218	0.0127052
718.296	0.0126321
718.374	0.0128670
718.453	0.0128223
718.531	0.0130801
718.609	0.0132056
718.687	0.0132156
718.765	0.0134103
718.843	0.0136751
718.921	0.0137803
718.999	0.0138895
719.078	0.0139064
719.156	0.0138537
719.234	0.0138902
719.312	0.0139390
719.390	0.0138796
719.468	0.0141272
719.546	0.0141191
719.624	0.0140324
719.703	0.0142075
719.781	0.0142233
719.859	0.0141737
719.937	0.0143009
720.015	0.0142727
720.093	0.0143840
720.171	0.0143507
720.249	0.0140813
720.328	0.0139436
720.406	0.0141384
720.484	0.0141254
720.562	0.0139754
720.640	0.0138028
720.718	0.0139033
720.796	0.0139068
720.874	0.0138377
720.953	0.0138421
721.031	0.0137978
721.109	0.0137141
721.187	0.0136841
721.265	0.0137831
721.343	0.0136377
721.421	0.0138038
721.499	0.0137052
721.578	0.0139505
721.656	0.0139489
721.734	0.0142099
721.812	0.0143146
721.890	0.0143367
721.968	0.0144955
722.046	0.0146226
722.124	0.0147729
722.203	0.0148621
722.281	0.0148327
722.359	0.0147914
722.437	0.0147549
722.515	0.0147395
722.593	0.0144758
722.671	0.0142242
722.749	0.0141898
722.828	0.0139927
722.906	0.0137439
722.984	0.0135607
723.062	0.0134761
723.140	0.0133796
723.218	0.0131676
723.296	0.0130409
723.374	0.0129710
723.453	0.0126939
723.531	0.0127689
723.609	0.0128467
723.687	0.0127162
723.765	0.0127943
723.843	0.0129380
723.921	0.0128368
723.999	0.0129798
724.078	0.0131169
724.156	0.0131584
724.234	0.0132192
724.312	0.0134375
724.390	0.0134380
724.468	0.0134998
724.546	0.0137566
724.624	0.0139561
724.703	0.0139737
724.781	0.0140703
724.859	0.0141805
724.937	0.0141409
725.015	0.0142780
725.093	0.0142872
725.171	0.0143064
725.249	0.0142757
725.328	0.0142412
725.406	0.0142636
725.484	0.0141306
725.562	0.0142015
725.640	0.0141933
725.718	0.0142273
725.796	0.0141119
725.874	0.0140607
725.953	0.0140289
726.031	0.0139037
726.109	0.0137691
726.187	0.0137613
726.265	0.0138245
726.343	0.0137099
726.421	0.0137733
726.499	0.0136093
726.578	0.0135957
726.656	0.0137550
726.734	0.0137211
726.812	0.0137688
726.890	0.0138391
726.968	0.0138680
727.046	0.0140686
727.124	0.0142213
727.203	0.0141853
727.281	0.0143248
727.359	0.0144128
727.437	0.0144057
727.515	0.0146856
727.593	0.0147078
727.671	0.0146690
727.749	0.0144841
727.828	0.0146051
727.906	0.0147466
727.984	0.0145470
728.062	0.0143967
728.140	0.0142754
728.218	0.0140290
728.296	0.0138232
728.374	0.0135873
728.453	0.0134114
728.531	0.0133551
728.609	0.0131131
728.687	0.0129686
728.765	0.0129113
728.843	0.0128062
728.921	0.0126775
728.999	0.0127750
729.078	0.0127231
729.156	0.0128368
729.234	0.0129266
729.312	0.0129884
729.390	0.0130191
729.468	0.0131917
729.546	0.0133943
729.624	0.0134766
729.703	0.0134670
729.781	0.0134776
729.859	0.0137111
729.937	0.0138225
730.015	0.0138536
730.093	0.0140033
730.171	0.0140496
730.249	0.0141766
730.328	0.0140858
730.406	0.0141692
730.484	0.0141019
730.562	0.0141487
730.640	0.0143203
730.718	0.0142600
730.796	0.0143404
730.874	0.0142870
730.953	0.0142375
731.031	0.0141505
731.109	0.0142833
731.187	0.0141360
731.265	0.0140520
731.343	0.0140727
731.421	0.0140754
731.499	0.0139974
731.578	0.0139993
731.656	0.0139557
731.734	0.0140159
731.812	0.0139379
731.890	0.0138338
731.968	0.0138953
732.046	0.0139209
732.124	0.0136756
732.203	0.0137849
732.281	0.0138131
732.359	0.0137044
732.437	0.0137492
732.515	0.0138239
732.593	0.0138321
732.671	0.0138576
732.749	0.0140176
732.828	0.0140489
732.906	0.0140932
732.984	0.0142031
733.062	0.0142854
733.140	0.0142445
733.218	0.0144464
733.296	0.0144672
733.374	0.0143342
733.453	0.0143375
733.531	0.0143407
733.609	0.0143579
733.687	0.0141679
733.765	0.0140536
733.843	0.0139881
733.921	0.0137501
733.999	0.0134703
734.078	0.0135650
734.156	0.0133543
734.234	0.0133305
734.312	0.0132735
734.390	0.0132737
734.468	0.0132031
734.546	0.0133241
734.624	0.0130258
734.703	0.0131990
734.781	0.0133489
734.859	0.0133140
734.937	0.0135154
735.015	0.0133795
735.093	0.0134164
735.171	0.0134927
735.249	0.0136013
735.328	0.0136433
735.406	0.0136157
735.484	0.0137962
735.562	0.0138960
735.640	0.0139084
735.718	0.0138979
735.796	0.0138991
735.874	0.0139098
735.953	0.0139383
736.031	0.0140669
736.109	0.0141321
736.187	0.0140157
736.265	0.0142104
736.343	0.0143439
736.421	0.0142937
736.499	0.0142836
736.578	0.0142945
736.656	0.0142365
736.734	0.0142599
736.812	0.0141412
736.890	0.0140921
736.968	0.0141719
737.046	0.0140585
737.124	0.0139665
737.203	0.0139230
737.281	0.0138188
737.359	0.0139696
737.437	0.0139016
737.515	0.0140111
737.593	0.0138829
737.671	0.0136427
737.749	0.0138095
737.828	0.0138171
737.906	0.0137248
737.984	0.0137695
738.062	0.0138253
738.140	0.0137720
738.218	0.0137464
738.296	0.0138316
738.374	0.0139681
738.453	0.0140159
738.531	0.0140649
738.609	0.0140873
738.687	0.0141717
738.765	0.0141193
738.843	0.0142522
738.921	0.0141572
738.999	0.0143228
739.078	0.0143301
739.156	0.0142335
739.234	0.0141589
739.312	0.0141164
739.390	0.0137966
739.468	0.0137558
739.546	0.0135972
739.624	0.0136541
739.703	0.0135810
739.781	0.0134448
739.859	0.0136009
739.937	0.0134533
740.015	0.0132927
740.093	0.0133900
740.171	0.0133907
740.249	0.0134389
740.328	0.0135067
740.406	0.0135172
740.484	0.0136107
740.562	0.0136053
740.640	0.0134464
740.718	0.0136587
740.796	0.0135898
740.874	0.0135923
740.953	0.0136910
741.031	0.0139241
741.109	0.0138129
741.187	0.0139122
741.265	0.0139851
741.343	0.0140210
741.421	0.0141176
741.499	0.0141006
741.578	0.0142609
741.656	0.0141488
741.734	0.0142175
741.812	0.0143468
741.890	0.0142877
741.968	0.0143831
742.046	0.0142912
742.124	0.0141521
742.203	0.0142532
742.281	0.0142235
742.359	0.0141988
742.437	0.0141514
742.515	0.0140928
742.593	0.0140078
742.671	0.0138832
742.749	0.0138825
742.828	0.0139146
742.906	0.0137163
742.984	0.0138543
743.062	0.0140225
743.140	0.0137818
743.218	0.0138513
743.296	0.0137614
743.374	0.0137303
743.453	0.0136703
743.531	0.0136965
743.609	0.0136378
743.687	0.0136524
743.765	0.0138147
743.843	0.0138611
743.921	0.0138673
743.999	0.0138700
744.078	0.0141224
744.156	0.0141022
744.234	0.0139735
744.312	0.0140993
744.390	0.0143301
744.468	0.0142225
744.546	0.0144023
744.624	0.0141171
744.703	0.0139648
744.781	0.0141441
744.859	0.0141264
744.937	0.0139919
745.015	0.0140290
745.093	0.0138706
745.171	0.0137724
745.249	0.0138160
745.328	0.0136795
745.406	0.0136533
745.484	0.0137366
745.562	0.0136555
745.640	0.0137624
745.718	0.0136100
745.796	0.0137478
745.874	0.0136712
745.953	0.0137764
746.031	0.0138454
746.109	0.0137399
746.187	0.0137765
746.265	0.0137114
746.343	0.0137802
746.421	0.0138108
746.499	0.0138671
746.578	0.0138889
746.656	0.0138170
746.734	0.0140520
746.812	0.0139581
746.890	0.0139826
746.968	0.0140024
747.046	0.0140855
747.124	0.0141829
747.203	0.0140703
747.281	0.0141862
747.359	0.0142157
747.437	0.0141248
747.515	0.0140570
747.593	0.0141289
747.671	0.0141602
747.749	0.0141130
747.828	0.0140337
747.906	0.0141001
747.984	0.0139700
748.062	0.0138595
748.140	0.0137962
748.218	0.0139748
748.296	0.0137021
748.374	0.0137124
748.453	0.0137936
748.531	0.0136051
748.609	0.0137507
748.687	0.0137555
748.765	0.0137222
748.843	0.0138985
748.921	0.0138860
748.999	0.0138611
749.078	0.0138009
749.156	0.0139021
749.234	0.0139330
749.312	0.0139445
749.390	0.0140292
749.468	0.0139043
749.546	0.0139079
749.624	0.0140746
749.703	0.0141625
749.781	0.0140476
749.859	0.0140228
749.937	0.0141340
750.015	0.0140598
750.093	0.0140334
750.171	0.0140301
750.249	0.0139161
750.328	0.0139765
750.406	0.0141463
750.484	0.0139883
750.562	0.0139171
750.640	0.0140114
750.718	0.0139172
750.796	0.0137740
750.874	0.0137742
750.953	0.0137341
751.031	0.0137064
751.109	0.0135571
751.187	0.0137254
751.265	0.0136484
751.343	0.0136707
751.421	0.0137675
751.499	0.0136811
751.578	0.0136491
751.656	0.0135751
751.734	0.0137275
751.812	0.0138141
751.890	0.0138694
751.968	0.0138361
752.046	0.0138777
752.124	0.0138886
752.203	0.0140084
752.281	0.0139629
752.359	0.0140195
752.437	0.0140193
752.515	0.0140017
752.593	0.0139673
752.671	0.0137878
752.749	0.0138891
752.828	0.0139103
752.906	0.0140203
752.984	0.0139055
753.062	0.0138631
753.140	0.0139433
753.218	0.0139326
753.296	0.0138343
753.374	0.0138902
753.453	0.0139499
753.531	0.0139149
753.609	0.0138770
753.687	0.0139038
753.765	0.0138641
753.843	0.0139412
753.921	0.0139341
753.999	0.0138122
754.078	0.0138713
754.156	0.0138651
754.234	0.0137257
754.312	0.0139866
754.390	0.0139239
754.468	0.0137942
754.546	0.0137775
754.624	0.0138206
754.703	0.0138247
754.781	0.0139518
754.859	0.0138575
754.937	0.0139259
755.015	0.0138733
755.093	0.0138393
755.171	0.0139587
755.249	0.0138367
755.328	0.0139786
755.406	0.0139754
755.484	0.0139086
755.562	0.0140076
755.640	0.0139992
755.718	0.0139400
755.796	0.0139552
755.874	0.0139373
755.953	0.0138960
756.031	0.0139234
756.109	0.0138405
756.187	0.0138849
756.265	0.0137598
756.343	0.0137997
756.421	0.0139577
756.499	0.0138790
756.578	0.0139127
756.656	0.0139305
756.734	0.0138103
756.812	0.0139306
756.890	0.0139238
756.968	0.0138789
757.046	0.0139228
757.124	0.0138134
757.203	0.0138638
757.281	0.0138825
757.359	0.0139114
757.437	0.0138029
757.515	0.0139842
757.593	0.0138643
757.671	0.0137531
757.749	0.0137244
757.828	0.0138886
757.906	0.0137611
757.984	0.0136526
758.062	0.0136787
758.140	0.0137159
758.218	0.0135317
758.296	0.0137280
758.374	0.0136919
758.453	0.0138373
758.531	0.0138676
758.609	0.0138863
758.687	0.0140565
758.765	0.0138940
758.843	0.0138928
758.921	0.0141650
758.999	0.0140712
759.078	0.0140498
759.156	0.0139861
759.234	0.0139764
759.312	0.0139601
759.390	0.0139311
759.468	0.0138511
759.546	0.0139066
759.624	0.0137215
759.703	0.0137682
759.781	0.0138303
759.859	0.0135548
759.937	0.0137482
760.015	0.0137848
760.093	0.0138800
760.171	0.0138124
760.249	0.0138461
760.328	0.0138963
760.406	0.0138799
760.484	0.0138889
760.562	0.0138101
760.640	0.0137490
760.718	0.0138381
760.796	0.0137843
760.874	0.0138993
760.953	0.0139131
761.031	0.0138255
761.109	0.0139561
761.187	0.0139096
761.265	0.0139642
761.343	0.0139924
761.421	0.0140722
761.499	0.0140075
761.578	0.0139713
761.656	0.0139843
761.734	0.0139819
761.812	0.0139276
761.890	0.0139667
761.968	0.0139440
762.046	0.0140425
762.124	0.0138896
762.203	0.0139379
762.281	0.0139640
762.359	0.0138489
762.437	0.0139311
762.515	0.0138564
762.593	0.0139117
762.671	0.0137778
762.749	0.0138995
762.828	0.0138099
762.906	0.0137554
762.984	0.0138636
763.062	0.0138825
763.140	0.0137365
763.218	0.0136269
763.296	0.0138131
763.374	0.0138415
763.453	0.0138110
763.531	0.0138646
763.609	0.0137950
763.687	0.0137593
763.765	0.0137724
763.843	0.0138078
763.921	0.0139451
763.999	0.0140855
764.078	0.0139743
764.156	0.0139057
764.234	0.0139822
764.312	0.0140199
764.390	0.0140338
764.468	0.0140338
764.546	0.0140379
764.624	0.0141307
764.703	0.0140194
764.781	0.0139494
764.859	0.0139081
764.937	0.0139809
765.015	0.0139467
765.093	0.0138017
765.171	0.0137880
765.249	0.0137830
765.328	0.0137342
765.406	0.0136834
765.484	0.0137691
765.562	0.0136950
765.640	0.0137760
765.718	0.0137594
765.796	0.0138023
765.874	0.0138355
765.953	0.0137302
766.031	0.0138544
766.109	0.0138594
766.187	0.0139294
766.265	0.0138771
766.343	0.0139709
766.421	0.0138657
766.499	0.0138515
766.578	0.0139342
766.656	0.0139346
766.734	0.0139442
766.812	0.0139925
766.890	0.0139902
766.968	0.0140894
767.046	0.0140040
767.124	0.0139040
767.203	0.0140067
767.281	0.0140969
767.359	0.0140628
767.437	0.0141370
767.515	0.0140665
767.593	0.0141393
767.671	0.0140705
767.749	0.0139538
767.828	0.0141312
767.906	0.0139709
767.984	0.0139289
768.062	0.0139049
768.140	0.0138885
768.218	0.0138179
768.296	0.0138593
768.374	0.0138549
768.453	0.0138637
768.531	0.0136620
768.609	0.0138015
768.687	0.0137778
768.765	0.0137343
768.843	0.0136485
768.921	0.0138685
768.999	0.0138918
769.078	0.0137462
769.156	0.0137136
769.234	0.0137707
769.312	0.0137280
769.390	0.0138042
769.468	0.0139024
769.546	0.0138865
769.624	0.0139013
769.703	0.0139602
769.781	0.0140271
769.859	0.0139279
769.937	0.0141257
770.015	0.0140766
770.093	0.0140076
770.171	0.0138457
770.249	0.0138345
770.328	0.0138208
770.406	0.0138192
770.484	0.0136901
770.562	0.0137972
770.640	0.0138028
770.718	0.0136339
770.796	0.0137901
770.874	0.0137604
770.953	0.0136399
771.031	0.0137655
771.109	0.0136313
771.187	0.0136844
771.265	0.0136569
771.343	0.0137668
771.421	0.0137258
771.499	0.0138218
771.578	0.0138912
771.656	0.0138560
771.734	0.0139455
771.812	0.0138488
771.890	0.0138515
771.968	0.0139461
772.046	0.0140112
772.124	0.0139183
772.203	0.0138877
772.281	0.0139723
772.359	0.0139762
772.437	0.0140217
772.515	0.0140228
772.593	0.0140668
772.671	0.0139539
772.749	0.0140099
772.828	0.0140070
772.906	0.0139558
772.984	0.0140572
773.062	0.0140617
773.140	0.0139735
773.218	0.0138605
773.296	0.0138847
773.374	0.0138789
773.453	0.0137643
773.531	0.0139046
773.609	0.0136943
773.687	0.0137177
773.765	0.0138364
773.843	0.0138264
773.921	0.0137418
773.999	0.0137715
774.078	0.0138272
774.156	0.0135889
774.234	0.0137319
774.312	0.0138483
774.390	0.0137412
774.468	0.0137535
774.546	0.0140646
774.624	0.0139502
774.703	0.0138685
774.781	0.0138272
774.859	0.0140657
774.937	0.0139729
775.015	0.0140475
775.093	0.0138689
775.171	0.0139405
775.249	0.0139775
775.328	0.0140427
775.406	0.0138088
775.484	0.0139497
775.562	0.0140382
775.640	0.0141585
775.718	0.0140878
775.796	0.0140476
775.874	0.0140587
775.953	0.0140383
776.031	0.0140150
776.109	0.0139326
776.187	0.0138671
776.265	0.0139519
776.343	0.0138934
776.421	0.0139805
776.499	0.0137753
776.578	0.0138564
776.656	0.0138770
776.734	0.0136838
776.812	0.0137207
776.890	0.0137759
776.968	0.0138344
777.046	0.0137048
777.124	0.0138000
777.203	0.0138969
777.281	0.0138923
777.359	0.0139430
777.437	0.0139007
777.515	0.0139314
777.593	0.0138906
777.671	0.0140556
777.749	0.0140362
777.828	0.0139667
777.906	0.0140085
777.984	0.0138725
778.062	0.0138489
778.140	0.0140685
778.218	0.0138855
778.296	0.0138651
778.374	0.0140707
778.453	0.0140343
778.531	0.0140071
778.609	0.0138757
778.687	0.0139886
778.765	0.0138584
778.843	0.0138055
778.921	0.0137290
778.999	0.0137682
779.078	0.0138294
779.156	0.0138048
779.234	0.0136533
779.312	0.0136800
779.390	0.0137632
779.468	0.0136909
779.546	0.0138321
779.624	0.0137679
779.703	0.0137389
779.781	0.0138321
779.859	0.0138625
779.937	0.0139556
780.015	0.0138805
780.093	0.0139105
780.171	0.0138975
780.249	0.0139275
780.328	0.0141138
780.406	0.0140421
780.484	0.0138371
780.562	0.0139116
780.640	0.0139050
780.718	0.0139775
780.796	0.0139324
780.874	0.0140262
780.953	0.0140310
781.031	0.0140137
781.109	0.0140116
781.187	0.0140527
781.265	0.0141276
781.343	0.0139594
781.421	0.0137583
781.499	0.0138967
781.578	0.0138165
781.656	0.0139748
781.734	0.0138252
781.812	0.0137956
781.890	0.0137543
781.968	0.0137852
782.046	0.0139117
782.124	0.0137492
782.203	0.0136649
782.281	0.0137610
782.359	0.0137847
782.437	0.0137071
782.515	0.0137295
782.593	0.0137756
782.671	0.0136904
782.749	0.0137549
782.828	0.0138856
782.906	0.0138245
782.984	0.0138211
783.062	0.0137417
783.140	0.0138068
783.218	0.0139104
783.296	0.0138064
783.374	0.0137840
783.453	0.0137463
783.531	0.0138637
783.609	0.0138522
783.687	0.0138882
783.765	0.0139857
783.843	0.0139484
783.921	0.0138003
783.999	0.0138964
784.078	0.0139701
784.156	0.0138795
784.234	0.0138550
784.312	0.0138620
784.390	0.0139584
784.468	0.0138438
784.546	0.0138029
784.624	0.0137388
784.703	0.0138335
784.781	0.0136948
784.859	0.0138596
784.937	0.0137391
785.015	0.0137585
785.093	0.0139522
785.171	0.0138506
785.249	0.0137759
785.328	0.0140097
785.406	0.0138115
785.484	0.0139780
785.562	0.0138932
785.640	0.0138927
785.718	0.0140019
785.796	0.0139994
785.874	0.0140956
785.953	0.0139947
786.031	0.0139654
786.109	0.0139067
786.187	0.0141683
786.265	0.0140245
786.343	0.0138802
786.421	0.0138777
786.499	0.0139417
786.578	0.0139063
786.656	0.0138223
786.734	0.0138802
786.812	0.0139228
786.890	0.0138914
786.968	0.0137328
787.046	0.0137789
787.124	0.0137312
787.203	0.0137454
787.281	0.0138195
787.359	0.0137852
787.437	0.0137560
787.515	0.0137183
787.593	0.0137421
787.671	0.0135979
787.749	0.0137042
787.828	0.0135941
787.906	0.0135709
787.984	0.0136038
788.062	0.0136006
788.140	0.0137641
788.218	0.0136427
788.296	0.0136622
788.374	0.0138284
788.453	0.0136971
788.531	0.0136070
788.609	0.0138638
788.687	0.0138062
788.765	0.0138086
788.843	0.0140007
788.921	0.0139398
788.999	0.0140037
789.078	0.0138985
789.156	0.0140929
789.234	0.0140044
789.312	0.0140398
789.390	0.0139333
789.468	0.0139355
789.546	0.0141543
789.624	0.0138246
789.703	0.0139584
789.781	0.0139357
789.859	0.0139133
789.937	0.0140401
790.015	0.0139749
790.093	0.0138660
790.171	0.0139400
790.249	0.0138707
790.328	0.0139857
790.406	0.0139024
790.484	0.0138168
790.562	0.0138071
790.640	0.0138391
790.718	0.0138171
790.796	0.0139153
790.874	0.0139339
790.953	0.0140181
791.031	0.0138276
791.109	0.0141460
791.187	0.0140096
791.265	0.0138439
791.343	0.0138258
791.421	0.0139141
791.499	0.0138585
791.578	0.0138326
791.656	0.0137200
791.734	0.0138496
791.812	0.0137955
791.890	0.0137686
791.968	0.0138354
792.046	0.0137544
792.124	0.0137870
792.203	0.0139220
792.281	0.0138538
792.359	0.0138126
792.437	0.0138591
792.515	0.0137524
792.593	0.0138055
792.671	0.0138808
792.749	0.0138696
792.828	0.0138223
792.906	0.0137852
792.984	0.0138580
793.062	0.0137318
793.140	0.0138213
793.218	0.0137740
793.296	0.0137590
793.374	0.0138889
793.453	0.0138091
793.531	0.0137653
793.609	0.0139095
793.687	0.0136901
793.765	0.0136591
793.843	0.0137630
793.921	0.0137867
793.999	0.0138372
794.078	0.0138361
794.156	0.0138748
794.234	0.0139203
794.312	0.0139603
794.390	0.0139453
794.468	0.0139423
794.546	0.0139085
794.624	0.0138811
794.703	0.0139445
794.781	0.0139439
794.859	0.0140093
794.937	0.0140160
795.015	0.0139850
795.093	0.0139944
795.171	0.0139047
795.249	0.0138522
795.328	0.0138678
795.406	0.0138123
795.484	0.0137695
795.562	0.0139198
795.640	0.0138037
795.718	0.0136871
795.796	0.0138577
795.874	0.0138115
795.953	0.0137947
796.031	0.0136826
796.109	0.0137933
796.187	0.0139714
796.265	0.0140259
796.343	0.0138696
796.421	0.0138318
796.499	0.0138321
796.578	0.0137499
796.656	0.0138642
796.734	0.0140515
796.812	0.0139415
796.890	0.0139388
796.968	0.0139699
797.046	0.0139500
797.124	0.0137305
797.203	0.0138490
797.281	0.0139056
797.359	0.0140050
797.437	0.0139248
797.515	0.0137924
797.593	0.0138463
797.671	0.0138567
797.749	0.0137491
797.828	0.0140093
797.906	0.0138562
797.984	0.0137770
798.062	0.0139059
798.140	0.0138029
798.218	0.0138212
798.296	0.0138082
798.374	0.0137910
798.453	0.0137762
798.531	0.0136242
798.609	0.0137276
798.687	0.0137048
798.765	0.0136855
798.843	0.0138409
798.921	0.0138531
798.999	0.0138193
799.078	0.0138690
799.156	0.0138986
799.234	0.0139124
799.312	0.0139734
799.390	0.0138594
799.468	0.0139475
799.546	0.0138614
799.624	0.0139107
799.703	0.0139268
799.781	0.0138951
799.859	0.0140669
799.937	0.0139336
800.015	0.0138369
800.093	0.0138350
800.171	0.0139069
800.249	0.0139803
800.328	0.0138885
800.406	0.0138131
800.484	0.0138718
800.562	0.0139610
800.640	0.0137691
800.718	0.0137151
800.796	0.0139347
800.874	0.0137956
800.953	0.0137753
801.031	0.0138992
801.109	0.0139377
801.187	0.0138589
801.265	0.0138170
801.343	0.0139648
801.421	0.0139613
801.499	0.0141157
801.578	0.0138760
801.656	0.0140091
801.734	0.0140884
801.812	0.0139789
801.890	0.0140739
801.968	0.0140994
802.046	0.0138376
802.124	0.0140659
802.203	0.0141225
802.281	0.0140760
802.359	0.0139798
802.437	0.0137267
802.515	0.0137662
802.593	0.0140264
802.671	0.0139247
802.749	0.0139081
802.828	0.0137590
802.906	0.0136272
802.984	0.0137952
803.062	0.0139423
803.140	0.0138892
803.218	0.0138319
803.296	0.0137891
803.374	0.0138125
803.453	0.0137424
803.531	0.0138354
803.609	0.0139363
803.687	0.0136534
803.765	0.0137027
803.843	0.0139056
803.921	0.0138312
803.999	0.0137852
804.078	0.0139889
804.156	0.0138519
804.234	0.0138249
804.312	0.0139101
804.390	0.0138920
804.468	0.0138908
804.546	0.0138301
804.624	0.0140726
804.703	0.0138754
804.781	0.0138290
804.859	0.0138715
804.937	0.0138117
805.015	0.0138904
805.093	0.0138611
805.171	0.0138506
805.249	0.0138245
805.328	0.0140205
805.406	0.0138674
805.484	0.0138937
805.562	0.0139205
805.640	0.0138753
805.718	0.0138154
805.796	0.0139359
805.874	0.0140533
805.953	0.0139773
806.031	0.0138966
806.109	0.0138936
806.187	0.0140072
806.265	0.0139876
806.343	0.0140038
806.421	0.0139571
806.499	0.0140702
806.578	0.0139091
806.656	0.0139545
806.734	0.0139963
806.812	0.0139400
806.890	0.0140170
806.968	0.0139665
807.046	0.0139915
807.124	0.0140687
807.203	0.0140635
807.281	0.0139455
807.359	0.0139721
807.437	0.0139716
807.515	0.0139806
807.593	0.0139170
807.671	0.0139114
807.749	0.0140299
807.828	0.0138467
807.906	0.0138378
807.984	0.0138662
808.062	0.0138592
808.140	0.0138097
808.218	0.0138428
808.296	0.0137868
808.374	0.0137425
808.453	0.0137028
808.531	0.0139286
808.609	0.0138377
808.687	0.0137055
808.765	0.0137695
808.843	0.0137125
808.921	0.0136935
808.999	0.0135890
809.078	0.0137680
809.156	0.0137733
809.234	0.0137558
809.312	0.0137576
809.390	0.0137653
809.468	0.0137991
809.546	0.0137656
809.624	0.0138788
809.703	0.0138352
809.781	0.0137285
809.859	0.0139007
809.937	0.0139178
810.015	0.0138998
810.093	0.0138057
810.171	0.0138113
810.249	0.0138834
810.328	0.0138267
810.406	0.0138676
810.484	0.0138958
810.562	0.0139585
810.640	0.0139115
810.718	0.0138921
810.796	0.0137621
810.874	0.0138292
810.953	0.0139159
811.031	0.0138415
811.109	0.0137106
811.187	0.0139680
811.265	0.0140098
811.343	0.0138152
811.421	0.0138333
811.499	0.0139417
811.578	0.0139043
811.656	0.0139267
811.734	0.0138863
811.812	0.0139272
811.890	0.0139922
811.968	0.0139755
812.046	0.0139357
812.124	0.0139423
812.203	0.0139505
812.281	0.0139857
812.359	0.0140909
812.437	0.0139538
812.515	0.0138544
812.593	0.0140800
812.671	0.0139978
812.749	0.0138767
812.828	0.0139208
812.906	0.0139883
812.984	0.0138757
813.062	0.0138686
813.140	0.0138324
813.218	0.0139366
813.296	0.0140699
813.374	0.0139171
813.453	0.0138113
813.531	0.0138280
813.609	0.0138450
813.687	0.0137583
813.765	0.0138362
813.843	0.0137280
813.921	0.0137540
813.999	0.0137542
814.078	0.0136004
814.156	0.0135857
814.234	0.0136549
814.312	0.0137541
814.390	0.0135896
814.468	0.0136159
814.546	0.0137085
814.624	0.0136745
814.703	0.0136321
814.781	0.0136983
814.859	0.0137450
814.937	0.0137917
815.015	0.0139111
815.093	0.0137526
815.171	0.0136552
815.249	0.0137429
815.328	0.0139890
815.406	0.0138944
815.484	0.0138081
815.562	0.0139258
815.640	0.0139183
815.718	0.0138967
815.796	0.0138307
815.874	0.0137828
815.953	0.0138684
816.031	0.0138238
816.109	0.0138908
816.187	0.0139388
816.265	0.0139194
816.343	0.0138476
816.421	0.0139468
816.499	0.0138229
816.578	0.0138691
816.656	0.0139102
816.734	0.0138383
816.812	0.0138988
816.890	0.0138367
816.968	0.0138741
817.046	0.0139021
817.124	0.0139491
817.203	0.0139577
817.281	0.0139648
817.359	0.0139014
817.437	0.0140658
817.515	0.0138490
817.593	0.0139465
817.671	0.0139664
817.749	0.0138728
817.828	0.0140816
817.906	0.0140767
817.984	0.0139561
818.062	0.0139605
818.140	0.0140508
818.218	0.0138995
818.296	0.0138911
818.374	0.0139254
818.453	0.0137393
818.531	0.0138589
818.609	0.0139829
818.687	0.0140441
818.765	0.0138551
818.843	0.0138635
818.921	0.0139551
818.999	0.0137612
819.078	0.0138433
819.156	0.0139101
819.234	0.0138227
819.312	0.0136902
819.390	0.0138562
819.468	0.0138570
819.546	0.0138256
819.624	0.0137290
819.703	0.0138705
819.781	0.0137119
819.859	0.0137826
819.937	0.0139725
820.015	0.0137192
820.093	0.0140047
820.171	0.0139329
820.249	0.0137459
820.328	0.0137496
820.406	0.0137817
820.484	0.0137788
820.562	0.0139902
820.640	0.0137830
820.718	0.0137493
820.796	0.0138750
820.874	0.0137114
820.953	0.0140534
821.031	0.0137949
821.109	0.0138943
821.187	0.0140036
821.265	0.0139725
821.343	0.0140271
821.421	0.0138329
821.499	0.0139248
821.578	0.0140020
821.656	0.0139754
821.734	0.0140230
821.812	0.0138670
821.890	0.0139436
821.968	0.0139257
822.046	0.0139102
822.124	0.0139050
822.203	0.0139475
822.281	0.0140077
822.359	0.0138325
822.437	0.0140145
822.515	0.0139067
822.593	0.0139587
822.671	0.0139278
822.749	0.0139093
822.828	0.0140567
822.906	0.0138065
822.984	0.0137848
823.062	0.0138942
823.140	0.0139188
823.218	0.0138768
823.296	0.0139642
823.374	0.0139850
823.453	0.0138402
823.531	0.0138889
823.609	0.0139900
823.687	0.0140670
823.765	0.0138373
823.843	0.0137691
823.921	0.0139279
823.999	0.0140160
824.078	0.0140531
824.156	0.0138587
824.234	0.0138955
824.312	0.0140384
824.390	0.0139341
824.468	0.0139639
824.546	0.0139825
824.624	0.0139265
824.703	0.0139631
824.781	0.0139220
824.859	0.0140198
824.937	0.0138603
825.015	0.0138727
825.093	0.0140086
825.171	0.0140034
825.249	0.0138139
825.328	0.0137610
825.406	0.0137984
825.484	0.0137691
825.562	0.0137723
825.640	0.0139015
825.718	0.0138357
825.796	0.0137443
825.874	0.0137348
825.953	0.0138023
826.031	0.0139009
826.109	0.0138688
826.187	0.0139047
826.265	0.0139580
826.343	0.0139442
826.421	0.0139143
826.499	0.0139781
826.578	0.0139915
826.656	0.0139501
826.734	0.0139916
826.812	0.0140631
826.890	0.0139354
826.968	0.0138190
827.046	0.0138375
827.124	0.0138499
827.203	0.0138895
827.281	0.0137962
827.359	0.0138094
827.437	0.0138346
827.515	0.0137703
827.593	0.0138323
827.671	0.0139413
827.749	0.0140205
827.828	0.0138834
827.906	0.0139098
827.984	0.0139458
828.062	0.0140333
828.140	0.0140804
828.218	0.0139147
828.296	0.0140591
828.374	0.0140675
828.453	0.0141021
828.531	0.0140151
828.609	0.0140355
828.687	0.0140022
828.765	0.0140272
828.843	0.0139793
828.921	0.0140646
828.999	0.0141041
829.078	0.0141085
829.156	0.0140535
829.234	0.0140974
829.312	0.0140188
829.390	0.0137453
829.468	0.0140244
829.546	0.0140102
829.624	0.0141366
829.703	0.0139287
829.781	0.0140309
829.859	0.0139946
829.937	0.0139632
830.015	0.0140678
830.093	0.0139681
830.171	0.0138568
830.249	0.0140487
830.328	0.0138907
830.406	0.0138603
830.484	0.0138932
830.562	0.0139304
830.640	0.0138950
830.718	0.0138699
830.796	0.0138882
830.874	0.0139922
830.953	0.0138451
831.031	0.0138645
831.109	0.0138615
831.187	0.0137944
831.265	0.0137865
831.343	0.0138277
831.421	0.0138184
831.499	0.0139426
831.578	0.0140292
831.656	0.0138828
831.734	0.0138423
831.812	0.0138650
831.890	0.0138998
831.968	0.0139994
832.046	0.0138821
832.124	0.0138708
832.203	0.0139810
832.281	0.0139772
832.359	0.0138311
832.437	0.0137875
832.515	0.0138666
832.593	0.0139846
832.671	0.0141124
832.749	0.0139350
832.828	0.0137997
832.906	0.0140066
832.984	0.0139766
833.062	0.0139615
833.140	0.0139305
833.218	0.0139870
833.296	0.0139304
833.374	0.0139657
833.453	0.0139082
833.531	0.0140039
833.609	0.0140108
833.687	0.0138778
833.765	0.0139381
833.843	0.0137582
833.921	0.0139207
833.999	0.0139614
834.078	0.0138702
834.156	0.0138168
834.234	0.0139546
834.312	0.0138800
834.390	0.0140326
834.468	0.0139558
834.546	0.0139482
834.624	0.0139471
834.703	0.0139550
834.781	0.0139327
834.859	0.0137041
834.937	0.0138560
835.015	0.0139836
835.093	0.0139303
835.171	0.0140206
835.249	0.0140465
835.328	0.0140041
835.406	0.0139460
835.484	0.0139235
835.562	0.0140147
835.640	0.0137411
835.718	0.0137984
835.796	0.0139098
835.874	0.0139434
835.953	0.0137408
836.031	0.0137968
836.109	0.0138220
836.187	0.0137501
836.265	0.0138618
836.343	0.0138160
836.421	0.0137849
836.499	0.0137497
836.578	0.0138274
836.656	0.0138046
836.734	0.0136947
836.812	0.0137381
836.890	0.0137923
836.968	0.0137298
837.046	0.0137817
837.124	0.0138046
837.203	0.0138385
837.281	0.0137359
837.359	0.0136962
837.437	0.0138874
837.515	0.0138674
837.593	0.0139684
837.671	0.0138942
837.749	0.0138155
837.828	0.0140223
837.906	0.0139329
837.984	0.0140002
838.062	0.0138443
838.140	0.0138641
838.218	0.0139474
838.296	0.0139342
838.374	0.0140085
838.453	0.0139362
838.531	0.0138488
838.609	0.0139225
838.687	0.0140819
838.765	0.0137840
838.843	0.0137811
838.921	0.0138817
838.999	0.0137831
839.078	0.0138667
839.156	0.0137448
839.234	0.0138517
839.312	0.0138700
839.390	0.0138940
839.468	0.0138697
839.546	0.0137780
839.624	0.0138794
839.703	0.0140285
839.781	0.0139356
839.859	0.0138302
839.937	0.0139774
840.015	0.0138884
840.093	0.0138225
840.171	0.0139926
840.249	0.0138213
840.328	0.0138248
840.406	0.0137550
840.484	0.0138503
840.562	0.0136917
840.640	0.0138290
840.718	0.0138463
840.796	0.0138199
840.874	0.0139155
840.953	0.0138130
841.031	0.0137741
841.109	0.0138451
841.187	0.0137946
841.265	0.0139469
841.343	0.0139141
841.421	0.0137904
841.499	0.0138019
841.578	0.0139070
841.656	0.0138730
841.734	0.0138982
841.812	0.0139466
841.890	0.0139777
841.968	0.0137859
842.046	0.0137093
842.124	0.0138133
842.203	0.0139641
842.281	0.0140381
842.359	0.0139063
842.437	0.0137515
842.515	0.0138960
842.593	0.0140135
842.671	0.0138283
842.749	0.0137811
842.828	0.0138528
842.906	0.0139589
842.984	0.0138859
843.062	0.0139491
843.140	0.0138248
843.218	0.0140292
843.296	0.0138551
843.374	0.0139103
843.453	0.0138719
843.531	0.0139183
843.609	0.0140458
843.687	0.0139921
843.765	0.0139260
843.843	0.0139554
843.921	0.0139614
843.999	0.0138790
844.078	0.0138052
844.156	0.0139026
844.234	0.0137262
844.312	0.0138007
844.390	0.0140564
844.468	0.0138484
844.546	0.0138362
844.624	0.0138947
844.703	0.0138380
844.781	0.0138374
844.859	0.0137293
844.937	0.0138475
845.015	0.0137798
845.093	0.0138635
845.171	0.0138638
845.249	0.0139249
845.328	0.0138898
845.406	0.0137721
845.484	0.0139619
845.562	0.0139032
845.640	0.0139212
845.718	0.0138413
845.796	0.0138145
845.874	0.0138460
845.953	0.0138439
846.031	0.0139144
846.109	0.0139342
846.187	0.0138603
846.265	0.0139858
846.343	0.0139481
846.421	0.0137612
846.499	0.0140334
846.578	0.0138911
846.656	0.0139691
846.734	0.0140479
846.812	0.0140046
846.890	0.0138333
846.968	0.0137998
847.046	0.0139172
847.124	0.0140331
847.203	0.0139291
847.281	0.0139001
847.359	0.0138904
847.437	0.0139003
847.515	0.0138348
847.593	0.0139098
847.671	0.0140450
847.749	0.0140163
847.828	0.0138873
847.906	0.0138154
847.984	0.0138999
848.062	0.0139336
848.140	0.0138771
848.218	0.0139812
848.296	0.0139211
848.374	0.0139313
848.453	0.0139389
848.531	0.0139516
848.609	0.0140117
848.687	0.0140599
848.765	0.0139607
848.843	0.0139566
848.921	0.0141230
848.999	0.0140236
849.078	0.0138638
849.156	0.0139735
849.234	0.0140356
849.312	0.0139348
849.390	0.0139724
849.468	0.0139127
849.546	0.0138754
849.624	0.0139718
849.703	0.0140430
849.781	0.0138188
849.859	0.0137939
849.937	0.0138616
850.015	0.0139427
850.093	0.0137780
850.171	0.0136584
850.249	0.0137582
850.328	0.0138345
850.406	0.0138035
850.484	0.0139474
850.562	0.0138927
850.640	0.0139302
850.718	0.0139077
850.796	0.0138895
850.874	0.0138618
850.953	0.0139484
851.031	0.0139169
851.109	0.0139671
851.187	0.0139002
851.265	0.0140560
851.343	0.0139029
851.421	0.0139223
851.499	0.0140791
851.578	0.0138807
851.656	0.0138977
851.734	0.0140393
851.812	0.0139481
851.890	0.0138876
851.968	0.0139148
852.046	0.0139333
852.124	0.0140042
852.203	0.0139781
852.281	0.0140650
852.359	0.0139672
852.437	0.0140157
852.515	0.0138750
852.593	0.0138869
852.671	0.0140928
852.749	0.0139134
852.828	0.0138761
852.906	0.0138824
852.984	0.0139715
853.062	0.0140665
853.140	0.0138863
853.218	0.0138794
853.296	0.0138115
853.374	0.0140189
853.453	0.0138976
853.531	0.0136921
853.609	0.0138872
853.687	0.0140219
853.765	0.0137787
853.843	0.0137823
853.921	0.0138188
853.999	0.0139677
854.078	0.0140106
854.156	0.0139581
854.234	0.0138490
854.312	0.0137366
854.390	0.0139185
854.468	0.0139613
854.546	0.0137889
854.624	0.0137724
854.703	0.0138903
854.781	0.0140055
854.859	0.0139513
854.937	0.0139216
855.015	0.0138614
855.093	0.0139558
855.171	0.0139402
855.249	0.0138929
855.328	0.0138455
855.406	0.0138439
855.484	0.0138974
855.562	0.0136653
855.640	0.0138580
855.718	0.0137923
855.796	0.0138533
855.874	0.0138772
855.953	0.0138061
856.031	0.0136755
856.109	0.0137571
856.187	0.0138495
856.265	0.0138401
856.343	0.0136725
856.421	0.0137778
856.499	0.0138162
856.578	0.0139152
856.656	0.0138378
856.734	0.0139074
856.812	0.0139882
856.890	0.0138990
856.968	0.0138631
857.046	0.0139548
857.124	0.0138857
857.203	0.0138895
857.281	0.0138045
857.359	0.0138452
857.437	0.0139950
857.515	0.0139131
857.593	0.0138933
857.671	0.0138604
857.749	0.0138780
857.828	0.0138094
857.906	0.0138832
857.984	0.0138044
858.062	0.0138428
858.140	0.0138383
858.218	0.0139148
858.296	0.0138246
858.374	0.0137366
858.453	0.0138448
858.531	0.0137434
858.609	0.0138416
858.687	0.0138452
858.765	0.0138447
858.843	0.0139068
858.921	0.0137124
858.999	0.0137558
859.078	0.0138435
859.156	0.0138548
859.234	0.0136810
859.312	0.0139452
859.390	0.0138414
859.468	0.0138198
859.546	0.0138739
859.624	0.0139529
859.703	0.0139465
859.781	0.0139305
859.859	0.0138516
859.937	0.0139215
860.015	0.0139743
860.093	0.0139675
860.171	0.0139963
860.249	0.0139156
860.328	0.0139255
860.406	0.0138689
860.484	0.0138306
860.562	0.0139446
860.640	0.0138528
860.718	0.0137000
860.796	0.0138708
860.874	0.0138574
860.953	0.0139448
861.031	0.0137774
861.109	0.0137907
861.187	0.0137926
861.265	0.0138000
861.343	0.0138679
861.421	0.0139082
861.499	0.0139069
861.578	0.0137742
861.656	0.0138963
861.734	0.0139223
861.812	0.0138558
861.890	0.0138070
861.968	0.0138135
862.046	0.0138140
862.124	0.0139201
862.203	0.0139108
862.281	0.0138943
862.359	0.0137904
862.437	0.0139482
862.515	0.0139589
862.593	0.0138635
862.671	0.0140245
862.749	0.0139816
862.828	0.0139240
862.906	0.0139472
862.984	0.0140893
863.062	0.0138463
863.140	0.0139724
863.218	0.0139947
863.296	0.0140475
863.374	0.0139912
863.453	0.0140005
863.531	0.0138705
863.609	0.0138933
863.687	0.0139945
863.765	0.0138861
863.843	0.0139304
863.921	0.0138607
863.999	0.0139583
864.078	0.0137287
864.156	0.0137878
864.234	0.0139280
864.312	0.0138683
864.390	0.0137846
864.468	0.0137972
864.546	0.0137227
864.624	0.0139457
864.703	0.0137446
864.781	0.0138254
864.859	0.0138290
864.937	0.0138225
865.015	0.0138223
865.093	0.0138879
865.171	0.0139417
865.249	0.0139296
865.328	0.0139331
865.406	0.0138390
865.484	0.0138795
865.562	0.0138617
865.640	0.0139757
865.718	0.0138670
865.796	0.0139304
865.874	0.0138936
865.953	0.0139272
866.031	0.0139281
866.109	0.0137306
866.187	0.0139722
866.265	0.0139156
866.343	0.0138332
866.421	0.0138123
866.499	0.0138767
866.578	0.0138030
866.656	0.0138157
866.734	0.0137792
866.812	0.0138578
866.890	0.0138702
866.968	0.0137730
867.046	0.0139030
867.124	0.0139239
867.203	0.0138487
867.281	0.0139872
867.359	0.0138599
867.437	0.0139191
867.515	0.0139639
867.593	0.0137801
867.671	0.0140543
867.749	0.0138390
867.828	0.0139176
867.906	0.0138625
867.984	0.0137477
868.062	0.0139153
868.140	0.0138010
868.218	0.0136468
868.296	0.0138075
868.374	0.0137988
868.453	0.0137210
868.531	0.0138561
868.609	0.0138179
868.687	0.0138387
868.765	0.0137231
868.843	0.0136814
868.921	0.0137316
868.999	0.0138060
869.078	0.0137821
869.156	0.0137000
869.234	0.0138325
869.312	0.0138593
869.390	0.0137564
869.468	0.0137126
869.546	0.0137256
869.624	0.0138397
869.703	0.0138377
869.781	0.0137771
869.859	0.0139202
869.937	0.0139642
870.015	0.0138803
870.093	0.0139828
870.171	0.0139986
870.249	0.0139606
870.328	0.0140278
870.406	0.0136964
870.484	0.0137307
870.562	0.0139111
870.640	0.0140289
870.718	0.0138132
870.796	0.0137572
870.874	0.0138930
870.953	0.0138972
871.031	0.0137720
871.109	0.0138693
871.187	0.0139183
871.265	0.0140723
871.343	0.0137737
871.421	0.0138809
871.499	0.0139273
871.578	0.0139298
871.656	0.0138573
871.734	0.0140435
871.812	0.0139240
871.890	0.0139233
871.968	0.0139829
872.046	0.0138065
872.124	0.0138918
872.203	0.0141016
872.281	0.0140336
872.359	0.0138668
872.437	0.0139455
872.515	0.0138885
872.593	0.0138253
872.671	0.0139195
872.749	0.0137010
872.828	0.0137772
872.906	0.0138326
872.984	0.0137313
873.062	0.0136875
873.140	0.0136836
873.218	0.0138245
873.296	0.0136136
873.374	0.0136501
873.453	0.0139429
873.531	0.0138906
873.609	0.0137545
873.687	0.0137399
873.765	0.0137556
873.843	0.0138958
873.921	0.0138981
873.999	0.0139236
874.078	0.0139487
874.156	0.0138244
874.234	0.0139251
874.312	0.0138456
874.390	0.0137329
874.468	0.0138299
874.546	0.0139384
874.624	0.0138399
874.703	0.0139478
874.781	0.0138898
874.859	0.0137617
874.937	0.0139246
875.015	0.0138077
875.093	0.0139359
875.171	0.0138650
875.249	0.0137621
875.328	0.0137710
875.406	0.0137427
875.484	0.0138859
875.562	0.0139489
875.640	0.0139471
875.718	0.0138228
875.796	0.0139375
875.874	0.0138556
875.953	0.0138139
876.031	0.0139981
876.109	0.0138076
876.187	0.0138937
876.265	0.0140439
876.343	0.0139023
876.421	0.0138860
876.499	0.0139811
876.578	0.0141146
876.656	0.0140035
876.734	0.0139992
876.812	0.0139299
876.890	0.0139771
876.968	0.0139758
877.046	0.0138589
877.124	0.0139198
877.203	0.0138922
877.281	0.0138404
877.359	0.0137856
877.437	0.0138468
877.515	0.0138288
877.593	0.0138782
877.671	0.0137208
877.749	0.0137377
877.828	0.0136971
877.906	0.0137820
877.984	0.0137205
878.062	0.0138391
878.140	0.0136906
878.218	0.0137067
878.296	0.0137147
878.374	0.0138184
878.453	0.0137213
878.531	0.0136370
878.609	0.0136725
878.687	0.0137542
878.765	0.0137772
878.843	0.0137024
878.921	0.0137383
878.999	0.0137576
879.078	0.0137286
879.156	0.0137618
879.234	0.0138721
879.312	0.0138181
879.390	0.0138136
879.468	0.0138464
879.546	0.0137106
879.624	0.0137427
879.703	0.0137989
879.781	0.0138271
879.859	0.0137589
879.937	0.0139058
880.015	0.0140815
880.093	0.0137723
880.171	0.0137700
880.249	0.0137663
880.328	0.0137925
880.406	0.0138766
880.484	0.0140409
880.562	0.0138225
880.640	0.0139346
880.718	0.0139648
880.796	0.0138418
880.874	0.0137379
880.953	0.0139924
881.031	0.0137713
881.109	0.0138499
881.187	0.0137933
881.265	0.0138279
881.343	0.0136816
881.421	0.0138663
881.499	0.0138828
881.578	0.0138245
881.656	0.0139528
881.734	0.0138622
881.812	0.0139764
881.890	0.0138476
881.968	0.0138962
882.046	0.0138670
882.124	0.0139205
882.203	0.0137840
882.281	0.0139110
882.359	0.0136263
882.437	0.0137172
882.515	0.0139314
882.593	0.0138674
882.671	0.0137048
882.749	0.0137563
882.828	0.0137460
882.906	0.0138169
882.984	0.0137801
883.062	0.0136119
883.140	0.0137408
883.218	0.0136596
883.296	0.0137223
883.374	0.0137421
883.453	0.0137091
883.531	0.0137468
883.609	0.0136666
883.687	0.0136423
883.765	0.0139006
883.843	0.0138253
883.921	0.0136937
883.999	0.0138103
884.078	0.0137571
884.156	0.0136423
884.234	0.0137877
884.312	0.0138766
884.390	0.0137664
884.468	0.0137207
884.546	0.0138397
884.624	0.0138025
884.703	0.0137424
884.781	0.0138477
884.859	0.0137598
884.937	0.0137849
885.015	0.0138344
885.093	0.0138306
885.171	0.0139233
885.249	0.0138559
885.328	0.0138217
885.406	0.0138885
885.484	0.0138615
885.562	0.0139985
885.640	0.0138204
885.718	0.0139885
885.796	0.0139889
885.874	0.0139301
885.953	0.0140433
886.031	0.0140375
886.109	0.0138848
886.187	0.0139643
886.265	0.0140442
886.343	0.0138908
886.421	0.0139157
886.499	0.0138961
886.578	0.0138882
886.656	0.0138792
886.734	0.0136835
886.812	0.0137130
886.890	0.0137479
886.968	0.0138055
887.046	0.0138760
887.124	0.0138181
887.203	0.0139149
887.281	0.0138605
887.359	0.0138316
887.437	0.0139211
887.515	0.0138990
887.593	0.0140821
887.671	0.0140581
887.749	0.0140079
887.828	0.0141423
887.906	0.0140546
887.984	0.0139499
888.062	0.0140064
888.140	0.0139687
888.218	0.0139460
888.296	0.0139899
888.374	0.0139388
888.453	0.0138732
888.531	0.0139039
888.609	0.0140163
888.687	0.0138663
888.765	0.0138347
888.843	0.0138524
888.921	0.0137126
888.999	0.0136170
889.078	0.0137120
889.156	0.0137595
889.234	0.0135001
889.312	0.0136848
889.390	0.0136568
889.468	0.0136720
889.546	0.0137030
889.624	0.0138437
889.703	0.0138721
889.781	0.0138634
889.859	0.0139259
889.937	0.0138879
890.015	0.0138687
890.093	0.0140759
890.171	0.0139864
890.249	0.0138915
890.328	0.0138499
890.406	0.0139596
890.484	0.0139385
890.562	0.0139285
890.640	0.0139822
890.718	0.0140486
890.796	0.0140039
890.874	0.0138811
890.953	0.0140695
891.031	0.0140829
891.109	0.0139513
891.187	0.0139320
891.265	0.0140373
891.343	0.0140173
891.421	0.0139703
891.499	0.0140192
891.578	0.0139870
891.656	0.0139548
891.734	0.0140105
891.812	0.0138772
891.890	0.0137844
891.968	0.0137788
892.046	0.0138992
892.124	0.0138676
892.203	0.0137356
892.281	0.0138322
892.359	0.0138522
892.437	0.0139240
892.515	0.0136379
892.593	0.0139269
892.671	0.0137943
892.749	0.0137137
892.828	0.0139759
892.906	0.0140401
892.984	0.0138493
893.062	0.0140475
893.140	0.0139693
893.218	0.0139977
893.296	0.0139081
893.374	0.0140144
893.453	0.0140144
893.531	0.0140350
893.609	0.0139079
893.687	0.0139142
893.765	0.0139029
893.843	0.0137108
893.921	0.0136314
893.999	0.0136967
894.078	0.0138479
894.156	0.0136753
894.234	0.0136347
894.312	0.0135674
894.390	0.0137632
894.468	0.0137851
894.546	0.0137614
894.624	0.0138010
894.703	0.0136934
894.781	0.0137590
894.859	0.0137881
894.937	0.0139468
895.015	0.0138576
895.093	0.0139064
895.171	0.0137658
895.249	0.0139204
895.328	0.0139058
895.406	0.0139565
895.484	0.0140491
895.562	0.0138609
895.640	0.0138408
895.718	0.0137709
895.796	0.0138805
895.874	0.0140881
895.953	0.0139717
896.031	0.0138245
896.109	0.0139655
896.187	0.0138491
896.265	0.0138390
896.343	0.0139848
896.421	0.0138044
896.499	0.0139011
896.578	0.0139331
896.656	0.0138824
896.734	0.0137863
896.812	0.0138491
896.890	0.0138168
896.968	0.0138381
897.046	0.0138349
897.124	0.0138032
897.203	0.0138741
897.281	0.0138302
897.359	0.0138770
897.437	0.0137948
897.515	0.0137524
897.593	0.0136915
897.671	0.0138723
897.749	0.0138297
897.828	0.0138644
897.906	0.0139123
897.984	0.0137346
898.062	0.0139032
898.140	0.0139810
898.218	0.0139491
898.296	0.0139372
898.374	0.0139481
898.453	0.0138816
898.531	0.0140988
898.609	0.0139598
898.687	0.0139122
898.765	0.0138821
898.843	0.0139758
898.921	0.0139333
898.999	0.0139526
899.078	0.0138232
899.156	0.0138691
899.234	0.0138228
899.312	0.0138985
899.390	0.0138539
899.468	0.0138219
899.546	0.0139223
899.624	0.0138200
899.703	0.0138569
899.781	0.0136631
899.859	0.0138627
899.937	0.0138023
900.015	0.0136227
900.093	0.0138127
900.171	0.0138736
900.249	0.0138146
900.328	0.0137728
900.406	0.0138977
900.484	0.0139086
900.562	0.0139063
900.640	0.0139260
900.718	0.0139597
900.796	0.0138038
900.874	0.0140211
900.953	0.0138869
901.031	0.0138075
901.109	0.0140933
901.187	0.0139065
901.265	0.0138592
901.343	0.0139057
901.421	0.0138862
901.499	0.0137287
901.578	0.0138320
901.656	0.0139413
901.734	0.0137836
901.812	0.0138126
901.890	0.0136761
901.968	0.0138094
902.046	0.0137894
902.124	0.0138155
902.203	0.0138688
902.281	0.0138263
902.359	0.0137945
902.437	0.0137651
902.515	0.0138283
902.593	0.0139187
902.671	0.0138990
902.749	0.0138361
902.828	0.0138427
902.906	0.0139756
902.984	0.0138068
903.062	0.0139341
903.140	0.0139102
903.218	0.0138560
903.296	0.0139431
903.374	0.0139886
903.453	0.0140073
903.531	0.0139158
903.609	0.0138679
903.687	0.0139605
903.765	0.0138955
903.843	0.0138553
903.921	0.0138935
903.999	0.0139291
904.078	0.0139356
904.156	0.0139200
904.234	0.0138044
904.312	0.0139611
904.390	0.0138256
904.468	0.0138427
904.546	0.0138051
904.624	0.0138794
904.703	0.0137970
904.781	0.0139437
904.859	0.0137933
904.937	0.0138110
905.015	0.0137828
905.093	0.0138080
905.171	0.0137718
905.249	0.0138558
905.328	0.0139165
905.406	0.0138645
905.484	0.0138248
905.562	0.0139109
905.640	0.0137651
905.718	0.0139249
905.796	0.0139013
905.874	0.0138409
905.953	0.0138044
906.031	0.0138585
906.109	0.0139371
906.187	0.0137425
906.265	0.0139519
906.343	0.0138843
906.421	0.0140673
906.499	0.0138336
906.578	0.0138036
906.656	0.0139027
906.734	0.0138218
906.812	0.0137757
906.890	0.0136858
906.968	0.0138322
907.046	0.0139758
907.124	0.0137962
907.203	0.0140726
907.281	0.0137721
907.359	0.0138393
907.437	0.0139331
907.515	0.0139619
907.593	0.0140495
907.671	0.0139343
907.749	0.0139268
907.828	0.0141062
907.906	0.0140159
907.984	0.0139946
908.062	0.0141253
908.140	0.0140270
908.218	0.0139585
908.296	0.0140561
908.374	0.0139589
908.453	0.0140999
908.531	0.0139758
908.609	0.0141440
908.687	0.0139693
908.765	0.0139584
908.843	0.0139877
908.921	0.0138985
908.999	0.0139674
909.078	0.0139148
909.156	0.0139594
909.234	0.0139594
909.312	0.0139046
909.390	0.0139450
909.468	0.0140602
909.546	0.0138822
909.624	0.0139506
909.703	0.0137716
909.781	0.0138937
909.859	0.0138670
909.937	0.0138136
910.015	0.0138925
910.093	0.0139754
910.171	0.0140224
910.249	0.0138273
910.328	0.0138451
910.406	0.0139520
910.484	0.0139994
910.562	0.0137890
910.640	0.0137924
910.718	0.0139262
910.796	0.0137717
910.874	0.0138972
910.953	0.0138445
911.031	0.0138134
911.109	0.0137469
911.187	0.0138689
911.265	0.0139390
911.343	0.0140324
911.421	0.0139864
911.499	0.0139574
911.578	0.0139884
911.656	0.0140633
911.734	0.0140941
911.812	0.0140449
911.890	0.0140586
911.968	0.0139898
912.046	0.0141331
912.124	0.0140627
912.203	0.0139823
912.281	0.0138703
912.359	0.0139085
912.437	0.0139266
912.515	0.0138934
912.593	0.0138422
912.671	0.0139249
912.749	0.0139765
912.828	0.0139433
912.906	0.0139794
912.984	0.0139639
913.062	0.0140582
913.140	0.0140337
913.218	0.0141148
913.296	0.0140093
913.374	0.0140064
913.453	0.0139482
913.531	0.0140122
913.609	0.0140644
913.687	0.0141192
913.765	0.0140011
913.843	0.0139879
913.921	0.0140812
913.999	0.0139941
914.078	0.0140011
914.156	0.0139375
914.234	0.0138848
914.312	0.0138312
914.390	0.0138902
914.468	0.0137592
914.546	0.0138338
914.624	0.0137896
914.703	0.0136846
914.781	0.0138233
914.859	0.0137014
914.937	0.0137035
915.015	0.0137460
915.093	0.0137342
915.171	0.0137592
915.249	0.0138512
915.328	0.0138183
915.406	0.0138910
915.484	0.0138842
915.562	0.0138786
915.640	0.0137722
915.718	0.0137375
915.796	0.0139008
915.874	0.0138547
915.953	0.0137416
916.031	0.0139420
916.109	0.0139864
916.187	0.0139200
916.265	0.0138360
916.343	0.0139231
916.421	0.0139317
916.499	0.0139114
916.578	0.0140143
916.656	0.0139240
916.734	0.0138670
916.812	0.0140864
916.890	0.0140186
916.968	0.0138420
917.046	0.0137792
917.124	0.0138389
917.203	0.0138902
917.281	0.0137323
917.359	0.0138599
917.437	0.0138663
917.515	0.0138769
917.593	0.0138171
917.671	0.0138628
917.749	0.0138591
917.828	0.0140343
917.906	0.0139393
917.984	0.0139484
918.062	0.0139048
918.140	0.0140077
918.218	0.0139527
918.296	0.0139182
918.374	0.0139275
918.453	0.0140386
918.531	0.0139561
918.609	0.0139606
918.687	0.0140977
918.765	0.0138226
918.843	0.0139887
918.921	0.0140762
918.999	0.0140363
919.078	0.0138956
919.156	0.0140057
919.234	0.0138889
919.312	0.0137304
919.390	0.0139888
919.468	0.0138451
919.546	0.0138805
919.624	0.0140115
919.703	0.0139359
919.781	0.0137290
919.859	0.0138486
919.937	0.0136661
