05/06/2022	18:54:44	Ver.	4.1	UNKNOWN
Optical Delay	600.015094	Delta X		0.078125	Sweeps	1	Scan Rate	0/0
Coordinates	Axis 1	NaN	Axis 2	NaN	Axis 3	NaN	Axis 4	NaN	Axis 5	NaN	Axis 6	0.000000
TX Power	0.000000	RX Power	0.000000

600.015	0.0135018
600.093	0.0134987
600.171	0.0135511
600.249	0.0135545
600.328	0.0135246
600.406	0.0135691
600.484	0.0135634
600.562	0.0135483
600.640	0.0134889
600.718	0.0134454
600.796	0.0135522
600.874	0.0134640
600.953	0.0134830
601.031	0.0135042
601.109	0.0134874
601.187	0.0135147
601.265	0.0135005
601.343	0.0135438
601.421	0.0134814
601.499	0.0135170
601.578	0.0134504
601.656	0.0135152
601.734	0.0135874
601.812	0.0135828
601.890	0.0135511
601.968	0.0134946
602.046	0.0135074
602.124	0.0134947
602.203	0.0133260
602.281	0.0135600
602.359	0.0134828
602.437	0.0133736
602.515	0.0134507
602.593	0.0134018
602.671	0.0134848
602.749	0.0133388
602.828	0.0134708
602.906	0.0137158
602.984	0.0134738
603.062	0.0134648
603.140	0.0135043
603.218	0.0136295
603.296	0.0135672
603.374	0.0135588
603.453	0.0134563
603.531	0.0134463
603.609	0.0135903
603.687	0.0135728
603.765	0.0135213
603.843	0.0134383
603.921	0.0135733
603.999	0.0136018
604.078	0.0135945
604.156	0.0135511
604.234	0.0135130
604.312	0.0133608
604.390	0.0134117
604.468	0.0136356
604.546	0.0135545
604.624	0.0134202
604.703	0.0134312
604.781	0.0133817
604.859	0.0135846
604.937	0.0136340
605.015	0.0135960
605.093	0.0135233
605.171	0.0134335
605.249	0.0134027
605.328	0.0135029
605.406	0.0135621
605.484	0.0134592
605.562	0.0134790
605.640	0.0134936
605.718	0.0136202
605.796	0.0136190
605.874	0.0135216
605.953	0.0134206
606.031	0.0135229
606.109	0.0135568
606.187	0.0134704
606.265	0.0135170
606.343	0.0135368
606.421	0.0135629
606.499	0.0136093
606.578	0.0135799
606.656	0.0135732
606.734	0.0134974
606.812	0.0135304
606.890	0.0134592
606.968	0.0135863
607.046	0.0136925
607.124	0.0134892
607.203	0.0135667
607.281	0.0136387
607.359	0.0135648
607.437	0.0135260
607.515	0.0134527
607.593	0.0135885
607.671	0.0135423
607.749	0.0135822
607.828	0.0136066
607.906	0.0135430
607.984	0.0137413
608.062	0.0135421
608.140	0.0134162
608.218	0.0135543
608.296	0.0135474
608.374	0.0134882
608.453	0.0136565
608.531	0.0134573
608.609	0.0136646
608.687	0.0134798
608.765	0.0135906
608.843	0.0136676
608.921	0.0135710
608.999	0.0135786
609.078	0.0135482
609.156	0.0134732
609.234	0.0135644
609.312	0.0137193
609.390	0.0135457
609.468	0.0134592
609.546	0.0134449
609.624	0.0135502
609.703	0.0135603
609.781	0.0134399
609.859	0.0137047
609.937	0.0134089
610.015	0.0135143
610.093	0.0136215
610.171	0.0135128
610.249	0.0135492
610.328	0.0135145
610.406	0.0134187
610.484	0.0134686
610.562	0.0134879
610.640	0.0135748
610.718	0.0135613
610.796	0.0134805
610.874	0.0135437
610.953	0.0135316
611.031	0.0135242
611.109	0.0136151
611.187	0.0135855
611.265	0.0135284
611.343	0.0135751
611.421	0.0135592
611.499	0.0134759
611.578	0.0134939
611.656	0.0134805
611.734	0.0134724
611.812	0.0135606
611.890	0.0134453
611.968	0.0134403
612.046	0.0135893
612.124	0.0134763
612.203	0.0133988
612.281	0.0134659
612.359	0.0134668
612.437	0.0134819
612.515	0.0135107
612.593	0.0135535
612.671	0.0134481
612.749	0.0135371
612.828	0.0135582
612.906	0.0136137
612.984	0.0134407
613.062	0.0134646
613.140	0.0134469
613.218	0.0134789
613.296	0.0135131
613.374	0.0135380
613.453	0.0134270
613.531	0.0134830
613.609	0.0133892
613.687	0.0134203
613.765	0.0134019
613.843	0.0134522
613.921	0.0135402
613.999	0.0135235
614.078	0.0136449
614.156	0.0135598
614.234	0.0135080
614.312	0.0134434
614.390	0.0135190
614.468	0.0134766
614.546	0.0135029
614.624	0.0136425
614.703	0.0135007
614.781	0.0133717
614.859	0.0134839
614.937	0.0135235
615.015	0.0135090
615.093	0.0134790
615.171	0.0136903
615.249	0.0135203
615.328	0.0135088
615.406	0.0135429
615.484	0.0135545
615.562	0.0134534
615.640	0.0134959
615.718	0.0135766
615.796	0.0135443
615.874	0.0135428
615.953	0.0134769
616.031	0.0135040
616.109	0.0134716
616.187	0.0134846
616.265	0.0135245
616.343	0.0135793
616.421	0.0134554
616.499	0.0134711
616.578	0.0134678
616.656	0.0136861
616.734	0.0133415
616.812	0.0135981
616.890	0.0134839
616.968	0.0135522
617.046	0.0134894
617.124	0.0133780
617.203	0.0134843
617.281	0.0135743
617.359	0.0136288
617.437	0.0135429
617.515	0.0135665
617.593	0.0135783
617.671	0.0134227
617.749	0.0135191
617.828	0.0134142
617.906	0.0135826
617.984	0.0136383
618.062	0.0134443
618.140	0.0135089
618.218	0.0135059
618.296	0.0135359
618.374	0.0134689
618.453	0.0136041
618.531	0.0136122
618.609	0.0134638
618.687	0.0134719
618.765	0.0135622
618.843	0.0135154
618.921	0.0134632
618.999	0.0135593
619.078	0.0135812
619.156	0.0134620
619.234	0.0135397
619.312	0.0135088
619.390	0.0135520
619.468	0.0135441
619.546	0.0135942
619.624	0.0135911
619.703	0.0136287
619.781	0.0135054
619.859	0.0134045
619.937	0.0135207
620.015	0.0135126
620.093	0.0135228
620.171	0.0134942
620.249	0.0136135
620.328	0.0135830
620.406	0.0135712
620.484	0.0133881
620.562	0.0136156
620.640	0.0136520
620.718	0.0135616
620.796	0.0136427
620.874	0.0135613
620.953	0.0135261
621.031	0.0136313
621.109	0.0136048
621.187	0.0135315
621.265	0.0136102
621.343	0.0137373
621.421	0.0136294
621.499	0.0135311
621.578	0.0136711
621.656	0.0136217
621.734	0.0135479
621.812	0.0135013
621.890	0.0135729
621.968	0.0136140
622.046	0.0136486
622.124	0.0135764
622.203	0.0135660
622.281	0.0135813
622.359	0.0135812
622.437	0.0134740
622.515	0.0135130
622.593	0.0136549
622.671	0.0136226
622.749	0.0133818
622.828	0.0135449
622.906	0.0134809
622.984	0.0136684
623.062	0.0136122
623.140	0.0134892
623.218	0.0134039
623.296	0.0135165
623.374	0.0136382
623.453	0.0135757
623.531	0.0135893
623.609	0.0135426
623.687	0.0134686
623.765	0.0135247
623.843	0.0134431
623.921	0.0135286
623.999	0.0134659
624.078	0.0135740
624.156	0.0134814
624.234	0.0134362
624.312	0.0136084
624.390	0.0135605
624.468	0.0136040
624.546	0.0134925
624.624	0.0134589
624.703	0.0134515
624.781	0.0135558
624.859	0.0135793
624.937	0.0134791
625.015	0.0136685
625.093	0.0136415
625.171	0.0135220
625.249	0.0134791
625.328	0.0134651
625.406	0.0135002
625.484	0.0137038
625.562	0.0134923
625.640	0.0134223
625.718	0.0134299
625.796	0.0135039
625.874	0.0134106
625.953	0.0134967
626.031	0.0135137
626.109	0.0134454
626.187	0.0134811
626.265	0.0135294
626.343	0.0136108
626.421	0.0136050
626.499	0.0135354
626.578	0.0135215
626.656	0.0135803
626.734	0.0135297
626.812	0.0135175
626.890	0.0135600
626.968	0.0136111
627.046	0.0135739
627.124	0.0134548
627.203	0.0135216
627.281	0.0135022
627.359	0.0135896
627.437	0.0135894
627.515	0.0134945
627.593	0.0135996
627.671	0.0135796
627.749	0.0134688
627.828	0.0135422
627.906	0.0135710
627.984	0.0133770
628.062	0.0135593
628.140	0.0134275
628.218	0.0136070
628.296	0.0136252
628.374	0.0136410
628.453	0.0136209
628.531	0.0134854
628.609	0.0135584
628.687	0.0135052
628.765	0.0135459
628.843	0.0136040
628.921	0.0134421
628.999	0.0135046
629.078	0.0135722
629.156	0.0136108
629.234	0.0135291
629.312	0.0134763
629.390	0.0134782
629.468	0.0135030
629.546	0.0135973
629.624	0.0135329
629.703	0.0133695
629.781	0.0135365
629.859	0.0134940
629.937	0.0135965
630.015	0.0135631
630.093	0.0135563
630.171	0.0135357
630.249	0.0135457
630.328	0.0134855
630.406	0.0135020
630.484	0.0135173
630.562	0.0135609
630.640	0.0134928
630.718	0.0134203
630.796	0.0135110
630.874	0.0135827
630.953	0.0134801
631.031	0.0134805
631.109	0.0134975
631.187	0.0135981
631.265	0.0136089
631.343	0.0135088
631.421	0.0133856
631.499	0.0135768
631.578	0.0135455
631.656	0.0135275
631.734	0.0134725
631.812	0.0134204
631.890	0.0133901
631.968	0.0136783
632.046	0.0135493
632.124	0.0135886
632.203	0.0134949
632.281	0.0135777
632.359	0.0134444
632.437	0.0136314
632.515	0.0136243
632.593	0.0135771
632.671	0.0135837
632.749	0.0135430
632.828	0.0135121
632.906	0.0135432
632.984	0.0135303
633.062	0.0135670
633.140	0.0134961
633.218	0.0134917
633.296	0.0134813
633.374	0.0134980
633.453	0.0134428
633.531	0.0134294
633.609	0.0134602
633.687	0.0134569
633.765	0.0134803
633.843	0.0135975
633.921	0.0135893
633.999	0.0135484
634.078	0.0136607
634.156	0.0135056
634.234	0.0134538
634.312	0.0135862
634.390	0.0136026
634.468	0.0135584
634.546	0.0135757
634.624	0.0133577
634.703	0.0135350
634.781	0.0135793
634.859	0.0135687
634.937	0.0135377
635.015	0.0135444
635.093	0.0135619
635.171	0.0135443
635.249	0.0136487
635.328	0.0137168
635.406	0.0135404
635.484	0.0134937
635.562	0.0134059
635.640	0.0135580
635.718	0.0137032
635.796	0.0134715
635.874	0.0135108
635.953	0.0136712
636.031	0.0135960
636.109	0.0135925
636.187	0.0134311
636.265	0.0135254
636.343	0.0134995
636.421	0.0135325
636.499	0.0134971
636.578	0.0135207
636.656	0.0135354
636.734	0.0134320
636.812	0.0134895
636.890	0.0135641
636.968	0.0136306
637.046	0.0136896
637.124	0.0134935
637.203	0.0136588
637.281	0.0134303
637.359	0.0137289
637.437	0.0135506
637.515	0.0136063
637.593	0.0135777
637.671	0.0135387
637.749	0.0137460
637.828	0.0136054
637.906	0.0136762
637.984	0.0135260
638.062	0.0135426
638.140	0.0137269
638.218	0.0135737
638.296	0.0135780
638.374	0.0135220
638.453	0.0137427
638.531	0.0134460
638.609	0.0134599
638.687	0.0135271
638.765	0.0135482
638.843	0.0135608
638.921	0.0136749
638.999	0.0136884
639.078	0.0134805
639.156	0.0135750
639.234	0.0134843
639.312	0.0134611
639.390	0.0134690
639.468	0.0135684
639.546	0.0135644
639.624	0.0135480
639.703	0.0135707
639.781	0.0135634
639.859	0.0135576
639.937	0.0136522
640.015	0.0136003
640.093	0.0136010
640.171	0.0136681
640.249	0.0135822
640.328	0.0135880
640.406	0.0137109
640.484	0.0134901
640.562	0.0135255
640.640	0.0135452
640.718	0.0135537
640.796	0.0136172
640.874	0.0135577
640.953	0.0136462
641.031	0.0135858
641.109	0.0136512
641.187	0.0134580
641.265	0.0134254
641.343	0.0135561
641.421	0.0135375
641.499	0.0136822
641.578	0.0135390
641.656	0.0134738
641.734	0.0134859
641.812	0.0134808
641.890	0.0135001
641.968	0.0135379
642.046	0.0135696
642.124	0.0134646
642.203	0.0136367
642.281	0.0135760
642.359	0.0134661
642.437	0.0135861
642.515	0.0135635
642.593	0.0135655
642.671	0.0134600
642.749	0.0135703
642.828	0.0135766
642.906	0.0134496
642.984	0.0134731
643.062	0.0135013
643.140	0.0136383
643.218	0.0136642
643.296	0.0133997
643.374	0.0135201
643.453	0.0136928
643.531	0.0136974
643.609	0.0136318
643.687	0.0134952
643.765	0.0135085
643.843	0.0136672
643.921	0.0136211
643.999	0.0135318
644.078	0.0135080
644.156	0.0135612
644.234	0.0135184
644.312	0.0136335
644.390	0.0136829
644.468	0.0135286
644.546	0.0135201
644.624	0.0133907
644.703	0.0134590
644.781	0.0134808
644.859	0.0134644
644.937	0.0135786
645.015	0.0134508
645.093	0.0136205
645.171	0.0135039
645.249	0.0134409
645.328	0.0134772
645.406	0.0136674
645.484	0.0135526
645.562	0.0134242
645.640	0.0135002
645.718	0.0135091
645.796	0.0134601
645.874	0.0134866
645.953	0.0133746
646.031	0.0136089
646.109	0.0135398
646.187	0.0135352
646.265	0.0137077
646.343	0.0133717
646.421	0.0134867
646.499	0.0135655
646.578	0.0134131
646.656	0.0136943
646.734	0.0136562
646.812	0.0134634
646.890	0.0135741
646.968	0.0134107
647.046	0.0135870
647.124	0.0135445
647.203	0.0134957
647.281	0.0135854
647.359	0.0136691
647.437	0.0136176
647.515	0.0135195
647.593	0.0134097
647.671	0.0134221
647.749	0.0135060
647.828	0.0134933
647.906	0.0135368
647.984	0.0135883
648.062	0.0135019
648.140	0.0135786
648.218	0.0135049
648.296	0.0136259
648.374	0.0135448
648.453	0.0135738
648.531	0.0136388
648.609	0.0135072
648.687	0.0137054
648.765	0.0136145
648.843	0.0134412
648.921	0.0134599
648.999	0.0135123
649.078	0.0136156
649.156	0.0134810
649.234	0.0135304
649.312	0.0135302
649.390	0.0135218
649.468	0.0136035
649.546	0.0134097
649.624	0.0134885
649.703	0.0136156
649.781	0.0134872
649.859	0.0136856
649.937	0.0134148
650.015	0.0134859
650.093	0.0134731
650.171	0.0136010
650.249	0.0136251
650.328	0.0135027
650.406	0.0135052
650.484	0.0134803
650.562	0.0134383
650.640	0.0134785
650.718	0.0135757
650.796	0.0136478
650.874	0.0134459
650.953	0.0135725
651.031	0.0134251
651.109	0.0135199
651.187	0.0134106
651.265	0.0135735
651.343	0.0136471
651.421	0.0135431
651.499	0.0133316
651.578	0.0135732
651.656	0.0134255
651.734	0.0134176
651.812	0.0134705
651.890	0.0135783
651.968	0.0136967
652.046	0.0134658
652.124	0.0135787
652.203	0.0134621
652.281	0.0136075
652.359	0.0137218
652.437	0.0137090
652.515	0.0135983
652.593	0.0135468
652.671	0.0135379
652.749	0.0135928
652.828	0.0134590
652.906	0.0135223
652.984	0.0135204
653.062	0.0135699
653.140	0.0135669
653.218	0.0134685
653.296	0.0134198
653.374	0.0134016
653.453	0.0135602
653.531	0.0134843
653.609	0.0135525
653.687	0.0135929
653.765	0.0136088
653.843	0.0134410
653.921	0.0136891
653.999	0.0135843
654.078	0.0135207
654.156	0.0135779
654.234	0.0136346
654.312	0.0135546
654.390	0.0134819
654.468	0.0134702
654.546	0.0134413
654.624	0.0134538
654.703	0.0134493
654.781	0.0135630
654.859	0.0135717
654.937	0.0135140
655.015	0.0134259
655.093	0.0134791
655.171	0.0135491
655.249	0.0136401
655.328	0.0135760
655.406	0.0135541
655.484	0.0135176
655.562	0.0134764
655.640	0.0134696
655.718	0.0136300
655.796	0.0135017
655.874	0.0135202
655.953	0.0134489
656.031	0.0134346
656.109	0.0134374
656.187	0.0135801
656.265	0.0135313
656.343	0.0133894
656.421	0.0133768
656.499	0.0134561
656.578	0.0136312
656.656	0.0135085
656.734	0.0135579
656.812	0.0136113
656.890	0.0135632
656.968	0.0135208
657.046	0.0135631
657.124	0.0136480
657.203	0.0135542
657.281	0.0135757
657.359	0.0135487
657.437	0.0134943
657.515	0.0133335
657.593	0.0133613
657.671	0.0134542
657.749	0.0134465
657.828	0.0133308
657.906	0.0133601
657.984	0.0133961
658.062	0.0136216
658.140	0.0134795
658.218	0.0137067
658.296	0.0136008
658.374	0.0135590
658.453	0.0136903
658.531	0.0137238
658.609	0.0136295
658.687	0.0136575
658.765	0.0136454
658.843	0.0135951
658.921	0.0137102
658.999	0.0135571
659.078	0.0136010
659.156	0.0135587
659.234	0.0134023
659.312	0.0133971
659.390	0.0134536
659.468	0.0134077
659.546	0.0135395
659.624	0.0133118
659.703	0.0135085
659.781	0.0135717
659.859	0.0134398
659.937	0.0135669
660.015	0.0136288
660.093	0.0137857
660.171	0.0137271
660.249	0.0136974
660.328	0.0138103
660.406	0.0138313
660.484	0.0137110
660.562	0.0135837
660.640	0.0134775
660.718	0.0137062
660.796	0.0136150
660.874	0.0136428
660.953	0.0135077
661.031	0.0136237
661.109	0.0136013
661.187	0.0135596
661.265	0.0135978
661.343	0.0134721
661.421	0.0136694
661.499	0.0135360
661.578	0.0135387
661.656	0.0135403
661.734	0.0135423
661.812	0.0135712
661.890	0.0136182
661.968	0.0137541
662.046	0.0137389
662.124	0.0135932
662.203	0.0136699
662.281	0.0137058
662.359	0.0137598
662.437	0.0138068
662.515	0.0136810
662.593	0.0135390
662.671	0.0136456
662.749	0.0137532
662.828	0.0137238
662.906	0.0137331
662.984	0.0136251
663.062	0.0136696
663.140	0.0137119
663.218	0.0137312
663.296	0.0135395
663.374	0.0136012
663.453	0.0135351
663.531	0.0134523
663.609	0.0135188
663.687	0.0134620
663.765	0.0136084
663.843	0.0135668
663.921	0.0134972
663.999	0.0134802
664.078	0.0136636
664.156	0.0136231
664.234	0.0134659
664.312	0.0135941
664.390	0.0136446
664.468	0.0136272
664.546	0.0134843
664.624	0.0136132
664.703	0.0136674
664.781	0.0137447
664.859	0.0136935
664.937	0.0136903
665.015	0.0137038
665.093	0.0136961
665.171	0.0136748
665.249	0.0136223
665.328	0.0134313
665.406	0.0136891
665.484	0.0135904
665.562	0.0135078
665.640	0.0134696
665.718	0.0136726
665.796	0.0134830
665.874	0.0136038
665.953	0.0135361
666.031	0.0138085
666.109	0.0136552
666.187	0.0136127
666.265	0.0137169
666.343	0.0136683
666.421	0.0137057
666.499	0.0135377
666.578	0.0136211
666.656	0.0136948
666.734	0.0136900
666.812	0.0136385
666.890	0.0136723
666.968	0.0135058
667.046	0.0136517
667.124	0.0135337
667.203	0.0134953
667.281	0.0136010
667.359	0.0134728
667.437	0.0135643
667.515	0.0134374
667.593	0.0134193
667.671	0.0135725
667.749	0.0135633
667.828	0.0136237
667.906	0.0135264
667.984	0.0135173
668.062	0.0135584
668.140	0.0135976
668.218	0.0135747
668.296	0.0136899
668.374	0.0136978
668.453	0.0135932
668.531	0.0135429
668.609	0.0135371
668.687	0.0134678
668.765	0.0135634
668.843	0.0134882
668.921	0.0133707
668.999	0.0133723
669.078	0.0134995
669.156	0.0132801
669.234	0.0133681
669.312	0.0135642
669.390	0.0134894
669.468	0.0134927
669.546	0.0136031
669.624	0.0135841
669.703	0.0137029
669.781	0.0135175
669.859	0.0135326
669.937	0.0134450
670.015	0.0135214
670.093	0.0133644
670.171	0.0133157
670.249	0.0134353
670.328	0.0135279
670.406	0.0134788
670.484	0.0135478
670.562	0.0135542
670.640	0.0136819
670.718	0.0139794
670.796	0.0139700
670.874	0.0138187
670.953	0.0138904
671.031	0.0137885
671.109	0.0136914
671.187	0.0136519
671.265	0.0136421
671.343	0.0136117
671.421	0.0135094
671.499	0.0134706
671.578	0.0132348
671.656	0.0134462
671.734	0.0136277
671.812	0.0136941
671.890	0.0134879
671.968	0.0135020
672.046	0.0135484
672.124	0.0136575
672.203	0.0135071
672.281	0.0133567
672.359	0.0134399
672.437	0.0134552
672.515	0.0132291
672.593	0.0134021
672.671	0.0133562
672.749	0.0134807
672.828	0.0135335
672.906	0.0135458
672.984	0.0135368
673.062	0.0135282
673.140	0.0135318
673.218	0.0136189
673.296	0.0137932
673.374	0.0136040
673.453	0.0133971
673.531	0.0135812
673.609	0.0136466
673.687	0.0135325
673.765	0.0136629
673.843	0.0136698
673.921	0.0135895
673.999	0.0136604
674.078	0.0137795
674.156	0.0137582
674.234	0.0139224
674.312	0.0138853
674.390	0.0138507
674.468	0.0137972
674.546	0.0138628
674.624	0.0137007
674.703	0.0137785
674.781	0.0135906
674.859	0.0134240
674.937	0.0135253
675.015	0.0134459
675.093	0.0135010
675.171	0.0135067
675.249	0.0135942
675.328	0.0135988
675.406	0.0136470
675.484	0.0136503
675.562	0.0137034
675.640	0.0138519
675.718	0.0137665
675.796	0.0136758
675.874	0.0135624
675.953	0.0134612
676.031	0.0136224
676.109	0.0135300
676.187	0.0134362
676.265	0.0134856
676.343	0.0133398
676.421	0.0133730
676.499	0.0133733
676.578	0.0134536
676.656	0.0134479
676.734	0.0131841
676.812	0.0130833
676.890	0.0131000
676.968	0.0131057
677.046	0.0130726
677.124	0.0131316
677.203	0.0130816
677.281	0.0129717
677.359	0.0131297
677.437	0.0133185
677.515	0.0133361
677.593	0.0133633
677.671	0.0133929
677.749	0.0135537
677.828	0.0136363
677.906	0.0137799
677.984	0.0138737
678.062	0.0138149
678.140	0.0139646
678.218	0.0141223
678.296	0.0140157
678.374	0.0139378
678.453	0.0141293
678.531	0.0138815
678.609	0.0140902
678.687	0.0138546
678.765	0.0138303
678.843	0.0139658
678.921	0.0139054
678.999	0.0136908
679.078	0.0136632
679.156	0.0136534
679.234	0.0136342
679.312	0.0134747
679.390	0.0135563
679.468	0.0134628
679.546	0.0133179
679.624	0.0132346
679.703	0.0132158
679.781	0.0131374
679.859	0.0131351
679.937	0.0132027
680.015	0.0132822
680.093	0.0132729
680.171	0.0133249
680.249	0.0133179
680.328	0.0134144
680.406	0.0133922
680.484	0.0135278
680.562	0.0134589
680.640	0.0134899
680.718	0.0135536
680.796	0.0134980
680.874	0.0134694
680.953	0.0133733
681.031	0.0133488
681.109	0.0135068
681.187	0.0133690
681.265	0.0134730
681.343	0.0134682
681.421	0.0134950
681.499	0.0134200
681.578	0.0135466
681.656	0.0134451
681.734	0.0136134
681.812	0.0136042
681.890	0.0135110
681.968	0.0135631
682.046	0.0135097
682.124	0.0133967
682.203	0.0133773
682.281	0.0134879
682.359	0.0133541
682.437	0.0134692
682.515	0.0136050
682.593	0.0135227
682.671	0.0135698
682.749	0.0135892
682.828	0.0136435
682.906	0.0137229
682.984	0.0138178
683.062	0.0138734
683.140	0.0140358
683.218	0.0138966
683.296	0.0139030
683.374	0.0138871
683.453	0.0139463
683.531	0.0140054
683.609	0.0139320
683.687	0.0137720
683.765	0.0137582
683.843	0.0136817
683.921	0.0137858
683.999	0.0136686
684.078	0.0134922
684.156	0.0135627
684.234	0.0134993
684.312	0.0134393
684.390	0.0135053
684.468	0.0134255
684.546	0.0133450
684.624	0.0135812
684.703	0.0135450
684.781	0.0136808
684.859	0.0137642
684.937	0.0136915
685.015	0.0136610
685.093	0.0138063
685.171	0.0137955
685.249	0.0137431
685.328	0.0137854
685.406	0.0139129
685.484	0.0137984
685.562	0.0136525
685.640	0.0136335
685.718	0.0136315
685.796	0.0134799
685.874	0.0135906
685.953	0.0135093
686.031	0.0134805
686.109	0.0132447
686.187	0.0132653
686.265	0.0133310
686.343	0.0132325
686.421	0.0132599
686.499	0.0132693
686.578	0.0131364
686.656	0.0134496
686.734	0.0133434
686.812	0.0134669
686.890	0.0133685
686.968	0.0133418
687.046	0.0134444
687.124	0.0134688
687.203	0.0133310
687.281	0.0134126
687.359	0.0132366
687.437	0.0135236
687.515	0.0134557
687.593	0.0135208
687.671	0.0135625
687.749	0.0135585
687.828	0.0135271
687.906	0.0136430
687.984	0.0136479
688.062	0.0137416
688.140	0.0138129
688.218	0.0137564
688.296	0.0139095
688.374	0.0139735
688.453	0.0139735
688.531	0.0139890
688.609	0.0140616
688.687	0.0140422
688.765	0.0138702
688.843	0.0139576
688.921	0.0138515
688.999	0.0138296
689.078	0.0138815
689.156	0.0135776
689.234	0.0137100
689.312	0.0138142
689.390	0.0136383
689.468	0.0136001
689.546	0.0136446
689.624	0.0137469
689.703	0.0137570
689.781	0.0136391
689.859	0.0136134
689.937	0.0136967
690.015	0.0136593
690.093	0.0135888
690.171	0.0137986
690.249	0.0138086
690.328	0.0136616
690.406	0.0136847
690.484	0.0136858
690.562	0.0135027
690.640	0.0135258
690.718	0.0135410
690.796	0.0134410
690.874	0.0133302
690.953	0.0132908
691.031	0.0132710
691.109	0.0131757
691.187	0.0131203
691.265	0.0132247
691.343	0.0131169
691.421	0.0130510
691.499	0.0132198
691.578	0.0131980
691.656	0.0130861
691.734	0.0131755
691.812	0.0131786
691.890	0.0132487
691.968	0.0132417
692.046	0.0133701
692.124	0.0133282
692.203	0.0132703
692.281	0.0132471
692.359	0.0132589
692.437	0.0133737
692.515	0.0132674
692.593	0.0133492
692.671	0.0133856
692.749	0.0134005
692.828	0.0133383
692.906	0.0133014
692.984	0.0134747
693.062	0.0134680
693.140	0.0134713
693.218	0.0135030
693.296	0.0135528
693.374	0.0138089
693.453	0.0136581
693.531	0.0137022
693.609	0.0137501
693.687	0.0138028
693.765	0.0139996
693.843	0.0140705
693.921	0.0139575
693.999	0.0142124
694.078	0.0143978
694.156	0.0143798
694.234	0.0144242
694.312	0.0145406
694.390	0.0145255
694.468	0.0145003
694.546	0.0144812
694.624	0.0143129
694.703	0.0142918
694.781	0.0141898
694.859	0.0141474
694.937	0.0139715
695.015	0.0138037
695.093	0.0136893
695.171	0.0136411
695.249	0.0133808
695.328	0.0132565
695.406	0.0131071
695.484	0.0131236
695.562	0.0130541
695.640	0.0130120
695.718	0.0128840
695.796	0.0129560
695.874	0.0130463
695.953	0.0130109
696.031	0.0130657
696.109	0.0129927
696.187	0.0130972
696.265	0.0132645
696.343	0.0130721
696.421	0.0133080
696.499	0.0131517
696.578	0.0131927
696.656	0.0132062
696.734	0.0134104
696.812	0.0132492
696.890	0.0131850
696.968	0.0132450
697.046	0.0131739
697.124	0.0131812
697.203	0.0132801
697.281	0.0132030
697.359	0.0131698
697.437	0.0132271
697.515	0.0132641
697.593	0.0133534
697.671	0.0132725
697.749	0.0133797
697.828	0.0135273
697.906	0.0134955
697.984	0.0134220
698.062	0.0136050
698.140	0.0136585
698.218	0.0136441
698.296	0.0138347
698.374	0.0136164
698.453	0.0136897
698.531	0.0136679
698.609	0.0136252
698.687	0.0137704
698.765	0.0136101
698.843	0.0136426
698.921	0.0136068
698.999	0.0135355
699.078	0.0135308
699.156	0.0135529
699.234	0.0136562
699.312	0.0136996
699.390	0.0138237
699.468	0.0141029
699.546	0.0141801
699.624	0.0142815
699.703	0.0143919
699.781	0.0144572
699.859	0.0144329
699.937	0.0145525
700.015	0.0146603
700.093	0.0145867
700.171	0.0145142
700.249	0.0143548
700.328	0.0142147
700.406	0.0140089
700.484	0.0139867
700.562	0.0137801
700.640	0.0136587
700.718	0.0134394
700.796	0.0132716
700.874	0.0131785
700.953	0.0131385
701.031	0.0129823
701.109	0.0129879
701.187	0.0129057
701.265	0.0127406
701.343	0.0127724
701.421	0.0128372
701.499	0.0127644
701.578	0.0127217
701.656	0.0129272
701.734	0.0130054
701.812	0.0129124
701.890	0.0128955
701.968	0.0127995
702.046	0.0127369
702.124	0.0129518
702.203	0.0129588
702.281	0.0130667
702.359	0.0127824
702.437	0.0128523
702.515	0.0130849
702.593	0.0131101
702.671	0.0131113
702.749	0.0130844
702.828	0.0132319
702.906	0.0135117
702.984	0.0135970
703.062	0.0136444
703.140	0.0138714
703.218	0.0137987
703.296	0.0136057
703.374	0.0136879
703.453	0.0138467
703.531	0.0137196
703.609	0.0138290
703.687	0.0136613
703.765	0.0136958
703.843	0.0137844
703.921	0.0137753
703.999	0.0136485
704.078	0.0137231
704.156	0.0136464
704.234	0.0134725
704.312	0.0134998
704.390	0.0135958
704.468	0.0135525
704.546	0.0136930
704.624	0.0137740
704.703	0.0137847
704.781	0.0139623
704.859	0.0139767
704.937	0.0142335
705.015	0.0144521
705.093	0.0145131
705.171	0.0146384
705.249	0.0146420
705.328	0.0148743
705.406	0.0150175
705.484	0.0148363
705.562	0.0148463
705.640	0.0146536
705.718	0.0145506
705.796	0.0143964
705.874	0.0140752
705.953	0.0138357
706.031	0.0137541
706.109	0.0133978
706.187	0.0131867
706.265	0.0130275
706.343	0.0128698
706.421	0.0128175
706.499	0.0125050
706.578	0.0126731
706.656	0.0126464
706.734	0.0126522
706.812	0.0124843
706.890	0.0124796
706.968	0.0124039
707.046	0.0127110
707.124	0.0126365
707.203	0.0127993
707.281	0.0128306
707.359	0.0128740
707.437	0.0129721
707.515	0.0129836
707.593	0.0128651
707.671	0.0128708
707.749	0.0129568
707.828	0.0131372
707.906	0.0131616
707.984	0.0131965
708.062	0.0132488
708.140	0.0132343
708.218	0.0135991
708.296	0.0136835
708.374	0.0137299
708.453	0.0139292
708.531	0.0140187
708.609	0.0142172
708.687	0.0142267
708.765	0.0141507
708.843	0.0141747
708.921	0.0142411
708.999	0.0142125
709.078	0.0141609
709.156	0.0140900
709.234	0.0140449
709.312	0.0140083
709.390	0.0138398
709.468	0.0139418
709.546	0.0137347
709.624	0.0135564
709.703	0.0135322
709.781	0.0136890
709.859	0.0134959
709.937	0.0136233
710.015	0.0135401
710.093	0.0133813
710.171	0.0136863
710.249	0.0135446
710.328	0.0136919
710.406	0.0138718
710.484	0.0140858
710.562	0.0141267
710.640	0.0143281
710.718	0.0145397
710.796	0.0144627
710.874	0.0144338
710.953	0.0145515
711.031	0.0145702
711.109	0.0145438
711.187	0.0144380
711.265	0.0143150
711.343	0.0141321
711.421	0.0139416
711.499	0.0138289
711.578	0.0137781
711.656	0.0133689
711.734	0.0131911
711.812	0.0133274
711.890	0.0130866
711.968	0.0130627
712.046	0.0129811
712.124	0.0128346
712.203	0.0128068
712.281	0.0125772
712.359	0.0127036
712.437	0.0127972
712.515	0.0127584
712.593	0.0126553
712.671	0.0127047
712.749	0.0127910
712.828	0.0128096
712.906	0.0127975
712.984	0.0128802
713.062	0.0129732
713.140	0.0128322
713.218	0.0129700
713.296	0.0130715
713.374	0.0132291
713.453	0.0132125
713.531	0.0133097
713.609	0.0133967
713.687	0.0136606
713.765	0.0136697
713.843	0.0136199
713.921	0.0138698
713.999	0.0139126
714.078	0.0140383
714.156	0.0141534
714.234	0.0141068
714.312	0.0138054
714.390	0.0140092
714.468	0.0139742
714.546	0.0137689
714.624	0.0138337
714.703	0.0138133
714.781	0.0138148
714.859	0.0136684
714.937	0.0137485
715.015	0.0137338
715.093	0.0135026
715.171	0.0135027
715.249	0.0135882
715.328	0.0136810
715.406	0.0134004
715.484	0.0136713
715.562	0.0137238
715.640	0.0136784
715.718	0.0137338
715.796	0.0138725
715.874	0.0138818
715.953	0.0141083
716.031	0.0139201
716.109	0.0141788
716.187	0.0143575
716.265	0.0143413
716.343	0.0143598
716.421	0.0144324
716.499	0.0145937
716.578	0.0144861
716.656	0.0144594
716.734	0.0142825
716.812	0.0142133
716.890	0.0140768
716.968	0.0139130
717.046	0.0137830
717.124	0.0136399
717.203	0.0134786
717.281	0.0132691
717.359	0.0130095
717.437	0.0128596
717.515	0.0128271
717.593	0.0128608
717.671	0.0127279
717.749	0.0127327
717.828	0.0125735
717.906	0.0125076
717.984	0.0126060
718.062	0.0125822
718.140	0.0125741
718.218	0.0125134
718.296	0.0126745
718.374	0.0126981
718.453	0.0128104
718.531	0.0129246
718.609	0.0129758
718.687	0.0131269
718.765	0.0132901
718.843	0.0133089
718.921	0.0133078
718.999	0.0133922
719.078	0.0134666
719.156	0.0136169
719.234	0.0137734
719.312	0.0136727
719.390	0.0137633
719.468	0.0137847
719.546	0.0139028
719.624	0.0141289
719.703	0.0142073
719.781	0.0139691
719.859	0.0139970
719.937	0.0140919
720.015	0.0140262
720.093	0.0139994
720.171	0.0139875
720.249	0.0139015
720.328	0.0138740
720.406	0.0138112
720.484	0.0137991
720.562	0.0136730
720.640	0.0136069
720.718	0.0136465
720.796	0.0134712
720.874	0.0135307
720.953	0.0134801
721.031	0.0132458
721.109	0.0134382
721.187	0.0133547
721.265	0.0133137
721.343	0.0133721
721.421	0.0135638
721.499	0.0136600
721.578	0.0136877
721.656	0.0138273
721.734	0.0140318
721.812	0.0141315
721.890	0.0142841
721.968	0.0143277
722.046	0.0144775
722.124	0.0144687
722.203	0.0144877
722.281	0.0142825
722.359	0.0142436
722.437	0.0140966
722.515	0.0140430
722.593	0.0138389
722.671	0.0136431
722.749	0.0134346
722.828	0.0134685
722.906	0.0133103
722.984	0.0131560
723.062	0.0130257
723.140	0.0128898
723.218	0.0130212
723.296	0.0128178
723.374	0.0126726
723.453	0.0128454
723.531	0.0128938
723.609	0.0128248
723.687	0.0128364
723.765	0.0127460
723.843	0.0127847
723.921	0.0128152
723.999	0.0128374
724.078	0.0129784
724.156	0.0129331
724.234	0.0129654
724.312	0.0129761
724.390	0.0133125
724.468	0.0132587
724.546	0.0133553
724.624	0.0135629
724.703	0.0134633
724.781	0.0134815
724.859	0.0137536
724.937	0.0138966
725.015	0.0138731
725.093	0.0138716
725.171	0.0138935
725.249	0.0140439
725.328	0.0141430
725.406	0.0141634
725.484	0.0140040
725.562	0.0140327
725.640	0.0139667
725.718	0.0139474
725.796	0.0138741
725.874	0.0138090
725.953	0.0136518
726.031	0.0137188
726.109	0.0135791
726.187	0.0135031
726.265	0.0137019
726.343	0.0135261
726.421	0.0135026
726.499	0.0133923
726.578	0.0134753
726.656	0.0134600
726.734	0.0134007
726.812	0.0135683
726.890	0.0136060
726.968	0.0136463
727.046	0.0137476
727.124	0.0139151
727.203	0.0140018
727.281	0.0141042
727.359	0.0142149
727.437	0.0142650
727.515	0.0142924
727.593	0.0143604
727.671	0.0144482
727.749	0.0144279
727.828	0.0143979
727.906	0.0142400
727.984	0.0141653
728.062	0.0140314
728.140	0.0138536
728.218	0.0137790
728.296	0.0134634
728.374	0.0132932
728.453	0.0131441
728.531	0.0131199
728.609	0.0130052
728.687	0.0129376
728.765	0.0127961
728.843	0.0127098
728.921	0.0125932
728.999	0.0126888
729.078	0.0126018
729.156	0.0125845
729.234	0.0126382
729.312	0.0128702
729.390	0.0128283
729.468	0.0129898
729.546	0.0130043
729.624	0.0130142
729.703	0.0132147
729.781	0.0131557
729.859	0.0132526
729.937	0.0133475
730.015	0.0133124
730.093	0.0134695
730.171	0.0136340
730.249	0.0136691
730.328	0.0137074
730.406	0.0137320
730.484	0.0139962
730.562	0.0140096
730.640	0.0139256
730.718	0.0140605
730.796	0.0139802
730.874	0.0139388
730.953	0.0139531
731.031	0.0138453
731.109	0.0138824
731.187	0.0139496
731.265	0.0137795
731.343	0.0138187
731.421	0.0138908
731.499	0.0137391
731.578	0.0136359
731.656	0.0137395
731.734	0.0136546
731.812	0.0138590
731.890	0.0137030
731.968	0.0135684
732.046	0.0134566
732.124	0.0135508
732.203	0.0136411
732.281	0.0135751
732.359	0.0135563
732.437	0.0134891
732.515	0.0134676
732.593	0.0135871
732.671	0.0135301
732.749	0.0135833
732.828	0.0136218
732.906	0.0136736
732.984	0.0138221
733.062	0.0137813
733.140	0.0137909
733.218	0.0139497
733.296	0.0140789
733.374	0.0139230
733.453	0.0139928
733.531	0.0139105
733.609	0.0138845
733.687	0.0138114
733.765	0.0137439
733.843	0.0136161
733.921	0.0135988
733.999	0.0133896
734.078	0.0134390
734.156	0.0132403
734.234	0.0131939
734.312	0.0131248
734.390	0.0130323
734.468	0.0129543
734.546	0.0130742
734.624	0.0130584
734.703	0.0131090
734.781	0.0130261
734.859	0.0131281
734.937	0.0131743
735.015	0.0132700
735.093	0.0132447
735.171	0.0131565
735.249	0.0132435
735.328	0.0132468
735.406	0.0133074
735.484	0.0131054
735.562	0.0133181
735.640	0.0133635
735.718	0.0132822
735.796	0.0134847
735.874	0.0135091
735.953	0.0135889
736.031	0.0136236
736.109	0.0135082
736.187	0.0137417
736.265	0.0138846
736.343	0.0138132
736.421	0.0138609
736.499	0.0139811
736.578	0.0138911
736.656	0.0139072
736.734	0.0139529
736.812	0.0138060
736.890	0.0138923
736.968	0.0138581
737.046	0.0137862
737.124	0.0138071
737.203	0.0137173
737.281	0.0137111
737.359	0.0136252
737.437	0.0136323
737.515	0.0135189
737.593	0.0135251
737.671	0.0135265
737.749	0.0134170
737.828	0.0134486
737.906	0.0134470
737.984	0.0134354
738.062	0.0135161
738.140	0.0135252
738.218	0.0135217
738.296	0.0135224
738.374	0.0135892
738.453	0.0137280
738.531	0.0137734
738.609	0.0136089
738.687	0.0137784
738.765	0.0139132
738.843	0.0137926
738.921	0.0137566
738.999	0.0139116
739.078	0.0139194
739.156	0.0139295
739.234	0.0138692
739.312	0.0138172
739.390	0.0137069
739.468	0.0137211
739.546	0.0135535
739.624	0.0134613
739.703	0.0132822
739.781	0.0132439
739.859	0.0131290
739.937	0.0132294
740.015	0.0130739
740.093	0.0130356
740.171	0.0129749
740.249	0.0131746
740.328	0.0131981
740.406	0.0132024
740.484	0.0132251
740.562	0.0132610
740.640	0.0132707
740.718	0.0132977
740.796	0.0133885
740.874	0.0133630
740.953	0.0135113
741.031	0.0134411
741.109	0.0133286
741.187	0.0134055
741.265	0.0134630
741.343	0.0134335
741.421	0.0136150
741.499	0.0135748
741.578	0.0135591
741.656	0.0137142
741.734	0.0136246
741.812	0.0138560
741.890	0.0139944
741.968	0.0140102
742.046	0.0139606
742.124	0.0142099
742.203	0.0140070
742.281	0.0140346
742.359	0.0141978
742.437	0.0139339
742.515	0.0138742
742.593	0.0139764
742.671	0.0136781
742.749	0.0138558
742.828	0.0138120
742.906	0.0136275
742.984	0.0135236
743.062	0.0134531
743.140	0.0134826
743.218	0.0134966
743.296	0.0132904
743.374	0.0134193
743.453	0.0132527
743.531	0.0133500
743.609	0.0132450
743.687	0.0134062
743.765	0.0134574
743.843	0.0133807
743.921	0.0135043
743.999	0.0134695
744.078	0.0137303
744.156	0.0136253
744.234	0.0136753
744.312	0.0136697
744.390	0.0137762
744.468	0.0138991
744.546	0.0137437
744.624	0.0137732
744.703	0.0138474
744.781	0.0137841
744.859	0.0138367
744.937	0.0136423
745.015	0.0137104
745.093	0.0137170
745.171	0.0135843
745.249	0.0135329
745.328	0.0135361
745.406	0.0134753
745.484	0.0135169
745.562	0.0135741
745.640	0.0133717
745.718	0.0133123
745.796	0.0133483
745.874	0.0134352
745.953	0.0132603
746.031	0.0133433
746.109	0.0133786
746.187	0.0133008
746.265	0.0134490
746.343	0.0132910
746.421	0.0133015
746.499	0.0134382
746.578	0.0133385
746.656	0.0134305
746.734	0.0135414
746.812	0.0135094
746.890	0.0137094
746.968	0.0135595
747.046	0.0136082
747.124	0.0136649
747.203	0.0136272
747.281	0.0136036
747.359	0.0136532
747.437	0.0137898
747.515	0.0138062
747.593	0.0139291
747.671	0.0137412
747.749	0.0137572
747.828	0.0136913
747.906	0.0136590
747.984	0.0138445
748.062	0.0136221
748.140	0.0135870
748.218	0.0136176
748.296	0.0134473
748.374	0.0135449
748.453	0.0135036
748.531	0.0134727
748.609	0.0134859
748.687	0.0134081
748.765	0.0134626
748.843	0.0133669
748.921	0.0134771
748.999	0.0134850
749.078	0.0134716
749.156	0.0134541
749.234	0.0136313
749.312	0.0134708
749.390	0.0134683
749.468	0.0135669
749.546	0.0135282
749.624	0.0134565
749.703	0.0136884
749.781	0.0137509
749.859	0.0135719
749.937	0.0136910
750.015	0.0137533
750.093	0.0138223
750.171	0.0138445
750.249	0.0137579
750.328	0.0138493
750.406	0.0137325
750.484	0.0138324
750.562	0.0137666
750.640	0.0136388
750.718	0.0137056
750.796	0.0136832
750.874	0.0137268
750.953	0.0135740
751.031	0.0135691
751.109	0.0134141
751.187	0.0134944
751.265	0.0134589
751.343	0.0133901
751.421	0.0135000
751.499	0.0134589
751.578	0.0134007
751.656	0.0133888
751.734	0.0134724
751.812	0.0136530
751.890	0.0134727
751.968	0.0133570
752.046	0.0133560
752.124	0.0136070
752.203	0.0135656
752.281	0.0133767
752.359	0.0135007
752.437	0.0135985
752.515	0.0135254
752.593	0.0133784
752.671	0.0134814
752.749	0.0135094
752.828	0.0135774
752.906	0.0135098
752.984	0.0136263
753.062	0.0136465
753.140	0.0136286
753.218	0.0136576
753.296	0.0137383
753.374	0.0137652
753.453	0.0136702
753.531	0.0136419
753.609	0.0136784
753.687	0.0135897
753.765	0.0136326
753.843	0.0136131
753.921	0.0135620
753.999	0.0134883
754.078	0.0134753
754.156	0.0136362
754.234	0.0134363
754.312	0.0133715
754.390	0.0135266
754.468	0.0134643
754.546	0.0134499
754.624	0.0133956
754.703	0.0135609
754.781	0.0134840
754.859	0.0135681
754.937	0.0136403
755.015	0.0136303
755.093	0.0135871
755.171	0.0135631
755.249	0.0137143
755.328	0.0137027
755.406	0.0136191
755.484	0.0136079
755.562	0.0136120
755.640	0.0136457
755.718	0.0135497
755.796	0.0137119
755.874	0.0135955
755.953	0.0136109
756.031	0.0136115
756.109	0.0136681
756.187	0.0136004
756.265	0.0136628
756.343	0.0135723
756.421	0.0136687
756.499	0.0134666
756.578	0.0134344
756.656	0.0136517
756.734	0.0134854
756.812	0.0135685
756.890	0.0136584
756.968	0.0135129
757.046	0.0135806
757.124	0.0136335
757.203	0.0134164
757.281	0.0135069
757.359	0.0134306
757.437	0.0135551
757.515	0.0135732
757.593	0.0135553
757.671	0.0135561
757.749	0.0135349
757.828	0.0134802
757.906	0.0136284
757.984	0.0137461
758.062	0.0136450
758.140	0.0135566
758.218	0.0134605
758.296	0.0134608
758.374	0.0136163
758.453	0.0134167
758.531	0.0135730
758.609	0.0134801
758.687	0.0135929
758.765	0.0136285
758.843	0.0134986
758.921	0.0135483
758.999	0.0134615
759.078	0.0134019
759.156	0.0134123
759.234	0.0136228
759.312	0.0136581
759.390	0.0136975
759.468	0.0136243
759.546	0.0137094
759.624	0.0136367
759.703	0.0136187
759.781	0.0135686
759.859	0.0136204
759.937	0.0135826
760.015	0.0135821
760.093	0.0136773
760.171	0.0134105
760.249	0.0136149
760.328	0.0137553
760.406	0.0134727
760.484	0.0135513
760.562	0.0134574
760.640	0.0136416
760.718	0.0135409
760.796	0.0134628
760.874	0.0134960
760.953	0.0133115
761.031	0.0135471
761.109	0.0135696
761.187	0.0135236
761.265	0.0135854
761.343	0.0136752
761.421	0.0136136
761.499	0.0136792
761.578	0.0136870
761.656	0.0136926
761.734	0.0136344
761.812	0.0137274
761.890	0.0137202
761.968	0.0137930
762.046	0.0137276
762.124	0.0136411
762.203	0.0136131
762.281	0.0136042
762.359	0.0137001
762.437	0.0135622
762.515	0.0135894
762.593	0.0135168
762.671	0.0136283
762.749	0.0134443
762.828	0.0134837
762.906	0.0135365
762.984	0.0133132
763.062	0.0135246
763.140	0.0134608
763.218	0.0133862
763.296	0.0134025
763.374	0.0134588
763.453	0.0134692
763.531	0.0134863
763.609	0.0135859
763.687	0.0135007
763.765	0.0132758
763.843	0.0134823
763.921	0.0135252
763.999	0.0134673
764.078	0.0135150
764.156	0.0135336
764.234	0.0135933
764.312	0.0135535
764.390	0.0135165
764.468	0.0134410
764.546	0.0135784
764.624	0.0136661
764.703	0.0137136
764.781	0.0136852
764.859	0.0136228
764.937	0.0135339
765.015	0.0134679
765.093	0.0136219
765.171	0.0137418
765.249	0.0136680
765.328	0.0137679
765.406	0.0137442
765.484	0.0136444
765.562	0.0137686
765.640	0.0137589
765.718	0.0137228
765.796	0.0135732
765.874	0.0135995
765.953	0.0135191
766.031	0.0135594
766.109	0.0134455
766.187	0.0134370
766.265	0.0134867
766.343	0.0135468
766.421	0.0135249
766.499	0.0135701
766.578	0.0135582
766.656	0.0134744
766.734	0.0134673
766.812	0.0135316
766.890	0.0134528
766.968	0.0135193
767.046	0.0135815
767.124	0.0136789
767.203	0.0136197
767.281	0.0135872
767.359	0.0137100
767.437	0.0136335
767.515	0.0135859
767.593	0.0136488
767.671	0.0135664
767.749	0.0137576
767.828	0.0136815
767.906	0.0138315
767.984	0.0137362
768.062	0.0136922
768.140	0.0136951
768.218	0.0136431
768.296	0.0135227
768.374	0.0137058
768.453	0.0134570
768.531	0.0135414
768.609	0.0135667
768.687	0.0135439
768.765	0.0135669
768.843	0.0134715
768.921	0.0136000
768.999	0.0135157
769.078	0.0136229
769.156	0.0134835
769.234	0.0134039
769.312	0.0134718
769.390	0.0134323
769.468	0.0134694
769.546	0.0134406
769.624	0.0134889
769.703	0.0135963
769.781	0.0135065
769.859	0.0134685
769.937	0.0135494
770.015	0.0135062
770.093	0.0136221
770.171	0.0135970
770.249	0.0134991
770.328	0.0136349
770.406	0.0136824
770.484	0.0132511
770.562	0.0136166
770.640	0.0134780
770.718	0.0135680
770.796	0.0135518
770.874	0.0134431
770.953	0.0134817
771.031	0.0135519
771.109	0.0135294
771.187	0.0133805
771.265	0.0133382
771.343	0.0134892
771.421	0.0132933
771.499	0.0133906
771.578	0.0133161
771.656	0.0135132
771.734	0.0133167
771.812	0.0133069
771.890	0.0132732
771.968	0.0133987
772.046	0.0134389
772.124	0.0135752
772.203	0.0134216
772.281	0.0134958
772.359	0.0136406
772.437	0.0138426
772.515	0.0136909
772.593	0.0135526
772.671	0.0136079
772.749	0.0136499
772.828	0.0138373
772.906	0.0136664
772.984	0.0135925
773.062	0.0136616
773.140	0.0137128
773.218	0.0137302
773.296	0.0136682
773.374	0.0135085
773.453	0.0136991
773.531	0.0136479
773.609	0.0135059
773.687	0.0135516
773.765	0.0134863
773.843	0.0134055
773.921	0.0134227
773.999	0.0133422
774.078	0.0133269
774.156	0.0133711
774.234	0.0134469
774.312	0.0133258
774.390	0.0134319
774.468	0.0134494
774.546	0.0134653
774.624	0.0134216
774.703	0.0134323
774.781	0.0133064
774.859	0.0133501
774.937	0.0134093
775.015	0.0135231
775.093	0.0135788
775.171	0.0133717
775.249	0.0134814
775.328	0.0136587
775.406	0.0136453
775.484	0.0136752
775.562	0.0135999
775.640	0.0136160
775.718	0.0136768
775.796	0.0134980
775.874	0.0134692
775.953	0.0135143
776.031	0.0135794
776.109	0.0136016
776.187	0.0136330
776.265	0.0135226
776.343	0.0135157
776.421	0.0134860
776.499	0.0135423
776.578	0.0134509
776.656	0.0135091
776.734	0.0135546
776.812	0.0134895
776.890	0.0132983
776.968	0.0134038
777.046	0.0134142
777.124	0.0134636
777.203	0.0134354
777.281	0.0135056
777.359	0.0135385
777.437	0.0134367
777.515	0.0136223
777.593	0.0135878
777.671	0.0136914
777.749	0.0138496
777.828	0.0136583
777.906	0.0135889
777.984	0.0135503
778.062	0.0136324
778.140	0.0136908
778.218	0.0135790
778.296	0.0136140
778.374	0.0137148
778.453	0.0135555
778.531	0.0135643
778.609	0.0135178
778.687	0.0135211
778.765	0.0134219
778.843	0.0134716
778.921	0.0136913
778.999	0.0134036
779.078	0.0133881
779.156	0.0134911
779.234	0.0134089
779.312	0.0133232
779.390	0.0134963
779.468	0.0135511
779.546	0.0134089
779.624	0.0134413
779.703	0.0136140
779.781	0.0134614
779.859	0.0133776
779.937	0.0134358
780.015	0.0134608
780.093	0.0135047
780.171	0.0135133
780.249	0.0135497
780.328	0.0134806
780.406	0.0135892
780.484	0.0137095
780.562	0.0136623
780.640	0.0135957
780.718	0.0137534
780.796	0.0136420
780.874	0.0137981
780.953	0.0137045
781.031	0.0136398
781.109	0.0137912
781.187	0.0136154
781.265	0.0135969
781.343	0.0135033
781.421	0.0135638
781.499	0.0136033
781.578	0.0135605
781.656	0.0136104
781.734	0.0133762
781.812	0.0134388
781.890	0.0134303
781.968	0.0134167
782.046	0.0133903
782.124	0.0135239
782.203	0.0134869
782.281	0.0133405
782.359	0.0134325
782.437	0.0134162
782.515	0.0133064
782.593	0.0133020
782.671	0.0135033
782.749	0.0134873
782.828	0.0135215
782.906	0.0134516
782.984	0.0134618
783.062	0.0134573
783.140	0.0134438
783.218	0.0134981
783.296	0.0135747
783.374	0.0135242
783.453	0.0135410
783.531	0.0134019
783.609	0.0135461
783.687	0.0134815
783.765	0.0135809
783.843	0.0136467
783.921	0.0135495
783.999	0.0135422
784.078	0.0135242
784.156	0.0134133
784.234	0.0135785
784.312	0.0136024
784.390	0.0136080
784.468	0.0132727
784.546	0.0134144
784.624	0.0135150
784.703	0.0134500
784.781	0.0134150
784.859	0.0135406
784.937	0.0134865
785.015	0.0133932
785.093	0.0135046
785.171	0.0134859
785.249	0.0136018
785.328	0.0135628
785.406	0.0134137
785.484	0.0133905
785.562	0.0135082
785.640	0.0135541
785.718	0.0136263
785.796	0.0136022
785.874	0.0136285
785.953	0.0135703
786.031	0.0136949
786.109	0.0136479
786.187	0.0136444
786.265	0.0136983
786.343	0.0135339
786.421	0.0137135
786.499	0.0135400
786.578	0.0134651
786.656	0.0135698
786.734	0.0135699
786.812	0.0134496
786.890	0.0135487
786.968	0.0134100
787.046	0.0134103
787.124	0.0134110
787.203	0.0133993
787.281	0.0134512
787.359	0.0133465
787.437	0.0132491
787.515	0.0133813
787.593	0.0134414
787.671	0.0134377
787.749	0.0134267
787.828	0.0134819
787.906	0.0132950
787.984	0.0133736
788.062	0.0135066
788.140	0.0134284
788.218	0.0134254
788.296	0.0135476
788.374	0.0133849
788.453	0.0133924
788.531	0.0134084
788.609	0.0134323
788.687	0.0134991
788.765	0.0134874
788.843	0.0134497
788.921	0.0136137
788.999	0.0134638
789.078	0.0134325
789.156	0.0135064
789.234	0.0135074
789.312	0.0136091
789.390	0.0137103
789.468	0.0136053
789.546	0.0134703
789.624	0.0135760
789.703	0.0136365
789.781	0.0137181
789.859	0.0136089
789.937	0.0136406
790.015	0.0136011
790.093	0.0136922
790.171	0.0134967
790.249	0.0136073
790.328	0.0135188
790.406	0.0134875
790.484	0.0135344
790.562	0.0134582
790.640	0.0135035
790.718	0.0133868
790.796	0.0134391
790.874	0.0135298
790.953	0.0135143
791.031	0.0134846
791.109	0.0134050
791.187	0.0132922
791.265	0.0134885
791.343	0.0136021
791.421	0.0135956
791.499	0.0135186
791.578	0.0135463
791.656	0.0135247
791.734	0.0134904
791.812	0.0135338
791.890	0.0134437
791.968	0.0134647
792.046	0.0135107
792.124	0.0135387
792.203	0.0135631
792.281	0.0134641
792.359	0.0133920
792.437	0.0134300
792.515	0.0135255
792.593	0.0134565
792.671	0.0134289
792.749	0.0135009
792.828	0.0134560
792.906	0.0134882
792.984	0.0135847
793.062	0.0133596
793.140	0.0134089
793.218	0.0133768
793.296	0.0133205
793.374	0.0134573
793.453	0.0134182
793.531	0.0134046
793.609	0.0134498
793.687	0.0134056
793.765	0.0135223
793.843	0.0133898
793.921	0.0134394
793.999	0.0135358
794.078	0.0134624
794.156	0.0135896
794.234	0.0134719
794.312	0.0135757
794.390	0.0135573
794.468	0.0135364
794.546	0.0136657
794.624	0.0137160
794.703	0.0137120
794.781	0.0135418
794.859	0.0135474
794.937	0.0137488
795.015	0.0136776
795.093	0.0135617
795.171	0.0136196
795.249	0.0136608
795.328	0.0135297
795.406	0.0134792
795.484	0.0133599
795.562	0.0135247
795.640	0.0134991
795.718	0.0135796
795.796	0.0133453
795.874	0.0134875
795.953	0.0134783
796.031	0.0133922
796.109	0.0135454
796.187	0.0135042
796.265	0.0135123
796.343	0.0134140
796.421	0.0135671
796.499	0.0136549
796.578	0.0136122
796.656	0.0136028
796.734	0.0136002
796.812	0.0135570
796.890	0.0134813
796.968	0.0134966
797.046	0.0136802
797.124	0.0136137
797.203	0.0134990
797.281	0.0136361
797.359	0.0135821
797.437	0.0136224
797.515	0.0135634
797.593	0.0135382
797.671	0.0135690
797.749	0.0135600
797.828	0.0136204
797.906	0.0133850
797.984	0.0134361
798.062	0.0135178
798.140	0.0135126
798.218	0.0134729
798.296	0.0134225
798.374	0.0132626
798.453	0.0133486
798.531	0.0133541
798.609	0.0134347
798.687	0.0133325
798.765	0.0134533
798.843	0.0134576
798.921	0.0135944
798.999	0.0135422
799.078	0.0134100
799.156	0.0135233
799.234	0.0135186
799.312	0.0136599
799.390	0.0136584
799.468	0.0135870
799.546	0.0135686
799.624	0.0135931
799.703	0.0135554
799.781	0.0137711
799.859	0.0136410
799.937	0.0134801
800.015	0.0134777
800.093	0.0136565
800.171	0.0135696
800.249	0.0135497
800.328	0.0135181
800.406	0.0134198
800.484	0.0135040
800.562	0.0134883
800.640	0.0135889
800.718	0.0134674
800.796	0.0136084
800.874	0.0134970
800.953	0.0134698
801.031	0.0135740
801.109	0.0134004
801.187	0.0136000
801.265	0.0136330
801.343	0.0136739
801.421	0.0135760
801.499	0.0135165
801.578	0.0135957
801.656	0.0135674
801.734	0.0137970
801.812	0.0135125
801.890	0.0134319
801.968	0.0135030
802.046	0.0136368
802.124	0.0136012
802.203	0.0134863
802.281	0.0136044
802.359	0.0136186
802.437	0.0136323
802.515	0.0135965
802.593	0.0135338
802.671	0.0135680
802.749	0.0135604
802.828	0.0136492
802.906	0.0135923
802.984	0.0135828
803.062	0.0134000
803.140	0.0133890
803.218	0.0134312
803.296	0.0134360
803.374	0.0133999
803.453	0.0133063
803.531	0.0133926
803.609	0.0133359
803.687	0.0134444
803.765	0.0135065
803.843	0.0133947
803.921	0.0134464
803.999	0.0133985
804.078	0.0133701
804.156	0.0135120
804.234	0.0134783
804.312	0.0134831
804.390	0.0133980
804.468	0.0135178
804.546	0.0136507
804.624	0.0136787
804.703	0.0136263
804.781	0.0135746
804.859	0.0136831
804.937	0.0136813
805.015	0.0137011
805.093	0.0137228
805.171	0.0137241
805.249	0.0136617
805.328	0.0136815
805.406	0.0136083
805.484	0.0135791
805.562	0.0137144
805.640	0.0136473
805.718	0.0136716
805.796	0.0134947
805.874	0.0134264
805.953	0.0136547
806.031	0.0136768
806.109	0.0136054
806.187	0.0135428
806.265	0.0134640
806.343	0.0134957
806.421	0.0135770
806.499	0.0136913
806.578	0.0137309
806.656	0.0135969
806.734	0.0136521
806.812	0.0136060
806.890	0.0135092
806.968	0.0135796
807.046	0.0138044
807.124	0.0135870
807.203	0.0135473
807.281	0.0134946
807.359	0.0135210
807.437	0.0136055
807.515	0.0136167
807.593	0.0136291
807.671	0.0135001
807.749	0.0135546
807.828	0.0136176
807.906	0.0137062
807.984	0.0135974
808.062	0.0135133
808.140	0.0134341
808.218	0.0135175
808.296	0.0135889
808.374	0.0134770
808.453	0.0134612
808.531	0.0134987
808.609	0.0134515
808.687	0.0133801
808.765	0.0134123
808.843	0.0133961
808.921	0.0133968
808.999	0.0134229
809.078	0.0134483
809.156	0.0133430
809.234	0.0133628
809.312	0.0132912
809.390	0.0134608
809.468	0.0133216
809.546	0.0134423
809.624	0.0135046
809.703	0.0134934
809.781	0.0135653
809.859	0.0135439
809.937	0.0135320
810.015	0.0134589
810.093	0.0135483
810.171	0.0136976
810.249	0.0135033
810.328	0.0135414
810.406	0.0135433
810.484	0.0134855
810.562	0.0133125
810.640	0.0135520
810.718	0.0135825
810.796	0.0135288
810.874	0.0134880
810.953	0.0135329
811.031	0.0134782
811.109	0.0134249
811.187	0.0133905
811.265	0.0135499
811.343	0.0134375
811.421	0.0134541
811.499	0.0135414
811.578	0.0133649
811.656	0.0134518
811.734	0.0135101
811.812	0.0134119
811.890	0.0135751
811.968	0.0136367
812.046	0.0135547
812.124	0.0134850
812.203	0.0136324
812.281	0.0136272
812.359	0.0135894
812.437	0.0136562
812.515	0.0137253
812.593	0.0135826
812.671	0.0137491
812.749	0.0135565
812.828	0.0136388
812.906	0.0137656
812.984	0.0136264
813.062	0.0135612
813.140	0.0136215
813.218	0.0135862
813.296	0.0136140
813.374	0.0136002
813.453	0.0134967
813.531	0.0136111
813.609	0.0134352
813.687	0.0135892
813.765	0.0134229
813.843	0.0134474
813.921	0.0133299
813.999	0.0134696
814.078	0.0132967
814.156	0.0134393
814.234	0.0134218
814.312	0.0133136
814.390	0.0133193
814.468	0.0134158
814.546	0.0134831
814.624	0.0134379
814.703	0.0135078
814.781	0.0134079
814.859	0.0134519
814.937	0.0134256
815.015	0.0134233
815.093	0.0135428
815.171	0.0134844
815.249	0.0136309
815.328	0.0135126
815.406	0.0135181
815.484	0.0135529
815.562	0.0134885
815.640	0.0136387
815.718	0.0135049
815.796	0.0135249
815.874	0.0135900
815.953	0.0134815
816.031	0.0134478
816.109	0.0135958
816.187	0.0133862
816.265	0.0135102
816.343	0.0135967
816.421	0.0135220
816.499	0.0134088
816.578	0.0135651
816.656	0.0136132
816.734	0.0135658
816.812	0.0135727
816.890	0.0134801
816.968	0.0135303
817.046	0.0135379
817.124	0.0135551
817.203	0.0135976
817.281	0.0135211
817.359	0.0135896
817.437	0.0135477
817.515	0.0137166
817.593	0.0135454
817.671	0.0136863
817.749	0.0137275
817.828	0.0136704
817.906	0.0138657
817.984	0.0138743
818.062	0.0137093
818.140	0.0137589
818.218	0.0137640
818.296	0.0136589
818.374	0.0137342
818.453	0.0137276
818.531	0.0136119
818.609	0.0135488
818.687	0.0135545
818.765	0.0136015
818.843	0.0133898
818.921	0.0134553
818.999	0.0133993
819.078	0.0133947
819.156	0.0134029
819.234	0.0134068
819.312	0.0134359
819.390	0.0132849
819.468	0.0134682
819.546	0.0133206
819.624	0.0133846
819.703	0.0134230
819.781	0.0133853
819.859	0.0134620
819.937	0.0133717
820.015	0.0133611
820.093	0.0134372
820.171	0.0136036
820.249	0.0134717
820.328	0.0135407
820.406	0.0134997
820.484	0.0135071
820.562	0.0135417
820.640	0.0134343
820.718	0.0135867
820.796	0.0135452
820.874	0.0134675
820.953	0.0135770
821.031	0.0135461
821.109	0.0135934
821.187	0.0136161
821.265	0.0136716
821.343	0.0135039
821.421	0.0136151
821.499	0.0136281
821.578	0.0135500
821.656	0.0137018
821.734	0.0134790
821.812	0.0135919
821.890	0.0136382
821.968	0.0134566
822.046	0.0135126
822.124	0.0136678
822.203	0.0135025
822.281	0.0134582
822.359	0.0135378
822.437	0.0135223
822.515	0.0135803
822.593	0.0134708
822.671	0.0134557
822.749	0.0135759
822.828	0.0135356
822.906	0.0135800
822.984	0.0136153
823.062	0.0135946
823.140	0.0136647
823.218	0.0135394
823.296	0.0135258
823.374	0.0135420
823.453	0.0135595
823.531	0.0136777
823.609	0.0136626
823.687	0.0136714
823.765	0.0136475
823.843	0.0135941
823.921	0.0136404
823.999	0.0136292
824.078	0.0135995
824.156	0.0135511
824.234	0.0136012
824.312	0.0135966
824.390	0.0135094
824.468	0.0134239
824.546	0.0135497
824.624	0.0136095
824.703	0.0134237
824.781	0.0133794
824.859	0.0135925
824.937	0.0136398
825.015	0.0135041
825.093	0.0133134
825.171	0.0135230
825.249	0.0134161
825.328	0.0135049
825.406	0.0135439
825.484	0.0135174
825.562	0.0135746
825.640	0.0136030
825.718	0.0134417
825.796	0.0134879
825.874	0.0136452
825.953	0.0135555
826.031	0.0135730
826.109	0.0135664
826.187	0.0136974
826.265	0.0136109
826.343	0.0137396
826.421	0.0136201
826.499	0.0136906
826.578	0.0136579
826.656	0.0135222
826.734	0.0135562
826.812	0.0135968
826.890	0.0135500
826.968	0.0135557
827.046	0.0136147
827.124	0.0136092
827.203	0.0133625
827.281	0.0134637
827.359	0.0135479
827.437	0.0134418
827.515	0.0135893
827.593	0.0135247
827.671	0.0135091
827.749	0.0136108
827.828	0.0136073
827.906	0.0137038
827.984	0.0135719
828.062	0.0136543
828.140	0.0136269
828.218	0.0136476
828.296	0.0135883
828.374	0.0136054
828.453	0.0137547
828.531	0.0137349
828.609	0.0138243
828.687	0.0135819
828.765	0.0137711
828.843	0.0136243
828.921	0.0136519
828.999	0.0136840
829.078	0.0137337
829.156	0.0137114
829.234	0.0136123
829.312	0.0135702
829.390	0.0137575
829.468	0.0136137
829.546	0.0136528
829.624	0.0136620
829.703	0.0136416
829.781	0.0135588
829.859	0.0135556
829.937	0.0136090
830.015	0.0135993
830.093	0.0135860
830.171	0.0134890
830.249	0.0136705
830.328	0.0137341
830.406	0.0135619
830.484	0.0135014
830.562	0.0135403
830.640	0.0136177
830.718	0.0135760
830.796	0.0136094
830.874	0.0134876
830.953	0.0135763
831.031	0.0135443
831.109	0.0135264
831.187	0.0134203
831.265	0.0135378
831.343	0.0135651
831.421	0.0135188
831.499	0.0136801
831.578	0.0134492
831.656	0.0134879
831.734	0.0135934
831.812	0.0135940
831.890	0.0135165
831.968	0.0135508
832.046	0.0136819
832.124	0.0134669
832.203	0.0135117
832.281	0.0136455
832.359	0.0135908
832.437	0.0135904
832.515	0.0135089
832.593	0.0134462
832.671	0.0135393
832.749	0.0134551
832.828	0.0135259
832.906	0.0136290
832.984	0.0134710
833.062	0.0134525
833.140	0.0134376
833.218	0.0135239
833.296	0.0136684
833.374	0.0135331
833.453	0.0135670
833.531	0.0137301
833.609	0.0134174
833.687	0.0135390
833.765	0.0135275
833.843	0.0134556
833.921	0.0135750
833.999	0.0134756
834.078	0.0134492
834.156	0.0134511
834.234	0.0134905
834.312	0.0134830
834.390	0.0135110
834.468	0.0135074
834.546	0.0136400
834.624	0.0136465
834.703	0.0135677
834.781	0.0134473
834.859	0.0134848
834.937	0.0135620
835.015	0.0135949
835.093	0.0135184
835.171	0.0136078
835.249	0.0136134
835.328	0.0136459
835.406	0.0136472
835.484	0.0135713
835.562	0.0135431
835.640	0.0135092
835.718	0.0134899
835.796	0.0136018
835.874	0.0134688
835.953	0.0134904
836.031	0.0134501
836.109	0.0136086
836.187	0.0136292
836.265	0.0134694
836.343	0.0134023
836.421	0.0134581
836.499	0.0133635
836.578	0.0135535
836.656	0.0134978
836.734	0.0133994
836.812	0.0134016
836.890	0.0135262
836.968	0.0133994
837.046	0.0133682
837.124	0.0134322
837.203	0.0135083
837.281	0.0134729
837.359	0.0135925
837.437	0.0135799
837.515	0.0135747
837.593	0.0136245
837.671	0.0135526
837.749	0.0137061
837.828	0.0135674
837.906	0.0135378
837.984	0.0135567
838.062	0.0135623
838.140	0.0133248
838.218	0.0134634
838.296	0.0135862
838.374	0.0135480
838.453	0.0135301
838.531	0.0136359
838.609	0.0135718
838.687	0.0134541
838.765	0.0133701
838.843	0.0135674
838.921	0.0137060
838.999	0.0134654
839.078	0.0136417
839.156	0.0135151
839.234	0.0133127
839.312	0.0134128
839.390	0.0135484
839.468	0.0134717
839.546	0.0134592
839.624	0.0134834
839.703	0.0135382
839.781	0.0135706
839.859	0.0134493
839.937	0.0136504
840.015	0.0135403
840.093	0.0135414
840.171	0.0134471
840.249	0.0136444
840.328	0.0134275
840.406	0.0134986
840.484	0.0136792
840.562	0.0135808
840.640	0.0136771
840.718	0.0137298
840.796	0.0136024
840.874	0.0135813
840.953	0.0135873
841.031	0.0136202
841.109	0.0135268
841.187	0.0135192
841.265	0.0135423
841.343	0.0135101
841.421	0.0136869
841.499	0.0135453
841.578	0.0133815
841.656	0.0135396
841.734	0.0135139
841.812	0.0133438
841.890	0.0134447
841.968	0.0135714
842.046	0.0135015
842.124	0.0135081
842.203	0.0135909
842.281	0.0134759
842.359	0.0133833
842.437	0.0134672
842.515	0.0134999
842.593	0.0136150
842.671	0.0135015
842.749	0.0135999
842.828	0.0136668
842.906	0.0136802
842.984	0.0136087
843.062	0.0136081
843.140	0.0136216
843.218	0.0135611
843.296	0.0135999
843.374	0.0135368
843.453	0.0136894
843.531	0.0137231
843.609	0.0136121
843.687	0.0135612
843.765	0.0136639
843.843	0.0135523
843.921	0.0136114
843.999	0.0134212
844.078	0.0135756
844.156	0.0135738
844.234	0.0134976
844.312	0.0134820
844.390	0.0135759
844.468	0.0134826
844.546	0.0135951
844.624	0.0135544
844.703	0.0135390
844.781	0.0135641
844.859	0.0134757
844.937	0.0135906
845.015	0.0135036
845.093	0.0134121
845.171	0.0135551
845.249	0.0136066
845.328	0.0135413
845.406	0.0136139
845.484	0.0135126
845.562	0.0134996
845.640	0.0134831
845.718	0.0135148
845.796	0.0135280
845.874	0.0135880
845.953	0.0134222
846.031	0.0135895
846.109	0.0135669
846.187	0.0136134
846.265	0.0135651
846.343	0.0134881
846.421	0.0134840
846.499	0.0133691
846.578	0.0135006
846.656	0.0136090
846.734	0.0135851
846.812	0.0136245
846.890	0.0135609
846.968	0.0135950
847.046	0.0135303
847.124	0.0137037
847.203	0.0136641
847.281	0.0134585
847.359	0.0135201
847.437	0.0134963
847.515	0.0135828
847.593	0.0135881
847.671	0.0134512
847.749	0.0135638
847.828	0.0135480
847.906	0.0135870
847.984	0.0136465
848.062	0.0135278
848.140	0.0135250
848.218	0.0135610
848.296	0.0136657
848.374	0.0136203
848.453	0.0136134
848.531	0.0136131
848.609	0.0136810
848.687	0.0136743
848.765	0.0136315
848.843	0.0137027
848.921	0.0136833
848.999	0.0134827
849.078	0.0135385
849.156	0.0136864
849.234	0.0136438
849.312	0.0135682
849.390	0.0134917
849.468	0.0135338
849.546	0.0136108
849.624	0.0136958
849.703	0.0135965
849.781	0.0136076
849.859	0.0135023
849.937	0.0134718
850.015	0.0134727
850.093	0.0134228
850.171	0.0135232
850.249	0.0135924
850.328	0.0136529
850.406	0.0136340
850.484	0.0134818
850.562	0.0136877
850.640	0.0136235
850.718	0.0136404
850.796	0.0135545
850.874	0.0134752
850.953	0.0135960
851.031	0.0136244
851.109	0.0134837
851.187	0.0134547
851.265	0.0137544
851.343	0.0136810
851.421	0.0135613
851.499	0.0135893
851.578	0.0136456
851.656	0.0136230
851.734	0.0136995
851.812	0.0135889
851.890	0.0135870
851.968	0.0136630
852.046	0.0135842
852.124	0.0136395
852.203	0.0136224
852.281	0.0137070
852.359	0.0135700
852.437	0.0137714
852.515	0.0136857
852.593	0.0136563
852.671	0.0135651
852.749	0.0135648
852.828	0.0136497
852.906	0.0136084
852.984	0.0136018
853.062	0.0135234
853.140	0.0135346
853.218	0.0136259
853.296	0.0134976
853.374	0.0135829
853.453	0.0136198
853.531	0.0135403
853.609	0.0135056
853.687	0.0135305
853.765	0.0135794
853.843	0.0135660
853.921	0.0135723
853.999	0.0135634
854.078	0.0136503
854.156	0.0134668
854.234	0.0134465
854.312	0.0136040
854.390	0.0135133
854.468	0.0135426
854.546	0.0135289
854.624	0.0135384
854.703	0.0133978
854.781	0.0135163
854.859	0.0135297
854.937	0.0135303
855.015	0.0134334
855.093	0.0135545
855.171	0.0134283
855.249	0.0134102
855.328	0.0134559
855.406	0.0133110
855.484	0.0136015
855.562	0.0135059
855.640	0.0133711
855.718	0.0132935
855.796	0.0134357
855.874	0.0134381
855.953	0.0134636
856.031	0.0134223
856.109	0.0135041
856.187	0.0134852
856.265	0.0134641
856.343	0.0135110
856.421	0.0135362
856.499	0.0133499
856.578	0.0135026
856.656	0.0135416
856.734	0.0135791
856.812	0.0134522
856.890	0.0135271
856.968	0.0133749
857.046	0.0134187
857.124	0.0135624
857.203	0.0135493
857.281	0.0134338
857.359	0.0135959
857.437	0.0134806
857.515	0.0135329
857.593	0.0135143
857.671	0.0135851
857.749	0.0135476
857.828	0.0135551
857.906	0.0135746
857.984	0.0135588
858.062	0.0135651
858.140	0.0136027
858.218	0.0135429
858.296	0.0135349
858.374	0.0134364
858.453	0.0135342
858.531	0.0135948
858.609	0.0134012
858.687	0.0134878
858.765	0.0135673
858.843	0.0135055
858.921	0.0135735
858.999	0.0135223
859.078	0.0134866
859.156	0.0134688
859.234	0.0134940
859.312	0.0134398
859.390	0.0134494
859.468	0.0135912
859.546	0.0134736
859.624	0.0134913
859.703	0.0134709
859.781	0.0135911
859.859	0.0136105
859.937	0.0135369
860.015	0.0135608
860.093	0.0136755
860.171	0.0136049
860.249	0.0134840
860.328	0.0135336
860.406	0.0135521
860.484	0.0134715
860.562	0.0135606
860.640	0.0134468
860.718	0.0135447
860.796	0.0135801
860.874	0.0134016
860.953	0.0134998
861.031	0.0135667
861.109	0.0135312
861.187	0.0133944
861.265	0.0135625
861.343	0.0134543
861.421	0.0135106
861.499	0.0134940
861.578	0.0134139
861.656	0.0134856
861.734	0.0134872
861.812	0.0135184
861.890	0.0134880
861.968	0.0135867
862.046	0.0135191
862.124	0.0135053
862.203	0.0135332
862.281	0.0135976
862.359	0.0134389
862.437	0.0135851
862.515	0.0135654
862.593	0.0134539
862.671	0.0136939
862.749	0.0136253
862.828	0.0135724
862.906	0.0135574
862.984	0.0134724
863.062	0.0135741
863.140	0.0135631
863.218	0.0136398
863.296	0.0136406
863.374	0.0136008
863.453	0.0133522
863.531	0.0134935
863.609	0.0133837
863.687	0.0136514
863.765	0.0135856
863.843	0.0136583
863.921	0.0135917
863.999	0.0135880
864.078	0.0135403
864.156	0.0135168
864.234	0.0135385
864.312	0.0136058
864.390	0.0134605
864.468	0.0135846
864.546	0.0135392
864.624	0.0134190
864.703	0.0134826
864.781	0.0135283
864.859	0.0135821
864.937	0.0135833
865.015	0.0135587
865.093	0.0133942
865.171	0.0134356
865.249	0.0134765
865.328	0.0135385
865.406	0.0134969
865.484	0.0135773
865.562	0.0134977
865.640	0.0135423
865.718	0.0136549
865.796	0.0135355
865.874	0.0134380
865.953	0.0136073
866.031	0.0135002
866.109	0.0135542
866.187	0.0137022
866.265	0.0135288
866.343	0.0135218
866.421	0.0136721
866.499	0.0135780
866.578	0.0135218
866.656	0.0136747
866.734	0.0135486
866.812	0.0134525
866.890	0.0135606
866.968	0.0136152
867.046	0.0135401
867.124	0.0135674
867.203	0.0136485
867.281	0.0134731
867.359	0.0135668
867.437	0.0135791
867.515	0.0135572
867.593	0.0134867
867.671	0.0134949
867.749	0.0135236
867.828	0.0134984
867.906	0.0134827
867.984	0.0134518
868.062	0.0134135
868.140	0.0134450
868.218	0.0135447
868.296	0.0134162
868.374	0.0135171
868.453	0.0134258
868.531	0.0134913
868.609	0.0134595
868.687	0.0134506
868.765	0.0135458
868.843	0.0134062
868.921	0.0134977
868.999	0.0134419
869.078	0.0135250
869.156	0.0134492
869.234	0.0132680
869.312	0.0134145
869.390	0.0134299
869.468	0.0135255
869.546	0.0134606
869.624	0.0135516
869.703	0.0135962
869.781	0.0134927
869.859	0.0133768
869.937	0.0135264
870.015	0.0134534
870.093	0.0135696
870.171	0.0136480
870.249	0.0134122
870.328	0.0135412
870.406	0.0135001
870.484	0.0134469
870.562	0.0133929
870.640	0.0135137
870.718	0.0136000
870.796	0.0134602
870.874	0.0135214
870.953	0.0134945
871.031	0.0135564
871.109	0.0135738
871.187	0.0134526
871.265	0.0135689
871.343	0.0135878
871.421	0.0135759
871.499	0.0136163
871.578	0.0136123
871.656	0.0135639
871.734	0.0135239
871.812	0.0135598
871.890	0.0135586
871.968	0.0134935
872.046	0.0134719
872.124	0.0135573
872.203	0.0135228
872.281	0.0134870
872.359	0.0135034
872.437	0.0135724
872.515	0.0134702
872.593	0.0136168
872.671	0.0134286
872.749	0.0133304
872.828	0.0135094
872.906	0.0135314
872.984	0.0134045
873.062	0.0135243
873.140	0.0134361
873.218	0.0134080
873.296	0.0135431
873.374	0.0134821
873.453	0.0135540
873.531	0.0136467
873.609	0.0134988
873.687	0.0135827
873.765	0.0135749
873.843	0.0134628
873.921	0.0135625
873.999	0.0134274
874.078	0.0135657
874.156	0.0134444
874.234	0.0135874
874.312	0.0135930
874.390	0.0135845
874.468	0.0135634
874.546	0.0135835
874.624	0.0135783
874.703	0.0135747
874.781	0.0135346
874.859	0.0133939
874.937	0.0135252
875.015	0.0136052
875.093	0.0134308
875.171	0.0134623
875.249	0.0136791
875.328	0.0133142
875.406	0.0134917
875.484	0.0136280
875.562	0.0134327
875.640	0.0135669
875.718	0.0135757
875.796	0.0134492
875.874	0.0136075
875.953	0.0136005
876.031	0.0135382
876.109	0.0134470
876.187	0.0136577
876.265	0.0134810
876.343	0.0135725
876.421	0.0136852
876.499	0.0136015
876.578	0.0136253
876.656	0.0135004
876.734	0.0134972
876.812	0.0136024
876.890	0.0136781
876.968	0.0135796
877.046	0.0134868
877.124	0.0135448
877.203	0.0134403
877.281	0.0134155
877.359	0.0134040
877.437	0.0133047
877.515	0.0134663
877.593	0.0133198
877.671	0.0134065
877.749	0.0133374
877.828	0.0134333
877.906	0.0133643
877.984	0.0133113
878.062	0.0133513
878.140	0.0133345
878.218	0.0133963
878.296	0.0134119
878.374	0.0134828
878.453	0.0135261
878.531	0.0134354
878.609	0.0135667
878.687	0.0134787
878.765	0.0134311
878.843	0.0134623
878.921	0.0134903
878.999	0.0135324
879.078	0.0136151
879.156	0.0135823
879.234	0.0135052
879.312	0.0134558
879.390	0.0134795
879.468	0.0134051
879.546	0.0134262
879.624	0.0135142
879.703	0.0134885
879.781	0.0134676
879.859	0.0135271
879.937	0.0134970
880.015	0.0134843
880.093	0.0134007
880.171	0.0133797
880.249	0.0134281
880.328	0.0133984
880.406	0.0134984
880.484	0.0134292
880.562	0.0134650
880.640	0.0135727
880.718	0.0134119
880.796	0.0135093
880.874	0.0136026
880.953	0.0134109
881.031	0.0135681
881.109	0.0136037
881.187	0.0134215
881.265	0.0133807
881.343	0.0134799
881.421	0.0135572
881.499	0.0134186
881.578	0.0135953
881.656	0.0135868
881.734	0.0135937
881.812	0.0135687
881.890	0.0136581
881.968	0.0134517
882.046	0.0135137
882.124	0.0135406
882.203	0.0134601
882.281	0.0135691
882.359	0.0134518
882.437	0.0135426
882.515	0.0135179
882.593	0.0133928
882.671	0.0135736
882.749	0.0134556
882.828	0.0134652
882.906	0.0134368
882.984	0.0134957
883.062	0.0134659
883.140	0.0133338
883.218	0.0133498
883.296	0.0133791
883.374	0.0134544
883.453	0.0133887
883.531	0.0134068
883.609	0.0134781
883.687	0.0133466
883.765	0.0134682
883.843	0.0133840
883.921	0.0133458
883.999	0.0133177
884.078	0.0133826
884.156	0.0132967
884.234	0.0134297
884.312	0.0133980
884.390	0.0134098
884.468	0.0134689
884.546	0.0134726
884.624	0.0132896
884.703	0.0132488
884.781	0.0133083
884.859	0.0134600
884.937	0.0133305
885.015	0.0135301
885.093	0.0134697
885.171	0.0134255
885.249	0.0134901
885.328	0.0135327
885.406	0.0134608
885.484	0.0134209
885.562	0.0135690
885.640	0.0136205
885.718	0.0137261
885.796	0.0136927
885.874	0.0135955
885.953	0.0134196
886.031	0.0135349
886.109	0.0134177
886.187	0.0135083
886.265	0.0135400
886.343	0.0136620
886.421	0.0135057
886.499	0.0134559
886.578	0.0134392
886.656	0.0134865
886.734	0.0134320
886.812	0.0134875
886.890	0.0134091
886.968	0.0133606
887.046	0.0134654
887.124	0.0135368
887.203	0.0134444
887.281	0.0136234
887.359	0.0135708
887.437	0.0136187
887.515	0.0134855
887.593	0.0135264
887.671	0.0135426
887.749	0.0135266
887.828	0.0135850
887.906	0.0135225
887.984	0.0134773
888.062	0.0135844
888.140	0.0134476
888.218	0.0136444
888.296	0.0135009
888.374	0.0134055
888.453	0.0134107
888.531	0.0133736
888.609	0.0133628
888.687	0.0134083
888.765	0.0133336
888.843	0.0134715
888.921	0.0133993
888.999	0.0133840
889.078	0.0134263
889.156	0.0134052
889.234	0.0133904
889.312	0.0134183
889.390	0.0134363
889.468	0.0134229
889.546	0.0135152
889.624	0.0135847
889.703	0.0135006
889.781	0.0134663
889.859	0.0133575
889.937	0.0134295
890.015	0.0134476
890.093	0.0135503
890.171	0.0135123
890.249	0.0136179
890.328	0.0135243
890.406	0.0135397
890.484	0.0137088
890.562	0.0136500
890.640	0.0136229
890.718	0.0135664
890.796	0.0137025
890.874	0.0136636
890.953	0.0135685
891.031	0.0136672
891.109	0.0136053
891.187	0.0136690
891.265	0.0137280
891.343	0.0137475
891.421	0.0136476
891.499	0.0136931
891.578	0.0135130
891.656	0.0135674
891.734	0.0136088
891.812	0.0134766
891.890	0.0135066
891.968	0.0136216
892.046	0.0135267
892.124	0.0134702
892.203	0.0134454
892.281	0.0135541
892.359	0.0135393
892.437	0.0136588
892.515	0.0136562
892.593	0.0136092
892.671	0.0137283
892.749	0.0135971
892.828	0.0137279
892.906	0.0137284
892.984	0.0136674
893.062	0.0135580
893.140	0.0136623
893.218	0.0135081
893.296	0.0135915
893.374	0.0134826
893.453	0.0134447
893.531	0.0134476
893.609	0.0134180
893.687	0.0134105
893.765	0.0134945
893.843	0.0134281
893.921	0.0133318
893.999	0.0134315
894.078	0.0134596
894.156	0.0133481
894.234	0.0134542
894.312	0.0135292
894.390	0.0133692
894.468	0.0133649
894.546	0.0133830
894.624	0.0134535
894.703	0.0134869
894.781	0.0134754
894.859	0.0134866
894.937	0.0136211
895.015	0.0135780
895.093	0.0136583
895.171	0.0135777
895.249	0.0136320
895.328	0.0135601
895.406	0.0134265
895.484	0.0134345
895.562	0.0134940
895.640	0.0135278
895.718	0.0136517
895.796	0.0135771
895.874	0.0136721
895.953	0.0136962
896.031	0.0134454
896.109	0.0135287
896.187	0.0134994
896.265	0.0134594
896.343	0.0134306
896.421	0.0135621
896.499	0.0135157
896.578	0.0136926
896.656	0.0135121
896.734	0.0135776
896.812	0.0135315
896.890	0.0135524
896.968	0.0134103
897.046	0.0135650
897.124	0.0136368
897.203	0.0135381
897.281	0.0134106
897.359	0.0134394
897.437	0.0133602
897.515	0.0134012
897.593	0.0133949
897.671	0.0135754
897.749	0.0134628
897.828	0.0133588
897.906	0.0134589
897.984	0.0134779
898.062	0.0136002
898.140	0.0136164
898.218	0.0136331
898.296	0.0136276
898.374	0.0135863
898.453	0.0136132
898.531	0.0137302
898.609	0.0136636
898.687	0.0135439
898.765	0.0134480
898.843	0.0135561
898.921	0.0135556
898.999	0.0136404
899.078	0.0135139
899.156	0.0134243
899.234	0.0134805
899.312	0.0133086
899.390	0.0135109
899.468	0.0134533
899.546	0.0134863
899.624	0.0134586
899.703	0.0135854
899.781	0.0133450
899.859	0.0134496
899.937	0.0134830
900.015	0.0134072
900.093	0.0134966
900.171	0.0135780
900.249	0.0135812
900.328	0.0135032
900.406	0.0135351
900.484	0.0135524
900.562	0.0135640
900.640	0.0135416
900.718	0.0134880
900.796	0.0135023
900.874	0.0134322
900.953	0.0135369
901.031	0.0134267
901.109	0.0135009
901.187	0.0136855
901.265	0.0134921
901.343	0.0134454
901.421	0.0135003
901.499	0.0133625
901.578	0.0134103
901.656	0.0134319
901.734	0.0134912
901.812	0.0134806
901.890	0.0135458
901.968	0.0137207
902.046	0.0135168
902.124	0.0135770
902.203	0.0136948
902.281	0.0136126
902.359	0.0134560
902.437	0.0134119
902.515	0.0135210
902.593	0.0134480
902.671	0.0134582
902.749	0.0134528
902.828	0.0134399
902.906	0.0136301
902.984	0.0135266
903.062	0.0134966
903.140	0.0134366
903.218	0.0134171
903.296	0.0135145
903.374	0.0134255
903.453	0.0135709
903.531	0.0133736
903.609	0.0134958
903.687	0.0136009
903.765	0.0135262
903.843	0.0135181
903.921	0.0136433
903.999	0.0135332
904.078	0.0134425
904.156	0.0137187
904.234	0.0136156
904.312	0.0136510
904.390	0.0136692
904.468	0.0135416
904.546	0.0135257
904.624	0.0136153
904.703	0.0136151
904.781	0.0134390
904.859	0.0136614
904.937	0.0135229
905.015	0.0134686
905.093	0.0134126
905.171	0.0133772
905.249	0.0134232
905.328	0.0134965
905.406	0.0135723
905.484	0.0135375
905.562	0.0134431
905.640	0.0133898
905.718	0.0134032
905.796	0.0135457
905.874	0.0134581
905.953	0.0135752
906.031	0.0135870
906.109	0.0135252
906.187	0.0134206
906.265	0.0135077
906.343	0.0134830
906.421	0.0135233
906.499	0.0135974
906.578	0.0135694
906.656	0.0135579
906.734	0.0135552
906.812	0.0135960
906.890	0.0135246
906.968	0.0135922
907.046	0.0134923
907.124	0.0134615
907.203	0.0135345
907.281	0.0136893
907.359	0.0135137
907.437	0.0135469
907.515	0.0134180
907.593	0.0135656
907.671	0.0136301
907.749	0.0136504
907.828	0.0136475
907.906	0.0136965
907.984	0.0136024
908.062	0.0135858
908.140	0.0136585
908.218	0.0137112
908.296	0.0135883
908.374	0.0135876
908.453	0.0136601
908.531	0.0135567
908.609	0.0135900
908.687	0.0136323
908.765	0.0135757
908.843	0.0135813
908.921	0.0134619
908.999	0.0135238
909.078	0.0135036
909.156	0.0135051
909.234	0.0135673
909.312	0.0135397
909.390	0.0134309
909.468	0.0134863
909.546	0.0134026
909.624	0.0134229
909.703	0.0134940
909.781	0.0135143
909.859	0.0134105
909.937	0.0134010
910.015	0.0135272
910.093	0.0134607
910.171	0.0134929
910.249	0.0134481
910.328	0.0135060
910.406	0.0133843
910.484	0.0134908
910.562	0.0135612
910.640	0.0133276
910.718	0.0135462
910.796	0.0135034
910.874	0.0134890
910.953	0.0135313
911.031	0.0134618
911.109	0.0134600
911.187	0.0135916
911.265	0.0136219
911.343	0.0134521
911.421	0.0135875
911.499	0.0136892
911.578	0.0135713
911.656	0.0135940
911.734	0.0135506
911.812	0.0136353
911.890	0.0137291
911.968	0.0136217
912.046	0.0136377
912.124	0.0135445
912.203	0.0136037
912.281	0.0135654
912.359	0.0134740
912.437	0.0135552
912.515	0.0134619
912.593	0.0135474
912.671	0.0134642
912.749	0.0136403
912.828	0.0135754
912.906	0.0135425
912.984	0.0136728
913.062	0.0137102
913.140	0.0136449
913.218	0.0136090
913.296	0.0136492
913.374	0.0137170
913.453	0.0135299
913.531	0.0135178
913.609	0.0136198
913.687	0.0137270
913.765	0.0136531
913.843	0.0137186
913.921	0.0135146
913.999	0.0136014
914.078	0.0135591
914.156	0.0135417
914.234	0.0137186
914.312	0.0136068
914.390	0.0136086
914.468	0.0134287
914.546	0.0135506
914.624	0.0134139
914.703	0.0135717
914.781	0.0134594
914.859	0.0134209
914.937	0.0134639
915.015	0.0135091
915.093	0.0135136
915.171	0.0135573
915.249	0.0135691
915.328	0.0134570
915.406	0.0135734
915.484	0.0134798
915.562	0.0134484
915.640	0.0134789
915.718	0.0135347
915.796	0.0135630
915.874	0.0133683
915.953	0.0134434
916.031	0.0134097
916.109	0.0135088
916.187	0.0135033
916.265	0.0136661
916.343	0.0134594
916.421	0.0135219
916.499	0.0136362
916.578	0.0134869
916.656	0.0135129
916.734	0.0136454
916.812	0.0136387
916.890	0.0137126
916.968	0.0136084
917.046	0.0135655
917.124	0.0137051
917.203	0.0136659
917.281	0.0134594
917.359	0.0135725
917.437	0.0135027
917.515	0.0135918
917.593	0.0135240
917.671	0.0136326
917.749	0.0135629
917.828	0.0137212
917.906	0.0136858
917.984	0.0135670
918.062	0.0135470
918.140	0.0136299
918.218	0.0135676
918.296	0.0136356
918.374	0.0136014
918.453	0.0136065
918.531	0.0137436
918.609	0.0136771
918.687	0.0136694
918.765	0.0135639
918.843	0.0135918
918.921	0.0136946
918.999	0.0135227
919.078	0.0135391
919.156	0.0135280
919.234	0.0135867
919.312	0.0135619
919.390	0.0134342
919.468	0.0134714
919.546	0.0134801
919.624	0.0134739
919.703	0.0135151
919.781	0.0134356
919.859	0.0135028
919.937	0.0135495
