05/06/2022	18:40:08	Ver.	4.1	UNKNOWN
Optical Delay	600.015094	Delta X		0.078125	Sweeps	1	Scan Rate	0/0
Coordinates	Axis 1	NaN	Axis 2	NaN	Axis 3	NaN	Axis 4	NaN	Axis 5	NaN	Axis 6	0.000000
TX Power	0.000000	RX Power	0.000000

600.015	0.0137708
600.093	0.0138054
600.171	0.0136738
600.249	0.0138107
600.328	0.0136907
600.406	0.0137634
600.484	0.0137946
600.562	0.0137337
600.640	0.0136462
600.718	0.0136842
600.796	0.0137560
600.874	0.0136559
600.953	0.0137004
601.031	0.0137905
601.109	0.0136767
601.187	0.0137093
601.265	0.0137269
601.343	0.0137488
601.421	0.0137701
601.499	0.0136758
601.578	0.0137155
601.656	0.0138692
601.734	0.0137691
601.812	0.0137321
601.890	0.0137502
601.968	0.0136316
602.046	0.0136913
602.124	0.0136252
602.203	0.0138190
602.281	0.0138219
602.359	0.0138885
602.437	0.0135878
602.515	0.0138094
602.593	0.0137960
602.671	0.0136923
602.749	0.0137465
602.828	0.0137153
602.906	0.0138124
602.984	0.0136805
603.062	0.0138194
603.140	0.0138157
603.218	0.0136944
603.296	0.0138604
603.374	0.0138261
603.453	0.0137260
603.531	0.0137650
603.609	0.0137921
603.687	0.0137917
603.765	0.0136795
603.843	0.0138367
603.921	0.0137774
603.999	0.0137527
604.078	0.0138417
604.156	0.0138101
604.234	0.0138245
604.312	0.0138704
604.390	0.0137698
604.468	0.0137958
604.546	0.0136943
604.624	0.0137818
604.703	0.0136958
604.781	0.0137849
604.859	0.0138723
604.937	0.0137423
605.015	0.0137049
605.093	0.0137240
605.171	0.0138032
605.249	0.0138383
605.328	0.0137083
605.406	0.0137739
605.484	0.0137740
605.562	0.0137113
605.640	0.0137491
605.718	0.0138477
605.796	0.0137970
605.874	0.0137753
605.953	0.0138713
606.031	0.0137688
606.109	0.0137337
606.187	0.0136488
606.265	0.0137454
606.343	0.0137606
606.421	0.0136796
606.499	0.0139149
606.578	0.0137950
606.656	0.0137589
606.734	0.0136887
606.812	0.0138177
606.890	0.0137434
606.968	0.0135875
607.046	0.0137059
607.124	0.0137485
607.203	0.0137212
607.281	0.0138027
607.359	0.0137556
607.437	0.0137653
607.515	0.0137492
607.593	0.0137685
607.671	0.0137399
607.749	0.0138761
607.828	0.0137172
607.906	0.0136271
607.984	0.0137254
608.062	0.0138203
608.140	0.0137310
608.218	0.0136575
608.296	0.0136954
608.374	0.0137360
608.453	0.0136702
608.531	0.0137672
608.609	0.0138617
608.687	0.0137412
608.765	0.0137456
608.843	0.0137566
608.921	0.0137506
608.999	0.0136945
609.078	0.0136781
609.156	0.0138376
609.234	0.0137587
609.312	0.0137785
609.390	0.0136723
609.468	0.0136546
609.546	0.0138068
609.624	0.0137269
609.703	0.0137887
609.781	0.0137486
609.859	0.0136464
609.937	0.0137620
610.015	0.0137859
610.093	0.0137073
610.171	0.0136391
610.249	0.0135353
610.328	0.0138102
610.406	0.0138087
610.484	0.0137121
610.562	0.0137296
610.640	0.0137461
610.718	0.0138156
610.796	0.0136839
610.874	0.0138414
610.953	0.0138266
611.031	0.0137345
611.109	0.0137447
611.187	0.0136961
611.265	0.0138322
611.343	0.0136535
611.421	0.0135983
611.499	0.0136901
611.578	0.0138187
611.656	0.0138219
611.734	0.0138281
611.812	0.0138048
611.890	0.0137334
611.968	0.0137317
612.046	0.0138142
612.124	0.0137177
612.203	0.0136890
612.281	0.0137543
612.359	0.0137271
612.437	0.0137942
612.515	0.0137809
612.593	0.0135782
612.671	0.0136558
612.749	0.0137782
612.828	0.0137714
612.906	0.0137076
612.984	0.0136865
613.062	0.0138839
613.140	0.0137421
613.218	0.0137656
613.296	0.0137595
613.374	0.0138699
613.453	0.0138174
613.531	0.0137447
613.609	0.0138372
613.687	0.0137632
613.765	0.0136226
613.843	0.0137556
613.921	0.0136107
613.999	0.0139203
614.078	0.0138136
614.156	0.0138519
614.234	0.0138984
614.312	0.0136326
614.390	0.0137682
614.468	0.0139078
614.546	0.0137359
614.624	0.0137753
614.703	0.0137206
614.781	0.0137256
614.859	0.0136824
614.937	0.0136938
615.015	0.0137316
615.093	0.0137383
615.171	0.0137074
615.249	0.0138170
615.328	0.0137966
615.406	0.0138541
615.484	0.0138678
615.562	0.0135895
615.640	0.0136698
615.718	0.0137405
615.796	0.0137284
615.874	0.0137122
615.953	0.0136691
616.031	0.0138439
616.109	0.0138567
616.187	0.0138250
616.265	0.0138023
616.343	0.0137496
616.421	0.0137126
616.499	0.0137281
616.578	0.0137510
616.656	0.0136355
616.734	0.0137469
616.812	0.0137512
616.890	0.0139019
616.968	0.0137949
617.046	0.0138271
617.124	0.0137330
617.203	0.0137414
617.281	0.0138677
617.359	0.0138042
617.437	0.0138713
617.515	0.0137061
617.593	0.0136932
617.671	0.0137242
617.749	0.0137421
617.828	0.0137339
617.906	0.0137235
617.984	0.0137338
618.062	0.0137192
618.140	0.0138148
618.218	0.0138229
618.296	0.0138567
618.374	0.0137041
618.453	0.0137389
618.531	0.0137982
618.609	0.0138337
618.687	0.0138036
618.765	0.0137549
618.843	0.0138159
618.921	0.0137887
618.999	0.0137304
619.078	0.0137379
619.156	0.0137433
619.234	0.0136984
619.312	0.0139020
619.390	0.0138561
619.468	0.0138271
619.546	0.0138523
619.624	0.0137466
619.703	0.0138179
619.781	0.0137641
619.859	0.0137680
619.937	0.0136828
620.015	0.0138142
620.093	0.0137753
620.171	0.0137368
620.249	0.0138184
620.328	0.0137749
620.406	0.0137709
620.484	0.0137121
620.562	0.0136456
620.640	0.0136803
620.718	0.0137089
620.796	0.0136736
620.874	0.0136613
620.953	0.0137852
621.031	0.0138995
621.109	0.0136100
621.187	0.0138409
621.265	0.0137949
621.343	0.0137119
621.421	0.0137616
621.499	0.0138298
621.578	0.0137633
621.656	0.0137157
621.734	0.0138055
621.812	0.0137048
621.890	0.0137286
621.968	0.0136660
622.046	0.0136716
622.124	0.0138656
622.203	0.0137761
622.281	0.0136680
622.359	0.0138206
622.437	0.0137750
622.515	0.0137836
622.593	0.0138908
622.671	0.0138190
622.749	0.0137979
622.828	0.0138969
622.906	0.0137748
622.984	0.0138055
623.062	0.0139210
623.140	0.0139150
623.218	0.0137641
623.296	0.0137685
623.374	0.0137965
623.453	0.0138302
623.531	0.0137254
623.609	0.0137363
623.687	0.0137892
623.765	0.0137943
623.843	0.0138589
623.921	0.0138722
623.999	0.0137968
624.078	0.0139194
624.156	0.0137137
624.234	0.0137656
624.312	0.0137822
624.390	0.0139586
624.468	0.0137799
624.546	0.0137433
624.624	0.0137908
624.703	0.0138938
624.781	0.0137576
624.859	0.0138464
624.937	0.0138499
625.015	0.0137985
625.093	0.0138493
625.171	0.0137155
625.249	0.0137353
625.328	0.0137976
625.406	0.0139559
625.484	0.0137728
625.562	0.0138002
625.640	0.0137843
625.718	0.0138864
625.796	0.0137881
625.874	0.0138248
625.953	0.0138448
626.031	0.0138506
626.109	0.0138512
626.187	0.0138819
626.265	0.0137583
626.343	0.0137075
626.421	0.0137379
626.499	0.0138427
626.578	0.0138081
626.656	0.0138633
626.734	0.0138065
626.812	0.0137119
626.890	0.0138015
626.968	0.0136916
627.046	0.0137989
627.124	0.0138881
627.203	0.0137769
627.281	0.0137841
627.359	0.0137064
627.437	0.0137267
627.515	0.0137621
627.593	0.0137084
627.671	0.0137917
627.749	0.0138926
627.828	0.0139198
627.906	0.0138474
627.984	0.0137321
628.062	0.0138148
628.140	0.0138917
628.218	0.0138414
628.296	0.0137132
628.374	0.0138205
628.453	0.0138777
628.531	0.0137007
628.609	0.0138757
628.687	0.0137964
628.765	0.0138510
628.843	0.0140356
628.921	0.0138913
628.999	0.0137253
629.078	0.0138790
629.156	0.0139380
629.234	0.0138335
629.312	0.0137511
629.390	0.0138491
629.468	0.0137685
629.546	0.0137484
629.624	0.0137843
629.703	0.0137985
629.781	0.0138468
629.859	0.0139542
629.937	0.0139281
630.015	0.0137502
630.093	0.0137582
630.171	0.0138454
630.249	0.0137767
630.328	0.0136392
630.406	0.0137724
630.484	0.0137611
630.562	0.0136489
630.640	0.0138506
630.718	0.0138419
630.796	0.0136442
630.874	0.0136340
630.953	0.0137386
631.031	0.0136758
631.109	0.0138335
631.187	0.0138673
631.265	0.0136791
631.343	0.0137579
631.421	0.0138091
631.499	0.0138427
631.578	0.0138563
631.656	0.0138199
631.734	0.0137710
631.812	0.0137733
631.890	0.0137277
631.968	0.0137299
632.046	0.0137921
632.124	0.0137952
632.203	0.0138185
632.281	0.0138406
632.359	0.0137206
632.437	0.0138068
632.515	0.0137533
632.593	0.0138353
632.671	0.0137747
632.749	0.0138669
632.828	0.0137513
632.906	0.0138409
632.984	0.0137989
633.062	0.0138308
633.140	0.0136871
633.218	0.0137679
633.296	0.0136744
633.374	0.0138657
633.453	0.0138490
633.531	0.0137203
633.609	0.0138100
633.687	0.0137211
633.765	0.0137892
633.843	0.0138050
633.921	0.0138309
633.999	0.0137034
634.078	0.0138253
634.156	0.0138065
634.234	0.0135852
634.312	0.0137484
634.390	0.0138419
634.468	0.0137231
634.546	0.0138785
634.624	0.0136298
634.703	0.0137334
634.781	0.0138271
634.859	0.0137888
634.937	0.0137365
635.015	0.0137675
635.093	0.0136170
635.171	0.0138261
635.249	0.0137783
635.328	0.0138528
635.406	0.0138386
635.484	0.0137095
635.562	0.0137351
635.640	0.0137276
635.718	0.0138271
635.796	0.0137928
635.874	0.0136399
635.953	0.0138023
636.031	0.0137984
636.109	0.0137428
636.187	0.0136600
636.265	0.0136989
636.343	0.0137103
636.421	0.0137662
636.499	0.0136868
636.578	0.0138323
636.656	0.0138445
636.734	0.0137974
636.812	0.0135812
636.890	0.0137514
636.968	0.0138229
637.046	0.0136730
637.124	0.0137280
637.203	0.0138303
637.281	0.0136605
637.359	0.0137302
637.437	0.0136571
637.515	0.0136742
637.593	0.0137570
637.671	0.0136726
637.749	0.0137070
637.828	0.0137934
637.906	0.0137902
637.984	0.0138243
638.062	0.0138834
638.140	0.0137567
638.218	0.0136751
638.296	0.0138249
638.374	0.0138229
638.453	0.0137946
638.531	0.0137254
638.609	0.0135786
638.687	0.0138045
638.765	0.0138567
638.843	0.0137669
638.921	0.0138416
638.999	0.0138945
639.078	0.0137583
639.156	0.0138258
639.234	0.0138103
639.312	0.0138098
639.390	0.0137734
639.468	0.0137388
639.546	0.0138448
639.624	0.0137831
639.703	0.0137097
639.781	0.0138805
639.859	0.0138805
639.937	0.0138223
640.015	0.0137234
640.093	0.0138016
640.171	0.0138029
640.249	0.0138980
640.328	0.0137219
640.406	0.0138649
640.484	0.0138099
640.562	0.0138072
640.640	0.0137935
640.718	0.0136970
640.796	0.0138753
640.874	0.0138494
640.953	0.0138636
641.031	0.0137822
641.109	0.0138503
641.187	0.0137149
641.265	0.0135943
641.343	0.0137616
641.421	0.0137846
641.499	0.0138749
641.578	0.0137746
641.656	0.0138493
641.734	0.0138652
641.812	0.0136719
641.890	0.0137098
641.968	0.0137907
642.046	0.0138745
642.124	0.0137531
642.203	0.0137782
642.281	0.0137926
642.359	0.0138126
642.437	0.0137590
642.515	0.0137817
642.593	0.0137896
642.671	0.0135555
642.749	0.0136560
642.828	0.0138985
642.906	0.0137634
642.984	0.0136431
643.062	0.0137091
643.140	0.0136804
643.218	0.0137981
643.296	0.0138393
643.374	0.0137633
643.453	0.0136824
643.531	0.0138374
643.609	0.0136867
643.687	0.0136614
643.765	0.0138390
643.843	0.0137031
643.921	0.0137321
643.999	0.0137809
644.078	0.0138029
644.156	0.0137130
644.234	0.0139063
644.312	0.0137935
644.390	0.0136806
644.468	0.0137066
644.546	0.0137593
644.624	0.0137960
644.703	0.0136997
644.781	0.0136497
644.859	0.0138103
644.937	0.0137259
645.015	0.0137434
645.093	0.0137280
645.171	0.0135388
645.249	0.0138205
645.328	0.0138063
645.406	0.0137125
645.484	0.0136871
645.562	0.0136028
645.640	0.0138291
645.718	0.0137894
645.796	0.0137725
645.874	0.0138430
645.953	0.0137519
646.031	0.0137825
646.109	0.0138104
646.187	0.0136449
646.265	0.0139328
646.343	0.0136348
646.421	0.0137450
646.499	0.0137408
646.578	0.0137645
646.656	0.0137312
646.734	0.0135840
646.812	0.0137286
646.890	0.0137849
646.968	0.0138251
647.046	0.0138002
647.124	0.0137331
647.203	0.0138793
647.281	0.0138656
647.359	0.0138943
647.437	0.0138661
647.515	0.0138696
647.593	0.0136974
647.671	0.0139810
647.749	0.0136796
647.828	0.0137733
647.906	0.0137367
647.984	0.0138112
648.062	0.0138119
648.140	0.0137597
648.218	0.0136953
648.296	0.0137644
648.374	0.0137296
648.453	0.0137149
648.531	0.0139734
648.609	0.0137688
648.687	0.0137571
648.765	0.0139754
648.843	0.0138055
648.921	0.0138925
648.999	0.0137347
649.078	0.0137621
649.156	0.0137305
649.234	0.0137424
649.312	0.0137238
649.390	0.0137017
649.468	0.0137725
649.546	0.0137952
649.624	0.0138422
649.703	0.0138089
649.781	0.0138900
649.859	0.0138892
649.937	0.0138957
650.015	0.0137254
650.093	0.0137071
650.171	0.0137538
650.249	0.0137693
650.328	0.0137464
650.406	0.0138953
650.484	0.0137803
650.562	0.0137654
650.640	0.0138576
650.718	0.0138483
650.796	0.0138481
650.874	0.0137753
650.953	0.0137863
651.031	0.0139309
651.109	0.0137975
651.187	0.0138393
651.265	0.0138099
651.343	0.0137675
651.421	0.0137527
651.499	0.0138655
651.578	0.0137936
651.656	0.0137418
651.734	0.0138299
651.812	0.0137078
651.890	0.0137962
651.968	0.0137918
652.046	0.0137651
652.124	0.0138508
652.203	0.0138473
652.281	0.0137549
652.359	0.0138710
652.437	0.0138239
652.515	0.0137880
652.593	0.0136919
652.671	0.0137922
652.749	0.0138970
652.828	0.0138811
652.906	0.0138065
652.984	0.0137565
653.062	0.0137917
653.140	0.0137821
653.218	0.0138046
653.296	0.0136691
653.374	0.0137434
653.453	0.0137926
653.531	0.0137526
653.609	0.0137789
653.687	0.0138956
653.765	0.0137517
653.843	0.0137370
653.921	0.0137809
653.999	0.0137521
654.078	0.0138817
654.156	0.0139744
654.234	0.0138322
654.312	0.0137482
654.390	0.0138299
654.468	0.0137418
654.546	0.0138402
654.624	0.0138304
654.703	0.0137752
654.781	0.0138331
654.859	0.0137090
654.937	0.0137804
655.015	0.0137658
655.093	0.0136922
655.171	0.0137392
655.249	0.0137199
655.328	0.0138046
655.406	0.0138314
655.484	0.0138729
655.562	0.0138651
655.640	0.0137415
655.718	0.0138416
655.796	0.0137404
655.874	0.0138147
655.953	0.0138355
656.031	0.0139153
656.109	0.0138998
656.187	0.0138076
656.265	0.0138277
656.343	0.0137966
656.421	0.0138368
656.499	0.0137836
656.578	0.0137092
656.656	0.0136797
656.734	0.0137869
656.812	0.0138144
656.890	0.0138587
656.968	0.0138116
657.046	0.0137753
657.124	0.0137521
657.203	0.0137904
657.281	0.0138074
657.359	0.0137730
657.437	0.0137690
657.515	0.0136536
657.593	0.0137334
657.671	0.0138226
657.749	0.0139788
657.828	0.0138364
657.906	0.0137920
657.984	0.0137489
658.062	0.0136861
658.140	0.0137834
658.218	0.0137360
658.296	0.0137743
658.374	0.0138074
658.453	0.0138237
658.531	0.0138908
658.609	0.0137276
658.687	0.0138035
658.765	0.0138814
658.843	0.0138869
658.921	0.0138081
658.999	0.0138398
659.078	0.0137125
659.156	0.0137880
659.234	0.0137121
659.312	0.0137241
659.390	0.0139136
659.468	0.0137918
659.546	0.0138584
659.624	0.0138256
659.703	0.0137569
659.781	0.0137082
659.859	0.0137246
659.937	0.0138244
660.015	0.0138976
660.093	0.0137891
660.171	0.0138729
660.249	0.0138006
660.328	0.0138576
660.406	0.0138203
660.484	0.0138309
660.562	0.0137827
660.640	0.0137086
660.718	0.0137696
660.796	0.0137838
660.874	0.0137759
660.953	0.0137421
661.031	0.0136027
661.109	0.0138040
661.187	0.0137226
661.265	0.0139247
661.343	0.0138808
661.421	0.0137145
661.499	0.0137843
661.578	0.0138092
661.656	0.0138217
661.734	0.0138870
661.812	0.0138580
661.890	0.0138022
661.968	0.0138096
662.046	0.0139050
662.124	0.0137344
662.203	0.0136764
662.281	0.0137280
662.359	0.0138391
662.437	0.0137820
662.515	0.0138309
662.593	0.0138230
662.671	0.0138517
662.749	0.0138152
662.828	0.0138928
662.906	0.0137556
662.984	0.0137639
663.062	0.0137847
663.140	0.0137260
663.218	0.0137463
663.296	0.0137391
663.374	0.0139166
663.453	0.0138696
663.531	0.0138224
663.609	0.0137778
663.687	0.0137534
663.765	0.0137678
663.843	0.0138321
663.921	0.0138290
663.999	0.0138488
664.078	0.0137341
664.156	0.0137140
664.234	0.0137506
664.312	0.0138058
664.390	0.0138687
664.468	0.0137707
664.546	0.0136843
664.624	0.0136884
664.703	0.0139612
664.781	0.0138391
664.859	0.0136298
664.937	0.0137502
665.015	0.0138445
665.093	0.0138845
665.171	0.0138542
665.249	0.0137621
665.328	0.0137784
665.406	0.0138773
665.484	0.0137813
665.562	0.0139547
665.640	0.0138968
665.718	0.0138393
665.796	0.0139018
665.874	0.0139004
665.953	0.0137087
666.031	0.0136732
666.109	0.0139021
666.187	0.0138603
666.265	0.0137580
666.343	0.0139111
666.421	0.0139285
666.499	0.0139505
666.578	0.0137809
666.656	0.0138538
666.734	0.0137359
666.812	0.0139435
666.890	0.0138481
666.968	0.0138122
667.046	0.0139561
667.124	0.0138834
667.203	0.0137901
667.281	0.0137103
667.359	0.0137418
667.437	0.0138039
667.515	0.0138116
667.593	0.0138969
667.671	0.0137492
667.749	0.0138345
667.828	0.0137737
667.906	0.0137894
667.984	0.0138324
668.062	0.0138484
668.140	0.0138885
668.218	0.0138008
668.296	0.0137650
668.374	0.0137223
668.453	0.0137162
668.531	0.0138749
668.609	0.0137947
668.687	0.0136542
668.765	0.0137820
668.843	0.0137732
668.921	0.0138587
668.999	0.0136931
669.078	0.0136229
669.156	0.0137446
669.234	0.0138136
669.312	0.0138116
669.390	0.0138023
669.468	0.0136880
669.546	0.0137637
669.624	0.0136924
669.703	0.0137764
669.781	0.0137773
669.859	0.0138687
669.937	0.0137965
670.015	0.0139683
670.093	0.0137601
670.171	0.0137129
670.249	0.0136166
670.328	0.0137492
670.406	0.0137695
670.484	0.0135970
670.562	0.0137003
670.640	0.0137792
670.718	0.0137612
670.796	0.0137346
670.874	0.0137570
670.953	0.0136315
671.031	0.0136002
671.109	0.0137460
671.187	0.0136535
671.265	0.0135107
671.343	0.0137045
671.421	0.0137662
671.499	0.0136887
671.578	0.0136338
671.656	0.0135342
671.734	0.0137447
671.812	0.0136937
671.890	0.0136036
671.968	0.0137276
672.046	0.0135438
672.124	0.0136568
672.203	0.0137362
672.281	0.0134969
672.359	0.0136781
672.437	0.0135593
672.515	0.0135830
672.593	0.0135825
672.671	0.0135634
672.749	0.0135273
672.828	0.0135363
672.906	0.0136443
672.984	0.0135922
673.062	0.0136003
673.140	0.0135033
673.218	0.0135065
673.296	0.0135200
673.374	0.0136986
673.453	0.0134969
673.531	0.0135995
673.609	0.0134217
673.687	0.0134723
673.765	0.0136933
673.843	0.0136332
673.921	0.0135461
673.999	0.0135460
674.078	0.0136552
674.156	0.0135383
674.234	0.0135791
674.312	0.0136654
674.390	0.0137298
674.468	0.0135014
674.546	0.0135545
674.624	0.0137276
674.703	0.0135955
674.781	0.0137275
674.859	0.0136076
674.937	0.0136284
675.015	0.0135819
675.093	0.0136138
675.171	0.0136855
675.249	0.0136574
675.328	0.0135992
675.406	0.0137082
675.484	0.0137750
675.562	0.0134526
675.640	0.0136762
675.718	0.0136749
675.796	0.0134888
675.874	0.0136171
675.953	0.0135829
676.031	0.0137267
676.109	0.0136937
676.187	0.0138018
676.265	0.0137110
676.343	0.0138863
676.421	0.0137639
676.499	0.0138263
676.578	0.0137690
676.656	0.0136507
676.734	0.0138711
676.812	0.0137246
676.890	0.0135617
676.968	0.0137034
677.046	0.0138750
677.124	0.0138367
677.203	0.0136369
677.281	0.0137653
677.359	0.0139241
677.437	0.0138989
677.515	0.0137893
677.593	0.0138073
677.671	0.0138939
677.749	0.0139326
677.828	0.0138705
677.906	0.0139895
677.984	0.0140217
678.062	0.0139087
678.140	0.0139809
678.218	0.0140485
678.296	0.0140404
678.374	0.0139687
678.453	0.0139986
678.531	0.0140369
678.609	0.0139098
678.687	0.0140535
678.765	0.0140208
678.843	0.0140762
678.921	0.0140311
678.999	0.0139828
679.078	0.0140451
679.156	0.0138807
679.234	0.0139853
679.312	0.0141280
679.390	0.0139300
679.468	0.0139883
679.546	0.0139433
679.624	0.0140022
679.703	0.0140320
679.781	0.0138614
679.859	0.0139362
679.937	0.0139043
680.015	0.0140221
680.093	0.0139891
680.171	0.0139223
680.249	0.0138130
680.328	0.0139779
680.406	0.0138758
680.484	0.0140270
680.562	0.0139558
680.640	0.0139285
680.718	0.0139776
680.796	0.0139178
680.874	0.0138674
680.953	0.0138976
681.031	0.0139890
681.109	0.0139138
681.187	0.0139851
681.265	0.0138920
681.343	0.0138995
681.421	0.0139014
681.499	0.0140653
681.578	0.0140614
681.656	0.0139709
681.734	0.0139287
681.812	0.0140434
681.890	0.0140369
681.968	0.0140178
682.046	0.0140440
682.124	0.0140199
682.203	0.0138853
682.281	0.0138424
682.359	0.0139039
682.437	0.0139800
682.515	0.0140758
682.593	0.0138215
682.671	0.0138454
682.749	0.0140295
682.828	0.0138565
682.906	0.0139021
682.984	0.0140325
683.062	0.0138660
683.140	0.0139659
683.218	0.0139326
683.296	0.0138659
683.374	0.0138877
683.453	0.0137495
683.531	0.0138125
683.609	0.0137730
683.687	0.0138738
683.765	0.0137432
683.843	0.0138152
683.921	0.0138712
683.999	0.0136106
684.078	0.0136542
684.156	0.0136736
684.234	0.0137592
684.312	0.0137156
684.390	0.0136980
684.468	0.0136289
684.546	0.0137550
684.624	0.0136938
684.703	0.0136296
684.781	0.0136876
684.859	0.0137361
684.937	0.0135735
685.015	0.0136605
685.093	0.0136913
685.171	0.0136909
685.249	0.0138382
685.328	0.0137894
685.406	0.0137162
685.484	0.0136423
685.562	0.0136806
685.640	0.0136398
685.718	0.0137906
685.796	0.0136028
685.874	0.0136340
685.953	0.0137537
686.031	0.0135937
686.109	0.0137495
686.187	0.0136032
686.265	0.0136707
686.343	0.0138033
686.421	0.0136662
686.499	0.0136586
686.578	0.0137316
686.656	0.0137441
686.734	0.0137801
686.812	0.0138295
686.890	0.0136500
686.968	0.0137424
687.046	0.0137136
687.124	0.0137053
687.203	0.0135347
687.281	0.0137063
687.359	0.0137095
687.437	0.0136765
687.515	0.0137002
687.593	0.0137805
687.671	0.0138344
687.749	0.0138539
687.828	0.0137237
687.906	0.0137553
687.984	0.0137439
688.062	0.0137912
688.140	0.0135720
688.218	0.0138058
688.296	0.0137208
688.374	0.0136646
688.453	0.0135825
688.531	0.0136996
688.609	0.0137828
688.687	0.0136459
688.765	0.0136327
688.843	0.0138976
688.921	0.0138326
688.999	0.0139035
689.078	0.0138416
689.156	0.0138335
689.234	0.0137820
689.312	0.0138170
689.390	0.0137986
689.468	0.0137410
689.546	0.0137444
689.624	0.0137257
689.703	0.0138148
689.781	0.0138058
689.859	0.0138270
689.937	0.0138616
690.015	0.0140454
690.093	0.0140342
690.171	0.0139391
690.249	0.0141186
690.328	0.0141022
690.406	0.0140221
690.484	0.0140028
690.562	0.0139263
690.640	0.0136585
690.718	0.0137339
690.796	0.0136304
690.874	0.0134393
690.953	0.0134356
691.031	0.0134600
691.109	0.0135187
691.187	0.0135043
691.265	0.0133871
691.343	0.0135609
691.421	0.0137355
691.499	0.0137758
691.578	0.0139481
691.656	0.0140334
691.734	0.0140908
691.812	0.0141222
691.890	0.0142565
691.968	0.0142197
692.046	0.0141011
692.124	0.0141076
692.203	0.0140977
692.281	0.0139953
692.359	0.0139771
692.437	0.0137949
692.515	0.0136041
692.593	0.0137475
692.671	0.0136440
692.749	0.0135593
692.828	0.0135615
692.906	0.0134882
692.984	0.0134039
693.062	0.0136411
693.140	0.0135217
693.218	0.0136368
693.296	0.0136352
693.374	0.0136816
693.453	0.0138988
693.531	0.0137618
693.609	0.0139045
693.687	0.0138920
693.765	0.0139866
693.843	0.0139800
693.921	0.0140411
693.999	0.0138849
694.078	0.0138058
694.156	0.0139164
694.234	0.0137561
694.312	0.0136333
694.390	0.0135472
694.468	0.0135305
694.546	0.0136343
694.624	0.0136585
694.703	0.0135078
694.781	0.0135300
694.859	0.0135017
694.937	0.0134966
695.015	0.0135842
695.093	0.0136668
695.171	0.0136224
695.249	0.0137054
695.328	0.0135841
695.406	0.0136739
695.484	0.0137695
695.562	0.0137614
695.640	0.0137675
695.718	0.0138257
695.796	0.0139416
695.874	0.0139309
695.953	0.0137853
696.031	0.0139442
696.109	0.0138545
696.187	0.0140214
696.265	0.0138383
696.343	0.0139609
696.421	0.0138523
696.499	0.0136864
696.578	0.0135731
696.656	0.0137227
696.734	0.0136385
696.812	0.0134558
696.890	0.0133132
696.968	0.0133591
697.046	0.0134483
697.124	0.0134213
697.203	0.0133535
697.281	0.0135447
697.359	0.0134789
697.437	0.0135342
697.515	0.0136484
697.593	0.0137494
697.671	0.0137402
697.749	0.0137538
697.828	0.0138188
697.906	0.0137428
697.984	0.0136739
698.062	0.0137862
698.140	0.0137708
698.218	0.0136438
698.296	0.0136903
698.374	0.0135960
698.453	0.0136736
698.531	0.0135715
698.609	0.0135110
698.687	0.0134216
698.765	0.0134721
698.843	0.0136194
698.921	0.0135892
698.999	0.0135905
699.078	0.0135805
699.156	0.0136250
699.234	0.0136625
699.312	0.0137560
699.390	0.0138664
699.468	0.0139291
699.546	0.0140214
699.624	0.0138688
699.703	0.0139400
699.781	0.0138152
699.859	0.0138013
699.937	0.0138554
700.015	0.0138445
700.093	0.0137855
700.171	0.0138621
700.249	0.0136607
700.328	0.0135152
700.406	0.0136096
700.484	0.0134606
700.562	0.0135530
700.640	0.0135853
700.718	0.0136006
700.796	0.0135982
700.874	0.0135674
700.953	0.0137470
701.031	0.0137141
701.109	0.0137166
701.187	0.0138345
701.265	0.0139283
701.343	0.0137711
701.421	0.0140064
701.499	0.0137373
701.578	0.0138420
701.656	0.0138514
701.734	0.0137707
701.812	0.0139270
701.890	0.0137028
701.968	0.0138232
702.046	0.0137896
702.124	0.0137389
702.203	0.0136703
702.281	0.0137672
702.359	0.0137492
702.437	0.0138560
702.515	0.0137498
702.593	0.0137567
702.671	0.0137852
702.749	0.0137281
702.828	0.0136128
702.906	0.0137246
702.984	0.0137753
703.062	0.0137608
703.140	0.0136918
703.218	0.0137093
703.296	0.0136761
703.374	0.0137387
703.453	0.0136037
703.531	0.0136951
703.609	0.0137296
703.687	0.0137857
703.765	0.0137076
703.843	0.0137572
703.921	0.0138280
703.999	0.0137764
704.078	0.0138643
704.156	0.0138947
704.234	0.0139143
704.312	0.0138922
704.390	0.0140067
704.468	0.0140768
704.546	0.0139328
704.624	0.0140723
704.703	0.0139915
704.781	0.0138712
704.859	0.0139679
704.937	0.0140410
705.015	0.0140576
705.093	0.0139295
705.171	0.0137926
705.249	0.0137449
705.328	0.0138293
705.406	0.0139461
705.484	0.0137860
705.562	0.0138908
705.640	0.0136210
705.718	0.0136948
705.796	0.0136375
705.874	0.0135526
705.953	0.0136295
706.031	0.0137898
706.109	0.0136230
706.187	0.0135837
706.265	0.0136529
706.343	0.0136784
706.421	0.0136651
706.499	0.0137548
706.578	0.0136817
706.656	0.0138728
706.734	0.0139188
706.812	0.0136980
706.890	0.0138658
706.968	0.0138930
707.046	0.0137253
707.124	0.0138202
707.203	0.0138854
707.281	0.0138571
707.359	0.0138474
707.437	0.0139323
707.515	0.0138210
707.593	0.0139210
707.671	0.0139304
707.749	0.0139801
707.828	0.0138763
707.906	0.0139169
707.984	0.0138875
708.062	0.0139748
708.140	0.0140298
708.218	0.0139314
708.296	0.0140536
708.374	0.0140265
708.453	0.0140219
708.531	0.0141195
708.609	0.0141711
708.687	0.0142625
708.765	0.0141726
708.843	0.0141293
708.921	0.0142144
708.999	0.0141593
709.078	0.0141310
709.156	0.0141586
709.234	0.0140861
709.312	0.0139591
709.390	0.0138711
709.468	0.0138798
709.546	0.0136781
709.624	0.0138287
709.703	0.0136950
709.781	0.0136615
709.859	0.0137008
709.937	0.0135160
710.015	0.0136942
710.093	0.0136315
710.171	0.0135615
710.249	0.0137878
710.328	0.0137851
710.406	0.0137624
710.484	0.0137245
710.562	0.0138342
710.640	0.0138754
710.718	0.0139105
710.796	0.0137263
710.874	0.0136646
710.953	0.0138997
711.031	0.0138082
711.109	0.0137349
711.187	0.0139159
711.265	0.0138458
711.343	0.0136652
711.421	0.0138625
711.499	0.0138273
711.578	0.0139430
711.656	0.0136521
711.734	0.0136729
711.812	0.0137216
711.890	0.0137099
711.968	0.0138399
712.046	0.0136982
712.124	0.0137236
712.203	0.0136975
712.281	0.0137883
712.359	0.0138268
712.437	0.0137289
712.515	0.0137839
712.593	0.0136909
712.671	0.0136939
712.749	0.0136915
712.828	0.0136850
712.906	0.0137115
712.984	0.0137622
713.062	0.0136961
713.140	0.0137152
713.218	0.0137398
713.296	0.0137329
713.374	0.0136478
713.453	0.0138313
713.531	0.0137915
713.609	0.0138106
713.687	0.0138358
713.765	0.0138214
713.843	0.0137479
713.921	0.0138114
713.999	0.0138132
714.078	0.0136202
714.156	0.0137029
714.234	0.0137352
714.312	0.0137189
714.390	0.0136160
714.468	0.0136543
714.546	0.0136540
714.624	0.0135482
714.703	0.0135972
714.781	0.0135837
714.859	0.0135828
714.937	0.0136282
715.015	0.0136380
715.093	0.0136761
715.171	0.0136846
715.249	0.0136525
715.328	0.0137815
715.406	0.0139153
715.484	0.0137135
715.562	0.0138694
715.640	0.0139130
715.718	0.0140012
715.796	0.0139930
715.874	0.0140501
715.953	0.0138528
716.031	0.0138407
716.109	0.0140135
716.187	0.0137578
716.265	0.0137953
716.343	0.0138288
716.421	0.0138248
716.499	0.0138134
716.578	0.0138392
716.656	0.0137110
716.734	0.0137542
716.812	0.0137016
716.890	0.0137715
716.968	0.0137643
717.046	0.0137346
717.124	0.0137827
717.203	0.0137029
717.281	0.0138188
717.359	0.0138157
717.437	0.0139129
717.515	0.0140065
717.593	0.0138893
717.671	0.0140227
717.749	0.0140620
717.828	0.0139684
717.906	0.0138525
717.984	0.0139300
718.062	0.0140558
718.140	0.0141513
718.218	0.0139444
718.296	0.0140068
718.374	0.0140219
718.453	0.0139527
718.531	0.0139677
718.609	0.0139765
718.687	0.0138897
718.765	0.0140273
718.843	0.0138037
718.921	0.0137350
718.999	0.0137536
719.078	0.0138284
719.156	0.0137522
719.234	0.0137466
719.312	0.0135934
719.390	0.0137916
719.468	0.0137486
719.546	0.0137729
719.624	0.0137358
719.703	0.0137655
719.781	0.0137861
719.859	0.0138028
719.937	0.0137377
720.015	0.0137426
720.093	0.0138001
720.171	0.0138476
720.249	0.0137513
720.328	0.0139296
720.406	0.0137638
720.484	0.0137062
720.562	0.0136431
720.640	0.0135460
720.718	0.0136093
720.796	0.0136923
720.874	0.0137554
720.953	0.0135843
721.031	0.0136575
721.109	0.0135195
721.187	0.0136069
721.265	0.0137177
721.343	0.0136810
721.421	0.0135093
721.499	0.0136769
721.578	0.0139043
721.656	0.0136151
721.734	0.0136096
721.812	0.0138032
721.890	0.0136359
721.968	0.0137292
722.046	0.0138493
722.124	0.0137500
722.203	0.0138006
722.281	0.0137242
722.359	0.0136681
722.437	0.0135970
722.515	0.0137801
722.593	0.0137533
722.671	0.0136171
722.749	0.0137656
722.828	0.0138555
722.906	0.0138104
722.984	0.0138169
723.062	0.0136934
723.140	0.0137505
723.218	0.0137333
723.296	0.0135864
723.374	0.0136509
723.453	0.0136709
723.531	0.0136351
723.609	0.0137009
723.687	0.0137381
723.765	0.0136646
723.843	0.0138158
723.921	0.0138541
723.999	0.0136996
724.078	0.0135704
724.156	0.0137595
724.234	0.0136514
724.312	0.0137675
724.390	0.0138184
724.468	0.0138805
724.546	0.0137086
724.624	0.0135433
724.703	0.0136334
724.781	0.0137620
724.859	0.0137666
724.937	0.0136213
725.015	0.0136733
725.093	0.0134579
725.171	0.0136517
725.249	0.0136316
725.328	0.0135177
725.406	0.0134915
725.484	0.0134584
725.562	0.0134291
725.640	0.0136803
725.718	0.0136570
725.796	0.0135897
725.874	0.0135013
725.953	0.0136691
726.031	0.0136350
726.109	0.0135722
726.187	0.0137747
726.265	0.0135664
726.343	0.0136398
726.421	0.0136834
726.499	0.0136081
726.578	0.0136306
726.656	0.0136066
726.734	0.0136902
726.812	0.0139319
726.890	0.0137748
726.968	0.0137437
727.046	0.0137240
727.124	0.0137592
727.203	0.0137388
727.281	0.0137012
727.359	0.0136354
727.437	0.0136668
727.515	0.0138728
727.593	0.0137534
727.671	0.0135805
727.749	0.0137221
727.828	0.0135667
727.906	0.0137532
727.984	0.0136713
728.062	0.0136860
728.140	0.0137474
728.218	0.0136467
728.296	0.0136007
728.374	0.0136337
728.453	0.0136476
728.531	0.0138138
728.609	0.0137325
728.687	0.0137852
728.765	0.0137298
728.843	0.0139285
728.921	0.0137780
728.999	0.0139526
729.078	0.0139264
729.156	0.0137826
729.234	0.0138828
729.312	0.0138709
729.390	0.0137672
729.468	0.0138676
729.546	0.0139033
729.624	0.0137274
729.703	0.0137846
729.781	0.0139000
729.859	0.0137887
729.937	0.0137749
730.015	0.0138255
730.093	0.0138081
730.171	0.0138616
730.249	0.0139152
730.328	0.0139302
730.406	0.0138417
730.484	0.0138279
730.562	0.0138996
730.640	0.0138931
730.718	0.0139122
730.796	0.0138824
730.874	0.0137658
730.953	0.0140253
731.031	0.0138711
731.109	0.0138673
731.187	0.0139048
731.265	0.0138492
731.343	0.0137220
731.421	0.0137880
731.499	0.0138393
731.578	0.0138644
731.656	0.0137572
731.734	0.0137366
731.812	0.0138276
731.890	0.0137119
731.968	0.0137022
732.046	0.0137116
732.124	0.0137811
732.203	0.0136781
732.281	0.0137834
732.359	0.0139036
732.437	0.0138071
732.515	0.0137241
732.593	0.0138718
732.671	0.0136975
732.749	0.0137481
732.828	0.0137531
732.906	0.0137079
732.984	0.0138551
733.062	0.0137366
733.140	0.0139359
733.218	0.0137942
733.296	0.0137502
733.374	0.0137685
733.453	0.0138255
733.531	0.0137801
733.609	0.0138010
733.687	0.0138271
733.765	0.0137872
733.843	0.0137097
733.921	0.0138000
733.999	0.0137469
734.078	0.0137712
734.156	0.0136371
734.234	0.0136893
734.312	0.0136729
734.390	0.0138183
734.468	0.0137180
734.546	0.0136079
734.624	0.0136060
734.703	0.0137540
734.781	0.0138399
734.859	0.0138141
734.937	0.0138435
735.015	0.0137401
735.093	0.0136977
735.171	0.0136646
735.249	0.0138005
735.328	0.0138395
735.406	0.0137154
735.484	0.0136884
735.562	0.0138309
735.640	0.0138466
735.718	0.0137218
735.796	0.0138052
735.874	0.0137836
735.953	0.0138199
736.031	0.0138076
736.109	0.0137266
736.187	0.0137247
736.265	0.0136433
736.343	0.0137069
736.421	0.0136340
736.499	0.0136343
736.578	0.0135544
736.656	0.0137156
736.734	0.0137735
736.812	0.0138179
736.890	0.0138228
736.968	0.0138042
737.046	0.0137201
737.124	0.0137992
737.203	0.0138087
737.281	0.0137759
737.359	0.0137991
737.437	0.0137642
737.515	0.0136872
737.593	0.0138183
737.671	0.0138220
737.749	0.0138173
737.828	0.0137439
737.906	0.0136946
737.984	0.0136629
738.062	0.0136073
738.140	0.0136300
738.218	0.0136937
738.296	0.0136719
738.374	0.0138277
738.453	0.0136004
738.531	0.0133893
738.609	0.0136265
738.687	0.0137250
738.765	0.0136783
738.843	0.0136540
738.921	0.0136706
738.999	0.0137112
739.078	0.0137297
739.156	0.0139167
739.234	0.0137715
739.312	0.0138328
739.390	0.0137968
739.468	0.0137209
739.546	0.0137714
739.624	0.0138830
739.703	0.0136659
739.781	0.0137307
739.859	0.0137987
739.937	0.0138332
740.015	0.0138932
740.093	0.0137449
740.171	0.0137923
740.249	0.0137398
740.328	0.0137607
740.406	0.0135320
740.484	0.0135824
740.562	0.0136441
740.640	0.0136866
740.718	0.0136444
740.796	0.0135228
740.874	0.0136793
740.953	0.0135155
741.031	0.0137008
741.109	0.0137475
741.187	0.0136467
741.265	0.0137023
741.343	0.0137682
741.421	0.0137546
741.499	0.0137721
741.578	0.0137373
741.656	0.0138422
741.734	0.0139172
741.812	0.0138483
741.890	0.0138321
741.968	0.0137548
742.046	0.0138118
742.124	0.0139797
742.203	0.0138065
742.281	0.0138998
742.359	0.0138845
742.437	0.0139917
742.515	0.0137722
742.593	0.0138461
742.671	0.0137975
742.749	0.0138148
742.828	0.0138068
742.906	0.0137576
742.984	0.0138905
743.062	0.0138599
743.140	0.0138144
743.218	0.0137099
743.296	0.0136118
743.374	0.0136916
743.453	0.0137344
743.531	0.0138453
743.609	0.0136782
743.687	0.0135529
743.765	0.0138422
743.843	0.0138715
743.921	0.0138931
743.999	0.0138131
744.078	0.0137859
744.156	0.0137606
744.234	0.0138715
744.312	0.0139240
744.390	0.0138305
744.468	0.0138157
744.546	0.0137259
744.624	0.0137612
744.703	0.0138471
744.781	0.0138892
744.859	0.0137572
744.937	0.0137872
745.015	0.0137847
745.093	0.0137924
745.171	0.0138716
745.249	0.0139548
745.328	0.0137242
745.406	0.0137391
745.484	0.0138206
745.562	0.0138634
745.640	0.0138435
745.718	0.0138531
745.796	0.0138557
745.874	0.0138320
745.953	0.0138076
746.031	0.0137992
746.109	0.0137638
746.187	0.0138204
746.265	0.0136842
746.343	0.0137395
746.421	0.0138485
746.499	0.0137618
746.578	0.0137646
746.656	0.0136942
746.734	0.0135864
746.812	0.0137508
746.890	0.0137724
746.968	0.0136706
747.046	0.0137332
747.124	0.0138122
747.203	0.0139196
747.281	0.0138795
747.359	0.0136606
747.437	0.0138026
747.515	0.0137203
747.593	0.0137054
747.671	0.0137637
747.749	0.0136815
747.828	0.0138008
747.906	0.0138184
747.984	0.0138937
748.062	0.0138728
748.140	0.0138182
748.218	0.0138313
748.296	0.0138719
748.374	0.0138185
748.453	0.0138114
748.531	0.0137439
748.609	0.0138651
748.687	0.0137955
748.765	0.0138766
748.843	0.0138470
748.921	0.0139677
748.999	0.0138914
749.078	0.0138554
749.156	0.0138689
749.234	0.0137984
749.312	0.0138304
749.390	0.0137275
749.468	0.0138454
749.546	0.0137560
749.624	0.0137783
749.703	0.0137933
749.781	0.0137903
749.859	0.0137855
749.937	0.0136311
750.015	0.0138735
750.093	0.0138707
750.171	0.0138121
750.249	0.0137577
750.328	0.0137507
750.406	0.0139204
750.484	0.0139773
750.562	0.0137902
750.640	0.0136700
750.718	0.0136852
750.796	0.0138049
750.874	0.0137369
750.953	0.0136939
751.031	0.0135926
751.109	0.0136401
751.187	0.0136271
751.265	0.0137225
751.343	0.0137705
751.421	0.0136252
751.499	0.0135992
751.578	0.0136155
751.656	0.0135624
751.734	0.0137118
751.812	0.0136759
751.890	0.0136683
751.968	0.0137278
752.046	0.0137702
752.124	0.0137482
752.203	0.0137231
752.281	0.0137981
752.359	0.0138774
752.437	0.0136917
752.515	0.0136321
752.593	0.0137010
752.671	0.0136705
752.749	0.0139143
752.828	0.0138964
752.906	0.0137466
752.984	0.0137187
753.062	0.0137544
753.140	0.0136715
753.218	0.0138382
753.296	0.0137663
753.374	0.0137273
753.453	0.0138445
753.531	0.0137469
753.609	0.0137231
753.687	0.0137444
753.765	0.0138773
753.843	0.0138617
753.921	0.0139294
753.999	0.0138381
754.078	0.0139886
754.156	0.0137898
754.234	0.0137554
754.312	0.0138576
754.390	0.0138496
754.468	0.0140010
754.546	0.0139396
754.624	0.0138698
754.703	0.0138107
754.781	0.0137244
754.859	0.0137173
754.937	0.0137859
755.015	0.0138259
755.093	0.0137589
755.171	0.0137417
755.249	0.0137942
755.328	0.0138350
755.406	0.0137074
755.484	0.0136852
755.562	0.0137589
755.640	0.0138038
755.718	0.0137807
755.796	0.0135957
755.874	0.0138551
755.953	0.0138139
756.031	0.0136885
756.109	0.0137905
756.187	0.0137819
756.265	0.0136402
756.343	0.0137552
756.421	0.0136581
756.499	0.0137412
756.578	0.0137048
756.656	0.0138063
756.734	0.0137778
756.812	0.0136542
756.890	0.0136396
756.968	0.0137872
757.046	0.0137572
757.124	0.0137054
757.203	0.0137450
757.281	0.0137239
757.359	0.0137859
757.437	0.0136676
757.515	0.0136252
757.593	0.0137256
757.671	0.0138248
757.749	0.0136836
757.828	0.0138181
757.906	0.0138114
757.984	0.0136971
758.062	0.0138258
758.140	0.0136626
758.218	0.0136267
758.296	0.0137922
758.374	0.0136970
758.453	0.0136733
758.531	0.0136789
758.609	0.0136314
758.687	0.0137467
758.765	0.0137955
758.843	0.0135424
758.921	0.0137894
758.999	0.0137018
759.078	0.0138175
759.156	0.0137415
759.234	0.0136699
759.312	0.0137078
759.390	0.0136800
759.468	0.0137301
759.546	0.0136346
759.624	0.0136290
759.703	0.0137114
759.781	0.0137391
759.859	0.0135549
759.937	0.0136081
760.015	0.0135372
760.093	0.0136659
760.171	0.0136826
760.249	0.0135573
760.328	0.0135148
760.406	0.0136150
760.484	0.0137292
760.562	0.0137222
760.640	0.0135630
760.718	0.0135983
760.796	0.0135324
760.874	0.0134845
760.953	0.0137602
761.031	0.0138612
761.109	0.0137762
761.187	0.0137395
761.265	0.0137675
761.343	0.0137967
761.421	0.0138719
761.499	0.0139068
761.578	0.0139475
761.656	0.0137767
761.734	0.0137885
761.812	0.0140135
761.890	0.0138007
761.968	0.0136820
762.046	0.0138059
762.124	0.0137862
762.203	0.0137778
762.281	0.0137653
762.359	0.0136815
762.437	0.0136755
762.515	0.0135194
762.593	0.0138139
762.671	0.0137141
762.749	0.0136275
762.828	0.0136879
762.906	0.0135473
762.984	0.0136012
763.062	0.0136888
763.140	0.0136482
763.218	0.0137491
763.296	0.0137784
763.374	0.0136814
763.453	0.0137251
763.531	0.0137593
763.609	0.0137656
763.687	0.0137761
763.765	0.0137176
763.843	0.0137228
763.921	0.0137177
763.999	0.0137568
764.078	0.0137550
764.156	0.0137043
764.234	0.0137984
764.312	0.0138326
764.390	0.0138248
764.468	0.0137077
764.546	0.0137820
764.624	0.0138368
764.703	0.0138598
764.781	0.0137206
764.859	0.0138214
764.937	0.0137968
765.015	0.0137176
765.093	0.0139076
765.171	0.0138695
765.249	0.0137309
765.328	0.0138699
765.406	0.0138882
765.484	0.0139973
765.562	0.0137595
765.640	0.0137128
765.718	0.0136887
765.796	0.0136240
765.874	0.0139410
765.953	0.0138601
766.031	0.0138435
766.109	0.0137646
766.187	0.0139333
766.265	0.0140256
766.343	0.0138766
766.421	0.0138307
766.499	0.0136337
766.578	0.0138367
766.656	0.0138045
766.734	0.0140043
766.812	0.0138032
766.890	0.0139606
766.968	0.0137638
767.046	0.0137888
767.124	0.0137527
767.203	0.0138183
767.281	0.0139349
767.359	0.0139297
767.437	0.0138341
767.515	0.0138280
767.593	0.0138000
767.671	0.0137629
767.749	0.0139021
767.828	0.0137655
767.906	0.0138615
767.984	0.0138599
768.062	0.0138722
768.140	0.0139111
768.218	0.0139406
768.296	0.0138753
768.374	0.0138326
768.453	0.0138396
768.531	0.0138406
768.609	0.0138407
768.687	0.0137371
768.765	0.0137392
768.843	0.0138626
768.921	0.0137994
768.999	0.0136700
769.078	0.0138007
769.156	0.0137901
769.234	0.0138886
769.312	0.0136426
769.390	0.0138329
769.468	0.0137110
769.546	0.0137482
769.624	0.0136807
769.703	0.0137974
769.781	0.0134956
769.859	0.0136725
769.937	0.0136899
770.015	0.0135615
770.093	0.0136810
770.171	0.0137199
770.249	0.0137185
770.328	0.0137351
770.406	0.0137351
770.484	0.0136822
770.562	0.0135768
770.640	0.0135489
770.718	0.0135433
770.796	0.0136979
770.874	0.0135755
770.953	0.0137429
771.031	0.0137064
771.109	0.0136500
771.187	0.0137323
771.265	0.0138180
771.343	0.0136593
771.421	0.0137132
771.499	0.0136654
771.578	0.0137126
771.656	0.0136446
771.734	0.0137000
771.812	0.0137827
771.890	0.0136840
771.968	0.0136919
772.046	0.0137817
772.124	0.0138022
772.203	0.0137855
772.281	0.0135244
772.359	0.0137003
772.437	0.0137048
772.515	0.0137281
772.593	0.0136543
772.671	0.0137185
772.749	0.0137947
772.828	0.0137019
772.906	0.0136628
772.984	0.0137956
773.062	0.0138016
773.140	0.0137870
773.218	0.0136709
773.296	0.0135608
773.374	0.0138105
773.453	0.0136949
773.531	0.0137974
773.609	0.0136773
773.687	0.0136677
773.765	0.0138316
773.843	0.0137256
773.921	0.0135812
773.999	0.0136727
774.078	0.0137802
774.156	0.0138174
774.234	0.0136235
774.312	0.0137153
774.390	0.0136868
774.468	0.0138110
774.546	0.0137124
774.624	0.0136967
774.703	0.0138148
774.781	0.0137637
774.859	0.0137630
774.937	0.0137579
775.015	0.0139803
775.093	0.0139049
775.171	0.0138831
775.249	0.0140665
775.328	0.0138062
775.406	0.0138049
775.484	0.0138943
775.562	0.0138390
775.640	0.0139473
775.718	0.0139067
775.796	0.0136773
775.874	0.0138032
775.953	0.0138471
776.031	0.0139600
776.109	0.0139714
776.187	0.0137270
776.265	0.0138487
776.343	0.0137059
776.421	0.0140077
776.499	0.0138849
776.578	0.0137424
776.656	0.0137486
776.734	0.0138360
776.812	0.0139143
776.890	0.0138821
776.968	0.0137667
777.046	0.0137885
777.124	0.0138888
777.203	0.0138610
777.281	0.0138001
777.359	0.0138902
777.437	0.0138551
777.515	0.0138558
777.593	0.0138740
777.671	0.0138641
777.749	0.0139571
777.828	0.0139213
777.906	0.0137579
777.984	0.0138496
778.062	0.0139248
778.140	0.0138631
778.218	0.0140057
778.296	0.0140247
778.374	0.0140047
778.453	0.0139859
778.531	0.0139134
778.609	0.0138768
778.687	0.0137441
778.765	0.0138533
778.843	0.0139454
778.921	0.0139429
778.999	0.0137626
779.078	0.0139349
779.156	0.0139848
779.234	0.0139040
779.312	0.0138696
779.390	0.0138942
779.468	0.0138811
779.546	0.0137276
779.624	0.0138631
779.703	0.0140479
779.781	0.0137925
779.859	0.0137849
779.937	0.0138345
780.015	0.0138525
780.093	0.0138595
780.171	0.0137882
780.249	0.0137194
780.328	0.0137798
780.406	0.0138333
780.484	0.0138214
780.562	0.0138794
780.640	0.0138776
780.718	0.0140105
780.796	0.0137279
780.874	0.0138575
780.953	0.0137315
781.031	0.0136375
781.109	0.0138407
781.187	0.0138192
781.265	0.0137914
781.343	0.0139289
781.421	0.0137931
781.499	0.0137830
781.578	0.0136729
781.656	0.0138862
781.734	0.0136149
781.812	0.0137412
781.890	0.0136154
781.968	0.0137301
782.046	0.0136866
782.124	0.0138128
782.203	0.0137370
782.281	0.0136234
782.359	0.0135546
782.437	0.0137254
782.515	0.0137898
782.593	0.0138198
782.671	0.0137387
782.749	0.0135966
782.828	0.0136896
782.906	0.0137711
782.984	0.0137434
783.062	0.0137911
783.140	0.0137977
783.218	0.0137045
783.296	0.0137282
783.374	0.0138664
783.453	0.0138792
783.531	0.0138220
783.609	0.0137336
783.687	0.0137979
783.765	0.0137859
783.843	0.0138335
783.921	0.0138023
783.999	0.0136924
784.078	0.0137468
784.156	0.0137982
784.234	0.0137581
784.312	0.0137197
784.390	0.0136237
784.468	0.0137440
784.546	0.0137385
784.624	0.0138098
784.703	0.0137308
784.781	0.0137543
784.859	0.0137287
784.937	0.0137930
785.015	0.0137798
785.093	0.0137462
785.171	0.0138138
785.249	0.0137372
785.328	0.0137341
785.406	0.0136716
785.484	0.0137517
785.562	0.0136440
785.640	0.0136559
785.718	0.0136964
785.796	0.0137767
785.874	0.0137694
785.953	0.0138299
786.031	0.0137093
786.109	0.0137243
786.187	0.0136730
786.265	0.0138137
786.343	0.0136808
786.421	0.0137429
786.499	0.0137389
786.578	0.0138196
786.656	0.0136782
786.734	0.0137640
786.812	0.0139232
786.890	0.0138703
786.968	0.0138629
787.046	0.0137540
787.124	0.0136594
787.203	0.0135045
787.281	0.0136827
787.359	0.0138746
787.437	0.0137263
787.515	0.0136154
787.593	0.0137710
787.671	0.0137245
787.749	0.0137716
787.828	0.0137728
787.906	0.0137423
787.984	0.0138066
788.062	0.0137735
788.140	0.0137440
788.218	0.0137882
788.296	0.0137330
788.374	0.0137408
788.453	0.0137567
788.531	0.0136006
788.609	0.0136142
788.687	0.0137502
788.765	0.0137153
788.843	0.0136984
788.921	0.0137285
788.999	0.0137934
789.078	0.0136712
789.156	0.0135971
789.234	0.0137653
789.312	0.0136954
789.390	0.0135767
789.468	0.0137554
789.546	0.0136858
789.624	0.0136518
789.703	0.0137278
789.781	0.0137154
789.859	0.0136253
789.937	0.0138206
790.015	0.0137704
790.093	0.0136204
790.171	0.0137031
790.249	0.0137843
790.328	0.0137836
790.406	0.0137249
790.484	0.0138058
790.562	0.0138242
790.640	0.0138189
790.718	0.0137547
790.796	0.0137284
790.874	0.0136898
790.953	0.0137540
791.031	0.0136080
791.109	0.0136682
791.187	0.0136302
791.265	0.0137340
791.343	0.0136101
791.421	0.0136801
791.499	0.0137749
791.578	0.0135894
791.656	0.0134524
791.734	0.0135786
791.812	0.0136639
791.890	0.0136240
791.968	0.0136243
792.046	0.0138042
792.124	0.0136989
792.203	0.0136526
792.281	0.0137148
792.359	0.0138199
792.437	0.0136572
792.515	0.0138292
792.593	0.0137808
792.671	0.0136984
792.749	0.0137494
792.828	0.0137251
792.906	0.0136238
792.984	0.0135738
793.062	0.0137190
793.140	0.0137212
793.218	0.0136958
793.296	0.0136280
793.374	0.0135875
793.453	0.0137674
793.531	0.0136819
793.609	0.0135617
793.687	0.0135550
793.765	0.0136980
793.843	0.0137684
793.921	0.0137987
793.999	0.0137221
794.078	0.0136431
794.156	0.0136828
794.234	0.0136259
794.312	0.0137515
794.390	0.0137762
794.468	0.0137765
794.546	0.0137196
794.624	0.0136918
794.703	0.0136860
794.781	0.0138918
794.859	0.0137034
794.937	0.0136980
795.015	0.0139193
795.093	0.0138894
795.171	0.0136845
795.249	0.0138903
795.328	0.0137664
795.406	0.0138605
795.484	0.0138186
795.562	0.0138602
795.640	0.0138065
795.718	0.0138011
795.796	0.0137127
795.874	0.0137363
795.953	0.0137360
796.031	0.0138911
796.109	0.0137487
796.187	0.0138157
796.265	0.0137054
796.343	0.0138339
796.421	0.0136779
796.499	0.0137218
796.578	0.0137526
796.656	0.0138705
796.734	0.0137879
796.812	0.0137273
796.890	0.0137974
796.968	0.0139580
797.046	0.0136787
797.124	0.0137321
797.203	0.0138790
797.281	0.0139390
797.359	0.0138268
797.437	0.0138940
797.515	0.0138409
797.593	0.0138615
797.671	0.0136444
797.749	0.0137230
797.828	0.0137452
797.906	0.0136783
797.984	0.0136927
798.062	0.0137422
798.140	0.0136579
798.218	0.0136325
798.296	0.0135690
798.374	0.0138520
798.453	0.0137433
798.531	0.0136784
798.609	0.0136095
798.687	0.0136845
798.765	0.0137447
798.843	0.0137862
798.921	0.0138519
798.999	0.0137454
799.078	0.0137551
799.156	0.0137072
799.234	0.0137930
799.312	0.0137173
799.390	0.0137823
799.468	0.0137961
799.546	0.0138092
799.624	0.0136894
799.703	0.0138049
799.781	0.0138537
799.859	0.0137256
799.937	0.0138676
800.015	0.0136347
800.093	0.0135973
800.171	0.0136994
800.249	0.0137490
800.328	0.0137134
800.406	0.0137527
800.484	0.0137577
800.562	0.0136705
800.640	0.0137495
800.718	0.0135972
800.796	0.0136572
800.874	0.0136710
800.953	0.0136428
801.031	0.0137348
801.109	0.0138308
801.187	0.0138023
801.265	0.0135078
801.343	0.0136922
801.421	0.0137865
801.499	0.0136784
801.578	0.0136958
801.656	0.0137778
801.734	0.0137598
801.812	0.0136445
801.890	0.0137576
801.968	0.0137976
802.046	0.0138860
802.124	0.0137943
802.203	0.0136279
802.281	0.0137141
802.359	0.0136873
802.437	0.0137090
802.515	0.0138070
802.593	0.0136983
802.671	0.0137516
802.749	0.0137538
802.828	0.0136281
802.906	0.0137244
802.984	0.0139449
803.062	0.0138385
803.140	0.0138152
803.218	0.0140256
803.296	0.0138660
803.374	0.0137744
803.453	0.0139339
803.531	0.0138513
803.609	0.0138046
803.687	0.0138085
803.765	0.0139317
803.843	0.0138872
803.921	0.0139585
803.999	0.0138921
804.078	0.0137115
804.156	0.0137769
804.234	0.0138491
804.312	0.0137743
804.390	0.0139104
804.468	0.0138446
804.546	0.0138636
804.624	0.0138718
804.703	0.0138713
804.781	0.0138859
804.859	0.0138920
804.937	0.0139182
805.015	0.0139379
805.093	0.0140138
805.171	0.0139121
805.249	0.0139818
805.328	0.0137927
805.406	0.0138131
805.484	0.0139740
805.562	0.0138368
805.640	0.0138773
805.718	0.0138039
805.796	0.0137590
805.874	0.0139602
805.953	0.0138592
806.031	0.0137128
806.109	0.0137592
806.187	0.0137946
806.265	0.0138345
806.343	0.0137307
806.421	0.0139045
806.499	0.0138394
806.578	0.0138397
806.656	0.0137616
806.734	0.0136938
806.812	0.0136845
806.890	0.0137923
806.968	0.0137996
807.046	0.0138785
807.124	0.0137589
807.203	0.0137393
807.281	0.0136118
807.359	0.0135316
807.437	0.0137593
807.515	0.0135712
807.593	0.0135685
807.671	0.0137085
807.749	0.0137700
807.828	0.0136690
807.906	0.0136128
807.984	0.0137247
808.062	0.0138477
808.140	0.0137965
808.218	0.0137421
808.296	0.0137163
808.374	0.0135175
808.453	0.0137633
808.531	0.0137389
808.609	0.0137668
808.687	0.0138489
808.765	0.0136327
808.843	0.0136717
808.921	0.0137866
808.999	0.0136856
809.078	0.0137552
809.156	0.0138035
809.234	0.0137173
809.312	0.0137305
809.390	0.0137346
809.468	0.0138037
809.546	0.0138006
809.624	0.0137573
809.703	0.0136729
809.781	0.0138361
809.859	0.0136126
809.937	0.0138044
810.015	0.0139510
810.093	0.0138427
810.171	0.0138808
810.249	0.0139756
810.328	0.0137967
810.406	0.0138451
810.484	0.0137830
810.562	0.0137774
810.640	0.0138187
810.718	0.0138448
810.796	0.0138432
810.874	0.0137312
810.953	0.0138078
811.031	0.0139087
811.109	0.0137846
811.187	0.0137992
811.265	0.0137787
811.343	0.0138618
811.421	0.0138683
811.499	0.0139115
811.578	0.0139375
811.656	0.0136969
811.734	0.0140305
811.812	0.0138548
811.890	0.0137783
811.968	0.0138604
812.046	0.0139797
812.124	0.0137295
812.203	0.0137487
812.281	0.0137170
812.359	0.0137883
812.437	0.0137840
812.515	0.0137860
812.593	0.0137551
812.671	0.0136546
812.749	0.0136945
812.828	0.0137277
812.906	0.0136144
812.984	0.0136886
813.062	0.0136820
813.140	0.0138169
813.218	0.0137421
813.296	0.0136847
813.374	0.0136984
813.453	0.0136473
813.531	0.0136987
813.609	0.0137920
813.687	0.0138045
813.765	0.0138574
813.843	0.0138107
813.921	0.0137824
813.999	0.0137115
814.078	0.0138586
814.156	0.0138262
814.234	0.0138116
814.312	0.0137918
814.390	0.0137990
814.468	0.0137118
814.546	0.0138767
814.624	0.0137653
814.703	0.0138969
814.781	0.0138582
814.859	0.0137259
814.937	0.0137213
815.015	0.0137972
815.093	0.0137858
815.171	0.0136166
815.249	0.0138068
815.328	0.0139070
815.406	0.0137690
815.484	0.0138109
815.562	0.0138021
815.640	0.0137338
815.718	0.0136890
815.796	0.0137959
815.874	0.0137535
815.953	0.0136909
816.031	0.0137619
816.109	0.0138335
816.187	0.0137820
816.265	0.0136624
816.343	0.0137010
816.421	0.0137520
816.499	0.0137425
816.578	0.0137161
816.656	0.0136343
816.734	0.0138335
816.812	0.0136869
816.890	0.0138099
816.968	0.0137115
817.046	0.0136816
817.124	0.0137873
817.203	0.0137311
817.281	0.0138311
817.359	0.0136637
817.437	0.0136995
817.515	0.0137582
817.593	0.0135101
817.671	0.0137183
817.749	0.0136350
817.828	0.0137063
817.906	0.0136327
817.984	0.0139143
818.062	0.0136018
818.140	0.0137257
818.218	0.0137447
818.296	0.0137914
818.374	0.0137450
818.453	0.0136375
818.531	0.0136181
818.609	0.0136856
818.687	0.0136744
818.765	0.0137384
818.843	0.0136424
818.921	0.0138098
818.999	0.0136230
819.078	0.0137173
819.156	0.0136798
819.234	0.0137297
819.312	0.0137056
819.390	0.0137759
819.468	0.0137311
819.546	0.0137110
819.624	0.0136929
819.703	0.0137836
819.781	0.0138336
819.859	0.0136864
819.937	0.0137884
820.015	0.0137919
820.093	0.0138271
820.171	0.0137790
820.249	0.0137447
820.328	0.0139062
820.406	0.0139553
820.484	0.0137779
820.562	0.0137063
820.640	0.0138475
820.718	0.0137959
820.796	0.0137034
820.874	0.0136504
820.953	0.0137086
821.031	0.0135630
821.109	0.0137263
821.187	0.0136298
821.265	0.0136932
821.343	0.0137643
821.421	0.0136574
821.499	0.0136950
821.578	0.0136366
821.656	0.0136214
821.734	0.0138841
821.812	0.0137534
821.890	0.0136111
821.968	0.0135712
822.046	0.0136591
822.124	0.0137069
822.203	0.0137886
822.281	0.0137498
822.359	0.0138120
822.437	0.0136461
822.515	0.0136885
822.593	0.0137836
822.671	0.0137356
822.749	0.0136772
822.828	0.0138226
822.906	0.0136823
822.984	0.0136743
823.062	0.0135618
823.140	0.0135653
823.218	0.0137489
823.296	0.0135582
823.374	0.0137487
823.453	0.0136507
823.531	0.0136486
823.609	0.0137599
823.687	0.0135122
823.765	0.0136636
823.843	0.0136703
823.921	0.0135925
823.999	0.0137090
824.078	0.0136414
824.156	0.0136504
824.234	0.0135992
824.312	0.0137431
824.390	0.0137298
824.468	0.0136820
824.546	0.0138154
824.624	0.0137657
824.703	0.0137241
824.781	0.0137272
824.859	0.0138776
824.937	0.0138082
825.015	0.0137078
825.093	0.0136839
825.171	0.0137360
825.249	0.0138992
825.328	0.0137660
825.406	0.0138232
825.484	0.0137781
825.562	0.0137203
825.640	0.0137704
825.718	0.0137212
825.796	0.0137352
825.874	0.0138013
825.953	0.0138267
826.031	0.0135614
826.109	0.0137961
826.187	0.0137925
826.265	0.0137888
826.343	0.0137459
826.421	0.0137082
826.499	0.0137463
826.578	0.0137827
826.656	0.0137764
826.734	0.0138264
826.812	0.0138052
826.890	0.0138707
826.968	0.0138223
827.046	0.0138470
827.124	0.0138750
827.203	0.0138866
827.281	0.0136881
827.359	0.0138083
827.437	0.0137617
827.515	0.0136268
827.593	0.0136912
827.671	0.0137215
827.749	0.0137870
827.828	0.0136566
827.906	0.0136771
827.984	0.0136704
828.062	0.0136577
828.140	0.0136135
828.218	0.0136642
828.296	0.0137582
828.374	0.0136725
828.453	0.0138309
828.531	0.0137450
828.609	0.0138573
828.687	0.0137611
828.765	0.0138861
828.843	0.0138387
828.921	0.0137498
828.999	0.0138035
829.078	0.0136884
829.156	0.0138914
829.234	0.0137028
829.312	0.0136586
829.390	0.0136025
829.468	0.0139033
829.546	0.0138389
829.624	0.0137192
829.703	0.0137235
829.781	0.0138365
829.859	0.0137595
829.937	0.0137395
830.015	0.0137045
830.093	0.0138198
830.171	0.0138091
830.249	0.0137389
830.328	0.0137376
830.406	0.0135897
830.484	0.0137125
830.562	0.0136832
830.640	0.0136345
830.718	0.0138332
830.796	0.0137321
830.874	0.0138010
830.953	0.0137076
831.031	0.0137214
831.109	0.0136411
831.187	0.0137112
831.265	0.0137920
831.343	0.0136961
831.421	0.0136259
831.499	0.0136810
831.578	0.0138151
831.656	0.0137179
831.734	0.0137672
831.812	0.0137904
831.890	0.0137871
831.968	0.0137236
832.046	0.0136745
832.124	0.0137864
832.203	0.0136656
832.281	0.0136311
832.359	0.0136651
832.437	0.0136860
832.515	0.0136655
832.593	0.0138114
832.671	0.0137309
832.749	0.0137209
832.828	0.0137742
832.906	0.0136082
832.984	0.0137410
833.062	0.0137624
833.140	0.0137794
833.218	0.0139279
833.296	0.0138022
833.374	0.0137516
833.453	0.0137346
833.531	0.0137838
833.609	0.0138813
833.687	0.0138457
833.765	0.0138087
833.843	0.0136965
833.921	0.0139115
833.999	0.0139793
834.078	0.0138146
834.156	0.0138400
834.234	0.0139423
834.312	0.0139541
834.390	0.0139070
834.468	0.0138508
834.546	0.0138423
834.624	0.0138035
834.703	0.0137750
834.781	0.0137769
834.859	0.0138530
834.937	0.0138933
835.015	0.0137726
835.093	0.0136637
835.171	0.0138937
835.249	0.0139892
835.328	0.0138763
835.406	0.0138364
835.484	0.0139919
835.562	0.0139412
835.640	0.0137314
835.718	0.0139242
835.796	0.0137756
835.874	0.0139165
835.953	0.0140820
836.031	0.0138455
836.109	0.0138226
836.187	0.0139731
836.265	0.0137798
836.343	0.0138227
836.421	0.0139908
836.499	0.0140111
836.578	0.0139057
836.656	0.0138675
836.734	0.0139169
836.812	0.0137956
836.890	0.0136838
836.968	0.0139215
837.046	0.0138535
837.124	0.0137422
837.203	0.0138654
837.281	0.0137844
837.359	0.0138403
837.437	0.0139705
837.515	0.0137473
837.593	0.0138018
837.671	0.0138730
837.749	0.0137361
837.828	0.0138145
837.906	0.0137489
837.984	0.0138013
838.062	0.0138304
838.140	0.0138422
838.218	0.0138585
838.296	0.0137120
838.374	0.0138345
838.453	0.0138347
838.531	0.0138352
838.609	0.0138499
838.687	0.0138041
838.765	0.0138111
838.843	0.0137727
838.921	0.0137707
838.999	0.0138108
839.078	0.0138272
839.156	0.0138782
839.234	0.0138179
839.312	0.0137521
839.390	0.0137227
839.468	0.0137770
839.546	0.0138871
839.624	0.0138303
839.703	0.0137740
839.781	0.0138469
839.859	0.0136297
839.937	0.0138676
840.015	0.0137748
840.093	0.0138238
840.171	0.0137311
840.249	0.0138370
840.328	0.0137656
840.406	0.0138066
840.484	0.0137063
840.562	0.0137193
840.640	0.0137683
840.718	0.0137556
840.796	0.0138889
840.874	0.0137788
840.953	0.0137685
841.031	0.0137971
841.109	0.0137167
841.187	0.0137580
841.265	0.0137733
841.343	0.0137053
841.421	0.0137212
841.499	0.0138924
841.578	0.0138458
841.656	0.0140118
841.734	0.0138387
841.812	0.0138795
841.890	0.0138979
841.968	0.0136531
842.046	0.0138791
842.124	0.0138275
842.203	0.0138058
842.281	0.0137598
842.359	0.0139011
842.437	0.0139307
842.515	0.0137659
842.593	0.0137482
842.671	0.0138821
842.749	0.0137950
842.828	0.0138783
842.906	0.0138474
842.984	0.0139176
843.062	0.0139378
843.140	0.0138920
843.218	0.0140289
843.296	0.0139610
843.374	0.0139051
843.453	0.0138464
843.531	0.0139318
843.609	0.0138322
843.687	0.0137964
843.765	0.0138683
843.843	0.0139904
843.921	0.0138346
843.999	0.0138046
844.078	0.0139027
844.156	0.0139625
844.234	0.0139141
844.312	0.0137344
844.390	0.0140160
844.468	0.0139847
844.546	0.0137676
844.624	0.0138946
844.703	0.0138195
844.781	0.0137231
844.859	0.0138102
844.937	0.0138072
845.015	0.0137012
845.093	0.0137521
845.171	0.0138337
845.249	0.0138470
845.328	0.0138504
845.406	0.0137862
845.484	0.0137918
845.562	0.0139113
845.640	0.0138516
845.718	0.0138074
845.796	0.0138100
845.874	0.0137908
845.953	0.0137467
846.031	0.0138690
846.109	0.0138321
846.187	0.0138126
846.265	0.0138101
846.343	0.0138525
846.421	0.0137766
846.499	0.0136968
846.578	0.0138764
846.656	0.0136559
846.734	0.0137779
846.812	0.0137562
846.890	0.0136800
846.968	0.0137279
847.046	0.0137122
847.124	0.0136761
847.203	0.0138628
847.281	0.0137759
847.359	0.0137840
847.437	0.0137890
847.515	0.0138312
847.593	0.0135841
847.671	0.0137112
847.749	0.0138680
847.828	0.0137425
847.906	0.0136646
847.984	0.0137505
848.062	0.0138202
848.140	0.0137115
848.218	0.0136501
848.296	0.0136446
848.374	0.0136839
848.453	0.0138468
848.531	0.0138510
848.609	0.0138837
848.687	0.0137892
848.765	0.0136600
848.843	0.0136533
848.921	0.0137614
848.999	0.0136768
849.078	0.0137669
849.156	0.0136072
849.234	0.0137685
849.312	0.0137664
849.390	0.0137856
849.468	0.0137261
849.546	0.0137885
849.624	0.0137980
849.703	0.0135533
849.781	0.0137069
849.859	0.0137410
849.937	0.0137579
850.015	0.0137386
850.093	0.0138213
850.171	0.0138581
850.249	0.0137491
850.328	0.0138423
850.406	0.0137907
850.484	0.0137752
850.562	0.0138821
850.640	0.0137194
850.718	0.0137718
850.796	0.0138172
850.874	0.0138073
850.953	0.0137618
851.031	0.0138486
851.109	0.0138030
851.187	0.0138820
851.265	0.0138288
851.343	0.0138364
851.421	0.0137748
851.499	0.0139810
851.578	0.0138671
851.656	0.0138425
851.734	0.0137997
851.812	0.0136985
851.890	0.0137286
851.968	0.0137496
852.046	0.0136161
852.124	0.0136914
852.203	0.0139049
852.281	0.0137570
852.359	0.0138122
852.437	0.0136774
852.515	0.0137283
852.593	0.0137749
852.671	0.0138277
852.749	0.0138766
852.828	0.0138081
852.906	0.0138834
852.984	0.0137605
853.062	0.0137481
853.140	0.0137029
853.218	0.0139044
853.296	0.0137839
853.374	0.0138785
853.453	0.0139388
853.531	0.0139208
853.609	0.0138067
853.687	0.0139535
853.765	0.0138847
853.843	0.0138717
853.921	0.0138073
853.999	0.0137667
854.078	0.0138093
854.156	0.0138216
854.234	0.0137804
854.312	0.0137973
854.390	0.0137749
854.468	0.0138662
854.546	0.0139385
854.624	0.0137185
854.703	0.0138766
854.781	0.0137811
854.859	0.0138303
854.937	0.0138151
855.015	0.0137274
855.093	0.0137473
855.171	0.0138481
855.249	0.0136508
855.328	0.0137521
855.406	0.0137352
855.484	0.0136653
855.562	0.0138122
855.640	0.0138300
855.718	0.0137021
855.796	0.0137868
855.874	0.0139461
855.953	0.0137011
856.031	0.0137164
856.109	0.0136346
856.187	0.0136856
856.265	0.0137358
856.343	0.0138483
856.421	0.0136957
856.499	0.0137908
856.578	0.0138002
856.656	0.0138649
856.734	0.0137658
856.812	0.0137136
856.890	0.0138525
856.968	0.0136288
857.046	0.0138966
857.124	0.0138208
857.203	0.0137537
857.281	0.0138026
857.359	0.0138261
857.437	0.0137029
857.515	0.0137869
857.593	0.0137698
857.671	0.0138546
857.749	0.0138591
857.828	0.0138578
857.906	0.0138848
857.984	0.0137830
858.062	0.0137589
858.140	0.0137827
858.218	0.0137692
858.296	0.0138136
858.374	0.0137235
858.453	0.0137083
858.531	0.0138205
858.609	0.0137649
858.687	0.0137628
858.765	0.0137360
858.843	0.0137252
858.921	0.0139190
858.999	0.0138036
859.078	0.0138909
859.156	0.0138708
859.234	0.0137627
859.312	0.0137856
859.390	0.0137928
859.468	0.0138369
859.546	0.0137884
859.624	0.0137069
859.703	0.0138068
859.781	0.0139690
859.859	0.0137405
859.937	0.0137819
860.015	0.0137748
860.093	0.0137939
860.171	0.0137587
860.249	0.0139385
860.328	0.0137462
860.406	0.0137867
860.484	0.0136518
860.562	0.0137839
860.640	0.0137522
860.718	0.0138702
860.796	0.0136887
860.874	0.0136437
860.953	0.0138649
861.031	0.0137809
861.109	0.0138452
861.187	0.0137742
861.265	0.0139024
861.343	0.0137926
861.421	0.0138160
861.499	0.0137965
861.578	0.0137128
861.656	0.0137661
861.734	0.0138943
861.812	0.0136986
861.890	0.0138095
861.968	0.0137921
862.046	0.0137769
862.124	0.0137708
862.203	0.0138500
862.281	0.0137531
862.359	0.0138338
862.437	0.0137806
862.515	0.0137251
862.593	0.0137356
862.671	0.0138245
862.749	0.0137946
862.828	0.0138082
862.906	0.0137698
862.984	0.0138213
863.062	0.0139809
863.140	0.0138423
863.218	0.0138144
863.296	0.0136441
863.374	0.0138654
863.453	0.0138283
863.531	0.0138560
863.609	0.0138549
863.687	0.0138990
863.765	0.0138210
863.843	0.0138276
863.921	0.0137064
863.999	0.0139561
864.078	0.0139238
864.156	0.0138503
864.234	0.0137405
864.312	0.0138103
864.390	0.0139301
864.468	0.0138766
864.546	0.0138497
864.624	0.0138269
864.703	0.0138437
864.781	0.0138018
864.859	0.0139079
864.937	0.0138731
865.015	0.0138201
865.093	0.0137323
865.171	0.0138972
865.249	0.0138837
865.328	0.0137637
865.406	0.0138690
865.484	0.0139252
865.562	0.0138238
865.640	0.0137776
865.718	0.0138825
865.796	0.0138589
865.874	0.0138369
865.953	0.0139108
866.031	0.0139860
866.109	0.0138508
866.187	0.0138436
866.265	0.0138229
866.343	0.0138244
866.421	0.0138338
866.499	0.0138551
866.578	0.0139350
866.656	0.0137957
866.734	0.0138052
866.812	0.0138245
866.890	0.0137402
866.968	0.0138017
867.046	0.0138388
867.124	0.0137556
867.203	0.0138120
867.281	0.0137553
867.359	0.0137743
867.437	0.0138039
867.515	0.0137632
867.593	0.0137980
867.671	0.0139111
867.749	0.0138498
867.828	0.0138101
867.906	0.0138199
867.984	0.0138559
868.062	0.0138338
868.140	0.0137833
868.218	0.0136733
868.296	0.0137901
868.374	0.0137774
868.453	0.0137663
868.531	0.0137469
868.609	0.0138333
868.687	0.0138283
868.765	0.0137881
868.843	0.0138592
868.921	0.0138558
868.999	0.0138403
869.078	0.0137825
869.156	0.0138535
869.234	0.0138487
869.312	0.0138844
869.390	0.0137397
869.468	0.0138976
869.546	0.0138395
869.624	0.0137373
869.703	0.0138803
869.781	0.0138094
869.859	0.0138682
869.937	0.0138081
870.015	0.0138641
870.093	0.0139167
870.171	0.0139462
870.249	0.0136919
870.328	0.0138457
870.406	0.0138731
870.484	0.0139420
870.562	0.0137344
870.640	0.0139890
870.718	0.0138454
870.796	0.0138749
870.874	0.0136562
870.953	0.0137925
871.031	0.0136726
871.109	0.0139122
871.187	0.0138367
871.265	0.0137054
871.343	0.0138123
871.421	0.0137947
871.499	0.0137432
871.578	0.0137796
871.656	0.0138293
871.734	0.0139651
871.812	0.0138100
871.890	0.0137563
871.968	0.0138132
872.046	0.0138421
872.124	0.0137750
872.203	0.0137883
872.281	0.0137605
872.359	0.0137712
872.437	0.0137286
872.515	0.0137544
872.593	0.0137408
872.671	0.0139165
872.749	0.0138132
872.828	0.0136274
872.906	0.0138200
872.984	0.0138205
873.062	0.0136362
873.140	0.0135746
873.218	0.0137667
873.296	0.0137399
873.374	0.0136256
873.453	0.0137883
873.531	0.0138478
873.609	0.0137737
873.687	0.0137446
873.765	0.0138863
873.843	0.0138258
873.921	0.0137546
873.999	0.0137553
874.078	0.0137301
874.156	0.0137534
874.234	0.0137402
874.312	0.0138075
874.390	0.0138831
874.468	0.0138604
874.546	0.0139297
874.624	0.0138956
874.703	0.0138409
874.781	0.0137625
874.859	0.0138734
874.937	0.0138538
875.015	0.0137949
875.093	0.0136858
875.171	0.0139607
875.249	0.0139375
875.328	0.0138986
875.406	0.0138936
875.484	0.0137939
875.562	0.0138720
875.640	0.0139381
875.718	0.0138723
875.796	0.0138476
875.874	0.0137012
875.953	0.0138093
876.031	0.0138718
876.109	0.0139367
876.187	0.0138689
876.265	0.0137714
876.343	0.0137711
876.421	0.0139308
876.499	0.0137616
876.578	0.0138675
876.656	0.0137222
876.734	0.0137703
876.812	0.0137956
876.890	0.0137061
876.968	0.0137667
877.046	0.0138931
877.124	0.0137623
877.203	0.0137524
877.281	0.0138694
877.359	0.0137020
877.437	0.0137339
877.515	0.0136865
877.593	0.0137845
877.671	0.0136076
877.749	0.0138561
877.828	0.0137747
877.906	0.0137314
877.984	0.0135947
878.062	0.0138870
878.140	0.0136942
878.218	0.0137334
878.296	0.0137327
878.374	0.0136675
878.453	0.0138415
878.531	0.0136842
878.609	0.0136937
878.687	0.0137434
878.765	0.0138400
878.843	0.0137575
878.921	0.0135213
878.999	0.0135937
879.078	0.0137768
879.156	0.0136742
879.234	0.0138148
879.312	0.0135973
879.390	0.0137563
879.468	0.0136471
879.546	0.0135718
879.624	0.0137745
879.703	0.0136995
879.781	0.0136027
879.859	0.0138031
879.937	0.0136514
880.015	0.0137508
880.093	0.0136472
880.171	0.0136665
880.249	0.0138082
880.328	0.0137195
880.406	0.0135773
880.484	0.0138419
880.562	0.0137933
880.640	0.0137465
880.718	0.0138482
880.796	0.0136517
880.874	0.0138302
880.953	0.0138346
881.031	0.0137651
881.109	0.0137330
881.187	0.0137431
881.265	0.0138649
881.343	0.0137157
881.421	0.0137117
881.499	0.0137891
881.578	0.0138868
881.656	0.0139215
881.734	0.0137096
881.812	0.0137514
881.890	0.0137768
881.968	0.0136911
882.046	0.0137917
882.124	0.0138564
882.203	0.0139233
882.281	0.0138510
882.359	0.0138049
882.437	0.0137386
882.515	0.0136987
882.593	0.0136023
882.671	0.0137030
882.749	0.0136586
882.828	0.0136945
882.906	0.0136839
882.984	0.0136487
883.062	0.0137128
883.140	0.0137421
883.218	0.0136445
883.296	0.0137788
883.374	0.0138618
883.453	0.0136971
883.531	0.0136844
883.609	0.0137428
883.687	0.0136320
883.765	0.0136889
883.843	0.0137212
883.921	0.0135763
883.999	0.0137669
884.078	0.0137281
884.156	0.0134871
884.234	0.0136208
884.312	0.0136220
884.390	0.0135376
884.468	0.0135143
884.546	0.0136932
884.624	0.0136974
884.703	0.0137224
884.781	0.0136798
884.859	0.0136014
884.937	0.0135640
885.015	0.0136863
885.093	0.0137611
885.171	0.0138572
885.249	0.0137539
885.328	0.0137787
885.406	0.0137988
885.484	0.0136728
885.562	0.0137318
885.640	0.0136940
885.718	0.0137302
885.796	0.0137714
885.874	0.0134995
885.953	0.0136611
886.031	0.0137169
886.109	0.0136044
886.187	0.0135282
886.265	0.0136791
886.343	0.0138129
886.421	0.0137690
886.499	0.0137931
886.578	0.0137607
886.656	0.0136850
886.734	0.0136638
886.812	0.0138283
886.890	0.0137217
886.968	0.0137617
887.046	0.0137308
887.124	0.0138498
887.203	0.0137441
887.281	0.0138021
887.359	0.0138681
887.437	0.0137225
887.515	0.0137790
887.593	0.0136918
887.671	0.0137955
887.749	0.0138633
887.828	0.0137907
887.906	0.0138697
887.984	0.0136829
888.062	0.0137720
888.140	0.0138943
888.218	0.0138202
888.296	0.0138016
888.374	0.0137518
888.453	0.0137256
888.531	0.0136871
888.609	0.0137379
888.687	0.0138526
888.765	0.0137465
888.843	0.0137434
888.921	0.0136785
888.999	0.0137962
889.078	0.0136695
889.156	0.0138159
889.234	0.0138588
889.312	0.0137384
889.390	0.0137553
889.468	0.0135860
889.546	0.0136757
889.624	0.0137694
889.703	0.0137315
889.781	0.0138721
889.859	0.0136774
889.937	0.0136623
890.015	0.0137866
890.093	0.0138231
890.171	0.0137055
890.249	0.0138876
890.328	0.0136379
890.406	0.0137134
890.484	0.0137099
890.562	0.0136319
890.640	0.0138617
890.718	0.0139525
890.796	0.0137516
890.874	0.0137458
890.953	0.0138551
891.031	0.0137695
891.109	0.0137406
891.187	0.0138732
891.265	0.0138388
891.343	0.0137198
891.421	0.0137830
891.499	0.0138029
891.578	0.0138010
891.656	0.0137784
891.734	0.0138087
891.812	0.0138196
891.890	0.0137409
891.968	0.0137518
892.046	0.0138297
892.124	0.0137304
892.203	0.0137727
892.281	0.0137901
892.359	0.0136990
892.437	0.0137035
892.515	0.0137288
892.593	0.0137082
892.671	0.0137225
892.749	0.0137074
892.828	0.0136943
892.906	0.0137512
892.984	0.0137227
893.062	0.0136817
893.140	0.0136517
893.218	0.0138618
893.296	0.0137431
893.374	0.0135910
893.453	0.0137009
893.531	0.0137092
893.609	0.0136748
893.687	0.0136588
893.765	0.0137541
893.843	0.0137156
893.921	0.0137776
893.999	0.0137994
894.078	0.0138982
894.156	0.0138368
894.234	0.0136896
894.312	0.0138403
894.390	0.0138297
894.468	0.0139247
894.546	0.0138319
894.624	0.0137993
894.703	0.0138415
894.781	0.0138103
894.859	0.0137223
894.937	0.0137095
895.015	0.0137968
895.093	0.0137693
895.171	0.0136934
895.249	0.0137095
895.328	0.0136184
895.406	0.0136306
895.484	0.0138227
895.562	0.0136624
895.640	0.0136491
895.718	0.0136918
895.796	0.0136584
895.874	0.0136579
895.953	0.0137299
896.031	0.0136894
896.109	0.0135548
896.187	0.0137749
896.265	0.0137609
896.343	0.0135912
896.421	0.0135069
896.499	0.0136777
896.578	0.0137053
896.656	0.0136803
896.734	0.0137434
896.812	0.0138058
896.890	0.0136404
896.968	0.0136315
897.046	0.0136559
897.124	0.0138281
897.203	0.0136875
897.281	0.0136755
897.359	0.0136714
897.437	0.0136981
897.515	0.0136044
897.593	0.0137357
897.671	0.0136742
897.749	0.0136991
897.828	0.0138803
897.906	0.0137651
897.984	0.0138158
898.062	0.0137881
898.140	0.0137933
898.218	0.0137240
898.296	0.0137374
898.374	0.0138387
898.453	0.0138223
898.531	0.0137343
898.609	0.0139059
898.687	0.0137605
898.765	0.0137611
898.843	0.0137521
898.921	0.0137897
898.999	0.0136253
899.078	0.0137685
899.156	0.0136685
899.234	0.0136334
899.312	0.0138138
899.390	0.0138477
899.468	0.0138075
899.546	0.0137616
899.624	0.0137041
899.703	0.0138103
899.781	0.0139551
899.859	0.0138706
899.937	0.0138606
900.015	0.0139688
900.093	0.0138998
900.171	0.0136526
900.249	0.0138766
900.328	0.0138662
900.406	0.0136201
900.484	0.0137057
900.562	0.0136900
900.640	0.0136611
900.718	0.0136545
900.796	0.0136728
900.874	0.0135595
900.953	0.0137265
901.031	0.0137268
901.109	0.0137076
901.187	0.0136638
901.265	0.0136131
901.343	0.0139434
901.421	0.0138412
901.499	0.0137513
901.578	0.0136154
901.656	0.0137296
901.734	0.0137781
901.812	0.0136300
901.890	0.0136256
901.968	0.0136301
902.046	0.0136470
902.124	0.0136706
902.203	0.0135081
902.281	0.0136276
902.359	0.0135371
902.437	0.0135793
902.515	0.0135857
902.593	0.0134966
902.671	0.0136861
902.749	0.0137254
902.828	0.0135173
902.906	0.0136408
902.984	0.0136880
903.062	0.0136967
903.140	0.0136969
903.218	0.0137786
903.296	0.0137458
903.374	0.0137983
903.453	0.0137791
903.531	0.0137983
903.609	0.0136911
903.687	0.0138338
903.765	0.0136854
903.843	0.0137568
903.921	0.0137729
903.999	0.0139037
904.078	0.0138316
904.156	0.0138733
904.234	0.0137226
904.312	0.0138594
904.390	0.0136484
904.468	0.0136659
904.546	0.0136544
904.624	0.0136907
904.703	0.0138344
904.781	0.0137098
904.859	0.0137138
904.937	0.0137518
905.015	0.0137449
905.093	0.0137314
905.171	0.0138201
905.249	0.0137949
905.328	0.0137248
905.406	0.0138683
905.484	0.0139158
905.562	0.0138272
905.640	0.0138780
905.718	0.0138249
905.796	0.0139734
905.874	0.0138433
905.953	0.0140248
906.031	0.0138850
906.109	0.0138156
906.187	0.0138618
906.265	0.0138995
906.343	0.0137399
906.421	0.0138004
906.499	0.0136692
906.578	0.0136430
906.656	0.0137000
906.734	0.0136300
906.812	0.0136855
906.890	0.0136372
906.968	0.0136634
907.046	0.0138117
907.124	0.0137169
907.203	0.0137592
907.281	0.0138327
907.359	0.0139269
907.437	0.0138357
907.515	0.0137603
907.593	0.0137805
907.671	0.0137469
907.749	0.0139313
907.828	0.0136877
907.906	0.0138145
907.984	0.0138519
908.062	0.0138487
908.140	0.0138271
908.218	0.0137710
908.296	0.0137878
908.374	0.0137629
908.453	0.0136452
908.531	0.0136980
908.609	0.0136787
908.687	0.0137756
908.765	0.0137286
908.843	0.0136912
908.921	0.0136807
908.999	0.0136734
909.078	0.0136001
909.156	0.0136560
909.234	0.0136596
909.312	0.0136774
909.390	0.0137502
909.468	0.0138520
909.546	0.0137414
909.624	0.0138027
909.703	0.0137933
909.781	0.0138340
909.859	0.0137757
909.937	0.0138437
910.015	0.0139133
910.093	0.0137315
910.171	0.0139578
910.249	0.0139312
910.328	0.0137996
910.406	0.0138737
910.484	0.0138470
910.562	0.0138080
910.640	0.0137921
910.718	0.0137508
910.796	0.0137970
910.874	0.0136495
910.953	0.0137109
911.031	0.0135979
911.109	0.0136400
911.187	0.0137723
911.265	0.0136802
911.343	0.0138039
911.421	0.0138226
911.499	0.0137009
911.578	0.0135875
911.656	0.0136931
911.734	0.0138235
911.812	0.0138633
911.890	0.0138203
911.968	0.0138717
912.046	0.0137506
912.124	0.0137762
912.203	0.0137721
912.281	0.0137909
912.359	0.0137637
912.437	0.0138102
912.515	0.0138529
912.593	0.0137792
912.671	0.0137781
912.749	0.0138300
912.828	0.0138727
912.906	0.0138352
912.984	0.0138091
913.062	0.0138157
913.140	0.0138263
913.218	0.0137496
913.296	0.0138222
913.374	0.0139378
913.453	0.0138441
913.531	0.0139841
913.609	0.0139085
913.687	0.0138952
913.765	0.0138982
913.843	0.0139253
913.921	0.0139365
913.999	0.0137828
914.078	0.0140010
914.156	0.0138398
914.234	0.0138248
914.312	0.0136752
914.390	0.0137381
914.468	0.0137978
914.546	0.0137021
914.624	0.0138918
914.703	0.0139111
914.781	0.0138692
914.859	0.0138641
914.937	0.0137097
915.015	0.0138569
915.093	0.0136996
915.171	0.0137368
915.249	0.0138882
915.328	0.0138183
915.406	0.0138351
915.484	0.0138513
915.562	0.0136740
915.640	0.0138345
915.718	0.0138776
915.796	0.0137790
915.874	0.0139300
915.953	0.0138370
916.031	0.0139446
916.109	0.0138181
916.187	0.0137008
916.265	0.0137890
916.343	0.0136680
916.421	0.0137571
916.499	0.0139464
916.578	0.0137714
916.656	0.0137322
916.734	0.0137122
916.812	0.0136530
916.890	0.0136264
916.968	0.0137940
917.046	0.0136628
917.124	0.0136837
917.203	0.0136568
917.281	0.0137173
917.359	0.0137259
917.437	0.0137147
917.515	0.0134885
917.593	0.0136844
917.671	0.0137358
917.749	0.0138515
917.828	0.0136398
917.906	0.0136996
917.984	0.0137431
918.062	0.0135855
918.140	0.0137270
918.218	0.0138278
918.296	0.0137352
918.374	0.0138742
918.453	0.0138547
918.531	0.0138579
918.609	0.0137753
918.687	0.0136452
918.765	0.0136357
918.843	0.0138096
918.921	0.0138264
918.999	0.0138670
919.078	0.0136417
919.156	0.0136043
919.234	0.0137157
919.312	0.0137552
919.390	0.0137601
919.468	0.0137612
919.546	0.0135775
919.624	0.0137138
919.703	0.0137315
919.781	0.0138223
919.859	0.0138442
919.937	0.0138272
