05/06/2022	19:00:14	Ver.	4.1	UNKNOWN
Optical Delay	600.015094	Delta X		0.078125	Sweeps	1	Scan Rate	0/0
Coordinates	Axis 1	NaN	Axis 2	NaN	Axis 3	NaN	Axis 4	NaN	Axis 5	NaN	Axis 6	0.000000
TX Power	0.000000	RX Power	0.000000

600.015	0.0134805
600.093	0.0133894
600.171	0.0134475
600.249	0.0135304
600.328	0.0134813
600.406	0.0134644
600.484	0.0133605
600.562	0.0135374
600.640	0.0135088
600.718	0.0135450
600.796	0.0134680
600.874	0.0134937
600.953	0.0135645
601.031	0.0133713
601.109	0.0135379
601.187	0.0135340
601.265	0.0134106
601.343	0.0135065
601.421	0.0134285
601.499	0.0135054
601.578	0.0134393
601.656	0.0135757
601.734	0.0134360
601.812	0.0135165
601.890	0.0135635
601.968	0.0135564
602.046	0.0136092
602.124	0.0135774
602.203	0.0135228
602.281	0.0134141
602.359	0.0134954
602.437	0.0134676
602.515	0.0134850
602.593	0.0135925
602.671	0.0135381
602.749	0.0134895
602.828	0.0136229
602.906	0.0135240
602.984	0.0135351
603.062	0.0134710
603.140	0.0134258
603.218	0.0134889
603.296	0.0134314
603.374	0.0134724
603.453	0.0135630
603.531	0.0135463
603.609	0.0134853
603.687	0.0135309
603.765	0.0136918
603.843	0.0136740
603.921	0.0136278
603.999	0.0135867
604.078	0.0134512
604.156	0.0136751
604.234	0.0135316
604.312	0.0135389
604.390	0.0135081
604.468	0.0134869
604.546	0.0137112
604.624	0.0136016
604.703	0.0135995
604.781	0.0135126
604.859	0.0134970
604.937	0.0136154
605.015	0.0135670
605.093	0.0135310
605.171	0.0136729
605.249	0.0135622
605.328	0.0136242
605.406	0.0135700
605.484	0.0135278
605.562	0.0135493
605.640	0.0136803
605.718	0.0135206
605.796	0.0135597
605.874	0.0135972
605.953	0.0135847
606.031	0.0135351
606.109	0.0134884
606.187	0.0135851
606.265	0.0135928
606.343	0.0136617
606.421	0.0135712
606.499	0.0135675
606.578	0.0134660
606.656	0.0135149
606.734	0.0135506
606.812	0.0135993
606.890	0.0136387
606.968	0.0136763
607.046	0.0136765
607.124	0.0136611
607.203	0.0135297
607.281	0.0134650
607.359	0.0135522
607.437	0.0136101
607.515	0.0136181
607.593	0.0135620
607.671	0.0135323
607.749	0.0135692
607.828	0.0137295
607.906	0.0135945
607.984	0.0135685
608.062	0.0134967
608.140	0.0135776
608.218	0.0134598
608.296	0.0135425
608.374	0.0136056
608.453	0.0136421
608.531	0.0135608
608.609	0.0136218
608.687	0.0136095
608.765	0.0135155
608.843	0.0136671
608.921	0.0135721
608.999	0.0134165
609.078	0.0135649
609.156	0.0136462
609.234	0.0136431
609.312	0.0135797
609.390	0.0136383
609.468	0.0135860
609.546	0.0136290
609.624	0.0135395
609.703	0.0135943
609.781	0.0136268
609.859	0.0135286
609.937	0.0136069
610.015	0.0135652
610.093	0.0136880
610.171	0.0136384
610.249	0.0135429
610.328	0.0136063
610.406	0.0135737
610.484	0.0136900
610.562	0.0136377
610.640	0.0137601
610.718	0.0135932
610.796	0.0136227
610.874	0.0137759
610.953	0.0136927
611.031	0.0136586
611.109	0.0136333
611.187	0.0136700
611.265	0.0136446
611.343	0.0135359
611.421	0.0136972
611.499	0.0136307
611.578	0.0137151
611.656	0.0135474
611.734	0.0136382
611.812	0.0135106
611.890	0.0137556
611.968	0.0135168
612.046	0.0135633
612.124	0.0137077
612.203	0.0136243
612.281	0.0136849
612.359	0.0136275
612.437	0.0136160
612.515	0.0136259
612.593	0.0135749
612.671	0.0136240
612.749	0.0135824
612.828	0.0136101
612.906	0.0136774
612.984	0.0135146
613.062	0.0136323
613.140	0.0136194
613.218	0.0137820
613.296	0.0136628
613.374	0.0135396
613.453	0.0134348
613.531	0.0137000
613.609	0.0137514
613.687	0.0135232
613.765	0.0136567
613.843	0.0135390
613.921	0.0136115
613.999	0.0136017
614.078	0.0135138
614.156	0.0136192
614.234	0.0137387
614.312	0.0136003
614.390	0.0134268
614.468	0.0135246
614.546	0.0136905
614.624	0.0136859
614.703	0.0136449
614.781	0.0134042
614.859	0.0134581
614.937	0.0135732
615.015	0.0135491
615.093	0.0133228
615.171	0.0134023
615.249	0.0135064
615.328	0.0136374
615.406	0.0136713
615.484	0.0136183
615.562	0.0134614
615.640	0.0135400
615.718	0.0135313
615.796	0.0134528
615.874	0.0135316
615.953	0.0137302
616.031	0.0135863
616.109	0.0134266
616.187	0.0136063
616.265	0.0134464
616.343	0.0136326
616.421	0.0137728
616.499	0.0136079
616.578	0.0135197
616.656	0.0134985
616.734	0.0136301
616.812	0.0135119
616.890	0.0134878
616.968	0.0136311
617.046	0.0136230
617.124	0.0135477
617.203	0.0135720
617.281	0.0135368
617.359	0.0133927
617.437	0.0136087
617.515	0.0136680
617.593	0.0135265
617.671	0.0135641
617.749	0.0136370
617.828	0.0134525
617.906	0.0134537
617.984	0.0134849
618.062	0.0135149
618.140	0.0135445
618.218	0.0133780
618.296	0.0134577
618.374	0.0134641
618.453	0.0133662
618.531	0.0135075
618.609	0.0134886
618.687	0.0134758
618.765	0.0134771
618.843	0.0134380
618.921	0.0134888
618.999	0.0136437
619.078	0.0134664
619.156	0.0135123
619.234	0.0135473
619.312	0.0134923
619.390	0.0133504
619.468	0.0134682
619.546	0.0135427
619.624	0.0133610
619.703	0.0135188
619.781	0.0134710
619.859	0.0133549
619.937	0.0135477
620.015	0.0135260
620.093	0.0133864
620.171	0.0135389
620.249	0.0135004
620.328	0.0134911
620.406	0.0135921
620.484	0.0136827
620.562	0.0135522
620.640	0.0135073
620.718	0.0133744
620.796	0.0134656
620.874	0.0134609
620.953	0.0135659
621.031	0.0135091
621.109	0.0135748
621.187	0.0135857
621.265	0.0134606
621.343	0.0134547
621.421	0.0135169
621.499	0.0134645
621.578	0.0135180
621.656	0.0134894
621.734	0.0134783
621.812	0.0134896
621.890	0.0134873
621.968	0.0134472
622.046	0.0135755
622.124	0.0135899
622.203	0.0134150
622.281	0.0133581
622.359	0.0135313
622.437	0.0134037
622.515	0.0134737
622.593	0.0135172
622.671	0.0134412
622.749	0.0134519
622.828	0.0134584
622.906	0.0134254
622.984	0.0135332
623.062	0.0135213
623.140	0.0134509
623.218	0.0135683
623.296	0.0136838
623.374	0.0134109
623.453	0.0135947
623.531	0.0134787
623.609	0.0136115
623.687	0.0135542
623.765	0.0133290
623.843	0.0133285
623.921	0.0135227
623.999	0.0134467
624.078	0.0135333
624.156	0.0135279
624.234	0.0135950
624.312	0.0134663
624.390	0.0135512
624.468	0.0135576
624.546	0.0133999
624.624	0.0134645
624.703	0.0134201
624.781	0.0135872
624.859	0.0135730
624.937	0.0135655
625.015	0.0134685
625.093	0.0135533
625.171	0.0134420
625.249	0.0133898
625.328	0.0133871
625.406	0.0133350
625.484	0.0135563
625.562	0.0133978
625.640	0.0134908
625.718	0.0135094
625.796	0.0135578
625.874	0.0134510
625.953	0.0134563
626.031	0.0135503
626.109	0.0133980
626.187	0.0133749
626.265	0.0135017
626.343	0.0133828
626.421	0.0134683
626.499	0.0133940
626.578	0.0134713
626.656	0.0136495
626.734	0.0134637
626.812	0.0134341
626.890	0.0135088
626.968	0.0134534
627.046	0.0135014
627.124	0.0135321
627.203	0.0134852
627.281	0.0134483
627.359	0.0134464
627.437	0.0134718
627.515	0.0136190
627.593	0.0135573
627.671	0.0134524
627.749	0.0135206
627.828	0.0135289
627.906	0.0134623
627.984	0.0135011
628.062	0.0135299
628.140	0.0134061
628.218	0.0133904
628.296	0.0136256
628.374	0.0134751
628.453	0.0135783
628.531	0.0136179
628.609	0.0135587
628.687	0.0135967
628.765	0.0135509
628.843	0.0135549
628.921	0.0134288
628.999	0.0133968
629.078	0.0134794
629.156	0.0134510
629.234	0.0136135
629.312	0.0134546
629.390	0.0135778
629.468	0.0134873
629.546	0.0135963
629.624	0.0136523
629.703	0.0135313
629.781	0.0135218
629.859	0.0135129
629.937	0.0134506
630.015	0.0136003
630.093	0.0135762
630.171	0.0135442
630.249	0.0134484
630.328	0.0134456
630.406	0.0134506
630.484	0.0134837
630.562	0.0135295
630.640	0.0135967
630.718	0.0134695
630.796	0.0135701
630.874	0.0135429
630.953	0.0135297
631.031	0.0135896
631.109	0.0135179
631.187	0.0134451
631.265	0.0134496
631.343	0.0135652
631.421	0.0135108
631.499	0.0135526
631.578	0.0135950
631.656	0.0135772
631.734	0.0134380
631.812	0.0133995
631.890	0.0135767
631.968	0.0134367
632.046	0.0134161
632.124	0.0136205
632.203	0.0135108
632.281	0.0135191
632.359	0.0135133
632.437	0.0136835
632.515	0.0136375
632.593	0.0134727
632.671	0.0134718
632.749	0.0135551
632.828	0.0136958
632.906	0.0135646
632.984	0.0135710
633.062	0.0135863
633.140	0.0134967
633.218	0.0135511
633.296	0.0135794
633.374	0.0135207
633.453	0.0135752
633.531	0.0135677
633.609	0.0134888
633.687	0.0136416
633.765	0.0135352
633.843	0.0134034
633.921	0.0135151
633.999	0.0135554
634.078	0.0134010
634.156	0.0136379
634.234	0.0135777
634.312	0.0135823
634.390	0.0135205
634.468	0.0135760
634.546	0.0135136
634.624	0.0135455
634.703	0.0135089
634.781	0.0135450
634.859	0.0135029
634.937	0.0135484
635.015	0.0134444
635.093	0.0134890
635.171	0.0135561
635.249	0.0136248
635.328	0.0135179
635.406	0.0135616
635.484	0.0136915
635.562	0.0135927
635.640	0.0136253
635.718	0.0136210
635.796	0.0135500
635.874	0.0135198
635.953	0.0134960
636.031	0.0135683
636.109	0.0134340
636.187	0.0135242
636.265	0.0136333
636.343	0.0134148
636.421	0.0135574
636.499	0.0134274
636.578	0.0136647
636.656	0.0135671
636.734	0.0137114
636.812	0.0136776
636.890	0.0135939
636.968	0.0136731
637.046	0.0137531
637.124	0.0137949
637.203	0.0136762
637.281	0.0137725
637.359	0.0138293
637.437	0.0136378
637.515	0.0135681
637.593	0.0136624
637.671	0.0135443
637.749	0.0135144
637.828	0.0134120
637.906	0.0132874
637.984	0.0134677
638.062	0.0134544
638.140	0.0135508
638.218	0.0135310
638.296	0.0134699
638.374	0.0134491
638.453	0.0135384
638.531	0.0134557
638.609	0.0136639
638.687	0.0135992
638.765	0.0136030
638.843	0.0136890
638.921	0.0136899
638.999	0.0135366
639.078	0.0136135
639.156	0.0135574
639.234	0.0136331
639.312	0.0135486
639.390	0.0135082
639.468	0.0136337
639.546	0.0134335
639.624	0.0133974
639.703	0.0135567
639.781	0.0134942
639.859	0.0135361
639.937	0.0136598
640.015	0.0134947
640.093	0.0134886
640.171	0.0134270
640.249	0.0135446
640.328	0.0135397
640.406	0.0134397
640.484	0.0135199
640.562	0.0136649
640.640	0.0136134
640.718	0.0134454
640.796	0.0133846
640.874	0.0135274
640.953	0.0136213
641.031	0.0135641
641.109	0.0134703
641.187	0.0134715
641.265	0.0134176
641.343	0.0135480
641.421	0.0134178
641.499	0.0134784
641.578	0.0135921
641.656	0.0134589
641.734	0.0134107
641.812	0.0135442
641.890	0.0135455
641.968	0.0133364
642.046	0.0134128
642.124	0.0135166
642.203	0.0135415
642.281	0.0134870
642.359	0.0134786
642.437	0.0136923
642.515	0.0134635
642.593	0.0134726
642.671	0.0135165
642.749	0.0135372
642.828	0.0136163
642.906	0.0133991
642.984	0.0135157
643.062	0.0133735
643.140	0.0135580
643.218	0.0135246
643.296	0.0135017
643.374	0.0135400
643.453	0.0134365
643.531	0.0135373
643.609	0.0135675
643.687	0.0134678
643.765	0.0135063
643.843	0.0134287
643.921	0.0134509
643.999	0.0134542
644.078	0.0135437
644.156	0.0133647
644.234	0.0134563
644.312	0.0135039
644.390	0.0134039
644.468	0.0133887
644.546	0.0134849
644.624	0.0135771
644.703	0.0134033
644.781	0.0134715
644.859	0.0135101
644.937	0.0134490
645.015	0.0133935
645.093	0.0132832
645.171	0.0134361
645.249	0.0134681
645.328	0.0134919
645.406	0.0135051
645.484	0.0133979
645.562	0.0134329
645.640	0.0134142
645.718	0.0134550
645.796	0.0134309
645.874	0.0133311
645.953	0.0133677
646.031	0.0135266
646.109	0.0133868
646.187	0.0135886
646.265	0.0134261
646.343	0.0134572
646.421	0.0133448
646.499	0.0134898
646.578	0.0134254
646.656	0.0134557
646.734	0.0133878
646.812	0.0135269
646.890	0.0136148
646.968	0.0134908
647.046	0.0134647
647.124	0.0134944
647.203	0.0133636
647.281	0.0135103
647.359	0.0135370
647.437	0.0135509
647.515	0.0134921
647.593	0.0135909
647.671	0.0135078
647.749	0.0135502
647.828	0.0134681
647.906	0.0135905
647.984	0.0136765
648.062	0.0133848
648.140	0.0134175
648.218	0.0136018
648.296	0.0135297
648.374	0.0135516
648.453	0.0133863
648.531	0.0134896
648.609	0.0135694
648.687	0.0135272
648.765	0.0134256
648.843	0.0133210
648.921	0.0134084
648.999	0.0134445
649.078	0.0136667
649.156	0.0135555
649.234	0.0134325
649.312	0.0137090
649.390	0.0137051
649.468	0.0134895
649.546	0.0135645
649.624	0.0136829
649.703	0.0134130
649.781	0.0136741
649.859	0.0136661
649.937	0.0135522
650.015	0.0135156
650.093	0.0135002
650.171	0.0133057
650.249	0.0134557
650.328	0.0132510
650.406	0.0133157
650.484	0.0133934
650.562	0.0133735
650.640	0.0133970
650.718	0.0134833
650.796	0.0133833
650.874	0.0134964
650.953	0.0133138
651.031	0.0134507
651.109	0.0135435
651.187	0.0136340
651.265	0.0138171
651.343	0.0137565
651.421	0.0136114
651.499	0.0137702
651.578	0.0137271
651.656	0.0135328
651.734	0.0136974
651.812	0.0135670
651.890	0.0135510
651.968	0.0135540
652.046	0.0135351
652.124	0.0135619
652.203	0.0134718
652.281	0.0135674
652.359	0.0135403
652.437	0.0134422
652.515	0.0134909
652.593	0.0135566
652.671	0.0134116
652.749	0.0134869
652.828	0.0135031
652.906	0.0134641
652.984	0.0134800
653.062	0.0135617
653.140	0.0135213
653.218	0.0135929
653.296	0.0136385
653.374	0.0135733
653.453	0.0134995
653.531	0.0135361
653.609	0.0136948
653.687	0.0135268
653.765	0.0135382
653.843	0.0135989
653.921	0.0136314
653.999	0.0136362
654.078	0.0136140
654.156	0.0135969
654.234	0.0136526
654.312	0.0136577
654.390	0.0135340
654.468	0.0134212
654.546	0.0136417
654.624	0.0134540
654.703	0.0134088
654.781	0.0134289
654.859	0.0135381
654.937	0.0135039
655.015	0.0133906
655.093	0.0134715
655.171	0.0136242
655.249	0.0135612
655.328	0.0135406
655.406	0.0136257
655.484	0.0136750
655.562	0.0137241
655.640	0.0137666
655.718	0.0136388
655.796	0.0136987
655.874	0.0136973
655.953	0.0135800
656.031	0.0134602
656.109	0.0136311
656.187	0.0136087
656.265	0.0135838
656.343	0.0135656
656.421	0.0134213
656.499	0.0133414
656.578	0.0135574
656.656	0.0135107
656.734	0.0133783
656.812	0.0134507
656.890	0.0133625
656.968	0.0133427
657.046	0.0133652
657.124	0.0134489
657.203	0.0135365
657.281	0.0135368
657.359	0.0134147
657.437	0.0134888
657.515	0.0137455
657.593	0.0137218
657.671	0.0135855
657.749	0.0136453
657.828	0.0136254
657.906	0.0137763
657.984	0.0135574
658.062	0.0135984
658.140	0.0136047
658.218	0.0133681
658.296	0.0134019
658.374	0.0134340
658.453	0.0134613
658.531	0.0133045
658.609	0.0132730
658.687	0.0134891
658.765	0.0134912
658.843	0.0135253
658.921	0.0133678
658.999	0.0134262
659.078	0.0133816
659.156	0.0134758
659.234	0.0135072
659.312	0.0135413
659.390	0.0135022
659.468	0.0135529
659.546	0.0135030
659.624	0.0135409
659.703	0.0135879
659.781	0.0137600
659.859	0.0136815
659.937	0.0136167
660.015	0.0136247
660.093	0.0135018
660.171	0.0136256
660.249	0.0135781
660.328	0.0135985
660.406	0.0133355
660.484	0.0133379
660.562	0.0133703
660.640	0.0133628
660.718	0.0134746
660.796	0.0132453
660.874	0.0131966
660.953	0.0132657
661.031	0.0133071
661.109	0.0134074
661.187	0.0134365
661.265	0.0134148
661.343	0.0135848
661.421	0.0136988
661.499	0.0137427
661.578	0.0136938
661.656	0.0139512
661.734	0.0139092
661.812	0.0138793
661.890	0.0136832
661.968	0.0137940
662.046	0.0137733
662.124	0.0136674
662.203	0.0136436
662.281	0.0135806
662.359	0.0134495
662.437	0.0134105
662.515	0.0132314
662.593	0.0131966
662.671	0.0131923
662.749	0.0130582
662.828	0.0132298
662.906	0.0131603
662.984	0.0132689
663.062	0.0133805
663.140	0.0133585
663.218	0.0134754
663.296	0.0136241
663.374	0.0134876
663.453	0.0137751
663.531	0.0138223
663.609	0.0137312
663.687	0.0137646
663.765	0.0137640
663.843	0.0138529
663.921	0.0137540
663.999	0.0136405
664.078	0.0137409
664.156	0.0135960
664.234	0.0134029
664.312	0.0134598
664.390	0.0134024
664.468	0.0134994
664.546	0.0134052
664.624	0.0134425
664.703	0.0134464
664.781	0.0134108
664.859	0.0135403
664.937	0.0137390
665.015	0.0136737
665.093	0.0135709
665.171	0.0135655
665.249	0.0138454
665.328	0.0137866
665.406	0.0137361
665.484	0.0137353
665.562	0.0136232
665.640	0.0136198
665.718	0.0137063
665.796	0.0134668
665.874	0.0134013
665.953	0.0133454
666.031	0.0133474
666.109	0.0133257
666.187	0.0133623
666.265	0.0133041
666.343	0.0132668
666.421	0.0134232
666.499	0.0133730
666.578	0.0135765
666.656	0.0135650
666.734	0.0135095
666.812	0.0135823
666.890	0.0138029
666.968	0.0136991
667.046	0.0138286
667.124	0.0137689
667.203	0.0136762
667.281	0.0138625
667.359	0.0136042
667.437	0.0135484
667.515	0.0135516
667.593	0.0134682
667.671	0.0134277
667.749	0.0131934
667.828	0.0132255
667.906	0.0133511
667.984	0.0132075
668.062	0.0131519
668.140	0.0133062
668.218	0.0133361
668.296	0.0133521
668.374	0.0133318
668.453	0.0134514
668.531	0.0135175
668.609	0.0135394
668.687	0.0136545
668.765	0.0136642
668.843	0.0138675
668.921	0.0136273
668.999	0.0136579
669.078	0.0137637
669.156	0.0137366
669.234	0.0137313
669.312	0.0137382
669.390	0.0135606
669.468	0.0133145
669.546	0.0134261
669.624	0.0134026
669.703	0.0132292
669.781	0.0132751
669.859	0.0133273
669.937	0.0132941
670.015	0.0134103
670.093	0.0134573
670.171	0.0136360
670.249	0.0135784
670.328	0.0137250
670.406	0.0136554
670.484	0.0136184
670.562	0.0136797
670.640	0.0137772
670.718	0.0138344
670.796	0.0136520
670.874	0.0135719
670.953	0.0136654
671.031	0.0134462
671.109	0.0133833
671.187	0.0134316
671.265	0.0133534
671.343	0.0132524
671.421	0.0131926
671.499	0.0133740
671.578	0.0132912
671.656	0.0134046
671.734	0.0134995
671.812	0.0135552
671.890	0.0135539
671.968	0.0134154
672.046	0.0135335
672.124	0.0136453
672.203	0.0136951
672.281	0.0136192
672.359	0.0136758
672.437	0.0135993
672.515	0.0136012
672.593	0.0135452
672.671	0.0135110
672.749	0.0133788
672.828	0.0133992
672.906	0.0134451
672.984	0.0133982
673.062	0.0134686
673.140	0.0135812
673.218	0.0133680
673.296	0.0133960
673.374	0.0134480
673.453	0.0133781
673.531	0.0134858
673.609	0.0134956
673.687	0.0133501
673.765	0.0132425
673.843	0.0134766
673.921	0.0135676
673.999	0.0134969
674.078	0.0135894
674.156	0.0136324
674.234	0.0136591
674.312	0.0137369
674.390	0.0137688
674.468	0.0137335
674.546	0.0138148
674.624	0.0137847
674.703	0.0137263
674.781	0.0137511
674.859	0.0135982
674.937	0.0135140
675.015	0.0136301
675.093	0.0135841
675.171	0.0135603
675.249	0.0133848
675.328	0.0134191
675.406	0.0134431
675.484	0.0134523
675.562	0.0134156
675.640	0.0133672
675.718	0.0132862
675.796	0.0135387
675.874	0.0135503
675.953	0.0135767
676.031	0.0137646
676.109	0.0137730
676.187	0.0138023
676.265	0.0137754
676.343	0.0137011
676.421	0.0138573
676.499	0.0138382
676.578	0.0137785
676.656	0.0136848
676.734	0.0136004
676.812	0.0135854
676.890	0.0136636
676.968	0.0135340
677.046	0.0134016
677.124	0.0135052
677.203	0.0135075
677.281	0.0134425
677.359	0.0134398
677.437	0.0135179
677.515	0.0136543
677.593	0.0134891
677.671	0.0135110
677.749	0.0135726
677.828	0.0134743
677.906	0.0136067
677.984	0.0135287
678.062	0.0134002
678.140	0.0132552
678.218	0.0132916
678.296	0.0131641
678.374	0.0131617
678.453	0.0130922
678.531	0.0131004
678.609	0.0128851
678.687	0.0128497
678.765	0.0128641
678.843	0.0130044
678.921	0.0130090
678.999	0.0132163
679.078	0.0132611
679.156	0.0134750
679.234	0.0138069
679.312	0.0137440
679.390	0.0138921
679.468	0.0139891
679.546	0.0140351
679.624	0.0140788
679.703	0.0141428
679.781	0.0141130
679.859	0.0140900
679.937	0.0140911
680.015	0.0141441
680.093	0.0139179
680.171	0.0137562
680.249	0.0137759
680.328	0.0136560
680.406	0.0135758
680.484	0.0135039
680.562	0.0135258
680.640	0.0135750
680.718	0.0135742
680.796	0.0135609
680.874	0.0134387
680.953	0.0134447
681.031	0.0135905
681.109	0.0135897
681.187	0.0136081
681.265	0.0135297
681.343	0.0134924
681.421	0.0135282
681.499	0.0135287
681.578	0.0135536
681.656	0.0134129
681.734	0.0133406
681.812	0.0133107
681.890	0.0132986
681.968	0.0132037
682.046	0.0132088
682.124	0.0131342
682.203	0.0132375
682.281	0.0132559
682.359	0.0132692
682.437	0.0133972
682.515	0.0133972
682.593	0.0133783
682.671	0.0134306
682.749	0.0136310
682.828	0.0136004
682.906	0.0137123
682.984	0.0136379
683.062	0.0135294
683.140	0.0137812
683.218	0.0136750
683.296	0.0134441
683.374	0.0136228
683.453	0.0134511
683.531	0.0134869
683.609	0.0134027
683.687	0.0136697
683.765	0.0135554
683.843	0.0135101
683.921	0.0135123
683.999	0.0135333
684.078	0.0134875
684.156	0.0134670
684.234	0.0135312
684.312	0.0133797
684.390	0.0134987
684.468	0.0135465
684.546	0.0133868
684.624	0.0133181
684.703	0.0133844
684.781	0.0134460
684.859	0.0133556
684.937	0.0134277
685.015	0.0135683
685.093	0.0134808
685.171	0.0135056
685.249	0.0135336
685.328	0.0137001
685.406	0.0136105
685.484	0.0136903
685.562	0.0136572
685.640	0.0136771
685.718	0.0136233
685.796	0.0136685
685.874	0.0136752
685.953	0.0135814
686.031	0.0136459
686.109	0.0136285
686.187	0.0135800
686.265	0.0135056
686.343	0.0135499
686.421	0.0135409
686.499	0.0135441
686.578	0.0136198
686.656	0.0135497
686.734	0.0136369
686.812	0.0136286
686.890	0.0136188
686.968	0.0137047
687.046	0.0136739
687.124	0.0134896
687.203	0.0136519
687.281	0.0137861
687.359	0.0137551
687.437	0.0136301
687.515	0.0136310
687.593	0.0136465
687.671	0.0136025
687.749	0.0136137
687.828	0.0134792
687.906	0.0134128
687.984	0.0133917
688.062	0.0133521
688.140	0.0132950
688.218	0.0132381
688.296	0.0132050
688.374	0.0132635
688.453	0.0132406
688.531	0.0133254
688.609	0.0134338
688.687	0.0132631
688.765	0.0134033
688.843	0.0134363
688.921	0.0135764
688.999	0.0135599
689.078	0.0133664
689.156	0.0136546
689.234	0.0135466
689.312	0.0136715
689.390	0.0136793
689.468	0.0135052
689.546	0.0135927
689.624	0.0136260
689.703	0.0136048
689.781	0.0135001
689.859	0.0136836
689.937	0.0136600
690.015	0.0137173
690.093	0.0138722
690.171	0.0138432
690.249	0.0137508
690.328	0.0136705
690.406	0.0135995
690.484	0.0135096
690.562	0.0137217
690.640	0.0137422
690.718	0.0134895
690.796	0.0136100
690.874	0.0136368
690.953	0.0136654
691.031	0.0135523
691.109	0.0135538
691.187	0.0133667
691.265	0.0135240
691.343	0.0136639
691.421	0.0135242
691.499	0.0136083
691.578	0.0135258
691.656	0.0135458
691.734	0.0136254
691.812	0.0138243
691.890	0.0137975
691.968	0.0137714
692.046	0.0137435
692.124	0.0138874
692.203	0.0138691
692.281	0.0138897
692.359	0.0138481
692.437	0.0138225
692.515	0.0136288
692.593	0.0135706
692.671	0.0137891
692.749	0.0135618
692.828	0.0133503
692.906	0.0132378
692.984	0.0131882
693.062	0.0131441
693.140	0.0131153
693.218	0.0132701
693.296	0.0133475
693.374	0.0132812
693.453	0.0134688
693.531	0.0135055
693.609	0.0135052
693.687	0.0135635
693.765	0.0135963
693.843	0.0135332
693.921	0.0136605
693.999	0.0136350
694.078	0.0135829
694.156	0.0135388
694.234	0.0135226
694.312	0.0135097
694.390	0.0133698
694.468	0.0134474
694.546	0.0133834
694.624	0.0135005
694.703	0.0132631
694.781	0.0133648
694.859	0.0134429
694.937	0.0133201
695.015	0.0133801
695.093	0.0134900
695.171	0.0134518
695.249	0.0134463
695.328	0.0135663
695.406	0.0136112
695.484	0.0137212
695.562	0.0137942
695.640	0.0138680
695.718	0.0137444
695.796	0.0138485
695.874	0.0137742
695.953	0.0138242
696.031	0.0137488
696.109	0.0138703
696.187	0.0138141
696.265	0.0136242
696.343	0.0135658
696.421	0.0135880
696.499	0.0135613
696.578	0.0132915
696.656	0.0133387
696.734	0.0134042
696.812	0.0134528
696.890	0.0134293
696.968	0.0135932
697.046	0.0135603
697.124	0.0134835
697.203	0.0136064
697.281	0.0136286
697.359	0.0135654
697.437	0.0134940
697.515	0.0134528
697.593	0.0133724
697.671	0.0133508
697.749	0.0132672
697.828	0.0132560
697.906	0.0132075
697.984	0.0131772
698.062	0.0133683
698.140	0.0134162
698.218	0.0134167
698.296	0.0135428
698.374	0.0135975
698.453	0.0137775
698.531	0.0138720
698.609	0.0137133
698.687	0.0136481
698.765	0.0137533
698.843	0.0136374
698.921	0.0135040
698.999	0.0135580
699.078	0.0134912
699.156	0.0134386
699.234	0.0134194
699.312	0.0133282
699.390	0.0134160
699.468	0.0134178
699.546	0.0133398
699.624	0.0134473
699.703	0.0134511
699.781	0.0135114
699.859	0.0134737
699.937	0.0133938
700.015	0.0136045
700.093	0.0136088
700.171	0.0136810
700.249	0.0136832
700.328	0.0137135
700.406	0.0136299
700.484	0.0137415
700.562	0.0137238
700.640	0.0137088
700.718	0.0138246
700.796	0.0138807
700.874	0.0137270
700.953	0.0136802
701.031	0.0136356
701.109	0.0135599
701.187	0.0134363
701.265	0.0134457
701.343	0.0133038
701.421	0.0133662
701.499	0.0132811
701.578	0.0131516
701.656	0.0133487
701.734	0.0133262
701.812	0.0133315
701.890	0.0135117
701.968	0.0134494
702.046	0.0133945
702.124	0.0134448
702.203	0.0136156
702.281	0.0134922
702.359	0.0134589
702.437	0.0134806
702.515	0.0136542
702.593	0.0136297
702.671	0.0135064
702.749	0.0134200
702.828	0.0134605
702.906	0.0135481
702.984	0.0137066
703.062	0.0135827
703.140	0.0135700
703.218	0.0135641
703.296	0.0135648
703.374	0.0134255
703.453	0.0135166
703.531	0.0134278
703.609	0.0135610
703.687	0.0135265
703.765	0.0134832
703.843	0.0135098
703.921	0.0136443
703.999	0.0135104
704.078	0.0135751
704.156	0.0135239
704.234	0.0135470
704.312	0.0137713
704.390	0.0138406
704.468	0.0137386
704.546	0.0137141
704.624	0.0137540
704.703	0.0137585
704.781	0.0137930
704.859	0.0139313
704.937	0.0137551
705.015	0.0137280
705.093	0.0138044
705.171	0.0135874
705.249	0.0135102
705.328	0.0134323
705.406	0.0136030
705.484	0.0134557
705.562	0.0134747
705.640	0.0135824
705.718	0.0135351
705.796	0.0132628
705.874	0.0134560
705.953	0.0136868
706.031	0.0136501
706.109	0.0136383
706.187	0.0135443
706.265	0.0135675
706.343	0.0135506
706.421	0.0136603
706.499	0.0137344
706.578	0.0134930
706.656	0.0135887
706.734	0.0135094
706.812	0.0135037
706.890	0.0135251
706.968	0.0134868
707.046	0.0133659
707.124	0.0133170
707.203	0.0132796
707.281	0.0132683
707.359	0.0133012
707.437	0.0133127
707.515	0.0132973
707.593	0.0132740
707.671	0.0133160
707.749	0.0133690
707.828	0.0134473
707.906	0.0135243
707.984	0.0135208
708.062	0.0136046
708.140	0.0133775
708.218	0.0133781
708.296	0.0132841
708.374	0.0132363
708.453	0.0132703
708.531	0.0132708
708.609	0.0132771
708.687	0.0133250
708.765	0.0132168
708.843	0.0133078
708.921	0.0134212
708.999	0.0135551
709.078	0.0134088
709.156	0.0135992
709.234	0.0135869
709.312	0.0136692
709.390	0.0137348
709.468	0.0136633
709.546	0.0137770
709.624	0.0137608
709.703	0.0137031
709.781	0.0135760
709.859	0.0137437
709.937	0.0135888
710.015	0.0136076
710.093	0.0136102
710.171	0.0136945
710.249	0.0137608
710.328	0.0135799
710.406	0.0135690
710.484	0.0136005
710.562	0.0134027
710.640	0.0136917
710.718	0.0135827
710.796	0.0135546
710.874	0.0135278
710.953	0.0136113
711.031	0.0133880
711.109	0.0134698
711.187	0.0133177
711.265	0.0133281
711.343	0.0135194
711.421	0.0135532
711.499	0.0133316
711.578	0.0132150
711.656	0.0132755
711.734	0.0134408
711.812	0.0132970
711.890	0.0134299
711.968	0.0133301
712.046	0.0133354
712.124	0.0134373
712.203	0.0134866
712.281	0.0135813
712.359	0.0135654
712.437	0.0136193
712.515	0.0136765
712.593	0.0136724
712.671	0.0136066
712.749	0.0137046
712.828	0.0137397
712.906	0.0135651
712.984	0.0135739
713.062	0.0135367
713.140	0.0135321
713.218	0.0134042
713.296	0.0134050
713.374	0.0133649
713.453	0.0133682
713.531	0.0134698
713.609	0.0133689
713.687	0.0134062
713.765	0.0135027
713.843	0.0134087
713.921	0.0133336
713.999	0.0135597
714.078	0.0134528
714.156	0.0134160
714.234	0.0134976
714.312	0.0134879
714.390	0.0133985
714.468	0.0135964
714.546	0.0133729
714.624	0.0133517
714.703	0.0135023
714.781	0.0135027
714.859	0.0134966
714.937	0.0134962
715.015	0.0134224
715.093	0.0135746
715.171	0.0135388
715.249	0.0135179
715.328	0.0135120
715.406	0.0136056
715.484	0.0136142
715.562	0.0135658
715.640	0.0136361
715.718	0.0135028
715.796	0.0135722
715.874	0.0137404
715.953	0.0137367
716.031	0.0139177
716.109	0.0136856
716.187	0.0136446
716.265	0.0138968
716.343	0.0137098
716.421	0.0136258
716.499	0.0135110
716.578	0.0135394
716.656	0.0134647
716.734	0.0135374
716.812	0.0134634
716.890	0.0133730
716.968	0.0134014
717.046	0.0133953
717.124	0.0134888
717.203	0.0134428
717.281	0.0134949
717.359	0.0135567
717.437	0.0136142
717.515	0.0137083
717.593	0.0134508
717.671	0.0136890
717.749	0.0137936
717.828	0.0136836
717.906	0.0136728
717.984	0.0135667
718.062	0.0137332
718.140	0.0137138
718.218	0.0136132
718.296	0.0136720
718.374	0.0136491
718.453	0.0135327
718.531	0.0134776
718.609	0.0134140
718.687	0.0134774
718.765	0.0134037
718.843	0.0134769
718.921	0.0134786
718.999	0.0134088
719.078	0.0133779
719.156	0.0133706
719.234	0.0132748
719.312	0.0133559
719.390	0.0133782
719.468	0.0131976
719.546	0.0133589
719.624	0.0134884
719.703	0.0133980
719.781	0.0135532
719.859	0.0135106
719.937	0.0134916
720.015	0.0134836
720.093	0.0134045
720.171	0.0135555
720.249	0.0135761
720.328	0.0135703
720.406	0.0134574
720.484	0.0136003
720.562	0.0135778
720.640	0.0135194
720.718	0.0134336
720.796	0.0134463
720.874	0.0133450
720.953	0.0134677
721.031	0.0135106
721.109	0.0136861
721.187	0.0135184
721.265	0.0134505
721.343	0.0135108
721.421	0.0134737
721.499	0.0134996
721.578	0.0135112
721.656	0.0135124
721.734	0.0134805
721.812	0.0135179
721.890	0.0135571
721.968	0.0135663
722.046	0.0135023
722.124	0.0134937
722.203	0.0135013
722.281	0.0134095
722.359	0.0135326
722.437	0.0135777
722.515	0.0136684
722.593	0.0135779
722.671	0.0135951
722.749	0.0135058
722.828	0.0136395
722.906	0.0135379
722.984	0.0136434
723.062	0.0135552
723.140	0.0135506
723.218	0.0137089
723.296	0.0135879
723.374	0.0135561
723.453	0.0135906
723.531	0.0135181
723.609	0.0135688
723.687	0.0134435
723.765	0.0134460
723.843	0.0134824
723.921	0.0136111
723.999	0.0133502
724.078	0.0133440
724.156	0.0133211
724.234	0.0133566
724.312	0.0135197
724.390	0.0134917
724.468	0.0133752
724.546	0.0133224
724.624	0.0134758
724.703	0.0134821
724.781	0.0135904
724.859	0.0136105
724.937	0.0135740
725.015	0.0136079
725.093	0.0136728
725.171	0.0136874
725.249	0.0137093
725.328	0.0135398
725.406	0.0136647
725.484	0.0137820
725.562	0.0136375
725.640	0.0135722
725.718	0.0134833
725.796	0.0134993
725.874	0.0134502
725.953	0.0135587
726.031	0.0135874
726.109	0.0133926
726.187	0.0134229
726.265	0.0133919
726.343	0.0134181
726.421	0.0134931
726.499	0.0133912
726.578	0.0133858
726.656	0.0132891
726.734	0.0133658
726.812	0.0134051
726.890	0.0135182
726.968	0.0135485
727.046	0.0133696
727.124	0.0135855
727.203	0.0135573
727.281	0.0134128
727.359	0.0135632
727.437	0.0136163
727.515	0.0136768
727.593	0.0136549
727.671	0.0136177
727.749	0.0138086
727.828	0.0136716
727.906	0.0136259
727.984	0.0136829
728.062	0.0135661
728.140	0.0136037
728.218	0.0135782
728.296	0.0136237
728.374	0.0136250
728.453	0.0137088
728.531	0.0136547
728.609	0.0135015
728.687	0.0136263
728.765	0.0136071
728.843	0.0138000
728.921	0.0136858
728.999	0.0135608
729.078	0.0136572
729.156	0.0136144
729.234	0.0136170
729.312	0.0137213
729.390	0.0136833
729.468	0.0137367
729.546	0.0137769
729.624	0.0136974
729.703	0.0136592
729.781	0.0135503
729.859	0.0135833
729.937	0.0135320
730.015	0.0135794
730.093	0.0135941
730.171	0.0134282
730.249	0.0135439
730.328	0.0134534
730.406	0.0134338
730.484	0.0135210
730.562	0.0134295
730.640	0.0137090
730.718	0.0136370
730.796	0.0133944
730.874	0.0135272
730.953	0.0136034
731.031	0.0135603
731.109	0.0135476
731.187	0.0135470
731.265	0.0134846
731.343	0.0134830
731.421	0.0135562
731.499	0.0134913
731.578	0.0135514
731.656	0.0135731
731.734	0.0135375
731.812	0.0135810
731.890	0.0134820
731.968	0.0134021
732.046	0.0135447
732.124	0.0135728
732.203	0.0135992
732.281	0.0135780
732.359	0.0135776
732.437	0.0135785
732.515	0.0136510
732.593	0.0135694
732.671	0.0136438
732.749	0.0135972
732.828	0.0136280
732.906	0.0136566
732.984	0.0135078
733.062	0.0136392
733.140	0.0135870
733.218	0.0135562
733.296	0.0135416
733.374	0.0135764
733.453	0.0134584
733.531	0.0135121
733.609	0.0134496
733.687	0.0135436
733.765	0.0137299
733.843	0.0135073
733.921	0.0133136
733.999	0.0135283
734.078	0.0135207
734.156	0.0136482
734.234	0.0134484
734.312	0.0134470
734.390	0.0136108
734.468	0.0136663
734.546	0.0135930
734.624	0.0136530
734.703	0.0136206
734.781	0.0136926
734.859	0.0135725
734.937	0.0135825
735.015	0.0136073
735.093	0.0136522
735.171	0.0136862
735.249	0.0135059
735.328	0.0135459
735.406	0.0134404
735.484	0.0135346
735.562	0.0134954
735.640	0.0135486
735.718	0.0135986
735.796	0.0135416
735.874	0.0134300
735.953	0.0135764
736.031	0.0135701
736.109	0.0135307
736.187	0.0136549
736.265	0.0135524
736.343	0.0135574
736.421	0.0135593
736.499	0.0136269
736.578	0.0134201
736.656	0.0134920
736.734	0.0135387
736.812	0.0134892
736.890	0.0134471
736.968	0.0133711
737.046	0.0134384
737.124	0.0134925
737.203	0.0134377
737.281	0.0134504
737.359	0.0135321
737.437	0.0135389
737.515	0.0133845
737.593	0.0133736
737.671	0.0133207
737.749	0.0134463
737.828	0.0135658
737.906	0.0133365
737.984	0.0133148
738.062	0.0135390
738.140	0.0134187
738.218	0.0134206
738.296	0.0135513
738.374	0.0134534
738.453	0.0135641
738.531	0.0134702
738.609	0.0134467
738.687	0.0135302
738.765	0.0136579
738.843	0.0135931
738.921	0.0135254
738.999	0.0135931
739.078	0.0136304
739.156	0.0134829
739.234	0.0136139
739.312	0.0135336
739.390	0.0134825
739.468	0.0133758
739.546	0.0134306
739.624	0.0135117
739.703	0.0135221
739.781	0.0134210
739.859	0.0133976
739.937	0.0134080
740.015	0.0135252
740.093	0.0135646
740.171	0.0135206
740.249	0.0134977
740.328	0.0136712
740.406	0.0136285
740.484	0.0135907
740.562	0.0137542
740.640	0.0136806
740.718	0.0136206
740.796	0.0137742
740.874	0.0136904
740.953	0.0136441
741.031	0.0137246
741.109	0.0135030
741.187	0.0135957
741.265	0.0137662
741.343	0.0135032
741.421	0.0135643
741.499	0.0135583
741.578	0.0134406
741.656	0.0135876
741.734	0.0135255
741.812	0.0135475
741.890	0.0135791
741.968	0.0137463
742.046	0.0135295
742.124	0.0136040
742.203	0.0136566
742.281	0.0135027
742.359	0.0135130
742.437	0.0133491
742.515	0.0135336
742.593	0.0134657
742.671	0.0134397
742.749	0.0134506
742.828	0.0132571
742.906	0.0134523
742.984	0.0135061
743.062	0.0134965
743.140	0.0134040
743.218	0.0135756
743.296	0.0136427
743.374	0.0134152
743.453	0.0135748
743.531	0.0136454
743.609	0.0135585
743.687	0.0135173
743.765	0.0136090
743.843	0.0134827
743.921	0.0137804
743.999	0.0136018
744.078	0.0134918
744.156	0.0135083
744.234	0.0135001
744.312	0.0133845
744.390	0.0135077
744.468	0.0135933
744.546	0.0133978
744.624	0.0135817
744.703	0.0135690
744.781	0.0136625
744.859	0.0136378
744.937	0.0135947
745.015	0.0136208
745.093	0.0135980
745.171	0.0135256
745.249	0.0136391
745.328	0.0135712
745.406	0.0136417
745.484	0.0135405
745.562	0.0135712
745.640	0.0135985
745.718	0.0135567
745.796	0.0135237
745.874	0.0134915
745.953	0.0136293
746.031	0.0137434
746.109	0.0136309
746.187	0.0134746
746.265	0.0134587
746.343	0.0136305
746.421	0.0136095
746.499	0.0137610
746.578	0.0135329
746.656	0.0136456
746.734	0.0137003
746.812	0.0135988
746.890	0.0136481
746.968	0.0136407
747.046	0.0134145
747.124	0.0135676
747.203	0.0136016
747.281	0.0134756
747.359	0.0133717
747.437	0.0135154
747.515	0.0134637
747.593	0.0134024
747.671	0.0135390
747.749	0.0135776
747.828	0.0136031
747.906	0.0136771
747.984	0.0137309
748.062	0.0136545
748.140	0.0137641
748.218	0.0139008
748.296	0.0136903
748.374	0.0137581
748.453	0.0135376
748.531	0.0137397
748.609	0.0136688
748.687	0.0135822
748.765	0.0136451
748.843	0.0134491
748.921	0.0133883
748.999	0.0135041
749.078	0.0133760
749.156	0.0133727
749.234	0.0135347
749.312	0.0134103
749.390	0.0134808
749.468	0.0135808
749.546	0.0136586
749.624	0.0135416
749.703	0.0135955
749.781	0.0135759
749.859	0.0136459
749.937	0.0135801
750.015	0.0136292
750.093	0.0136519
750.171	0.0135501
750.249	0.0134590
750.328	0.0135503
750.406	0.0136001
750.484	0.0135432
750.562	0.0134103
750.640	0.0134441
750.718	0.0135378
750.796	0.0134924
750.874	0.0135746
750.953	0.0136609
751.031	0.0136047
751.109	0.0135844
751.187	0.0136318
751.265	0.0137447
751.343	0.0137273
751.421	0.0135323
751.499	0.0136440
751.578	0.0137759
751.656	0.0137956
751.734	0.0137689
751.812	0.0137216
751.890	0.0134520
751.968	0.0135170
752.046	0.0136687
752.124	0.0135267
752.203	0.0134913
752.281	0.0135303
752.359	0.0135000
752.437	0.0135996
752.515	0.0135474
752.593	0.0135299
752.671	0.0136654
752.749	0.0137022
752.828	0.0136397
752.906	0.0136379
752.984	0.0136519
753.062	0.0136224
753.140	0.0136641
753.218	0.0135278
753.296	0.0136374
753.374	0.0134763
753.453	0.0135485
753.531	0.0134914
753.609	0.0134879
753.687	0.0134656
753.765	0.0134503
753.843	0.0135624
753.921	0.0134866
753.999	0.0135232
754.078	0.0134946
754.156	0.0136307
754.234	0.0136290
754.312	0.0137508
754.390	0.0138083
754.468	0.0136314
754.546	0.0137051
754.624	0.0135478
754.703	0.0134373
754.781	0.0134656
754.859	0.0133677
754.937	0.0133074
755.015	0.0133469
755.093	0.0133858
755.171	0.0132776
755.249	0.0133960
755.328	0.0132586
755.406	0.0134487
755.484	0.0135709
755.562	0.0135150
755.640	0.0135453
755.718	0.0136818
755.796	0.0135212
755.874	0.0135198
755.953	0.0136859
756.031	0.0136707
756.109	0.0135648
756.187	0.0134803
756.265	0.0134210
756.343	0.0134573
756.421	0.0134429
756.499	0.0133749
756.578	0.0134696
756.656	0.0133158
756.734	0.0133826
756.812	0.0134676
756.890	0.0135403
756.968	0.0134332
757.046	0.0134840
757.124	0.0135859
757.203	0.0135730
757.281	0.0135345
757.359	0.0135202
757.437	0.0134446
757.515	0.0136087
757.593	0.0135622
757.671	0.0135693
757.749	0.0137331
757.828	0.0135852
757.906	0.0135906
757.984	0.0135242
758.062	0.0135870
758.140	0.0134986
758.218	0.0133541
758.296	0.0135604
758.374	0.0135769
758.453	0.0136358
758.531	0.0135571
758.609	0.0135152
758.687	0.0136324
758.765	0.0135270
758.843	0.0135399
758.921	0.0136244
758.999	0.0134728
759.078	0.0134483
759.156	0.0135867
759.234	0.0134209
759.312	0.0134577
759.390	0.0135815
759.468	0.0134630
759.546	0.0133885
759.624	0.0135218
759.703	0.0136102
759.781	0.0135439
759.859	0.0135146
759.937	0.0135893
760.015	0.0135950
760.093	0.0135548
760.171	0.0135452
760.249	0.0135675
760.328	0.0136553
760.406	0.0134184
760.484	0.0136109
760.562	0.0133885
760.640	0.0134099
760.718	0.0136186
760.796	0.0136545
760.874	0.0135304
760.953	0.0135941
761.031	0.0137486
761.109	0.0136005
761.187	0.0136700
761.265	0.0135078
761.343	0.0136383
761.421	0.0134930
761.499	0.0134981
761.578	0.0135926
761.656	0.0134362
761.734	0.0134891
761.812	0.0135514
761.890	0.0133291
761.968	0.0134283
762.046	0.0134510
762.124	0.0134425
762.203	0.0135387
762.281	0.0136514
762.359	0.0135694
762.437	0.0136671
762.515	0.0136021
762.593	0.0137202
762.671	0.0137103
762.749	0.0136660
762.828	0.0136697
762.906	0.0136888
762.984	0.0136831
763.062	0.0135384
763.140	0.0136111
763.218	0.0135754
763.296	0.0135766
763.374	0.0135966
763.453	0.0134634
763.531	0.0135517
763.609	0.0136137
763.687	0.0136756
763.765	0.0136848
763.843	0.0136366
763.921	0.0136926
763.999	0.0135644
764.078	0.0135255
764.156	0.0135687
764.234	0.0135091
764.312	0.0134231
764.390	0.0133546
764.468	0.0135449
764.546	0.0135920
764.624	0.0134217
764.703	0.0134129
764.781	0.0135804
764.859	0.0136060
764.937	0.0135432
765.015	0.0134740
765.093	0.0133945
765.171	0.0134303
765.249	0.0133992
765.328	0.0135947
765.406	0.0136148
765.484	0.0136410
765.562	0.0135173
765.640	0.0133927
765.718	0.0134418
765.796	0.0135366
765.874	0.0134092
765.953	0.0134612
766.031	0.0136271
766.109	0.0134248
766.187	0.0135522
766.265	0.0136236
766.343	0.0134624
766.421	0.0134680
766.499	0.0135195
766.578	0.0136113
766.656	0.0135641
766.734	0.0137257
766.812	0.0137118
766.890	0.0135285
766.968	0.0134900
767.046	0.0134404
767.124	0.0133774
767.203	0.0134392
767.281	0.0135006
767.359	0.0134855
767.437	0.0134227
767.515	0.0135226
767.593	0.0134910
767.671	0.0134724
767.749	0.0135151
767.828	0.0135539
767.906	0.0133424
767.984	0.0134118
768.062	0.0135677
768.140	0.0136385
768.218	0.0136765
768.296	0.0134762
768.374	0.0135564
768.453	0.0135416
768.531	0.0136464
768.609	0.0134643
768.687	0.0135576
768.765	0.0135882
768.843	0.0135005
768.921	0.0133664
768.999	0.0135931
769.078	0.0136091
769.156	0.0134700
769.234	0.0136139
769.312	0.0134477
769.390	0.0135501
769.468	0.0134567
769.546	0.0136221
769.624	0.0135265
769.703	0.0135041
769.781	0.0136295
769.859	0.0135152
769.937	0.0136201
770.015	0.0137561
770.093	0.0137292
770.171	0.0135120
770.249	0.0136023
770.328	0.0136446
770.406	0.0134586
770.484	0.0135719
770.562	0.0134843
770.640	0.0134823
770.718	0.0137649
770.796	0.0137067
770.874	0.0135289
770.953	0.0135563
771.031	0.0134769
771.109	0.0134128
771.187	0.0135464
771.265	0.0135837
771.343	0.0135875
771.421	0.0135520
771.499	0.0136435
771.578	0.0134992
771.656	0.0135886
771.734	0.0134879
771.812	0.0135027
771.890	0.0135762
771.968	0.0134714
772.046	0.0134435
772.124	0.0135356
772.203	0.0135351
772.281	0.0135822
772.359	0.0135585
772.437	0.0135406
772.515	0.0135661
772.593	0.0135189
772.671	0.0134074
772.749	0.0134441
772.828	0.0136835
772.906	0.0136270
772.984	0.0135223
773.062	0.0135870
773.140	0.0135506
773.218	0.0135329
773.296	0.0136275
773.374	0.0136837
773.453	0.0134952
773.531	0.0136829
773.609	0.0135785
773.687	0.0135683
773.765	0.0136179
773.843	0.0136004
773.921	0.0135788
773.999	0.0136326
774.078	0.0136195
774.156	0.0135079
774.234	0.0134618
774.312	0.0135445
774.390	0.0135373
774.468	0.0135070
774.546	0.0134586
774.624	0.0135178
774.703	0.0134974
774.781	0.0134718
774.859	0.0135789
774.937	0.0136215
775.015	0.0136070
775.093	0.0136755
775.171	0.0135300
775.249	0.0136217
775.328	0.0134054
775.406	0.0135254
775.484	0.0135957
775.562	0.0133855
775.640	0.0135733
775.718	0.0134784
775.796	0.0132826
775.874	0.0133819
775.953	0.0134718
776.031	0.0135071
776.109	0.0134923
776.187	0.0133503
776.265	0.0134406
776.343	0.0134212
776.421	0.0134933
776.499	0.0135188
776.578	0.0135558
776.656	0.0134151
776.734	0.0134408
776.812	0.0135049
776.890	0.0134250
776.968	0.0135190
777.046	0.0134676
777.124	0.0134958
777.203	0.0135397
777.281	0.0134131
777.359	0.0136626
777.437	0.0136080
777.515	0.0134549
777.593	0.0135693
777.671	0.0136827
777.749	0.0136974
777.828	0.0135223
777.906	0.0135345
777.984	0.0135844
778.062	0.0134433
778.140	0.0135536
778.218	0.0135134
778.296	0.0135674
778.374	0.0134876
778.453	0.0134584
778.531	0.0134370
778.609	0.0135609
778.687	0.0135986
778.765	0.0134965
778.843	0.0134979
778.921	0.0136628
778.999	0.0135828
779.078	0.0136064
779.156	0.0136063
779.234	0.0136481
779.312	0.0136085
779.390	0.0135245
779.468	0.0136196
779.546	0.0135185
779.624	0.0135105
779.703	0.0134592
779.781	0.0135546
779.859	0.0135601
779.937	0.0135784
780.015	0.0134924
780.093	0.0134855
780.171	0.0135552
780.249	0.0134638
780.328	0.0134093
780.406	0.0133663
780.484	0.0133988
780.562	0.0134354
780.640	0.0134174
780.718	0.0133346
780.796	0.0133641
780.874	0.0134157
780.953	0.0133815
781.031	0.0132854
781.109	0.0133965
781.187	0.0134796
781.265	0.0133145
781.343	0.0134192
781.421	0.0135186
781.499	0.0134737
781.578	0.0133251
781.656	0.0134832
781.734	0.0135346
781.812	0.0134954
781.890	0.0135286
781.968	0.0135466
782.046	0.0135934
782.124	0.0136893
782.203	0.0136440
782.281	0.0135999
782.359	0.0136630
782.437	0.0136683
782.515	0.0136447
782.593	0.0136982
782.671	0.0137006
782.749	0.0136267
782.828	0.0135558
782.906	0.0136018
782.984	0.0135722
783.062	0.0133781
783.140	0.0135093
783.218	0.0135543
783.296	0.0134637
783.374	0.0136658
783.453	0.0135277
783.531	0.0134386
783.609	0.0134499
783.687	0.0135532
783.765	0.0134188
783.843	0.0134759
783.921	0.0134599
783.999	0.0133465
784.078	0.0133410
784.156	0.0134376
784.234	0.0135387
784.312	0.0134565
784.390	0.0134274
784.468	0.0133632
784.546	0.0133202
784.624	0.0134119
784.703	0.0132586
784.781	0.0133978
784.859	0.0135130
784.937	0.0136112
785.015	0.0135139
785.093	0.0134663
785.171	0.0135042
785.249	0.0133878
785.328	0.0135837
785.406	0.0135385
785.484	0.0135520
785.562	0.0136517
785.640	0.0134921
785.718	0.0135548
785.796	0.0136681
785.874	0.0137582
785.953	0.0136695
786.031	0.0136468
786.109	0.0136525
786.187	0.0136219
786.265	0.0136000
786.343	0.0137471
786.421	0.0136336
786.499	0.0136530
786.578	0.0136077
786.656	0.0137682
786.734	0.0137685
786.812	0.0137650
786.890	0.0135871
786.968	0.0137721
787.046	0.0136668
787.124	0.0135632
787.203	0.0136892
787.281	0.0135880
787.359	0.0134884
787.437	0.0134629
787.515	0.0135050
787.593	0.0135397
787.671	0.0134258
787.749	0.0134332
787.828	0.0135411
787.906	0.0135789
787.984	0.0134378
788.062	0.0134058
788.140	0.0134557
788.218	0.0135241
788.296	0.0134834
788.374	0.0134087
788.453	0.0135439
788.531	0.0134420
788.609	0.0133196
788.687	0.0133719
788.765	0.0133543
788.843	0.0133916
788.921	0.0134542
788.999	0.0133680
789.078	0.0133577
789.156	0.0134708
789.234	0.0133839
789.312	0.0136467
789.390	0.0134452
789.468	0.0135065
789.546	0.0135764
789.624	0.0134852
789.703	0.0134656
789.781	0.0135229
789.859	0.0137135
789.937	0.0135821
790.015	0.0137016
790.093	0.0136478
790.171	0.0137632
790.249	0.0135605
790.328	0.0134818
790.406	0.0136444
790.484	0.0137411
790.562	0.0135725
790.640	0.0134588
790.718	0.0133987
790.796	0.0134225
790.874	0.0136797
790.953	0.0135543
791.031	0.0134727
791.109	0.0136156
791.187	0.0135821
791.265	0.0135888
791.343	0.0135017
791.421	0.0135212
791.499	0.0136432
791.578	0.0136176
791.656	0.0137340
791.734	0.0136349
791.812	0.0135916
791.890	0.0135552
791.968	0.0134443
792.046	0.0135067
792.124	0.0136092
792.203	0.0134729
792.281	0.0134814
792.359	0.0134975
792.437	0.0133640
792.515	0.0134450
792.593	0.0132585
792.671	0.0135313
792.749	0.0136408
792.828	0.0135935
792.906	0.0134703
792.984	0.0135011
793.062	0.0136443
793.140	0.0136312
793.218	0.0134827
793.296	0.0134496
793.374	0.0136569
793.453	0.0135278
793.531	0.0135016
793.609	0.0135668
793.687	0.0135507
793.765	0.0136175
793.843	0.0134190
793.921	0.0134306
793.999	0.0135155
794.078	0.0135031
794.156	0.0133603
794.234	0.0134573
794.312	0.0134292
794.390	0.0135159
794.468	0.0135017
794.546	0.0134075
794.624	0.0134134
794.703	0.0136263
794.781	0.0134979
794.859	0.0134657
794.937	0.0134740
795.015	0.0135071
795.093	0.0136842
795.171	0.0136770
795.249	0.0135197
795.328	0.0136717
795.406	0.0136112
795.484	0.0136380
795.562	0.0137524
795.640	0.0136554
795.718	0.0136561
795.796	0.0136902
795.874	0.0137421
795.953	0.0136461
796.031	0.0136031
796.109	0.0136813
796.187	0.0135574
796.265	0.0135952
796.343	0.0135669
796.421	0.0135131
796.499	0.0135638
796.578	0.0135359
796.656	0.0134160
796.734	0.0134474
796.812	0.0134417
796.890	0.0132896
796.968	0.0133727
797.046	0.0134267
797.124	0.0133905
797.203	0.0133933
797.281	0.0135047
797.359	0.0132511
797.437	0.0134546
797.515	0.0133707
797.593	0.0132655
797.671	0.0134954
797.749	0.0134902
797.828	0.0134160
797.906	0.0133813
797.984	0.0135061
798.062	0.0134763
798.140	0.0135497
798.218	0.0135741
798.296	0.0134351
798.374	0.0135786
798.453	0.0135125
798.531	0.0135786
798.609	0.0135777
798.687	0.0134040
798.765	0.0134428
798.843	0.0134208
798.921	0.0134998
798.999	0.0135561
799.078	0.0134510
799.156	0.0133687
799.234	0.0135305
799.312	0.0135275
799.390	0.0134180
799.468	0.0134035
799.546	0.0133730
799.624	0.0134966
799.703	0.0134063
799.781	0.0134360
799.859	0.0134003
799.937	0.0134595
800.015	0.0135365
800.093	0.0134097
800.171	0.0134141
800.249	0.0135516
800.328	0.0135606
800.406	0.0136062
800.484	0.0135717
800.562	0.0135352
800.640	0.0135406
800.718	0.0136211
800.796	0.0135452
800.874	0.0135986
800.953	0.0136232
801.031	0.0136475
801.109	0.0135188
801.187	0.0135104
801.265	0.0134559
801.343	0.0135271
801.421	0.0135143
801.499	0.0134410
801.578	0.0133544
801.656	0.0134819
801.734	0.0133591
801.812	0.0134363
801.890	0.0135570
801.968	0.0134047
802.046	0.0135054
802.124	0.0135778
802.203	0.0134824
802.281	0.0137144
802.359	0.0136426
802.437	0.0136208
802.515	0.0135152
802.593	0.0134411
802.671	0.0134416
802.749	0.0134746
802.828	0.0134312
802.906	0.0133646
802.984	0.0133745
803.062	0.0134268
803.140	0.0133424
803.218	0.0134492
803.296	0.0133108
803.374	0.0133480
803.453	0.0135163
803.531	0.0133765
803.609	0.0132690
803.687	0.0133653
803.765	0.0134061
803.843	0.0133908
803.921	0.0134547
803.999	0.0135761
804.078	0.0134252
804.156	0.0134466
804.234	0.0134990
804.312	0.0133694
804.390	0.0134906
804.468	0.0134408
804.546	0.0135107
804.624	0.0134258
804.703	0.0134801
804.781	0.0135315
804.859	0.0134267
804.937	0.0135535
805.015	0.0136206
805.093	0.0136887
805.171	0.0135777
805.249	0.0135037
805.328	0.0135737
805.406	0.0133877
805.484	0.0135040
805.562	0.0134926
805.640	0.0133745
805.718	0.0136282
805.796	0.0136010
805.874	0.0135329
805.953	0.0135442
806.031	0.0135754
806.109	0.0134356
806.187	0.0135629
806.265	0.0134722
806.343	0.0134896
806.421	0.0135459
806.499	0.0135677
806.578	0.0135403
806.656	0.0135844
806.734	0.0135044
806.812	0.0136139
806.890	0.0135638
806.968	0.0133508
807.046	0.0135630
807.124	0.0135600
807.203	0.0136166
807.281	0.0136567
807.359	0.0135567
807.437	0.0137421
807.515	0.0135903
807.593	0.0136478
807.671	0.0135575
807.749	0.0134902
807.828	0.0135567
807.906	0.0136658
807.984	0.0134079
808.062	0.0135387
808.140	0.0135371
808.218	0.0135513
808.296	0.0134440
808.374	0.0135292
808.453	0.0133369
808.531	0.0134610
808.609	0.0135268
808.687	0.0135298
808.765	0.0134376
808.843	0.0134551
808.921	0.0134534
808.999	0.0134969
809.078	0.0135497
809.156	0.0134636
809.234	0.0133961
809.312	0.0134743
809.390	0.0135666
809.468	0.0135426
809.546	0.0134480
809.624	0.0135753
809.703	0.0135097
809.781	0.0135508
809.859	0.0136331
809.937	0.0135602
810.015	0.0134490
810.093	0.0134537
810.171	0.0135945
810.249	0.0134728
810.328	0.0134631
810.406	0.0135689
810.484	0.0135347
810.562	0.0135397
810.640	0.0136021
810.718	0.0134007
810.796	0.0136119
810.874	0.0136678
810.953	0.0134924
811.031	0.0135218
811.109	0.0134668
811.187	0.0134941
811.265	0.0135963
811.343	0.0136247
811.421	0.0135381
811.499	0.0134548
811.578	0.0135451
811.656	0.0135562
811.734	0.0135059
811.812	0.0135464
811.890	0.0135603
811.968	0.0136092
812.046	0.0134776
812.124	0.0136324
812.203	0.0137579
812.281	0.0135024
812.359	0.0136160
812.437	0.0135654
812.515	0.0136086
812.593	0.0135802
812.671	0.0135328
812.749	0.0136089
812.828	0.0136041
812.906	0.0137524
812.984	0.0134892
813.062	0.0136130
813.140	0.0135783
813.218	0.0134068
813.296	0.0134559
813.374	0.0136285
813.453	0.0134902
813.531	0.0133807
813.609	0.0134123
813.687	0.0133750
813.765	0.0134690
813.843	0.0134534
813.921	0.0133799
813.999	0.0136166
814.078	0.0134814
814.156	0.0135549
814.234	0.0136041
814.312	0.0134988
814.390	0.0135765
814.468	0.0135091
814.546	0.0136536
814.624	0.0135666
814.703	0.0135340
814.781	0.0136214
814.859	0.0135476
814.937	0.0134917
815.015	0.0135181
815.093	0.0135780
815.171	0.0135432
815.249	0.0135410
815.328	0.0136202
815.406	0.0135756
815.484	0.0136256
815.562	0.0135519
815.640	0.0135491
815.718	0.0134469
815.796	0.0134797
815.874	0.0135370
815.953	0.0135909
816.031	0.0134466
816.109	0.0133888
816.187	0.0135202
816.265	0.0133765
816.343	0.0134299
816.421	0.0135263
816.499	0.0134698
816.578	0.0135146
816.656	0.0134303
816.734	0.0133443
816.812	0.0135421
816.890	0.0135155
816.968	0.0135423
817.046	0.0134192
817.124	0.0132916
817.203	0.0136073
817.281	0.0135290
817.359	0.0135608
817.437	0.0135191
817.515	0.0134286
817.593	0.0134193
817.671	0.0134377
817.749	0.0134300
817.828	0.0133850
817.906	0.0133234
817.984	0.0134096
818.062	0.0132674
818.140	0.0134251
818.218	0.0135261
818.296	0.0133865
818.374	0.0134905
818.453	0.0134277
818.531	0.0133411
818.609	0.0133323
818.687	0.0134964
818.765	0.0135045
818.843	0.0135480
818.921	0.0134854
818.999	0.0134061
819.078	0.0136319
819.156	0.0135284
819.234	0.0134850
819.312	0.0135242
819.390	0.0135641
819.468	0.0134988
819.546	0.0135174
819.624	0.0135377
819.703	0.0135067
819.781	0.0134104
819.859	0.0135985
819.937	0.0136498
820.015	0.0135817
820.093	0.0135856
820.171	0.0135453
820.249	0.0136139
820.328	0.0135086
820.406	0.0135195
820.484	0.0135912
820.562	0.0135594
820.640	0.0136170
820.718	0.0134778
820.796	0.0136013
820.874	0.0134775
820.953	0.0136288
821.031	0.0135561
821.109	0.0134097
821.187	0.0133962
821.265	0.0134666
821.343	0.0135335
821.421	0.0133352
821.499	0.0133955
821.578	0.0135635
821.656	0.0134354
821.734	0.0135604
821.812	0.0134525
821.890	0.0133661
821.968	0.0134120
822.046	0.0135783
822.124	0.0136105
822.203	0.0134756
822.281	0.0135782
822.359	0.0134468
822.437	0.0133075
822.515	0.0134486
822.593	0.0134818
822.671	0.0133952
822.749	0.0134026
822.828	0.0134428
822.906	0.0134766
822.984	0.0135022
823.062	0.0134654
823.140	0.0134164
823.218	0.0134656
823.296	0.0136596
823.374	0.0135304
823.453	0.0135925
823.531	0.0135536
823.609	0.0135457
823.687	0.0136452
823.765	0.0135960
823.843	0.0135703
823.921	0.0136102
823.999	0.0136170
824.078	0.0136580
824.156	0.0135028
824.234	0.0135565
824.312	0.0136095
824.390	0.0136780
824.468	0.0136343
824.546	0.0135855
824.624	0.0136017
824.703	0.0135759
824.781	0.0136851
824.859	0.0136152
824.937	0.0134781
825.015	0.0136617
825.093	0.0136189
825.171	0.0137318
825.249	0.0137002
825.328	0.0137630
825.406	0.0136301
825.484	0.0137230
825.562	0.0135860
825.640	0.0136118
825.718	0.0135435
825.796	0.0135484
825.874	0.0135815
825.953	0.0133377
826.031	0.0135001
826.109	0.0136997
826.187	0.0135857
826.265	0.0135126
826.343	0.0134767
826.421	0.0135178
826.499	0.0134148
826.578	0.0134679
826.656	0.0137109
826.734	0.0135445
826.812	0.0133935
826.890	0.0135310
826.968	0.0135170
827.046	0.0135870
827.124	0.0136773
827.203	0.0136108
827.281	0.0135348
827.359	0.0136454
827.437	0.0136082
827.515	0.0135393
827.593	0.0135115
827.671	0.0135323
827.749	0.0135698
827.828	0.0136639
827.906	0.0135922
827.984	0.0136365
828.062	0.0136413
828.140	0.0136931
828.218	0.0134779
828.296	0.0136074
828.374	0.0137218
828.453	0.0136812
828.531	0.0134332
828.609	0.0136218
828.687	0.0137334
828.765	0.0137319
828.843	0.0135798
828.921	0.0135612
828.999	0.0136364
829.078	0.0137441
829.156	0.0136849
829.234	0.0136661
829.312	0.0135061
829.390	0.0136823
829.468	0.0136095
829.546	0.0134891
829.624	0.0136405
829.703	0.0135980
829.781	0.0134769
829.859	0.0135936
829.937	0.0136331
830.015	0.0135468
830.093	0.0134113
830.171	0.0135364
830.249	0.0135471
830.328	0.0136054
830.406	0.0135527
830.484	0.0136111
830.562	0.0136305
830.640	0.0135799
830.718	0.0135245
830.796	0.0136742
830.874	0.0136083
830.953	0.0135916
831.031	0.0136068
831.109	0.0138083
831.187	0.0135553
831.265	0.0135330
831.343	0.0136398
831.421	0.0135589
831.499	0.0135122
831.578	0.0136275
831.656	0.0136085
831.734	0.0136373
831.812	0.0133231
831.890	0.0134301
831.968	0.0134046
832.046	0.0134590
832.124	0.0135872
832.203	0.0134645
832.281	0.0134392
832.359	0.0135370
832.437	0.0135006
832.515	0.0136112
832.593	0.0136171
832.671	0.0134895
832.749	0.0135236
832.828	0.0135567
832.906	0.0137519
832.984	0.0134680
833.062	0.0136324
833.140	0.0135509
833.218	0.0135605
833.296	0.0135058
833.374	0.0135460
833.453	0.0135469
833.531	0.0135526
833.609	0.0135975
833.687	0.0137289
833.765	0.0135649
833.843	0.0135574
833.921	0.0136277
833.999	0.0135226
834.078	0.0134139
834.156	0.0135184
834.234	0.0135336
834.312	0.0134389
834.390	0.0134824
834.468	0.0136689
834.546	0.0135349
834.624	0.0135146
834.703	0.0135533
834.781	0.0135872
834.859	0.0134937
834.937	0.0134380
835.015	0.0133903
835.093	0.0136697
835.171	0.0135990
835.249	0.0135738
835.328	0.0136108
835.406	0.0134675
835.484	0.0134708
835.562	0.0134781
835.640	0.0134871
835.718	0.0134951
835.796	0.0134690
835.874	0.0136021
835.953	0.0136111
836.031	0.0134692
836.109	0.0135107
836.187	0.0134598
836.265	0.0134637
836.343	0.0134758
836.421	0.0136142
836.499	0.0135763
836.578	0.0135857
836.656	0.0136250
836.734	0.0134805
836.812	0.0134756
836.890	0.0134802
836.968	0.0134251
837.046	0.0136128
837.124	0.0135591
837.203	0.0134526
837.281	0.0134748
837.359	0.0136230
837.437	0.0137229
837.515	0.0136188
837.593	0.0135797
837.671	0.0135685
837.749	0.0136219
837.828	0.0136001
837.906	0.0135622
837.984	0.0136569
838.062	0.0135776
838.140	0.0135193
838.218	0.0135602
838.296	0.0134592
838.374	0.0135049
838.453	0.0136822
838.531	0.0135828
838.609	0.0134087
838.687	0.0135648
838.765	0.0135976
838.843	0.0134947
838.921	0.0135015
838.999	0.0134782
839.078	0.0135065
839.156	0.0135679
839.234	0.0133957
839.312	0.0135543
839.390	0.0134839
839.468	0.0135321
839.546	0.0134126
839.624	0.0133430
839.703	0.0134725
839.781	0.0134656
839.859	0.0135191
839.937	0.0134676
840.015	0.0134178
840.093	0.0134279
840.171	0.0136239
840.249	0.0134219
840.328	0.0134430
840.406	0.0135442
840.484	0.0136808
840.562	0.0136408
840.640	0.0135882
840.718	0.0136156
840.796	0.0136612
840.874	0.0134908
840.953	0.0135160
841.031	0.0136319
841.109	0.0136942
841.187	0.0136526
841.265	0.0135670
841.343	0.0136066
841.421	0.0135902
841.499	0.0134686
841.578	0.0135349
841.656	0.0135762
841.734	0.0136598
841.812	0.0135155
841.890	0.0135826
841.968	0.0134875
842.046	0.0135885
842.124	0.0136453
842.203	0.0136153
842.281	0.0134698
842.359	0.0137165
842.437	0.0134843
842.515	0.0135709
842.593	0.0135247
842.671	0.0136710
842.749	0.0137183
842.828	0.0136311
842.906	0.0136859
842.984	0.0137268
843.062	0.0136151
843.140	0.0136253
843.218	0.0136272
843.296	0.0135679
843.374	0.0135738
843.453	0.0135632
843.531	0.0135973
843.609	0.0135397
843.687	0.0135049
843.765	0.0136980
843.843	0.0135215
843.921	0.0134298
843.999	0.0136549
844.078	0.0136388
844.156	0.0135561
844.234	0.0135787
844.312	0.0135509
844.390	0.0136375
844.468	0.0136330
844.546	0.0136398
844.624	0.0134492
844.703	0.0134901
844.781	0.0134785
844.859	0.0136053
844.937	0.0135551
845.015	0.0134763
845.093	0.0136292
845.171	0.0134843
845.249	0.0136492
845.328	0.0135748
845.406	0.0134652
845.484	0.0135033
845.562	0.0135869
845.640	0.0136559
845.718	0.0135887
845.796	0.0136290
845.874	0.0136260
845.953	0.0134925
846.031	0.0136951
846.109	0.0136397
846.187	0.0135933
846.265	0.0135554
846.343	0.0133749
846.421	0.0134244
846.499	0.0135812
846.578	0.0135131
846.656	0.0135909
846.734	0.0136118
846.812	0.0134632
846.890	0.0134438
846.968	0.0136040
847.046	0.0136094
847.124	0.0136349
847.203	0.0135443
847.281	0.0136101
847.359	0.0135631
847.437	0.0135705
847.515	0.0135043
847.593	0.0135387
847.671	0.0135979
847.749	0.0136287
847.828	0.0135794
847.906	0.0136094
847.984	0.0136127
848.062	0.0135406
848.140	0.0135682
848.218	0.0135535
848.296	0.0135262
848.374	0.0134116
848.453	0.0134428
848.531	0.0134627
848.609	0.0134150
848.687	0.0134704
848.765	0.0136150
848.843	0.0136515
848.921	0.0135405
848.999	0.0136453
849.078	0.0136250
849.156	0.0136052
849.234	0.0136609
849.312	0.0136660
849.390	0.0136893
849.468	0.0135920
849.546	0.0136438
849.624	0.0136988
849.703	0.0135275
849.781	0.0135710
849.859	0.0134461
849.937	0.0134550
850.015	0.0135903
850.093	0.0136131
850.171	0.0135997
850.249	0.0134971
850.328	0.0133910
850.406	0.0136196
850.484	0.0135400
850.562	0.0135699
850.640	0.0137094
850.718	0.0136743
850.796	0.0135667
850.874	0.0136872
850.953	0.0136448
851.031	0.0135057
851.109	0.0136500
851.187	0.0137432
851.265	0.0135549
851.343	0.0137132
851.421	0.0136429
851.499	0.0134468
851.578	0.0136683
851.656	0.0135015
851.734	0.0136868
851.812	0.0136417
851.890	0.0134805
851.968	0.0136185
852.046	0.0135855
852.124	0.0134519
852.203	0.0135029
852.281	0.0136614
852.359	0.0134677
852.437	0.0135492
852.515	0.0136810
852.593	0.0136922
852.671	0.0134645
852.749	0.0135168
852.828	0.0135724
852.906	0.0135353
852.984	0.0134612
853.062	0.0135191
853.140	0.0135304
853.218	0.0137079
853.296	0.0137117
853.374	0.0136917
853.453	0.0134289
853.531	0.0135229
853.609	0.0135943
853.687	0.0134827
853.765	0.0134586
853.843	0.0137488
853.921	0.0135175
853.999	0.0134451
854.078	0.0136106
854.156	0.0135979
854.234	0.0135220
854.312	0.0135751
854.390	0.0134845
854.468	0.0135528
854.546	0.0134538
854.624	0.0135540
854.703	0.0137125
854.781	0.0135449
854.859	0.0135975
854.937	0.0137251
855.015	0.0135768
855.093	0.0136829
855.171	0.0137151
855.249	0.0135741
855.328	0.0135177
855.406	0.0135685
855.484	0.0135532
855.562	0.0136085
855.640	0.0135744
855.718	0.0136113
855.796	0.0135970
855.874	0.0134513
855.953	0.0134250
856.031	0.0134447
856.109	0.0135218
856.187	0.0134842
856.265	0.0135580
856.343	0.0136163
856.421	0.0135061
856.499	0.0136903
856.578	0.0135798
856.656	0.0136031
856.734	0.0136760
856.812	0.0134455
856.890	0.0134831
856.968	0.0136159
857.046	0.0134679
857.124	0.0135850
857.203	0.0135967
857.281	0.0135867
857.359	0.0136126
857.437	0.0136275
857.515	0.0136044
857.593	0.0134792
857.671	0.0134432
857.749	0.0135240
857.828	0.0135236
857.906	0.0135603
857.984	0.0136786
858.062	0.0136195
858.140	0.0136074
858.218	0.0135573
858.296	0.0136694
858.374	0.0138060
858.453	0.0137283
858.531	0.0136707
858.609	0.0137239
858.687	0.0136513
858.765	0.0135281
858.843	0.0136459
858.921	0.0136944
858.999	0.0136140
859.078	0.0135719
859.156	0.0134518
859.234	0.0136240
859.312	0.0136274
859.390	0.0135281
859.468	0.0135408
859.546	0.0137052
859.624	0.0136926
859.703	0.0134897
859.781	0.0135303
859.859	0.0136436
859.937	0.0135732
860.015	0.0136105
860.093	0.0136379
860.171	0.0135822
860.249	0.0134794
860.328	0.0137070
860.406	0.0136263
860.484	0.0136478
860.562	0.0136513
860.640	0.0135751
860.718	0.0136089
860.796	0.0135677
860.874	0.0135388
860.953	0.0135608
861.031	0.0134168
861.109	0.0134491
861.187	0.0134530
861.265	0.0136050
861.343	0.0135086
861.421	0.0135410
861.499	0.0136109
861.578	0.0136173
861.656	0.0135725
861.734	0.0135239
861.812	0.0135474
861.890	0.0134588
861.968	0.0136482
862.046	0.0136205
862.124	0.0136670
862.203	0.0137015
862.281	0.0135664
862.359	0.0135727
862.437	0.0135629
862.515	0.0135681
862.593	0.0135653
862.671	0.0136281
862.749	0.0135806
862.828	0.0135084
862.906	0.0134817
862.984	0.0134582
863.062	0.0136168
863.140	0.0135838
863.218	0.0134232
863.296	0.0137109
863.374	0.0136451
863.453	0.0135850
863.531	0.0136797
863.609	0.0135644
863.687	0.0135894
863.765	0.0134787
863.843	0.0135674
863.921	0.0136642
863.999	0.0136799
864.078	0.0136312
864.156	0.0135094
864.234	0.0134615
864.312	0.0134502
864.390	0.0136234
864.468	0.0134942
864.546	0.0134817
864.624	0.0134547
864.703	0.0135354
864.781	0.0135188
864.859	0.0135355
864.937	0.0135212
865.015	0.0134534
865.093	0.0134666
865.171	0.0133623
865.249	0.0133719
865.328	0.0135709
865.406	0.0133966
865.484	0.0135211
865.562	0.0133957
865.640	0.0133981
865.718	0.0135070
865.796	0.0135345
865.874	0.0134834
865.953	0.0135255
866.031	0.0135667
866.109	0.0135074
866.187	0.0134384
866.265	0.0135973
866.343	0.0135821
866.421	0.0134206
866.499	0.0135570
866.578	0.0135773
866.656	0.0134431
866.734	0.0134500
866.812	0.0135064
866.890	0.0134712
866.968	0.0135921
867.046	0.0135461
867.124	0.0134844
867.203	0.0133511
867.281	0.0134332
867.359	0.0135981
867.437	0.0135362
867.515	0.0133739
867.593	0.0134441
867.671	0.0135376
867.749	0.0134289
867.828	0.0135529
867.906	0.0135649
867.984	0.0136170
868.062	0.0136215
868.140	0.0134570
868.218	0.0134519
868.296	0.0135945
868.374	0.0134684
868.453	0.0134053
868.531	0.0134804
868.609	0.0134931
868.687	0.0134879
868.765	0.0134211
868.843	0.0135412
868.921	0.0134120
868.999	0.0133421
869.078	0.0133900
869.156	0.0133862
869.234	0.0135335
869.312	0.0136187
869.390	0.0134642
869.468	0.0134269
869.546	0.0135332
869.624	0.0136234
869.703	0.0135988
869.781	0.0135210
869.859	0.0135643
869.937	0.0133926
870.015	0.0134867
870.093	0.0134855
870.171	0.0134938
870.249	0.0135329
870.328	0.0134919
870.406	0.0135365
870.484	0.0136153
870.562	0.0135155
870.640	0.0136256
870.718	0.0135193
870.796	0.0135921
870.874	0.0136401
870.953	0.0136928
871.031	0.0136693
871.109	0.0136146
871.187	0.0136599
871.265	0.0135706
871.343	0.0136517
871.421	0.0135740
871.499	0.0136964
871.578	0.0136991
871.656	0.0134741
871.734	0.0135622
871.812	0.0134582
871.890	0.0136983
871.968	0.0136202
872.046	0.0135236
872.124	0.0135838
872.203	0.0134779
872.281	0.0134851
872.359	0.0135890
872.437	0.0135771
872.515	0.0136211
872.593	0.0135249
872.671	0.0135692
872.749	0.0136758
872.828	0.0136024
872.906	0.0136898
872.984	0.0136021
873.062	0.0136070
873.140	0.0136162
873.218	0.0137647
873.296	0.0136716
873.374	0.0136352
873.453	0.0137303
873.531	0.0137537
873.609	0.0137463
873.687	0.0137183
873.765	0.0136390
873.843	0.0135249
873.921	0.0136295
873.999	0.0135491
874.078	0.0135667
874.156	0.0136218
874.234	0.0136713
874.312	0.0136417
874.390	0.0137003
874.468	0.0135491
874.546	0.0136788
874.624	0.0136098
874.703	0.0136777
874.781	0.0135645
874.859	0.0135497
874.937	0.0137370
875.015	0.0136699
875.093	0.0134986
875.171	0.0135837
875.249	0.0136617
875.328	0.0136372
875.406	0.0135960
875.484	0.0136999
875.562	0.0135291
875.640	0.0137057
875.718	0.0136008
875.796	0.0137047
875.874	0.0136465
875.953	0.0136507
876.031	0.0136423
876.109	0.0135680
876.187	0.0135558
876.265	0.0136568
876.343	0.0136785
876.421	0.0136655
876.499	0.0135725
876.578	0.0135355
876.656	0.0137184
876.734	0.0135874
876.812	0.0135970
876.890	0.0135833
876.968	0.0135966
877.046	0.0135278
877.124	0.0137175
877.203	0.0137003
877.281	0.0137009
877.359	0.0135595
877.437	0.0136317
877.515	0.0136204
877.593	0.0137080
877.671	0.0136594
877.749	0.0137753
877.828	0.0136924
877.906	0.0134541
877.984	0.0136217
878.062	0.0136971
878.140	0.0135617
878.218	0.0136854
878.296	0.0136662
878.374	0.0136559
878.453	0.0135451
878.531	0.0136066
878.609	0.0136073
878.687	0.0135914
878.765	0.0135864
878.843	0.0136264
878.921	0.0136298
878.999	0.0136895
879.078	0.0137267
879.156	0.0136010
879.234	0.0135275
879.312	0.0135786
879.390	0.0136015
879.468	0.0136313
879.546	0.0137349
879.624	0.0135037
879.703	0.0134732
879.781	0.0134373
879.859	0.0134312
879.937	0.0134454
880.015	0.0135320
880.093	0.0134690
880.171	0.0134730
880.249	0.0134946
880.328	0.0134664
880.406	0.0134983
880.484	0.0135623
880.562	0.0133727
880.640	0.0133428
880.718	0.0135365
880.796	0.0135577
880.874	0.0133634
880.953	0.0133617
881.031	0.0134540
881.109	0.0134387
881.187	0.0133805
881.265	0.0132133
881.343	0.0133356
881.421	0.0135199
881.499	0.0134275
881.578	0.0134975
881.656	0.0135435
881.734	0.0135709
881.812	0.0135255
881.890	0.0134481
881.968	0.0135577
882.046	0.0133884
882.124	0.0136016
882.203	0.0135853
882.281	0.0135662
882.359	0.0136108
882.437	0.0135184
882.515	0.0135369
882.593	0.0135374
882.671	0.0134602
882.749	0.0136814
882.828	0.0136068
882.906	0.0134549
882.984	0.0135637
883.062	0.0135049
883.140	0.0134824
883.218	0.0134737
883.296	0.0134460
883.374	0.0135989
883.453	0.0134747
883.531	0.0134888
883.609	0.0135606
883.687	0.0135958
883.765	0.0135100
883.843	0.0134587
883.921	0.0134770
883.999	0.0135117
884.078	0.0134029
884.156	0.0135493
884.234	0.0136975
884.312	0.0134126
884.390	0.0135057
884.468	0.0136098
884.546	0.0133379
884.624	0.0135020
884.703	0.0134960
884.781	0.0134003
884.859	0.0134675
884.937	0.0134326
885.015	0.0135144
885.093	0.0134413
885.171	0.0133735
885.249	0.0134822
885.328	0.0135301
885.406	0.0134628
885.484	0.0133375
885.562	0.0134341
885.640	0.0134917
885.718	0.0133740
885.796	0.0134927
885.874	0.0134949
885.953	0.0133874
886.031	0.0134776
886.109	0.0134899
886.187	0.0133839
886.265	0.0134217
886.343	0.0135947
886.421	0.0135268
886.499	0.0136636
886.578	0.0135798
886.656	0.0137123
886.734	0.0134724
886.812	0.0135931
886.890	0.0135888
886.968	0.0135600
887.046	0.0135457
887.124	0.0134793
887.203	0.0135985
887.281	0.0137532
887.359	0.0135419
887.437	0.0135732
887.515	0.0134955
887.593	0.0134949
887.671	0.0136128
887.749	0.0136057
887.828	0.0134551
887.906	0.0135773
887.984	0.0135410
888.062	0.0134778
888.140	0.0135083
888.218	0.0134960
888.296	0.0135345
888.374	0.0136320
888.453	0.0135384
888.531	0.0135017
888.609	0.0134294
888.687	0.0134861
888.765	0.0135746
888.843	0.0134690
888.921	0.0134553
888.999	0.0133924
889.078	0.0134235
889.156	0.0133860
889.234	0.0135005
889.312	0.0133797
889.390	0.0134709
889.468	0.0135136
889.546	0.0134570
889.624	0.0134990
889.703	0.0135382
889.781	0.0135515
889.859	0.0135874
889.937	0.0135374
890.015	0.0135123
890.093	0.0136181
890.171	0.0135847
890.249	0.0136688
890.328	0.0135720
890.406	0.0135110
890.484	0.0136044
890.562	0.0134204
890.640	0.0135730
890.718	0.0135336
890.796	0.0135687
890.874	0.0134651
890.953	0.0136322
891.031	0.0134982
891.109	0.0135786
891.187	0.0135966
891.265	0.0135757
891.343	0.0134914
891.421	0.0135134
891.499	0.0137366
891.578	0.0135520
891.656	0.0135310
891.734	0.0136201
891.812	0.0134713
891.890	0.0136282
891.968	0.0135823
892.046	0.0135839
892.124	0.0135223
892.203	0.0134923
892.281	0.0135822
892.359	0.0136149
892.437	0.0136382
892.515	0.0134249
892.593	0.0133939
892.671	0.0134238
892.749	0.0134319
892.828	0.0134949
892.906	0.0135442
892.984	0.0134261
893.062	0.0135019
893.140	0.0135241
893.218	0.0136505
893.296	0.0135574
893.374	0.0135017
893.453	0.0135715
893.531	0.0136769
893.609	0.0135515
893.687	0.0136744
893.765	0.0136422
893.843	0.0136049
893.921	0.0136080
893.999	0.0135770
894.078	0.0135445
894.156	0.0135432
894.234	0.0136460
894.312	0.0134299
894.390	0.0135021
894.468	0.0134858
894.546	0.0135093
894.624	0.0133039
894.703	0.0134750
894.781	0.0135721
894.859	0.0134962
894.937	0.0135101
895.015	0.0134362
895.093	0.0134447
895.171	0.0135181
895.249	0.0137177
895.328	0.0135735
895.406	0.0136200
895.484	0.0136021
895.562	0.0136172
895.640	0.0135590
895.718	0.0135783
895.796	0.0135506
895.874	0.0137501
895.953	0.0135499
896.031	0.0135738
896.109	0.0136263
896.187	0.0137625
896.265	0.0135538
896.343	0.0135703
896.421	0.0135503
896.499	0.0135793
896.578	0.0137431
896.656	0.0135946
896.734	0.0134354
896.812	0.0134365
896.890	0.0135749
896.968	0.0136378
897.046	0.0136945
897.124	0.0135112
897.203	0.0135786
897.281	0.0135287
897.359	0.0133878
897.437	0.0135921
897.515	0.0136437
897.593	0.0134846
897.671	0.0137096
897.749	0.0134201
897.828	0.0136127
897.906	0.0135375
897.984	0.0135216
898.062	0.0134722
898.140	0.0135655
898.218	0.0135625
898.296	0.0135421
898.374	0.0135083
898.453	0.0135373
898.531	0.0136082
898.609	0.0134324
898.687	0.0134314
898.765	0.0135292
898.843	0.0136193
898.921	0.0135440
898.999	0.0136269
899.078	0.0135800
899.156	0.0135772
899.234	0.0136054
899.312	0.0136167
899.390	0.0135297
899.468	0.0135931
899.546	0.0137101
899.624	0.0135246
899.703	0.0135553
899.781	0.0135613
899.859	0.0133305
899.937	0.0135570
900.015	0.0135847
900.093	0.0135987
900.171	0.0135681
900.249	0.0135723
900.328	0.0135144
900.406	0.0134767
900.484	0.0135674
900.562	0.0135151
900.640	0.0134554
900.718	0.0135218
900.796	0.0135164
900.874	0.0134762
900.953	0.0136160
901.031	0.0134794
901.109	0.0135367
901.187	0.0135179
901.265	0.0135760
901.343	0.0134591
901.421	0.0133828
901.499	0.0135574
901.578	0.0134746
901.656	0.0135336
901.734	0.0136024
901.812	0.0136278
901.890	0.0135543
901.968	0.0134608
902.046	0.0136298
902.124	0.0136906
902.203	0.0136439
902.281	0.0134237
902.359	0.0135773
902.437	0.0135174
902.515	0.0135920
902.593	0.0136131
902.671	0.0134910
902.749	0.0134235
902.828	0.0134737
902.906	0.0134904
902.984	0.0135345
903.062	0.0134730
903.140	0.0134801
903.218	0.0134350
903.296	0.0134013
903.374	0.0134052
903.453	0.0134101
903.531	0.0135702
903.609	0.0135677
903.687	0.0134625
903.765	0.0133921
903.843	0.0135222
903.921	0.0136214
903.999	0.0136123
904.078	0.0135485
904.156	0.0135094
904.234	0.0134721
904.312	0.0136502
904.390	0.0135779
904.468	0.0134965
904.546	0.0133607
904.624	0.0135578
904.703	0.0135412
904.781	0.0135912
904.859	0.0134441
904.937	0.0133847
905.015	0.0134612
905.093	0.0134866
905.171	0.0134309
905.249	0.0135306
905.328	0.0134959
905.406	0.0134106
905.484	0.0132504
905.562	0.0133212
905.640	0.0135580
905.718	0.0136056
905.796	0.0135174
905.874	0.0135604
905.953	0.0136600
906.031	0.0135725
906.109	0.0135278
906.187	0.0135718
906.265	0.0133962
906.343	0.0135026
906.421	0.0135514
906.499	0.0134411
906.578	0.0134502
906.656	0.0136291
906.734	0.0134817
906.812	0.0135393
906.890	0.0135275
906.968	0.0137218
907.046	0.0135525
907.124	0.0134449
907.203	0.0134853
907.281	0.0134856
907.359	0.0135751
907.437	0.0134592
907.515	0.0136668
907.593	0.0135947
907.671	0.0135666
907.749	0.0135856
907.828	0.0135745
907.906	0.0136242
907.984	0.0134486
908.062	0.0134778
908.140	0.0135192
908.218	0.0133685
908.296	0.0134421
908.374	0.0136563
908.453	0.0135349
908.531	0.0136250
908.609	0.0135508
908.687	0.0135391
908.765	0.0136028
908.843	0.0134557
908.921	0.0134917
908.999	0.0135715
909.078	0.0134997
909.156	0.0135448
909.234	0.0135639
909.312	0.0136490
909.390	0.0134414
909.468	0.0134589
909.546	0.0135241
909.624	0.0135650
909.703	0.0135464
909.781	0.0135817
909.859	0.0135117
909.937	0.0134690
910.015	0.0134209
910.093	0.0136176
910.171	0.0136327
910.249	0.0135654
910.328	0.0138823
910.406	0.0135355
910.484	0.0134373
910.562	0.0135761
910.640	0.0134406
910.718	0.0135137
910.796	0.0135152
910.874	0.0135583
910.953	0.0135587
911.031	0.0135064
911.109	0.0135732
911.187	0.0135562
911.265	0.0134309
911.343	0.0134723
911.421	0.0135468
911.499	0.0134462
911.578	0.0135007
911.656	0.0134886
911.734	0.0137760
911.812	0.0136234
911.890	0.0135352
911.968	0.0135479
912.046	0.0135734
912.124	0.0135548
912.203	0.0136789
912.281	0.0137087
912.359	0.0135161
912.437	0.0136723
912.515	0.0135561
912.593	0.0134856
912.671	0.0135696
912.749	0.0135250
912.828	0.0135489
912.906	0.0136276
912.984	0.0134778
913.062	0.0135355
913.140	0.0133978
913.218	0.0134228
913.296	0.0136162
913.374	0.0134318
913.453	0.0133956
913.531	0.0134421
913.609	0.0134664
913.687	0.0134746
913.765	0.0134880
913.843	0.0134907
913.921	0.0134779
913.999	0.0134799
914.078	0.0134378
914.156	0.0135099
914.234	0.0135702
914.312	0.0134613
914.390	0.0133993
914.468	0.0133943
914.546	0.0136079
914.624	0.0135110
914.703	0.0134127
914.781	0.0135156
914.859	0.0136056
914.937	0.0135787
915.015	0.0135834
915.093	0.0136404
915.171	0.0136866
915.249	0.0136560
915.328	0.0136320
915.406	0.0137254
915.484	0.0135112
915.562	0.0136781
915.640	0.0135336
915.718	0.0135645
915.796	0.0135962
915.874	0.0134731
915.953	0.0135579
916.031	0.0135699
916.109	0.0134814
916.187	0.0135802
916.265	0.0136198
916.343	0.0135484
916.421	0.0135733
916.499	0.0135489
916.578	0.0135432
916.656	0.0135773
916.734	0.0135262
916.812	0.0136484
916.890	0.0135152
916.968	0.0136884
917.046	0.0135414
917.124	0.0134995
917.203	0.0135216
917.281	0.0135348
917.359	0.0134995
917.437	0.0134268
917.515	0.0134700
917.593	0.0134647
917.671	0.0134460
917.749	0.0133112
917.828	0.0132865
917.906	0.0134770
917.984	0.0135494
918.062	0.0134689
918.140	0.0134106
918.218	0.0133867
918.296	0.0135207
918.374	0.0134160
918.453	0.0134351
918.531	0.0133573
918.609	0.0134280
918.687	0.0133786
918.765	0.0134410
918.843	0.0134353
918.921	0.0133730
918.999	0.0134041
919.078	0.0134964
919.156	0.0133620
919.234	0.0134162
919.312	0.0134007
919.390	0.0134072
919.468	0.0134106
919.546	0.0135163
919.624	0.0134628
919.703	0.0134797
919.781	0.0134933
919.859	0.0134768
919.937	0.0134651
