05/06/2022	19:00:29	Ver.	4.1	UNKNOWN
Optical Delay	600.015094	Delta X		0.078125	Sweeps	1	Scan Rate	0/0
Coordinates	Axis 1	NaN	Axis 2	NaN	Axis 3	NaN	Axis 4	NaN	Axis 5	NaN	Axis 6	0.000000
TX Power	0.000000	RX Power	0.000000

600.015	0.0138931
600.093	0.0139214
600.171	0.0139291
600.249	0.0139252
600.328	0.0140412
600.406	0.0139175
600.484	0.0138809
600.562	0.0140507
600.640	0.0138367
600.718	0.0139233
600.796	0.0140438
600.874	0.0139601
600.953	0.0139237
601.031	0.0138665
601.109	0.0139455
601.187	0.0139766
601.265	0.0138798
601.343	0.0139905
601.421	0.0139173
601.499	0.0140262
601.578	0.0140308
601.656	0.0139706
601.734	0.0139776
601.812	0.0139399
601.890	0.0140465
601.968	0.0139335
602.046	0.0140002
602.124	0.0139439
602.203	0.0139124
602.281	0.0139323
602.359	0.0139951
602.437	0.0139779
602.515	0.0140556
602.593	0.0140345
602.671	0.0140189
602.749	0.0139479
602.828	0.0140717
602.906	0.0140748
602.984	0.0139925
603.062	0.0139900
603.140	0.0139626
603.218	0.0138538
603.296	0.0138851
603.374	0.0140147
603.453	0.0140134
603.531	0.0139900
603.609	0.0139590
603.687	0.0140536
603.765	0.0140503
603.843	0.0139446
603.921	0.0140204
603.999	0.0140132
604.078	0.0140121
604.156	0.0140969
604.234	0.0140445
604.312	0.0138813
604.390	0.0140042
604.468	0.0139132
604.546	0.0139775
604.624	0.0140639
604.703	0.0140321
604.781	0.0139742
604.859	0.0139572
604.937	0.0140515
605.015	0.0140162
605.093	0.0140012
605.171	0.0140762
605.249	0.0140678
605.328	0.0141097
605.406	0.0140271
605.484	0.0140758
605.562	0.0140496
605.640	0.0140652
605.718	0.0139449
605.796	0.0140252
605.874	0.0140051
605.953	0.0141135
606.031	0.0141975
606.109	0.0140881
606.187	0.0140347
606.265	0.0140679
606.343	0.0139043
606.421	0.0138486
606.499	0.0141022
606.578	0.0141380
606.656	0.0139204
606.734	0.0140823
606.812	0.0140907
606.890	0.0140029
606.968	0.0139918
607.046	0.0141491
607.124	0.0139198
607.203	0.0139059
607.281	0.0140247
607.359	0.0141483
607.437	0.0139799
607.515	0.0139398
607.593	0.0141440
607.671	0.0142039
607.749	0.0139781
607.828	0.0139169
607.906	0.0139643
607.984	0.0140939
608.062	0.0140055
608.140	0.0139937
608.218	0.0141557
608.296	0.0139750
608.374	0.0139582
608.453	0.0140604
608.531	0.0140416
608.609	0.0139795
608.687	0.0140678
608.765	0.0140438
608.843	0.0139835
608.921	0.0139634
608.999	0.0140631
609.078	0.0140313
609.156	0.0139608
609.234	0.0137980
609.312	0.0139565
609.390	0.0139875
609.468	0.0139202
609.546	0.0139325
609.624	0.0141671
609.703	0.0140469
609.781	0.0140905
609.859	0.0139574
609.937	0.0139764
610.015	0.0138944
610.093	0.0139964
610.171	0.0138826
610.249	0.0139911
610.328	0.0139996
610.406	0.0139241
610.484	0.0138805
610.562	0.0140331
610.640	0.0140231
610.718	0.0139907
610.796	0.0139331
610.874	0.0139376
610.953	0.0139388
611.031	0.0140614
611.109	0.0139624
611.187	0.0139059
611.265	0.0140134
611.343	0.0139553
611.421	0.0140045
611.499	0.0140207
611.578	0.0140543
611.656	0.0139481
611.734	0.0139076
611.812	0.0140322
611.890	0.0139626
611.968	0.0140288
612.046	0.0139949
612.124	0.0139426
612.203	0.0138593
612.281	0.0138016
612.359	0.0139701
612.437	0.0140747
612.515	0.0139520
612.593	0.0139626
612.671	0.0140359
612.749	0.0139957
612.828	0.0139958
612.906	0.0139317
612.984	0.0139990
613.062	0.0139162
613.140	0.0139635
613.218	0.0139764
613.296	0.0139248
613.374	0.0139149
613.453	0.0140855
613.531	0.0138974
613.609	0.0138872
613.687	0.0139758
613.765	0.0139592
613.843	0.0139892
613.921	0.0140546
613.999	0.0139769
614.078	0.0138783
614.156	0.0139029
614.234	0.0139398
614.312	0.0138583
614.390	0.0137979
614.468	0.0137982
614.546	0.0139101
614.624	0.0139632
614.703	0.0138588
614.781	0.0139427
614.859	0.0138259
614.937	0.0139706
615.015	0.0139543
615.093	0.0139279
615.171	0.0139513
615.249	0.0139046
615.328	0.0139842
615.406	0.0140244
615.484	0.0139613
615.562	0.0139366
615.640	0.0139184
615.718	0.0138140
615.796	0.0137846
615.874	0.0138380
615.953	0.0137535
616.031	0.0139303
616.109	0.0139616
616.187	0.0138652
616.265	0.0140427
616.343	0.0138924
616.421	0.0138461
616.499	0.0138976
616.578	0.0139281
616.656	0.0140551
616.734	0.0137826
616.812	0.0138109
616.890	0.0139009
616.968	0.0138953
617.046	0.0138791
617.124	0.0139642
617.203	0.0139594
617.281	0.0139592
617.359	0.0139072
617.437	0.0138534
617.515	0.0138321
617.593	0.0140083
617.671	0.0138639
617.749	0.0139297
617.828	0.0139114
617.906	0.0138631
617.984	0.0140765
618.062	0.0139816
618.140	0.0138360
618.218	0.0139006
618.296	0.0139389
618.374	0.0138497
618.453	0.0138608
618.531	0.0138908
618.609	0.0138800
618.687	0.0139185
618.765	0.0138318
618.843	0.0139022
618.921	0.0138680
618.999	0.0139964
619.078	0.0138948
619.156	0.0138096
619.234	0.0139545
619.312	0.0138065
619.390	0.0138850
619.468	0.0139465
619.546	0.0139226
619.624	0.0137862
619.703	0.0139092
619.781	0.0139957
619.859	0.0139828
619.937	0.0138585
620.015	0.0138370
620.093	0.0138294
620.171	0.0137981
620.249	0.0139945
620.328	0.0138818
620.406	0.0138492
620.484	0.0139428
620.562	0.0138747
620.640	0.0139357
620.718	0.0139417
620.796	0.0138818
620.874	0.0139587
620.953	0.0140118
621.031	0.0139641
621.109	0.0140127
621.187	0.0138184
621.265	0.0140124
621.343	0.0139566
621.421	0.0138263
621.499	0.0138754
621.578	0.0139748
621.656	0.0139185
621.734	0.0137755
621.812	0.0138866
621.890	0.0138825
621.968	0.0139538
622.046	0.0140536
622.124	0.0139793
622.203	0.0138612
622.281	0.0141158
622.359	0.0139886
622.437	0.0139214
622.515	0.0139830
622.593	0.0139709
622.671	0.0139169
622.749	0.0138311
622.828	0.0139738
622.906	0.0139156
622.984	0.0138530
623.062	0.0140662
623.140	0.0139589
623.218	0.0139390
623.296	0.0140253
623.374	0.0139549
623.453	0.0138953
623.531	0.0139366
623.609	0.0139421
623.687	0.0139300
623.765	0.0138711
623.843	0.0139513
623.921	0.0139053
623.999	0.0139819
624.078	0.0139050
624.156	0.0140421
624.234	0.0140199
624.312	0.0138434
624.390	0.0139668
624.468	0.0139932
624.546	0.0139584
624.624	0.0140035
624.703	0.0139262
624.781	0.0140208
624.859	0.0139976
624.937	0.0141149
625.015	0.0138596
625.093	0.0140086
625.171	0.0139899
625.249	0.0140251
625.328	0.0138860
625.406	0.0140602
625.484	0.0139925
625.562	0.0140279
625.640	0.0140143
625.718	0.0138705
625.796	0.0140233
625.874	0.0139610
625.953	0.0139508
626.031	0.0139420
626.109	0.0138749
626.187	0.0138158
626.265	0.0139656
626.343	0.0139581
626.421	0.0138277
626.499	0.0138800
626.578	0.0138932
626.656	0.0138650
626.734	0.0139378
626.812	0.0139265
626.890	0.0139648
626.968	0.0138795
627.046	0.0140342
627.124	0.0140033
627.203	0.0140403
627.281	0.0140866
627.359	0.0140017
627.437	0.0140735
627.515	0.0140294
627.593	0.0139574
627.671	0.0138726
627.749	0.0139717
627.828	0.0140161
627.906	0.0139542
627.984	0.0139705
628.062	0.0141216
628.140	0.0139978
628.218	0.0139501
628.296	0.0138803
628.374	0.0140417
628.453	0.0140120
628.531	0.0140457
628.609	0.0140774
628.687	0.0140305
628.765	0.0139281
628.843	0.0140147
628.921	0.0140424
628.999	0.0139832
629.078	0.0139313
629.156	0.0138924
629.234	0.0138845
629.312	0.0138523
629.390	0.0140856
629.468	0.0139419
629.546	0.0139943
629.624	0.0139488
629.703	0.0139597
629.781	0.0139742
629.859	0.0139310
629.937	0.0141084
630.015	0.0140767
630.093	0.0140098
630.171	0.0139938
630.249	0.0139726
630.328	0.0139872
630.406	0.0139459
630.484	0.0139520
630.562	0.0140139
630.640	0.0138811
630.718	0.0139693
630.796	0.0139012
630.874	0.0139707
630.953	0.0140253
631.031	0.0140200
631.109	0.0139720
631.187	0.0139927
631.265	0.0138665
631.343	0.0139534
631.421	0.0139857
631.499	0.0138654
631.578	0.0139828
631.656	0.0139690
631.734	0.0139715
631.812	0.0140511
631.890	0.0140109
631.968	0.0140327
632.046	0.0139866
632.124	0.0140215
632.203	0.0140572
632.281	0.0140140
632.359	0.0140315
632.437	0.0138793
632.515	0.0139604
632.593	0.0139825
632.671	0.0140125
632.749	0.0140621
632.828	0.0141430
632.906	0.0139919
632.984	0.0140242
633.062	0.0140379
633.140	0.0140200
633.218	0.0140199
633.296	0.0141297
633.374	0.0139594
633.453	0.0139101
633.531	0.0140054
633.609	0.0139355
633.687	0.0139750
633.765	0.0139915
633.843	0.0139682
633.921	0.0140130
633.999	0.0140740
634.078	0.0139420
634.156	0.0139737
634.234	0.0140441
634.312	0.0140168
634.390	0.0138580
634.468	0.0141228
634.546	0.0141196
634.624	0.0138937
634.703	0.0138579
634.781	0.0140988
634.859	0.0139576
634.937	0.0139478
635.015	0.0138782
635.093	0.0138535
635.171	0.0138552
635.249	0.0139326
635.328	0.0138544
635.406	0.0138255
635.484	0.0137472
635.562	0.0138192
635.640	0.0138929
635.718	0.0139212
635.796	0.0138911
635.874	0.0138835
635.953	0.0140685
636.031	0.0141038
636.109	0.0140595
636.187	0.0141399
636.265	0.0140160
636.343	0.0140411
636.421	0.0141955
636.499	0.0140189
636.578	0.0139577
636.656	0.0137998
636.734	0.0137733
636.812	0.0139043
636.890	0.0139868
636.968	0.0139006
637.046	0.0138208
637.124	0.0138100
637.203	0.0137540
637.281	0.0136908
637.359	0.0139030
637.437	0.0137816
637.515	0.0138821
637.593	0.0139545
637.671	0.0139079
637.749	0.0140368
637.828	0.0139709
637.906	0.0139548
637.984	0.0140022
638.062	0.0139987
638.140	0.0140462
638.218	0.0139811
638.296	0.0138752
638.374	0.0138773
638.453	0.0139656
638.531	0.0139622
638.609	0.0138181
638.687	0.0138011
638.765	0.0139030
638.843	0.0139351
638.921	0.0139706
638.999	0.0137495
639.078	0.0138348
639.156	0.0139601
639.234	0.0138605
639.312	0.0140339
639.390	0.0138737
639.468	0.0138371
639.546	0.0140141
639.624	0.0139167
639.703	0.0137389
639.781	0.0139075
639.859	0.0138692
639.937	0.0140605
640.015	0.0139707
640.093	0.0138701
640.171	0.0139294
640.249	0.0138776
640.328	0.0139600
640.406	0.0137373
640.484	0.0138638
640.562	0.0139385
640.640	0.0139048
640.718	0.0139388
640.796	0.0139634
640.874	0.0139681
640.953	0.0137430
641.031	0.0136491
641.109	0.0139379
641.187	0.0138137
641.265	0.0140202
641.343	0.0139198
641.421	0.0138597
641.499	0.0139462
641.578	0.0139630
641.656	0.0139290
641.734	0.0138330
641.812	0.0139793
641.890	0.0139113
641.968	0.0138821
642.046	0.0139247
642.124	0.0138423
642.203	0.0137667
642.281	0.0138476
642.359	0.0139014
642.437	0.0139061
642.515	0.0139420
642.593	0.0138000
642.671	0.0139124
642.749	0.0138712
642.828	0.0139207
642.906	0.0139185
642.984	0.0138205
643.062	0.0138680
643.140	0.0140155
643.218	0.0139034
643.296	0.0138177
643.374	0.0139830
643.453	0.0140351
643.531	0.0138747
643.609	0.0139851
643.687	0.0139446
643.765	0.0139259
643.843	0.0139112
643.921	0.0138406
643.999	0.0138783
644.078	0.0138312
644.156	0.0138581
644.234	0.0139188
644.312	0.0139037
644.390	0.0138856
644.468	0.0139846
644.546	0.0140079
644.624	0.0138490
644.703	0.0138797
644.781	0.0139642
644.859	0.0139583
644.937	0.0138729
645.015	0.0139563
645.093	0.0139570
645.171	0.0140144
645.249	0.0139665
645.328	0.0139170
645.406	0.0138712
645.484	0.0141527
645.562	0.0140874
645.640	0.0138422
645.718	0.0137113
645.796	0.0140246
645.874	0.0139542
645.953	0.0138546
646.031	0.0139355
646.109	0.0140218
646.187	0.0139057
646.265	0.0138986
646.343	0.0140438
646.421	0.0138517
646.499	0.0139247
646.578	0.0140330
646.656	0.0140845
646.734	0.0140741
646.812	0.0140275
646.890	0.0141241
646.968	0.0139323
647.046	0.0140475
647.124	0.0140671
647.203	0.0140134
647.281	0.0140051
647.359	0.0140455
647.437	0.0139906
647.515	0.0140459
647.593	0.0140508
647.671	0.0137481
647.749	0.0140125
647.828	0.0140586
647.906	0.0139648
647.984	0.0139492
648.062	0.0139834
648.140	0.0139157
648.218	0.0140045
648.296	0.0139877
648.374	0.0139414
648.453	0.0139905
648.531	0.0139703
648.609	0.0140694
648.687	0.0141442
648.765	0.0140828
648.843	0.0141576
648.921	0.0140150
648.999	0.0139604
649.078	0.0141894
649.156	0.0140562
649.234	0.0140398
649.312	0.0140824
649.390	0.0140575
649.468	0.0139878
649.546	0.0138395
649.624	0.0139513
649.703	0.0140297
649.781	0.0137899
649.859	0.0138987
649.937	0.0138330
650.015	0.0138587
650.093	0.0138907
650.171	0.0137532
650.249	0.0140208
650.328	0.0141359
650.406	0.0139275
650.484	0.0138869
650.562	0.0141164
650.640	0.0141305
650.718	0.0142258
650.796	0.0140183
650.874	0.0140528
650.953	0.0141344
651.031	0.0140872
651.109	0.0141546
651.187	0.0141490
651.265	0.0140714
651.343	0.0140981
651.421	0.0139328
651.499	0.0139460
651.578	0.0138879
651.656	0.0138248
651.734	0.0138792
651.812	0.0137925
651.890	0.0138745
651.968	0.0139580
652.046	0.0139200
652.124	0.0139248
652.203	0.0140790
652.281	0.0138811
652.359	0.0138701
652.437	0.0140547
652.515	0.0140440
652.593	0.0140743
652.671	0.0140958
652.749	0.0140768
652.828	0.0139510
652.906	0.0140179
652.984	0.0139890
653.062	0.0139962
653.140	0.0139507
653.218	0.0140388
653.296	0.0139897
653.374	0.0139302
653.453	0.0140627
653.531	0.0139281
653.609	0.0138418
653.687	0.0138342
653.765	0.0138141
653.843	0.0138962
653.921	0.0140343
653.999	0.0138346
654.078	0.0139513
654.156	0.0138909
654.234	0.0139849
654.312	0.0138454
654.390	0.0140012
654.468	0.0141417
654.546	0.0139938
654.624	0.0139517
654.703	0.0139983
654.781	0.0140953
654.859	0.0141487
654.937	0.0140669
655.015	0.0141704
655.093	0.0141082
655.171	0.0139636
655.249	0.0140343
655.328	0.0139586
655.406	0.0140250
655.484	0.0138343
655.562	0.0139085
655.640	0.0138025
655.718	0.0138148
655.796	0.0137880
655.874	0.0137898
655.953	0.0138152
656.031	0.0138737
656.109	0.0139176
656.187	0.0138691
656.265	0.0138588
656.343	0.0140143
656.421	0.0139191
656.499	0.0138787
656.578	0.0139707
656.656	0.0139724
656.734	0.0139255
656.812	0.0138797
656.890	0.0139413
656.968	0.0140632
657.046	0.0140337
657.124	0.0138178
657.203	0.0137501
657.281	0.0139022
657.359	0.0139187
657.437	0.0137537
657.515	0.0139136
657.593	0.0137676
657.671	0.0136919
657.749	0.0138836
657.828	0.0137969
657.906	0.0138297
657.984	0.0138822
658.062	0.0141063
658.140	0.0140103
658.218	0.0137041
658.296	0.0140022
658.374	0.0139931
658.453	0.0139848
658.531	0.0139825
658.609	0.0139289
658.687	0.0139909
658.765	0.0140601
658.843	0.0139104
658.921	0.0140275
658.999	0.0139178
659.078	0.0139365
659.156	0.0139329
659.234	0.0140958
659.312	0.0140484
659.390	0.0140598
659.468	0.0139469
659.546	0.0140533
659.624	0.0140108
659.703	0.0140914
659.781	0.0139184
659.859	0.0139604
659.937	0.0138692
660.015	0.0139410
660.093	0.0139739
660.171	0.0139916
660.249	0.0139378
660.328	0.0139348
660.406	0.0138929
660.484	0.0138910
660.562	0.0139620
660.640	0.0138692
660.718	0.0138379
660.796	0.0137975
660.874	0.0138988
660.953	0.0137562
661.031	0.0138088
661.109	0.0138553
661.187	0.0139222
661.265	0.0138233
661.343	0.0139812
661.421	0.0141369
661.499	0.0142798
661.578	0.0141288
661.656	0.0141284
661.734	0.0142068
661.812	0.0142643
661.890	0.0141421
661.968	0.0141088
662.046	0.0139263
662.124	0.0140987
662.203	0.0140650
662.281	0.0138667
662.359	0.0137966
662.437	0.0138238
662.515	0.0137321
662.593	0.0136912
662.671	0.0135671
662.749	0.0136307
662.828	0.0135670
662.906	0.0135352
662.984	0.0136101
663.062	0.0137375
663.140	0.0138412
663.218	0.0139803
663.296	0.0139175
663.374	0.0141271
663.453	0.0140981
663.531	0.0142290
663.609	0.0142995
663.687	0.0142579
663.765	0.0143668
663.843	0.0141794
663.921	0.0141192
663.999	0.0141482
664.078	0.0141071
664.156	0.0139230
664.234	0.0139945
664.312	0.0136315
664.390	0.0138420
664.468	0.0138406
664.546	0.0138255
664.624	0.0138222
664.703	0.0138380
664.781	0.0138406
664.859	0.0138420
664.937	0.0139320
665.015	0.0139594
665.093	0.0139918
665.171	0.0140868
665.249	0.0140296
665.328	0.0141394
665.406	0.0140374
665.484	0.0140728
665.562	0.0141071
665.640	0.0141192
665.718	0.0140873
665.796	0.0140041
665.874	0.0139165
665.953	0.0138689
666.031	0.0139577
666.109	0.0137301
666.187	0.0137439
666.265	0.0137614
666.343	0.0136236
666.421	0.0137672
666.499	0.0138285
666.578	0.0138169
666.656	0.0138367
666.734	0.0139614
666.812	0.0139012
666.890	0.0140444
666.968	0.0140211
667.046	0.0141366
667.124	0.0141776
667.203	0.0142481
667.281	0.0142701
667.359	0.0141478
667.437	0.0143081
667.515	0.0141048
667.593	0.0139097
667.671	0.0139989
667.749	0.0140148
667.828	0.0139438
667.906	0.0138360
667.984	0.0137344
668.062	0.0137120
668.140	0.0136254
668.218	0.0136313
668.296	0.0136697
668.374	0.0137531
668.453	0.0138310
668.531	0.0139815
668.609	0.0139618
668.687	0.0139522
668.765	0.0141917
668.843	0.0139778
668.921	0.0141254
668.999	0.0143387
669.078	0.0143638
669.156	0.0143227
669.234	0.0141034
669.312	0.0140764
669.390	0.0140363
669.468	0.0141307
669.546	0.0139695
669.624	0.0141332
669.703	0.0139240
669.781	0.0138855
669.859	0.0137736
669.937	0.0139121
670.015	0.0138275
670.093	0.0138427
670.171	0.0138866
670.249	0.0139196
670.328	0.0141525
670.406	0.0140079
670.484	0.0140159
670.562	0.0140862
670.640	0.0140867
670.718	0.0141563
670.796	0.0141049
670.874	0.0140701
670.953	0.0140421
671.031	0.0139613
671.109	0.0139443
671.187	0.0139058
671.265	0.0139505
671.343	0.0139678
671.421	0.0138754
671.499	0.0139417
671.578	0.0138704
671.656	0.0138818
671.734	0.0140252
671.812	0.0138570
671.890	0.0140423
671.968	0.0141001
672.046	0.0139355
672.124	0.0139959
672.203	0.0138628
672.281	0.0139787
672.359	0.0139968
672.437	0.0140005
672.515	0.0139745
672.593	0.0139841
672.671	0.0138434
672.749	0.0138799
672.828	0.0139223
672.906	0.0139175
672.984	0.0139511
673.062	0.0138603
673.140	0.0138327
673.218	0.0137930
673.296	0.0139309
673.374	0.0140258
673.453	0.0137737
673.531	0.0138754
673.609	0.0139761
673.687	0.0138842
673.765	0.0139099
673.843	0.0139143
673.921	0.0140354
673.999	0.0138864
674.078	0.0139095
674.156	0.0141245
674.234	0.0140401
674.312	0.0140353
674.390	0.0142152
674.468	0.0143195
674.546	0.0141701
674.624	0.0141537
674.703	0.0143401
674.781	0.0141393
674.859	0.0140805
674.937	0.0139414
675.015	0.0141753
675.093	0.0140073
675.171	0.0137006
675.249	0.0139613
675.328	0.0138509
675.406	0.0138848
675.484	0.0137897
675.562	0.0136717
675.640	0.0136586
675.718	0.0139194
675.796	0.0138952
675.874	0.0138043
675.953	0.0139722
676.031	0.0140974
676.109	0.0140428
676.187	0.0140124
676.265	0.0139764
676.343	0.0141287
676.421	0.0140833
676.499	0.0140524
676.578	0.0140481
676.656	0.0139623
676.734	0.0138827
676.812	0.0140642
676.890	0.0139265
676.968	0.0139289
677.046	0.0139138
677.124	0.0139238
677.203	0.0138214
677.281	0.0138382
677.359	0.0138348
677.437	0.0137601
677.515	0.0137207
677.593	0.0137636
677.671	0.0137912
677.749	0.0137234
677.828	0.0137338
677.906	0.0138103
677.984	0.0137544
678.062	0.0137978
678.140	0.0139378
678.218	0.0136863
678.296	0.0136931
678.374	0.0136324
678.453	0.0136124
678.531	0.0137039
678.609	0.0136794
678.687	0.0135076
678.765	0.0135305
678.843	0.0135623
678.921	0.0136372
678.999	0.0138025
679.078	0.0137697
679.156	0.0138567
679.234	0.0139497
679.312	0.0141059
679.390	0.0142284
679.468	0.0143316
679.546	0.0143575
679.624	0.0143063
679.703	0.0144261
679.781	0.0145082
679.859	0.0146049
679.937	0.0145501
680.015	0.0145518
680.093	0.0144320
680.171	0.0143613
680.249	0.0145291
680.328	0.0144012
680.406	0.0142418
680.484	0.0141047
680.562	0.0142101
680.640	0.0141300
680.718	0.0139103
680.796	0.0138730
680.874	0.0138227
680.953	0.0137524
681.031	0.0137053
681.109	0.0138335
681.187	0.0136356
681.265	0.0136618
681.343	0.0136650
681.421	0.0138150
681.499	0.0138562
681.578	0.0137273
681.656	0.0138030
681.734	0.0136676
681.812	0.0137279
681.890	0.0137949
681.968	0.0138519
682.046	0.0137844
682.124	0.0137568
682.203	0.0138432
682.281	0.0139162
682.359	0.0137343
682.437	0.0139191
682.515	0.0138914
682.593	0.0139735
682.671	0.0139576
682.749	0.0138026
682.828	0.0139330
682.906	0.0139286
682.984	0.0136943
683.062	0.0138025
683.140	0.0138837
683.218	0.0137735
683.296	0.0137460
683.374	0.0137467
683.453	0.0137309
683.531	0.0138148
683.609	0.0138350
683.687	0.0139713
683.765	0.0139833
683.843	0.0142367
683.921	0.0142231
683.999	0.0140945
684.078	0.0143355
684.156	0.0143344
684.234	0.0141956
684.312	0.0143161
684.390	0.0141878
684.468	0.0140435
684.546	0.0138808
684.624	0.0139376
684.703	0.0137900
684.781	0.0137258
684.859	0.0136842
684.937	0.0136874
685.015	0.0136685
685.093	0.0135789
685.171	0.0136177
685.249	0.0137789
685.328	0.0138959
685.406	0.0138991
685.484	0.0139286
685.562	0.0140089
685.640	0.0141399
685.718	0.0143353
685.796	0.0142191
685.874	0.0143365
685.953	0.0143037
686.031	0.0141735
686.109	0.0142318
686.187	0.0144183
686.265	0.0141916
686.343	0.0140004
686.421	0.0141663
686.499	0.0140806
686.578	0.0138174
686.656	0.0137855
686.734	0.0137826
686.812	0.0138238
686.890	0.0137852
686.968	0.0136563
687.046	0.0136305
687.124	0.0137148
687.203	0.0137550
687.281	0.0138327
687.359	0.0140233
687.437	0.0141143
687.515	0.0141061
687.593	0.0140831
687.671	0.0140865
687.749	0.0142612
687.828	0.0142605
687.906	0.0141111
687.984	0.0142110
688.062	0.0140162
688.140	0.0138407
688.218	0.0138566
688.296	0.0136580
688.374	0.0135829
688.453	0.0136349
688.531	0.0134705
688.609	0.0135570
688.687	0.0135081
688.765	0.0135014
688.843	0.0136285
688.921	0.0136742
688.999	0.0135990
689.078	0.0136775
689.156	0.0138715
689.234	0.0138732
689.312	0.0139505
689.390	0.0138515
689.468	0.0140168
689.546	0.0141119
689.624	0.0141225
689.703	0.0140778
689.781	0.0140761
689.859	0.0141244
689.937	0.0140801
690.015	0.0140656
690.093	0.0140053
690.171	0.0140251
690.249	0.0139056
690.328	0.0139475
690.406	0.0140353
690.484	0.0140322
690.562	0.0141048
690.640	0.0140195
690.718	0.0140045
690.796	0.0141546
690.874	0.0140580
690.953	0.0141035
691.031	0.0140465
691.109	0.0142041
691.187	0.0141424
691.265	0.0142326
691.343	0.0142491
691.421	0.0142622
691.499	0.0140836
691.578	0.0142304
691.656	0.0140359
691.734	0.0141634
691.812	0.0138906
691.890	0.0137908
691.968	0.0138066
692.046	0.0138515
692.124	0.0138802
692.203	0.0137827
692.281	0.0138090
692.359	0.0138014
692.437	0.0137148
692.515	0.0137252
692.593	0.0138709
692.671	0.0138505
692.749	0.0139330
692.828	0.0139444
692.906	0.0139330
692.984	0.0137890
693.062	0.0138781
693.140	0.0138477
693.218	0.0138900
693.296	0.0138866
693.374	0.0138036
693.453	0.0138362
693.531	0.0139094
693.609	0.0139506
693.687	0.0138972
693.765	0.0137463
693.843	0.0137817
693.921	0.0138184
693.999	0.0139198
694.078	0.0137852
694.156	0.0138823
694.234	0.0137514
694.312	0.0137394
694.390	0.0138678
694.468	0.0138903
694.546	0.0139205
694.624	0.0139689
694.703	0.0139362
694.781	0.0140689
694.859	0.0140674
694.937	0.0139371
695.015	0.0140381
695.093	0.0140537
695.171	0.0139925
695.249	0.0139214
695.328	0.0138728
695.406	0.0139483
695.484	0.0139303
695.562	0.0138948
695.640	0.0139093
695.718	0.0139516
695.796	0.0139817
695.874	0.0139632
695.953	0.0141141
696.031	0.0141624
696.109	0.0141479
696.187	0.0141927
696.265	0.0141286
696.343	0.0141970
696.421	0.0140260
696.499	0.0140765
696.578	0.0140861
696.656	0.0140023
696.734	0.0140377
696.812	0.0140440
696.890	0.0140100
696.968	0.0139276
697.046	0.0140129
697.124	0.0141079
697.203	0.0139504
697.281	0.0139759
697.359	0.0139112
697.437	0.0139582
697.515	0.0137674
697.593	0.0139108
697.671	0.0137257
697.749	0.0136229
697.828	0.0136922
697.906	0.0139211
697.984	0.0138097
698.062	0.0137078
698.140	0.0138194
698.218	0.0137140
698.296	0.0137691
698.374	0.0137522
698.453	0.0138138
698.531	0.0139026
698.609	0.0138312
698.687	0.0138208
698.765	0.0138690
698.843	0.0138548
698.921	0.0139190
698.999	0.0139632
699.078	0.0138622
699.156	0.0140195
699.234	0.0140580
699.312	0.0140498
699.390	0.0140199
699.468	0.0141180
699.546	0.0140093
699.624	0.0138691
699.703	0.0140685
699.781	0.0140443
699.859	0.0140687
699.937	0.0139844
700.015	0.0139563
700.093	0.0137371
700.171	0.0139299
700.249	0.0139534
700.328	0.0139323
700.406	0.0138857
700.484	0.0140640
700.562	0.0141499
700.640	0.0140257
700.718	0.0140764
700.796	0.0139735
700.874	0.0139141
700.953	0.0140098
701.031	0.0140768
701.109	0.0140013
701.187	0.0137910
701.265	0.0139342
701.343	0.0138322
701.421	0.0138887
701.499	0.0138689
701.578	0.0137567
701.656	0.0138065
701.734	0.0139158
701.812	0.0138648
701.890	0.0140155
701.968	0.0139227
702.046	0.0140730
702.124	0.0140474
702.203	0.0141398
702.281	0.0139716
702.359	0.0140308
702.437	0.0140195
702.515	0.0140260
702.593	0.0140958
702.671	0.0140072
702.749	0.0139076
702.828	0.0139856
702.906	0.0139928
702.984	0.0138882
703.062	0.0139030
703.140	0.0139684
703.218	0.0140122
703.296	0.0140445
703.374	0.0139011
703.453	0.0140064
703.531	0.0137827
703.609	0.0139594
703.687	0.0139828
703.765	0.0139187
703.843	0.0137995
703.921	0.0138304
703.999	0.0137868
704.078	0.0138066
704.156	0.0137903
704.234	0.0136712
704.312	0.0137885
704.390	0.0138495
704.468	0.0138898
704.546	0.0139165
704.624	0.0140810
704.703	0.0140141
704.781	0.0141281
704.859	0.0142485
704.937	0.0141369
705.015	0.0142751
705.093	0.0142208
705.171	0.0142063
705.249	0.0141770
705.328	0.0141593
705.406	0.0142349
705.484	0.0140211
705.562	0.0139809
705.640	0.0140752
705.718	0.0138924
705.796	0.0138758
705.874	0.0138951
705.953	0.0137537
706.031	0.0138377
706.109	0.0138773
706.187	0.0137767
706.265	0.0138441
706.343	0.0137493
706.421	0.0137017
706.499	0.0138351
706.578	0.0138470
706.656	0.0139243
706.734	0.0138369
706.812	0.0137840
706.890	0.0140234
706.968	0.0139608
707.046	0.0139484
707.124	0.0138077
707.203	0.0137656
707.281	0.0138406
707.359	0.0138060
707.437	0.0137193
707.515	0.0136485
707.593	0.0137319
707.671	0.0137362
707.749	0.0136926
707.828	0.0137744
707.906	0.0138237
707.984	0.0138487
708.062	0.0139423
708.140	0.0137666
708.218	0.0138142
708.296	0.0138579
708.374	0.0139504
708.453	0.0140070
708.531	0.0138815
708.609	0.0137875
708.687	0.0137721
708.765	0.0138405
708.843	0.0138821
708.921	0.0140317
708.999	0.0138988
709.078	0.0138853
709.156	0.0138441
709.234	0.0140082
709.312	0.0140343
709.390	0.0139503
709.468	0.0141728
709.546	0.0139045
709.624	0.0139022
709.703	0.0140179
709.781	0.0140228
709.859	0.0139138
709.937	0.0140708
710.015	0.0141801
710.093	0.0140598
710.171	0.0141235
710.249	0.0141166
710.328	0.0141472
710.406	0.0142286
710.484	0.0141670
710.562	0.0140773
710.640	0.0140785
710.718	0.0139566
710.796	0.0140163
710.874	0.0138789
710.953	0.0139301
711.031	0.0138647
711.109	0.0137024
711.187	0.0137127
711.265	0.0137599
711.343	0.0138435
711.421	0.0138651
711.499	0.0138734
711.578	0.0138978
711.656	0.0138765
711.734	0.0140411
711.812	0.0139887
711.890	0.0138250
711.968	0.0138496
712.046	0.0137382
712.124	0.0139877
712.203	0.0139650
712.281	0.0139768
712.359	0.0138612
712.437	0.0138863
712.515	0.0138247
712.593	0.0139776
712.671	0.0139700
712.749	0.0138949
712.828	0.0139605
712.906	0.0139828
712.984	0.0138223
713.062	0.0139075
713.140	0.0140363
713.218	0.0139433
713.296	0.0139783
713.374	0.0139613
713.453	0.0139484
713.531	0.0139038
713.609	0.0140083
713.687	0.0139118
713.765	0.0139173
713.843	0.0138459
713.921	0.0139477
713.999	0.0139285
714.078	0.0139084
714.156	0.0139237
714.234	0.0139104
714.312	0.0136792
714.390	0.0137133
714.468	0.0138091
714.546	0.0138576
714.624	0.0137646
714.703	0.0138729
714.781	0.0137767
714.859	0.0138402
714.937	0.0138275
715.015	0.0138532
715.093	0.0138502
715.171	0.0139708
715.249	0.0138975
715.328	0.0140049
715.406	0.0138499
715.484	0.0139082
715.562	0.0139984
715.640	0.0140555
715.718	0.0140755
715.796	0.0139863
715.874	0.0139191
715.953	0.0138540
716.031	0.0139391
716.109	0.0138878
716.187	0.0140623
716.265	0.0141127
716.343	0.0141190
716.421	0.0139430
716.499	0.0140423
716.578	0.0139683
716.656	0.0140288
716.734	0.0140590
716.812	0.0138870
716.890	0.0138739
716.968	0.0138593
717.046	0.0138242
717.124	0.0137964
717.203	0.0136893
717.281	0.0138947
717.359	0.0138612
717.437	0.0138332
717.515	0.0139475
717.593	0.0139700
717.671	0.0139336
717.749	0.0138770
717.828	0.0137556
717.906	0.0137884
717.984	0.0138313
718.062	0.0138168
718.140	0.0137419
718.218	0.0138557
718.296	0.0138365
718.374	0.0137789
718.453	0.0138714
718.531	0.0139679
718.609	0.0139147
718.687	0.0138634
718.765	0.0139330
718.843	0.0139940
718.921	0.0139974
718.999	0.0138799
719.078	0.0138174
719.156	0.0138906
719.234	0.0138294
719.312	0.0138600
719.390	0.0138114
719.468	0.0138531
719.546	0.0136482
719.624	0.0136700
719.703	0.0136794
719.781	0.0139006
719.859	0.0137509
719.937	0.0138148
720.015	0.0138705
720.093	0.0137514
720.171	0.0139130
720.249	0.0138049
720.328	0.0139767
720.406	0.0140079
720.484	0.0138780
720.562	0.0140212
720.640	0.0140478
720.718	0.0139515
720.796	0.0140668
720.874	0.0139919
720.953	0.0139823
721.031	0.0139976
721.109	0.0138388
721.187	0.0138174
721.265	0.0137564
721.343	0.0138331
721.421	0.0138088
721.499	0.0138146
721.578	0.0138487
721.656	0.0138738
721.734	0.0139157
721.812	0.0138570
721.890	0.0139397
721.968	0.0139180
722.046	0.0139710
722.124	0.0139153
722.203	0.0139001
722.281	0.0138329
722.359	0.0140468
722.437	0.0139420
722.515	0.0140398
722.593	0.0141100
722.671	0.0140157
722.749	0.0139903
722.828	0.0140531
722.906	0.0139598
722.984	0.0138781
723.062	0.0139229
723.140	0.0140480
723.218	0.0141155
723.296	0.0140067
723.374	0.0140470
723.453	0.0140248
723.531	0.0140065
723.609	0.0139243
723.687	0.0139031
723.765	0.0139769
723.843	0.0138754
723.921	0.0139982
723.999	0.0137379
724.078	0.0137294
724.156	0.0137512
724.234	0.0137660
724.312	0.0139407
724.390	0.0140375
724.468	0.0138744
724.546	0.0139130
724.624	0.0139175
724.703	0.0140131
724.781	0.0140230
724.859	0.0138847
724.937	0.0139795
725.015	0.0140482
725.093	0.0138730
725.171	0.0139906
725.249	0.0140319
725.328	0.0138769
725.406	0.0139681
725.484	0.0138083
725.562	0.0138262
725.640	0.0139114
725.718	0.0139371
725.796	0.0140108
725.874	0.0140120
725.953	0.0139067
726.031	0.0140108
726.109	0.0138791
726.187	0.0139179
726.265	0.0139770
726.343	0.0138701
726.421	0.0138445
726.499	0.0138615
726.578	0.0137575
726.656	0.0137775
726.734	0.0138319
726.812	0.0136478
726.890	0.0137824
726.968	0.0137891
727.046	0.0136944
727.124	0.0137892
727.203	0.0138114
727.281	0.0139015
727.359	0.0138689
727.437	0.0138507
727.515	0.0139481
727.593	0.0140333
727.671	0.0139712
727.749	0.0141468
727.828	0.0141732
727.906	0.0141219
727.984	0.0141089
728.062	0.0141668
728.140	0.0141803
728.218	0.0141607
728.296	0.0141883
728.374	0.0142036
728.453	0.0140562
728.531	0.0140653
728.609	0.0140572
728.687	0.0140804
728.765	0.0139687
728.843	0.0139716
728.921	0.0140622
728.999	0.0140491
729.078	0.0140086
729.156	0.0139499
729.234	0.0140839
729.312	0.0140906
729.390	0.0141063
729.468	0.0140147
729.546	0.0139616
729.624	0.0141032
729.703	0.0140044
729.781	0.0139845
729.859	0.0140215
729.937	0.0140091
730.015	0.0139015
730.093	0.0140120
730.171	0.0138628
730.249	0.0138579
730.328	0.0138612
730.406	0.0138069
730.484	0.0138181
730.562	0.0137701
730.640	0.0137634
730.718	0.0138188
730.796	0.0137387
730.874	0.0138636
730.953	0.0138309
731.031	0.0137255
731.109	0.0139298
731.187	0.0138031
731.265	0.0137071
731.343	0.0137607
731.421	0.0138499
731.499	0.0139311
731.578	0.0138644
731.656	0.0138318
731.734	0.0138481
731.812	0.0140283
731.890	0.0139234
731.968	0.0139211
732.046	0.0139447
732.124	0.0141306
732.203	0.0140397
732.281	0.0139455
732.359	0.0139704
732.437	0.0140488
732.515	0.0139869
732.593	0.0141299
732.671	0.0140207
732.749	0.0139585
732.828	0.0138663
732.906	0.0139893
732.984	0.0140569
733.062	0.0138393
733.140	0.0137766
733.218	0.0138038
733.296	0.0140268
733.374	0.0139301
733.453	0.0137991
733.531	0.0138007
733.609	0.0138713
733.687	0.0137489
733.765	0.0137273
733.843	0.0139658
733.921	0.0140289
733.999	0.0140142
734.078	0.0137231
734.156	0.0138524
734.234	0.0140597
734.312	0.0140501
734.390	0.0139651
734.468	0.0139609
734.546	0.0139664
734.624	0.0139184
734.703	0.0139719
734.781	0.0139222
734.859	0.0139742
734.937	0.0139468
735.015	0.0139778
735.093	0.0139616
735.171	0.0137646
735.249	0.0138636
735.328	0.0140255
735.406	0.0138911
735.484	0.0139025
735.562	0.0139963
735.640	0.0139326
735.718	0.0139191
735.796	0.0138589
735.874	0.0138567
735.953	0.0140283
736.031	0.0138854
736.109	0.0138108
736.187	0.0139089
736.265	0.0138022
736.343	0.0138238
736.421	0.0138792
736.499	0.0138560
736.578	0.0138131
736.656	0.0139574
736.734	0.0138007
736.812	0.0138301
736.890	0.0139255
736.968	0.0139035
737.046	0.0136486
737.124	0.0137033
737.203	0.0138407
737.281	0.0140007
737.359	0.0135863
737.437	0.0136882
737.515	0.0139255
737.593	0.0137519
737.671	0.0137931
737.749	0.0137255
737.828	0.0138250
737.906	0.0138561
737.984	0.0138389
738.062	0.0138190
738.140	0.0138347
738.218	0.0138836
738.296	0.0139632
738.374	0.0139892
738.453	0.0139568
738.531	0.0140092
738.609	0.0139214
738.687	0.0140105
738.765	0.0138779
738.843	0.0139144
738.921	0.0139517
738.999	0.0139610
739.078	0.0138099
739.156	0.0138231
739.234	0.0139477
739.312	0.0139243
739.390	0.0137620
739.468	0.0139289
739.546	0.0140295
739.624	0.0138600
739.703	0.0138171
739.781	0.0140408
739.859	0.0139283
739.937	0.0139053
740.015	0.0139444
740.093	0.0139583
740.171	0.0140594
740.249	0.0139971
740.328	0.0139283
740.406	0.0140044
740.484	0.0140137
740.562	0.0138495
740.640	0.0139590
740.718	0.0139378
740.796	0.0138288
740.874	0.0140008
740.953	0.0139554
741.031	0.0138818
741.109	0.0138541
741.187	0.0138350
741.265	0.0139221
741.343	0.0138580
741.421	0.0138615
741.499	0.0139922
741.578	0.0139643
741.656	0.0138383
741.734	0.0138597
741.812	0.0138424
741.890	0.0140453
741.968	0.0139520
742.046	0.0138887
742.124	0.0138580
742.203	0.0139462
742.281	0.0139656
742.359	0.0138607
742.437	0.0137976
742.515	0.0136847
742.593	0.0137414
742.671	0.0138664
742.749	0.0136947
742.828	0.0137634
742.906	0.0137599
742.984	0.0140729
743.062	0.0138099
743.140	0.0138330
743.218	0.0141178
743.296	0.0141328
743.374	0.0139606
743.453	0.0140074
743.531	0.0140375
743.609	0.0140728
743.687	0.0139756
743.765	0.0139833
743.843	0.0138808
743.921	0.0141586
743.999	0.0140975
744.078	0.0139288
744.156	0.0138474
744.234	0.0137860
744.312	0.0138482
744.390	0.0139563
744.468	0.0138615
744.546	0.0138637
744.624	0.0139204
744.703	0.0139317
744.781	0.0139320
744.859	0.0139544
744.937	0.0139563
745.015	0.0139024
745.093	0.0139647
745.171	0.0138582
745.249	0.0139543
745.328	0.0140054
745.406	0.0140612
745.484	0.0140499
745.562	0.0139763
745.640	0.0139281
745.718	0.0140300
745.796	0.0139232
745.874	0.0139052
745.953	0.0140962
746.031	0.0139269
746.109	0.0138543
746.187	0.0139674
746.265	0.0139552
746.343	0.0139648
746.421	0.0140656
746.499	0.0139710
746.578	0.0140203
746.656	0.0139583
746.734	0.0139895
746.812	0.0140212
746.890	0.0138929
746.968	0.0139879
747.046	0.0139529
747.124	0.0141118
747.203	0.0139436
747.281	0.0140476
747.359	0.0139214
747.437	0.0139293
747.515	0.0141605
747.593	0.0139208
747.671	0.0139076
747.749	0.0138956
747.828	0.0139654
747.906	0.0139227
747.984	0.0139205
748.062	0.0140989
748.140	0.0139928
748.218	0.0139352
748.296	0.0141085
748.374	0.0140409
748.453	0.0140923
748.531	0.0141042
748.609	0.0139427
748.687	0.0139360
748.765	0.0140649
748.843	0.0140464
748.921	0.0139792
748.999	0.0139096
749.078	0.0139462
749.156	0.0138126
749.234	0.0139983
749.312	0.0138749
749.390	0.0139169
749.468	0.0140376
749.546	0.0140252
749.624	0.0139214
749.703	0.0138956
749.781	0.0139358
749.859	0.0139218
749.937	0.0139726
750.015	0.0138338
750.093	0.0140325
750.171	0.0139035
750.249	0.0137169
750.328	0.0137813
750.406	0.0138320
750.484	0.0138419
750.562	0.0138675
750.640	0.0138676
750.718	0.0137708
750.796	0.0137606
750.874	0.0139379
750.953	0.0139093
751.031	0.0139777
751.109	0.0139938
751.187	0.0139133
751.265	0.0138652
751.343	0.0140952
751.421	0.0140694
751.499	0.0140314
751.578	0.0139781
751.656	0.0141224
751.734	0.0140113
751.812	0.0138650
751.890	0.0139339
751.968	0.0138692
752.046	0.0138299
752.124	0.0138876
752.203	0.0140594
752.281	0.0138033
752.359	0.0138587
752.437	0.0138927
752.515	0.0138214
752.593	0.0139687
752.671	0.0140602
752.749	0.0138459
752.828	0.0139550
752.906	0.0139057
752.984	0.0140650
753.062	0.0140336
753.140	0.0139783
753.218	0.0138921
753.296	0.0138258
753.374	0.0137316
753.453	0.0138322
753.531	0.0137520
753.609	0.0137196
753.687	0.0138019
753.765	0.0137793
753.843	0.0138650
753.921	0.0137768
753.999	0.0138718
754.078	0.0138364
754.156	0.0138434
754.234	0.0138778
754.312	0.0140327
754.390	0.0139079
754.468	0.0139792
754.546	0.0137706
754.624	0.0137809
754.703	0.0140816
754.781	0.0139542
754.859	0.0140148
754.937	0.0138065
755.015	0.0137388
755.093	0.0138697
755.171	0.0137388
755.249	0.0137802
755.328	0.0136769
755.406	0.0138278
755.484	0.0138509
755.562	0.0139941
755.640	0.0139371
755.718	0.0139172
755.796	0.0138759
755.874	0.0137753
755.953	0.0138755
756.031	0.0138062
756.109	0.0137909
756.187	0.0138783
756.265	0.0138428
756.343	0.0138297
756.421	0.0138206
756.499	0.0138685
756.578	0.0139200
756.656	0.0137218
756.734	0.0138040
756.812	0.0138740
756.890	0.0138535
756.968	0.0138933
757.046	0.0139311
757.124	0.0140341
757.203	0.0138713
757.281	0.0138092
757.359	0.0137943
757.437	0.0138634
757.515	0.0138862
757.593	0.0138176
757.671	0.0138486
757.749	0.0139400
757.828	0.0137820
757.906	0.0138805
757.984	0.0138639
758.062	0.0140388
758.140	0.0141827
758.218	0.0140274
758.296	0.0140600
758.374	0.0141889
758.453	0.0141138
758.531	0.0142144
758.609	0.0142428
758.687	0.0140922
758.765	0.0141583
758.843	0.0139669
758.921	0.0140988
758.999	0.0139609
759.078	0.0139904
759.156	0.0139368
759.234	0.0140162
759.312	0.0140411
759.390	0.0138966
759.468	0.0139936
759.546	0.0140534
759.624	0.0140192
759.703	0.0140157
759.781	0.0140891
759.859	0.0141759
759.937	0.0141517
760.015	0.0140984
760.093	0.0141621
760.171	0.0141138
760.249	0.0140378
760.328	0.0139597
760.406	0.0140755
760.484	0.0140752
760.562	0.0139962
760.640	0.0139170
760.718	0.0140492
760.796	0.0140598
760.874	0.0139545
760.953	0.0139317
761.031	0.0140298
761.109	0.0140578
761.187	0.0142010
761.265	0.0139980
761.343	0.0140456
761.421	0.0140907
761.499	0.0141093
761.578	0.0139360
761.656	0.0139947
761.734	0.0138159
761.812	0.0138690
761.890	0.0137937
761.968	0.0138357
762.046	0.0138729
762.124	0.0138943
762.203	0.0137927
762.281	0.0138480
762.359	0.0138259
762.437	0.0139236
762.515	0.0140414
762.593	0.0140225
762.671	0.0139400
762.749	0.0141010
762.828	0.0140680
762.906	0.0140548
762.984	0.0138425
763.062	0.0138931
763.140	0.0138814
763.218	0.0139150
763.296	0.0138533
763.374	0.0139427
763.453	0.0138103
763.531	0.0138592
763.609	0.0137600
763.687	0.0140734
763.765	0.0140573
763.843	0.0140565
763.921	0.0139395
763.999	0.0140795
764.078	0.0139757
764.156	0.0141429
764.234	0.0140508
764.312	0.0140387
764.390	0.0140299
764.468	0.0140705
764.546	0.0140527
764.624	0.0136919
764.703	0.0137993
764.781	0.0138258
764.859	0.0137757
764.937	0.0137514
765.015	0.0136726
765.093	0.0138286
765.171	0.0138041
765.249	0.0137048
765.328	0.0139736
765.406	0.0139899
765.484	0.0138512
765.562	0.0139468
765.640	0.0140165
765.718	0.0139606
765.796	0.0139142
765.874	0.0140766
765.953	0.0140099
766.031	0.0139700
766.109	0.0139547
766.187	0.0140685
766.265	0.0141438
766.343	0.0138661
766.421	0.0140781
766.499	0.0140734
766.578	0.0138625
766.656	0.0141594
766.734	0.0140815
766.812	0.0140056
766.890	0.0140263
766.968	0.0140659
767.046	0.0139256
767.124	0.0141103
767.203	0.0139839
767.281	0.0139281
767.359	0.0139415
767.437	0.0141076
767.515	0.0138794
767.593	0.0139170
767.671	0.0139362
767.749	0.0139004
767.828	0.0140308
767.906	0.0140509
767.984	0.0140292
768.062	0.0139395
768.140	0.0138364
768.218	0.0139095
768.296	0.0138011
768.374	0.0138835
768.453	0.0138755
768.531	0.0137950
768.609	0.0138750
768.687	0.0138296
768.765	0.0137730
768.843	0.0138782
768.921	0.0137949
768.999	0.0137719
769.078	0.0139925
769.156	0.0139100
769.234	0.0138665
769.312	0.0139218
769.390	0.0139630
769.468	0.0140590
769.546	0.0140891
769.624	0.0139825
769.703	0.0140453
769.781	0.0138698
769.859	0.0138515
769.937	0.0139986
770.015	0.0140005
770.093	0.0138542
770.171	0.0138681
770.249	0.0138667
770.328	0.0139246
770.406	0.0139393
770.484	0.0141727
770.562	0.0139999
770.640	0.0139890
770.718	0.0140721
770.796	0.0141515
770.874	0.0141139
770.953	0.0141275
771.031	0.0141187
771.109	0.0141673
771.187	0.0139422
771.265	0.0140583
771.343	0.0141750
771.421	0.0140975
771.499	0.0138921
771.578	0.0139728
771.656	0.0139107
771.734	0.0138380
771.812	0.0140292
771.890	0.0139320
771.968	0.0139755
772.046	0.0141557
772.124	0.0139003
772.203	0.0140002
772.281	0.0140463
772.359	0.0139130
772.437	0.0140294
772.515	0.0139941
772.593	0.0139644
772.671	0.0140654
772.749	0.0139020
772.828	0.0138439
772.906	0.0138945
772.984	0.0140450
773.062	0.0138165
773.140	0.0138277
773.218	0.0136892
773.296	0.0139130
773.374	0.0138290
773.453	0.0140205
773.531	0.0139237
773.609	0.0138028
773.687	0.0138853
773.765	0.0140321
773.843	0.0140148
773.921	0.0140018
773.999	0.0141388
774.078	0.0139632
774.156	0.0140281
774.234	0.0139966
774.312	0.0139703
774.390	0.0139147
774.468	0.0139824
774.546	0.0138771
774.624	0.0139010
774.703	0.0139998
774.781	0.0140572
774.859	0.0139487
774.937	0.0139021
775.015	0.0139043
775.093	0.0138993
775.171	0.0141170
775.249	0.0139703
775.328	0.0140841
775.406	0.0139618
775.484	0.0139262
775.562	0.0138925
775.640	0.0140546
775.718	0.0140293
775.796	0.0139382
775.874	0.0139446
775.953	0.0140889
776.031	0.0140193
776.109	0.0139482
776.187	0.0140620
776.265	0.0138973
776.343	0.0139226
776.421	0.0138858
776.499	0.0139014
776.578	0.0139745
776.656	0.0140079
776.734	0.0138723
776.812	0.0140131
776.890	0.0140701
776.968	0.0137784
777.046	0.0139102
777.124	0.0139162
777.203	0.0140641
777.281	0.0139859
777.359	0.0139577
777.437	0.0139288
777.515	0.0139114
777.593	0.0140247
777.671	0.0137943
777.749	0.0138333
777.828	0.0139709
777.906	0.0139565
777.984	0.0138351
778.062	0.0138707
778.140	0.0138310
778.218	0.0139438
778.296	0.0139574
778.374	0.0139362
778.453	0.0139394
778.531	0.0139874
778.609	0.0139631
778.687	0.0138616
778.765	0.0138820
778.843	0.0139714
778.921	0.0140930
778.999	0.0140623
779.078	0.0138918
779.156	0.0139497
779.234	0.0138356
779.312	0.0139732
779.390	0.0137090
779.468	0.0139165
779.546	0.0138484
779.624	0.0138918
779.703	0.0138136
779.781	0.0138596
779.859	0.0139896
779.937	0.0139025
780.015	0.0139156
780.093	0.0138440
780.171	0.0138364
780.249	0.0139581
780.328	0.0139825
780.406	0.0139104
780.484	0.0140337
780.562	0.0139759
780.640	0.0140652
780.718	0.0139690
780.796	0.0138883
780.874	0.0139853
780.953	0.0139037
781.031	0.0137522
781.109	0.0138718
781.187	0.0138971
781.265	0.0137687
781.343	0.0139028
781.421	0.0137975
781.499	0.0138953
781.578	0.0139426
781.656	0.0140409
781.734	0.0140138
781.812	0.0138656
781.890	0.0139718
781.968	0.0139816
782.046	0.0139630
782.124	0.0140833
782.203	0.0140670
782.281	0.0141738
782.359	0.0140888
782.437	0.0140344
782.515	0.0140666
782.593	0.0141872
782.671	0.0141180
782.749	0.0141673
782.828	0.0142015
782.906	0.0141795
782.984	0.0141446
783.062	0.0142353
783.140	0.0141789
783.218	0.0141015
783.296	0.0140269
783.374	0.0140804
783.453	0.0139884
783.531	0.0140085
783.609	0.0139102
783.687	0.0140414
783.765	0.0139137
783.843	0.0138309
783.921	0.0138635
783.999	0.0138695
784.078	0.0138347
784.156	0.0138630
784.234	0.0138052
784.312	0.0137255
784.390	0.0139875
784.468	0.0138950
784.546	0.0137605
784.624	0.0138436
784.703	0.0137172
784.781	0.0136876
784.859	0.0138620
784.937	0.0139328
785.015	0.0138299
785.093	0.0139260
785.171	0.0139142
785.249	0.0138953
785.328	0.0139124
785.406	0.0140054
785.484	0.0138638
785.562	0.0138510
785.640	0.0140417
785.718	0.0138597
785.796	0.0140141
785.874	0.0140559
785.953	0.0139451
786.031	0.0139438
786.109	0.0140417
786.187	0.0140009
786.265	0.0140205
786.343	0.0138718
786.421	0.0140353
786.499	0.0140456
786.578	0.0140971
786.656	0.0140756
786.734	0.0140463
786.812	0.0139426
786.890	0.0139561
786.968	0.0139450
787.046	0.0140773
787.124	0.0139880
787.203	0.0141065
787.281	0.0141344
787.359	0.0140939
787.437	0.0139784
787.515	0.0140454
787.593	0.0141080
787.671	0.0138882
787.749	0.0139371
787.828	0.0138074
787.906	0.0138327
787.984	0.0136938
788.062	0.0138371
788.140	0.0138373
788.218	0.0137178
788.296	0.0138589
788.374	0.0138476
788.453	0.0137901
788.531	0.0138166
788.609	0.0137444
788.687	0.0137357
788.765	0.0139359
788.843	0.0138103
788.921	0.0138283
788.999	0.0139761
789.078	0.0137927
789.156	0.0137771
789.234	0.0139040
789.312	0.0138727
789.390	0.0139040
789.468	0.0137620
789.546	0.0138706
789.624	0.0138659
789.703	0.0139151
789.781	0.0139014
789.859	0.0138711
789.937	0.0139288
790.015	0.0138628
790.093	0.0137504
790.171	0.0140106
790.249	0.0141500
790.328	0.0138657
790.406	0.0140053
790.484	0.0140738
790.562	0.0141852
790.640	0.0140290
790.718	0.0141432
790.796	0.0139928
790.874	0.0141425
790.953	0.0141543
791.031	0.0140478
791.109	0.0140591
791.187	0.0140828
791.265	0.0140411
791.343	0.0140359
791.421	0.0140604
791.499	0.0141525
791.578	0.0139241
791.656	0.0140733
791.734	0.0140970
791.812	0.0140096
791.890	0.0141389
791.968	0.0141206
792.046	0.0141012
792.124	0.0139870
792.203	0.0140358
792.281	0.0139948
792.359	0.0139391
792.437	0.0139415
792.515	0.0140292
792.593	0.0140614
792.671	0.0137930
792.749	0.0138565
792.828	0.0140525
792.906	0.0138832
792.984	0.0138894
793.062	0.0138302
793.140	0.0138886
793.218	0.0139845
793.296	0.0137990
793.374	0.0137804
793.453	0.0138946
793.531	0.0138349
793.609	0.0138635
793.687	0.0137352
793.765	0.0137870
793.843	0.0138615
793.921	0.0138702
793.999	0.0138961
794.078	0.0139148
794.156	0.0138404
794.234	0.0137511
794.312	0.0137724
794.390	0.0139040
794.468	0.0137827
794.546	0.0138835
794.624	0.0139485
794.703	0.0137837
794.781	0.0137771
794.859	0.0138135
794.937	0.0137821
795.015	0.0138475
795.093	0.0139460
795.171	0.0138566
795.249	0.0139192
795.328	0.0138326
795.406	0.0138873
795.484	0.0139845
795.562	0.0139587
795.640	0.0140992
795.718	0.0140165
795.796	0.0140122
795.874	0.0140393
795.953	0.0139314
796.031	0.0139233
796.109	0.0140988
796.187	0.0141193
796.265	0.0140846
796.343	0.0140541
796.421	0.0141308
796.499	0.0141886
796.578	0.0140540
796.656	0.0139787
796.734	0.0141334
796.812	0.0140920
796.890	0.0138252
796.968	0.0139045
797.046	0.0139771
797.124	0.0138532
797.203	0.0138541
797.281	0.0138238
797.359	0.0138423
797.437	0.0139236
797.515	0.0138776
797.593	0.0137471
797.671	0.0136127
797.749	0.0138103
797.828	0.0138186
797.906	0.0137956
797.984	0.0139202
798.062	0.0138675
798.140	0.0138087
798.218	0.0137391
798.296	0.0138454
798.374	0.0138293
798.453	0.0137794
798.531	0.0139016
798.609	0.0138713
798.687	0.0139925
798.765	0.0139259
798.843	0.0138601
798.921	0.0138850
798.999	0.0138228
799.078	0.0139145
799.156	0.0139199
799.234	0.0138309
799.312	0.0139291
799.390	0.0139948
799.468	0.0139478
799.546	0.0139319
799.624	0.0138482
799.703	0.0137595
799.781	0.0138345
799.859	0.0138575
799.937	0.0138077
800.015	0.0138670
800.093	0.0139803
800.171	0.0138476
800.249	0.0138690
800.328	0.0138659
800.406	0.0138440
800.484	0.0138715
800.562	0.0140441
800.640	0.0139397
800.718	0.0139874
800.796	0.0139002
800.874	0.0139495
800.953	0.0138634
801.031	0.0139515
801.109	0.0141376
801.187	0.0140189
801.265	0.0139091
801.343	0.0140072
801.421	0.0140236
801.499	0.0140925
801.578	0.0139841
801.656	0.0139096
801.734	0.0138823
801.812	0.0139297
801.890	0.0137888
801.968	0.0139040
802.046	0.0138914
802.124	0.0138274
802.203	0.0140125
802.281	0.0139140
802.359	0.0139429
802.437	0.0138649
802.515	0.0139209
802.593	0.0139785
802.671	0.0138150
802.749	0.0138020
802.828	0.0139997
802.906	0.0139945
802.984	0.0140768
803.062	0.0140034
803.140	0.0139581
803.218	0.0139747
803.296	0.0138029
803.374	0.0137187
803.453	0.0137856
803.531	0.0138740
803.609	0.0137793
803.687	0.0138435
803.765	0.0139577
803.843	0.0139455
803.921	0.0139203
803.999	0.0138925
804.078	0.0139662
804.156	0.0139201
804.234	0.0138050
804.312	0.0139113
804.390	0.0140562
804.468	0.0140937
804.546	0.0139845
804.624	0.0140001
804.703	0.0140823
804.781	0.0139171
804.859	0.0140957
804.937	0.0140434
805.015	0.0139754
805.093	0.0138243
805.171	0.0139860
805.249	0.0140545
805.328	0.0139367
805.406	0.0138720
805.484	0.0138290
805.562	0.0140302
805.640	0.0139746
805.718	0.0139774
805.796	0.0139590
805.874	0.0139109
805.953	0.0139983
806.031	0.0139391
806.109	0.0140759
806.187	0.0140884
806.265	0.0138948
806.343	0.0139137
806.421	0.0139610
806.499	0.0138940
806.578	0.0138555
806.656	0.0138821
806.734	0.0139421
806.812	0.0139006
806.890	0.0140913
806.968	0.0138907
807.046	0.0138890
807.124	0.0139291
807.203	0.0139147
807.281	0.0139677
807.359	0.0139461
807.437	0.0138673
807.515	0.0139855
807.593	0.0139134
807.671	0.0139453
807.749	0.0140778
807.828	0.0141264
807.906	0.0140945
807.984	0.0140631
808.062	0.0140422
808.140	0.0140321
808.218	0.0140424
808.296	0.0139948
808.374	0.0140470
808.453	0.0139035
808.531	0.0138522
808.609	0.0140240
808.687	0.0138437
808.765	0.0139201
808.843	0.0138757
808.921	0.0138281
808.999	0.0139453
809.078	0.0139004
809.156	0.0139276
809.234	0.0139526
809.312	0.0139419
809.390	0.0139767
809.468	0.0140549
809.546	0.0139346
809.624	0.0140008
809.703	0.0140158
809.781	0.0139111
809.859	0.0140449
809.937	0.0140665
810.015	0.0139425
810.093	0.0138322
810.171	0.0140088
810.249	0.0140384
810.328	0.0139145
810.406	0.0138384
810.484	0.0137553
810.562	0.0139455
810.640	0.0139523
810.718	0.0139864
810.796	0.0138371
810.874	0.0138938
810.953	0.0140676
811.031	0.0140156
811.109	0.0139036
811.187	0.0138820
811.265	0.0137878
811.343	0.0138828
811.421	0.0140616
811.499	0.0139543
811.578	0.0139159
811.656	0.0137927
811.734	0.0138948
811.812	0.0139050
811.890	0.0139631
811.968	0.0140543
812.046	0.0138742
812.124	0.0139845
812.203	0.0138866
812.281	0.0139796
812.359	0.0139446
812.437	0.0139884
812.515	0.0140466
812.593	0.0140337
812.671	0.0138898
812.749	0.0138646
812.828	0.0140411
812.906	0.0141685
812.984	0.0139668
813.062	0.0138837
813.140	0.0139830
813.218	0.0138187
813.296	0.0139037
813.374	0.0137860
813.453	0.0138210
813.531	0.0138823
813.609	0.0139678
813.687	0.0139410
813.765	0.0137531
813.843	0.0139445
813.921	0.0138550
813.999	0.0138854
814.078	0.0139030
814.156	0.0137749
814.234	0.0137408
814.312	0.0137702
814.390	0.0137540
814.468	0.0137073
814.546	0.0139355
814.624	0.0138022
814.703	0.0137342
814.781	0.0138797
814.859	0.0140508
814.937	0.0138163
815.015	0.0138918
815.093	0.0139446
815.171	0.0138622
815.249	0.0138439
815.328	0.0139964
815.406	0.0140598
815.484	0.0139272
815.562	0.0139319
815.640	0.0140390
815.718	0.0139713
815.796	0.0139423
815.874	0.0140139
815.953	0.0138834
816.031	0.0139646
816.109	0.0138777
816.187	0.0137476
816.265	0.0137312
816.343	0.0138885
816.421	0.0137479
816.499	0.0137653
816.578	0.0137737
816.656	0.0137502
816.734	0.0136401
816.812	0.0138520
816.890	0.0138535
816.968	0.0138100
817.046	0.0138533
817.124	0.0139230
817.203	0.0138056
817.281	0.0139635
817.359	0.0140413
817.437	0.0140781
817.515	0.0137653
817.593	0.0138295
817.671	0.0139143
817.749	0.0139613
817.828	0.0136552
817.906	0.0139282
817.984	0.0138251
818.062	0.0137048
818.140	0.0139240
818.218	0.0137585
818.296	0.0137373
818.374	0.0137374
818.453	0.0138306
818.531	0.0138984
818.609	0.0136954
818.687	0.0137943
818.765	0.0139475
818.843	0.0138212
818.921	0.0138602
818.999	0.0139297
819.078	0.0139365
819.156	0.0138818
819.234	0.0138859
819.312	0.0139133
819.390	0.0140079
819.468	0.0138628
819.546	0.0139285
819.624	0.0139644
819.703	0.0139515
819.781	0.0139479
819.859	0.0139336
819.937	0.0138729
820.015	0.0139494
820.093	0.0140518
820.171	0.0138731
820.249	0.0139375
820.328	0.0138869
820.406	0.0140093
820.484	0.0138839
820.562	0.0138864
820.640	0.0138446
820.718	0.0138459
820.796	0.0138086
820.874	0.0138200
820.953	0.0138994
821.031	0.0138203
821.109	0.0140191
821.187	0.0137947
821.265	0.0138198
821.343	0.0139498
821.421	0.0138227
821.499	0.0140292
821.578	0.0140267
821.656	0.0139777
821.734	0.0138232
821.812	0.0138847
821.890	0.0139532
821.968	0.0141063
822.046	0.0139034
822.124	0.0138657
822.203	0.0138179
822.281	0.0137457
822.359	0.0137904
822.437	0.0137752
822.515	0.0137897
822.593	0.0138720
822.671	0.0139685
822.749	0.0139453
822.828	0.0138835
822.906	0.0140403
822.984	0.0137932
823.062	0.0138950
823.140	0.0139375
823.218	0.0139610
823.296	0.0140277
823.374	0.0139973
823.453	0.0140384
823.531	0.0141196
823.609	0.0140339
823.687	0.0141600
823.765	0.0140185
823.843	0.0141172
823.921	0.0141924
823.999	0.0140851
824.078	0.0140816
824.156	0.0138927
824.234	0.0140042
824.312	0.0141763
824.390	0.0140088
824.468	0.0140228
824.546	0.0141002
824.624	0.0140157
824.703	0.0142213
824.781	0.0139541
824.859	0.0140889
824.937	0.0139776
825.015	0.0141243
825.093	0.0140471
825.171	0.0140446
825.249	0.0139830
825.328	0.0140696
825.406	0.0140168
825.484	0.0140448
825.562	0.0139716
825.640	0.0139140
825.718	0.0139044
825.796	0.0140224
825.874	0.0139389
825.953	0.0139349
826.031	0.0139207
826.109	0.0138950
826.187	0.0139996
826.265	0.0138981
826.343	0.0138603
826.421	0.0138660
826.499	0.0139560
826.578	0.0139920
826.656	0.0140539
826.734	0.0140293
826.812	0.0138929
826.890	0.0138831
826.968	0.0139283
827.046	0.0138535
827.124	0.0139926
827.203	0.0138482
827.281	0.0139694
827.359	0.0139078
827.437	0.0138830
827.515	0.0138804
827.593	0.0139316
827.671	0.0140752
827.749	0.0139399
827.828	0.0139530
827.906	0.0138681
827.984	0.0138465
828.062	0.0140390
828.140	0.0138752
828.218	0.0138817
828.296	0.0139909
828.374	0.0140476
828.453	0.0140104
828.531	0.0139362
828.609	0.0139718
828.687	0.0140889
828.765	0.0139111
828.843	0.0139449
828.921	0.0140244
828.999	0.0139667
829.078	0.0139260
829.156	0.0139940
829.234	0.0141447
829.312	0.0138081
829.390	0.0138184
829.468	0.0139502
829.546	0.0140179
829.624	0.0139658
829.703	0.0139128
829.781	0.0139373
829.859	0.0141387
829.937	0.0138540
830.015	0.0139935
830.093	0.0138687
830.171	0.0139887
830.249	0.0138338
830.328	0.0139722
830.406	0.0140512
830.484	0.0140160
830.562	0.0139371
830.640	0.0138499
830.718	0.0138257
830.796	0.0139484
830.874	0.0139203
830.953	0.0137422
831.031	0.0138696
831.109	0.0139397
831.187	0.0138452
831.265	0.0138334
831.343	0.0139735
831.421	0.0138482
831.499	0.0138523
831.578	0.0139323
831.656	0.0138884
831.734	0.0138829
831.812	0.0140170
831.890	0.0137879
831.968	0.0139291
832.046	0.0138735
832.124	0.0139411
832.203	0.0138512
832.281	0.0139721
832.359	0.0138399
832.437	0.0137728
832.515	0.0138416
832.593	0.0140136
832.671	0.0139236
832.749	0.0138853
832.828	0.0139158
832.906	0.0139753
832.984	0.0139100
833.062	0.0139899
833.140	0.0140776
833.218	0.0138685
833.296	0.0136700
833.374	0.0138174
833.453	0.0140669
833.531	0.0140041
833.609	0.0139846
833.687	0.0138560
833.765	0.0138892
833.843	0.0139521
833.921	0.0138517
833.999	0.0139531
834.078	0.0140012
834.156	0.0139731
834.234	0.0137948
834.312	0.0137992
834.390	0.0139384
834.468	0.0139767
834.546	0.0139081
834.624	0.0138558
834.703	0.0138798
834.781	0.0139783
834.859	0.0139005
834.937	0.0138922
835.015	0.0137221
835.093	0.0139101
835.171	0.0139042
835.249	0.0137886
835.328	0.0138059
835.406	0.0138917
835.484	0.0138320
835.562	0.0138228
835.640	0.0137211
835.718	0.0138966
835.796	0.0137226
835.874	0.0139375
835.953	0.0138819
836.031	0.0138770
836.109	0.0138930
836.187	0.0138786
836.265	0.0138941
836.343	0.0138887
836.421	0.0139289
836.499	0.0138482
836.578	0.0139413
836.656	0.0139021
836.734	0.0139220
836.812	0.0137135
836.890	0.0138216
836.968	0.0139580
837.046	0.0139241
837.124	0.0138228
837.203	0.0138715
837.281	0.0138949
837.359	0.0138329
837.437	0.0138530
837.515	0.0138879
837.593	0.0138580
837.671	0.0139163
837.749	0.0140561
837.828	0.0139635
837.906	0.0141002
837.984	0.0140710
838.062	0.0141026
838.140	0.0140218
838.218	0.0140678
838.296	0.0139257
838.374	0.0140235
838.453	0.0140643
838.531	0.0141739
838.609	0.0141357
838.687	0.0139986
838.765	0.0138657
838.843	0.0139095
838.921	0.0139133
838.999	0.0141001
839.078	0.0140971
839.156	0.0140206
839.234	0.0138875
839.312	0.0139159
839.390	0.0139744
839.468	0.0140872
839.546	0.0139476
839.624	0.0139014
839.703	0.0139834
839.781	0.0139156
839.859	0.0137767
839.937	0.0137310
840.015	0.0139660
840.093	0.0139701
840.171	0.0140153
840.249	0.0139237
840.328	0.0139702
840.406	0.0139388
840.484	0.0140073
840.562	0.0139117
840.640	0.0139291
840.718	0.0140672
840.796	0.0141750
840.874	0.0139716
840.953	0.0139705
841.031	0.0140115
841.109	0.0139375
841.187	0.0140433
841.265	0.0139221
841.343	0.0139282
841.421	0.0139126
841.499	0.0139326
841.578	0.0138864
841.656	0.0138932
841.734	0.0139426
841.812	0.0138432
841.890	0.0140197
841.968	0.0139513
842.046	0.0140213
842.124	0.0140840
842.203	0.0141042
842.281	0.0139698
842.359	0.0140345
842.437	0.0139884
842.515	0.0141093
842.593	0.0140369
842.671	0.0140469
842.749	0.0139845
842.828	0.0139556
842.906	0.0138354
842.984	0.0139479
843.062	0.0139471
843.140	0.0139037
843.218	0.0139211
843.296	0.0138869
843.374	0.0139342
843.453	0.0139710
843.531	0.0139263
843.609	0.0139391
843.687	0.0139528
843.765	0.0140333
843.843	0.0139762
843.921	0.0140150
843.999	0.0140239
844.078	0.0139792
844.156	0.0139237
844.234	0.0139947
844.312	0.0138434
844.390	0.0139487
844.468	0.0138977
844.546	0.0140073
844.624	0.0138848
844.703	0.0139632
844.781	0.0139569
844.859	0.0139924
844.937	0.0140226
845.015	0.0140810
845.093	0.0140170
845.171	0.0138535
845.249	0.0139568
845.328	0.0138600
845.406	0.0140343
845.484	0.0141039
845.562	0.0140178
845.640	0.0139719
845.718	0.0139928
845.796	0.0139062
845.874	0.0140754
845.953	0.0139862
846.031	0.0138930
846.109	0.0139091
846.187	0.0138555
846.265	0.0139931
846.343	0.0138350
846.421	0.0139897
846.499	0.0139184
846.578	0.0138601
846.656	0.0139111
846.734	0.0139359
846.812	0.0140668
846.890	0.0140286
846.968	0.0139603
847.046	0.0140310
847.124	0.0139045
847.203	0.0138699
847.281	0.0141431
847.359	0.0139861
847.437	0.0138773
847.515	0.0139040
847.593	0.0139132
847.671	0.0140947
847.749	0.0140406
847.828	0.0137750
847.906	0.0140207
847.984	0.0139727
848.062	0.0139547
848.140	0.0139095
848.218	0.0140125
848.296	0.0139455
848.374	0.0138406
848.453	0.0139590
848.531	0.0140324
848.609	0.0139266
848.687	0.0138961
848.765	0.0140427
848.843	0.0139133
848.921	0.0138940
848.999	0.0139771
849.078	0.0140067
849.156	0.0139277
849.234	0.0141400
849.312	0.0140250
849.390	0.0138763
849.468	0.0138972
849.546	0.0139556
849.624	0.0139758
849.703	0.0140010
849.781	0.0138678
849.859	0.0140482
849.937	0.0139799
850.015	0.0140064
850.093	0.0139856
850.171	0.0139910
850.249	0.0139003
850.328	0.0140625
850.406	0.0140678
850.484	0.0139226
850.562	0.0140137
850.640	0.0140620
850.718	0.0139610
850.796	0.0139079
850.874	0.0140903
850.953	0.0139496
851.031	0.0140936
851.109	0.0141815
851.187	0.0139555
851.265	0.0139497
851.343	0.0140491
851.421	0.0139602
851.499	0.0139857
851.578	0.0139195
851.656	0.0138611
851.734	0.0140288
851.812	0.0139318
851.890	0.0138585
851.968	0.0138837
852.046	0.0139462
852.124	0.0138942
852.203	0.0138585
852.281	0.0138345
852.359	0.0137862
852.437	0.0138176
852.515	0.0137809
852.593	0.0139721
852.671	0.0138005
852.749	0.0138727
852.828	0.0137878
852.906	0.0139545
852.984	0.0138112
853.062	0.0139420
853.140	0.0139263
853.218	0.0139278
853.296	0.0140282
853.374	0.0138776
853.453	0.0139250
853.531	0.0139349
853.609	0.0139481
853.687	0.0138963
853.765	0.0139180
853.843	0.0140237
853.921	0.0140331
853.999	0.0137772
854.078	0.0137163
854.156	0.0138747
854.234	0.0139069
854.312	0.0138895
854.390	0.0140057
854.468	0.0138647
854.546	0.0139441
854.624	0.0140560
854.703	0.0138709
854.781	0.0140318
854.859	0.0140544
854.937	0.0140646
855.015	0.0139939
855.093	0.0139719
855.171	0.0140005
855.249	0.0140685
855.328	0.0140078
855.406	0.0139845
855.484	0.0139873
855.562	0.0139359
855.640	0.0139342
855.718	0.0138960
855.796	0.0139911
855.874	0.0139496
855.953	0.0137952
856.031	0.0137909
856.109	0.0138071
856.187	0.0139262
856.265	0.0140720
856.343	0.0138111
856.421	0.0138615
856.499	0.0139637
856.578	0.0138439
856.656	0.0138986
856.734	0.0140582
856.812	0.0140324
856.890	0.0139396
856.968	0.0139590
857.046	0.0139676
857.124	0.0138914
857.203	0.0139233
857.281	0.0139546
857.359	0.0139361
857.437	0.0140243
857.515	0.0140950
857.593	0.0138235
857.671	0.0139055
857.749	0.0139553
857.828	0.0139387
857.906	0.0138954
857.984	0.0138828
858.062	0.0138436
858.140	0.0140354
858.218	0.0139918
858.296	0.0139255
858.374	0.0140035
858.453	0.0139405
858.531	0.0139159
858.609	0.0139362
858.687	0.0139661
858.765	0.0139556
858.843	0.0139024
858.921	0.0138995
858.999	0.0138976
859.078	0.0138544
859.156	0.0139626
859.234	0.0137982
859.312	0.0138629
859.390	0.0139388
859.468	0.0138602
859.546	0.0139901
859.624	0.0140271
859.703	0.0139432
859.781	0.0140077
859.859	0.0138931
859.937	0.0140503
860.015	0.0140062
860.093	0.0140549
860.171	0.0140079
860.249	0.0140714
860.328	0.0140349
860.406	0.0139405
860.484	0.0139589
860.562	0.0139425
860.640	0.0139742
860.718	0.0140657
860.796	0.0140449
860.874	0.0139598
860.953	0.0139047
861.031	0.0139210
861.109	0.0138820
861.187	0.0139618
861.265	0.0139307
861.343	0.0139024
861.421	0.0138366
861.499	0.0138677
861.578	0.0139310
861.656	0.0139005
861.734	0.0140229
861.812	0.0138281
861.890	0.0139195
861.968	0.0138796
862.046	0.0138393
862.124	0.0139812
862.203	0.0139519
862.281	0.0138830
862.359	0.0139462
862.437	0.0138000
862.515	0.0139413
862.593	0.0139803
862.671	0.0137974
862.749	0.0138981
862.828	0.0138804
862.906	0.0139635
862.984	0.0138916
863.062	0.0137914
863.140	0.0139320
863.218	0.0138618
863.296	0.0138216
863.374	0.0140527
863.453	0.0138372
863.531	0.0139165
863.609	0.0139888
863.687	0.0139005
863.765	0.0139541
863.843	0.0140408
863.921	0.0139079
863.999	0.0138028
864.078	0.0138509
864.156	0.0139811
864.234	0.0138908
864.312	0.0141000
864.390	0.0139014
864.468	0.0138665
864.546	0.0138708
864.624	0.0139587
864.703	0.0138637
864.781	0.0138149
864.859	0.0136953
864.937	0.0138113
865.015	0.0140379
865.093	0.0139322
865.171	0.0138686
865.249	0.0138473
865.328	0.0138557
865.406	0.0138802
865.484	0.0139712
865.562	0.0139427
865.640	0.0139856
865.718	0.0140856
865.796	0.0139014
865.874	0.0139874
865.953	0.0140620
866.031	0.0140384
866.109	0.0139225
866.187	0.0138735
866.265	0.0140184
866.343	0.0139245
866.421	0.0139754
866.499	0.0141105
866.578	0.0140736
866.656	0.0139622
866.734	0.0137828
866.812	0.0138469
866.890	0.0139433
866.968	0.0141171
867.046	0.0139807
867.124	0.0138720
867.203	0.0139198
867.281	0.0138287
867.359	0.0139449
867.437	0.0138551
867.515	0.0138689
867.593	0.0141273
867.671	0.0140205
867.749	0.0140427
867.828	0.0139748
867.906	0.0139217
867.984	0.0138815
868.062	0.0140264
868.140	0.0139863
868.218	0.0138372
868.296	0.0139452
868.374	0.0139875
868.453	0.0139749
868.531	0.0138258
868.609	0.0138039
868.687	0.0140337
868.765	0.0138945
868.843	0.0137112
868.921	0.0137719
868.999	0.0138049
869.078	0.0139742
869.156	0.0139164
869.234	0.0139400
869.312	0.0137238
869.390	0.0137475
869.468	0.0139487
869.546	0.0138753
869.624	0.0139528
869.703	0.0139954
869.781	0.0140947
869.859	0.0141111
869.937	0.0140149
870.015	0.0139388
870.093	0.0139799
870.171	0.0138477
870.249	0.0140186
870.328	0.0139741
870.406	0.0140582
870.484	0.0140292
870.562	0.0139420
870.640	0.0139472
870.718	0.0139787
870.796	0.0140228
870.874	0.0140661
870.953	0.0141605
871.031	0.0140446
871.109	0.0140261
871.187	0.0139839
871.265	0.0138766
871.343	0.0140643
871.421	0.0140884
871.499	0.0140697
871.578	0.0140583
871.656	0.0140494
871.734	0.0141763
871.812	0.0141549
871.890	0.0140706
871.968	0.0139184
872.046	0.0140011
872.124	0.0139371
872.203	0.0139682
872.281	0.0141252
872.359	0.0139851
872.437	0.0139754
872.515	0.0139739
872.593	0.0139379
872.671	0.0139449
872.749	0.0140376
872.828	0.0140068
872.906	0.0140211
872.984	0.0140701
873.062	0.0139578
873.140	0.0139745
873.218	0.0140473
873.296	0.0139135
873.374	0.0140584
873.453	0.0141994
873.531	0.0140870
873.609	0.0141437
873.687	0.0140170
873.765	0.0140775
873.843	0.0138583
873.921	0.0140812
873.999	0.0140836
874.078	0.0139686
874.156	0.0140186
874.234	0.0139595
874.312	0.0139812
874.390	0.0138926
874.468	0.0139490
874.546	0.0138282
874.624	0.0138774
874.703	0.0138204
874.781	0.0139260
874.859	0.0138477
874.937	0.0138962
875.015	0.0138609
875.093	0.0139582
875.171	0.0138732
875.249	0.0138501
875.328	0.0139666
875.406	0.0138327
875.484	0.0138941
875.562	0.0139000
875.640	0.0138268
875.718	0.0138739
875.796	0.0138384
875.874	0.0138442
875.953	0.0138423
876.031	0.0137969
876.109	0.0138447
876.187	0.0138406
876.265	0.0139130
876.343	0.0139087
876.421	0.0138894
876.499	0.0138327
876.578	0.0139679
876.656	0.0138280
876.734	0.0139164
876.812	0.0138699
876.890	0.0139207
876.968	0.0139449
877.046	0.0137574
877.124	0.0139933
877.203	0.0140318
877.281	0.0139948
877.359	0.0138830
877.437	0.0139571
877.515	0.0139339
877.593	0.0138992
877.671	0.0139560
877.749	0.0138804
877.828	0.0139964
877.906	0.0139252
877.984	0.0139894
878.062	0.0139635
878.140	0.0139732
878.218	0.0137663
878.296	0.0138986
878.374	0.0137749
878.453	0.0136975
878.531	0.0139765
878.609	0.0139194
878.687	0.0138177
878.765	0.0139700
878.843	0.0139350
878.921	0.0138580
878.999	0.0139632
879.078	0.0138764
879.156	0.0139589
879.234	0.0140099
879.312	0.0138977
879.390	0.0138397
879.468	0.0140205
879.546	0.0139616
879.624	0.0137673
879.703	0.0137894
879.781	0.0137886
879.859	0.0139134
879.937	0.0139030
880.015	0.0136810
880.093	0.0137509
880.171	0.0137984
880.249	0.0136544
880.328	0.0137376
880.406	0.0138907
880.484	0.0137754
880.562	0.0137470
880.640	0.0137259
880.718	0.0139077
880.796	0.0137241
880.874	0.0136722
880.953	0.0138561
881.031	0.0139024
881.109	0.0137194
881.187	0.0139056
881.265	0.0138876
881.343	0.0138271
881.421	0.0137915
881.499	0.0138693
881.578	0.0139485
881.656	0.0138695
881.734	0.0138821
881.812	0.0138680
881.890	0.0137853
881.968	0.0139629
882.046	0.0139215
882.124	0.0139436
882.203	0.0140071
882.281	0.0139138
882.359	0.0138336
882.437	0.0138561
882.515	0.0139793
882.593	0.0139798
882.671	0.0139665
882.749	0.0139697
882.828	0.0139259
882.906	0.0139599
882.984	0.0139900
883.062	0.0139332
883.140	0.0138187
883.218	0.0137891
883.296	0.0138609
883.374	0.0138693
883.453	0.0139758
883.531	0.0140005
883.609	0.0137962
883.687	0.0138480
883.765	0.0138538
883.843	0.0139699
883.921	0.0139508
883.999	0.0139068
884.078	0.0139177
884.156	0.0137825
884.234	0.0139236
884.312	0.0139056
884.390	0.0139342
884.468	0.0140217
884.546	0.0138779
884.624	0.0139497
884.703	0.0140119
884.781	0.0138580
884.859	0.0139053
884.937	0.0139474
885.015	0.0138533
885.093	0.0139352
885.171	0.0140252
885.249	0.0138987
885.328	0.0138688
885.406	0.0136658
885.484	0.0137946
885.562	0.0139658
885.640	0.0139066
885.718	0.0138917
885.796	0.0138886
885.874	0.0139616
885.953	0.0137155
886.031	0.0139139
886.109	0.0140080
886.187	0.0140408
886.265	0.0138516
886.343	0.0138920
886.421	0.0138319
886.499	0.0139654
886.578	0.0139743
886.656	0.0138612
886.734	0.0139261
886.812	0.0139222
886.890	0.0139490
886.968	0.0138698
887.046	0.0138410
887.124	0.0140098
887.203	0.0138701
887.281	0.0139008
887.359	0.0138947
887.437	0.0139299
887.515	0.0139774
887.593	0.0138644
887.671	0.0139684
887.749	0.0138683
887.828	0.0139846
887.906	0.0139999
887.984	0.0139240
888.062	0.0139050
888.140	0.0139279
888.218	0.0139638
888.296	0.0138944
888.374	0.0139098
888.453	0.0139658
888.531	0.0139408
888.609	0.0139915
888.687	0.0138793
888.765	0.0139082
888.843	0.0138838
888.921	0.0139729
888.999	0.0140012
889.078	0.0140481
889.156	0.0141599
889.234	0.0140164
889.312	0.0139019
889.390	0.0138773
889.468	0.0139917
889.546	0.0139897
889.624	0.0138914
889.703	0.0138911
889.781	0.0139423
889.859	0.0138239
889.937	0.0137964
890.015	0.0139394
890.093	0.0138911
890.171	0.0138286
890.249	0.0139203
890.328	0.0139188
890.406	0.0137791
890.484	0.0138226
890.562	0.0140101
890.640	0.0138554
890.718	0.0140658
890.796	0.0139644
890.874	0.0139433
890.953	0.0140314
891.031	0.0140485
891.109	0.0140221
891.187	0.0138492
891.265	0.0139034
891.343	0.0140391
891.421	0.0140466
891.499	0.0137874
891.578	0.0138933
891.656	0.0138984
891.734	0.0139770
891.812	0.0138716
891.890	0.0138218
891.968	0.0139536
892.046	0.0140131
892.124	0.0139547
892.203	0.0139081
892.281	0.0138068
892.359	0.0140185
892.437	0.0138890
892.515	0.0139892
892.593	0.0139678
892.671	0.0140470
892.749	0.0141596
892.828	0.0140641
892.906	0.0140172
892.984	0.0140193
893.062	0.0140107
893.140	0.0141342
893.218	0.0140266
893.296	0.0139142
893.374	0.0139758
893.453	0.0139417
893.531	0.0139127
893.609	0.0138913
893.687	0.0139863
893.765	0.0139334
893.843	0.0140221
893.921	0.0139688
893.999	0.0139747
894.078	0.0141106
894.156	0.0139583
894.234	0.0140517
894.312	0.0140197
894.390	0.0138251
894.468	0.0138540
894.546	0.0139117
894.624	0.0138902
894.703	0.0137321
894.781	0.0138550
894.859	0.0138624
894.937	0.0139055
895.015	0.0138524
895.093	0.0140238
895.171	0.0140195
895.249	0.0139981
895.328	0.0139835
895.406	0.0139204
895.484	0.0140209
895.562	0.0140118
895.640	0.0139506
895.718	0.0139771
895.796	0.0139830
895.874	0.0140224
895.953	0.0138570
896.031	0.0139827
896.109	0.0139655
896.187	0.0139848
896.265	0.0140575
896.343	0.0139514
896.421	0.0140721
896.499	0.0139323
896.578	0.0138779
896.656	0.0139828
896.734	0.0139194
896.812	0.0139993
896.890	0.0139919
896.968	0.0138026
897.046	0.0139268
897.124	0.0139202
897.203	0.0137589
897.281	0.0138467
897.359	0.0137987
897.437	0.0138280
897.515	0.0138815
897.593	0.0139525
897.671	0.0139025
897.749	0.0139414
897.828	0.0138572
897.906	0.0138013
897.984	0.0139487
898.062	0.0139291
898.140	0.0138444
898.218	0.0139886
898.296	0.0139258
898.374	0.0138007
898.453	0.0138070
898.531	0.0139169
898.609	0.0138371
898.687	0.0139743
898.765	0.0139320
898.843	0.0140610
898.921	0.0139165
898.999	0.0138520
899.078	0.0139284
899.156	0.0138188
899.234	0.0138654
899.312	0.0137801
899.390	0.0139215
899.468	0.0139838
899.546	0.0138090
899.624	0.0139951
899.703	0.0138834
899.781	0.0141142
899.859	0.0138824
899.937	0.0138549
900.015	0.0138747
900.093	0.0139930
900.171	0.0137399
900.249	0.0138711
900.328	0.0138110
900.406	0.0139653
900.484	0.0137971
900.562	0.0139470
900.640	0.0139685
900.718	0.0138942
900.796	0.0137828
900.874	0.0140028
900.953	0.0140392
901.031	0.0137920
901.109	0.0138742
901.187	0.0139383
901.265	0.0139754
901.343	0.0139658
901.421	0.0139648
901.499	0.0140165
901.578	0.0139934
901.656	0.0139688
901.734	0.0139532
901.812	0.0139204
901.890	0.0139224
901.968	0.0139664
902.046	0.0140314
902.124	0.0139101
902.203	0.0137630
902.281	0.0138150
902.359	0.0138426
902.437	0.0140023
902.515	0.0139244
902.593	0.0139249
902.671	0.0140129
902.749	0.0139508
902.828	0.0138781
902.906	0.0139178
902.984	0.0140122
903.062	0.0140355
903.140	0.0139749
903.218	0.0139353
903.296	0.0139345
903.374	0.0140761
903.453	0.0138783
903.531	0.0140833
903.609	0.0139663
903.687	0.0138498
903.765	0.0139018
903.843	0.0139616
903.921	0.0138813
903.999	0.0139410
904.078	0.0140009
904.156	0.0138706
904.234	0.0140796
904.312	0.0139175
904.390	0.0140888
904.468	0.0138714
904.546	0.0140278
904.624	0.0139184
904.703	0.0140864
904.781	0.0139572
904.859	0.0140588
904.937	0.0138641
905.015	0.0137956
905.093	0.0137984
905.171	0.0139040
905.249	0.0138673
905.328	0.0138136
905.406	0.0138911
905.484	0.0139845
905.562	0.0138798
905.640	0.0138864
905.718	0.0138898
905.796	0.0139870
905.874	0.0140507
905.953	0.0140318
906.031	0.0139519
906.109	0.0138369
906.187	0.0139981
906.265	0.0139621
906.343	0.0138449
906.421	0.0138599
906.499	0.0140356
906.578	0.0140076
906.656	0.0138322
906.734	0.0138739
906.812	0.0138776
906.890	0.0139194
906.968	0.0139423
907.046	0.0138120
907.124	0.0138430
907.203	0.0137962
907.281	0.0138847
907.359	0.0139391
907.437	0.0140007
907.515	0.0138447
907.593	0.0139246
907.671	0.0139187
907.749	0.0138866
907.828	0.0139681
907.906	0.0138282
907.984	0.0138523
908.062	0.0138973
908.140	0.0139137
908.218	0.0139138
908.296	0.0138895
908.374	0.0138460
908.453	0.0139462
908.531	0.0139791
908.609	0.0139667
908.687	0.0138209
908.765	0.0138960
908.843	0.0139354
908.921	0.0139880
908.999	0.0139630
909.078	0.0137568
909.156	0.0138790
909.234	0.0138397
909.312	0.0138783
909.390	0.0139186
909.468	0.0138693
909.546	0.0138657
909.624	0.0139879
909.703	0.0139346
909.781	0.0139524
909.859	0.0139536
909.937	0.0138840
910.015	0.0138889
910.093	0.0138399
910.171	0.0140426
910.249	0.0139516
910.328	0.0139596
910.406	0.0138381
910.484	0.0137788
910.562	0.0139252
910.640	0.0139011
910.718	0.0140401
910.796	0.0138432
910.874	0.0138595
910.953	0.0138346
911.031	0.0137951
911.109	0.0138449
911.187	0.0138936
911.265	0.0139865
911.343	0.0139409
911.421	0.0139305
911.499	0.0138503
911.578	0.0139960
911.656	0.0137307
911.734	0.0138995
911.812	0.0137708
911.890	0.0140654
911.968	0.0139678
912.046	0.0138386
912.124	0.0138780
912.203	0.0140769
912.281	0.0140231
912.359	0.0138517
912.437	0.0138279
912.515	0.0139739
912.593	0.0138662
912.671	0.0138621
912.749	0.0139234
912.828	0.0137350
912.906	0.0138765
912.984	0.0139224
913.062	0.0138261
913.140	0.0139050
913.218	0.0139481
913.296	0.0138916
913.374	0.0139143
913.453	0.0138744
913.531	0.0139656
913.609	0.0138728
913.687	0.0139470
913.765	0.0139337
913.843	0.0137914
913.921	0.0137524
913.999	0.0138466
914.078	0.0139765
914.156	0.0138342
914.234	0.0138953
914.312	0.0139818
914.390	0.0139193
914.468	0.0138364
914.546	0.0139626
914.624	0.0139651
914.703	0.0139387
914.781	0.0138863
914.859	0.0138641
914.937	0.0138425
915.015	0.0138048
915.093	0.0139091
915.171	0.0137660
915.249	0.0138963
915.328	0.0139516
915.406	0.0138547
915.484	0.0138544
915.562	0.0139012
915.640	0.0138789
915.718	0.0138651
915.796	0.0139085
915.874	0.0139504
915.953	0.0140068
916.031	0.0138476
916.109	0.0138903
916.187	0.0138575
916.265	0.0139983
916.343	0.0140997
916.421	0.0139612
916.499	0.0139770
916.578	0.0138815
916.656	0.0138778
916.734	0.0140025
916.812	0.0139424
916.890	0.0138867
916.968	0.0139765
917.046	0.0139241
917.124	0.0140284
917.203	0.0139739
917.281	0.0139999
917.359	0.0138755
917.437	0.0138268
917.515	0.0138280
917.593	0.0139166
917.671	0.0139887
917.749	0.0139042
917.828	0.0136911
917.906	0.0138536
917.984	0.0140227
918.062	0.0138590
918.140	0.0138689
918.218	0.0138866
918.296	0.0138222
918.374	0.0138539
918.453	0.0139053
918.531	0.0137413
918.609	0.0137534
918.687	0.0139248
918.765	0.0139451
918.843	0.0138643
918.921	0.0139233
918.999	0.0139722
919.078	0.0139248
919.156	0.0139250
919.234	0.0140454
919.312	0.0139725
919.390	0.0139130
919.468	0.0139958
919.546	0.0139657
919.624	0.0139676
919.703	0.0138934
919.781	0.0138930
919.859	0.0139485
919.937	0.0139964
