05/06/2022	19:00:54	Ver.	4.1	UNKNOWN
Optical Delay	600.015094	Delta X		0.078125	Sweeps	1	Scan Rate	0/0
Coordinates	Axis 1	NaN	Axis 2	NaN	Axis 3	NaN	Axis 4	NaN	Axis 5	NaN	Axis 6	0.000000
TX Power	0.000000	RX Power	0.000000

600.015	0.0140514
600.093	0.0141543
600.171	0.0139034
600.249	0.0140635
600.328	0.0139834
600.406	0.0140880
600.484	0.0140948
600.562	0.0140576
600.640	0.0139899
600.718	0.0140704
600.796	0.0140232
600.874	0.0139848
600.953	0.0140032
601.031	0.0141216
601.109	0.0141076
601.187	0.0140591
601.265	0.0139992
601.343	0.0140797
601.421	0.0141174
601.499	0.0140905
601.578	0.0140097
601.656	0.0138976
601.734	0.0141072
601.812	0.0141604
601.890	0.0140214
601.968	0.0140823
602.046	0.0139804
602.124	0.0141331
602.203	0.0141750
602.281	0.0141284
602.359	0.0141469
602.437	0.0140234
602.515	0.0140056
602.593	0.0140916
602.671	0.0140056
602.749	0.0141316
602.828	0.0140208
602.906	0.0141162
602.984	0.0141525
603.062	0.0140997
603.140	0.0139473
603.218	0.0141573
603.296	0.0140504
603.374	0.0140108
603.453	0.0141255
603.531	0.0141164
603.609	0.0140955
603.687	0.0141122
603.765	0.0140182
603.843	0.0139854
603.921	0.0140083
603.999	0.0141265
604.078	0.0139880
604.156	0.0140347
604.234	0.0141611
604.312	0.0140395
604.390	0.0140565
604.468	0.0140191
604.546	0.0139635
604.624	0.0140912
604.703	0.0139593
604.781	0.0140948
604.859	0.0139419
604.937	0.0139379
605.015	0.0139448
605.093	0.0140527
605.171	0.0139150
605.249	0.0139021
605.328	0.0140085
605.406	0.0140679
605.484	0.0138828
605.562	0.0140108
605.640	0.0140092
605.718	0.0140111
605.796	0.0139114
605.874	0.0139216
605.953	0.0139243
606.031	0.0141164
606.109	0.0140327
606.187	0.0139600
606.265	0.0139134
606.343	0.0139024
606.421	0.0140049
606.499	0.0142566
606.578	0.0139978
606.656	0.0137778
606.734	0.0140295
606.812	0.0139561
606.890	0.0140331
606.968	0.0138850
607.046	0.0139207
607.124	0.0141352
607.203	0.0139149
607.281	0.0140353
607.359	0.0141622
607.437	0.0139232
607.515	0.0139870
607.593	0.0140304
607.671	0.0139529
607.749	0.0139707
607.828	0.0138593
607.906	0.0140811
607.984	0.0139881
608.062	0.0140002
608.140	0.0138889
608.218	0.0141389
608.296	0.0140926
608.374	0.0140528
608.453	0.0140889
608.531	0.0140300
608.609	0.0139716
608.687	0.0139815
608.765	0.0140295
608.843	0.0138874
608.921	0.0140073
608.999	0.0140715
609.078	0.0140255
609.156	0.0139990
609.234	0.0138440
609.312	0.0141022
609.390	0.0139356
609.468	0.0139207
609.546	0.0138473
609.624	0.0139951
609.703	0.0138962
609.781	0.0140138
609.859	0.0139436
609.937	0.0138628
610.015	0.0138715
610.093	0.0138382
610.171	0.0138837
610.249	0.0139893
610.328	0.0139146
610.406	0.0138354
610.484	0.0138669
610.562	0.0140021
610.640	0.0139663
610.718	0.0139733
610.796	0.0138583
610.874	0.0139628
610.953	0.0139970
611.031	0.0139716
611.109	0.0139490
611.187	0.0140943
611.265	0.0140717
611.343	0.0139645
611.421	0.0139488
611.499	0.0139779
611.578	0.0140232
611.656	0.0140005
611.734	0.0139687
611.812	0.0138293
611.890	0.0139117
611.968	0.0139359
612.046	0.0139739
612.124	0.0138728
612.203	0.0139037
612.281	0.0139157
612.359	0.0140262
612.437	0.0140109
612.515	0.0138488
612.593	0.0139912
612.671	0.0140221
612.749	0.0139525
612.828	0.0139825
612.906	0.0139341
612.984	0.0140009
613.062	0.0140390
613.140	0.0140097
613.218	0.0140072
613.296	0.0140762
613.374	0.0139564
613.453	0.0139404
613.531	0.0140249
613.609	0.0138921
613.687	0.0138429
613.765	0.0140873
613.843	0.0140614
613.921	0.0139832
613.999	0.0139050
614.078	0.0139645
614.156	0.0140173
614.234	0.0140240
614.312	0.0139958
614.390	0.0139389
614.468	0.0140094
614.546	0.0140221
614.624	0.0139460
614.703	0.0140208
614.781	0.0139562
614.859	0.0139510
614.937	0.0139211
615.015	0.0141230
615.093	0.0138589
615.171	0.0137928
615.249	0.0141066
615.328	0.0139589
615.406	0.0137965
615.484	0.0139583
615.562	0.0139204
615.640	0.0138548
615.718	0.0140229
615.796	0.0139175
615.874	0.0139266
615.953	0.0140386
616.031	0.0140922
616.109	0.0139822
616.187	0.0140402
616.265	0.0138857
616.343	0.0140070
616.421	0.0140005
616.499	0.0138597
616.578	0.0140923
616.656	0.0139833
616.734	0.0140101
616.812	0.0139658
616.890	0.0140306
616.968	0.0139694
617.046	0.0138800
617.124	0.0139986
617.203	0.0139272
617.281	0.0140633
617.359	0.0139278
617.437	0.0139664
617.515	0.0140603
617.593	0.0139199
617.671	0.0139202
617.749	0.0139790
617.828	0.0139349
617.906	0.0139111
617.984	0.0137525
618.062	0.0139034
618.140	0.0138343
618.218	0.0139024
618.296	0.0139806
618.374	0.0138617
618.453	0.0140745
618.531	0.0139744
618.609	0.0140060
618.687	0.0139175
618.765	0.0140157
618.843	0.0139469
618.921	0.0138889
618.999	0.0138986
619.078	0.0140637
619.156	0.0139175
619.234	0.0140199
619.312	0.0139502
619.390	0.0138417
619.468	0.0139963
619.546	0.0139163
619.624	0.0140236
619.703	0.0139442
619.781	0.0140326
619.859	0.0141098
619.937	0.0139800
620.015	0.0139875
620.093	0.0140501
620.171	0.0139572
620.249	0.0140457
620.328	0.0141180
620.406	0.0140149
620.484	0.0139180
620.562	0.0139517
620.640	0.0140249
620.718	0.0139894
620.796	0.0140900
620.874	0.0140430
620.953	0.0140092
621.031	0.0140907
621.109	0.0139727
621.187	0.0140488
621.265	0.0140486
621.343	0.0139851
621.421	0.0139752
621.499	0.0140473
621.578	0.0140421
621.656	0.0140901
621.734	0.0141017
621.812	0.0139594
621.890	0.0140051
621.968	0.0140763
622.046	0.0141521
622.124	0.0140708
622.203	0.0140659
622.281	0.0138830
622.359	0.0139657
622.437	0.0140773
622.515	0.0140775
622.593	0.0140179
622.671	0.0141296
622.749	0.0141072
622.828	0.0140350
622.906	0.0141176
622.984	0.0140406
623.062	0.0141346
623.140	0.0139103
623.218	0.0140938
623.296	0.0139348
623.374	0.0139449
623.453	0.0141110
623.531	0.0140617
623.609	0.0141476
623.687	0.0140649
623.765	0.0140726
623.843	0.0140195
623.921	0.0139455
623.999	0.0139367
624.078	0.0139939
624.156	0.0140452
624.234	0.0140081
624.312	0.0140498
624.390	0.0138976
624.468	0.0139664
624.546	0.0139771
624.624	0.0140317
624.703	0.0138619
624.781	0.0138966
624.859	0.0140587
624.937	0.0140760
625.015	0.0140704
625.093	0.0140668
625.171	0.0140119
625.249	0.0139545
625.328	0.0140064
625.406	0.0140108
625.484	0.0138970
625.562	0.0139301
625.640	0.0140117
625.718	0.0140141
625.796	0.0138386
625.874	0.0138814
625.953	0.0140742
626.031	0.0140676
626.109	0.0141405
626.187	0.0138969
626.265	0.0140292
626.343	0.0140134
626.421	0.0140166
626.499	0.0140025
626.578	0.0139693
626.656	0.0140286
626.734	0.0140056
626.812	0.0140933
626.890	0.0140261
626.968	0.0140253
627.046	0.0140079
627.124	0.0140019
627.203	0.0139816
627.281	0.0140769
627.359	0.0140779
627.437	0.0141198
627.515	0.0139320
627.593	0.0141130
627.671	0.0141948
627.749	0.0140534
627.828	0.0140479
627.906	0.0139240
627.984	0.0140214
628.062	0.0140114
628.140	0.0139791
628.218	0.0140534
628.296	0.0140484
628.374	0.0140636
628.453	0.0140508
628.531	0.0141506
628.609	0.0140549
628.687	0.0141853
628.765	0.0140794
628.843	0.0140221
628.921	0.0141380
628.999	0.0140800
629.078	0.0139252
629.156	0.0140812
629.234	0.0141197
629.312	0.0139805
629.390	0.0139811
629.468	0.0139683
629.546	0.0140144
629.624	0.0139890
629.703	0.0139565
629.781	0.0139795
629.859	0.0139944
629.937	0.0140995
630.015	0.0140237
630.093	0.0140100
630.171	0.0139400
630.249	0.0138297
630.328	0.0140420
630.406	0.0139839
630.484	0.0138792
630.562	0.0139767
630.640	0.0139735
630.718	0.0139439
630.796	0.0140141
630.874	0.0140632
630.953	0.0139829
631.031	0.0139928
631.109	0.0139938
631.187	0.0139905
631.265	0.0138047
631.343	0.0137674
631.421	0.0140245
631.499	0.0139850
631.578	0.0140134
631.656	0.0139468
631.734	0.0140315
631.812	0.0139350
631.890	0.0140809
631.968	0.0139887
632.046	0.0139708
632.124	0.0140481
632.203	0.0139485
632.281	0.0139083
632.359	0.0139853
632.437	0.0138217
632.515	0.0138837
632.593	0.0140687
632.671	0.0139954
632.749	0.0140441
632.828	0.0139455
632.906	0.0139374
632.984	0.0141637
633.062	0.0142052
633.140	0.0140160
633.218	0.0140573
633.296	0.0140530
633.374	0.0140802
633.453	0.0139948
633.531	0.0140451
633.609	0.0141028
633.687	0.0140274
633.765	0.0138947
633.843	0.0139372
633.921	0.0139157
633.999	0.0139216
634.078	0.0140862
634.156	0.0138725
634.234	0.0138552
634.312	0.0139842
634.390	0.0139403
634.468	0.0140392
634.546	0.0139590
634.624	0.0139420
634.703	0.0141553
634.781	0.0140613
634.859	0.0140183
634.937	0.0141759
635.015	0.0140479
635.093	0.0140159
635.171	0.0140069
635.249	0.0142287
635.328	0.0139510
635.406	0.0140078
635.484	0.0138885
635.562	0.0138914
635.640	0.0137973
635.718	0.0137685
635.796	0.0138045
635.874	0.0139676
635.953	0.0137649
636.031	0.0139722
636.109	0.0138836
636.187	0.0139294
636.265	0.0140232
636.343	0.0140948
636.421	0.0139333
636.499	0.0140096
636.578	0.0140785
636.656	0.0139526
636.734	0.0139999
636.812	0.0139233
636.890	0.0140392
636.968	0.0139787
637.046	0.0139358
637.124	0.0139994
637.203	0.0138930
637.281	0.0139263
637.359	0.0138675
637.437	0.0139480
637.515	0.0138577
637.593	0.0138884
637.671	0.0138552
637.749	0.0139149
637.828	0.0140426
637.906	0.0139470
637.984	0.0139596
638.062	0.0140422
638.140	0.0140390
638.218	0.0137932
638.296	0.0139701
638.374	0.0138279
638.453	0.0138923
638.531	0.0140421
638.609	0.0139851
638.687	0.0140152
638.765	0.0140396
638.843	0.0139527
638.921	0.0139144
638.999	0.0138583
639.078	0.0139295
639.156	0.0140246
639.234	0.0139364
639.312	0.0139712
639.390	0.0139891
639.468	0.0140299
639.546	0.0140090
639.624	0.0139545
639.703	0.0138419
639.781	0.0139949
639.859	0.0139750
639.937	0.0140199
640.015	0.0138148
640.093	0.0141270
640.171	0.0139174
640.249	0.0140146
640.328	0.0139088
640.406	0.0140121
640.484	0.0138956
640.562	0.0140125
640.640	0.0141130
640.718	0.0139688
640.796	0.0139464
640.874	0.0139705
640.953	0.0140356
641.031	0.0141156
641.109	0.0140137
641.187	0.0138474
641.265	0.0138555
641.343	0.0140918
641.421	0.0139901
641.499	0.0138986
641.578	0.0140644
641.656	0.0140318
641.734	0.0139981
641.812	0.0140354
641.890	0.0140311
641.968	0.0139567
642.046	0.0140345
642.124	0.0140938
642.203	0.0139674
642.281	0.0141289
642.359	0.0140326
642.437	0.0140749
642.515	0.0140727
642.593	0.0140111
642.671	0.0139625
642.749	0.0139266
642.828	0.0139286
642.906	0.0140079
642.984	0.0139505
643.062	0.0139772
643.140	0.0139662
643.218	0.0141433
643.296	0.0141383
643.374	0.0140289
643.453	0.0142342
643.531	0.0140363
643.609	0.0139890
643.687	0.0139619
643.765	0.0141132
643.843	0.0141171
643.921	0.0140820
643.999	0.0141110
644.078	0.0141443
644.156	0.0140048
644.234	0.0140213
644.312	0.0140167
644.390	0.0140817
644.468	0.0140218
644.546	0.0140046
644.624	0.0140382
644.703	0.0140477
644.781	0.0141409
644.859	0.0140778
644.937	0.0139923
645.015	0.0138837
645.093	0.0141072
645.171	0.0139596
645.249	0.0139889
645.328	0.0139761
645.406	0.0140888
645.484	0.0141232
645.562	0.0140761
645.640	0.0141306
645.718	0.0140964
645.796	0.0140817
645.874	0.0140430
645.953	0.0139922
646.031	0.0140681
646.109	0.0140396
646.187	0.0141706
646.265	0.0140848
646.343	0.0139635
646.421	0.0139013
646.499	0.0140018
646.578	0.0139648
646.656	0.0139555
646.734	0.0140582
646.812	0.0140265
646.890	0.0140413
646.968	0.0139406
647.046	0.0140558
647.124	0.0141107
647.203	0.0140872
647.281	0.0140993
647.359	0.0140996
647.437	0.0141051
647.515	0.0140638
647.593	0.0140969
647.671	0.0140800
647.749	0.0141725
647.828	0.0140327
647.906	0.0139878
647.984	0.0140363
648.062	0.0140053
648.140	0.0139955
648.218	0.0140257
648.296	0.0138311
648.374	0.0138252
648.453	0.0140081
648.531	0.0139503
648.609	0.0140011
648.687	0.0140884
648.765	0.0139093
648.843	0.0138418
648.921	0.0139687
648.999	0.0141353
649.078	0.0140775
649.156	0.0140657
649.234	0.0140985
649.312	0.0139040
649.390	0.0138805
649.468	0.0141386
649.546	0.0141945
649.624	0.0141300
649.703	0.0141144
649.781	0.0141025
649.859	0.0139954
649.937	0.0141868
650.015	0.0141678
650.093	0.0140779
650.171	0.0140437
650.249	0.0139996
650.328	0.0141298
650.406	0.0140254
650.484	0.0139884
650.562	0.0140570
650.640	0.0139324
650.718	0.0139642
650.796	0.0138601
650.874	0.0139281
650.953	0.0137903
651.031	0.0139697
651.109	0.0140533
651.187	0.0139679
651.265	0.0141185
651.343	0.0141756
651.421	0.0140690
651.499	0.0140167
651.578	0.0140981
651.656	0.0141508
651.734	0.0141360
651.812	0.0139680
651.890	0.0140255
651.968	0.0140576
652.046	0.0139552
652.124	0.0139538
652.203	0.0139062
652.281	0.0138515
652.359	0.0137774
652.437	0.0139058
652.515	0.0139960
652.593	0.0139021
652.671	0.0137825
652.749	0.0139369
652.828	0.0138665
652.906	0.0140232
652.984	0.0140372
653.062	0.0140076
653.140	0.0139552
653.218	0.0140820
653.296	0.0140789
653.374	0.0140027
653.453	0.0140086
653.531	0.0141645
653.609	0.0141816
653.687	0.0140485
653.765	0.0140849
653.843	0.0141264
653.921	0.0140863
653.999	0.0140681
654.078	0.0141174
654.156	0.0138775
654.234	0.0138137
654.312	0.0138939
654.390	0.0137611
654.468	0.0139334
654.546	0.0139288
654.624	0.0139976
654.703	0.0140623
654.781	0.0139373
654.859	0.0138683
654.937	0.0140215
655.015	0.0140363
655.093	0.0139355
655.171	0.0141472
655.249	0.0140322
655.328	0.0140611
655.406	0.0141535
655.484	0.0141153
655.562	0.0141325
655.640	0.0141084
655.718	0.0141094
655.796	0.0139815
655.874	0.0139290
655.953	0.0140156
656.031	0.0140183
656.109	0.0139523
656.187	0.0138330
656.265	0.0137135
656.343	0.0139153
656.421	0.0137865
656.499	0.0137894
656.578	0.0139509
656.656	0.0140927
656.734	0.0138671
656.812	0.0140005
656.890	0.0140569
656.968	0.0139341
657.046	0.0141006
657.124	0.0141023
657.203	0.0140238
657.281	0.0140455
657.359	0.0140676
657.437	0.0140008
657.515	0.0141640
657.593	0.0140971
657.671	0.0139478
657.749	0.0140234
657.828	0.0141520
657.906	0.0140309
657.984	0.0140594
658.062	0.0140029
658.140	0.0140138
658.218	0.0140195
658.296	0.0139960
658.374	0.0139340
658.453	0.0139450
658.531	0.0140327
658.609	0.0140964
658.687	0.0138107
658.765	0.0138508
658.843	0.0139220
658.921	0.0139772
658.999	0.0139964
659.078	0.0139265
659.156	0.0138695
659.234	0.0140602
659.312	0.0140961
659.390	0.0141136
659.468	0.0141893
659.546	0.0141846
659.624	0.0142175
659.703	0.0141146
659.781	0.0140688
659.859	0.0139343
659.937	0.0138628
660.015	0.0140847
660.093	0.0140265
660.171	0.0138873
660.249	0.0139748
660.328	0.0137732
660.406	0.0137048
660.484	0.0137724
660.562	0.0139780
660.640	0.0138763
660.718	0.0140673
660.796	0.0140584
660.874	0.0140840
660.953	0.0139512
661.031	0.0142068
661.109	0.0141668
661.187	0.0141525
661.265	0.0142585
661.343	0.0141207
661.421	0.0142354
661.499	0.0142589
661.578	0.0142564
661.656	0.0141866
661.734	0.0141570
661.812	0.0140321
661.890	0.0139856
661.968	0.0138705
662.046	0.0139539
662.124	0.0137636
662.203	0.0136926
662.281	0.0137233
662.359	0.0136534
662.437	0.0135387
662.515	0.0136210
662.593	0.0137034
662.671	0.0137859
662.749	0.0139326
662.828	0.0138992
662.906	0.0140144
662.984	0.0139986
663.062	0.0141486
663.140	0.0143452
663.218	0.0144250
663.296	0.0142377
663.374	0.0143481
663.453	0.0141957
663.531	0.0142055
663.609	0.0141827
663.687	0.0140338
663.765	0.0141750
663.843	0.0140208
663.921	0.0139621
663.999	0.0139600
664.078	0.0139096
664.156	0.0139492
664.234	0.0139231
664.312	0.0139100
664.390	0.0139968
664.468	0.0139998
664.546	0.0138941
664.624	0.0141073
664.703	0.0140983
664.781	0.0142045
664.859	0.0142635
664.937	0.0141127
665.015	0.0140779
665.093	0.0140829
665.171	0.0140429
665.249	0.0141667
665.328	0.0141333
665.406	0.0138978
665.484	0.0139268
665.562	0.0138936
665.640	0.0138374
665.718	0.0138702
665.796	0.0138557
665.874	0.0137875
665.953	0.0138017
666.031	0.0139931
666.109	0.0139790
666.187	0.0139812
666.265	0.0140169
666.343	0.0139667
666.421	0.0139782
666.499	0.0140024
666.578	0.0141440
666.656	0.0141372
666.734	0.0141668
666.812	0.0141933
666.890	0.0140938
666.968	0.0142325
667.046	0.0141557
667.124	0.0140794
667.203	0.0140846
667.281	0.0140128
667.359	0.0137380
667.437	0.0137299
667.515	0.0138866
667.593	0.0139134
667.671	0.0138291
667.749	0.0139182
667.828	0.0137900
667.906	0.0137717
667.984	0.0138550
668.062	0.0138062
668.140	0.0140095
668.218	0.0141285
668.296	0.0140223
668.374	0.0141179
668.453	0.0142990
668.531	0.0143659
668.609	0.0141886
668.687	0.0142879
668.765	0.0143485
668.843	0.0141597
668.921	0.0142934
668.999	0.0141800
669.078	0.0141492
669.156	0.0138717
669.234	0.0140296
669.312	0.0139236
669.390	0.0139467
669.468	0.0139558
669.546	0.0137876
669.624	0.0140125
669.703	0.0138799
669.781	0.0139284
669.859	0.0138416
669.937	0.0139869
670.015	0.0140885
670.093	0.0140147
670.171	0.0139846
670.249	0.0138884
670.328	0.0139864
670.406	0.0140759
670.484	0.0139703
670.562	0.0140175
670.640	0.0139689
670.718	0.0138667
670.796	0.0141399
670.874	0.0140955
670.953	0.0141006
671.031	0.0140665
671.109	0.0140753
671.187	0.0138765
671.265	0.0140073
671.343	0.0140167
671.421	0.0139385
671.499	0.0139165
671.578	0.0140083
671.656	0.0139576
671.734	0.0139618
671.812	0.0139980
671.890	0.0140436
671.968	0.0140972
672.046	0.0139624
672.124	0.0142027
672.203	0.0139402
672.281	0.0139860
672.359	0.0140214
672.437	0.0139875
672.515	0.0139541
672.593	0.0138856
672.671	0.0139226
672.749	0.0138297
672.828	0.0139073
672.906	0.0139500
672.984	0.0138860
673.062	0.0139417
673.140	0.0138226
673.218	0.0138226
673.296	0.0138481
673.374	0.0139808
673.453	0.0139329
673.531	0.0141279
673.609	0.0139695
673.687	0.0139297
673.765	0.0141660
673.843	0.0142253
673.921	0.0142848
673.999	0.0143080
674.078	0.0141843
674.156	0.0142342
674.234	0.0141826
674.312	0.0141354
674.390	0.0141719
674.468	0.0140363
674.546	0.0141428
674.624	0.0140899
674.703	0.0141154
674.781	0.0142633
674.859	0.0140267
674.937	0.0139978
675.015	0.0140021
675.093	0.0139130
675.171	0.0139027
675.249	0.0139780
675.328	0.0140047
675.406	0.0138515
675.484	0.0139523
675.562	0.0138782
675.640	0.0140192
675.718	0.0139132
675.796	0.0139306
675.874	0.0141661
675.953	0.0141151
676.031	0.0139305
676.109	0.0142059
676.187	0.0142336
676.265	0.0142246
676.343	0.0140924
676.421	0.0140861
676.499	0.0140046
676.578	0.0141121
676.656	0.0141756
676.734	0.0140672
676.812	0.0140345
676.890	0.0138618
676.968	0.0138039
677.046	0.0139931
677.124	0.0139194
677.203	0.0137151
677.281	0.0138455
677.359	0.0138958
677.437	0.0138165
677.515	0.0137909
677.593	0.0138317
677.671	0.0138050
677.749	0.0139378
677.828	0.0137036
677.906	0.0138301
677.984	0.0139068
678.062	0.0138093
678.140	0.0138136
678.218	0.0138676
678.296	0.0138278
678.374	0.0138027
678.453	0.0138580
678.531	0.0138965
678.609	0.0140186
678.687	0.0139933
678.765	0.0142429
678.843	0.0141842
678.921	0.0140179
678.999	0.0142578
679.078	0.0142323
679.156	0.0144737
679.234	0.0144217
679.312	0.0143945
679.390	0.0145033
679.468	0.0143488
679.546	0.0144514
679.624	0.0144935
679.703	0.0145794
679.781	0.0144559
679.859	0.0144093
679.937	0.0143871
680.015	0.0142313
680.093	0.0142414
680.171	0.0142374
680.249	0.0142198
680.328	0.0142827
680.406	0.0142104
680.484	0.0141960
680.562	0.0140449
680.640	0.0139840
680.718	0.0139172
680.796	0.0139414
680.874	0.0138441
680.953	0.0138860
681.031	0.0138702
681.109	0.0137670
681.187	0.0137098
681.265	0.0138654
681.343	0.0138039
681.421	0.0137418
681.499	0.0136075
681.578	0.0136574
681.656	0.0138898
681.734	0.0138648
681.812	0.0138967
681.890	0.0139312
681.968	0.0138596
682.046	0.0139317
682.124	0.0140288
682.203	0.0140615
682.281	0.0139328
682.359	0.0139896
682.437	0.0141434
682.515	0.0140388
682.593	0.0139150
682.671	0.0140161
682.749	0.0140199
682.828	0.0141054
682.906	0.0139211
682.984	0.0137852
683.062	0.0138586
683.140	0.0139143
683.218	0.0139568
683.296	0.0140907
683.374	0.0139697
683.453	0.0140656
683.531	0.0142200
683.609	0.0141759
683.687	0.0142104
683.765	0.0143814
683.843	0.0143817
683.921	0.0143880
683.999	0.0143410
684.078	0.0142690
684.156	0.0143906
684.234	0.0142805
684.312	0.0142271
684.390	0.0140943
684.468	0.0139425
684.546	0.0140820
684.624	0.0139594
684.703	0.0137920
684.781	0.0137941
684.859	0.0138992
684.937	0.0138708
685.015	0.0138435
685.093	0.0137798
685.171	0.0138953
685.249	0.0138895
685.328	0.0137621
685.406	0.0138781
685.484	0.0141058
685.562	0.0141287
685.640	0.0140905
685.718	0.0141225
685.796	0.0142506
685.874	0.0142538
685.953	0.0144559
686.031	0.0143643
686.109	0.0141694
686.187	0.0142191
686.265	0.0141177
686.343	0.0140774
686.421	0.0139436
686.499	0.0139558
686.578	0.0138470
686.656	0.0137895
686.734	0.0136777
686.812	0.0136058
686.890	0.0136160
686.968	0.0137498
687.046	0.0137683
687.124	0.0138712
687.203	0.0138353
687.281	0.0139792
687.359	0.0138706
687.437	0.0140872
687.515	0.0141273
687.593	0.0141302
687.671	0.0142454
687.749	0.0141389
687.828	0.0140861
687.906	0.0141399
687.984	0.0140353
688.062	0.0139203
688.140	0.0139474
688.218	0.0140243
688.296	0.0139223
688.374	0.0138176
688.453	0.0137941
688.531	0.0138156
688.609	0.0138721
688.687	0.0138663
688.765	0.0138253
688.843	0.0138190
688.921	0.0136214
688.999	0.0138013
689.078	0.0138269
689.156	0.0137750
689.234	0.0139114
689.312	0.0139822
689.390	0.0139528
689.468	0.0141638
689.546	0.0140408
689.624	0.0139849
689.703	0.0142371
689.781	0.0141067
689.859	0.0139909
689.937	0.0139647
690.015	0.0140896
690.093	0.0142253
690.171	0.0142442
690.249	0.0140881
690.328	0.0140324
690.406	0.0141605
690.484	0.0142277
690.562	0.0141280
690.640	0.0140923
690.718	0.0142130
690.796	0.0142490
690.874	0.0143302
690.953	0.0143819
691.031	0.0143024
691.109	0.0142292
691.187	0.0144481
691.265	0.0143182
691.343	0.0141246
691.421	0.0141975
691.499	0.0143034
691.578	0.0142029
691.656	0.0140630
691.734	0.0139753
691.812	0.0139662
691.890	0.0139633
691.968	0.0138548
692.046	0.0138634
692.124	0.0138361
692.203	0.0137429
692.281	0.0136840
692.359	0.0136897
692.437	0.0137665
692.515	0.0137546
692.593	0.0137620
692.671	0.0135934
692.749	0.0137843
692.828	0.0137470
692.906	0.0138219
692.984	0.0137708
693.062	0.0139519
693.140	0.0139826
693.218	0.0139427
693.296	0.0140981
693.374	0.0140662
693.453	0.0141908
693.531	0.0140836
693.609	0.0140012
693.687	0.0140610
693.765	0.0139153
693.843	0.0140041
693.921	0.0138265
693.999	0.0138015
694.078	0.0137897
694.156	0.0137595
694.234	0.0140038
694.312	0.0138255
694.390	0.0140350
694.468	0.0138832
694.546	0.0140255
694.624	0.0139915
694.703	0.0141600
694.781	0.0141768
694.859	0.0141537
694.937	0.0143046
695.015	0.0142320
695.093	0.0141639
695.171	0.0142780
695.249	0.0142418
695.328	0.0141558
695.406	0.0139519
695.484	0.0142485
695.562	0.0139782
695.640	0.0140005
695.718	0.0140025
695.796	0.0140571
695.874	0.0138749
695.953	0.0141148
696.031	0.0140714
696.109	0.0139919
696.187	0.0139534
696.265	0.0140685
696.343	0.0140557
696.421	0.0141224
696.499	0.0141955
696.578	0.0141815
696.656	0.0141859
696.734	0.0142970
696.812	0.0142487
696.890	0.0142988
696.968	0.0141441
697.046	0.0141887
697.124	0.0140909
697.203	0.0137984
697.281	0.0138575
697.359	0.0137679
697.437	0.0138290
697.515	0.0136004
697.593	0.0137518
697.671	0.0138046
697.749	0.0136912
697.828	0.0137075
697.906	0.0138024
697.984	0.0139140
698.062	0.0140469
698.140	0.0139055
698.218	0.0140456
698.296	0.0139943
698.374	0.0139874
698.453	0.0140569
698.531	0.0140385
698.609	0.0141005
698.687	0.0138501
698.765	0.0139380
698.843	0.0138708
698.921	0.0138535
698.999	0.0139641
699.078	0.0140794
699.156	0.0139844
699.234	0.0140405
699.312	0.0140775
699.390	0.0139817
699.468	0.0140764
699.546	0.0143394
699.624	0.0144258
699.703	0.0144131
699.781	0.0143053
699.859	0.0142139
699.937	0.0142676
700.015	0.0143001
700.093	0.0142846
700.171	0.0143191
700.249	0.0142076
700.328	0.0142395
700.406	0.0141781
700.484	0.0142297
700.562	0.0142567
700.640	0.0141164
700.718	0.0138782
700.796	0.0139472
700.874	0.0139386
700.953	0.0138995
701.031	0.0138876
701.109	0.0139189
701.187	0.0138078
701.265	0.0136945
701.343	0.0137120
701.421	0.0138156
701.499	0.0139497
701.578	0.0140461
701.656	0.0140828
701.734	0.0139762
701.812	0.0141714
701.890	0.0140972
701.968	0.0142255
702.046	0.0140324
702.124	0.0141520
702.203	0.0142350
702.281	0.0141446
702.359	0.0142303
702.437	0.0141402
702.515	0.0139089
702.593	0.0139673
702.671	0.0138663
702.749	0.0138673
702.828	0.0139272
702.906	0.0137522
702.984	0.0139245
703.062	0.0139297
703.140	0.0137514
703.218	0.0138612
703.296	0.0138838
703.374	0.0139455
703.453	0.0139207
703.531	0.0137337
703.609	0.0137259
703.687	0.0139105
703.765	0.0138233
703.843	0.0134245
703.921	0.0135970
703.999	0.0137646
704.078	0.0138739
704.156	0.0139259
704.234	0.0137663
704.312	0.0139898
704.390	0.0139223
704.468	0.0139177
704.546	0.0140871
704.624	0.0140809
704.703	0.0139492
704.781	0.0141158
704.859	0.0141503
704.937	0.0141522
705.015	0.0142832
705.093	0.0141068
705.171	0.0142513
705.249	0.0142440
705.328	0.0142977
705.406	0.0142829
705.484	0.0142656
705.562	0.0141168
705.640	0.0142534
705.718	0.0141602
705.796	0.0140849
705.874	0.0140594
705.953	0.0141183
706.031	0.0139489
706.109	0.0140314
706.187	0.0137939
706.265	0.0137582
706.343	0.0137580
706.421	0.0138911
706.499	0.0137449
706.578	0.0139623
706.656	0.0138912
706.734	0.0138981
706.812	0.0139064
706.890	0.0139772
706.968	0.0139802
707.046	0.0138642
707.124	0.0138543
707.203	0.0138309
707.281	0.0139418
707.359	0.0138908
707.437	0.0139220
707.515	0.0139139
707.593	0.0137947
707.671	0.0138499
707.749	0.0137290
707.828	0.0137141
707.906	0.0137818
707.984	0.0137424
708.062	0.0140142
708.140	0.0138994
708.218	0.0139227
708.296	0.0140049
708.374	0.0141666
708.453	0.0141051
708.531	0.0141391
708.609	0.0142762
708.687	0.0142945
708.765	0.0141624
708.843	0.0143154
708.921	0.0143478
708.999	0.0141578
709.078	0.0141822
709.156	0.0143157
709.234	0.0141949
709.312	0.0141335
709.390	0.0140659
709.468	0.0140672
709.546	0.0140395
709.624	0.0139584
709.703	0.0140078
709.781	0.0139835
709.859	0.0139452
709.937	0.0140224
710.015	0.0141378
710.093	0.0141656
710.171	0.0140181
710.249	0.0142711
710.328	0.0141589
710.406	0.0141589
710.484	0.0141926
710.562	0.0142490
710.640	0.0141634
710.718	0.0142040
710.796	0.0140646
710.874	0.0139990
710.953	0.0140434
711.031	0.0139149
711.109	0.0138185
711.187	0.0136858
711.265	0.0137732
711.343	0.0137661
711.421	0.0139214
711.499	0.0138850
711.578	0.0138076
711.656	0.0139881
711.734	0.0139359
711.812	0.0140407
711.890	0.0141023
711.968	0.0141053
712.046	0.0140689
712.124	0.0141441
712.203	0.0142212
712.281	0.0141214
712.359	0.0141236
712.437	0.0139919
712.515	0.0139703
712.593	0.0141266
712.671	0.0139977
712.749	0.0138843
712.828	0.0137040
712.906	0.0138740
712.984	0.0138178
713.062	0.0139132
713.140	0.0138560
713.218	0.0139114
713.296	0.0138553
713.374	0.0138405
713.453	0.0139879
713.531	0.0138850
713.609	0.0140559
713.687	0.0139792
713.765	0.0139259
713.843	0.0139788
713.921	0.0139838
713.999	0.0138896
714.078	0.0141121
714.156	0.0140688
714.234	0.0139565
714.312	0.0138367
714.390	0.0139239
714.468	0.0138589
714.546	0.0138984
714.624	0.0138913
714.703	0.0139515
714.781	0.0138338
714.859	0.0136510
714.937	0.0138615
715.015	0.0139228
715.093	0.0139095
715.171	0.0139093
715.249	0.0140057
715.328	0.0139993
715.406	0.0141064
715.484	0.0140927
715.562	0.0141994
715.640	0.0141651
715.718	0.0143129
715.796	0.0141058
715.874	0.0141656
715.953	0.0141662
716.031	0.0140195
716.109	0.0141522
716.187	0.0140998
716.265	0.0141199
716.343	0.0141124
716.421	0.0141199
716.499	0.0141328
716.578	0.0139785
716.656	0.0139244
716.734	0.0139874
716.812	0.0139508
716.890	0.0139052
716.968	0.0140373
717.046	0.0140279
717.124	0.0140706
717.203	0.0140430
717.281	0.0141800
717.359	0.0139922
717.437	0.0139719
717.515	0.0141616
717.593	0.0140308
717.671	0.0141201
717.749	0.0140396
717.828	0.0140661
717.906	0.0139237
717.984	0.0139920
718.062	0.0138911
718.140	0.0138766
718.218	0.0138488
718.296	0.0138461
718.374	0.0137438
718.453	0.0137904
718.531	0.0139195
718.609	0.0138714
718.687	0.0139226
718.765	0.0139766
718.843	0.0140208
718.921	0.0139442
718.999	0.0141367
719.078	0.0142625
719.156	0.0140838
719.234	0.0140878
719.312	0.0140481
719.390	0.0140218
719.468	0.0139582
719.546	0.0139795
719.624	0.0140600
719.703	0.0140335
719.781	0.0139408
719.859	0.0141082
719.937	0.0141312
720.015	0.0140284
720.093	0.0139459
720.171	0.0139516
720.249	0.0138998
720.328	0.0139508
720.406	0.0140516
720.484	0.0141843
720.562	0.0140067
720.640	0.0139854
720.718	0.0140685
720.796	0.0141193
720.874	0.0142426
720.953	0.0141382
721.031	0.0140976
721.109	0.0140414
721.187	0.0142184
721.265	0.0141009
721.343	0.0141999
721.421	0.0141248
721.499	0.0141490
721.578	0.0141149
721.656	0.0140427
721.734	0.0141979
721.812	0.0140989
721.890	0.0141444
721.968	0.0140443
722.046	0.0139094
722.124	0.0139523
722.203	0.0140421
722.281	0.0140284
722.359	0.0140319
722.437	0.0139234
722.515	0.0140009
722.593	0.0141257
722.671	0.0141508
722.749	0.0141528
722.828	0.0140969
722.906	0.0140673
722.984	0.0140470
723.062	0.0141048
723.140	0.0140884
723.218	0.0140466
723.296	0.0140486
723.374	0.0141298
723.453	0.0140261
723.531	0.0140334
723.609	0.0139832
723.687	0.0140294
723.765	0.0139284
723.843	0.0139603
723.921	0.0139343
723.999	0.0139319
724.078	0.0139120
724.156	0.0138219
724.234	0.0139751
724.312	0.0141136
724.390	0.0139038
724.468	0.0139213
724.546	0.0141317
724.624	0.0142493
724.703	0.0141758
724.781	0.0139816
724.859	0.0139127
724.937	0.0141190
725.015	0.0140715
725.093	0.0138858
725.171	0.0139989
725.249	0.0140666
725.328	0.0139849
725.406	0.0138603
725.484	0.0140639
725.562	0.0139648
725.640	0.0140826
725.718	0.0141583
725.796	0.0140400
725.874	0.0139614
725.953	0.0141022
726.031	0.0141187
726.109	0.0141369
726.187	0.0139922
726.265	0.0141255
726.343	0.0140344
726.421	0.0139742
726.499	0.0140070
726.578	0.0140096
726.656	0.0139869
726.734	0.0139398
726.812	0.0141211
726.890	0.0139469
726.968	0.0138763
727.046	0.0140945
727.124	0.0140117
727.203	0.0140228
727.281	0.0140589
727.359	0.0141000
727.437	0.0140548
727.515	0.0140921
727.593	0.0140630
727.671	0.0140642
727.749	0.0141708
727.828	0.0140396
727.906	0.0140676
727.984	0.0141365
728.062	0.0140215
728.140	0.0138885
728.218	0.0140768
728.296	0.0141238
728.374	0.0141386
728.453	0.0142472
728.531	0.0141319
728.609	0.0142714
728.687	0.0141492
728.765	0.0142893
728.843	0.0142603
728.921	0.0142833
728.999	0.0142639
729.078	0.0140765
729.156	0.0141174
729.234	0.0140727
729.312	0.0140101
729.390	0.0141479
729.468	0.0140046
729.546	0.0141132
729.624	0.0141520
729.703	0.0140542
729.781	0.0140318
729.859	0.0138921
729.937	0.0138753
730.015	0.0140073
730.093	0.0139246
730.171	0.0139729
730.249	0.0138728
730.328	0.0138546
730.406	0.0137837
730.484	0.0138030
730.562	0.0137325
730.640	0.0139153
730.718	0.0140120
730.796	0.0141039
730.874	0.0140248
730.953	0.0139436
731.031	0.0138975
731.109	0.0139788
731.187	0.0139312
731.265	0.0139178
731.343	0.0138410
731.421	0.0139828
731.499	0.0139057
731.578	0.0138887
731.656	0.0138724
731.734	0.0139202
731.812	0.0139143
731.890	0.0139586
731.968	0.0139796
732.046	0.0139168
732.124	0.0138855
732.203	0.0138843
732.281	0.0140320
732.359	0.0138165
732.437	0.0139944
732.515	0.0139822
732.593	0.0138738
732.671	0.0138245
732.749	0.0139783
732.828	0.0140080
732.906	0.0139724
732.984	0.0140427
733.062	0.0139423
733.140	0.0140506
733.218	0.0139052
733.296	0.0139145
733.374	0.0140364
733.453	0.0139228
733.531	0.0139396
733.609	0.0137959
733.687	0.0138975
733.765	0.0139079
733.843	0.0139169
733.921	0.0137291
733.999	0.0138456
734.078	0.0139983
734.156	0.0138900
734.234	0.0139440
734.312	0.0140249
734.390	0.0139628
734.468	0.0140126
734.546	0.0141502
734.624	0.0140138
734.703	0.0139641
734.781	0.0141174
734.859	0.0141386
734.937	0.0141582
735.015	0.0141512
735.093	0.0140908
735.171	0.0140643
735.249	0.0140520
735.328	0.0140151
735.406	0.0140007
735.484	0.0140374
735.562	0.0139320
735.640	0.0140348
735.718	0.0138332
735.796	0.0139541
735.874	0.0140175
735.953	0.0138928
736.031	0.0138873
736.109	0.0139536
736.187	0.0140742
736.265	0.0138466
736.343	0.0138215
736.421	0.0138936
736.499	0.0139768
736.578	0.0140200
736.656	0.0139386
736.734	0.0139118
736.812	0.0138950
736.890	0.0138447
736.968	0.0139796
737.046	0.0140741
737.124	0.0140782
737.203	0.0140099
737.281	0.0139811
737.359	0.0138764
737.437	0.0140089
737.515	0.0138456
737.593	0.0138307
737.671	0.0139746
737.749	0.0138741
737.828	0.0140837
737.906	0.0140092
737.984	0.0140256
738.062	0.0140282
738.140	0.0141612
738.218	0.0140993
738.296	0.0142030
738.374	0.0142488
738.453	0.0142793
738.531	0.0142841
738.609	0.0142159
738.687	0.0142544
738.765	0.0142171
738.843	0.0142452
738.921	0.0141113
738.999	0.0141137
739.078	0.0142429
739.156	0.0140911
739.234	0.0140495
739.312	0.0140508
739.390	0.0138721
739.468	0.0141296
739.546	0.0141886
739.624	0.0142154
739.703	0.0141476
739.781	0.0141328
739.859	0.0141754
739.937	0.0142374
740.015	0.0142155
740.093	0.0142696
740.171	0.0143165
740.249	0.0141891
740.328	0.0141136
740.406	0.0140379
740.484	0.0141725
740.562	0.0141214
740.640	0.0139577
740.718	0.0140587
740.796	0.0138828
740.874	0.0139676
740.953	0.0139359
741.031	0.0142387
741.109	0.0140236
741.187	0.0139775
741.265	0.0141340
741.343	0.0140396
741.421	0.0140530
741.499	0.0140527
741.578	0.0141084
741.656	0.0141738
741.734	0.0142621
741.812	0.0140887
741.890	0.0141810
741.968	0.0141244
742.046	0.0140913
742.124	0.0141233
742.203	0.0141255
742.281	0.0140388
742.359	0.0140866
742.437	0.0140118
742.515	0.0140094
742.593	0.0139864
742.671	0.0139745
742.749	0.0141412
742.828	0.0140303
742.906	0.0139818
742.984	0.0141778
743.062	0.0141109
743.140	0.0141679
743.218	0.0139537
743.296	0.0142087
743.374	0.0140823
743.453	0.0140644
743.531	0.0140037
743.609	0.0141071
743.687	0.0140893
743.765	0.0140382
743.843	0.0141013
743.921	0.0141969
743.999	0.0139725
744.078	0.0140114
744.156	0.0140020
744.234	0.0139949
744.312	0.0140768
744.390	0.0140203
744.468	0.0140711
744.546	0.0139104
744.624	0.0140691
744.703	0.0140069
744.781	0.0140079
744.859	0.0139656
744.937	0.0139908
745.015	0.0141823
745.093	0.0140199
745.171	0.0139837
745.249	0.0139818
745.328	0.0139767
745.406	0.0139790
745.484	0.0140444
745.562	0.0139310
745.640	0.0140659
745.718	0.0140211
745.796	0.0140090
745.874	0.0141850
745.953	0.0140108
746.031	0.0141276
746.109	0.0142270
746.187	0.0141994
746.265	0.0141351
746.343	0.0142735
746.421	0.0141420
746.499	0.0142312
746.578	0.0140886
746.656	0.0140601
746.734	0.0138921
746.812	0.0138927
746.890	0.0141075
746.968	0.0139711
747.046	0.0139090
747.124	0.0139865
747.203	0.0140673
747.281	0.0139889
747.359	0.0141108
747.437	0.0141869
747.515	0.0142210
747.593	0.0141081
747.671	0.0141857
747.749	0.0143285
747.828	0.0142573
747.906	0.0141056
747.984	0.0141584
748.062	0.0141548
748.140	0.0141514
748.218	0.0142067
748.296	0.0140932
748.374	0.0140370
748.453	0.0140699
748.531	0.0139977
748.609	0.0139260
748.687	0.0139051
748.765	0.0139374
748.843	0.0138605
748.921	0.0137923
748.999	0.0138499
749.078	0.0138570
749.156	0.0140430
749.234	0.0141108
749.312	0.0138835
749.390	0.0140829
749.468	0.0140213
749.546	0.0141223
749.624	0.0140855
749.703	0.0139683
749.781	0.0141011
749.859	0.0139973
749.937	0.0139518
750.015	0.0140678
750.093	0.0138612
750.171	0.0138006
750.249	0.0137897
750.328	0.0138058
750.406	0.0138497
750.484	0.0138332
750.562	0.0138335
750.640	0.0139104
750.718	0.0139886
750.796	0.0137870
750.874	0.0138397
750.953	0.0138340
751.031	0.0139135
751.109	0.0140362
751.187	0.0140738
751.265	0.0139378
751.343	0.0139257
751.421	0.0140313
751.499	0.0140044
751.578	0.0139639
751.656	0.0139886
751.734	0.0140133
751.812	0.0140487
751.890	0.0139508
751.968	0.0139793
752.046	0.0141042
752.124	0.0140507
752.203	0.0140060
752.281	0.0140097
752.359	0.0140038
752.437	0.0141125
752.515	0.0141681
752.593	0.0141241
752.671	0.0140469
752.749	0.0140182
752.828	0.0139251
752.906	0.0138826
752.984	0.0139346
753.062	0.0139545
753.140	0.0139030
753.218	0.0140012
753.296	0.0139363
753.374	0.0140683
753.453	0.0141422
753.531	0.0140096
753.609	0.0140816
753.687	0.0141829
753.765	0.0142001
753.843	0.0140668
753.921	0.0141271
753.999	0.0140254
754.078	0.0140097
754.156	0.0140572
754.234	0.0140294
754.312	0.0140829
754.390	0.0139431
754.468	0.0137254
754.546	0.0138073
754.624	0.0138822
754.703	0.0139515
754.781	0.0139252
754.859	0.0139471
754.937	0.0140162
755.015	0.0140531
755.093	0.0140551
755.171	0.0141336
755.249	0.0142188
755.328	0.0140872
755.406	0.0141942
755.484	0.0140875
755.562	0.0141405
755.640	0.0140705
755.718	0.0139169
755.796	0.0141062
755.874	0.0140041
755.953	0.0139481
756.031	0.0139803
756.109	0.0138977
756.187	0.0139883
756.265	0.0139863
756.343	0.0139291
756.421	0.0141563
756.499	0.0141401
756.578	0.0142036
756.656	0.0142001
756.734	0.0141711
756.812	0.0141644
756.890	0.0141574
756.968	0.0141381
757.046	0.0140704
757.124	0.0139716
757.203	0.0142705
757.281	0.0140894
757.359	0.0139639
757.437	0.0140146
757.515	0.0140912
757.593	0.0139932
757.671	0.0140429
757.749	0.0139111
757.828	0.0141180
757.906	0.0141460
757.984	0.0143800
758.062	0.0140782
758.140	0.0143768
758.218	0.0143644
758.296	0.0143368
758.374	0.0142938
758.453	0.0140742
758.531	0.0142370
758.609	0.0142508
758.687	0.0141489
758.765	0.0140317
758.843	0.0139218
758.921	0.0139664
758.999	0.0139794
759.078	0.0140186
759.156	0.0140223
759.234	0.0140088
759.312	0.0140062
759.390	0.0140178
759.468	0.0141174
759.546	0.0141539
759.624	0.0140503
759.703	0.0142406
759.781	0.0142252
759.859	0.0141525
759.937	0.0140853
760.015	0.0141734
760.093	0.0142089
760.171	0.0140351
760.249	0.0139430
760.328	0.0140483
760.406	0.0141273
760.484	0.0140397
760.562	0.0140493
760.640	0.0141318
760.718	0.0142109
760.796	0.0141763
760.874	0.0142146
760.953	0.0143427
761.031	0.0142468
761.109	0.0141765
761.187	0.0142508
761.265	0.0141080
761.343	0.0142448
761.421	0.0143381
761.499	0.0142413
761.578	0.0141020
761.656	0.0140007
761.734	0.0140720
761.812	0.0141711
761.890	0.0138538
761.968	0.0140443
762.046	0.0141563
762.124	0.0140407
762.203	0.0140775
762.281	0.0139738
762.359	0.0140326
762.437	0.0141514
762.515	0.0142207
762.593	0.0140547
762.671	0.0142680
762.749	0.0140977
762.828	0.0141915
762.906	0.0140273
762.984	0.0140369
763.062	0.0138931
763.140	0.0139850
763.218	0.0139951
763.296	0.0139011
763.374	0.0138505
763.453	0.0139864
763.531	0.0141235
763.609	0.0139381
763.687	0.0140423
763.765	0.0140329
763.843	0.0141711
763.921	0.0142030
763.999	0.0141514
764.078	0.0141734
764.156	0.0141078
764.234	0.0141998
764.312	0.0142411
764.390	0.0141367
764.468	0.0139564
764.546	0.0140295
764.624	0.0140363
764.703	0.0139854
764.781	0.0141363
764.859	0.0140005
764.937	0.0139969
765.015	0.0139541
765.093	0.0140430
765.171	0.0138840
765.249	0.0139865
765.328	0.0138932
765.406	0.0139723
765.484	0.0140270
765.562	0.0140691
765.640	0.0139598
765.718	0.0139696
765.796	0.0140923
765.874	0.0140065
765.953	0.0139951
766.031	0.0141171
766.109	0.0142200
766.187	0.0141513
766.265	0.0141973
766.343	0.0142099
766.421	0.0141741
766.499	0.0141920
766.578	0.0142204
766.656	0.0141864
766.734	0.0141265
766.812	0.0140913
766.890	0.0141143
766.968	0.0141579
767.046	0.0140194
767.124	0.0140585
767.203	0.0140137
767.281	0.0139721
767.359	0.0139677
767.437	0.0140270
767.515	0.0139108
767.593	0.0138796
767.671	0.0139212
767.749	0.0140025
767.828	0.0139063
767.906	0.0141095
767.984	0.0140574
768.062	0.0140054
768.140	0.0140376
768.218	0.0140041
768.296	0.0140206
768.374	0.0138822
768.453	0.0138914
768.531	0.0140028
768.609	0.0137653
768.687	0.0138873
768.765	0.0139256
768.843	0.0139223
768.921	0.0139720
768.999	0.0140260
769.078	0.0140107
769.156	0.0141150
769.234	0.0140553
769.312	0.0141901
769.390	0.0142332
769.468	0.0140340
769.546	0.0142793
769.624	0.0142828
769.703	0.0142014
769.781	0.0141434
769.859	0.0140228
769.937	0.0140523
770.015	0.0141106
770.093	0.0140334
770.171	0.0139861
770.249	0.0140443
770.328	0.0140919
770.406	0.0139339
770.484	0.0141264
770.562	0.0141315
770.640	0.0142113
770.718	0.0139597
770.796	0.0140563
770.874	0.0140813
770.953	0.0141211
771.031	0.0141891
771.109	0.0142422
771.187	0.0141824
771.265	0.0141213
771.343	0.0142077
771.421	0.0139690
771.499	0.0139875
771.578	0.0140603
771.656	0.0140367
771.734	0.0138600
771.812	0.0138994
771.890	0.0140388
771.968	0.0138611
772.046	0.0139753
772.124	0.0139947
772.203	0.0139301
772.281	0.0140376
772.359	0.0140987
772.437	0.0140209
772.515	0.0139529
772.593	0.0139302
772.671	0.0140594
772.749	0.0140067
772.828	0.0139604
772.906	0.0139086
772.984	0.0137737
773.062	0.0139347
773.140	0.0138227
773.218	0.0138255
773.296	0.0138659
773.374	0.0139408
773.453	0.0139317
773.531	0.0139247
773.609	0.0138080
773.687	0.0139106
773.765	0.0141026
773.843	0.0140895
773.921	0.0140833
773.999	0.0141351
774.078	0.0141120
774.156	0.0139719
774.234	0.0139747
774.312	0.0141277
774.390	0.0140131
774.468	0.0140538
774.546	0.0139469
774.624	0.0139795
774.703	0.0139158
774.781	0.0139869
774.859	0.0139431
774.937	0.0141622
775.015	0.0140072
775.093	0.0139980
775.171	0.0140960
775.249	0.0140811
775.328	0.0139993
775.406	0.0141814
775.484	0.0141271
775.562	0.0141318
775.640	0.0141998
775.718	0.0142109
775.796	0.0142144
775.874	0.0141292
775.953	0.0140229
776.031	0.0139508
776.109	0.0139802
776.187	0.0139909
776.265	0.0139669
776.343	0.0139537
776.421	0.0140166
776.499	0.0138750
776.578	0.0138723
776.656	0.0139144
776.734	0.0139333
776.812	0.0138279
776.890	0.0138776
776.968	0.0138506
777.046	0.0138699
777.124	0.0139157
777.203	0.0140250
777.281	0.0139727
777.359	0.0139560
777.437	0.0139697
777.515	0.0140046
777.593	0.0140571
777.671	0.0139250
777.749	0.0139919
777.828	0.0141010
777.906	0.0141251
777.984	0.0139570
778.062	0.0140704
778.140	0.0140617
778.218	0.0141038
778.296	0.0141130
778.374	0.0141753
778.453	0.0140544
778.531	0.0140359
778.609	0.0138801
778.687	0.0138654
778.765	0.0139870
778.843	0.0140737
778.921	0.0140926
778.999	0.0140401
779.078	0.0141241
779.156	0.0139948
779.234	0.0142475
779.312	0.0142020
779.390	0.0141105
779.468	0.0140471
779.546	0.0141042
779.624	0.0140044
779.703	0.0140722
779.781	0.0139930
779.859	0.0141251
779.937	0.0138976
780.015	0.0140439
780.093	0.0139894
780.171	0.0139510
780.249	0.0139799
780.328	0.0138504
780.406	0.0139864
780.484	0.0139734
780.562	0.0138895
780.640	0.0139475
780.718	0.0139400
780.796	0.0139977
780.874	0.0139925
780.953	0.0140448
781.031	0.0140442
781.109	0.0139938
781.187	0.0139802
781.265	0.0137888
781.343	0.0139349
781.421	0.0140222
781.499	0.0139774
781.578	0.0140043
781.656	0.0139728
781.734	0.0139331
781.812	0.0140437
781.890	0.0140279
781.968	0.0140027
782.046	0.0139302
782.124	0.0140466
782.203	0.0138285
782.281	0.0140581
782.359	0.0140627
782.437	0.0140630
782.515	0.0139931
782.593	0.0138874
782.671	0.0140327
782.749	0.0141263
782.828	0.0141804
782.906	0.0140581
782.984	0.0140335
783.062	0.0141801
783.140	0.0141801
783.218	0.0142354
783.296	0.0142448
783.374	0.0143157
783.453	0.0142046
783.531	0.0141795
783.609	0.0140392
783.687	0.0141936
783.765	0.0141781
783.843	0.0140651
783.921	0.0139484
783.999	0.0139894
784.078	0.0138467
784.156	0.0138940
784.234	0.0140136
784.312	0.0139107
784.390	0.0138194
784.468	0.0138425
784.546	0.0139555
784.624	0.0138807
784.703	0.0138941
784.781	0.0139534
784.859	0.0139636
784.937	0.0139187
785.015	0.0139523
785.093	0.0138770
785.171	0.0138017
785.249	0.0137525
785.328	0.0139785
785.406	0.0139993
785.484	0.0140339
785.562	0.0138905
785.640	0.0138740
785.718	0.0138035
785.796	0.0138933
785.874	0.0139743
785.953	0.0140051
786.031	0.0141230
786.109	0.0141349
786.187	0.0142191
786.265	0.0141465
786.343	0.0141956
786.421	0.0142684
786.499	0.0140488
786.578	0.0142092
786.656	0.0142548
786.734	0.0140495
786.812	0.0141293
786.890	0.0142034
786.968	0.0141673
787.046	0.0141661
787.124	0.0141197
787.203	0.0142638
787.281	0.0140247
787.359	0.0142259
787.437	0.0141124
787.515	0.0140598
787.593	0.0142114
787.671	0.0141358
787.749	0.0142049
787.828	0.0141195
787.906	0.0142236
787.984	0.0141496
788.062	0.0139352
788.140	0.0139604
788.218	0.0140025
788.296	0.0139638
788.374	0.0139497
788.453	0.0138549
788.531	0.0139123
788.609	0.0138140
788.687	0.0138084
788.765	0.0139556
788.843	0.0137999
788.921	0.0139083
788.999	0.0138739
789.078	0.0138895
789.156	0.0140268
789.234	0.0139599
789.312	0.0139127
789.390	0.0139600
789.468	0.0138798
789.546	0.0140151
789.624	0.0139996
789.703	0.0139574
789.781	0.0138244
789.859	0.0138787
789.937	0.0139183
790.015	0.0139419
790.093	0.0138785
790.171	0.0139467
790.249	0.0139873
790.328	0.0140710
790.406	0.0139509
790.484	0.0140206
790.562	0.0140496
790.640	0.0139229
790.718	0.0139976
790.796	0.0141267
790.874	0.0140303
790.953	0.0140625
791.031	0.0141287
791.109	0.0141337
791.187	0.0142708
791.265	0.0140930
791.343	0.0140816
791.421	0.0141663
791.499	0.0141161
791.578	0.0141302
791.656	0.0140537
791.734	0.0140788
791.812	0.0140087
791.890	0.0141914
791.968	0.0140732
792.046	0.0139884
792.124	0.0142888
792.203	0.0139864
792.281	0.0140645
792.359	0.0140588
792.437	0.0141500
792.515	0.0140122
792.593	0.0139674
792.671	0.0139691
792.749	0.0140952
792.828	0.0140217
792.906	0.0139054
792.984	0.0140040
793.062	0.0140922
793.140	0.0140456
793.218	0.0139606
793.296	0.0140514
793.374	0.0140208
793.453	0.0139040
793.531	0.0139619
793.609	0.0140189
793.687	0.0140722
793.765	0.0140389
793.843	0.0140592
793.921	0.0139225
793.999	0.0138295
794.078	0.0138506
794.156	0.0139001
794.234	0.0139318
794.312	0.0138749
794.390	0.0138708
794.468	0.0137936
794.546	0.0138770
794.624	0.0137847
794.703	0.0138360
794.781	0.0139799
794.859	0.0138275
794.937	0.0138454
795.015	0.0139604
795.093	0.0139864
795.171	0.0139223
795.249	0.0138689
795.328	0.0138801
795.406	0.0139302
795.484	0.0139577
795.562	0.0138968
795.640	0.0140324
795.718	0.0139948
795.796	0.0138568
795.874	0.0140198
795.953	0.0140373
796.031	0.0139124
796.109	0.0140233
796.187	0.0141692
796.265	0.0140953
796.343	0.0141335
796.421	0.0141817
796.499	0.0142509
796.578	0.0142107
796.656	0.0142085
796.734	0.0140862
796.812	0.0141369
796.890	0.0141819
796.968	0.0141101
797.046	0.0140421
797.124	0.0139877
797.203	0.0141537
797.281	0.0139912
797.359	0.0139448
797.437	0.0138136
797.515	0.0140340
797.593	0.0139203
797.671	0.0138160
797.749	0.0139093
797.828	0.0140013
797.906	0.0138937
797.984	0.0139174
798.062	0.0139152
798.140	0.0139352
798.218	0.0140349
798.296	0.0140515
798.374	0.0140466
798.453	0.0141199
798.531	0.0139660
798.609	0.0139082
798.687	0.0140482
798.765	0.0139025
798.843	0.0139720
798.921	0.0139960
798.999	0.0139821
799.078	0.0139812
799.156	0.0140285
799.234	0.0139851
799.312	0.0138930
799.390	0.0138203
799.468	0.0139417
799.546	0.0139758
799.624	0.0140238
799.703	0.0139543
799.781	0.0138506
799.859	0.0139605
799.937	0.0138576
800.015	0.0139130
800.093	0.0140343
800.171	0.0139643
800.249	0.0140707
800.328	0.0141370
800.406	0.0139205
800.484	0.0140856
800.562	0.0140565
800.640	0.0139638
800.718	0.0140572
800.796	0.0140389
800.874	0.0141558
800.953	0.0141340
801.031	0.0141373
801.109	0.0139983
801.187	0.0141850
801.265	0.0141199
801.343	0.0140737
801.421	0.0140347
801.499	0.0140137
801.578	0.0142168
801.656	0.0141878
801.734	0.0141539
801.812	0.0140528
801.890	0.0141320
801.968	0.0140418
802.046	0.0139976
802.124	0.0141971
802.203	0.0140473
802.281	0.0141774
802.359	0.0141122
802.437	0.0140922
802.515	0.0139990
802.593	0.0140842
802.671	0.0140730
802.749	0.0141530
802.828	0.0139433
802.906	0.0140160
802.984	0.0140739
803.062	0.0140754
803.140	0.0139950
803.218	0.0139059
803.296	0.0138863
803.374	0.0139962
803.453	0.0139404
803.531	0.0138322
803.609	0.0137632
803.687	0.0138999
803.765	0.0140911
803.843	0.0140066
803.921	0.0137675
803.999	0.0138342
804.078	0.0140671
804.156	0.0139883
804.234	0.0139452
804.312	0.0140110
804.390	0.0138805
804.468	0.0141834
804.546	0.0140129
804.624	0.0140273
804.703	0.0141077
804.781	0.0142492
804.859	0.0140667
804.937	0.0140941
805.015	0.0139063
805.093	0.0140363
805.171	0.0139944
805.249	0.0139657
805.328	0.0140000
805.406	0.0139584
805.484	0.0139414
805.562	0.0140619
805.640	0.0141077
805.718	0.0140031
805.796	0.0140542
805.874	0.0141308
805.953	0.0141435
806.031	0.0140640
806.109	0.0140562
806.187	0.0140910
806.265	0.0142564
806.343	0.0140931
806.421	0.0141583
806.499	0.0141192
806.578	0.0140231
806.656	0.0140640
806.734	0.0139458
806.812	0.0140349
806.890	0.0138902
806.968	0.0139833
807.046	0.0139133
807.124	0.0140215
807.203	0.0139746
807.281	0.0139238
807.359	0.0140024
807.437	0.0140622
807.515	0.0140795
807.593	0.0139936
807.671	0.0139977
807.749	0.0141384
807.828	0.0140922
807.906	0.0139636
807.984	0.0140530
808.062	0.0139534
808.140	0.0139632
808.218	0.0139698
808.296	0.0139415
808.374	0.0138821
808.453	0.0141012
808.531	0.0140220
808.609	0.0138919
808.687	0.0138422
808.765	0.0137469
808.843	0.0138874
808.921	0.0138978
808.999	0.0140231
809.078	0.0139681
809.156	0.0138531
809.234	0.0140614
809.312	0.0139919
809.390	0.0139420
809.468	0.0139057
809.546	0.0139076
809.624	0.0138850
809.703	0.0139282
809.781	0.0140073
809.859	0.0138860
809.937	0.0138728
810.015	0.0140991
810.093	0.0140546
810.171	0.0139592
810.249	0.0141625
810.328	0.0140153
810.406	0.0137776
810.484	0.0139747
810.562	0.0140816
810.640	0.0139676
810.718	0.0139250
810.796	0.0139436
810.874	0.0140344
810.953	0.0139684
811.031	0.0139655
811.109	0.0139448
811.187	0.0137470
811.265	0.0139364
811.343	0.0142142
811.421	0.0140445
811.499	0.0139122
811.578	0.0139801
811.656	0.0140002
811.734	0.0139956
811.812	0.0140260
811.890	0.0141253
811.968	0.0140405
812.046	0.0141150
812.124	0.0139809
812.203	0.0141022
812.281	0.0141254
812.359	0.0140714
812.437	0.0141618
812.515	0.0140162
812.593	0.0141431
812.671	0.0141601
812.749	0.0140289
812.828	0.0139834
812.906	0.0140031
812.984	0.0139473
813.062	0.0140252
813.140	0.0139252
813.218	0.0139028
813.296	0.0139293
813.374	0.0139135
813.453	0.0139259
813.531	0.0140173
813.609	0.0138772
813.687	0.0139024
813.765	0.0140020
813.843	0.0139138
813.921	0.0138250
813.999	0.0140163
814.078	0.0138934
814.156	0.0138370
814.234	0.0138974
814.312	0.0139023
814.390	0.0138792
814.468	0.0137677
814.546	0.0139897
814.624	0.0137840
814.703	0.0137854
814.781	0.0139330
814.859	0.0139513
814.937	0.0138506
815.015	0.0140379
815.093	0.0140204
815.171	0.0139264
815.249	0.0139213
815.328	0.0141781
815.406	0.0140085
815.484	0.0139962
815.562	0.0140737
815.640	0.0140616
815.718	0.0142230
815.796	0.0140953
815.874	0.0139606
815.953	0.0139990
816.031	0.0141136
816.109	0.0140601
816.187	0.0139993
816.265	0.0140268
816.343	0.0141177
816.421	0.0140826
816.499	0.0141370
816.578	0.0141026
816.656	0.0140037
816.734	0.0139754
816.812	0.0140288
816.890	0.0139586
816.968	0.0140636
817.046	0.0139830
817.124	0.0139271
817.203	0.0140369
817.281	0.0140520
817.359	0.0141409
817.437	0.0139939
817.515	0.0140934
817.593	0.0140704
817.671	0.0140442
817.749	0.0138785
817.828	0.0139453
817.906	0.0140585
817.984	0.0139367
818.062	0.0139745
818.140	0.0140846
818.218	0.0140067
818.296	0.0139866
818.374	0.0138512
818.453	0.0138772
818.531	0.0139340
818.609	0.0140060
818.687	0.0138914
818.765	0.0137817
818.843	0.0139413
818.921	0.0138864
818.999	0.0138911
819.078	0.0139382
819.156	0.0139272
819.234	0.0140295
819.312	0.0141228
819.390	0.0141424
819.468	0.0140072
819.546	0.0140047
819.624	0.0140471
819.703	0.0141801
819.781	0.0140636
819.859	0.0140996
819.937	0.0141543
820.015	0.0141854
820.093	0.0141014
820.171	0.0141708
820.249	0.0141584
820.328	0.0141263
820.406	0.0141962
820.484	0.0142228
820.562	0.0141917
820.640	0.0140922
820.718	0.0140627
820.796	0.0141563
820.874	0.0140638
820.953	0.0140656
821.031	0.0141949
821.109	0.0141219
821.187	0.0142574
821.265	0.0141277
821.343	0.0140607
821.421	0.0141047
821.499	0.0141521
821.578	0.0142290
821.656	0.0141428
821.734	0.0140776
821.812	0.0139526
821.890	0.0140147
821.968	0.0140361
822.046	0.0140244
822.124	0.0140468
822.203	0.0139719
822.281	0.0140018
822.359	0.0140546
822.437	0.0141013
822.515	0.0139908
822.593	0.0140433
822.671	0.0140529
822.749	0.0140345
822.828	0.0141231
822.906	0.0140325
822.984	0.0139910
823.062	0.0140279
823.140	0.0139600
823.218	0.0140714
823.296	0.0141150
823.374	0.0141389
823.453	0.0139301
823.531	0.0140538
823.609	0.0140454
823.687	0.0141489
823.765	0.0139667
823.843	0.0139460
823.921	0.0140522
823.999	0.0139732
824.078	0.0139443
824.156	0.0141060
824.234	0.0140247
824.312	0.0140543
824.390	0.0141772
824.468	0.0140945
824.546	0.0139737
824.624	0.0140469
824.703	0.0141611
824.781	0.0142075
824.859	0.0141680
824.937	0.0141656
825.015	0.0139375
825.093	0.0141109
825.171	0.0140968
825.249	0.0140143
825.328	0.0141200
825.406	0.0141409
825.484	0.0140755
825.562	0.0139359
825.640	0.0140722
825.718	0.0140414
825.796	0.0140546
825.874	0.0139551
825.953	0.0140487
826.031	0.0140936
826.109	0.0140530
826.187	0.0138303
826.265	0.0139747
826.343	0.0139465
826.421	0.0140948
826.499	0.0139865
826.578	0.0141155
826.656	0.0140557
826.734	0.0139808
826.812	0.0138911
826.890	0.0140137
826.968	0.0139313
827.046	0.0137737
827.124	0.0140839
827.203	0.0138430
827.281	0.0139881
827.359	0.0139590
827.437	0.0140482
827.515	0.0139384
827.593	0.0140296
827.671	0.0139963
827.749	0.0140163
827.828	0.0138840
827.906	0.0139891
827.984	0.0140154
828.062	0.0140080
828.140	0.0140213
828.218	0.0139912
828.296	0.0141041
828.374	0.0140340
828.453	0.0140125
828.531	0.0140308
828.609	0.0140551
828.687	0.0141082
828.765	0.0141418
828.843	0.0140308
828.921	0.0140721
828.999	0.0140497
829.078	0.0141083
829.156	0.0141434
829.234	0.0140427
829.312	0.0139807
829.390	0.0139838
829.468	0.0140862
829.546	0.0140820
829.624	0.0139629
829.703	0.0140269
829.781	0.0138223
829.859	0.0138811
829.937	0.0139538
830.015	0.0139413
830.093	0.0139683
830.171	0.0139732
830.249	0.0138368
830.328	0.0140404
830.406	0.0139063
830.484	0.0140308
830.562	0.0139880
830.640	0.0138851
830.718	0.0139938
830.796	0.0139671
830.874	0.0139348
830.953	0.0139642
831.031	0.0138164
831.109	0.0138534
831.187	0.0139693
831.265	0.0139530
831.343	0.0137678
831.421	0.0138044
831.499	0.0139655
831.578	0.0139059
831.656	0.0138928
831.734	0.0139980
831.812	0.0138614
831.890	0.0139092
831.968	0.0139370
832.046	0.0139349
832.124	0.0140927
832.203	0.0140149
832.281	0.0139468
832.359	0.0139716
832.437	0.0140971
832.515	0.0140280
832.593	0.0140514
832.671	0.0141412
832.749	0.0141872
832.828	0.0141082
832.906	0.0140797
832.984	0.0141723
833.062	0.0140818
833.140	0.0140447
833.218	0.0140668
833.296	0.0141357
833.374	0.0140925
833.453	0.0140992
833.531	0.0140574
833.609	0.0140479
833.687	0.0141120
833.765	0.0140762
833.843	0.0141841
833.921	0.0139740
833.999	0.0140176
834.078	0.0139837
834.156	0.0139152
834.234	0.0140757
834.312	0.0140207
834.390	0.0140466
834.468	0.0140591
834.546	0.0140524
834.624	0.0141359
834.703	0.0139735
834.781	0.0140989
834.859	0.0141206
834.937	0.0141438
835.015	0.0140117
835.093	0.0139742
835.171	0.0139124
835.249	0.0140092
835.328	0.0140067
835.406	0.0141508
835.484	0.0139581
835.562	0.0141142
835.640	0.0141106
835.718	0.0140356
835.796	0.0140807
835.874	0.0138867
835.953	0.0140804
836.031	0.0141840
836.109	0.0141724
836.187	0.0140752
836.265	0.0141428
836.343	0.0141145
836.421	0.0140646
836.499	0.0141344
836.578	0.0142858
836.656	0.0141139
836.734	0.0142469
836.812	0.0140704
836.890	0.0139721
836.968	0.0140383
837.046	0.0140725
837.124	0.0139323
837.203	0.0140755
837.281	0.0140400
837.359	0.0139110
837.437	0.0140672
837.515	0.0141396
837.593	0.0139931
837.671	0.0139274
837.749	0.0140112
837.828	0.0141280
837.906	0.0141000
837.984	0.0142004
838.062	0.0141717
838.140	0.0141113
838.218	0.0140643
838.296	0.0141062
838.374	0.0142622
838.453	0.0140560
838.531	0.0141142
838.609	0.0140477
838.687	0.0141371
838.765	0.0141428
838.843	0.0141869
838.921	0.0141683
838.999	0.0141595
839.078	0.0141218
839.156	0.0140560
839.234	0.0139529
839.312	0.0140793
839.390	0.0140582
839.468	0.0140253
839.546	0.0140200
839.624	0.0141226
839.703	0.0141329
839.781	0.0140430
839.859	0.0139959
839.937	0.0139370
840.015	0.0139915
840.093	0.0141027
840.171	0.0140710
840.249	0.0142191
840.328	0.0140466
840.406	0.0141330
840.484	0.0139919
840.562	0.0139363
840.640	0.0141240
840.718	0.0142149
840.796	0.0141663
840.874	0.0141901
840.953	0.0140825
841.031	0.0141146
841.109	0.0139582
841.187	0.0140140
841.265	0.0140956
841.343	0.0140614
841.421	0.0141198
841.499	0.0140221
841.578	0.0140026
841.656	0.0140374
841.734	0.0140211
841.812	0.0141514
841.890	0.0141324
841.968	0.0140334
842.046	0.0140105
842.124	0.0141491
842.203	0.0142458
842.281	0.0139482
842.359	0.0140891
842.437	0.0141059
842.515	0.0140865
842.593	0.0140946
842.671	0.0140736
842.749	0.0140732
842.828	0.0140271
842.906	0.0140088
842.984	0.0140017
843.062	0.0140385
843.140	0.0140884
843.218	0.0139136
843.296	0.0139707
843.374	0.0138838
843.453	0.0140099
843.531	0.0139742
843.609	0.0140083
843.687	0.0140741
843.765	0.0141788
843.843	0.0141912
843.921	0.0140939
843.999	0.0140475
844.078	0.0141465
844.156	0.0141798
844.234	0.0141394
844.312	0.0140597
844.390	0.0141359
844.468	0.0140427
844.546	0.0139499
844.624	0.0139943
844.703	0.0139778
844.781	0.0140021
844.859	0.0139168
844.937	0.0140419
845.015	0.0140298
845.093	0.0140031
845.171	0.0141028
845.249	0.0140032
845.328	0.0140736
845.406	0.0140318
845.484	0.0140704
845.562	0.0140795
845.640	0.0140568
845.718	0.0140770
845.796	0.0139929
845.874	0.0140137
845.953	0.0142398
846.031	0.0140865
846.109	0.0140691
846.187	0.0139806
846.265	0.0139647
846.343	0.0140288
846.421	0.0140400
846.499	0.0139310
846.578	0.0140212
846.656	0.0138783
846.734	0.0138310
846.812	0.0140390
846.890	0.0139615
846.968	0.0140054
847.046	0.0140042
847.124	0.0140892
847.203	0.0140387
847.281	0.0139500
847.359	0.0140862
847.437	0.0141039
847.515	0.0140998
847.593	0.0140526
847.671	0.0141011
847.749	0.0140794
847.828	0.0140074
847.906	0.0140695
847.984	0.0140110
848.062	0.0141060
848.140	0.0141311
848.218	0.0139701
848.296	0.0142105
848.374	0.0140495
848.453	0.0139996
848.531	0.0139043
848.609	0.0140159
848.687	0.0139879
848.765	0.0139718
848.843	0.0140408
848.921	0.0138976
848.999	0.0139326
849.078	0.0141225
849.156	0.0141344
849.234	0.0141948
849.312	0.0140505
849.390	0.0140572
849.468	0.0141613
849.546	0.0141344
849.624	0.0141337
849.703	0.0141724
849.781	0.0141610
849.859	0.0140092
849.937	0.0140226
850.015	0.0140066
850.093	0.0140168
850.171	0.0139901
850.249	0.0138164
850.328	0.0139148
850.406	0.0140922
850.484	0.0139198
850.562	0.0138757
850.640	0.0141378
850.718	0.0140394
850.796	0.0139805
850.874	0.0140034
850.953	0.0141328
851.031	0.0141370
851.109	0.0140210
851.187	0.0141178
851.265	0.0140268
851.343	0.0139596
851.421	0.0140200
851.499	0.0139794
851.578	0.0141039
851.656	0.0141924
851.734	0.0140639
851.812	0.0139529
851.890	0.0139716
851.968	0.0139233
852.046	0.0139909
852.124	0.0141115
852.203	0.0140504
852.281	0.0139356
852.359	0.0142092
852.437	0.0139355
852.515	0.0140348
852.593	0.0141179
852.671	0.0140224
852.749	0.0140198
852.828	0.0140474
852.906	0.0140376
852.984	0.0140600
853.062	0.0139893
853.140	0.0140934
853.218	0.0140703
853.296	0.0140489
853.374	0.0138678
853.453	0.0139278
853.531	0.0139819
853.609	0.0139757
853.687	0.0140024
853.765	0.0139432
853.843	0.0139243
853.921	0.0140058
853.999	0.0139691
854.078	0.0139768
854.156	0.0139980
854.234	0.0141402
854.312	0.0140829
854.390	0.0140725
854.468	0.0141350
854.546	0.0140475
854.624	0.0141198
854.703	0.0140777
854.781	0.0141652
854.859	0.0142164
854.937	0.0141656
855.015	0.0140031
855.093	0.0141733
855.171	0.0140675
855.249	0.0139758
855.328	0.0139861
855.406	0.0140202
855.484	0.0140047
855.562	0.0139458
855.640	0.0139230
855.718	0.0139698
855.796	0.0140644
855.874	0.0139143
855.953	0.0138993
856.031	0.0141476
856.109	0.0139753
856.187	0.0140105
856.265	0.0139610
856.343	0.0140490
856.421	0.0140263
856.499	0.0140175
856.578	0.0141272
856.656	0.0140907
856.734	0.0140112
856.812	0.0140649
856.890	0.0140515
856.968	0.0141022
857.046	0.0138528
857.124	0.0138835
857.203	0.0140279
857.281	0.0140558
857.359	0.0139381
857.437	0.0139669
857.515	0.0139018
857.593	0.0139256
857.671	0.0139574
857.749	0.0139980
857.828	0.0139992
857.906	0.0140035
857.984	0.0141062
858.062	0.0139597
858.140	0.0141132
858.218	0.0141762
858.296	0.0140411
858.374	0.0139131
858.453	0.0140186
858.531	0.0140914
858.609	0.0140301
858.687	0.0140220
858.765	0.0140887
858.843	0.0139870
858.921	0.0139661
858.999	0.0140519
859.078	0.0139999
859.156	0.0139126
859.234	0.0140626
859.312	0.0139770
859.390	0.0140226
859.468	0.0139694
859.546	0.0139556
859.624	0.0139572
859.703	0.0140864
859.781	0.0140804
859.859	0.0139766
859.937	0.0139290
860.015	0.0141174
860.093	0.0140687
860.171	0.0141088
860.249	0.0141129
860.328	0.0141659
860.406	0.0141125
860.484	0.0140738
860.562	0.0140639
860.640	0.0140989
860.718	0.0141192
860.796	0.0139513
860.874	0.0139041
860.953	0.0140086
861.031	0.0141656
861.109	0.0141454
861.187	0.0139828
861.265	0.0140862
861.343	0.0140150
861.421	0.0140169
861.499	0.0141343
861.578	0.0139765
861.656	0.0141053
861.734	0.0141334
861.812	0.0140533
861.890	0.0140142
861.968	0.0139426
862.046	0.0140194
862.124	0.0138863
862.203	0.0139120
862.281	0.0138082
862.359	0.0138985
862.437	0.0140278
862.515	0.0140380
862.593	0.0140333
862.671	0.0140864
862.749	0.0140060
862.828	0.0140520
862.906	0.0139943
862.984	0.0140132
863.062	0.0140503
863.140	0.0139828
863.218	0.0139990
863.296	0.0140477
863.374	0.0141096
863.453	0.0139487
863.531	0.0140483
863.609	0.0140170
863.687	0.0141531
863.765	0.0139856
863.843	0.0139584
863.921	0.0140546
863.999	0.0140830
864.078	0.0139977
864.156	0.0138837
864.234	0.0139906
864.312	0.0139991
864.390	0.0141021
864.468	0.0139774
864.546	0.0140264
864.624	0.0140353
864.703	0.0138966
864.781	0.0140775
864.859	0.0142809
864.937	0.0141506
865.015	0.0140900
865.093	0.0142006
865.171	0.0141089
865.249	0.0140678
865.328	0.0140450
865.406	0.0141733
865.484	0.0142374
865.562	0.0141259
865.640	0.0139782
865.718	0.0140995
865.796	0.0140109
865.874	0.0139929
865.953	0.0140977
866.031	0.0142081
866.109	0.0140831
866.187	0.0140811
866.265	0.0139317
866.343	0.0141048
866.421	0.0140709
866.499	0.0141978
866.578	0.0141424
866.656	0.0142039
866.734	0.0139515
866.812	0.0141019
866.890	0.0139161
866.968	0.0142317
867.046	0.0141573
867.124	0.0140353
867.203	0.0141885
867.281	0.0140453
867.359	0.0141047
867.437	0.0141679
867.515	0.0141031
867.593	0.0141299
867.671	0.0140518
867.749	0.0139738
867.828	0.0140966
867.906	0.0141811
867.984	0.0141148
868.062	0.0141351
868.140	0.0139213
868.218	0.0140749
868.296	0.0139597
868.374	0.0139851
868.453	0.0140007
868.531	0.0140839
868.609	0.0140124
868.687	0.0139868
868.765	0.0140353
868.843	0.0140612
868.921	0.0139761
868.999	0.0140002
869.078	0.0141272
869.156	0.0139967
869.234	0.0139837
869.312	0.0140930
869.390	0.0141689
869.468	0.0141203
869.546	0.0140770
869.624	0.0139948
869.703	0.0141479
869.781	0.0140460
869.859	0.0140659
869.937	0.0140982
870.015	0.0142226
870.093	0.0140990
870.171	0.0140410
870.249	0.0139909
870.328	0.0140221
870.406	0.0141454
870.484	0.0141579
870.562	0.0139420
870.640	0.0140571
870.718	0.0139608
870.796	0.0140849
870.874	0.0140504
870.953	0.0138696
871.031	0.0139557
871.109	0.0140125
871.187	0.0140927
871.265	0.0139473
871.343	0.0140153
871.421	0.0139395
871.499	0.0140357
871.578	0.0139404
871.656	0.0140105
871.734	0.0139858
871.812	0.0139429
871.890	0.0139679
871.968	0.0140774
872.046	0.0140271
872.124	0.0140074
872.203	0.0140017
872.281	0.0140414
872.359	0.0139791
872.437	0.0138663
872.515	0.0141026
872.593	0.0139650
872.671	0.0139011
872.749	0.0139589
872.828	0.0139598
872.906	0.0139323
872.984	0.0137762
873.062	0.0139496
873.140	0.0139409
873.218	0.0140228
873.296	0.0140058
873.374	0.0140752
873.453	0.0140101
873.531	0.0139921
873.609	0.0139917
873.687	0.0140089
873.765	0.0139831
873.843	0.0139455
873.921	0.0139796
873.999	0.0139520
874.078	0.0140324
874.156	0.0140247
874.234	0.0139335
874.312	0.0138780
874.390	0.0138843
874.468	0.0138596
874.546	0.0138464
874.624	0.0139682
874.703	0.0138511
874.781	0.0140527
874.859	0.0139587
874.937	0.0138745
875.015	0.0139535
875.093	0.0139568
875.171	0.0140077
875.249	0.0138819
875.328	0.0139731
875.406	0.0140911
875.484	0.0138544
875.562	0.0141349
875.640	0.0139827
875.718	0.0139177
875.796	0.0140813
875.874	0.0139770
875.953	0.0139519
876.031	0.0139023
876.109	0.0140846
876.187	0.0138850
876.265	0.0138784
876.343	0.0139319
876.421	0.0140257
876.499	0.0138896
876.578	0.0140141
876.656	0.0139925
876.734	0.0139454
876.812	0.0140340
876.890	0.0139650
876.968	0.0139977
877.046	0.0140639
877.124	0.0141079
877.203	0.0140209
877.281	0.0139636
877.359	0.0140150
877.437	0.0140746
877.515	0.0140334
877.593	0.0140988
877.671	0.0140498
877.749	0.0141261
877.828	0.0139384
877.906	0.0140011
877.984	0.0141051
878.062	0.0140506
878.140	0.0138943
878.218	0.0139840
878.296	0.0139481
878.374	0.0139606
878.453	0.0140798
878.531	0.0139432
878.609	0.0140688
878.687	0.0140591
878.765	0.0140289
878.843	0.0139339
878.921	0.0139416
878.999	0.0138198
879.078	0.0139585
879.156	0.0140917
879.234	0.0140047
879.312	0.0140665
879.390	0.0140091
879.468	0.0139828
879.546	0.0141087
879.624	0.0139274
879.703	0.0140132
879.781	0.0138821
879.859	0.0139093
879.937	0.0140328
880.015	0.0138631
880.093	0.0138287
880.171	0.0138341
880.249	0.0139786
880.328	0.0139280
880.406	0.0139492
880.484	0.0139622
880.562	0.0139467
880.640	0.0140002
880.718	0.0139663
880.796	0.0139980
880.874	0.0141018
880.953	0.0140034
881.031	0.0140573
881.109	0.0140371
881.187	0.0141064
881.265	0.0141631
881.343	0.0141335
881.421	0.0139868
881.499	0.0140878
881.578	0.0141181
881.656	0.0140833
881.734	0.0141252
881.812	0.0140624
881.890	0.0141033
881.968	0.0140298
882.046	0.0141244
882.124	0.0140972
882.203	0.0140195
882.281	0.0141188
882.359	0.0140073
882.437	0.0139874
882.515	0.0140364
882.593	0.0139928
882.671	0.0139779
882.749	0.0141066
882.828	0.0139445
882.906	0.0138781
882.984	0.0140597
883.062	0.0140323
883.140	0.0141272
883.218	0.0140737
883.296	0.0140203
883.374	0.0140135
883.453	0.0141152
883.531	0.0141229
883.609	0.0141051
883.687	0.0139429
883.765	0.0138837
883.843	0.0140004
883.921	0.0141257
883.999	0.0141156
884.078	0.0140062
884.156	0.0139775
884.234	0.0139935
884.312	0.0139445
884.390	0.0139305
884.468	0.0140523
884.546	0.0139717
884.624	0.0139134
884.703	0.0139803
884.781	0.0141631
884.859	0.0140993
884.937	0.0140358
885.015	0.0139931
885.093	0.0139506
885.171	0.0139538
885.249	0.0139007
885.328	0.0140274
885.406	0.0139550
885.484	0.0140667
885.562	0.0139856
885.640	0.0139145
885.718	0.0138916
885.796	0.0140255
885.874	0.0139839
885.953	0.0139751
886.031	0.0139816
886.109	0.0140356
886.187	0.0140491
886.265	0.0139902
886.343	0.0139686
886.421	0.0140072
886.499	0.0141396
886.578	0.0140288
886.656	0.0139835
886.734	0.0140533
886.812	0.0140695
886.890	0.0140562
886.968	0.0139793
887.046	0.0140317
887.124	0.0141161
887.203	0.0141235
887.281	0.0139953
887.359	0.0138587
887.437	0.0140504
887.515	0.0139825
887.593	0.0140131
887.671	0.0140134
887.749	0.0140417
887.828	0.0140907
887.906	0.0141329
887.984	0.0139854
888.062	0.0140559
888.140	0.0140768
888.218	0.0140816
888.296	0.0140052
888.374	0.0139207
888.453	0.0140159
888.531	0.0139568
888.609	0.0140179
888.687	0.0139091
888.765	0.0140789
888.843	0.0138383
888.921	0.0139000
888.999	0.0140122
889.078	0.0140094
889.156	0.0139561
889.234	0.0140016
889.312	0.0141149
889.390	0.0140683
889.468	0.0139902
889.546	0.0140181
889.624	0.0140369
889.703	0.0140430
889.781	0.0139304
889.859	0.0139860
889.937	0.0140063
890.015	0.0140016
890.093	0.0138863
890.171	0.0139410
890.249	0.0140659
890.328	0.0140800
890.406	0.0140008
890.484	0.0139151
890.562	0.0140096
890.640	0.0137616
890.718	0.0138865
890.796	0.0140447
890.874	0.0139462
890.953	0.0138923
891.031	0.0139812
891.109	0.0140285
891.187	0.0140334
891.265	0.0140357
891.343	0.0140265
891.421	0.0140696
891.499	0.0139717
891.578	0.0140671
891.656	0.0141106
891.734	0.0141365
891.812	0.0140671
891.890	0.0141000
891.968	0.0140803
892.046	0.0140351
892.124	0.0139707
892.203	0.0139079
892.281	0.0139860
892.359	0.0139761
892.437	0.0140440
892.515	0.0140387
892.593	0.0139775
892.671	0.0140553
892.749	0.0139547
892.828	0.0140775
892.906	0.0141095
892.984	0.0138999
893.062	0.0138761
893.140	0.0139317
893.218	0.0140396
893.296	0.0140613
893.374	0.0141670
893.453	0.0140748
893.531	0.0140482
893.609	0.0139208
893.687	0.0139581
893.765	0.0138964
893.843	0.0138391
893.921	0.0138203
893.999	0.0139248
894.078	0.0139988
894.156	0.0139767
894.234	0.0139911
894.312	0.0139347
894.390	0.0139863
894.468	0.0139059
894.546	0.0141106
894.624	0.0140039
894.703	0.0139983
894.781	0.0140800
894.859	0.0138207
894.937	0.0138586
895.015	0.0141615
895.093	0.0140924
895.171	0.0139099
895.249	0.0139819
895.328	0.0140959
895.406	0.0140345
895.484	0.0140579
895.562	0.0139453
895.640	0.0141347
895.718	0.0139854
895.796	0.0140878
895.874	0.0140282
895.953	0.0139695
896.031	0.0139490
896.109	0.0140549
896.187	0.0140755
896.265	0.0139590
896.343	0.0141353
896.421	0.0139915
896.499	0.0138372
896.578	0.0139537
896.656	0.0139935
896.734	0.0140076
896.812	0.0140398
896.890	0.0140070
896.968	0.0139473
897.046	0.0141033
897.124	0.0140166
897.203	0.0139539
897.281	0.0140669
897.359	0.0139751
897.437	0.0139996
897.515	0.0139683
897.593	0.0139111
897.671	0.0139236
897.749	0.0140092
897.828	0.0139508
897.906	0.0140554
897.984	0.0140350
898.062	0.0139574
898.140	0.0142215
898.218	0.0139860
898.296	0.0140401
898.374	0.0141168
898.453	0.0141282
898.531	0.0141562
898.609	0.0139941
898.687	0.0141103
898.765	0.0140965
898.843	0.0140756
898.921	0.0139802
898.999	0.0140704
899.078	0.0140052
899.156	0.0140583
899.234	0.0141277
899.312	0.0140105
899.390	0.0139618
899.468	0.0139841
899.546	0.0140530
899.624	0.0140230
899.703	0.0140618
899.781	0.0140755
899.859	0.0139793
899.937	0.0139907
900.015	0.0140245
900.093	0.0139762
900.171	0.0140350
900.249	0.0140591
900.328	0.0139140
900.406	0.0141159
900.484	0.0139787
900.562	0.0139631
900.640	0.0141151
900.718	0.0139909
900.796	0.0140263
900.874	0.0140223
900.953	0.0140742
901.031	0.0140027
901.109	0.0139160
901.187	0.0139108
901.265	0.0141241
901.343	0.0140433
901.421	0.0138769
901.499	0.0140476
901.578	0.0139623
901.656	0.0139333
901.734	0.0139935
901.812	0.0141536
901.890	0.0139793
901.968	0.0139984
902.046	0.0140366
902.124	0.0140600
902.203	0.0139484
902.281	0.0140803
902.359	0.0139788
902.437	0.0139542
902.515	0.0138893
902.593	0.0140848
902.671	0.0140891
902.749	0.0139507
902.828	0.0140691
902.906	0.0138491
902.984	0.0139198
903.062	0.0139302
903.140	0.0139840
903.218	0.0139105
903.296	0.0138200
903.374	0.0140024
903.453	0.0139651
903.531	0.0139444
903.609	0.0139523
903.687	0.0139585
903.765	0.0139495
903.843	0.0138536
903.921	0.0139220
903.999	0.0140171
904.078	0.0139027
904.156	0.0140453
904.234	0.0139661
904.312	0.0140403
904.390	0.0139439
904.468	0.0140330
904.546	0.0138773
904.624	0.0139428
904.703	0.0141418
904.781	0.0140421
904.859	0.0138965
904.937	0.0140518
905.015	0.0140550
905.093	0.0140433
905.171	0.0139532
905.249	0.0138237
905.328	0.0138312
905.406	0.0139325
905.484	0.0140892
905.562	0.0140145
905.640	0.0139600
905.718	0.0139740
905.796	0.0141216
905.874	0.0140806
905.953	0.0140202
906.031	0.0139692
906.109	0.0141302
906.187	0.0140257
906.265	0.0141034
906.343	0.0140877
906.421	0.0140438
906.499	0.0140598
906.578	0.0141063
906.656	0.0140612
906.734	0.0140228
906.812	0.0140218
906.890	0.0140519
906.968	0.0139486
907.046	0.0140907
907.124	0.0141354
907.203	0.0140361
907.281	0.0140403
907.359	0.0139969
907.437	0.0140076
907.515	0.0138923
907.593	0.0140574
907.671	0.0139354
907.749	0.0140366
907.828	0.0139356
907.906	0.0140467
907.984	0.0141187
908.062	0.0141560
908.140	0.0140956
908.218	0.0140455
908.296	0.0139442
908.374	0.0140322
908.453	0.0140578
908.531	0.0139845
908.609	0.0139902
908.687	0.0139810
908.765	0.0139072
908.843	0.0138544
908.921	0.0137920
908.999	0.0139856
909.078	0.0140845
909.156	0.0138648
909.234	0.0139327
909.312	0.0139416
909.390	0.0138670
909.468	0.0138956
909.546	0.0137621
909.624	0.0137845
909.703	0.0139952
909.781	0.0139693
909.859	0.0139516
909.937	0.0139267
910.015	0.0139238
910.093	0.0139902
910.171	0.0140178
910.249	0.0139634
910.328	0.0138566
910.406	0.0137288
910.484	0.0138304
910.562	0.0139548
910.640	0.0137972
910.718	0.0138071
910.796	0.0139315
910.874	0.0138704
910.953	0.0139284
911.031	0.0138580
911.109	0.0138537
911.187	0.0139159
911.265	0.0139315
911.343	0.0138509
911.421	0.0139133
911.499	0.0139447
911.578	0.0139558
911.656	0.0138533
911.734	0.0138911
911.812	0.0140648
911.890	0.0138590
911.968	0.0138786
912.046	0.0140363
912.124	0.0139643
912.203	0.0138608
912.281	0.0140512
912.359	0.0141029
912.437	0.0139469
912.515	0.0139972
912.593	0.0139776
912.671	0.0141180
912.749	0.0139408
912.828	0.0140232
912.906	0.0140341
912.984	0.0140865
913.062	0.0141029
913.140	0.0139858
913.218	0.0140324
913.296	0.0139495
913.374	0.0140131
913.453	0.0141343
913.531	0.0139762
913.609	0.0140997
913.687	0.0140494
913.765	0.0139899
913.843	0.0139465
913.921	0.0139387
913.999	0.0139680
914.078	0.0140262
914.156	0.0140125
914.234	0.0138670
914.312	0.0140160
914.390	0.0140533
914.468	0.0141340
914.546	0.0139867
914.624	0.0140704
914.703	0.0139518
914.781	0.0139852
914.859	0.0139919
914.937	0.0140154
915.015	0.0140472
915.093	0.0140425
915.171	0.0140127
915.249	0.0140899
915.328	0.0139789
915.406	0.0140397
915.484	0.0141198
915.562	0.0139688
915.640	0.0139525
915.718	0.0140731
915.796	0.0138735
915.874	0.0140032
915.953	0.0141068
916.031	0.0140938
916.109	0.0140539
916.187	0.0139835
916.265	0.0141031
916.343	0.0140475
916.421	0.0139598
916.499	0.0141228
916.578	0.0141409
916.656	0.0141956
916.734	0.0141294
916.812	0.0141007
916.890	0.0141428
916.968	0.0142355
917.046	0.0140708
917.124	0.0139619
917.203	0.0140876
917.281	0.0141359
917.359	0.0140603
917.437	0.0140469
917.515	0.0141705
917.593	0.0141280
917.671	0.0140184
917.749	0.0140913
917.828	0.0139748
917.906	0.0139825
917.984	0.0140658
918.062	0.0141911
918.140	0.0141397
918.218	0.0141114
918.296	0.0140650
918.374	0.0140352
918.453	0.0140703
918.531	0.0138905
918.609	0.0139264
918.687	0.0139398
918.765	0.0140197
918.843	0.0140552
918.921	0.0143809
918.999	0.0141570
919.078	0.0141854
919.156	0.0139774
919.234	0.0141679
919.312	0.0141181
919.390	0.0141505
919.468	0.0140149
919.546	0.0141219
919.624	0.0141738
919.703	0.0141669
919.781	0.0140689
919.859	0.0141776
919.937	0.0142879
