05/06/2022	18:40:23	Ver.	4.1	UNKNOWN
Optical Delay	600.015094	Delta X		0.078125	Sweeps	1	Scan Rate	0/0
Coordinates	Axis 1	NaN	Axis 2	NaN	Axis 3	NaN	Axis 4	NaN	Axis 5	NaN	Axis 6	0.000000
TX Power	0.000000	RX Power	0.000000

600.015	0.0134939
600.093	0.0134240
600.171	0.0134828
600.249	0.0134161
600.328	0.0135045
600.406	0.0136172
600.484	0.0134070
600.562	0.0134566
600.640	0.0135438
600.718	0.0135136
600.796	0.0135378
600.874	0.0135281
600.953	0.0134095
601.031	0.0135258
601.109	0.0135074
601.187	0.0134852
601.265	0.0135328
601.343	0.0135907
601.421	0.0133305
601.499	0.0133801
601.578	0.0135915
601.656	0.0135261
601.734	0.0135290
601.812	0.0135793
601.890	0.0134771
601.968	0.0133015
602.046	0.0135634
602.124	0.0135974
602.203	0.0134750
602.281	0.0134364
602.359	0.0134683
602.437	0.0135084
602.515	0.0134996
602.593	0.0134723
602.671	0.0135140
602.749	0.0135612
602.828	0.0135312
602.906	0.0133516
602.984	0.0134091
603.062	0.0132684
603.140	0.0135487
603.218	0.0134754
603.296	0.0134106
603.374	0.0135286
603.453	0.0134320
603.531	0.0133929
603.609	0.0136095
603.687	0.0134657
603.765	0.0133665
603.843	0.0134710
603.921	0.0133250
603.999	0.0134455
604.078	0.0135838
604.156	0.0134982
604.234	0.0134066
604.312	0.0135396
604.390	0.0134248
604.468	0.0135365
604.546	0.0134373
604.624	0.0135174
604.703	0.0135282
604.781	0.0134869
604.859	0.0134795
604.937	0.0134908
605.015	0.0135218
605.093	0.0135057
605.171	0.0134441
605.249	0.0135065
605.328	0.0135562
605.406	0.0134956
605.484	0.0134901
605.562	0.0135658
605.640	0.0136059
605.718	0.0134267
605.796	0.0134419
605.874	0.0136613
605.953	0.0134614
606.031	0.0136333
606.109	0.0136357
606.187	0.0134543
606.265	0.0135458
606.343	0.0135137
606.421	0.0135129
606.499	0.0135295
606.578	0.0135696
606.656	0.0135165
606.734	0.0136481
606.812	0.0135783
606.890	0.0134627
606.968	0.0135175
607.046	0.0134035
607.124	0.0135811
607.203	0.0134518
607.281	0.0134283
607.359	0.0135170
607.437	0.0133972
607.515	0.0133994
607.593	0.0134357
607.671	0.0135060
607.749	0.0135415
607.828	0.0134909
607.906	0.0135913
607.984	0.0134126
608.062	0.0134076
608.140	0.0135456
608.218	0.0135683
608.296	0.0134650
608.374	0.0135087
608.453	0.0135329
608.531	0.0135580
608.609	0.0135098
608.687	0.0134737
608.765	0.0135882
608.843	0.0136011
608.921	0.0133831
608.999	0.0134931
609.078	0.0135505
609.156	0.0135108
609.234	0.0135139
609.312	0.0134477
609.390	0.0135451
609.468	0.0134488
609.546	0.0135271
609.624	0.0135306
609.703	0.0135484
609.781	0.0135721
609.859	0.0135722
609.937	0.0135088
610.015	0.0134811
610.093	0.0135124
610.171	0.0134680
610.249	0.0135300
610.328	0.0135146
610.406	0.0135888
610.484	0.0135272
610.562	0.0134622
610.640	0.0134862
610.718	0.0135420
610.796	0.0134782
610.874	0.0135429
610.953	0.0135023
611.031	0.0134914
611.109	0.0134821
611.187	0.0134639
611.265	0.0135291
611.343	0.0136415
611.421	0.0135344
611.499	0.0134603
611.578	0.0136297
611.656	0.0135966
611.734	0.0135243
611.812	0.0135485
611.890	0.0134932
611.968	0.0134861
612.046	0.0135072
612.124	0.0136938
612.203	0.0134183
612.281	0.0133983
612.359	0.0134747
612.437	0.0135036
612.515	0.0136050
612.593	0.0135265
612.671	0.0134938
612.749	0.0134742
612.828	0.0132599
612.906	0.0133611
612.984	0.0135379
613.062	0.0136125
613.140	0.0134946
613.218	0.0134644
613.296	0.0134255
613.374	0.0134019
613.453	0.0134473
613.531	0.0133968
613.609	0.0133817
613.687	0.0134477
613.765	0.0134168
613.843	0.0135959
613.921	0.0135338
613.999	0.0135732
614.078	0.0136731
614.156	0.0134849
614.234	0.0134669
614.312	0.0135403
614.390	0.0135017
614.468	0.0135848
614.546	0.0136816
614.624	0.0135577
614.703	0.0135015
614.781	0.0132899
614.859	0.0133961
614.937	0.0135989
615.015	0.0136655
615.093	0.0135500
615.171	0.0134093
615.249	0.0135506
615.328	0.0135213
615.406	0.0134800
615.484	0.0135933
615.562	0.0135342
615.640	0.0134270
615.718	0.0136517
615.796	0.0135483
615.874	0.0134692
615.953	0.0135727
616.031	0.0136056
616.109	0.0135102
616.187	0.0135007
616.265	0.0134016
616.343	0.0134132
616.421	0.0134654
616.499	0.0135835
616.578	0.0135152
616.656	0.0135522
616.734	0.0134399
616.812	0.0135197
616.890	0.0134725
616.968	0.0134645
617.046	0.0135554
617.124	0.0135494
617.203	0.0135005
617.281	0.0134782
617.359	0.0135561
617.437	0.0135155
617.515	0.0135259
617.593	0.0134745
617.671	0.0134825
617.749	0.0134532
617.828	0.0136019
617.906	0.0136156
617.984	0.0134582
618.062	0.0135602
618.140	0.0135246
618.218	0.0135504
618.296	0.0134978
618.374	0.0135365
618.453	0.0136369
618.531	0.0134874
618.609	0.0135194
618.687	0.0135236
618.765	0.0134837
618.843	0.0135137
618.921	0.0134499
618.999	0.0133778
619.078	0.0133128
619.156	0.0136092
619.234	0.0135553
619.312	0.0135541
619.390	0.0135014
619.468	0.0134129
619.546	0.0135601
619.624	0.0135165
619.703	0.0134945
619.781	0.0134085
619.859	0.0135979
619.937	0.0134491
620.015	0.0133319
620.093	0.0134571
620.171	0.0134888
620.249	0.0134521
620.328	0.0135229
620.406	0.0135672
620.484	0.0134300
620.562	0.0135776
620.640	0.0135653
620.718	0.0134223
620.796	0.0134375
620.874	0.0134390
620.953	0.0134772
621.031	0.0134147
621.109	0.0135648
621.187	0.0134201
621.265	0.0134588
621.343	0.0134496
621.421	0.0135587
621.499	0.0135397
621.578	0.0135648
621.656	0.0135336
621.734	0.0135075
621.812	0.0134444
621.890	0.0135440
621.968	0.0135063
622.046	0.0135336
622.124	0.0134515
622.203	0.0135596
622.281	0.0134323
622.359	0.0134078
622.437	0.0134739
622.515	0.0134689
622.593	0.0135080
622.671	0.0135216
622.749	0.0134438
622.828	0.0133705
622.906	0.0134957
622.984	0.0134867
623.062	0.0134988
623.140	0.0136074
623.218	0.0136346
623.296	0.0135728
623.374	0.0133868
623.453	0.0135015
623.531	0.0134608
623.609	0.0134237
623.687	0.0135043
623.765	0.0134549
623.843	0.0135224
623.921	0.0134602
623.999	0.0134930
624.078	0.0134812
624.156	0.0134624
624.234	0.0134680
624.312	0.0134859
624.390	0.0134870
624.468	0.0134464
624.546	0.0133511
624.624	0.0135541
624.703	0.0135828
624.781	0.0134130
624.859	0.0136174
624.937	0.0135493
625.015	0.0134246
625.093	0.0135073
625.171	0.0134943
625.249	0.0135375
625.328	0.0136365
625.406	0.0135383
625.484	0.0135574
625.562	0.0134428
625.640	0.0134253
625.718	0.0135930
625.796	0.0135388
625.874	0.0135354
625.953	0.0135009
626.031	0.0135880
626.109	0.0135564
626.187	0.0135169
626.265	0.0135321
626.343	0.0135612
626.421	0.0135162
626.499	0.0134546
626.578	0.0134583
626.656	0.0136251
626.734	0.0136217
626.812	0.0134990
626.890	0.0134955
626.968	0.0136607
627.046	0.0135790
627.124	0.0135886
627.203	0.0135538
627.281	0.0135023
627.359	0.0135200
627.437	0.0135841
627.515	0.0133609
627.593	0.0135050
627.671	0.0133479
627.749	0.0134809
627.828	0.0135338
627.906	0.0136330
627.984	0.0134650
628.062	0.0135459
628.140	0.0135561
628.218	0.0134585
628.296	0.0136297
628.374	0.0135432
628.453	0.0135044
628.531	0.0135348
628.609	0.0135637
628.687	0.0133862
628.765	0.0134030
628.843	0.0135262
628.921	0.0135117
628.999	0.0134573
629.078	0.0134106
629.156	0.0136092
629.234	0.0134657
629.312	0.0134323
629.390	0.0135050
629.468	0.0134594
629.546	0.0134303
629.624	0.0136028
629.703	0.0134956
629.781	0.0135152
629.859	0.0135703
629.937	0.0134436
630.015	0.0135139
630.093	0.0134720
630.171	0.0135748
630.249	0.0135504
630.328	0.0134960
630.406	0.0134898
630.484	0.0134797
630.562	0.0135257
630.640	0.0134330
630.718	0.0135939
630.796	0.0135116
630.874	0.0134667
630.953	0.0135966
631.031	0.0135088
631.109	0.0133940
631.187	0.0134883
631.265	0.0134717
631.343	0.0134189
631.421	0.0134914
631.499	0.0134832
631.578	0.0135375
631.656	0.0134800
631.734	0.0134651
631.812	0.0134525
631.890	0.0133237
631.968	0.0133873
632.046	0.0136735
632.124	0.0135403
632.203	0.0135188
632.281	0.0135159
632.359	0.0134951
632.437	0.0135210
632.515	0.0135511
632.593	0.0134803
632.671	0.0135705
632.749	0.0134749
632.828	0.0134547
632.906	0.0136078
632.984	0.0135512
633.062	0.0135603
633.140	0.0135280
633.218	0.0134930
633.296	0.0135933
633.374	0.0134955
633.453	0.0135282
633.531	0.0135780
633.609	0.0134734
633.687	0.0135786
633.765	0.0135114
633.843	0.0134975
633.921	0.0135784
633.999	0.0134765
634.078	0.0134637
634.156	0.0134716
634.234	0.0134640
634.312	0.0134761
634.390	0.0135072
634.468	0.0134734
634.546	0.0134629
634.624	0.0134637
634.703	0.0134610
634.781	0.0134843
634.859	0.0134142
634.937	0.0134785
635.015	0.0133760
635.093	0.0134264
635.171	0.0134967
635.249	0.0134431
635.328	0.0134496
635.406	0.0134334
635.484	0.0133475
635.562	0.0134093
635.640	0.0134775
635.718	0.0134840
635.796	0.0134251
635.874	0.0135342
635.953	0.0134188
636.031	0.0133678
636.109	0.0134811
636.187	0.0134851
636.265	0.0135084
636.343	0.0133725
636.421	0.0133778
636.499	0.0134273
636.578	0.0136308
636.656	0.0133667
636.734	0.0133191
636.812	0.0134407
636.890	0.0134351
636.968	0.0135235
637.046	0.0135683
637.124	0.0134817
637.203	0.0134512
637.281	0.0135610
637.359	0.0134879
637.437	0.0135580
637.515	0.0135130
637.593	0.0134418
637.671	0.0135453
637.749	0.0134657
637.828	0.0135201
637.906	0.0134867
637.984	0.0135400
638.062	0.0134318
638.140	0.0136033
638.218	0.0134959
638.296	0.0134554
638.374	0.0133782
638.453	0.0135261
638.531	0.0134606
638.609	0.0134759
638.687	0.0135945
638.765	0.0134967
638.843	0.0135081
638.921	0.0135343
638.999	0.0135536
639.078	0.0135132
639.156	0.0133571
639.234	0.0135090
639.312	0.0134653
639.390	0.0135883
639.468	0.0136125
639.546	0.0134987
639.624	0.0134311
639.703	0.0135009
639.781	0.0134495
639.859	0.0136052
639.937	0.0136817
640.015	0.0134458
640.093	0.0134424
640.171	0.0135624
640.249	0.0134966
640.328	0.0135503
640.406	0.0133710
640.484	0.0135117
640.562	0.0135465
640.640	0.0135553
640.718	0.0136533
640.796	0.0135220
640.874	0.0134830
640.953	0.0135111
641.031	0.0134948
641.109	0.0134336
641.187	0.0134222
641.265	0.0135110
641.343	0.0135698
641.421	0.0134425
641.499	0.0134689
641.578	0.0133984
641.656	0.0135895
641.734	0.0134747
641.812	0.0135413
641.890	0.0135667
641.968	0.0134528
642.046	0.0134898
642.124	0.0135506
642.203	0.0134837
642.281	0.0134685
642.359	0.0135192
642.437	0.0134852
642.515	0.0135418
642.593	0.0134724
642.671	0.0134343
642.749	0.0135135
642.828	0.0135510
642.906	0.0135776
642.984	0.0134387
643.062	0.0134976
643.140	0.0134722
643.218	0.0135335
643.296	0.0135315
643.374	0.0135214
643.453	0.0134210
643.531	0.0135749
643.609	0.0136042
643.687	0.0134213
643.765	0.0134984
643.843	0.0134458
643.921	0.0135092
643.999	0.0135535
644.078	0.0136321
644.156	0.0135069
644.234	0.0135307
644.312	0.0135480
644.390	0.0135128
644.468	0.0134424
644.546	0.0134937
644.624	0.0136327
644.703	0.0134866
644.781	0.0135191
644.859	0.0135156
644.937	0.0135241
645.015	0.0134958
645.093	0.0133846
645.171	0.0135456
645.249	0.0136207
645.328	0.0135174
645.406	0.0135161
645.484	0.0135022
645.562	0.0134522
645.640	0.0134687
645.718	0.0135206
645.796	0.0135643
645.874	0.0135860
645.953	0.0134175
646.031	0.0134264
646.109	0.0135300
646.187	0.0134190
646.265	0.0135896
646.343	0.0134253
646.421	0.0134016
646.499	0.0135233
646.578	0.0134813
646.656	0.0136416
646.734	0.0135342
646.812	0.0133719
646.890	0.0134896
646.968	0.0136103
647.046	0.0135483
647.124	0.0135196
647.203	0.0135377
647.281	0.0136336
647.359	0.0135828
647.437	0.0133746
647.515	0.0135027
647.593	0.0134684
647.671	0.0134460
647.749	0.0135057
647.828	0.0134809
647.906	0.0135386
647.984	0.0136524
648.062	0.0135616
648.140	0.0135113
648.218	0.0134999
648.296	0.0134666
648.374	0.0135542
648.453	0.0134705
648.531	0.0134377
648.609	0.0136162
648.687	0.0135326
648.765	0.0135294
648.843	0.0135643
648.921	0.0135448
648.999	0.0136361
649.078	0.0135365
649.156	0.0135760
649.234	0.0136132
649.312	0.0135348
649.390	0.0134421
649.468	0.0135939
649.546	0.0134955
649.624	0.0134255
649.703	0.0134135
649.781	0.0135476
649.859	0.0136205
649.937	0.0134922
650.015	0.0134801
650.093	0.0134946
650.171	0.0134599
650.249	0.0136196
650.328	0.0134940
650.406	0.0134690
650.484	0.0134895
650.562	0.0136150
650.640	0.0134855
650.718	0.0134808
650.796	0.0134604
650.874	0.0134793
650.953	0.0135715
651.031	0.0135142
651.109	0.0135149
651.187	0.0135788
651.265	0.0134784
651.343	0.0134857
651.421	0.0135947
651.499	0.0136549
651.578	0.0135419
651.656	0.0135075
651.734	0.0134164
651.812	0.0135674
651.890	0.0135451
651.968	0.0136054
652.046	0.0135340
652.124	0.0135156
652.203	0.0134074
652.281	0.0135088
652.359	0.0136344
652.437	0.0134248
652.515	0.0135419
652.593	0.0134641
652.671	0.0135589
652.749	0.0135425
652.828	0.0136266
652.906	0.0134470
652.984	0.0135415
653.062	0.0135605
653.140	0.0135123
653.218	0.0135308
653.296	0.0134899
653.374	0.0135586
653.453	0.0133092
653.531	0.0135042
653.609	0.0133875
653.687	0.0135151
653.765	0.0135090
653.843	0.0134826
653.921	0.0135658
653.999	0.0134919
654.078	0.0133419
654.156	0.0134174
654.234	0.0134637
654.312	0.0134541
654.390	0.0134281
654.468	0.0134003
654.546	0.0134672
654.624	0.0134151
654.703	0.0135370
654.781	0.0135627
654.859	0.0134921
654.937	0.0135280
655.015	0.0135690
655.093	0.0135556
655.171	0.0136295
655.249	0.0136160
655.328	0.0136520
655.406	0.0135882
655.484	0.0135141
655.562	0.0135473
655.640	0.0136294
655.718	0.0135406
655.796	0.0135443
655.874	0.0135757
655.953	0.0134362
656.031	0.0135458
656.109	0.0135627
656.187	0.0132552
656.265	0.0134299
656.343	0.0135487
656.421	0.0134319
656.499	0.0134870
656.578	0.0135741
656.656	0.0134394
656.734	0.0134393
656.812	0.0134129
656.890	0.0135003
656.968	0.0135188
657.046	0.0134396
657.124	0.0133485
657.203	0.0135136
657.281	0.0135750
657.359	0.0134265
657.437	0.0133801
657.515	0.0135385
657.593	0.0135289
657.671	0.0134435
657.749	0.0134808
657.828	0.0134969
657.906	0.0135092
657.984	0.0135287
658.062	0.0133819
658.140	0.0134406
658.218	0.0135887
658.296	0.0136577
658.374	0.0135607
658.453	0.0134647
658.531	0.0135451
658.609	0.0134402
658.687	0.0134820
658.765	0.0135690
658.843	0.0134538
658.921	0.0134497
658.999	0.0135107
659.078	0.0135167
659.156	0.0135011
659.234	0.0136699
659.312	0.0134147
659.390	0.0136615
659.468	0.0135760
659.546	0.0135325
659.624	0.0134409
659.703	0.0133982
659.781	0.0134911
659.859	0.0135630
659.937	0.0135239
660.015	0.0134698
660.093	0.0135236
660.171	0.0135505
660.249	0.0134888
660.328	0.0135531
660.406	0.0134809
660.484	0.0134023
660.562	0.0134026
660.640	0.0135714
660.718	0.0134181
660.796	0.0135067
660.874	0.0134622
660.953	0.0134943
661.031	0.0135723
661.109	0.0135488
661.187	0.0135374
661.265	0.0135002
661.343	0.0135854
661.421	0.0135721
661.499	0.0135434
661.578	0.0134628
661.656	0.0134196
661.734	0.0134608
661.812	0.0135625
661.890	0.0134658
661.968	0.0135451
662.046	0.0136408
662.124	0.0135244
662.203	0.0134698
662.281	0.0134290
662.359	0.0134292
662.437	0.0134436
662.515	0.0134294
662.593	0.0134476
662.671	0.0136118
662.749	0.0136039
662.828	0.0135028
662.906	0.0135044
662.984	0.0135106
663.062	0.0134469
663.140	0.0134814
663.218	0.0135264
663.296	0.0135974
663.374	0.0135061
663.453	0.0134711
663.531	0.0134150
663.609	0.0135459
663.687	0.0135537
663.765	0.0136237
663.843	0.0135129
663.921	0.0135644
663.999	0.0135997
664.078	0.0134026
664.156	0.0134886
664.234	0.0135356
664.312	0.0136510
664.390	0.0136243
664.468	0.0134386
664.546	0.0135989
664.624	0.0136525
664.703	0.0135194
664.781	0.0135157
664.859	0.0135312
664.937	0.0135329
665.015	0.0135168
665.093	0.0136531
665.171	0.0136096
665.249	0.0134317
665.328	0.0134924
665.406	0.0135609
665.484	0.0135610
665.562	0.0134006
665.640	0.0135387
665.718	0.0135583
665.796	0.0135708
665.874	0.0135814
665.953	0.0135249
666.031	0.0134756
666.109	0.0135627
666.187	0.0136228
666.265	0.0135071
666.343	0.0136095
666.421	0.0135275
666.499	0.0137039
666.578	0.0136861
666.656	0.0134872
666.734	0.0135188
666.812	0.0136358
666.890	0.0134577
666.968	0.0135005
667.046	0.0135557
667.124	0.0136086
667.203	0.0135881
667.281	0.0134508
667.359	0.0135336
667.437	0.0136247
667.515	0.0136472
667.593	0.0136208
667.671	0.0134112
667.749	0.0134614
667.828	0.0135426
667.906	0.0135071
667.984	0.0134586
668.062	0.0135491
668.140	0.0136520
668.218	0.0135509
668.296	0.0134082
668.374	0.0136650
668.453	0.0135322
668.531	0.0135201
668.609	0.0134811
668.687	0.0134342
668.765	0.0134383
668.843	0.0134882
668.921	0.0135658
668.999	0.0134136
669.078	0.0134576
669.156	0.0133646
669.234	0.0133524
669.312	0.0136303
669.390	0.0135079
669.468	0.0134322
669.546	0.0133853
669.624	0.0134180
669.703	0.0135448
669.781	0.0134704
669.859	0.0134921
669.937	0.0134785
670.015	0.0133710
670.093	0.0135269
670.171	0.0134647
670.249	0.0134607
670.328	0.0134862
670.406	0.0134035
670.484	0.0135147
670.562	0.0133661
670.640	0.0135075
670.718	0.0133088
670.796	0.0135251
670.874	0.0133534
670.953	0.0133547
671.031	0.0133804
671.109	0.0132730
671.187	0.0134429
671.265	0.0134000
671.343	0.0132104
671.421	0.0133199
671.499	0.0132954
671.578	0.0133823
671.656	0.0133727
671.734	0.0132951
671.812	0.0133809
671.890	0.0133360
671.968	0.0134424
672.046	0.0133022
672.124	0.0132876
672.203	0.0132934
672.281	0.0134248
672.359	0.0132793
672.437	0.0132294
672.515	0.0134285
672.593	0.0133215
672.671	0.0132067
672.749	0.0132352
672.828	0.0132044
672.906	0.0131454
672.984	0.0132871
673.062	0.0133093
673.140	0.0134080
673.218	0.0133443
673.296	0.0132284
673.374	0.0132832
673.453	0.0133000
673.531	0.0133818
673.609	0.0131713
673.687	0.0132781
673.765	0.0133836
673.843	0.0133778
673.921	0.0132422
673.999	0.0132362
674.078	0.0131900
674.156	0.0133530
674.234	0.0133686
674.312	0.0133566
674.390	0.0134259
674.468	0.0132910
674.546	0.0134368
674.624	0.0134900
674.703	0.0133990
674.781	0.0133657
674.859	0.0133782
674.937	0.0134747
675.015	0.0134089
675.093	0.0134568
675.171	0.0133516
675.249	0.0134343
675.328	0.0135414
675.406	0.0135625
675.484	0.0133459
675.562	0.0133105
675.640	0.0134517
675.718	0.0134296
675.796	0.0134401
675.874	0.0133041
675.953	0.0134837
676.031	0.0135122
676.109	0.0133673
676.187	0.0135797
676.265	0.0135194
676.343	0.0133952
676.421	0.0134344
676.499	0.0133784
676.578	0.0134200
676.656	0.0135598
676.734	0.0133970
676.812	0.0136552
676.890	0.0134296
676.968	0.0133049
677.046	0.0135963
677.124	0.0135823
677.203	0.0135605
677.281	0.0136879
677.359	0.0136443
677.437	0.0136053
677.515	0.0134724
677.593	0.0133916
677.671	0.0135737
677.749	0.0136576
677.828	0.0136180
677.906	0.0135750
677.984	0.0136354
678.062	0.0137589
678.140	0.0135379
678.218	0.0136127
678.296	0.0135611
678.374	0.0137198
678.453	0.0137022
678.531	0.0137292
678.609	0.0137794
678.687	0.0137577
678.765	0.0136419
678.843	0.0137100
678.921	0.0137258
678.999	0.0135986
679.078	0.0135930
679.156	0.0136710
679.234	0.0136933
679.312	0.0138315
679.390	0.0138153
679.468	0.0136667
679.546	0.0137074
679.624	0.0138118
679.703	0.0138304
679.781	0.0136861
679.859	0.0137637
679.937	0.0136638
680.015	0.0137594
680.093	0.0137797
680.171	0.0136101
680.249	0.0136588
680.328	0.0136501
680.406	0.0137819
680.484	0.0138094
680.562	0.0135946
680.640	0.0136393
680.718	0.0137597
680.796	0.0136800
680.874	0.0136646
680.953	0.0136895
681.031	0.0137488
681.109	0.0136956
681.187	0.0136763
681.265	0.0135834
681.343	0.0136671
681.421	0.0136683
681.499	0.0136841
681.578	0.0137772
681.656	0.0136737
681.734	0.0135720
681.812	0.0136932
681.890	0.0137212
681.968	0.0136867
682.046	0.0136298
682.124	0.0135658
682.203	0.0135267
682.281	0.0137100
682.359	0.0137576
682.437	0.0135365
682.515	0.0136036
682.593	0.0135284
682.671	0.0137032
682.749	0.0135746
682.828	0.0136706
682.906	0.0135871
682.984	0.0134953
683.062	0.0135004
683.140	0.0137310
683.218	0.0135572
683.296	0.0135492
683.374	0.0135903
683.453	0.0134340
683.531	0.0136127
683.609	0.0135529
683.687	0.0134922
683.765	0.0135204
683.843	0.0135599
683.921	0.0134454
683.999	0.0134613
684.078	0.0135275
684.156	0.0134259
684.234	0.0134706
684.312	0.0135356
684.390	0.0134438
684.468	0.0135365
684.546	0.0134864
684.624	0.0134856
684.703	0.0134274
684.781	0.0134773
684.859	0.0135430
684.937	0.0135122
685.015	0.0134719
685.093	0.0134062
685.171	0.0133241
685.249	0.0135390
685.328	0.0135316
685.406	0.0135060
685.484	0.0134525
685.562	0.0134964
685.640	0.0134759
685.718	0.0134368
685.796	0.0134074
685.874	0.0134107
685.953	0.0134585
686.031	0.0134906
686.109	0.0133428
686.187	0.0135008
686.265	0.0133705
686.343	0.0133860
686.421	0.0135614
686.499	0.0133614
686.578	0.0134374
686.656	0.0133836
686.734	0.0133893
686.812	0.0133170
686.890	0.0133685
686.968	0.0132721
687.046	0.0134816
687.124	0.0134122
687.203	0.0133553
687.281	0.0133589
687.359	0.0134362
687.437	0.0134703
687.515	0.0135887
687.593	0.0136478
687.671	0.0134754
687.749	0.0135239
687.828	0.0133956
687.906	0.0133437
687.984	0.0133656
688.062	0.0134122
688.140	0.0134283
688.218	0.0133280
688.296	0.0131539
688.374	0.0134090
688.453	0.0135152
688.531	0.0134354
688.609	0.0133992
688.687	0.0134801
688.765	0.0135758
688.843	0.0134313
688.921	0.0136369
688.999	0.0136871
689.078	0.0135439
689.156	0.0134805
689.234	0.0135786
689.312	0.0134306
689.390	0.0135640
689.468	0.0134870
689.546	0.0134737
689.624	0.0135583
689.703	0.0136958
689.781	0.0134660
689.859	0.0136381
689.937	0.0136951
690.015	0.0137414
690.093	0.0137355
690.171	0.0137902
690.249	0.0137368
690.328	0.0136118
690.406	0.0135548
690.484	0.0134962
690.562	0.0132894
690.640	0.0133603
690.718	0.0131697
690.796	0.0132125
690.874	0.0131569
690.953	0.0131970
691.031	0.0131545
691.109	0.0132146
691.187	0.0133859
691.265	0.0134196
691.343	0.0135390
691.421	0.0135723
691.499	0.0136826
691.578	0.0138347
691.656	0.0138530
691.734	0.0139229
691.812	0.0139017
691.890	0.0139594
691.968	0.0138948
692.046	0.0138434
692.124	0.0135749
692.203	0.0135337
692.281	0.0135323
692.359	0.0135146
692.437	0.0133686
692.515	0.0133065
692.593	0.0131908
692.671	0.0131993
692.749	0.0131931
692.828	0.0131374
692.906	0.0131834
692.984	0.0132690
693.062	0.0132014
693.140	0.0133363
693.218	0.0134512
693.296	0.0135312
693.374	0.0135750
693.453	0.0136449
693.531	0.0136343
693.609	0.0137355
693.687	0.0136525
693.765	0.0135023
693.843	0.0135227
693.921	0.0135882
693.999	0.0135477
694.078	0.0135300
694.156	0.0132677
694.234	0.0133868
694.312	0.0133278
694.390	0.0133560
694.468	0.0131703
694.546	0.0133422
694.624	0.0134724
694.703	0.0132915
694.781	0.0133928
694.859	0.0133025
694.937	0.0132628
695.015	0.0134431
695.093	0.0134724
695.171	0.0135029
695.249	0.0135308
695.328	0.0134766
695.406	0.0136069
695.484	0.0135340
695.562	0.0135714
695.640	0.0135618
695.718	0.0134970
695.796	0.0136099
695.874	0.0136829
695.953	0.0137589
696.031	0.0136599
696.109	0.0135297
696.187	0.0135444
696.265	0.0133907
696.343	0.0134860
696.421	0.0133327
696.499	0.0133580
696.578	0.0131635
696.656	0.0130822
696.734	0.0131505
696.812	0.0131536
696.890	0.0130154
696.968	0.0131094
697.046	0.0132848
697.124	0.0131297
697.203	0.0131726
697.281	0.0131703
697.359	0.0132632
697.437	0.0133684
697.515	0.0135937
697.593	0.0134547
697.671	0.0135837
697.749	0.0135967
697.828	0.0135086
697.906	0.0135838
697.984	0.0135531
698.062	0.0134748
698.140	0.0135229
698.218	0.0135381
698.296	0.0133202
698.374	0.0133966
698.453	0.0134247
698.531	0.0132204
698.609	0.0134144
698.687	0.0134258
698.765	0.0133604
698.843	0.0135250
698.921	0.0133761
698.999	0.0134830
699.078	0.0134829
699.156	0.0136121
699.234	0.0135966
699.312	0.0135738
699.390	0.0135223
699.468	0.0135732
699.546	0.0136205
699.624	0.0136346
699.703	0.0136039
699.781	0.0135969
699.859	0.0136460
699.937	0.0135368
700.015	0.0134654
700.093	0.0134760
700.171	0.0134007
700.249	0.0133757
700.328	0.0133987
700.406	0.0133154
700.484	0.0132916
700.562	0.0132975
700.640	0.0132995
700.718	0.0132767
700.796	0.0132291
700.874	0.0132200
700.953	0.0134585
701.031	0.0133910
701.109	0.0133736
701.187	0.0133895
701.265	0.0135101
701.343	0.0135882
701.421	0.0134691
701.499	0.0134419
701.578	0.0135632
701.656	0.0135154
701.734	0.0136254
701.812	0.0137799
701.890	0.0136890
701.968	0.0136717
702.046	0.0135057
702.124	0.0136081
702.203	0.0136205
702.281	0.0136636
702.359	0.0136028
702.437	0.0136616
702.515	0.0135136
702.593	0.0135987
702.671	0.0133739
702.749	0.0134205
702.828	0.0132098
702.906	0.0132202
702.984	0.0133208
703.062	0.0131843
703.140	0.0133053
703.218	0.0132774
703.296	0.0131195
703.374	0.0133079
703.453	0.0133837
703.531	0.0133041
703.609	0.0133528
703.687	0.0134567
703.765	0.0135336
703.843	0.0135074
703.921	0.0135228
703.999	0.0135713
704.078	0.0136283
704.156	0.0137747
704.234	0.0137433
704.312	0.0136761
704.390	0.0137860
704.468	0.0139530
704.546	0.0138815
704.624	0.0137256
704.703	0.0137908
704.781	0.0138042
704.859	0.0136522
704.937	0.0136986
705.015	0.0136066
705.093	0.0135091
705.171	0.0134588
705.249	0.0134476
705.328	0.0135187
705.406	0.0133419
705.484	0.0132915
705.562	0.0132654
705.640	0.0133669
705.718	0.0132322
705.796	0.0133099
705.874	0.0133849
705.953	0.0133793
706.031	0.0134103
706.109	0.0133689
706.187	0.0135310
706.265	0.0137015
706.343	0.0134606
706.421	0.0136488
706.499	0.0135557
706.578	0.0136563
706.656	0.0137917
706.734	0.0136713
706.812	0.0135752
706.890	0.0135899
706.968	0.0136314
707.046	0.0135693
707.124	0.0135291
707.203	0.0136686
707.281	0.0135741
707.359	0.0135895
707.437	0.0135915
707.515	0.0135490
707.593	0.0135715
707.671	0.0135725
707.749	0.0136137
707.828	0.0137381
707.906	0.0136601
707.984	0.0137354
708.062	0.0137873
708.140	0.0137720
708.218	0.0139073
708.296	0.0139130
708.374	0.0139561
708.453	0.0139127
708.531	0.0138545
708.609	0.0138648
708.687	0.0140173
708.765	0.0140816
708.843	0.0138115
708.921	0.0136906
708.999	0.0137677
709.078	0.0137261
709.156	0.0136208
709.234	0.0134785
709.312	0.0135476
709.390	0.0134958
709.468	0.0133500
709.546	0.0133501
709.624	0.0132568
709.703	0.0134089
709.781	0.0132379
709.859	0.0132839
709.937	0.0132869
710.015	0.0133393
710.093	0.0133308
710.171	0.0133472
710.249	0.0133787
710.328	0.0132672
710.406	0.0133679
710.484	0.0135206
710.562	0.0133850
710.640	0.0135309
710.718	0.0135362
710.796	0.0135035
710.874	0.0136330
710.953	0.0135130
711.031	0.0134953
711.109	0.0133917
711.187	0.0135240
711.265	0.0135152
711.343	0.0135663
711.421	0.0134567
711.499	0.0135577
711.578	0.0134373
711.656	0.0135327
711.734	0.0135395
711.812	0.0134127
711.890	0.0133888
711.968	0.0136329
712.046	0.0134790
712.124	0.0133846
712.203	0.0136038
712.281	0.0133833
712.359	0.0134695
712.437	0.0134657
712.515	0.0134881
712.593	0.0134622
712.671	0.0134920
712.749	0.0134385
712.828	0.0135880
712.906	0.0134696
712.984	0.0134447
713.062	0.0136001
713.140	0.0134602
713.218	0.0135567
713.296	0.0135452
713.374	0.0135695
713.453	0.0136185
713.531	0.0136276
713.609	0.0136464
713.687	0.0135970
713.765	0.0135703
713.843	0.0135992
713.921	0.0135311
713.999	0.0135494
714.078	0.0135166
714.156	0.0134460
714.234	0.0133440
714.312	0.0132780
714.390	0.0133888
714.468	0.0134080
714.546	0.0133135
714.624	0.0132848
714.703	0.0132796
714.781	0.0133998
714.859	0.0133053
714.937	0.0133399
715.015	0.0135267
715.093	0.0133816
715.171	0.0135750
715.249	0.0135596
715.328	0.0135107
715.406	0.0137299
715.484	0.0135324
715.562	0.0135365
715.640	0.0136314
715.718	0.0135547
715.796	0.0135616
715.874	0.0135773
715.953	0.0135136
716.031	0.0135232
716.109	0.0136359
716.187	0.0134209
716.265	0.0134303
716.343	0.0134669
716.421	0.0133568
716.499	0.0133596
716.578	0.0134927
716.656	0.0134106
716.734	0.0134485
716.812	0.0134863
716.890	0.0134427
716.968	0.0135059
717.046	0.0135146
717.124	0.0135416
717.203	0.0135930
717.281	0.0137255
717.359	0.0136600
717.437	0.0136842
717.515	0.0138129
717.593	0.0137122
717.671	0.0137164
717.749	0.0136943
717.828	0.0138890
717.906	0.0137375
717.984	0.0137289
718.062	0.0136918
718.140	0.0137321
718.218	0.0136163
718.296	0.0136595
718.374	0.0136736
718.453	0.0136148
718.531	0.0134801
718.609	0.0133284
718.687	0.0134861
718.765	0.0134348
718.843	0.0133672
718.921	0.0135818
718.999	0.0135043
719.078	0.0134947
719.156	0.0135880
719.234	0.0135585
719.312	0.0135854
719.390	0.0134837
719.468	0.0134988
719.546	0.0136591
719.624	0.0135197
719.703	0.0134644
719.781	0.0134816
719.859	0.0134762
719.937	0.0134893
720.015	0.0135408
720.093	0.0135664
720.171	0.0135656
720.249	0.0134280
720.328	0.0133749
720.406	0.0134069
720.484	0.0133165
720.562	0.0133904
720.640	0.0133532
720.718	0.0134784
720.796	0.0132330
720.874	0.0134106
720.953	0.0134206
721.031	0.0133694
721.109	0.0135135
721.187	0.0134331
721.265	0.0135093
721.343	0.0134978
721.421	0.0133743
721.499	0.0135318
721.578	0.0135127
721.656	0.0134445
721.734	0.0136274
721.812	0.0135549
721.890	0.0134407
721.968	0.0134207
722.046	0.0135782
722.124	0.0135330
722.203	0.0134840
722.281	0.0134624
722.359	0.0135519
722.437	0.0133681
722.515	0.0134389
722.593	0.0134027
722.671	0.0133897
722.749	0.0134100
722.828	0.0134050
722.906	0.0135497
722.984	0.0134471
723.062	0.0134344
723.140	0.0133412
723.218	0.0134705
723.296	0.0134808
723.374	0.0134692
723.453	0.0135041
723.531	0.0133859
723.609	0.0134985
723.687	0.0133738
723.765	0.0134991
723.843	0.0134069
723.921	0.0135321
723.999	0.0135851
724.078	0.0135314
724.156	0.0135060
724.234	0.0134322
724.312	0.0133633
724.390	0.0135600
724.468	0.0135228
724.546	0.0133222
724.624	0.0133848
724.703	0.0134707
724.781	0.0132718
724.859	0.0134200
724.937	0.0132143
725.015	0.0133385
725.093	0.0133935
725.171	0.0133558
725.249	0.0131918
725.328	0.0131894
725.406	0.0133031
725.484	0.0133086
725.562	0.0133237
725.640	0.0132101
725.718	0.0133019
725.796	0.0132899
725.874	0.0134492
725.953	0.0134975
726.031	0.0132472
726.109	0.0132420
726.187	0.0133072
726.265	0.0133355
726.343	0.0134889
726.421	0.0133839
726.499	0.0134415
726.578	0.0134201
726.656	0.0134312
726.734	0.0133419
726.812	0.0134242
726.890	0.0135664
726.968	0.0134116
727.046	0.0134877
727.124	0.0134753
727.203	0.0133363
727.281	0.0134393
727.359	0.0135699
727.437	0.0134563
727.515	0.0134198
727.593	0.0134451
727.671	0.0136030
727.749	0.0134402
727.828	0.0133873
727.906	0.0134403
727.984	0.0135538
728.062	0.0134527
728.140	0.0133551
728.218	0.0134023
728.296	0.0134205
728.374	0.0135032
728.453	0.0135242
728.531	0.0134459
728.609	0.0134846
728.687	0.0136315
728.765	0.0135014
728.843	0.0135739
728.921	0.0136270
728.999	0.0135657
729.078	0.0136008
729.156	0.0135149
729.234	0.0136241
729.312	0.0135050
729.390	0.0135897
729.468	0.0134503
729.546	0.0134989
729.624	0.0135295
729.703	0.0136539
729.781	0.0136535
729.859	0.0136094
729.937	0.0137030
730.015	0.0135007
730.093	0.0134307
730.171	0.0135914
730.249	0.0135258
730.328	0.0134889
730.406	0.0135138
730.484	0.0135287
730.562	0.0136342
730.640	0.0135271
730.718	0.0135262
730.796	0.0135429
730.874	0.0135166
730.953	0.0133971
731.031	0.0135162
731.109	0.0136990
731.187	0.0136912
731.265	0.0135283
731.343	0.0136487
731.421	0.0136575
731.499	0.0135350
731.578	0.0135065
731.656	0.0134898
731.734	0.0135281
731.812	0.0135479
731.890	0.0135798
731.968	0.0134689
732.046	0.0133872
732.124	0.0134803
732.203	0.0134235
732.281	0.0134167
732.359	0.0134743
732.437	0.0134915
732.515	0.0135636
732.593	0.0133517
732.671	0.0133730
732.749	0.0135094
732.828	0.0135018
732.906	0.0135832
732.984	0.0134795
733.062	0.0134094
733.140	0.0135670
733.218	0.0135767
733.296	0.0135131
733.374	0.0135413
733.453	0.0135792
733.531	0.0135806
733.609	0.0134629
733.687	0.0134734
733.765	0.0133857
733.843	0.0135271
733.921	0.0135159
733.999	0.0134966
734.078	0.0134138
734.156	0.0135063
734.234	0.0135066
734.312	0.0135020
734.390	0.0134601
734.468	0.0133179
734.546	0.0134910
734.624	0.0135470
734.703	0.0134318
734.781	0.0135850
734.859	0.0137052
734.937	0.0134207
735.015	0.0134889
735.093	0.0135235
735.171	0.0135295
735.249	0.0135786
735.328	0.0135374
735.406	0.0136050
735.484	0.0134528
735.562	0.0135672
735.640	0.0135445
735.718	0.0134152
735.796	0.0135033
735.874	0.0135133
735.953	0.0134179
736.031	0.0134341
736.109	0.0135122
736.187	0.0134235
736.265	0.0134068
736.343	0.0133057
736.421	0.0136372
736.499	0.0133955
736.578	0.0135079
736.656	0.0134924
736.734	0.0134850
736.812	0.0133588
736.890	0.0135773
736.968	0.0135394
737.046	0.0134869
737.124	0.0134716
737.203	0.0136272
737.281	0.0133533
737.359	0.0135273
737.437	0.0134348
737.515	0.0134389
737.593	0.0133903
737.671	0.0133141
737.749	0.0134301
737.828	0.0134538
737.906	0.0133816
737.984	0.0134027
738.062	0.0133970
738.140	0.0133756
738.218	0.0134074
738.296	0.0133714
738.374	0.0133752
738.453	0.0134023
738.531	0.0134563
738.609	0.0134386
738.687	0.0135756
738.765	0.0134454
738.843	0.0133511
738.921	0.0136377
738.999	0.0135842
739.078	0.0136485
739.156	0.0135813
739.234	0.0135903
739.312	0.0135172
739.390	0.0135256
739.468	0.0135940
739.546	0.0136283
739.624	0.0136361
739.703	0.0135463
739.781	0.0134908
739.859	0.0135314
739.937	0.0135268
740.015	0.0135612
740.093	0.0134562
740.171	0.0135033
740.249	0.0135748
740.328	0.0135274
740.406	0.0134177
740.484	0.0133744
740.562	0.0134708
740.640	0.0132867
740.718	0.0133804
740.796	0.0134090
740.874	0.0134963
740.953	0.0134829
741.031	0.0134603
741.109	0.0135048
741.187	0.0135205
741.265	0.0134944
741.343	0.0136741
741.421	0.0136302
741.499	0.0135629
741.578	0.0135405
741.656	0.0136736
741.734	0.0136055
741.812	0.0137610
741.890	0.0136681
741.968	0.0136624
742.046	0.0135897
742.124	0.0136574
742.203	0.0135544
742.281	0.0136435
742.359	0.0136616
742.437	0.0134604
742.515	0.0135036
742.593	0.0136834
742.671	0.0135187
742.749	0.0135548
742.828	0.0135939
742.906	0.0135098
742.984	0.0135300
743.062	0.0135694
743.140	0.0135117
743.218	0.0136197
743.296	0.0136666
743.374	0.0135335
743.453	0.0134431
743.531	0.0134842
743.609	0.0135349
743.687	0.0136565
743.765	0.0135933
743.843	0.0134920
743.921	0.0134453
743.999	0.0136073
744.078	0.0136871
744.156	0.0136012
744.234	0.0136951
744.312	0.0137096
744.390	0.0136452
744.468	0.0135036
744.546	0.0135545
744.624	0.0135514
744.703	0.0137130
744.781	0.0135714
744.859	0.0133940
744.937	0.0136177
745.015	0.0135873
745.093	0.0135238
745.171	0.0135522
745.249	0.0136235
745.328	0.0136559
745.406	0.0135825
745.484	0.0137261
745.562	0.0136147
745.640	0.0135203
745.718	0.0135671
745.796	0.0133750
745.874	0.0134545
745.953	0.0134205
746.031	0.0134322
746.109	0.0134978
746.187	0.0134351
746.265	0.0134354
746.343	0.0134795
746.421	0.0134881
746.499	0.0135356
746.578	0.0133836
746.656	0.0134830
746.734	0.0134804
746.812	0.0134109
746.890	0.0134925
746.968	0.0135851
747.046	0.0134287
747.124	0.0134911
747.203	0.0135681
747.281	0.0136080
747.359	0.0135716
747.437	0.0135834
747.515	0.0135584
747.593	0.0136330
747.671	0.0136585
747.749	0.0135870
747.828	0.0135821
747.906	0.0136011
747.984	0.0135589
748.062	0.0135654
748.140	0.0136251
748.218	0.0136813
748.296	0.0135719
748.374	0.0134044
748.453	0.0136054
748.531	0.0136685
748.609	0.0134947
748.687	0.0136578
748.765	0.0136345
748.843	0.0135321
748.921	0.0134628
748.999	0.0134181
749.078	0.0135247
749.156	0.0135794
749.234	0.0134967
749.312	0.0135509
749.390	0.0135480
749.468	0.0134794
749.546	0.0135422
749.624	0.0136714
749.703	0.0135539
749.781	0.0135142
749.859	0.0136620
749.937	0.0135863
750.015	0.0135880
750.093	0.0135828
750.171	0.0136192
750.249	0.0136436
750.328	0.0136317
750.406	0.0136291
750.484	0.0135199
750.562	0.0135852
750.640	0.0135220
750.718	0.0134765
750.796	0.0133830
750.874	0.0133737
750.953	0.0134113
751.031	0.0133322
751.109	0.0134360
751.187	0.0133210
751.265	0.0133075
751.343	0.0133494
751.421	0.0134892
751.499	0.0133734
751.578	0.0133898
751.656	0.0133868
751.734	0.0133455
751.812	0.0134138
751.890	0.0134852
751.968	0.0135653
752.046	0.0135017
752.124	0.0134048
752.203	0.0135720
752.281	0.0135993
752.359	0.0135223
752.437	0.0134400
752.515	0.0134478
752.593	0.0134407
752.671	0.0135590
752.749	0.0134230
752.828	0.0135412
752.906	0.0135699
752.984	0.0134113
753.062	0.0134037
753.140	0.0135197
753.218	0.0134560
753.296	0.0135318
753.374	0.0135940
753.453	0.0132748
753.531	0.0134666
753.609	0.0134566
753.687	0.0134528
753.765	0.0135738
753.843	0.0135924
753.921	0.0137049
753.999	0.0136426
754.078	0.0137158
754.156	0.0136755
754.234	0.0137238
754.312	0.0136423
754.390	0.0137192
754.468	0.0135415
754.546	0.0134390
754.624	0.0135697
754.703	0.0135695
754.781	0.0136268
754.859	0.0134453
754.937	0.0134521
755.015	0.0134687
755.093	0.0134510
755.171	0.0134428
755.249	0.0136435
755.328	0.0134149
755.406	0.0133483
755.484	0.0134413
755.562	0.0133436
755.640	0.0133733
755.718	0.0135896
755.796	0.0134171
755.874	0.0134173
755.953	0.0134131
756.031	0.0133912
756.109	0.0135040
756.187	0.0134245
756.265	0.0133955
756.343	0.0133366
756.421	0.0133560
756.499	0.0134670
756.578	0.0134658
756.656	0.0134620
756.734	0.0134423
756.812	0.0134364
756.890	0.0135227
756.968	0.0134054
757.046	0.0134976
757.124	0.0134626
757.203	0.0134009
757.281	0.0136317
757.359	0.0134947
757.437	0.0134521
757.515	0.0135057
757.593	0.0133654
757.671	0.0135097
757.749	0.0134985
757.828	0.0133565
757.906	0.0135307
757.984	0.0134038
758.062	0.0134024
758.140	0.0135282
758.218	0.0135540
758.296	0.0134314
758.374	0.0134464
758.453	0.0136208
758.531	0.0133794
758.609	0.0133954
758.687	0.0134836
758.765	0.0135390
758.843	0.0133967
758.921	0.0132872
758.999	0.0134362
759.078	0.0134301
759.156	0.0135149
759.234	0.0135355
759.312	0.0134496
759.390	0.0135644
759.468	0.0134044
759.546	0.0133166
759.624	0.0134322
759.703	0.0133411
759.781	0.0132958
759.859	0.0133994
759.937	0.0133175
760.015	0.0133227
760.093	0.0134584
760.171	0.0133314
760.249	0.0132513
760.328	0.0134053
760.406	0.0133685
760.484	0.0133589
760.562	0.0133406
760.640	0.0134100
760.718	0.0132777
760.796	0.0133586
760.874	0.0133031
760.953	0.0134227
761.031	0.0133331
761.109	0.0134787
761.187	0.0137101
761.265	0.0135049
761.343	0.0134750
761.421	0.0134919
761.499	0.0135840
761.578	0.0135532
761.656	0.0134740
761.734	0.0134947
761.812	0.0135315
761.890	0.0135348
761.968	0.0135140
762.046	0.0135658
762.124	0.0133995
762.203	0.0134259
762.281	0.0132826
762.359	0.0134057
762.437	0.0133865
762.515	0.0133640
762.593	0.0132741
762.671	0.0133386
762.749	0.0133802
762.828	0.0133975
762.906	0.0133735
762.984	0.0133867
763.062	0.0134193
763.140	0.0135229
763.218	0.0135551
763.296	0.0134129
763.374	0.0135707
763.453	0.0134487
763.531	0.0134171
763.609	0.0133841
763.687	0.0134908
763.765	0.0134144
763.843	0.0134950
763.921	0.0135007
763.999	0.0134718
764.078	0.0134673
764.156	0.0136140
764.234	0.0133843
764.312	0.0134142
764.390	0.0135300
764.468	0.0134272
764.546	0.0136359
764.624	0.0134517
764.703	0.0135201
764.781	0.0135189
764.859	0.0135738
764.937	0.0136728
765.015	0.0135284
765.093	0.0134240
765.171	0.0136203
765.249	0.0135550
765.328	0.0134479
765.406	0.0135070
765.484	0.0135232
765.562	0.0134611
765.640	0.0135387
765.718	0.0135607
765.796	0.0135794
765.874	0.0136050
765.953	0.0135774
766.031	0.0136942
766.109	0.0136945
766.187	0.0135742
766.265	0.0135220
766.343	0.0135064
766.421	0.0135435
766.499	0.0135326
766.578	0.0135949
766.656	0.0136806
766.734	0.0137249
766.812	0.0135567
766.890	0.0134616
766.968	0.0135470
767.046	0.0134740
767.124	0.0135136
767.203	0.0134594
767.281	0.0134919
767.359	0.0134092
767.437	0.0134840
767.515	0.0134797
767.593	0.0133804
767.671	0.0134392
767.749	0.0135535
767.828	0.0137007
767.906	0.0135552
767.984	0.0137891
768.062	0.0137463
768.140	0.0136482
768.218	0.0134499
768.296	0.0135100
768.374	0.0136521
768.453	0.0134805
768.531	0.0134345
768.609	0.0135855
768.687	0.0134846
768.765	0.0134340
768.843	0.0134508
768.921	0.0134034
768.999	0.0133460
769.078	0.0135135
769.156	0.0135043
769.234	0.0134886
769.312	0.0134316
769.390	0.0134525
769.468	0.0134085
769.546	0.0133545
769.624	0.0133720
769.703	0.0134080
769.781	0.0133933
769.859	0.0134223
769.937	0.0133862
770.015	0.0133247
770.093	0.0132652
770.171	0.0133637
770.249	0.0133981
770.328	0.0133609
770.406	0.0133723
770.484	0.0133131
770.562	0.0134635
770.640	0.0134728
770.718	0.0134132
770.796	0.0133595
770.874	0.0133418
770.953	0.0134417
771.031	0.0132683
771.109	0.0133179
771.187	0.0134096
771.265	0.0134097
771.343	0.0134099
771.421	0.0135764
771.499	0.0135780
771.578	0.0134032
771.656	0.0134238
771.734	0.0134554
771.812	0.0135088
771.890	0.0134567
771.968	0.0134055
772.046	0.0135052
772.124	0.0134375
772.203	0.0134461
772.281	0.0134099
772.359	0.0134121
772.437	0.0135091
772.515	0.0135035
772.593	0.0135922
772.671	0.0133614
772.749	0.0135970
772.828	0.0135981
772.906	0.0134136
772.984	0.0134421
773.062	0.0133948
773.140	0.0134593
773.218	0.0134489
773.296	0.0135264
773.374	0.0134219
773.453	0.0133641
773.531	0.0132999
773.609	0.0134074
773.687	0.0133819
773.765	0.0134245
773.843	0.0134901
773.921	0.0133201
773.999	0.0134541
774.078	0.0134796
774.156	0.0134046
774.234	0.0136014
774.312	0.0135704
774.390	0.0133746
774.468	0.0135389
774.546	0.0135488
774.624	0.0136172
774.703	0.0135131
774.781	0.0137427
774.859	0.0135941
774.937	0.0135423
775.015	0.0136338
775.093	0.0136417
775.171	0.0136227
775.249	0.0137563
775.328	0.0137231
775.406	0.0137330
775.484	0.0137125
775.562	0.0136638
775.640	0.0136501
775.718	0.0137027
775.796	0.0136332
775.874	0.0136437
775.953	0.0137457
776.031	0.0136900
776.109	0.0136828
776.187	0.0135817
776.265	0.0134891
776.343	0.0136015
776.421	0.0135543
776.499	0.0135989
776.578	0.0135251
776.656	0.0134527
776.734	0.0136774
776.812	0.0134503
776.890	0.0134813
776.968	0.0134866
777.046	0.0135928
777.124	0.0135104
777.203	0.0135823
777.281	0.0134814
777.359	0.0135363
777.437	0.0135903
777.515	0.0136255
777.593	0.0135214
777.671	0.0136262
777.749	0.0136127
777.828	0.0135716
777.906	0.0136584
777.984	0.0135712
778.062	0.0135196
778.140	0.0137020
778.218	0.0137223
778.296	0.0136471
778.374	0.0136071
778.453	0.0135355
778.531	0.0136730
778.609	0.0135970
778.687	0.0135133
778.765	0.0135603
778.843	0.0136462
778.921	0.0136043
778.999	0.0136282
779.078	0.0135673
779.156	0.0134814
779.234	0.0136468
779.312	0.0136581
779.390	0.0135665
779.468	0.0135179
779.546	0.0134147
779.624	0.0135533
779.703	0.0136097
779.781	0.0135439
779.859	0.0135541
779.937	0.0134454
780.015	0.0135577
780.093	0.0136423
780.171	0.0135640
780.249	0.0135741
780.328	0.0135696
780.406	0.0135773
780.484	0.0135757
780.562	0.0136002
780.640	0.0135037
780.718	0.0136286
780.796	0.0135978
780.874	0.0136356
780.953	0.0135407
781.031	0.0135348
781.109	0.0134016
781.187	0.0134939
781.265	0.0135180
781.343	0.0133530
781.421	0.0134568
781.499	0.0134759
781.578	0.0135358
781.656	0.0134092
781.734	0.0133961
781.812	0.0133745
781.890	0.0132990
781.968	0.0135006
782.046	0.0133550
782.124	0.0133639
782.203	0.0134014
782.281	0.0134338
782.359	0.0134988
782.437	0.0133062
782.515	0.0134435
782.593	0.0133135
782.671	0.0134756
782.749	0.0135649
782.828	0.0135323
782.906	0.0135932
782.984	0.0134818
783.062	0.0135215
783.140	0.0134404
783.218	0.0135966
783.296	0.0136662
783.374	0.0135223
783.453	0.0136255
783.531	0.0135425
783.609	0.0135237
783.687	0.0133623
783.765	0.0134625
783.843	0.0135634
783.921	0.0134102
783.999	0.0134258
784.078	0.0134864
784.156	0.0135244
784.234	0.0134364
784.312	0.0134097
784.390	0.0134457
784.468	0.0134415
784.546	0.0135081
784.624	0.0136098
784.703	0.0134682
784.781	0.0134517
784.859	0.0134068
784.937	0.0134563
785.015	0.0134955
785.093	0.0134289
785.171	0.0134956
785.249	0.0135259
785.328	0.0133956
785.406	0.0134515
785.484	0.0134590
785.562	0.0134740
785.640	0.0135082
785.718	0.0134412
785.796	0.0134856
785.874	0.0133516
785.953	0.0132694
786.031	0.0133936
786.109	0.0135072
786.187	0.0134328
786.265	0.0134200
786.343	0.0135385
786.421	0.0136161
786.499	0.0134975
786.578	0.0136133
786.656	0.0135739
786.734	0.0135146
786.812	0.0136132
786.890	0.0135188
786.968	0.0136180
787.046	0.0135339
787.124	0.0137132
787.203	0.0135506
787.281	0.0134978
787.359	0.0135207
787.437	0.0136257
787.515	0.0134966
787.593	0.0135861
787.671	0.0133358
787.749	0.0135503
787.828	0.0135397
787.906	0.0135271
787.984	0.0134135
788.062	0.0134821
788.140	0.0134521
788.218	0.0135891
788.296	0.0133558
788.374	0.0134824
788.453	0.0135188
788.531	0.0135581
788.609	0.0134112
788.687	0.0134685
788.765	0.0133799
788.843	0.0134579
788.921	0.0134780
788.999	0.0135049
789.078	0.0134017
789.156	0.0134398
789.234	0.0135427
789.312	0.0135403
789.390	0.0134157
789.468	0.0133471
789.546	0.0133710
789.624	0.0134646
789.703	0.0133753
789.781	0.0135844
789.859	0.0133688
789.937	0.0135241
790.015	0.0134712
790.093	0.0136218
790.171	0.0135645
790.249	0.0135357
790.328	0.0134451
790.406	0.0134338
790.484	0.0135442
790.562	0.0135631
790.640	0.0135786
790.718	0.0135499
790.796	0.0136153
790.874	0.0134401
790.953	0.0132497
791.031	0.0132731
791.109	0.0134729
791.187	0.0134041
791.265	0.0133392
791.343	0.0133361
791.421	0.0134326
791.499	0.0133753
791.578	0.0134452
791.656	0.0133822
791.734	0.0135372
791.812	0.0134025
791.890	0.0133829
791.968	0.0134838
792.046	0.0134138
792.124	0.0132735
792.203	0.0135537
792.281	0.0134941
792.359	0.0135250
792.437	0.0134699
792.515	0.0134742
792.593	0.0135248
792.671	0.0134126
792.749	0.0135352
792.828	0.0135329
792.906	0.0134563
792.984	0.0133944
793.062	0.0134732
793.140	0.0133520
793.218	0.0133582
793.296	0.0133282
793.374	0.0134296
793.453	0.0134467
793.531	0.0133176
793.609	0.0133450
793.687	0.0134147
793.765	0.0134359
793.843	0.0133871
793.921	0.0134086
793.999	0.0135063
794.078	0.0133804
794.156	0.0134953
794.234	0.0135292
794.312	0.0133965
794.390	0.0134071
794.468	0.0135683
794.546	0.0135692
794.624	0.0134710
794.703	0.0134052
794.781	0.0134097
794.859	0.0134122
794.937	0.0135246
795.015	0.0136324
795.093	0.0135997
795.171	0.0135486
795.249	0.0135091
795.328	0.0134218
795.406	0.0136073
795.484	0.0135484
795.562	0.0135258
795.640	0.0134736
795.718	0.0135038
795.796	0.0133739
795.874	0.0134097
795.953	0.0134368
796.031	0.0134866
796.109	0.0134736
796.187	0.0134209
796.265	0.0134608
796.343	0.0133763
796.421	0.0135316
796.499	0.0134857
796.578	0.0135595
796.656	0.0134633
796.734	0.0135078
796.812	0.0134557
796.890	0.0134800
796.968	0.0133183
797.046	0.0134645
797.124	0.0136134
797.203	0.0135020
797.281	0.0135125
797.359	0.0135423
797.437	0.0133858
797.515	0.0135416
797.593	0.0134084
797.671	0.0134153
797.749	0.0135391
797.828	0.0134796
797.906	0.0135408
797.984	0.0134004
798.062	0.0133566
798.140	0.0133081
798.218	0.0134811
798.296	0.0135049
798.374	0.0134856
798.453	0.0133188
798.531	0.0134037
798.609	0.0135014
798.687	0.0135183
798.765	0.0134053
798.843	0.0133819
798.921	0.0134989
798.999	0.0135719
799.078	0.0134264
799.156	0.0133372
799.234	0.0135146
799.312	0.0135188
799.390	0.0133003
799.468	0.0133757
799.546	0.0135566
799.624	0.0135439
799.703	0.0134644
799.781	0.0134116
799.859	0.0133521
799.937	0.0134805
800.015	0.0135064
800.093	0.0133519
800.171	0.0134429
800.249	0.0134069
800.328	0.0133173
800.406	0.0133855
800.484	0.0134601
800.562	0.0132561
800.640	0.0133167
800.718	0.0134731
800.796	0.0132335
800.874	0.0132893
800.953	0.0134460
801.031	0.0134001
801.109	0.0133967
801.187	0.0133018
801.265	0.0133866
801.343	0.0132930
801.421	0.0134144
801.499	0.0132714
801.578	0.0134441
801.656	0.0132655
801.734	0.0134560
801.812	0.0134647
801.890	0.0134098
801.968	0.0135188
802.046	0.0134451
802.124	0.0133411
802.203	0.0134808
802.281	0.0133418
802.359	0.0134299
802.437	0.0134894
802.515	0.0134458
802.593	0.0134568
802.671	0.0134811
802.749	0.0134682
802.828	0.0136504
802.906	0.0134636
802.984	0.0135509
803.062	0.0136131
803.140	0.0135714
803.218	0.0135777
803.296	0.0135389
803.374	0.0135574
803.453	0.0137222
803.531	0.0135478
803.609	0.0136399
803.687	0.0135840
803.765	0.0135732
803.843	0.0136730
803.921	0.0135651
803.999	0.0134428
804.078	0.0135233
804.156	0.0136017
804.234	0.0136651
804.312	0.0135756
804.390	0.0135613
804.468	0.0135778
804.546	0.0136488
804.624	0.0135834
804.703	0.0134811
804.781	0.0135875
804.859	0.0134396
804.937	0.0134515
805.015	0.0134782
805.093	0.0137576
805.171	0.0135581
805.249	0.0134938
805.328	0.0135739
805.406	0.0135772
805.484	0.0135123
805.562	0.0135419
805.640	0.0135224
805.718	0.0136047
805.796	0.0135135
805.874	0.0136314
805.953	0.0133794
806.031	0.0134380
806.109	0.0135217
806.187	0.0134221
806.265	0.0134087
806.343	0.0134601
806.421	0.0133963
806.499	0.0134730
806.578	0.0133695
806.656	0.0133609
806.734	0.0133949
806.812	0.0133887
806.890	0.0133946
806.968	0.0133722
807.046	0.0134195
807.124	0.0133407
807.203	0.0134184
807.281	0.0134077
807.359	0.0134872
807.437	0.0134595
807.515	0.0134701
807.593	0.0133717
807.671	0.0133109
807.749	0.0136069
807.828	0.0135281
807.906	0.0134274
807.984	0.0132738
808.062	0.0133849
808.140	0.0134581
808.218	0.0133685
808.296	0.0134481
808.374	0.0134173
808.453	0.0134635
808.531	0.0135218
808.609	0.0134735
808.687	0.0134794
808.765	0.0135406
808.843	0.0135558
808.921	0.0135633
808.999	0.0134782
809.078	0.0137633
809.156	0.0135015
809.234	0.0134089
809.312	0.0135777
809.390	0.0135160
809.468	0.0135056
809.546	0.0135654
809.624	0.0135067
809.703	0.0135448
809.781	0.0135296
809.859	0.0134903
809.937	0.0135645
810.015	0.0135699
810.093	0.0134052
810.171	0.0135260
810.249	0.0136918
810.328	0.0135133
810.406	0.0134302
810.484	0.0133727
810.562	0.0135477
810.640	0.0135775
810.718	0.0135904
810.796	0.0134735
810.874	0.0134979
810.953	0.0134866
811.031	0.0136189
811.109	0.0136549
811.187	0.0135928
811.265	0.0135455
811.343	0.0136043
811.421	0.0135665
811.499	0.0134807
811.578	0.0135120
811.656	0.0134756
811.734	0.0135676
811.812	0.0135087
811.890	0.0135776
811.968	0.0135052
812.046	0.0135065
812.124	0.0134034
812.203	0.0135098
812.281	0.0134205
812.359	0.0134570
812.437	0.0133982
812.515	0.0132785
812.593	0.0134542
812.671	0.0134278
812.749	0.0134545
812.828	0.0134341
812.906	0.0133681
812.984	0.0133482
813.062	0.0134241
813.140	0.0133795
813.218	0.0133850
813.296	0.0133491
813.374	0.0135750
813.453	0.0134919
813.531	0.0135479
813.609	0.0134496
813.687	0.0135370
813.765	0.0134241
813.843	0.0133775
813.921	0.0135368
813.999	0.0135311
814.078	0.0135286
814.156	0.0133855
814.234	0.0135007
814.312	0.0135517
814.390	0.0134977
814.468	0.0135626
814.546	0.0135131
814.624	0.0133869
814.703	0.0134632
814.781	0.0134377
814.859	0.0134824
814.937	0.0133115
815.015	0.0134336
815.093	0.0132678
815.171	0.0134071
815.249	0.0134618
815.328	0.0133868
815.406	0.0134901
815.484	0.0134496
815.562	0.0134206
815.640	0.0134776
815.718	0.0134384
815.796	0.0134415
815.874	0.0134188
815.953	0.0133619
816.031	0.0134917
816.109	0.0134303
816.187	0.0134791
816.265	0.0134921
816.343	0.0134231
816.421	0.0135233
816.499	0.0133282
816.578	0.0132056
816.656	0.0134779
816.734	0.0135302
816.812	0.0134235
816.890	0.0134127
816.968	0.0135303
817.046	0.0133291
817.124	0.0135014
817.203	0.0134556
817.281	0.0134567
817.359	0.0134702
817.437	0.0134660
817.515	0.0134464
817.593	0.0133691
817.671	0.0135412
817.749	0.0135147
817.828	0.0134760
817.906	0.0134869
817.984	0.0133673
818.062	0.0134356
818.140	0.0134585
818.218	0.0134341
818.296	0.0134352
818.374	0.0134911
818.453	0.0135024
818.531	0.0135227
818.609	0.0134261
818.687	0.0135904
818.765	0.0135221
818.843	0.0134344
818.921	0.0136261
818.999	0.0134474
819.078	0.0134335
819.156	0.0135469
819.234	0.0136535
819.312	0.0136233
819.390	0.0134972
819.468	0.0135021
819.546	0.0135815
819.624	0.0134829
819.703	0.0135509
819.781	0.0135500
819.859	0.0134415
819.937	0.0134008
820.015	0.0134858
820.093	0.0134551
820.171	0.0135531
820.249	0.0134679
820.328	0.0135792
820.406	0.0134039
820.484	0.0134669
820.562	0.0133346
820.640	0.0133620
820.718	0.0134522
820.796	0.0135600
820.874	0.0134602
820.953	0.0133931
821.031	0.0133664
821.109	0.0134458
821.187	0.0134873
821.265	0.0134666
821.343	0.0136171
821.421	0.0134186
821.499	0.0133826
821.578	0.0134956
821.656	0.0133696
821.734	0.0133219
821.812	0.0133738
821.890	0.0135989
821.968	0.0133419
822.046	0.0134809
822.124	0.0134650
822.203	0.0134411
822.281	0.0134055
822.359	0.0133952
822.437	0.0132275
822.515	0.0132727
822.593	0.0133570
822.671	0.0133515
822.749	0.0134845
822.828	0.0133359
822.906	0.0134699
822.984	0.0135775
823.062	0.0134418
823.140	0.0134203
823.218	0.0135535
823.296	0.0133060
823.374	0.0132739
823.453	0.0135328
823.531	0.0134789
823.609	0.0134416
823.687	0.0133818
823.765	0.0133607
823.843	0.0134649
823.921	0.0134789
823.999	0.0133860
824.078	0.0134268
824.156	0.0134636
824.234	0.0134766
824.312	0.0134569
824.390	0.0135458
824.468	0.0135580
824.546	0.0134563
824.624	0.0135627
824.703	0.0135491
824.781	0.0136050
824.859	0.0133963
824.937	0.0135090
825.015	0.0135371
825.093	0.0136083
825.171	0.0134925
825.249	0.0135600
825.328	0.0135694
825.406	0.0135896
825.484	0.0134565
825.562	0.0135690
825.640	0.0135484
825.718	0.0135029
825.796	0.0133919
825.874	0.0134874
825.953	0.0134770
826.031	0.0134138
826.109	0.0134525
826.187	0.0134795
826.265	0.0135243
826.343	0.0135432
826.421	0.0135275
826.499	0.0135131
826.578	0.0134011
826.656	0.0135751
826.734	0.0135181
826.812	0.0134244
826.890	0.0134617
826.968	0.0134706
827.046	0.0134947
827.124	0.0135076
827.203	0.0135114
827.281	0.0135907
827.359	0.0134620
827.437	0.0133511
827.515	0.0134330
827.593	0.0134418
827.671	0.0133738
827.749	0.0136069
827.828	0.0135168
827.906	0.0134554
827.984	0.0133794
828.062	0.0135513
828.140	0.0134989
828.218	0.0134846
828.296	0.0134512
828.374	0.0134245
828.453	0.0135447
828.531	0.0134171
828.609	0.0134105
828.687	0.0133900
828.765	0.0135598
828.843	0.0135201
828.921	0.0135380
828.999	0.0135052
829.078	0.0134470
829.156	0.0135528
829.234	0.0135475
829.312	0.0134194
829.390	0.0134520
829.468	0.0135590
829.546	0.0134988
829.624	0.0134644
829.703	0.0135036
829.781	0.0134563
829.859	0.0132893
829.937	0.0134617
830.015	0.0135077
830.093	0.0134760
830.171	0.0134519
830.249	0.0135313
830.328	0.0133635
830.406	0.0133740
830.484	0.0133855
830.562	0.0133443
830.640	0.0134312
830.718	0.0133851
830.796	0.0134143
830.874	0.0135189
830.953	0.0134737
831.031	0.0133932
831.109	0.0135137
831.187	0.0134505
831.265	0.0134110
831.343	0.0133945
831.421	0.0134794
831.499	0.0133998
831.578	0.0134068
831.656	0.0134042
831.734	0.0135166
831.812	0.0134846
831.890	0.0134852
831.968	0.0135004
832.046	0.0134541
832.124	0.0134840
832.203	0.0133559
832.281	0.0135358
832.359	0.0135359
832.437	0.0134861
832.515	0.0134960
832.593	0.0134209
832.671	0.0132787
832.749	0.0134083
832.828	0.0136064
832.906	0.0134487
832.984	0.0134592
833.062	0.0133636
833.140	0.0135013
833.218	0.0134467
833.296	0.0136289
833.374	0.0135078
833.453	0.0135074
833.531	0.0135744
833.609	0.0134660
833.687	0.0135780
833.765	0.0136369
833.843	0.0136386
833.921	0.0134809
833.999	0.0135210
834.078	0.0135902
834.156	0.0136191
834.234	0.0136228
834.312	0.0135857
834.390	0.0135117
834.468	0.0135719
834.546	0.0137598
834.624	0.0134560
834.703	0.0136776
834.781	0.0135902
834.859	0.0135860
834.937	0.0136208
835.015	0.0134226
835.093	0.0134968
835.171	0.0135743
835.249	0.0135975
835.328	0.0135579
835.406	0.0135497
835.484	0.0136683
835.562	0.0136185
835.640	0.0135878
835.718	0.0135990
835.796	0.0136224
835.874	0.0135959
835.953	0.0135486
836.031	0.0135989
836.109	0.0136169
836.187	0.0136909
836.265	0.0136346
836.343	0.0136630
836.421	0.0136591
836.499	0.0135657
836.578	0.0135990
836.656	0.0136311
836.734	0.0136034
836.812	0.0134591
836.890	0.0135492
836.968	0.0134764
837.046	0.0134534
837.124	0.0134414
837.203	0.0135905
837.281	0.0134276
837.359	0.0134796
837.437	0.0135184
837.515	0.0133329
837.593	0.0134675
837.671	0.0134569
837.749	0.0134861
837.828	0.0135383
837.906	0.0135215
837.984	0.0134869
838.062	0.0136090
838.140	0.0135974
838.218	0.0134826
838.296	0.0135763
838.374	0.0134974
838.453	0.0136223
838.531	0.0136898
838.609	0.0134433
838.687	0.0135569
838.765	0.0134942
838.843	0.0135063
838.921	0.0135252
838.999	0.0134867
839.078	0.0134810
839.156	0.0135532
839.234	0.0135148
839.312	0.0134554
839.390	0.0134766
839.468	0.0135033
839.546	0.0134859
839.624	0.0135913
839.703	0.0135924
839.781	0.0134528
839.859	0.0135181
839.937	0.0135465
840.015	0.0134185
840.093	0.0134356
840.171	0.0133495
840.249	0.0134943
840.328	0.0134460
840.406	0.0136868
840.484	0.0135056
840.562	0.0134612
840.640	0.0136018
840.718	0.0135967
840.796	0.0135996
840.874	0.0135506
840.953	0.0135697
841.031	0.0136204
841.109	0.0135835
841.187	0.0135665
841.265	0.0135517
841.343	0.0136494
841.421	0.0136240
841.499	0.0134680
841.578	0.0135159
841.656	0.0136024
841.734	0.0135204
841.812	0.0135557
841.890	0.0135529
841.968	0.0135664
842.046	0.0136601
842.124	0.0135575
842.203	0.0135118
842.281	0.0135112
842.359	0.0137039
842.437	0.0137033
842.515	0.0135510
842.593	0.0135993
842.671	0.0136498
842.749	0.0136436
842.828	0.0134907
842.906	0.0136671
842.984	0.0136938
843.062	0.0135554
843.140	0.0135708
843.218	0.0137769
843.296	0.0136608
843.374	0.0135612
843.453	0.0134743
843.531	0.0135935
843.609	0.0135228
843.687	0.0136923
843.765	0.0135818
843.843	0.0136483
843.921	0.0136066
843.999	0.0134475
844.078	0.0134951
844.156	0.0135536
844.234	0.0135478
844.312	0.0136291
844.390	0.0135950
844.468	0.0135444
844.546	0.0134897
844.624	0.0135233
844.703	0.0136668
844.781	0.0137134
844.859	0.0135903
844.937	0.0135267
845.015	0.0135246
845.093	0.0135500
845.171	0.0135892
845.249	0.0135298
845.328	0.0135063
845.406	0.0136875
845.484	0.0136119
845.562	0.0135243
845.640	0.0134444
845.718	0.0135529
845.796	0.0135232
845.874	0.0135227
845.953	0.0136113
846.031	0.0134912
846.109	0.0134195
846.187	0.0134544
846.265	0.0135722
846.343	0.0136411
846.421	0.0134894
846.499	0.0134435
846.578	0.0135556
846.656	0.0135382
846.734	0.0134733
846.812	0.0135570
846.890	0.0135254
846.968	0.0135025
847.046	0.0134426
847.124	0.0135408
847.203	0.0133957
847.281	0.0134585
847.359	0.0133578
847.437	0.0134294
847.515	0.0134849
847.593	0.0136189
847.671	0.0133926
847.749	0.0135384
847.828	0.0135383
847.906	0.0135449
847.984	0.0134241
848.062	0.0134238
848.140	0.0134309
848.218	0.0133971
848.296	0.0133685
848.374	0.0134669
848.453	0.0134917
848.531	0.0134462
848.609	0.0135612
848.687	0.0135487
848.765	0.0134869
848.843	0.0134669
848.921	0.0134507
848.999	0.0134433
849.078	0.0135383
849.156	0.0135511
849.234	0.0133879
849.312	0.0133595
849.390	0.0135534
849.468	0.0134764
849.546	0.0133707
849.624	0.0134622
849.703	0.0134989
849.781	0.0133838
849.859	0.0134698
849.937	0.0132806
850.015	0.0133247
850.093	0.0134149
850.171	0.0134682
850.249	0.0134531
850.328	0.0134595
850.406	0.0134363
850.484	0.0135837
850.562	0.0134513
850.640	0.0135650
850.718	0.0135173
850.796	0.0135110
850.874	0.0134225
850.953	0.0136102
851.031	0.0134945
851.109	0.0135073
851.187	0.0135365
851.265	0.0134891
851.343	0.0134394
851.421	0.0136765
851.499	0.0136512
851.578	0.0134486
851.656	0.0135057
851.734	0.0135339
851.812	0.0134093
851.890	0.0135801
851.968	0.0135352
852.046	0.0134800
852.124	0.0134579
852.203	0.0134449
852.281	0.0134886
852.359	0.0135670
852.437	0.0135010
852.515	0.0134399
852.593	0.0135772
852.671	0.0135810
852.749	0.0136017
852.828	0.0135078
852.906	0.0135748
852.984	0.0133933
853.062	0.0134633
853.140	0.0134460
853.218	0.0135003
853.296	0.0135611
853.374	0.0135594
853.453	0.0134452
853.531	0.0136381
853.609	0.0135884
853.687	0.0136050
853.765	0.0134227
853.843	0.0135465
853.921	0.0135795
853.999	0.0135159
854.078	0.0135477
854.156	0.0136485
854.234	0.0134626
854.312	0.0134563
854.390	0.0134984
854.468	0.0135473
854.546	0.0134744
854.624	0.0134308
854.703	0.0134963
854.781	0.0134001
854.859	0.0135264
854.937	0.0135275
855.015	0.0134492
855.093	0.0135942
855.171	0.0135186
855.249	0.0134254
855.328	0.0134851
855.406	0.0135431
855.484	0.0135116
855.562	0.0134690
855.640	0.0134328
855.718	0.0136259
855.796	0.0136378
855.874	0.0134711
855.953	0.0135186
856.031	0.0134138
856.109	0.0134512
856.187	0.0134551
856.265	0.0134915
856.343	0.0134850
856.421	0.0135001
856.499	0.0134232
856.578	0.0135922
856.656	0.0136062
856.734	0.0136789
856.812	0.0134807
856.890	0.0134396
856.968	0.0134766
857.046	0.0135064
857.124	0.0135152
857.203	0.0135421
857.281	0.0133913
857.359	0.0134957
857.437	0.0134464
857.515	0.0134888
857.593	0.0136352
857.671	0.0135264
857.749	0.0134826
857.828	0.0134093
857.906	0.0135400
857.984	0.0135641
858.062	0.0134701
858.140	0.0136011
858.218	0.0133729
858.296	0.0135261
858.374	0.0134771
858.453	0.0134774
858.531	0.0135688
858.609	0.0134251
858.687	0.0135091
858.765	0.0136234
858.843	0.0136344
858.921	0.0134618
858.999	0.0135573
859.078	0.0137299
859.156	0.0135648
859.234	0.0135075
859.312	0.0135513
859.390	0.0136305
859.468	0.0135133
859.546	0.0136011
859.624	0.0135951
859.703	0.0134415
859.781	0.0135290
859.859	0.0135586
859.937	0.0134367
860.015	0.0135158
860.093	0.0135196
860.171	0.0135723
860.249	0.0134982
860.328	0.0135298
860.406	0.0135611
860.484	0.0134718
860.562	0.0133575
860.640	0.0136246
860.718	0.0135263
860.796	0.0134619
860.874	0.0134486
860.953	0.0134911
861.031	0.0134732
861.109	0.0135930
861.187	0.0135573
861.265	0.0135895
861.343	0.0135055
861.421	0.0135497
861.499	0.0133559
861.578	0.0135580
861.656	0.0136646
861.734	0.0134003
861.812	0.0133738
861.890	0.0134394
861.968	0.0133284
862.046	0.0137204
862.124	0.0137941
862.203	0.0134342
862.281	0.0134825
862.359	0.0135738
862.437	0.0133990
862.515	0.0133665
862.593	0.0134414
862.671	0.0134132
862.749	0.0134735
862.828	0.0134779
862.906	0.0134848
862.984	0.0133922
863.062	0.0134078
863.140	0.0135354
863.218	0.0135338
863.296	0.0135957
863.374	0.0135537
863.453	0.0134143
863.531	0.0134606
863.609	0.0134873
863.687	0.0136051
863.765	0.0135358
863.843	0.0135901
863.921	0.0135085
863.999	0.0135107
864.078	0.0136012
864.156	0.0135477
864.234	0.0133424
864.312	0.0135954
864.390	0.0136324
864.468	0.0135820
864.546	0.0135476
864.624	0.0134752
864.703	0.0134377
864.781	0.0135963
864.859	0.0136019
864.937	0.0135546
865.015	0.0135889
865.093	0.0136188
865.171	0.0134786
865.249	0.0135664
865.328	0.0135564
865.406	0.0135495
865.484	0.0136959
865.562	0.0134989
865.640	0.0135226
865.718	0.0134960
865.796	0.0136248
865.874	0.0135800
865.953	0.0134675
866.031	0.0135619
866.109	0.0135329
866.187	0.0135025
866.265	0.0133891
866.343	0.0134751
866.421	0.0134128
866.499	0.0134541
866.578	0.0134461
866.656	0.0135027
866.734	0.0135582
866.812	0.0135168
866.890	0.0135136
866.968	0.0134647
867.046	0.0134737
867.124	0.0136574
867.203	0.0134136
867.281	0.0134921
867.359	0.0134904
867.437	0.0134951
867.515	0.0135262
867.593	0.0135842
867.671	0.0134418
867.749	0.0134275
867.828	0.0135459
867.906	0.0135252
867.984	0.0136130
868.062	0.0134945
868.140	0.0135323
868.218	0.0135304
868.296	0.0134241
868.374	0.0134708
868.453	0.0134509
868.531	0.0135133
868.609	0.0133932
868.687	0.0134425
868.765	0.0133810
868.843	0.0134243
868.921	0.0134995
868.999	0.0134023
869.078	0.0134509
869.156	0.0136015
869.234	0.0134930
869.312	0.0133551
869.390	0.0133792
869.468	0.0134970
869.546	0.0135427
869.624	0.0135824
869.703	0.0134336
869.781	0.0134512
869.859	0.0134717
869.937	0.0135765
870.015	0.0135671
870.093	0.0135149
870.171	0.0135133
870.249	0.0134170
870.328	0.0135405
870.406	0.0134505
870.484	0.0135964
870.562	0.0134022
870.640	0.0134406
870.718	0.0134035
870.796	0.0134737
870.874	0.0135370
870.953	0.0135144
871.031	0.0133857
871.109	0.0134208
871.187	0.0135016
871.265	0.0134769
871.343	0.0134584
871.421	0.0133352
871.499	0.0134555
871.578	0.0135104
871.656	0.0134070
871.734	0.0135497
871.812	0.0134442
871.890	0.0135421
871.968	0.0135235
872.046	0.0135351
872.124	0.0136497
872.203	0.0136263
872.281	0.0135374
872.359	0.0135587
872.437	0.0134827
872.515	0.0136567
872.593	0.0135568
872.671	0.0134319
872.749	0.0135097
872.828	0.0136084
872.906	0.0135420
872.984	0.0134533
873.062	0.0134928
873.140	0.0134406
873.218	0.0135278
873.296	0.0136601
873.374	0.0134427
873.453	0.0135155
873.531	0.0135928
873.609	0.0134393
873.687	0.0134376
873.765	0.0135896
873.843	0.0135052
873.921	0.0134464
873.999	0.0134965
874.078	0.0135188
874.156	0.0135006
874.234	0.0135089
874.312	0.0134396
874.390	0.0135487
874.468	0.0135720
874.546	0.0135643
874.624	0.0135057
874.703	0.0133813
874.781	0.0133923
874.859	0.0136635
874.937	0.0133607
875.015	0.0135490
875.093	0.0134197
875.171	0.0134449
875.249	0.0135775
875.328	0.0135471
875.406	0.0134654
875.484	0.0134061
875.562	0.0135163
875.640	0.0136115
875.718	0.0133640
875.796	0.0133746
875.874	0.0134210
875.953	0.0134518
876.031	0.0134581
876.109	0.0135445
876.187	0.0134312
876.265	0.0133285
876.343	0.0134190
876.421	0.0134633
876.499	0.0134907
876.578	0.0135035
876.656	0.0133916
876.734	0.0134612
876.812	0.0134367
876.890	0.0135639
876.968	0.0133954
877.046	0.0134487
877.124	0.0133651
877.203	0.0135104
877.281	0.0135489
877.359	0.0134187
877.437	0.0135130
877.515	0.0135249
877.593	0.0133879
877.671	0.0134982
877.749	0.0134245
877.828	0.0134081
877.906	0.0135595
877.984	0.0134662
878.062	0.0135194
878.140	0.0134558
878.218	0.0135634
878.296	0.0136524
878.374	0.0133930
878.453	0.0133347
878.531	0.0134450
878.609	0.0135157
878.687	0.0135062
878.765	0.0133222
878.843	0.0133929
878.921	0.0133643
878.999	0.0133718
879.078	0.0134511
879.156	0.0133062
879.234	0.0133441
879.312	0.0133144
879.390	0.0134262
879.468	0.0133697
879.546	0.0132265
879.624	0.0133662
879.703	0.0133714
879.781	0.0133155
879.859	0.0132884
879.937	0.0132940
880.015	0.0133578
880.093	0.0132078
880.171	0.0132509
880.249	0.0133484
880.328	0.0135011
880.406	0.0133258
880.484	0.0136009
880.562	0.0135344
880.640	0.0133662
880.718	0.0133759
880.796	0.0134904
880.874	0.0133350
880.953	0.0132817
881.031	0.0133653
881.109	0.0133612
881.187	0.0134554
881.265	0.0134193
881.343	0.0134941
881.421	0.0134894
881.499	0.0135146
881.578	0.0135197
881.656	0.0134116
881.734	0.0134757
881.812	0.0135995
881.890	0.0135342
881.968	0.0134373
882.046	0.0135229
882.124	0.0134710
882.203	0.0133128
882.281	0.0135585
882.359	0.0134360
882.437	0.0135077
882.515	0.0135201
882.593	0.0133360
882.671	0.0133776
882.749	0.0133987
882.828	0.0135066
882.906	0.0134283
882.984	0.0135287
883.062	0.0134175
883.140	0.0134713
883.218	0.0134898
883.296	0.0132495
883.374	0.0135120
883.453	0.0135027
883.531	0.0134233
883.609	0.0133814
883.687	0.0134089
883.765	0.0134219
883.843	0.0134965
883.921	0.0135346
883.999	0.0134646
884.078	0.0134038
884.156	0.0133252
884.234	0.0133215
884.312	0.0133139
884.390	0.0134727
884.468	0.0133920
884.546	0.0133517
884.624	0.0133722
884.703	0.0133937
884.781	0.0135056
884.859	0.0133794
884.937	0.0135423
885.015	0.0135410
885.093	0.0134662
885.171	0.0134757
885.249	0.0134171
885.328	0.0134373
885.406	0.0134702
885.484	0.0133530
885.562	0.0132804
885.640	0.0134136
885.718	0.0133823
885.796	0.0134513
885.874	0.0134366
885.953	0.0133912
886.031	0.0133856
886.109	0.0133875
886.187	0.0134800
886.265	0.0134050
886.343	0.0134173
886.421	0.0133188
886.499	0.0135381
886.578	0.0135872
886.656	0.0134939
886.734	0.0134396
886.812	0.0133137
886.890	0.0137217
886.968	0.0134894
887.046	0.0134155
887.124	0.0135833
887.203	0.0134875
887.281	0.0135506
887.359	0.0134626
887.437	0.0133778
887.515	0.0135976
887.593	0.0135358
887.671	0.0135052
887.749	0.0135188
887.828	0.0135109
887.906	0.0135252
887.984	0.0136403
888.062	0.0135502
888.140	0.0135754
888.218	0.0135872
888.296	0.0136659
888.374	0.0136095
888.453	0.0135149
888.531	0.0134840
888.609	0.0134446
888.687	0.0134582
888.765	0.0134028
888.843	0.0134841
888.921	0.0136042
888.999	0.0135538
889.078	0.0135193
889.156	0.0135675
889.234	0.0134055
889.312	0.0134199
889.390	0.0133791
889.468	0.0134116
889.546	0.0134084
889.624	0.0135580
889.703	0.0135619
889.781	0.0135042
889.859	0.0134035
889.937	0.0135162
890.015	0.0134956
890.093	0.0135068
890.171	0.0135210
890.249	0.0134827
890.328	0.0134765
890.406	0.0135530
890.484	0.0135306
890.562	0.0134232
890.640	0.0135141
890.718	0.0135621
890.796	0.0134305
890.874	0.0134733
890.953	0.0135009
891.031	0.0134994
891.109	0.0135574
891.187	0.0135352
891.265	0.0134209
891.343	0.0135550
891.421	0.0134030
891.499	0.0134489
891.578	0.0134906
891.656	0.0134590
891.734	0.0134229
891.812	0.0133648
891.890	0.0133124
891.968	0.0134231
892.046	0.0132591
892.124	0.0134485
892.203	0.0134517
892.281	0.0133486
892.359	0.0134007
892.437	0.0132470
892.515	0.0132543
892.593	0.0133279
892.671	0.0133941
892.749	0.0134222
892.828	0.0134270
892.906	0.0133096
892.984	0.0135580
893.062	0.0134310
893.140	0.0134907
893.218	0.0134835
893.296	0.0133960
893.374	0.0135717
893.453	0.0134628
893.531	0.0133408
893.609	0.0134393
893.687	0.0133822
893.765	0.0134260
893.843	0.0135018
893.921	0.0134996
893.999	0.0134409
894.078	0.0136286
894.156	0.0134059
894.234	0.0135616
894.312	0.0135685
894.390	0.0135294
894.468	0.0134170
894.546	0.0134840
894.624	0.0134328
894.703	0.0133864
894.781	0.0136713
894.859	0.0133752
894.937	0.0133707
895.015	0.0134755
895.093	0.0134430
895.171	0.0133793
895.249	0.0133834
895.328	0.0134875
895.406	0.0134454
895.484	0.0135316
895.562	0.0134795
895.640	0.0133638
895.718	0.0133352
895.796	0.0135098
895.874	0.0134491
895.953	0.0133000
896.031	0.0133545
896.109	0.0133423
896.187	0.0133397
896.265	0.0133034
896.343	0.0133838
896.421	0.0133569
896.499	0.0133542
896.578	0.0133330
896.656	0.0132389
896.734	0.0133502
896.812	0.0133397
896.890	0.0134388
896.968	0.0135533
897.046	0.0132645
897.124	0.0133729
897.203	0.0134437
897.281	0.0133246
897.359	0.0134289
897.437	0.0133470
897.515	0.0134091
897.593	0.0135953
897.671	0.0135354
897.749	0.0135770
897.828	0.0135863
897.906	0.0134541
897.984	0.0136255
898.062	0.0134297
898.140	0.0135277
898.218	0.0136098
898.296	0.0134374
898.374	0.0132200
898.453	0.0134218
898.531	0.0134546
898.609	0.0133728
898.687	0.0133764
898.765	0.0133372
898.843	0.0133894
898.921	0.0132544
898.999	0.0133128
899.078	0.0134337
899.156	0.0134758
899.234	0.0135014
899.312	0.0134160
899.390	0.0134384
899.468	0.0134643
899.546	0.0133849
899.624	0.0134713
899.703	0.0134664
899.781	0.0135768
899.859	0.0134065
899.937	0.0135420
900.015	0.0134537
900.093	0.0133853
900.171	0.0132244
900.249	0.0133176
900.328	0.0133956
900.406	0.0134721
900.484	0.0131930
900.562	0.0132788
900.640	0.0134254
900.718	0.0132419
900.796	0.0134036
900.874	0.0133257
900.953	0.0134277
901.031	0.0133978
901.109	0.0132962
901.187	0.0134630
901.265	0.0134267
901.343	0.0133175
901.421	0.0133565
901.499	0.0134483
901.578	0.0132676
901.656	0.0132006
901.734	0.0133499
901.812	0.0133971
901.890	0.0133389
901.968	0.0132855
902.046	0.0132814
902.124	0.0131139
902.203	0.0133242
902.281	0.0133617
902.359	0.0131669
902.437	0.0132341
902.515	0.0131969
902.593	0.0132635
902.671	0.0133616
902.749	0.0133982
902.828	0.0134187
902.906	0.0134003
902.984	0.0133727
903.062	0.0134531
903.140	0.0133470
903.218	0.0133995
903.296	0.0135561
903.374	0.0134866
903.453	0.0134246
903.531	0.0134127
903.609	0.0134026
903.687	0.0134124
903.765	0.0133749
903.843	0.0133723
903.921	0.0133253
903.999	0.0133565
904.078	0.0133315
904.156	0.0133891
904.234	0.0134538
904.312	0.0132426
904.390	0.0134187
904.468	0.0133524
904.546	0.0134490
904.624	0.0134194
904.703	0.0132456
904.781	0.0134831
904.859	0.0133881
904.937	0.0135635
905.015	0.0136550
905.093	0.0135271
905.171	0.0136018
905.249	0.0135887
905.328	0.0135870
905.406	0.0136018
905.484	0.0134345
905.562	0.0135825
905.640	0.0135876
905.718	0.0135217
905.796	0.0135170
905.874	0.0135385
905.953	0.0135481
906.031	0.0135041
906.109	0.0134373
906.187	0.0134767
906.265	0.0133609
906.343	0.0134103
906.421	0.0134910
906.499	0.0133460
906.578	0.0133544
906.656	0.0133817
906.734	0.0134827
906.812	0.0133824
906.890	0.0134816
906.968	0.0135171
907.046	0.0135798
907.124	0.0134072
907.203	0.0135606
907.281	0.0134141
907.359	0.0135291
907.437	0.0133993
907.515	0.0134850
907.593	0.0135908
907.671	0.0136182
907.749	0.0135750
907.828	0.0135442
907.906	0.0134476
907.984	0.0134300
908.062	0.0135059
908.140	0.0134791
908.218	0.0134071
908.296	0.0132530
908.374	0.0133553
908.453	0.0134624
908.531	0.0133239
908.609	0.0133059
908.687	0.0133566
908.765	0.0132983
908.843	0.0133224
908.921	0.0133614
908.999	0.0133603
909.078	0.0135095
909.156	0.0134585
909.234	0.0134322
909.312	0.0133855
909.390	0.0134352
909.468	0.0135593
909.546	0.0134940
909.624	0.0135050
909.703	0.0134332
909.781	0.0135909
909.859	0.0134805
909.937	0.0136029
910.015	0.0135497
910.093	0.0136317
910.171	0.0134348
910.249	0.0134919
910.328	0.0135365
910.406	0.0133898
910.484	0.0136247
910.562	0.0135382
910.640	0.0135248
910.718	0.0134942
910.796	0.0135213
910.874	0.0134161
910.953	0.0133263
911.031	0.0133862
911.109	0.0134704
911.187	0.0134472
911.265	0.0135270
911.343	0.0135971
911.421	0.0134799
911.499	0.0134972
911.578	0.0134925
911.656	0.0136898
911.734	0.0135691
911.812	0.0134890
911.890	0.0134825
911.968	0.0135892
912.046	0.0134207
912.124	0.0134811
912.203	0.0136457
912.281	0.0136036
912.359	0.0136981
912.437	0.0135721
912.515	0.0135408
912.593	0.0134736
912.671	0.0136279
912.749	0.0134899
912.828	0.0134868
912.906	0.0134902
912.984	0.0135072
913.062	0.0136562
913.140	0.0135637
913.218	0.0135032
913.296	0.0136210
913.374	0.0134866
913.453	0.0134876
913.531	0.0135847
913.609	0.0134776
913.687	0.0134753
913.765	0.0136536
913.843	0.0135577
913.921	0.0135800
913.999	0.0134951
914.078	0.0134821
914.156	0.0134801
914.234	0.0136459
914.312	0.0135201
914.390	0.0135800
914.468	0.0135057
914.546	0.0134821
914.624	0.0135339
914.703	0.0135061
914.781	0.0135197
914.859	0.0135533
914.937	0.0134609
915.015	0.0134726
915.093	0.0135770
915.171	0.0134412
915.249	0.0135207
915.328	0.0134350
915.406	0.0134881
915.484	0.0134960
915.562	0.0134705
915.640	0.0134017
915.718	0.0135444
915.796	0.0135053
915.874	0.0134270
915.953	0.0135220
916.031	0.0135033
916.109	0.0135618
916.187	0.0134997
916.265	0.0135156
916.343	0.0134370
916.421	0.0135542
916.499	0.0135510
916.578	0.0133915
916.656	0.0134901
916.734	0.0132768
916.812	0.0134779
916.890	0.0134805
916.968	0.0133709
917.046	0.0133553
917.124	0.0134031
917.203	0.0134448
917.281	0.0135238
917.359	0.0134662
917.437	0.0133506
917.515	0.0134315
917.593	0.0134665
917.671	0.0134625
917.749	0.0134573
917.828	0.0135213
917.906	0.0134264
917.984	0.0133882
918.062	0.0134261
918.140	0.0134995
918.218	0.0135429
918.296	0.0134895
918.374	0.0133495
918.453	0.0135313
918.531	0.0134997
918.609	0.0133728
918.687	0.0133990
918.765	0.0134007
918.843	0.0134348
918.921	0.0135017
918.999	0.0134676
919.078	0.0134482
919.156	0.0134962
919.234	0.0133762
919.312	0.0135030
919.390	0.0135178
919.468	0.0135023
919.546	0.0134317
919.624	0.0134006
919.703	0.0134898
919.781	0.0136031
919.859	0.0135468
919.937	0.0133535
