05/06/2022	19:03:09	Ver.	4.1	UNKNOWN
Optical Delay	600.015094	Delta X		0.078125	Sweeps	1	Scan Rate	0/0
Coordinates	Axis 1	NaN	Axis 2	NaN	Axis 3	NaN	Axis 4	NaN	Axis 5	NaN	Axis 6	0.000000
TX Power	0.000000	RX Power	0.000000

600.015	0.0137804
600.093	0.0138255
600.171	0.0138092
600.249	0.0137124
600.328	0.0138036
600.406	0.0137703
600.484	0.0138482
600.562	0.0137667
600.640	0.0136872
600.718	0.0136951
600.796	0.0138155
600.874	0.0137224
600.953	0.0138356
601.031	0.0137217
601.109	0.0137677
601.187	0.0136971
601.265	0.0137423
601.343	0.0138557
601.421	0.0137480
601.499	0.0137725
601.578	0.0138348
601.656	0.0137563
601.734	0.0136941
601.812	0.0137731
601.890	0.0137459
601.968	0.0136237
602.046	0.0137792
602.124	0.0138466
602.203	0.0138103
602.281	0.0137454
602.359	0.0137785
602.437	0.0136281
602.515	0.0137060
602.593	0.0137567
602.671	0.0137568
602.749	0.0137390
602.828	0.0136881
602.906	0.0138182
602.984	0.0138101
603.062	0.0137627
603.140	0.0138293
603.218	0.0138269
603.296	0.0138486
603.374	0.0137957
603.453	0.0135777
603.531	0.0138093
603.609	0.0138879
603.687	0.0137534
603.765	0.0138331
603.843	0.0138284
603.921	0.0137991
603.999	0.0137761
604.078	0.0138543
604.156	0.0138571
604.234	0.0138988
604.312	0.0136216
604.390	0.0137681
604.468	0.0139043
604.546	0.0138504
604.624	0.0138626
604.703	0.0137597
604.781	0.0137589
604.859	0.0138605
604.937	0.0137558
605.015	0.0137325
605.093	0.0138097
605.171	0.0137639
605.249	0.0137860
605.328	0.0138969
605.406	0.0138290
605.484	0.0138187
605.562	0.0137614
605.640	0.0137856
605.718	0.0138263
605.796	0.0138182
605.874	0.0139030
605.953	0.0138726
606.031	0.0139315
606.109	0.0138140
606.187	0.0138203
606.265	0.0138949
606.343	0.0138049
606.421	0.0138847
606.499	0.0138288
606.578	0.0138877
606.656	0.0138410
606.734	0.0138397
606.812	0.0138963
606.890	0.0139508
606.968	0.0139235
607.046	0.0138228
607.124	0.0138769
607.203	0.0139491
607.281	0.0138876
607.359	0.0138589
607.437	0.0138348
607.515	0.0138277
607.593	0.0138229
607.671	0.0138756
607.749	0.0138676
607.828	0.0139317
607.906	0.0138810
607.984	0.0138090
608.062	0.0139501
608.140	0.0137509
608.218	0.0138158
608.296	0.0138753
608.374	0.0139067
608.453	0.0138867
608.531	0.0137922
608.609	0.0138858
608.687	0.0138634
608.765	0.0138254
608.843	0.0137582
608.921	0.0138367
608.999	0.0138742
609.078	0.0137514
609.156	0.0138047
609.234	0.0138125
609.312	0.0137476
609.390	0.0138502
609.468	0.0138754
609.546	0.0138166
609.624	0.0138535
609.703	0.0137498
609.781	0.0138291
609.859	0.0138936
609.937	0.0138857
610.015	0.0137887
610.093	0.0136752
610.171	0.0137808
610.249	0.0137957
610.328	0.0137420
610.406	0.0138304
610.484	0.0137684
610.562	0.0138746
610.640	0.0139465
610.718	0.0138443
610.796	0.0136804
610.874	0.0137370
610.953	0.0137899
611.031	0.0139117
611.109	0.0139201
611.187	0.0138562
611.265	0.0137973
611.343	0.0138563
611.421	0.0137341
611.499	0.0139505
611.578	0.0138127
611.656	0.0138392
611.734	0.0138622
611.812	0.0138235
611.890	0.0137980
611.968	0.0140665
612.046	0.0138884
612.124	0.0138683
612.203	0.0140073
612.281	0.0138708
612.359	0.0136824
612.437	0.0139035
612.515	0.0139908
612.593	0.0138047
612.671	0.0138040
612.749	0.0138573
612.828	0.0139406
612.906	0.0139360
612.984	0.0138599
613.062	0.0137228
613.140	0.0138761
613.218	0.0138773
613.296	0.0138998
613.374	0.0139544
613.453	0.0140057
613.531	0.0137628
613.609	0.0139143
613.687	0.0139111
613.765	0.0138880
613.843	0.0138112
613.921	0.0138580
613.999	0.0140114
614.078	0.0139057
614.156	0.0137809
614.234	0.0137897
614.312	0.0139935
614.390	0.0138770
614.468	0.0138434
614.546	0.0138529
614.624	0.0137730
614.703	0.0138293
614.781	0.0138014
614.859	0.0137180
614.937	0.0137556
615.015	0.0138764
615.093	0.0138586
615.171	0.0138139
615.249	0.0138062
615.328	0.0137646
615.406	0.0137262
615.484	0.0138359
615.562	0.0138037
615.640	0.0138039
615.718	0.0138860
615.796	0.0137011
615.874	0.0136707
615.953	0.0139115
616.031	0.0138209
616.109	0.0137910
616.187	0.0136893
616.265	0.0139086
616.343	0.0138905
616.421	0.0138038
616.499	0.0137948
616.578	0.0139227
616.656	0.0138578
616.734	0.0139414
616.812	0.0137856
616.890	0.0138580
616.968	0.0137975
617.046	0.0139252
617.124	0.0138445
617.203	0.0139099
617.281	0.0138208
617.359	0.0138876
617.437	0.0138552
617.515	0.0138092
617.593	0.0139730
617.671	0.0138595
617.749	0.0137685
617.828	0.0139440
617.906	0.0139159
617.984	0.0137844
618.062	0.0138758
618.140	0.0137878
618.218	0.0136848
618.296	0.0138576
618.374	0.0138616
618.453	0.0136684
618.531	0.0137981
618.609	0.0139230
618.687	0.0138513
618.765	0.0136829
618.843	0.0137276
618.921	0.0137611
618.999	0.0137705
619.078	0.0137666
619.156	0.0138121
619.234	0.0138639
619.312	0.0137604
619.390	0.0136963
619.468	0.0137968
619.546	0.0138585
619.624	0.0137160
619.703	0.0138327
619.781	0.0138039
619.859	0.0137380
619.937	0.0138312
620.015	0.0137409
620.093	0.0137680
620.171	0.0138599
620.249	0.0138290
620.328	0.0138047
620.406	0.0138969
620.484	0.0137398
620.562	0.0138113
620.640	0.0139272
620.718	0.0137756
620.796	0.0137625
620.874	0.0138816
620.953	0.0137823
621.031	0.0138110
621.109	0.0139042
621.187	0.0137418
621.265	0.0137296
621.343	0.0137619
621.421	0.0137516
621.499	0.0136755
621.578	0.0137198
621.656	0.0137956
621.734	0.0138567
621.812	0.0137953
621.890	0.0139014
621.968	0.0138251
622.046	0.0138042
622.124	0.0137727
622.203	0.0137367
622.281	0.0138549
622.359	0.0140009
622.437	0.0138248
622.515	0.0138139
622.593	0.0137420
622.671	0.0138536
622.749	0.0137576
622.828	0.0138197
622.906	0.0138107
622.984	0.0138636
623.062	0.0138422
623.140	0.0139063
623.218	0.0138840
623.296	0.0138925
623.374	0.0138739
623.453	0.0139854
623.531	0.0137389
623.609	0.0139339
623.687	0.0137720
623.765	0.0137965
623.843	0.0139059
623.921	0.0138189
623.999	0.0139469
624.078	0.0139288
624.156	0.0138101
624.234	0.0138577
624.312	0.0138191
624.390	0.0136366
624.468	0.0137744
624.546	0.0138195
624.624	0.0138406
624.703	0.0138274
624.781	0.0137268
624.859	0.0137106
624.937	0.0137547
625.015	0.0137801
625.093	0.0137489
625.171	0.0136649
625.249	0.0137305
625.328	0.0137870
625.406	0.0136769
625.484	0.0138228
625.562	0.0138552
625.640	0.0138873
625.718	0.0138958
625.796	0.0137848
625.874	0.0138746
625.953	0.0139529
626.031	0.0138073
626.109	0.0138026
626.187	0.0138869
626.265	0.0136758
626.343	0.0137563
626.421	0.0139180
626.499	0.0139390
626.578	0.0138579
626.656	0.0138184
626.734	0.0138348
626.812	0.0137922
626.890	0.0138789
626.968	0.0137579
627.046	0.0138808
627.124	0.0137560
627.203	0.0138885
627.281	0.0137569
627.359	0.0139529
627.437	0.0138602
627.515	0.0137760
627.593	0.0138845
627.671	0.0138354
627.749	0.0137032
627.828	0.0139290
627.906	0.0139056
627.984	0.0138419
628.062	0.0137396
628.140	0.0138958
628.218	0.0139843
628.296	0.0138490
628.374	0.0139922
628.453	0.0139893
628.531	0.0139764
628.609	0.0139622
628.687	0.0139094
628.765	0.0138871
628.843	0.0138712
628.921	0.0138588
628.999	0.0137782
629.078	0.0136436
629.156	0.0137823
629.234	0.0137373
629.312	0.0137814
629.390	0.0137303
629.468	0.0138651
629.546	0.0138269
629.624	0.0138591
629.703	0.0138251
629.781	0.0139328
629.859	0.0138992
629.937	0.0140003
630.015	0.0139734
630.093	0.0139930
630.171	0.0138790
630.249	0.0139131
630.328	0.0139254
630.406	0.0138369
630.484	0.0137997
630.562	0.0137314
630.640	0.0139249
630.718	0.0137733
630.796	0.0135954
630.874	0.0138136
630.953	0.0137923
631.031	0.0138248
631.109	0.0136696
631.187	0.0137347
631.265	0.0138779
631.343	0.0139132
631.421	0.0140428
631.499	0.0138534
631.578	0.0138749
631.656	0.0139461
631.734	0.0140238
631.812	0.0138399
631.890	0.0139377
631.968	0.0138707
632.046	0.0138610
632.124	0.0139280
632.203	0.0139700
632.281	0.0137708
632.359	0.0137714
632.437	0.0138730
632.515	0.0138457
632.593	0.0136352
632.671	0.0137782
632.749	0.0138120
632.828	0.0137998
632.906	0.0139320
632.984	0.0138349
633.062	0.0138365
633.140	0.0139155
633.218	0.0138261
633.296	0.0137359
633.374	0.0139284
633.453	0.0139040
633.531	0.0137733
633.609	0.0138730
633.687	0.0138872
633.765	0.0138805
633.843	0.0138297
633.921	0.0137256
633.999	0.0139026
634.078	0.0139841
634.156	0.0138719
634.234	0.0139005
634.312	0.0137896
634.390	0.0137014
634.468	0.0137790
634.546	0.0137101
634.624	0.0139064
634.703	0.0138956
634.781	0.0137827
634.859	0.0138339
634.937	0.0137695
635.015	0.0138090
635.093	0.0138053
635.171	0.0137781
635.249	0.0138497
635.328	0.0139098
635.406	0.0138148
635.484	0.0138734
635.562	0.0139358
635.640	0.0138453
635.718	0.0137023
635.796	0.0138301
635.874	0.0137713
635.953	0.0137781
636.031	0.0137309
636.109	0.0138137
636.187	0.0139132
636.265	0.0138496
636.343	0.0136956
636.421	0.0138609
636.499	0.0136697
636.578	0.0136992
636.656	0.0138318
636.734	0.0139457
636.812	0.0138436
636.890	0.0138379
636.968	0.0138337
637.046	0.0139104
637.124	0.0138557
637.203	0.0138132
637.281	0.0137469
637.359	0.0136782
637.437	0.0138367
637.515	0.0137833
637.593	0.0138436
637.671	0.0137681
637.749	0.0138338
637.828	0.0138665
637.906	0.0138072
637.984	0.0136980
638.062	0.0136545
638.140	0.0136330
638.218	0.0138123
638.296	0.0139139
638.374	0.0137820
638.453	0.0138287
638.531	0.0137733
638.609	0.0138381
638.687	0.0137680
638.765	0.0138565
638.843	0.0138310
638.921	0.0139380
638.999	0.0138381
639.078	0.0137295
639.156	0.0138734
639.234	0.0138413
639.312	0.0138155
639.390	0.0138422
639.468	0.0137881
639.546	0.0138414
639.624	0.0137832
639.703	0.0138475
639.781	0.0138428
639.859	0.0138281
639.937	0.0137413
640.015	0.0137603
640.093	0.0137489
640.171	0.0137320
640.249	0.0137897
640.328	0.0138248
640.406	0.0138223
640.484	0.0137594
640.562	0.0136989
640.640	0.0138705
640.718	0.0138808
640.796	0.0138885
640.874	0.0138325
640.953	0.0138908
641.031	0.0138837
641.109	0.0138416
641.187	0.0138413
641.265	0.0137743
641.343	0.0137277
641.421	0.0137468
641.499	0.0139724
641.578	0.0138263
641.656	0.0137806
641.734	0.0139162
641.812	0.0138718
641.890	0.0138211
641.968	0.0137202
642.046	0.0137688
642.124	0.0137520
642.203	0.0138454
642.281	0.0139030
642.359	0.0138302
642.437	0.0137482
642.515	0.0137498
642.593	0.0138567
642.671	0.0138161
642.749	0.0139479
642.828	0.0139679
642.906	0.0137909
642.984	0.0138258
643.062	0.0138779
643.140	0.0136894
643.218	0.0138930
643.296	0.0137238
643.374	0.0137774
643.453	0.0137953
643.531	0.0138460
643.609	0.0138728
643.687	0.0136226
643.765	0.0136699
643.843	0.0138154
643.921	0.0137352
643.999	0.0138577
644.078	0.0136311
644.156	0.0137084
644.234	0.0136866
644.312	0.0137727
644.390	0.0138355
644.468	0.0138010
644.546	0.0138668
644.624	0.0139922
644.703	0.0139488
644.781	0.0139929
644.859	0.0138905
644.937	0.0138487
645.015	0.0137704
645.093	0.0138601
645.171	0.0139223
645.249	0.0138421
645.328	0.0136921
645.406	0.0136653
645.484	0.0137728
645.562	0.0136187
645.640	0.0137056
645.718	0.0137035
645.796	0.0137524
645.874	0.0136463
645.953	0.0138449
646.031	0.0139049
646.109	0.0139470
646.187	0.0139067
646.265	0.0138075
646.343	0.0138188
646.421	0.0137634
646.499	0.0138464
646.578	0.0137746
646.656	0.0139011
646.734	0.0137827
646.812	0.0138626
646.890	0.0139438
646.968	0.0138737
647.046	0.0138563
647.124	0.0139174
647.203	0.0139806
647.281	0.0138887
647.359	0.0138446
647.437	0.0137183
647.515	0.0136922
647.593	0.0137443
647.671	0.0138596
647.749	0.0138108
647.828	0.0137473
647.906	0.0137077
647.984	0.0137792
648.062	0.0137107
648.140	0.0137390
648.218	0.0137537
648.296	0.0137202
648.374	0.0138005
648.453	0.0138153
648.531	0.0136698
648.609	0.0137029
648.687	0.0137092
648.765	0.0137423
648.843	0.0137000
648.921	0.0138201
648.999	0.0138062
649.078	0.0136440
649.156	0.0137566
649.234	0.0138979
649.312	0.0139159
649.390	0.0139507
649.468	0.0138586
649.546	0.0137301
649.624	0.0137931
649.703	0.0139160
649.781	0.0139703
649.859	0.0139728
649.937	0.0139259
650.015	0.0136395
650.093	0.0137383
650.171	0.0138532
650.249	0.0137235
650.328	0.0138781
650.406	0.0137126
650.484	0.0139001
650.562	0.0139832
650.640	0.0139532
650.718	0.0138937
650.796	0.0139563
650.874	0.0138771
650.953	0.0139401
651.031	0.0138920
651.109	0.0138887
651.187	0.0139058
651.265	0.0138740
651.343	0.0139890
651.421	0.0140293
651.499	0.0139229
651.578	0.0138529
651.656	0.0138838
651.734	0.0137952
651.812	0.0137357
651.890	0.0138190
651.968	0.0138031
652.046	0.0138541
652.124	0.0137833
652.203	0.0137177
652.281	0.0137249
652.359	0.0137194
652.437	0.0137518
652.515	0.0137872
652.593	0.0138198
652.671	0.0139177
652.749	0.0137486
652.828	0.0138542
652.906	0.0138017
652.984	0.0137708
653.062	0.0137717
653.140	0.0138341
653.218	0.0138149
653.296	0.0138447
653.374	0.0138490
653.453	0.0138075
653.531	0.0138506
653.609	0.0138414
653.687	0.0138729
653.765	0.0139680
653.843	0.0138916
653.921	0.0137927
653.999	0.0138501
654.078	0.0138045
654.156	0.0137865
654.234	0.0138552
654.312	0.0137932
654.390	0.0138878
654.468	0.0137127
654.546	0.0136582
654.624	0.0136510
654.703	0.0138223
654.781	0.0136915
654.859	0.0138967
654.937	0.0138239
655.015	0.0137817
655.093	0.0139381
655.171	0.0139082
655.249	0.0137811
655.328	0.0137184
655.406	0.0140793
655.484	0.0140565
655.562	0.0137988
655.640	0.0139942
655.718	0.0137614
655.796	0.0137563
655.874	0.0139673
655.953	0.0138710
656.031	0.0138216
656.109	0.0137289
656.187	0.0137733
656.265	0.0136189
656.343	0.0136573
656.421	0.0136107
656.499	0.0135643
656.578	0.0136713
656.656	0.0135892
656.734	0.0136163
656.812	0.0137323
656.890	0.0136736
656.968	0.0137889
657.046	0.0138690
657.124	0.0137994
657.203	0.0139352
657.281	0.0140344
657.359	0.0140411
657.437	0.0139685
657.515	0.0140086
657.593	0.0140524
657.671	0.0139090
657.749	0.0137369
657.828	0.0138632
657.906	0.0136436
657.984	0.0135468
658.062	0.0136308
658.140	0.0135108
658.218	0.0134763
658.296	0.0134805
658.374	0.0133826
658.453	0.0134133
658.531	0.0134619
658.609	0.0135140
658.687	0.0137095
658.765	0.0136163
658.843	0.0136970
658.921	0.0138213
658.999	0.0138545
659.078	0.0139465
659.156	0.0140888
659.234	0.0141291
659.312	0.0141418
659.390	0.0141380
659.468	0.0142066
659.546	0.0142297
659.624	0.0141558
659.703	0.0139722
659.781	0.0140257
659.859	0.0140237
659.937	0.0138488
660.015	0.0137151
660.093	0.0137754
660.171	0.0135703
660.249	0.0135375
660.328	0.0135744
660.406	0.0135055
660.484	0.0134922
660.562	0.0135487
660.640	0.0135616
660.718	0.0137122
660.796	0.0136649
660.874	0.0137106
660.953	0.0138261
661.031	0.0138367
661.109	0.0140577
661.187	0.0141177
661.265	0.0141008
661.343	0.0139556
661.421	0.0141431
661.499	0.0142217
661.578	0.0142066
661.656	0.0141255
661.734	0.0142357
661.812	0.0141901
661.890	0.0140630
661.968	0.0138383
662.046	0.0137707
662.124	0.0138297
662.203	0.0137549
662.281	0.0137254
662.359	0.0136332
662.437	0.0136002
662.515	0.0136019
662.593	0.0136797
662.671	0.0136354
662.749	0.0137156
662.828	0.0136755
662.906	0.0136665
662.984	0.0137881
663.062	0.0137411
663.140	0.0139085
663.218	0.0137149
663.296	0.0138076
663.374	0.0138447
663.453	0.0138539
663.531	0.0137667
663.609	0.0139174
663.687	0.0140199
663.765	0.0138390
663.843	0.0139264
663.921	0.0138439
663.999	0.0139317
664.078	0.0138023
664.156	0.0137941
664.234	0.0137806
664.312	0.0136717
664.390	0.0137103
664.468	0.0137720
664.546	0.0138029
664.624	0.0137847
664.703	0.0139094
664.781	0.0139482
664.859	0.0138715
664.937	0.0140017
665.015	0.0140077
665.093	0.0139438
665.171	0.0138591
665.249	0.0139032
665.328	0.0140093
665.406	0.0139240
665.484	0.0140491
665.562	0.0141726
665.640	0.0141297
665.718	0.0139547
665.796	0.0139307
665.874	0.0140073
665.953	0.0139167
666.031	0.0136674
666.109	0.0137974
666.187	0.0137856
666.265	0.0138838
666.343	0.0138339
666.421	0.0137858
666.499	0.0138081
666.578	0.0137128
666.656	0.0136747
666.734	0.0138461
666.812	0.0137737
666.890	0.0137668
666.968	0.0137481
667.046	0.0137596
667.124	0.0138437
667.203	0.0139771
667.281	0.0139633
667.359	0.0139155
667.437	0.0138672
667.515	0.0140053
667.593	0.0140451
667.671	0.0139562
667.749	0.0140394
667.828	0.0140417
667.906	0.0140051
667.984	0.0138511
668.062	0.0138168
668.140	0.0138833
668.218	0.0138023
668.296	0.0137872
668.374	0.0136485
668.453	0.0136140
668.531	0.0135236
668.609	0.0134473
668.687	0.0134506
668.765	0.0134596
668.843	0.0134384
668.921	0.0134162
668.999	0.0134338
669.078	0.0136982
669.156	0.0135796
669.234	0.0136185
669.312	0.0136572
669.390	0.0138660
669.468	0.0139781
669.546	0.0140388
669.624	0.0140673
669.703	0.0141763
669.781	0.0141622
669.859	0.0141647
669.937	0.0142641
670.015	0.0143060
670.093	0.0141696
670.171	0.0141079
670.249	0.0140443
670.328	0.0139236
670.406	0.0139267
670.484	0.0138506
670.562	0.0137489
670.640	0.0136322
670.718	0.0135708
670.796	0.0133169
670.874	0.0133337
670.953	0.0134129
671.031	0.0133878
671.109	0.0135023
671.187	0.0135084
671.265	0.0134393
671.343	0.0135439
671.421	0.0137115
671.499	0.0136674
671.578	0.0138483
671.656	0.0139366
671.734	0.0142047
671.812	0.0141723
671.890	0.0142241
671.968	0.0144139
672.046	0.0144694
672.124	0.0144051
672.203	0.0142484
672.281	0.0142178
672.359	0.0141767
672.437	0.0140475
672.515	0.0140402
672.593	0.0137948
672.671	0.0136475
672.749	0.0137816
672.828	0.0135912
672.906	0.0134479
672.984	0.0134665
673.062	0.0134297
673.140	0.0132922
673.218	0.0132841
673.296	0.0135098
673.374	0.0135270
673.453	0.0137278
673.531	0.0138710
673.609	0.0138584
673.687	0.0139733
673.765	0.0139962
673.843	0.0140128
673.921	0.0139794
673.999	0.0141349
674.078	0.0141992
674.156	0.0139227
674.234	0.0139577
674.312	0.0138888
674.390	0.0138255
674.468	0.0137277
674.546	0.0135438
674.624	0.0135950
674.703	0.0135976
674.781	0.0134765
674.859	0.0134387
674.937	0.0134482
675.015	0.0134898
675.093	0.0135413
675.171	0.0136230
675.249	0.0137107
675.328	0.0137517
675.406	0.0138397
675.484	0.0139248
675.562	0.0139586
675.640	0.0139040
675.718	0.0140906
675.796	0.0141053
675.874	0.0141777
675.953	0.0140857
676.031	0.0139366
676.109	0.0139475
676.187	0.0138686
676.265	0.0138805
676.343	0.0138886
676.421	0.0138704
676.499	0.0138706
676.578	0.0139426
676.656	0.0138032
676.734	0.0138153
676.812	0.0139262
676.890	0.0139731
676.968	0.0140477
677.046	0.0139440
677.124	0.0140091
677.203	0.0139925
677.281	0.0139424
677.359	0.0139764
677.437	0.0139188
677.515	0.0140315
677.593	0.0138899
677.671	0.0138570
677.749	0.0138691
677.828	0.0139005
677.906	0.0140797
677.984	0.0138971
678.062	0.0138911
678.140	0.0138200
678.218	0.0138904
678.296	0.0139061
678.374	0.0136930
678.453	0.0137193
678.531	0.0138942
678.609	0.0136605
678.687	0.0136359
678.765	0.0136810
678.843	0.0137636
678.921	0.0135655
678.999	0.0135706
679.078	0.0135839
679.156	0.0134174
679.234	0.0136055
679.312	0.0135334
679.390	0.0134971
679.468	0.0134589
679.546	0.0134004
679.624	0.0133098
679.703	0.0134695
679.781	0.0134889
679.859	0.0134354
679.937	0.0135217
680.015	0.0134760
680.093	0.0136207
680.171	0.0135394
680.249	0.0137370
680.328	0.0138879
680.406	0.0138789
680.484	0.0138007
680.562	0.0137819
680.640	0.0137730
680.718	0.0139490
680.796	0.0137399
680.874	0.0138063
680.953	0.0138223
681.031	0.0138076
681.109	0.0138322
681.187	0.0137603
681.265	0.0139030
681.343	0.0139156
681.421	0.0138582
681.499	0.0137338
681.578	0.0139881
681.656	0.0139581
681.734	0.0138731
681.812	0.0141205
681.890	0.0139841
681.968	0.0141348
682.046	0.0142451
682.124	0.0141895
682.203	0.0142339
682.281	0.0141122
682.359	0.0141254
682.437	0.0140831
682.515	0.0140261
682.593	0.0140835
682.671	0.0140312
682.749	0.0138242
682.828	0.0138943
682.906	0.0138174
682.984	0.0137713
683.062	0.0135545
683.140	0.0135443
683.218	0.0136280
683.296	0.0136684
683.374	0.0136432
683.453	0.0136263
683.531	0.0135159
683.609	0.0137054
683.687	0.0137601
683.765	0.0137422
683.843	0.0137614
683.921	0.0136629
683.999	0.0137344
684.078	0.0137989
684.156	0.0138852
684.234	0.0136974
684.312	0.0137673
684.390	0.0137380
684.468	0.0137807
684.546	0.0138288
684.624	0.0136953
684.703	0.0137297
684.781	0.0136958
684.859	0.0136474
684.937	0.0137317
685.015	0.0136720
685.093	0.0138136
685.171	0.0138696
685.249	0.0138208
685.328	0.0137769
685.406	0.0138085
685.484	0.0138190
685.562	0.0139213
685.640	0.0138279
685.718	0.0137283
685.796	0.0140228
685.874	0.0138868
685.953	0.0140926
686.031	0.0140878
686.109	0.0140936
686.187	0.0140481
686.265	0.0139005
686.343	0.0139439
686.421	0.0139635
686.499	0.0139017
686.578	0.0137923
686.656	0.0138308
686.734	0.0138161
686.812	0.0136884
686.890	0.0136629
686.968	0.0137314
687.046	0.0138742
687.124	0.0137528
687.203	0.0136845
687.281	0.0139043
687.359	0.0139371
687.437	0.0138538
687.515	0.0139353
687.593	0.0140931
687.671	0.0140836
687.749	0.0139920
687.828	0.0140654
687.906	0.0141857
687.984	0.0141207
688.062	0.0141158
688.140	0.0141781
688.218	0.0140733
688.296	0.0140370
688.374	0.0140802
688.453	0.0139737
688.531	0.0138445
688.609	0.0138245
688.687	0.0136983
688.765	0.0136343
688.843	0.0136614
688.921	0.0136677
688.999	0.0135992
689.078	0.0136655
689.156	0.0136957
689.234	0.0136017
689.312	0.0136687
689.390	0.0140012
689.468	0.0138701
689.546	0.0138317
689.624	0.0139187
689.703	0.0139731
689.781	0.0140205
689.859	0.0141180
689.937	0.0141293
690.015	0.0142026
690.093	0.0141320
690.171	0.0141587
690.249	0.0140736
690.328	0.0141146
690.406	0.0141601
690.484	0.0140486
690.562	0.0140552
690.640	0.0139123
690.718	0.0138391
690.796	0.0138634
690.874	0.0137417
690.953	0.0135811
691.031	0.0135225
691.109	0.0134416
691.187	0.0134325
691.265	0.0133912
691.343	0.0133829
691.421	0.0133254
691.499	0.0134429
691.578	0.0133482
691.656	0.0135384
691.734	0.0135629
691.812	0.0135447
691.890	0.0136762
691.968	0.0137096
692.046	0.0138254
692.124	0.0139034
692.203	0.0138197
692.281	0.0138766
692.359	0.0139076
692.437	0.0138776
692.515	0.0138077
692.593	0.0139027
692.671	0.0139471
692.749	0.0140381
692.828	0.0140051
692.906	0.0140434
692.984	0.0139323
693.062	0.0139677
693.140	0.0140659
693.218	0.0140851
693.296	0.0140693
693.374	0.0140652
693.453	0.0142632
693.531	0.0141714
693.609	0.0141796
693.687	0.0140786
693.765	0.0140984
693.843	0.0139693
693.921	0.0140084
693.999	0.0139835
694.078	0.0139532
694.156	0.0138239
694.234	0.0136716
694.312	0.0136047
694.390	0.0136183
694.468	0.0136481
694.546	0.0135119
694.624	0.0136417
694.703	0.0134395
694.781	0.0136119
694.859	0.0137456
694.937	0.0137782
695.015	0.0136850
695.093	0.0137341
695.171	0.0139101
695.249	0.0137679
695.328	0.0137133
695.406	0.0135558
695.484	0.0137292
695.562	0.0136562
695.640	0.0136452
695.718	0.0136772
695.796	0.0136134
695.874	0.0135526
695.953	0.0135727
696.031	0.0135628
696.109	0.0134329
696.187	0.0135386
696.265	0.0135307
696.343	0.0136214
696.421	0.0134928
696.499	0.0136374
696.578	0.0136483
696.656	0.0136230
696.734	0.0135781
696.812	0.0136609
696.890	0.0137328
696.968	0.0137273
697.046	0.0136875
697.124	0.0135886
697.203	0.0137046
697.281	0.0137679
697.359	0.0136735
697.437	0.0135390
697.515	0.0134711
697.593	0.0136192
697.671	0.0134724
697.749	0.0136459
697.828	0.0137830
697.906	0.0135973
697.984	0.0136361
698.062	0.0138342
698.140	0.0138442
698.218	0.0138778
698.296	0.0139005
698.374	0.0140121
698.453	0.0139794
698.531	0.0140636
698.609	0.0140557
698.687	0.0141014
698.765	0.0139915
698.843	0.0139886
698.921	0.0139625
698.999	0.0139613
699.078	0.0140327
699.156	0.0138728
699.234	0.0137993
699.312	0.0137388
699.390	0.0138343
699.468	0.0136710
699.546	0.0134032
699.624	0.0135484
699.703	0.0135356
699.781	0.0135208
699.859	0.0135699
699.937	0.0135711
700.015	0.0137045
700.093	0.0136383
700.171	0.0136813
700.249	0.0138055
700.328	0.0137551
700.406	0.0136797
700.484	0.0137042
700.562	0.0137470
700.640	0.0136918
700.718	0.0138902
700.796	0.0135781
700.874	0.0136749
700.953	0.0137212
701.031	0.0136424
701.109	0.0137814
701.187	0.0135025
701.265	0.0136457
701.343	0.0137085
701.421	0.0137015
701.499	0.0136585
701.578	0.0136734
701.656	0.0135607
701.734	0.0135725
701.812	0.0135529
701.890	0.0135427
701.968	0.0135921
702.046	0.0137352
702.124	0.0137214
702.203	0.0136214
702.281	0.0138337
702.359	0.0140427
702.437	0.0140582
702.515	0.0140093
702.593	0.0139245
702.671	0.0141634
702.749	0.0142914
702.828	0.0140932
702.906	0.0139860
702.984	0.0141365
703.062	0.0139613
703.140	0.0139126
703.218	0.0139022
703.296	0.0139687
703.374	0.0137611
703.453	0.0138663
703.531	0.0137514
703.609	0.0138166
703.687	0.0137572
703.765	0.0137466
703.843	0.0138354
703.921	0.0138837
703.999	0.0138316
704.078	0.0137090
704.156	0.0138652
704.234	0.0137936
704.312	0.0138276
704.390	0.0137495
704.468	0.0138708
704.546	0.0138778
704.624	0.0138675
704.703	0.0137656
704.781	0.0139012
704.859	0.0139909
704.937	0.0138798
705.015	0.0138471
705.093	0.0138415
705.171	0.0139397
705.249	0.0140093
705.328	0.0138779
705.406	0.0138505
705.484	0.0137407
705.562	0.0138264
705.640	0.0138599
705.718	0.0137276
705.796	0.0137881
705.874	0.0136449
705.953	0.0137601
706.031	0.0137648
706.109	0.0137136
706.187	0.0137289
706.265	0.0135802
706.343	0.0136794
706.421	0.0136954
706.499	0.0136205
706.578	0.0136663
706.656	0.0137982
706.734	0.0137032
706.812	0.0136086
706.890	0.0136819
706.968	0.0137173
707.046	0.0136411
707.124	0.0137743
707.203	0.0138429
707.281	0.0137835
707.359	0.0138096
707.437	0.0139680
707.515	0.0138926
707.593	0.0139940
707.671	0.0140986
707.749	0.0140466
707.828	0.0141036
707.906	0.0140440
707.984	0.0140982
708.062	0.0140880
708.140	0.0141099
708.218	0.0140268
708.296	0.0140105
708.374	0.0140677
708.453	0.0139342
708.531	0.0139216
708.609	0.0140584
708.687	0.0138865
708.765	0.0139140
708.843	0.0139464
708.921	0.0139511
708.999	0.0140302
709.078	0.0140542
709.156	0.0141418
709.234	0.0140507
709.312	0.0138615
709.390	0.0138316
709.468	0.0137549
709.546	0.0138773
709.624	0.0137279
709.703	0.0135008
709.781	0.0137109
709.859	0.0136904
709.937	0.0134385
710.015	0.0136048
710.093	0.0136949
710.171	0.0137848
710.249	0.0137328
710.328	0.0138400
710.406	0.0138411
710.484	0.0138333
710.562	0.0139565
710.640	0.0140450
710.718	0.0138647
710.796	0.0138304
710.874	0.0140373
710.953	0.0139479
711.031	0.0139662
711.109	0.0139209
711.187	0.0139140
711.265	0.0139358
711.343	0.0139389
711.421	0.0139231
711.499	0.0138475
711.578	0.0138869
711.656	0.0139983
711.734	0.0137296
711.812	0.0137732
711.890	0.0137685
711.968	0.0136041
712.046	0.0136832
712.124	0.0137975
712.203	0.0136560
712.281	0.0136316
712.359	0.0137039
712.437	0.0137272
712.515	0.0136653
712.593	0.0138014
712.671	0.0137726
712.749	0.0138728
712.828	0.0138686
712.906	0.0139462
712.984	0.0137182
713.062	0.0138618
713.140	0.0137885
713.218	0.0139843
713.296	0.0138668
713.374	0.0138476
713.453	0.0138539
713.531	0.0139180
713.609	0.0138840
713.687	0.0138786
713.765	0.0137955
713.843	0.0137800
713.921	0.0138954
713.999	0.0138488
714.078	0.0138034
714.156	0.0137782
714.234	0.0139344
714.312	0.0139654
714.390	0.0139276
714.468	0.0139664
714.546	0.0140504
714.624	0.0138869
714.703	0.0139471
714.781	0.0139363
714.859	0.0139991
714.937	0.0139113
715.015	0.0139939
715.093	0.0139987
715.171	0.0138496
715.249	0.0137639
715.328	0.0136924
715.406	0.0136316
715.484	0.0135752
715.562	0.0136920
715.640	0.0136549
715.718	0.0136179
715.796	0.0136516
715.874	0.0135655
715.953	0.0135932
716.031	0.0136795
716.109	0.0136127
716.187	0.0138135
716.265	0.0136960
716.343	0.0135686
716.421	0.0136729
716.499	0.0137009
716.578	0.0137845
716.656	0.0136859
716.734	0.0136924
716.812	0.0136348
716.890	0.0136611
716.968	0.0135486
717.046	0.0135449
717.124	0.0135548
717.203	0.0136894
717.281	0.0135060
717.359	0.0134776
717.437	0.0135982
717.515	0.0136491
717.593	0.0136701
717.671	0.0137415
717.749	0.0138363
717.828	0.0138914
717.906	0.0139610
717.984	0.0140409
718.062	0.0139546
718.140	0.0140218
718.218	0.0139738
718.296	0.0139819
718.374	0.0139523
718.453	0.0138966
718.531	0.0139069
718.609	0.0139532
718.687	0.0138986
718.765	0.0137522
718.843	0.0136886
718.921	0.0137254
718.999	0.0139040
719.078	0.0137705
719.156	0.0138065
719.234	0.0137234
719.312	0.0137460
719.390	0.0138235
719.468	0.0138221
719.546	0.0137730
719.624	0.0136638
719.703	0.0138390
719.781	0.0138317
719.859	0.0137682
719.937	0.0138700
720.015	0.0137961
720.093	0.0140550
720.171	0.0138524
720.249	0.0138729
720.328	0.0140044
720.406	0.0139227
720.484	0.0138802
720.562	0.0139317
720.640	0.0138229
720.718	0.0138754
720.796	0.0137659
720.874	0.0137301
720.953	0.0136522
721.031	0.0135777
721.109	0.0136673
721.187	0.0135559
721.265	0.0135926
721.343	0.0135167
721.421	0.0135493
721.499	0.0136029
721.578	0.0136552
721.656	0.0136811
721.734	0.0137731
721.812	0.0138553
721.890	0.0137338
721.968	0.0138684
722.046	0.0139159
722.124	0.0138312
722.203	0.0139220
722.281	0.0139895
722.359	0.0139229
722.437	0.0139682
722.515	0.0139027
722.593	0.0139541
722.671	0.0139308
722.749	0.0137395
722.828	0.0137569
722.906	0.0137540
722.984	0.0137429
723.062	0.0136864
723.140	0.0137454
723.218	0.0137158
723.296	0.0137159
723.374	0.0139735
723.453	0.0139314
723.531	0.0138452
723.609	0.0139202
723.687	0.0140025
723.765	0.0138326
723.843	0.0139935
723.921	0.0139533
723.999	0.0138351
724.078	0.0137989
724.156	0.0138103
724.234	0.0139142
724.312	0.0138921
724.390	0.0137621
724.468	0.0136398
724.546	0.0137538
724.624	0.0139015
724.703	0.0138515
724.781	0.0138671
724.859	0.0137618
724.937	0.0139050
725.015	0.0138962
725.093	0.0138205
725.171	0.0138270
725.249	0.0138951
725.328	0.0139678
725.406	0.0138371
725.484	0.0138225
725.562	0.0138532
725.640	0.0137994
725.718	0.0138731
725.796	0.0137759
725.874	0.0138320
725.953	0.0138522
726.031	0.0139035
726.109	0.0138225
726.187	0.0139447
726.265	0.0136320
726.343	0.0138309
726.421	0.0137964
726.499	0.0138286
726.578	0.0139590
726.656	0.0138585
726.734	0.0138824
726.812	0.0138496
726.890	0.0137613
726.968	0.0138788
727.046	0.0138892
727.124	0.0138406
727.203	0.0138869
727.281	0.0140683
727.359	0.0138439
727.437	0.0138361
727.515	0.0138278
727.593	0.0138458
727.671	0.0138286
727.749	0.0137457
727.828	0.0137849
727.906	0.0137967
727.984	0.0138013
728.062	0.0137877
728.140	0.0136309
728.218	0.0138060
728.296	0.0138321
728.374	0.0136861
728.453	0.0136711
728.531	0.0138700
728.609	0.0137108
728.687	0.0138864
728.765	0.0138201
728.843	0.0139439
728.921	0.0139067
728.999	0.0138073
729.078	0.0138935
729.156	0.0139264
729.234	0.0138692
729.312	0.0138895
729.390	0.0138577
729.468	0.0139869
729.546	0.0139953
729.624	0.0139223
729.703	0.0139348
729.781	0.0139564
729.859	0.0139178
729.937	0.0138512
730.015	0.0138236
730.093	0.0140125
730.171	0.0139149
730.249	0.0138899
730.328	0.0139747
730.406	0.0138578
730.484	0.0139317
730.562	0.0140248
730.640	0.0138168
730.718	0.0140096
730.796	0.0139960
730.874	0.0138072
730.953	0.0139056
731.031	0.0138692
731.109	0.0139762
731.187	0.0138053
731.265	0.0137486
731.343	0.0138869
731.421	0.0139420
731.499	0.0139308
731.578	0.0137624
731.656	0.0140306
731.734	0.0138656
731.812	0.0138509
731.890	0.0139168
731.968	0.0138323
732.046	0.0138732
732.124	0.0138906
732.203	0.0139806
732.281	0.0139043
732.359	0.0139739
732.437	0.0139869
732.515	0.0139148
732.593	0.0140795
732.671	0.0140248
732.749	0.0139648
732.828	0.0139730
732.906	0.0139607
732.984	0.0139337
733.062	0.0140049
733.140	0.0140058
733.218	0.0140511
733.296	0.0137863
733.374	0.0138641
733.453	0.0138517
733.531	0.0138525
733.609	0.0137497
733.687	0.0137840
733.765	0.0138043
733.843	0.0136476
733.921	0.0137500
733.999	0.0137989
734.078	0.0137865
734.156	0.0137936
734.234	0.0139336
734.312	0.0139489
734.390	0.0139304
734.468	0.0140491
734.546	0.0138000
734.624	0.0137534
734.703	0.0139243
734.781	0.0138918
734.859	0.0136969
734.937	0.0137386
735.015	0.0136675
735.093	0.0138361
735.171	0.0136722
735.249	0.0136787
735.328	0.0137410
735.406	0.0136311
735.484	0.0134574
735.562	0.0135979
735.640	0.0138608
735.718	0.0137984
735.796	0.0136163
735.874	0.0137519
735.953	0.0137068
736.031	0.0136819
736.109	0.0137967
736.187	0.0139024
736.265	0.0138348
736.343	0.0136311
736.421	0.0137511
736.499	0.0137257
736.578	0.0136028
736.656	0.0137185
736.734	0.0136208
736.812	0.0134802
736.890	0.0136177
736.968	0.0136335
737.046	0.0136483
737.124	0.0137154
737.203	0.0136671
737.281	0.0137120
737.359	0.0136996
737.437	0.0138593
737.515	0.0137625
737.593	0.0138011
737.671	0.0139711
737.749	0.0140041
737.828	0.0140186
737.906	0.0140439
737.984	0.0139399
738.062	0.0139050
738.140	0.0139528
738.218	0.0139223
738.296	0.0140023
738.374	0.0138518
738.453	0.0138501
738.531	0.0137270
738.609	0.0138598
738.687	0.0136540
738.765	0.0138218
738.843	0.0138321
738.921	0.0136916
738.999	0.0138941
739.078	0.0138109
739.156	0.0137553
739.234	0.0137838
739.312	0.0138656
739.390	0.0138327
739.468	0.0138581
739.546	0.0139414
739.624	0.0137920
739.703	0.0137470
739.781	0.0137065
739.859	0.0137587
739.937	0.0136921
740.015	0.0136822
740.093	0.0137450
740.171	0.0137138
740.249	0.0135373
740.328	0.0135587
740.406	0.0136830
740.484	0.0136922
740.562	0.0137207
740.640	0.0136211
740.718	0.0136053
740.796	0.0137564
740.874	0.0137017
740.953	0.0137382
741.031	0.0136031
741.109	0.0136625
741.187	0.0137986
741.265	0.0137962
741.343	0.0137254
741.421	0.0138927
741.499	0.0139781
741.578	0.0137895
741.656	0.0139037
741.734	0.0138532
741.812	0.0136893
741.890	0.0138934
741.968	0.0136745
742.046	0.0137981
742.124	0.0137375
742.203	0.0135175
742.281	0.0138406
742.359	0.0136734
742.437	0.0137319
742.515	0.0138306
742.593	0.0137083
742.671	0.0138071
742.749	0.0137063
742.828	0.0138624
742.906	0.0138394
742.984	0.0139012
743.062	0.0138437
743.140	0.0139787
743.218	0.0139255
743.296	0.0138825
743.374	0.0138174
743.453	0.0138960
743.531	0.0138709
743.609	0.0138258
743.687	0.0136932
743.765	0.0136874
743.843	0.0136278
743.921	0.0136777
743.999	0.0138512
744.078	0.0137801
744.156	0.0137579
744.234	0.0139070
744.312	0.0136651
744.390	0.0137656
744.468	0.0138862
744.546	0.0139336
744.624	0.0138901
744.703	0.0138163
744.781	0.0138853
744.859	0.0139931
744.937	0.0138976
745.015	0.0138159
745.093	0.0138940
745.171	0.0138657
745.249	0.0138799
745.328	0.0138334
745.406	0.0138795
745.484	0.0136742
745.562	0.0137272
745.640	0.0137205
745.718	0.0138094
745.796	0.0136938
745.874	0.0138723
745.953	0.0138490
746.031	0.0138533
746.109	0.0139528
746.187	0.0139111
746.265	0.0137422
746.343	0.0137546
746.421	0.0139585
746.499	0.0139867
746.578	0.0140087
746.656	0.0139665
746.734	0.0139468
746.812	0.0139137
746.890	0.0138180
746.968	0.0138122
747.046	0.0138334
747.124	0.0137533
747.203	0.0137672
747.281	0.0137378
747.359	0.0137577
747.437	0.0137052
747.515	0.0138800
747.593	0.0138505
747.671	0.0139421
747.749	0.0138242
747.828	0.0137617
747.906	0.0138340
747.984	0.0139629
748.062	0.0138693
748.140	0.0139894
748.218	0.0139320
748.296	0.0137843
748.374	0.0137649
748.453	0.0137393
748.531	0.0138383
748.609	0.0139011
748.687	0.0137864
748.765	0.0136456
748.843	0.0138880
748.921	0.0138730
748.999	0.0138376
749.078	0.0136758
749.156	0.0138154
749.234	0.0137831
749.312	0.0139131
749.390	0.0137813
749.468	0.0137794
749.546	0.0139199
749.624	0.0139677
749.703	0.0139597
749.781	0.0139352
749.859	0.0138102
749.937	0.0138032
750.015	0.0138430
750.093	0.0139611
750.171	0.0139001
750.249	0.0139100
750.328	0.0140498
750.406	0.0139127
750.484	0.0140414
750.562	0.0139385
750.640	0.0139624
750.718	0.0141246
750.796	0.0140295
750.874	0.0139154
750.953	0.0139355
751.031	0.0138969
751.109	0.0138179
751.187	0.0138788
751.265	0.0137253
751.343	0.0140084
751.421	0.0139124
751.499	0.0138115
751.578	0.0140459
751.656	0.0139922
751.734	0.0140226
751.812	0.0139128
751.890	0.0139364
751.968	0.0139798
752.046	0.0140045
752.124	0.0137115
752.203	0.0139353
752.281	0.0138329
752.359	0.0137380
752.437	0.0137470
752.515	0.0137650
752.593	0.0137551
752.671	0.0136555
752.749	0.0137009
752.828	0.0137154
752.906	0.0136822
752.984	0.0136787
753.062	0.0137442
753.140	0.0137700
753.218	0.0137303
753.296	0.0139008
753.374	0.0139755
753.453	0.0139465
753.531	0.0139157
753.609	0.0140036
753.687	0.0140206
753.765	0.0140446
753.843	0.0140500
753.921	0.0139816
753.999	0.0137975
754.078	0.0138345
754.156	0.0139088
754.234	0.0138373
754.312	0.0137548
754.390	0.0137740
754.468	0.0137975
754.546	0.0138879
754.624	0.0139307
754.703	0.0138101
754.781	0.0139165
754.859	0.0139081
754.937	0.0139552
755.015	0.0139571
755.093	0.0140704
755.171	0.0139231
755.249	0.0139559
755.328	0.0141375
755.406	0.0139919
755.484	0.0139002
755.562	0.0138980
755.640	0.0140249
755.718	0.0137888
755.796	0.0138168
755.874	0.0139127
755.953	0.0136696
756.031	0.0137188
756.109	0.0135902
756.187	0.0136893
756.265	0.0137629
756.343	0.0137890
756.421	0.0138673
756.499	0.0139317
756.578	0.0140334
756.656	0.0138966
756.734	0.0139215
756.812	0.0139251
756.890	0.0137780
756.968	0.0139346
757.046	0.0137762
757.124	0.0136697
757.203	0.0137565
757.281	0.0137576
757.359	0.0136975
757.437	0.0136006
757.515	0.0137377
757.593	0.0138483
757.671	0.0138428
757.749	0.0138232
757.828	0.0138690
757.906	0.0138004
757.984	0.0137283
758.062	0.0139167
758.140	0.0138202
758.218	0.0138489
758.296	0.0138329
758.374	0.0136981
758.453	0.0137848
758.531	0.0137203
758.609	0.0137486
758.687	0.0136576
758.765	0.0137321
758.843	0.0137985
758.921	0.0137817
758.999	0.0137637
759.078	0.0137844
759.156	0.0138521
759.234	0.0138326
759.312	0.0138638
759.390	0.0140470
759.468	0.0138824
759.546	0.0139520
759.624	0.0138347
759.703	0.0138554
759.781	0.0138689
759.859	0.0138258
759.937	0.0138180
760.015	0.0136835
760.093	0.0137386
760.171	0.0136803
760.249	0.0137097
760.328	0.0137524
760.406	0.0137894
760.484	0.0138638
760.562	0.0138277
760.640	0.0139072
760.718	0.0137366
760.796	0.0139374
760.874	0.0139214
760.953	0.0139450
761.031	0.0139474
761.109	0.0139924
761.187	0.0139144
761.265	0.0138391
761.343	0.0137669
761.421	0.0138132
761.499	0.0137798
761.578	0.0138477
761.656	0.0137661
761.734	0.0138015
761.812	0.0137925
761.890	0.0138828
761.968	0.0139839
762.046	0.0139301
762.124	0.0139511
762.203	0.0140445
762.281	0.0140818
762.359	0.0139542
762.437	0.0139882
762.515	0.0141206
762.593	0.0138807
762.671	0.0139899
762.749	0.0139462
762.828	0.0139698
762.906	0.0139825
762.984	0.0139164
763.062	0.0138737
763.140	0.0137019
763.218	0.0135817
763.296	0.0137341
763.374	0.0137686
763.453	0.0136072
763.531	0.0136913
763.609	0.0138747
763.687	0.0138365
763.765	0.0137376
763.843	0.0137281
763.921	0.0139902
763.999	0.0140058
764.078	0.0140393
764.156	0.0139455
764.234	0.0140632
764.312	0.0140224
764.390	0.0139520
764.468	0.0139773
764.546	0.0138670
764.624	0.0137725
764.703	0.0135947
764.781	0.0136604
764.859	0.0136445
764.937	0.0138313
765.015	0.0136608
765.093	0.0136974
765.171	0.0137843
765.249	0.0139314
765.328	0.0138675
765.406	0.0138631
765.484	0.0138123
765.562	0.0138356
765.640	0.0139613
765.718	0.0138135
765.796	0.0137858
765.874	0.0138274
765.953	0.0139006
766.031	0.0138191
766.109	0.0138905
766.187	0.0137895
766.265	0.0138033
766.343	0.0137608
766.421	0.0138318
766.499	0.0139714
766.578	0.0138529
766.656	0.0139035
766.734	0.0137821
766.812	0.0140166
766.890	0.0140723
766.968	0.0139507
767.046	0.0140180
767.124	0.0138976
767.203	0.0139851
767.281	0.0138796
767.359	0.0139135
767.437	0.0139844
767.515	0.0138210
767.593	0.0138242
767.671	0.0138092
767.749	0.0137839
767.828	0.0138559
767.906	0.0137405
767.984	0.0136329
768.062	0.0138341
768.140	0.0138330
768.218	0.0138235
768.296	0.0139001
768.374	0.0138812
768.453	0.0139681
768.531	0.0139972
768.609	0.0138628
768.687	0.0138258
768.765	0.0139434
768.843	0.0138464
768.921	0.0136633
768.999	0.0139301
769.078	0.0136957
769.156	0.0137237
769.234	0.0138069
769.312	0.0138487
769.390	0.0138310
769.468	0.0137963
769.546	0.0136855
769.624	0.0138572
769.703	0.0138151
769.781	0.0138571
769.859	0.0137769
769.937	0.0138575
770.015	0.0137786
770.093	0.0139138
770.171	0.0138066
770.249	0.0136723
770.328	0.0138682
770.406	0.0137881
770.484	0.0138773
770.562	0.0138233
770.640	0.0137757
770.718	0.0137411
770.796	0.0138233
770.874	0.0137730
770.953	0.0137930
771.031	0.0138576
771.109	0.0138523
771.187	0.0139393
771.265	0.0139021
771.343	0.0139757
771.421	0.0139491
771.499	0.0139947
771.578	0.0139044
771.656	0.0140816
771.734	0.0139558
771.812	0.0139993
771.890	0.0140147
771.968	0.0138665
772.046	0.0138657
772.124	0.0138194
772.203	0.0138265
772.281	0.0137667
772.359	0.0138124
772.437	0.0140499
772.515	0.0140505
772.593	0.0138982
772.671	0.0139365
772.749	0.0139472
772.828	0.0141888
772.906	0.0140305
772.984	0.0139797
773.062	0.0139590
773.140	0.0139345
773.218	0.0140039
773.296	0.0139649
773.374	0.0138193
773.453	0.0138089
773.531	0.0136700
773.609	0.0137652
773.687	0.0136187
773.765	0.0136839
773.843	0.0135958
773.921	0.0136061
773.999	0.0134863
774.078	0.0136565
774.156	0.0136754
774.234	0.0137257
774.312	0.0136687
774.390	0.0138796
774.468	0.0138318
774.546	0.0139547
774.624	0.0139500
774.703	0.0137273
774.781	0.0138190
774.859	0.0137998
774.937	0.0140778
775.015	0.0138285
775.093	0.0137500
775.171	0.0136810
775.249	0.0137663
775.328	0.0138075
775.406	0.0138287
775.484	0.0136982
775.562	0.0136723
775.640	0.0137886
775.718	0.0137989
775.796	0.0138420
775.874	0.0138716
775.953	0.0137856
776.031	0.0138644
776.109	0.0139996
776.187	0.0139215
776.265	0.0139480
776.343	0.0137778
776.421	0.0139061
776.499	0.0139008
776.578	0.0138438
776.656	0.0137615
776.734	0.0138554
776.812	0.0136603
776.890	0.0138643
776.968	0.0140677
777.046	0.0138702
777.124	0.0137595
777.203	0.0138817
777.281	0.0138558
777.359	0.0138194
777.437	0.0137611
777.515	0.0138622
777.593	0.0138737
777.671	0.0138359
777.749	0.0140314
777.828	0.0139399
777.906	0.0138667
777.984	0.0137476
778.062	0.0139076
778.140	0.0138099
778.218	0.0138233
778.296	0.0139828
778.374	0.0137627
778.453	0.0138402
778.531	0.0140270
778.609	0.0139600
778.687	0.0138631
778.765	0.0137843
778.843	0.0139709
778.921	0.0139064
778.999	0.0139459
779.078	0.0139829
779.156	0.0139469
779.234	0.0138724
779.312	0.0139104
779.390	0.0138190
779.468	0.0138678
779.546	0.0138850
779.624	0.0138461
779.703	0.0136942
779.781	0.0138947
779.859	0.0139266
779.937	0.0138620
780.015	0.0138251
780.093	0.0138268
780.171	0.0137170
780.249	0.0137995
780.328	0.0138754
780.406	0.0138300
780.484	0.0139053
780.562	0.0140048
780.640	0.0139337
780.718	0.0138512
780.796	0.0138273
780.874	0.0139154
780.953	0.0139448
781.031	0.0137388
781.109	0.0138169
781.187	0.0139532
781.265	0.0137836
781.343	0.0138106
781.421	0.0138968
781.499	0.0138103
781.578	0.0137980
781.656	0.0137273
781.734	0.0137846
781.812	0.0137804
781.890	0.0137346
781.968	0.0137953
782.046	0.0138583
782.124	0.0137283
782.203	0.0138741
782.281	0.0137592
782.359	0.0138186
782.437	0.0137371
782.515	0.0137170
782.593	0.0138494
782.671	0.0138579
782.749	0.0138004
782.828	0.0137740
782.906	0.0139333
782.984	0.0139167
783.062	0.0137202
783.140	0.0139635
783.218	0.0139845
783.296	0.0139376
783.374	0.0140315
783.453	0.0139613
783.531	0.0140778
783.609	0.0140203
783.687	0.0140036
783.765	0.0139644
783.843	0.0139382
783.921	0.0139645
783.999	0.0138118
784.078	0.0138364
784.156	0.0139087
784.234	0.0139803
784.312	0.0137750
784.390	0.0138489
784.468	0.0138535
784.546	0.0138741
784.624	0.0138541
784.703	0.0138397
784.781	0.0138663
784.859	0.0138030
784.937	0.0138549
785.015	0.0138714
785.093	0.0139005
785.171	0.0137955
785.249	0.0138388
785.328	0.0138612
785.406	0.0138993
785.484	0.0138390
785.562	0.0138651
785.640	0.0137338
785.718	0.0137943
785.796	0.0136651
785.874	0.0138155
785.953	0.0137217
786.031	0.0137017
786.109	0.0137862
786.187	0.0138382
786.265	0.0138507
786.343	0.0136911
786.421	0.0138464
786.499	0.0139428
786.578	0.0138509
786.656	0.0138240
786.734	0.0137974
786.812	0.0137663
786.890	0.0138131
786.968	0.0139114
787.046	0.0138884
787.124	0.0138562
787.203	0.0138640
787.281	0.0138654
787.359	0.0138615
787.437	0.0138620
787.515	0.0138349
787.593	0.0137902
787.671	0.0138030
787.749	0.0137933
787.828	0.0139139
787.906	0.0139127
787.984	0.0138522
788.062	0.0139983
788.140	0.0139422
788.218	0.0138777
788.296	0.0139908
788.374	0.0138512
788.453	0.0138894
788.531	0.0138017
788.609	0.0137380
788.687	0.0138248
788.765	0.0137221
788.843	0.0138306
788.921	0.0137575
788.999	0.0137844
789.078	0.0138132
789.156	0.0137797
789.234	0.0136371
789.312	0.0137090
789.390	0.0136587
789.468	0.0137214
789.546	0.0137757
789.624	0.0137296
789.703	0.0138116
789.781	0.0137873
789.859	0.0137332
789.937	0.0137138
790.015	0.0137684
790.093	0.0136800
790.171	0.0138058
790.249	0.0136743
790.328	0.0138516
790.406	0.0138247
790.484	0.0138233
790.562	0.0137774
790.640	0.0139746
790.718	0.0138848
790.796	0.0138502
790.874	0.0138538
790.953	0.0137693
791.031	0.0137747
791.109	0.0137572
791.187	0.0138821
791.265	0.0138574
791.343	0.0137429
791.421	0.0137451
791.499	0.0138028
791.578	0.0136531
791.656	0.0136646
791.734	0.0137488
791.812	0.0136704
791.890	0.0137840
791.968	0.0136324
792.046	0.0136803
792.124	0.0137256
792.203	0.0137347
792.281	0.0136782
792.359	0.0137177
792.437	0.0136712
792.515	0.0135904
792.593	0.0137505
792.671	0.0139028
792.749	0.0137959
792.828	0.0137930
792.906	0.0136341
792.984	0.0136152
793.062	0.0136983
793.140	0.0138151
793.218	0.0138689
793.296	0.0136993
793.374	0.0137650
793.453	0.0137510
793.531	0.0137044
793.609	0.0137660
793.687	0.0136539
793.765	0.0137135
793.843	0.0137656
793.921	0.0136865
793.999	0.0136002
794.078	0.0137344
794.156	0.0137215
794.234	0.0136625
794.312	0.0137314
794.390	0.0136072
794.468	0.0136610
794.546	0.0138331
794.624	0.0136524
794.703	0.0135262
794.781	0.0138092
794.859	0.0136981
794.937	0.0137186
795.015	0.0136827
795.093	0.0137576
795.171	0.0137126
795.249	0.0137620
795.328	0.0138115
795.406	0.0138395
795.484	0.0137395
795.562	0.0137897
795.640	0.0138466
795.718	0.0137067
795.796	0.0139785
795.874	0.0138329
795.953	0.0136836
796.031	0.0139738
796.109	0.0138815
796.187	0.0139295
796.265	0.0140811
796.343	0.0139236
796.421	0.0138948
796.499	0.0138725
796.578	0.0138519
796.656	0.0137701
796.734	0.0139025
796.812	0.0138631
796.890	0.0138292
796.968	0.0137176
797.046	0.0138319
797.124	0.0138789
797.203	0.0138480
797.281	0.0138702
797.359	0.0137872
797.437	0.0137813
797.515	0.0138474
797.593	0.0139092
797.671	0.0138869
797.749	0.0138911
797.828	0.0138927
797.906	0.0138742
797.984	0.0138130
798.062	0.0137749
798.140	0.0137077
798.218	0.0137901
798.296	0.0137531
798.374	0.0139165
798.453	0.0136972
798.531	0.0136975
798.609	0.0136223
798.687	0.0137696
798.765	0.0136263
798.843	0.0137084
798.921	0.0137952
798.999	0.0137257
799.078	0.0137177
799.156	0.0136780
799.234	0.0137631
799.312	0.0136627
799.390	0.0137279
799.468	0.0137600
799.546	0.0137878
799.624	0.0137554
799.703	0.0136732
799.781	0.0136448
799.859	0.0136282
799.937	0.0137646
800.015	0.0136623
800.093	0.0135976
800.171	0.0136699
800.249	0.0137706
800.328	0.0137536
800.406	0.0138013
800.484	0.0137251
800.562	0.0136958
800.640	0.0138776
800.718	0.0138022
800.796	0.0138549
800.874	0.0138962
800.953	0.0138597
801.031	0.0138721
801.109	0.0137493
801.187	0.0138304
801.265	0.0139301
801.343	0.0138895
801.421	0.0139075
801.499	0.0140797
801.578	0.0140311
801.656	0.0141102
801.734	0.0139159
801.812	0.0140296
801.890	0.0139725
801.968	0.0139486
802.046	0.0139349
802.124	0.0138232
802.203	0.0138842
802.281	0.0138416
802.359	0.0139198
802.437	0.0138037
802.515	0.0137846
802.593	0.0137849
802.671	0.0138481
802.749	0.0138155
802.828	0.0138217
802.906	0.0138129
802.984	0.0138239
803.062	0.0137826
803.140	0.0136257
803.218	0.0138523
803.296	0.0139830
803.374	0.0137679
803.453	0.0136928
803.531	0.0138496
803.609	0.0139545
803.687	0.0136828
803.765	0.0137762
803.843	0.0138126
803.921	0.0137566
803.999	0.0139487
804.078	0.0138805
804.156	0.0138976
804.234	0.0138765
804.312	0.0136983
804.390	0.0138447
804.468	0.0139303
804.546	0.0140125
804.624	0.0138355
804.703	0.0140136
804.781	0.0139570
804.859	0.0138689
804.937	0.0138413
805.015	0.0139463
805.093	0.0137852
805.171	0.0138374
805.249	0.0139228
805.328	0.0139977
805.406	0.0139398
805.484	0.0138958
805.562	0.0138988
805.640	0.0139246
805.718	0.0139700
805.796	0.0138861
805.874	0.0139353
805.953	0.0139197
806.031	0.0139759
806.109	0.0137807
806.187	0.0139046
806.265	0.0137892
806.343	0.0139582
806.421	0.0139703
806.499	0.0138387
806.578	0.0138376
806.656	0.0138959
806.734	0.0138906
806.812	0.0139188
806.890	0.0138638
806.968	0.0138867
807.046	0.0138760
807.124	0.0137936
807.203	0.0138519
807.281	0.0138285
807.359	0.0138734
807.437	0.0140240
807.515	0.0137300
807.593	0.0138089
807.671	0.0138157
807.749	0.0138870
807.828	0.0137588
807.906	0.0137733
807.984	0.0139245
808.062	0.0136988
808.140	0.0136918
808.218	0.0136437
808.296	0.0137771
808.374	0.0137768
808.453	0.0139123
808.531	0.0137696
808.609	0.0138159
808.687	0.0138582
808.765	0.0138477
808.843	0.0138070
808.921	0.0138557
808.999	0.0139919
809.078	0.0137881
809.156	0.0137888
809.234	0.0138426
809.312	0.0138396
809.390	0.0137181
809.468	0.0138576
809.546	0.0137708
809.624	0.0137583
809.703	0.0139356
809.781	0.0136340
809.859	0.0135853
809.937	0.0136630
810.015	0.0137809
810.093	0.0137096
810.171	0.0138985
810.249	0.0138426
810.328	0.0137362
810.406	0.0138998
810.484	0.0137824
810.562	0.0137630
810.640	0.0137846
810.718	0.0137412
810.796	0.0135699
810.874	0.0138250
810.953	0.0137098
811.031	0.0138531
811.109	0.0137295
811.187	0.0137366
811.265	0.0137663
811.343	0.0138669
811.421	0.0137347
811.499	0.0138165
811.578	0.0138223
811.656	0.0136748
811.734	0.0138638
811.812	0.0138337
811.890	0.0138889
811.968	0.0139541
812.046	0.0138489
812.124	0.0138816
812.203	0.0137626
812.281	0.0139217
812.359	0.0138860
812.437	0.0138655
812.515	0.0138768
812.593	0.0139461
812.671	0.0137379
812.749	0.0140067
812.828	0.0137587
812.906	0.0135931
812.984	0.0137560
813.062	0.0139033
813.140	0.0139051
813.218	0.0138824
813.296	0.0139577
813.374	0.0137244
813.453	0.0138587
813.531	0.0138816
813.609	0.0137981
813.687	0.0137317
813.765	0.0138519
813.843	0.0139316
813.921	0.0139345
813.999	0.0137848
814.078	0.0137945
814.156	0.0138264
814.234	0.0138603
814.312	0.0138818
814.390	0.0139776
814.468	0.0138806
814.546	0.0138540
814.624	0.0137693
814.703	0.0136954
814.781	0.0138576
814.859	0.0137352
814.937	0.0137761
815.015	0.0137743
815.093	0.0137226
815.171	0.0137354
815.249	0.0138306
815.328	0.0137187
815.406	0.0136716
815.484	0.0137474
815.562	0.0136457
815.640	0.0136287
815.718	0.0137469
815.796	0.0138068
815.874	0.0137510
815.953	0.0135814
816.031	0.0138071
816.109	0.0137297
816.187	0.0137870
816.265	0.0137553
816.343	0.0138239
816.421	0.0137145
816.499	0.0137354
816.578	0.0137617
816.656	0.0136991
816.734	0.0137659
816.812	0.0137635
816.890	0.0137766
816.968	0.0137511
817.046	0.0137794
817.124	0.0137050
817.203	0.0136837
817.281	0.0137983
817.359	0.0138509
817.437	0.0138966
817.515	0.0138424
817.593	0.0137318
817.671	0.0138757
817.749	0.0137888
817.828	0.0139212
817.906	0.0139190
817.984	0.0138627
818.062	0.0139127
818.140	0.0138352
818.218	0.0138192
818.296	0.0138309
818.374	0.0139205
818.453	0.0139400
818.531	0.0138266
818.609	0.0138429
818.687	0.0137692
818.765	0.0139204
818.843	0.0137585
818.921	0.0138949
818.999	0.0138264
819.078	0.0138034
819.156	0.0138480
819.234	0.0138532
819.312	0.0137878
819.390	0.0138797
819.468	0.0139087
819.546	0.0137288
819.624	0.0138449
819.703	0.0138871
819.781	0.0138133
819.859	0.0138369
819.937	0.0138502
820.015	0.0138711
820.093	0.0138170
820.171	0.0138656
820.249	0.0139515
820.328	0.0139220
820.406	0.0138580
820.484	0.0138303
820.562	0.0140150
820.640	0.0139789
820.718	0.0138873
820.796	0.0138665
820.874	0.0139036
820.953	0.0139238
821.031	0.0138861
821.109	0.0137015
821.187	0.0137727
821.265	0.0138727
821.343	0.0138693
821.421	0.0137600
821.499	0.0138170
821.578	0.0137250
821.656	0.0137601
821.734	0.0137870
821.812	0.0137262
821.890	0.0137180
821.968	0.0137451
822.046	0.0137728
822.124	0.0138064
822.203	0.0139071
822.281	0.0139570
822.359	0.0137768
822.437	0.0138330
822.515	0.0138055
822.593	0.0138750
822.671	0.0140230
822.749	0.0141100
822.828	0.0139452
822.906	0.0139285
822.984	0.0140278
823.062	0.0139463
823.140	0.0139678
823.218	0.0138620
823.296	0.0139236
823.374	0.0139066
823.453	0.0140414
823.531	0.0140121
823.609	0.0139537
823.687	0.0137201
823.765	0.0140035
823.843	0.0139082
823.921	0.0140138
823.999	0.0139008
824.078	0.0139040
824.156	0.0139360
824.234	0.0138757
824.312	0.0139977
824.390	0.0138828
824.468	0.0138705
824.546	0.0140010
824.624	0.0138951
824.703	0.0139368
824.781	0.0138641
824.859	0.0137301
824.937	0.0138387
825.015	0.0139420
825.093	0.0137996
825.171	0.0138845
825.249	0.0137803
825.328	0.0139310
825.406	0.0139388
825.484	0.0138562
825.562	0.0137981
825.640	0.0138697
825.718	0.0139239
825.796	0.0138703
825.874	0.0138980
825.953	0.0137605
826.031	0.0137180
826.109	0.0137816
826.187	0.0139211
826.265	0.0140106
826.343	0.0138815
826.421	0.0140043
826.499	0.0138602
826.578	0.0137929
826.656	0.0139765
826.734	0.0141458
826.812	0.0139028
826.890	0.0139114
826.968	0.0140458
827.046	0.0139546
827.124	0.0138152
827.203	0.0139031
827.281	0.0139648
827.359	0.0138190
827.437	0.0137042
827.515	0.0138374
827.593	0.0138085
827.671	0.0137800
827.749	0.0137520
827.828	0.0139027
827.906	0.0139591
827.984	0.0138741
828.062	0.0138254
828.140	0.0140665
828.218	0.0139981
828.296	0.0138665
828.374	0.0141145
828.453	0.0140141
828.531	0.0138763
828.609	0.0139658
828.687	0.0139926
828.765	0.0138678
828.843	0.0138795
828.921	0.0138020
828.999	0.0138851
829.078	0.0137889
829.156	0.0137362
829.234	0.0138358
829.312	0.0137392
829.390	0.0139338
829.468	0.0138284
829.546	0.0139059
829.624	0.0138280
829.703	0.0138248
829.781	0.0139729
829.859	0.0138879
829.937	0.0138644
830.015	0.0139003
830.093	0.0140318
830.171	0.0139668
830.249	0.0139909
830.328	0.0139448
830.406	0.0140423
830.484	0.0139304
830.562	0.0138863
830.640	0.0138944
830.718	0.0140121
830.796	0.0139951
830.874	0.0138302
830.953	0.0139240
831.031	0.0139685
831.109	0.0139677
831.187	0.0140115
831.265	0.0139684
831.343	0.0138071
831.421	0.0137177
831.499	0.0139277
831.578	0.0139414
831.656	0.0137224
831.734	0.0136751
831.812	0.0137294
831.890	0.0138304
831.968	0.0137867
832.046	0.0137345
832.124	0.0138137
832.203	0.0137227
832.281	0.0137022
832.359	0.0137755
832.437	0.0138979
832.515	0.0137871
832.593	0.0137502
832.671	0.0138752
832.749	0.0138190
832.828	0.0137157
832.906	0.0137860
832.984	0.0137697
833.062	0.0139690
833.140	0.0138492
833.218	0.0137738
833.296	0.0138022
833.374	0.0138452
833.453	0.0138339
833.531	0.0138020
833.609	0.0138834
833.687	0.0140015
833.765	0.0138138
833.843	0.0138786
833.921	0.0136983
833.999	0.0137787
834.078	0.0138850
834.156	0.0140050
834.234	0.0138806
834.312	0.0139087
834.390	0.0137671
834.468	0.0137620
834.546	0.0137699
834.624	0.0137052
834.703	0.0137891
834.781	0.0139011
834.859	0.0137166
834.937	0.0136377
835.015	0.0137882
835.093	0.0137273
835.171	0.0138098
835.249	0.0138320
835.328	0.0136130
835.406	0.0137544
835.484	0.0137213
835.562	0.0138441
835.640	0.0138832
835.718	0.0138236
835.796	0.0138592
835.874	0.0137038
835.953	0.0139474
836.031	0.0139151
836.109	0.0138080
836.187	0.0136667
836.265	0.0137956
836.343	0.0139114
836.421	0.0137725
836.499	0.0138027
836.578	0.0138432
836.656	0.0138882
836.734	0.0137422
836.812	0.0137809
836.890	0.0137722
836.968	0.0139281
837.046	0.0138197
837.124	0.0138970
837.203	0.0138088
837.281	0.0137159
837.359	0.0137199
837.437	0.0138071
837.515	0.0136403
837.593	0.0137066
837.671	0.0138075
837.749	0.0138007
837.828	0.0138132
837.906	0.0137732
837.984	0.0136166
838.062	0.0137138
838.140	0.0136312
838.218	0.0135593
838.296	0.0137728
838.374	0.0136903
838.453	0.0136219
838.531	0.0136691
838.609	0.0136444
838.687	0.0136439
838.765	0.0136763
838.843	0.0137804
838.921	0.0138793
838.999	0.0138034
839.078	0.0137372
839.156	0.0137681
839.234	0.0137698
839.312	0.0138523
839.390	0.0139053
839.468	0.0137688
839.546	0.0137675
839.624	0.0139732
839.703	0.0138631
839.781	0.0138520
839.859	0.0137778
839.937	0.0138295
840.015	0.0138457
840.093	0.0137000
840.171	0.0137479
840.249	0.0138448
840.328	0.0137529
840.406	0.0137539
840.484	0.0138410
840.562	0.0139167
840.640	0.0136976
840.718	0.0138168
840.796	0.0138606
840.874	0.0137769
840.953	0.0137565
841.031	0.0138324
841.109	0.0138660
841.187	0.0139316
841.265	0.0137518
841.343	0.0137184
841.421	0.0137201
841.499	0.0137943
841.578	0.0138467
841.656	0.0137281
841.734	0.0136803
841.812	0.0135789
841.890	0.0137386
841.968	0.0137524
842.046	0.0136583
842.124	0.0135569
842.203	0.0136792
842.281	0.0138538
842.359	0.0138538
842.437	0.0137659
842.515	0.0138294
842.593	0.0137502
842.671	0.0138632
842.749	0.0138306
842.828	0.0138953
842.906	0.0139375
842.984	0.0138448
843.062	0.0138691
843.140	0.0137731
843.218	0.0138115
843.296	0.0139677
843.374	0.0139156
843.453	0.0137683
843.531	0.0136461
843.609	0.0138937
843.687	0.0138531
843.765	0.0138136
843.843	0.0137652
843.921	0.0138171
843.999	0.0139099
844.078	0.0138979
844.156	0.0137503
844.234	0.0138930
844.312	0.0138420
844.390	0.0138223
844.468	0.0139127
844.546	0.0138081
844.624	0.0138618
844.703	0.0140533
844.781	0.0138753
844.859	0.0137887
844.937	0.0139199
845.015	0.0138733
845.093	0.0139304
845.171	0.0139943
845.249	0.0140187
845.328	0.0138944
845.406	0.0139206
845.484	0.0139279
845.562	0.0138690
845.640	0.0138621
845.718	0.0137924
845.796	0.0137860
845.874	0.0138866
845.953	0.0138383
846.031	0.0138826
846.109	0.0139068
846.187	0.0137812
846.265	0.0138531
846.343	0.0139167
846.421	0.0139983
846.499	0.0139790
846.578	0.0139248
846.656	0.0138430
846.734	0.0139488
846.812	0.0139935
846.890	0.0138730
846.968	0.0139447
847.046	0.0139621
847.124	0.0139684
847.203	0.0139840
847.281	0.0139157
847.359	0.0140141
847.437	0.0137183
847.515	0.0138884
847.593	0.0139084
847.671	0.0138881
847.749	0.0138312
847.828	0.0137431
847.906	0.0139193
847.984	0.0138270
848.062	0.0138899
848.140	0.0139135
848.218	0.0138577
848.296	0.0140263
848.374	0.0138301
848.453	0.0139744
848.531	0.0139725
848.609	0.0139221
848.687	0.0138477
848.765	0.0138560
848.843	0.0139074
848.921	0.0139992
848.999	0.0139807
849.078	0.0138994
849.156	0.0137920
849.234	0.0138013
849.312	0.0138129
849.390	0.0138317
849.468	0.0138194
849.546	0.0138216
849.624	0.0137740
849.703	0.0138645
849.781	0.0138071
849.859	0.0137511
849.937	0.0139276
850.015	0.0139245
850.093	0.0139330
850.171	0.0139341
850.249	0.0138693
850.328	0.0140276
850.406	0.0140591
850.484	0.0139540
850.562	0.0139043
850.640	0.0140329
850.718	0.0140104
850.796	0.0140177
850.874	0.0138316
850.953	0.0139626
851.031	0.0139329
851.109	0.0140696
851.187	0.0139927
851.265	0.0139753
851.343	0.0140216
851.421	0.0139355
851.499	0.0139526
851.578	0.0140207
851.656	0.0139941
851.734	0.0139156
851.812	0.0139088
851.890	0.0138855
851.968	0.0140707
852.046	0.0138999
852.124	0.0137978
852.203	0.0138363
852.281	0.0140193
852.359	0.0139382
852.437	0.0140742
852.515	0.0138055
852.593	0.0139456
852.671	0.0140294
852.749	0.0139851
852.828	0.0139284
852.906	0.0139278
852.984	0.0139478
853.062	0.0139914
853.140	0.0137634
853.218	0.0138917
853.296	0.0139021
853.374	0.0139216
853.453	0.0137744
853.531	0.0138374
853.609	0.0138240
853.687	0.0138509
853.765	0.0137116
853.843	0.0138170
853.921	0.0137169
853.999	0.0136994
854.078	0.0136471
854.156	0.0138148
854.234	0.0139169
854.312	0.0138787
854.390	0.0137006
854.468	0.0138181
854.546	0.0139615
854.624	0.0139182
854.703	0.0139017
854.781	0.0138040
854.859	0.0137959
854.937	0.0139991
855.015	0.0137396
855.093	0.0139034
855.171	0.0138779
855.249	0.0139791
855.328	0.0140549
855.406	0.0138673
855.484	0.0140665
855.562	0.0139517
855.640	0.0138593
855.718	0.0140076
855.796	0.0138591
855.874	0.0137762
855.953	0.0137646
856.031	0.0137962
856.109	0.0136924
856.187	0.0137056
856.265	0.0137895
856.343	0.0138776
856.421	0.0137421
856.499	0.0137124
856.578	0.0137652
856.656	0.0137644
856.734	0.0138640
856.812	0.0136377
856.890	0.0137482
856.968	0.0138143
857.046	0.0137519
857.124	0.0137331
857.203	0.0139017
857.281	0.0137198
857.359	0.0136526
857.437	0.0137095
857.515	0.0137210
857.593	0.0135614
857.671	0.0137663
857.749	0.0137576
857.828	0.0136951
857.906	0.0137124
857.984	0.0136560
858.062	0.0138211
858.140	0.0137542
858.218	0.0138277
858.296	0.0136954
858.374	0.0135520
858.453	0.0136044
858.531	0.0135883
858.609	0.0138266
858.687	0.0138543
858.765	0.0137439
858.843	0.0136642
858.921	0.0136899
858.999	0.0138052
859.078	0.0138246
859.156	0.0138316
859.234	0.0137281
859.312	0.0138183
859.390	0.0137344
859.468	0.0139182
859.546	0.0138267
859.624	0.0137154
859.703	0.0137819
859.781	0.0138320
859.859	0.0137302
859.937	0.0138622
860.015	0.0138009
860.093	0.0137749
860.171	0.0137682
860.249	0.0136588
860.328	0.0136652
860.406	0.0138914
860.484	0.0137687
860.562	0.0136832
860.640	0.0137250
860.718	0.0137243
860.796	0.0138129
860.874	0.0137114
860.953	0.0137312
861.031	0.0138969
861.109	0.0138132
861.187	0.0138091
861.265	0.0138044
861.343	0.0139225
861.421	0.0139389
861.499	0.0138934
861.578	0.0138712
861.656	0.0140987
861.734	0.0139191
861.812	0.0137862
861.890	0.0138842
861.968	0.0137711
862.046	0.0138500
862.124	0.0138693
862.203	0.0137311
862.281	0.0137244
862.359	0.0137551
862.437	0.0137058
862.515	0.0137741
862.593	0.0137320
862.671	0.0136874
862.749	0.0137923
862.828	0.0138758
862.906	0.0138654
862.984	0.0138602
863.062	0.0138353
863.140	0.0138678
863.218	0.0138893
863.296	0.0137798
863.374	0.0138673
863.453	0.0139017
863.531	0.0139947
863.609	0.0139944
863.687	0.0139201
863.765	0.0139113
863.843	0.0138972
863.921	0.0138161
863.999	0.0139233
864.078	0.0139218
864.156	0.0138293
864.234	0.0137730
864.312	0.0136935
864.390	0.0137183
864.468	0.0137061
864.546	0.0137660
864.624	0.0137637
864.703	0.0138949
864.781	0.0138217
864.859	0.0136323
864.937	0.0138333
865.015	0.0138758
865.093	0.0138956
865.171	0.0138451
865.249	0.0137910
865.328	0.0139267
865.406	0.0140092
865.484	0.0139222
865.562	0.0138928
865.640	0.0139497
865.718	0.0139252
865.796	0.0138650
865.874	0.0138936
865.953	0.0138010
866.031	0.0137771
866.109	0.0138737
866.187	0.0138840
866.265	0.0138897
866.343	0.0136816
866.421	0.0136792
866.499	0.0136898
866.578	0.0136945
866.656	0.0136819
866.734	0.0138473
866.812	0.0138348
866.890	0.0138402
866.968	0.0137624
867.046	0.0138343
867.124	0.0138659
867.203	0.0139114
867.281	0.0138130
867.359	0.0139737
867.437	0.0138892
867.515	0.0138033
867.593	0.0138338
867.671	0.0137781
867.749	0.0137710
867.828	0.0137712
867.906	0.0137148
867.984	0.0136996
868.062	0.0138969
868.140	0.0138324
868.218	0.0138901
868.296	0.0138905
868.374	0.0136889
868.453	0.0137942
868.531	0.0139362
868.609	0.0136281
868.687	0.0137147
868.765	0.0138296
868.843	0.0139088
868.921	0.0138572
868.999	0.0139094
869.078	0.0138725
869.156	0.0138591
869.234	0.0139076
869.312	0.0139178
869.390	0.0138727
869.468	0.0137681
869.546	0.0139334
869.624	0.0138064
869.703	0.0138162
869.781	0.0137744
869.859	0.0137907
869.937	0.0138107
870.015	0.0139574
870.093	0.0138824
870.171	0.0138877
870.249	0.0139752
870.328	0.0140853
870.406	0.0138627
870.484	0.0136135
870.562	0.0137817
870.640	0.0138438
870.718	0.0137908
870.796	0.0139438
870.874	0.0138661
870.953	0.0139044
871.031	0.0138458
871.109	0.0137371
871.187	0.0139006
871.265	0.0138806
871.343	0.0138447
871.421	0.0138442
871.499	0.0139140
871.578	0.0137553
871.656	0.0139009
871.734	0.0138037
871.812	0.0138110
871.890	0.0137096
871.968	0.0137486
872.046	0.0139386
872.124	0.0138938
872.203	0.0138101
872.281	0.0138586
872.359	0.0137261
872.437	0.0137484
872.515	0.0136871
872.593	0.0137421
872.671	0.0137488
872.749	0.0137759
872.828	0.0139370
872.906	0.0138204
872.984	0.0137194
873.062	0.0138425
873.140	0.0138519
873.218	0.0138215
873.296	0.0138328
873.374	0.0137674
873.453	0.0137769
873.531	0.0138850
873.609	0.0138939
873.687	0.0139664
873.765	0.0139054
873.843	0.0138870
873.921	0.0139614
873.999	0.0138499
874.078	0.0138734
874.156	0.0139079
874.234	0.0138229
874.312	0.0139808
874.390	0.0138960
874.468	0.0139239
874.546	0.0137695
874.624	0.0137416
874.703	0.0139193
874.781	0.0138439
874.859	0.0138288
874.937	0.0139288
875.015	0.0136896
875.093	0.0136462
875.171	0.0138955
875.249	0.0138680
875.328	0.0136846
875.406	0.0138183
875.484	0.0138187
875.562	0.0138320
875.640	0.0136549
875.718	0.0137155
875.796	0.0137582
875.874	0.0138781
875.953	0.0137273
876.031	0.0138132
876.109	0.0138660
876.187	0.0138141
876.265	0.0136857
876.343	0.0138171
876.421	0.0137572
876.499	0.0139931
876.578	0.0139510
876.656	0.0137642
876.734	0.0138208
876.812	0.0137168
876.890	0.0138483
876.968	0.0138313
877.046	0.0138548
877.124	0.0137392
877.203	0.0138573
877.281	0.0138332
877.359	0.0138002
877.437	0.0138158
877.515	0.0138721
877.593	0.0136536
877.671	0.0137880
877.749	0.0139069
877.828	0.0137886
877.906	0.0139513
877.984	0.0137746
878.062	0.0139084
878.140	0.0139218
878.218	0.0137808
878.296	0.0139020
878.374	0.0139220
878.453	0.0139059
878.531	0.0138737
878.609	0.0139369
878.687	0.0138401
878.765	0.0137969
878.843	0.0138179
878.921	0.0137435
878.999	0.0137744
879.078	0.0137945
879.156	0.0138393
879.234	0.0137820
879.312	0.0136505
879.390	0.0135554
879.468	0.0138189
879.546	0.0138595
879.624	0.0137859
879.703	0.0138869
879.781	0.0139188
879.859	0.0136260
879.937	0.0137720
880.015	0.0138038
880.093	0.0138016
880.171	0.0138512
880.249	0.0138303
880.328	0.0137923
880.406	0.0138842
880.484	0.0138005
880.562	0.0139304
880.640	0.0138190
880.718	0.0137171
880.796	0.0137048
880.874	0.0138324
880.953	0.0137083
881.031	0.0138053
881.109	0.0137515
881.187	0.0137199
881.265	0.0137424
881.343	0.0138651
881.421	0.0138174
881.499	0.0138940
881.578	0.0137744
881.656	0.0136717
881.734	0.0138231
881.812	0.0137946
881.890	0.0138213
881.968	0.0138282
882.046	0.0138954
882.124	0.0137307
882.203	0.0138020
882.281	0.0137646
882.359	0.0138292
882.437	0.0137947
882.515	0.0137636
882.593	0.0137801
882.671	0.0138496
882.749	0.0137885
882.828	0.0139504
882.906	0.0138434
882.984	0.0138506
883.062	0.0139108
883.140	0.0138107
883.218	0.0138677
883.296	0.0137244
883.374	0.0138271
883.453	0.0138374
883.531	0.0139286
883.609	0.0138869
883.687	0.0138595
883.765	0.0138825
883.843	0.0139026
883.921	0.0140396
883.999	0.0141088
884.078	0.0138588
884.156	0.0139879
884.234	0.0140771
884.312	0.0140089
884.390	0.0139999
884.468	0.0139885
884.546	0.0139980
884.624	0.0140154
884.703	0.0139494
884.781	0.0138992
884.859	0.0139268
884.937	0.0139537
885.015	0.0138730
885.093	0.0139301
885.171	0.0137912
885.249	0.0138129
885.328	0.0139052
885.406	0.0138551
885.484	0.0138901
885.562	0.0138461
885.640	0.0138199
885.718	0.0137877
885.796	0.0138107
885.874	0.0137321
885.953	0.0135852
886.031	0.0137987
886.109	0.0137405
886.187	0.0137999
886.265	0.0137617
886.343	0.0136978
886.421	0.0139234
886.499	0.0139487
886.578	0.0139828
886.656	0.0138706
886.734	0.0139371
886.812	0.0139495
886.890	0.0139143
886.968	0.0138332
887.046	0.0138610
887.124	0.0139454
887.203	0.0137193
887.281	0.0138609
887.359	0.0137923
887.437	0.0137132
887.515	0.0137180
887.593	0.0137157
887.671	0.0135991
887.749	0.0137448
887.828	0.0138291
887.906	0.0136893
887.984	0.0137206
888.062	0.0137863
888.140	0.0138371
888.218	0.0138739
888.296	0.0139079
888.374	0.0139262
888.453	0.0139446
888.531	0.0139030
888.609	0.0139581
888.687	0.0139718
888.765	0.0139050
888.843	0.0139219
888.921	0.0138477
888.999	0.0138621
889.078	0.0138118
889.156	0.0139002
889.234	0.0137391
889.312	0.0138080
889.390	0.0137223
889.468	0.0137287
889.546	0.0138698
889.624	0.0137624
889.703	0.0137933
889.781	0.0136481
889.859	0.0137191
889.937	0.0137356
890.015	0.0138172
890.093	0.0137545
890.171	0.0137930
890.249	0.0138818
890.328	0.0138036
890.406	0.0136937
890.484	0.0138249
890.562	0.0138586
890.640	0.0139762
890.718	0.0138026
890.796	0.0138826
890.874	0.0138757
890.953	0.0137598
891.031	0.0140341
891.109	0.0138905
891.187	0.0139451
891.265	0.0137413
891.343	0.0137586
891.421	0.0138386
891.499	0.0137920
891.578	0.0138521
891.656	0.0138087
891.734	0.0137907
891.812	0.0137560
891.890	0.0138693
891.968	0.0138277
892.046	0.0138517
892.124	0.0139334
892.203	0.0138814
892.281	0.0138662
892.359	0.0138953
892.437	0.0139552
892.515	0.0139271
892.593	0.0139199
892.671	0.0137579
892.749	0.0139168
892.828	0.0140140
892.906	0.0139586
892.984	0.0138494
893.062	0.0139160
893.140	0.0138664
893.218	0.0137627
893.296	0.0137910
893.374	0.0137902
893.453	0.0137422
893.531	0.0138232
893.609	0.0136765
893.687	0.0137221
893.765	0.0136082
893.843	0.0136385
893.921	0.0136321
893.999	0.0135303
894.078	0.0137492
894.156	0.0136685
894.234	0.0136453
894.312	0.0137328
894.390	0.0136914
894.468	0.0137807
894.546	0.0136842
894.624	0.0137476
894.703	0.0137067
894.781	0.0137714
894.859	0.0137095
894.937	0.0136729
895.015	0.0137995
895.093	0.0136782
895.171	0.0138347
895.249	0.0135870
895.328	0.0136784
895.406	0.0138181
895.484	0.0137643
895.562	0.0138971
895.640	0.0137124
895.718	0.0137492
895.796	0.0138634
895.874	0.0137222
895.953	0.0137302
896.031	0.0137667
896.109	0.0137876
896.187	0.0138392
896.265	0.0137303
896.343	0.0137431
896.421	0.0137798
896.499	0.0140005
896.578	0.0136866
896.656	0.0138404
896.734	0.0138584
896.812	0.0137055
896.890	0.0137537
896.968	0.0137103
897.046	0.0137875
897.124	0.0138564
897.203	0.0137807
897.281	0.0137143
897.359	0.0138897
897.437	0.0137756
897.515	0.0137791
897.593	0.0138204
897.671	0.0138995
897.749	0.0138647
897.828	0.0139140
897.906	0.0139101
897.984	0.0136473
898.062	0.0135940
898.140	0.0137046
898.218	0.0137218
898.296	0.0136727
898.374	0.0137642
898.453	0.0138806
898.531	0.0139028
898.609	0.0138282
898.687	0.0137403
898.765	0.0137910
898.843	0.0138303
898.921	0.0139584
898.999	0.0139059
899.078	0.0137639
899.156	0.0138996
899.234	0.0138372
899.312	0.0138205
899.390	0.0139569
899.468	0.0138565
899.546	0.0139306
899.624	0.0137190
899.703	0.0137717
899.781	0.0138982
899.859	0.0138263
899.937	0.0138651
900.015	0.0138754
900.093	0.0138883
900.171	0.0137260
900.249	0.0138217
900.328	0.0139820
900.406	0.0139436
900.484	0.0138503
900.562	0.0138816
900.640	0.0139835
900.718	0.0138340
900.796	0.0138783
900.874	0.0139838
900.953	0.0139432
901.031	0.0139640
901.109	0.0139126
901.187	0.0139252
901.265	0.0139262
901.343	0.0137773
901.421	0.0139564
901.499	0.0139608
901.578	0.0138993
901.656	0.0138993
901.734	0.0140271
901.812	0.0139293
901.890	0.0139443
901.968	0.0140076
902.046	0.0138880
902.124	0.0138634
902.203	0.0138481
902.281	0.0138770
902.359	0.0139286
902.437	0.0139921
902.515	0.0137900
902.593	0.0138026
902.671	0.0138383
902.749	0.0138608
902.828	0.0137909
902.906	0.0138696
902.984	0.0137404
903.062	0.0138756
903.140	0.0139236
903.218	0.0138889
903.296	0.0139052
903.374	0.0138292
903.453	0.0138727
903.531	0.0139731
903.609	0.0140052
903.687	0.0138811
903.765	0.0139594
903.843	0.0138369
903.921	0.0137775
903.999	0.0137717
904.078	0.0137252
904.156	0.0137926
904.234	0.0138179
904.312	0.0138401
904.390	0.0138048
904.468	0.0136452
904.546	0.0137618
904.624	0.0138802
904.703	0.0138330
904.781	0.0138004
904.859	0.0137768
904.937	0.0138762
905.015	0.0138572
905.093	0.0137914
905.171	0.0137448
905.249	0.0139244
905.328	0.0139649
905.406	0.0139914
905.484	0.0139362
905.562	0.0139125
905.640	0.0139235
905.718	0.0137766
905.796	0.0139203
905.874	0.0138651
905.953	0.0139563
906.031	0.0138900
906.109	0.0138058
906.187	0.0138045
906.265	0.0138300
906.343	0.0138145
906.421	0.0137531
906.499	0.0139447
906.578	0.0139420
906.656	0.0139165
906.734	0.0139045
906.812	0.0137935
906.890	0.0138183
906.968	0.0139674
907.046	0.0138598
907.124	0.0138229
907.203	0.0137946
907.281	0.0137350
907.359	0.0138592
907.437	0.0139329
907.515	0.0138789
907.593	0.0139094
907.671	0.0138466
907.749	0.0139804
907.828	0.0139270
907.906	0.0138054
907.984	0.0137963
908.062	0.0137712
908.140	0.0138940
908.218	0.0139101
908.296	0.0139448
908.374	0.0138431
908.453	0.0138631
908.531	0.0137723
908.609	0.0139451
908.687	0.0140631
908.765	0.0139311
908.843	0.0137624
908.921	0.0138036
908.999	0.0138873
909.078	0.0137394
909.156	0.0136457
909.234	0.0138309
909.312	0.0138284
909.390	0.0139204
909.468	0.0137914
909.546	0.0139131
909.624	0.0139158
909.703	0.0138710
909.781	0.0138781
909.859	0.0138287
909.937	0.0140199
910.015	0.0139169
910.093	0.0137849
910.171	0.0138870
910.249	0.0138331
910.328	0.0139233
910.406	0.0138629
910.484	0.0138870
910.562	0.0138201
910.640	0.0138300
910.718	0.0139476
910.796	0.0138841
910.874	0.0137959
910.953	0.0138206
911.031	0.0137798
911.109	0.0139279
911.187	0.0139193
911.265	0.0138376
911.343	0.0140096
911.421	0.0139277
911.499	0.0139301
911.578	0.0139485
911.656	0.0140369
911.734	0.0139472
911.812	0.0137420
911.890	0.0138254
911.968	0.0137460
912.046	0.0137608
912.124	0.0138935
912.203	0.0138282
912.281	0.0138667
912.359	0.0138675
912.437	0.0138009
912.515	0.0138146
912.593	0.0138480
912.671	0.0137779
912.749	0.0137654
912.828	0.0137531
912.906	0.0138845
912.984	0.0138084
913.062	0.0139240
913.140	0.0138134
913.218	0.0138232
913.296	0.0139517
913.374	0.0137836
913.453	0.0138657
913.531	0.0139368
913.609	0.0138675
913.687	0.0138175
913.765	0.0139790
913.843	0.0137364
913.921	0.0138989
913.999	0.0138795
914.078	0.0139592
914.156	0.0140276
914.234	0.0139281
914.312	0.0138138
914.390	0.0138537
914.468	0.0139565
914.546	0.0139048
914.624	0.0138680
914.703	0.0138563
914.781	0.0137640
914.859	0.0138946
914.937	0.0138345
915.015	0.0138943
915.093	0.0137837
915.171	0.0138055
915.249	0.0138336
915.328	0.0138269
915.406	0.0137401
915.484	0.0137899
915.562	0.0138453
915.640	0.0138579
915.718	0.0138501
915.796	0.0136907
915.874	0.0139156
915.953	0.0139468
916.031	0.0138726
916.109	0.0137197
916.187	0.0137235
916.265	0.0137517
916.343	0.0138116
916.421	0.0138454
916.499	0.0138390
916.578	0.0137607
916.656	0.0139156
916.734	0.0139149
916.812	0.0138298
916.890	0.0137801
916.968	0.0137682
917.046	0.0138299
917.124	0.0139165
917.203	0.0136772
917.281	0.0138592
917.359	0.0139316
917.437	0.0139004
917.515	0.0138396
917.593	0.0138711
917.671	0.0139005
917.749	0.0138792
917.828	0.0138244
917.906	0.0138338
917.984	0.0138077
918.062	0.0138448
918.140	0.0138072
918.218	0.0139581
918.296	0.0137405
918.374	0.0136948
918.453	0.0136960
918.531	0.0139211
918.609	0.0139201
918.687	0.0137793
918.765	0.0136438
918.843	0.0137933
918.921	0.0137736
918.999	0.0136838
919.078	0.0137617
919.156	0.0137686
919.234	0.0136983
919.312	0.0135117
919.390	0.0138737
919.468	0.0136340
919.546	0.0135929
919.624	0.0136508
919.703	0.0135820
919.781	0.0137473
919.859	0.0136375
919.937	0.0138670
