05/06/2022	19:04:24	Ver.	4.1	UNKNOWN
Optical Delay	600.015094	Delta X		0.078125	Sweeps	1	Scan Rate	0/0
Coordinates	Axis 1	NaN	Axis 2	NaN	Axis 3	NaN	Axis 4	NaN	Axis 5	NaN	Axis 6	0.000000
TX Power	0.000000	RX Power	0.000000

600.015	0.0139523
600.093	0.0139912
600.171	0.0140364
600.249	0.0139178
600.328	0.0138889
600.406	0.0140803
600.484	0.0139651
600.562	0.0139536
600.640	0.0139986
600.718	0.0139665
600.796	0.0139323
600.874	0.0139518
600.953	0.0140376
601.031	0.0139086
601.109	0.0139693
601.187	0.0140821
601.265	0.0139080
601.343	0.0138834
601.421	0.0139461
601.499	0.0141117
601.578	0.0140014
601.656	0.0140443
601.734	0.0140336
601.812	0.0140157
601.890	0.0140309
601.968	0.0139057
602.046	0.0139006
602.124	0.0140891
602.203	0.0140543
602.281	0.0139719
602.359	0.0139383
602.437	0.0140388
602.515	0.0139812
602.593	0.0140036
602.671	0.0140052
602.749	0.0140609
602.828	0.0139256
602.906	0.0138920
602.984	0.0139028
603.062	0.0139538
603.140	0.0139052
603.218	0.0141074
603.296	0.0140665
603.374	0.0140540
603.453	0.0139958
603.531	0.0140453
603.609	0.0140164
603.687	0.0140876
603.765	0.0140410
603.843	0.0138776
603.921	0.0139885
603.999	0.0140196
604.078	0.0141147
604.156	0.0141665
604.234	0.0140471
604.312	0.0139640
604.390	0.0139342
604.468	0.0139744
604.546	0.0138893
604.624	0.0139550
604.703	0.0140098
604.781	0.0141528
604.859	0.0139863
604.937	0.0140018
605.015	0.0140581
605.093	0.0139589
605.171	0.0141219
605.249	0.0142260
605.328	0.0140340
605.406	0.0139353
605.484	0.0138776
605.562	0.0140967
605.640	0.0139268
605.718	0.0140785
605.796	0.0139423
605.874	0.0140360
605.953	0.0139434
606.031	0.0139976
606.109	0.0140873
606.187	0.0140198
606.265	0.0140311
606.343	0.0140279
606.421	0.0139102
606.499	0.0140826
606.578	0.0139933
606.656	0.0138620
606.734	0.0140495
606.812	0.0139094
606.890	0.0138994
606.968	0.0139421
607.046	0.0139561
607.124	0.0139040
607.203	0.0139969
607.281	0.0139214
607.359	0.0138936
607.437	0.0139593
607.515	0.0139170
607.593	0.0138733
607.671	0.0138236
607.749	0.0138911
607.828	0.0139241
607.906	0.0138234
607.984	0.0138589
608.062	0.0139281
608.140	0.0139682
608.218	0.0138661
608.296	0.0139223
608.374	0.0139298
608.453	0.0138873
608.531	0.0139120
608.609	0.0138588
608.687	0.0138656
608.765	0.0139631
608.843	0.0139155
608.921	0.0139699
608.999	0.0139792
609.078	0.0139011
609.156	0.0138852
609.234	0.0138233
609.312	0.0139178
609.390	0.0138918
609.468	0.0138981
609.546	0.0139207
609.624	0.0139270
609.703	0.0140414
609.781	0.0139175
609.859	0.0138972
609.937	0.0139246
610.015	0.0139796
610.093	0.0138513
610.171	0.0139891
610.249	0.0138602
610.328	0.0139555
610.406	0.0139832
610.484	0.0138768
610.562	0.0137973
610.640	0.0139066
610.718	0.0140661
610.796	0.0139188
610.874	0.0139582
610.953	0.0138843
611.031	0.0139137
611.109	0.0138273
611.187	0.0138697
611.265	0.0138541
611.343	0.0138396
611.421	0.0138896
611.499	0.0138777
611.578	0.0139507
611.656	0.0140459
611.734	0.0138916
611.812	0.0137417
611.890	0.0139161
611.968	0.0138525
612.046	0.0139989
612.124	0.0139229
612.203	0.0138428
612.281	0.0138797
612.359	0.0138783
612.437	0.0138303
612.515	0.0138056
612.593	0.0139763
612.671	0.0138795
612.749	0.0137907
612.828	0.0139140
612.906	0.0137841
612.984	0.0139049
613.062	0.0138217
613.140	0.0139246
613.218	0.0138678
613.296	0.0139795
613.374	0.0138634
613.453	0.0140391
613.531	0.0139320
613.609	0.0139212
613.687	0.0138820
613.765	0.0139665
613.843	0.0138527
613.921	0.0139619
613.999	0.0139536
614.078	0.0139712
614.156	0.0140105
614.234	0.0140601
614.312	0.0139378
614.390	0.0138139
614.468	0.0140291
614.546	0.0139764
614.624	0.0138492
614.703	0.0139487
614.781	0.0140295
614.859	0.0138474
614.937	0.0139177
615.015	0.0140694
615.093	0.0140041
615.171	0.0139533
615.249	0.0139742
615.328	0.0138937
615.406	0.0139066
615.484	0.0139685
615.562	0.0139851
615.640	0.0139054
615.718	0.0138456
615.796	0.0138903
615.874	0.0138931
615.953	0.0139500
616.031	0.0138502
616.109	0.0140098
616.187	0.0139980
616.265	0.0138085
616.343	0.0138206
616.421	0.0139157
616.499	0.0139023
616.578	0.0139485
616.656	0.0140144
616.734	0.0139870
616.812	0.0139772
616.890	0.0139755
616.968	0.0138367
617.046	0.0139378
617.124	0.0139201
617.203	0.0140041
617.281	0.0138027
617.359	0.0138610
617.437	0.0138387
617.515	0.0140211
617.593	0.0139508
617.671	0.0138503
617.749	0.0139645
617.828	0.0139702
617.906	0.0139301
617.984	0.0139505
618.062	0.0138428
618.140	0.0139192
618.218	0.0139384
618.296	0.0139709
618.374	0.0139529
618.453	0.0139149
618.531	0.0140215
618.609	0.0139786
618.687	0.0140610
618.765	0.0139154
618.843	0.0140211
618.921	0.0138810
618.999	0.0138955
619.078	0.0138871
619.156	0.0139503
619.234	0.0140222
619.312	0.0140437
619.390	0.0138522
619.468	0.0140719
619.546	0.0141747
619.624	0.0139275
619.703	0.0139467
619.781	0.0139960
619.859	0.0140428
619.937	0.0141522
620.015	0.0140389
620.093	0.0138787
620.171	0.0139687
620.249	0.0140689
620.328	0.0139781
620.406	0.0140276
620.484	0.0139507
620.562	0.0139388
620.640	0.0139590
620.718	0.0138818
620.796	0.0139513
620.874	0.0141034
620.953	0.0139926
621.031	0.0140488
621.109	0.0139974
621.187	0.0140633
621.265	0.0140054
621.343	0.0140047
621.421	0.0140021
621.499	0.0140361
621.578	0.0140239
621.656	0.0140637
621.734	0.0139957
621.812	0.0139091
621.890	0.0138598
621.968	0.0138593
622.046	0.0139697
622.124	0.0138709
622.203	0.0138839
622.281	0.0140137
622.359	0.0138379
622.437	0.0140447
622.515	0.0140275
622.593	0.0139478
622.671	0.0139503
622.749	0.0138653
622.828	0.0139751
622.906	0.0140629
622.984	0.0140557
623.062	0.0139627
623.140	0.0140450
623.218	0.0139947
623.296	0.0138350
623.374	0.0139687
623.453	0.0140170
623.531	0.0140302
623.609	0.0139723
623.687	0.0138902
623.765	0.0139947
623.843	0.0141443
623.921	0.0139632
623.999	0.0138742
624.078	0.0139814
624.156	0.0140144
624.234	0.0140501
624.312	0.0139820
624.390	0.0138319
624.468	0.0140398
624.546	0.0141170
624.624	0.0139722
624.703	0.0139930
624.781	0.0140294
624.859	0.0138377
624.937	0.0138116
625.015	0.0139901
625.093	0.0138949
625.171	0.0139909
625.249	0.0140170
625.328	0.0139611
625.406	0.0139489
625.484	0.0140412
625.562	0.0139532
625.640	0.0140051
625.718	0.0139617
625.796	0.0138371
625.874	0.0140341
625.953	0.0141758
626.031	0.0139506
626.109	0.0140148
626.187	0.0141386
626.265	0.0139425
626.343	0.0139058
626.421	0.0139080
626.499	0.0139357
626.578	0.0138080
626.656	0.0138343
626.734	0.0138247
626.812	0.0139595
626.890	0.0140570
626.968	0.0140264
627.046	0.0138971
627.124	0.0140388
627.203	0.0140662
627.281	0.0140504
627.359	0.0139294
627.437	0.0139909
627.515	0.0141499
627.593	0.0140022
627.671	0.0139333
627.749	0.0141071
627.828	0.0140143
627.906	0.0138990
627.984	0.0137630
628.062	0.0139285
628.140	0.0139595
628.218	0.0138309
628.296	0.0139943
628.374	0.0139262
628.453	0.0137741
628.531	0.0138183
628.609	0.0139786
628.687	0.0139635
628.765	0.0139066
628.843	0.0139071
628.921	0.0140102
628.999	0.0140463
629.078	0.0139947
629.156	0.0140327
629.234	0.0139973
629.312	0.0140549
629.390	0.0139387
629.468	0.0138354
629.546	0.0139216
629.624	0.0141292
629.703	0.0138708
629.781	0.0138573
629.859	0.0138856
629.937	0.0139745
630.015	0.0139594
630.093	0.0138456
630.171	0.0139577
630.249	0.0138168
630.328	0.0139555
630.406	0.0138155
630.484	0.0138409
630.562	0.0140295
630.640	0.0140318
630.718	0.0139176
630.796	0.0140120
630.874	0.0140952
630.953	0.0140066
631.031	0.0140270
631.109	0.0139582
631.187	0.0140635
631.265	0.0140549
631.343	0.0140610
631.421	0.0140645
631.499	0.0140368
631.578	0.0140945
631.656	0.0140358
631.734	0.0139989
631.812	0.0141162
631.890	0.0138743
631.968	0.0138384
632.046	0.0140427
632.124	0.0138885
632.203	0.0139711
632.281	0.0139900
632.359	0.0138983
632.437	0.0139793
632.515	0.0139909
632.593	0.0139541
632.671	0.0140212
632.749	0.0138787
632.828	0.0138354
632.906	0.0139539
632.984	0.0139488
633.062	0.0138546
633.140	0.0140032
633.218	0.0138022
633.296	0.0137537
633.374	0.0139241
633.453	0.0139283
633.531	0.0139576
633.609	0.0140015
633.687	0.0139650
633.765	0.0138123
633.843	0.0138400
633.921	0.0139944
633.999	0.0139174
634.078	0.0138441
634.156	0.0140036
634.234	0.0139304
634.312	0.0138333
634.390	0.0139253
634.468	0.0139621
634.546	0.0138093
634.624	0.0139021
634.703	0.0139201
634.781	0.0139446
634.859	0.0139537
634.937	0.0139813
635.015	0.0140167
635.093	0.0139995
635.171	0.0139240
635.249	0.0139972
635.328	0.0139051
635.406	0.0138771
635.484	0.0138821
635.562	0.0139551
635.640	0.0139952
635.718	0.0141016
635.796	0.0139607
635.874	0.0139169
635.953	0.0139040
636.031	0.0139637
636.109	0.0139529
636.187	0.0139808
636.265	0.0140265
636.343	0.0139809
636.421	0.0139832
636.499	0.0139211
636.578	0.0139857
636.656	0.0138897
636.734	0.0138938
636.812	0.0140834
636.890	0.0139856
636.968	0.0139239
637.046	0.0137832
637.124	0.0140195
637.203	0.0139411
637.281	0.0138867
637.359	0.0139393
637.437	0.0138974
637.515	0.0139444
637.593	0.0138753
637.671	0.0139144
637.749	0.0139484
637.828	0.0140977
637.906	0.0139762
637.984	0.0139687
638.062	0.0141032
638.140	0.0140371
638.218	0.0138816
638.296	0.0140495
638.374	0.0139495
638.453	0.0140091
638.531	0.0139706
638.609	0.0138490
638.687	0.0140485
638.765	0.0139327
638.843	0.0139036
638.921	0.0139324
638.999	0.0139956
639.078	0.0138312
639.156	0.0140070
639.234	0.0140183
639.312	0.0139259
639.390	0.0139681
639.468	0.0140327
639.546	0.0140334
639.624	0.0138634
639.703	0.0139587
639.781	0.0140170
639.859	0.0139935
639.937	0.0140623
640.015	0.0140148
640.093	0.0141109
640.171	0.0139154
640.249	0.0137735
640.328	0.0139301
640.406	0.0138087
640.484	0.0140530
640.562	0.0138148
640.640	0.0138677
640.718	0.0139931
640.796	0.0140353
640.874	0.0138699
640.953	0.0139099
641.031	0.0139527
641.109	0.0139987
641.187	0.0138969
641.265	0.0137995
641.343	0.0138632
641.421	0.0138480
641.499	0.0139280
641.578	0.0138848
641.656	0.0139802
641.734	0.0138675
641.812	0.0140069
641.890	0.0139722
641.968	0.0140189
642.046	0.0140423
642.124	0.0138662
642.203	0.0140489
642.281	0.0140112
642.359	0.0139200
642.437	0.0139965
642.515	0.0139032
642.593	0.0137486
642.671	0.0139870
642.749	0.0139169
642.828	0.0139715
642.906	0.0137933
642.984	0.0137271
643.062	0.0138456
643.140	0.0138609
643.218	0.0139773
643.296	0.0139791
643.374	0.0140232
643.453	0.0138882
643.531	0.0140427
643.609	0.0140625
643.687	0.0140336
643.765	0.0140318
643.843	0.0140405
643.921	0.0141277
643.999	0.0140028
644.078	0.0141136
644.156	0.0139742
644.234	0.0139779
644.312	0.0140291
644.390	0.0140083
644.468	0.0139413
644.546	0.0137615
644.624	0.0140129
644.703	0.0138400
644.781	0.0137685
644.859	0.0139004
644.937	0.0138814
645.015	0.0137896
645.093	0.0139232
645.171	0.0139323
645.249	0.0139470
645.328	0.0140052
645.406	0.0140756
645.484	0.0140627
645.562	0.0140246
645.640	0.0140418
645.718	0.0141582
645.796	0.0141196
645.874	0.0140645
645.953	0.0139903
646.031	0.0141039
646.109	0.0140693
646.187	0.0139906
646.265	0.0139345
646.343	0.0139245
646.421	0.0139326
646.499	0.0139417
646.578	0.0140025
646.656	0.0139046
646.734	0.0138753
646.812	0.0139148
646.890	0.0140457
646.968	0.0139651
647.046	0.0139457
647.124	0.0139789
647.203	0.0140315
647.281	0.0139932
647.359	0.0139211
647.437	0.0139052
647.515	0.0139706
647.593	0.0139477
647.671	0.0137666
647.749	0.0139610
647.828	0.0139069
647.906	0.0138109
647.984	0.0138858
648.062	0.0138875
648.140	0.0139617
648.218	0.0139734
648.296	0.0137808
648.374	0.0138161
648.453	0.0140057
648.531	0.0140378
648.609	0.0139202
648.687	0.0139803
648.765	0.0141312
648.843	0.0138870
648.921	0.0140369
648.999	0.0140263
649.078	0.0140853
649.156	0.0139639
649.234	0.0139303
649.312	0.0139636
649.390	0.0138754
649.468	0.0137784
649.546	0.0139217
649.624	0.0137975
649.703	0.0138039
649.781	0.0139727
649.859	0.0138377
649.937	0.0138781
650.015	0.0139105
650.093	0.0138398
650.171	0.0139034
650.249	0.0137416
650.328	0.0139029
650.406	0.0138706
650.484	0.0138206
650.562	0.0138843
650.640	0.0139343
650.718	0.0138885
650.796	0.0140544
650.874	0.0140467
650.953	0.0140730
651.031	0.0140321
651.109	0.0138609
651.187	0.0141215
651.265	0.0139985
651.343	0.0139543
651.421	0.0139071
651.499	0.0138918
651.578	0.0137393
651.656	0.0138000
651.734	0.0140087
651.812	0.0138502
651.890	0.0139546
651.968	0.0139504
652.046	0.0138795
652.124	0.0138819
652.203	0.0138601
652.281	0.0139394
652.359	0.0138629
652.437	0.0139665
652.515	0.0139930
652.593	0.0140136
652.671	0.0140398
652.749	0.0140292
652.828	0.0140695
652.906	0.0140263
652.984	0.0139938
653.062	0.0140562
653.140	0.0140604
653.218	0.0139433
653.296	0.0140337
653.374	0.0140166
653.453	0.0140220
653.531	0.0140253
653.609	0.0137981
653.687	0.0139622
653.765	0.0138902
653.843	0.0138045
653.921	0.0138700
653.999	0.0139481
654.078	0.0138001
654.156	0.0140117
654.234	0.0138815
654.312	0.0138978
654.390	0.0138968
654.468	0.0141677
654.546	0.0138931
654.624	0.0140022
654.703	0.0140240
654.781	0.0141628
654.859	0.0139460
654.937	0.0140318
655.015	0.0139588
655.093	0.0139291
655.171	0.0138571
655.249	0.0139040
655.328	0.0138409
655.406	0.0137276
655.484	0.0137473
655.562	0.0138894
655.640	0.0138522
655.718	0.0138161
655.796	0.0138988
655.874	0.0140417
655.953	0.0140725
656.031	0.0140308
656.109	0.0140309
656.187	0.0142590
656.265	0.0142515
656.343	0.0141574
656.421	0.0140311
656.499	0.0139993
656.578	0.0140492
656.656	0.0139632
656.734	0.0139442
656.812	0.0138784
656.890	0.0138534
656.968	0.0138421
657.046	0.0138567
657.124	0.0138242
657.203	0.0135896
657.281	0.0137309
657.359	0.0137218
657.437	0.0138171
657.515	0.0139080
657.593	0.0138234
657.671	0.0140434
657.749	0.0141196
657.828	0.0140539
657.906	0.0140667
657.984	0.0144190
658.062	0.0144150
658.140	0.0144444
658.218	0.0144372
658.296	0.0142726
658.374	0.0140978
658.453	0.0143528
658.531	0.0143262
658.609	0.0141176
658.687	0.0141537
658.765	0.0140440
658.843	0.0138320
658.921	0.0137983
658.999	0.0137290
659.078	0.0136272
659.156	0.0137119
659.234	0.0136757
659.312	0.0136800
659.390	0.0137767
659.468	0.0138069
659.546	0.0138261
659.624	0.0138718
659.703	0.0138985
659.781	0.0139179
659.859	0.0141853
659.937	0.0141547
660.015	0.0140087
660.093	0.0142451
660.171	0.0142157
660.249	0.0142419
660.328	0.0142883
660.406	0.0141421
660.484	0.0142268
660.562	0.0142791
660.640	0.0141843
660.718	0.0142681
660.796	0.0141187
660.874	0.0140578
660.953	0.0141505
661.031	0.0139753
661.109	0.0140449
661.187	0.0138210
661.265	0.0138431
661.343	0.0137956
661.421	0.0138715
661.499	0.0137951
661.578	0.0138386
661.656	0.0137511
661.734	0.0137570
661.812	0.0137850
661.890	0.0138694
661.968	0.0138637
662.046	0.0138311
662.124	0.0139465
662.203	0.0138463
662.281	0.0138020
662.359	0.0138016
662.437	0.0138766
662.515	0.0141029
662.593	0.0141234
662.671	0.0139404
662.749	0.0140553
662.828	0.0139690
662.906	0.0141322
662.984	0.0141397
663.062	0.0139812
663.140	0.0140845
663.218	0.0141431
663.296	0.0140628
663.374	0.0140752
663.453	0.0140671
663.531	0.0140903
663.609	0.0140102
663.687	0.0140673
663.765	0.0140907
663.843	0.0141169
663.921	0.0140105
663.999	0.0137647
664.078	0.0140257
664.156	0.0138553
664.234	0.0140316
664.312	0.0138864
664.390	0.0139162
664.468	0.0139728
664.546	0.0140304
664.624	0.0139402
664.703	0.0140698
664.781	0.0140150
664.859	0.0139620
664.937	0.0140278
665.015	0.0138963
665.093	0.0139656
665.171	0.0140015
665.249	0.0141004
665.328	0.0139806
665.406	0.0139114
665.484	0.0139695
665.562	0.0138004
665.640	0.0137699
665.718	0.0139908
665.796	0.0138412
665.874	0.0138815
665.953	0.0138065
666.031	0.0138172
666.109	0.0137850
666.187	0.0138357
666.265	0.0139700
666.343	0.0139748
666.421	0.0138286
666.499	0.0139137
666.578	0.0139694
666.656	0.0139418
666.734	0.0139663
666.812	0.0138717
666.890	0.0137674
666.968	0.0139716
667.046	0.0140760
667.124	0.0140393
667.203	0.0138294
667.281	0.0138166
667.359	0.0138768
667.437	0.0139594
667.515	0.0138543
667.593	0.0138497
667.671	0.0136429
667.749	0.0136526
667.828	0.0137239
667.906	0.0137404
667.984	0.0136834
668.062	0.0137022
668.140	0.0136303
668.218	0.0137537
668.296	0.0139179
668.374	0.0139285
668.453	0.0140833
668.531	0.0141633
668.609	0.0140895
668.687	0.0141360
668.765	0.0142606
668.843	0.0144569
668.921	0.0145621
668.999	0.0144926
669.078	0.0145332
669.156	0.0143579
669.234	0.0141116
669.312	0.0141930
669.390	0.0140300
669.468	0.0139467
669.546	0.0138054
669.624	0.0137344
669.703	0.0134618
669.781	0.0135347
669.859	0.0134559
669.937	0.0134284
670.015	0.0133724
670.093	0.0133037
670.171	0.0134258
670.249	0.0134721
670.328	0.0136189
670.406	0.0137488
670.484	0.0137347
670.562	0.0139360
670.640	0.0140415
670.718	0.0141769
670.796	0.0142976
670.874	0.0145010
670.953	0.0144267
671.031	0.0144175
671.109	0.0143783
671.187	0.0144192
671.265	0.0143346
671.343	0.0143362
671.421	0.0143082
671.499	0.0141072
671.578	0.0138788
671.656	0.0137852
671.734	0.0136867
671.812	0.0136381
671.890	0.0135522
671.968	0.0134548
672.046	0.0133345
672.124	0.0132446
672.203	0.0133713
672.281	0.0133086
672.359	0.0133592
672.437	0.0134514
672.515	0.0135112
672.593	0.0134673
672.671	0.0137267
672.749	0.0137984
672.828	0.0138773
672.906	0.0139594
672.984	0.0140488
673.062	0.0141345
673.140	0.0141570
673.218	0.0142642
673.296	0.0141521
673.374	0.0139471
673.453	0.0139702
673.531	0.0139843
673.609	0.0140295
673.687	0.0139224
673.765	0.0139085
673.843	0.0138103
673.921	0.0138422
673.999	0.0137413
674.078	0.0137450
674.156	0.0137263
674.234	0.0139206
674.312	0.0138303
674.390	0.0140083
674.468	0.0140060
674.546	0.0140570
674.624	0.0139909
674.703	0.0140217
674.781	0.0140098
674.859	0.0140672
674.937	0.0140165
675.015	0.0139178
675.093	0.0140008
675.171	0.0139802
675.249	0.0139304
675.328	0.0139826
675.406	0.0140524
675.484	0.0139054
675.562	0.0140270
675.640	0.0140237
675.718	0.0140194
675.796	0.0142299
675.874	0.0141570
675.953	0.0141132
676.031	0.0141389
676.109	0.0141248
676.187	0.0141763
676.265	0.0142075
676.343	0.0140162
676.421	0.0140659
676.499	0.0140950
676.578	0.0140110
676.656	0.0140165
676.734	0.0137399
676.812	0.0135767
676.890	0.0137841
676.968	0.0137842
677.046	0.0136681
677.124	0.0135664
677.203	0.0135339
677.281	0.0136185
677.359	0.0136294
677.437	0.0138677
677.515	0.0137299
677.593	0.0136958
677.671	0.0138925
677.749	0.0137901
677.828	0.0138511
677.906	0.0138737
677.984	0.0140102
678.062	0.0138110
678.140	0.0138904
678.218	0.0138528
678.296	0.0138899
678.374	0.0140426
678.453	0.0138361
678.531	0.0137060
678.609	0.0138248
678.687	0.0138970
678.765	0.0138890
678.843	0.0138659
678.921	0.0137883
678.999	0.0138850
679.078	0.0138731
679.156	0.0139711
679.234	0.0139708
679.312	0.0139873
679.390	0.0139242
679.468	0.0139998
679.546	0.0142612
679.624	0.0141188
679.703	0.0141351
679.781	0.0143588
679.859	0.0142239
679.937	0.0142084
680.015	0.0143281
680.093	0.0142493
680.171	0.0141187
680.249	0.0140154
680.328	0.0141208
680.406	0.0141090
680.484	0.0140968
680.562	0.0138819
680.640	0.0138441
680.718	0.0138805
680.796	0.0138574
680.874	0.0138457
680.953	0.0138798
681.031	0.0138254
681.109	0.0137754
681.187	0.0137705
681.265	0.0139345
681.343	0.0139725
681.421	0.0140752
681.499	0.0141798
681.578	0.0141740
681.656	0.0144052
681.734	0.0143998
681.812	0.0143398
681.890	0.0142930
681.968	0.0144673
682.046	0.0145386
682.124	0.0144219
682.203	0.0142287
682.281	0.0142113
682.359	0.0140436
682.437	0.0139762
682.515	0.0138100
682.593	0.0136291
682.671	0.0135207
682.749	0.0134653
682.828	0.0133488
682.906	0.0135399
682.984	0.0132756
683.062	0.0132363
683.140	0.0133456
683.218	0.0134850
683.296	0.0134295
683.374	0.0135790
683.453	0.0138548
683.531	0.0139095
683.609	0.0140820
683.687	0.0142285
683.765	0.0143102
683.843	0.0144734
683.921	0.0144940
683.999	0.0145594
684.078	0.0145460
684.156	0.0144442
684.234	0.0143489
684.312	0.0141928
684.390	0.0141493
684.468	0.0139848
684.546	0.0139120
684.624	0.0138375
684.703	0.0135519
684.781	0.0135541
684.859	0.0138445
684.937	0.0135384
685.015	0.0135534
685.093	0.0136369
685.171	0.0136647
685.249	0.0137830
685.328	0.0140459
685.406	0.0141660
685.484	0.0140693
685.562	0.0143629
685.640	0.0144786
685.718	0.0143896
685.796	0.0144437
685.874	0.0144820
685.953	0.0143891
686.031	0.0144356
686.109	0.0144263
686.187	0.0143562
686.265	0.0142303
686.343	0.0141553
686.421	0.0140316
686.499	0.0138481
686.578	0.0137727
686.656	0.0138210
686.734	0.0136616
686.812	0.0134834
686.890	0.0136330
686.968	0.0136139
687.046	0.0137109
687.124	0.0137354
687.203	0.0138686
687.281	0.0138969
687.359	0.0138908
687.437	0.0140659
687.515	0.0141034
687.593	0.0139531
687.671	0.0141487
687.749	0.0140860
687.828	0.0140451
687.906	0.0141187
687.984	0.0140365
688.062	0.0138950
688.140	0.0139610
688.218	0.0139079
688.296	0.0138397
688.374	0.0138793
688.453	0.0138721
688.531	0.0137956
688.609	0.0139535
688.687	0.0137207
688.765	0.0136788
688.843	0.0137004
688.921	0.0140111
688.999	0.0138033
689.078	0.0137383
689.156	0.0137522
689.234	0.0137532
689.312	0.0139181
689.390	0.0138785
689.468	0.0137403
689.546	0.0139445
689.624	0.0139645
689.703	0.0138143
689.781	0.0140659
689.859	0.0139970
689.937	0.0138412
690.015	0.0139698
690.093	0.0139017
690.171	0.0138704
690.249	0.0138040
690.328	0.0137164
690.406	0.0136738
690.484	0.0136722
690.562	0.0137128
690.640	0.0137233
690.718	0.0137951
690.796	0.0136285
690.874	0.0137194
690.953	0.0136689
691.031	0.0135847
691.109	0.0138084
691.187	0.0135493
691.265	0.0136420
691.343	0.0137460
691.421	0.0136590
691.499	0.0137772
691.578	0.0137441
691.656	0.0135908
691.734	0.0137276
691.812	0.0137739
691.890	0.0138008
691.968	0.0137542
692.046	0.0138536
692.124	0.0138077
692.203	0.0140561
692.281	0.0140196
692.359	0.0140811
692.437	0.0139182
692.515	0.0140664
692.593	0.0140717
692.671	0.0140102
692.749	0.0140368
692.828	0.0141071
692.906	0.0139970
692.984	0.0140906
693.062	0.0138969
693.140	0.0138613
693.218	0.0138486
693.296	0.0136461
693.374	0.0137421
693.453	0.0137032
693.531	0.0137229
693.609	0.0136184
693.687	0.0136958
693.765	0.0137770
693.843	0.0136553
693.921	0.0136648
693.999	0.0137688
694.078	0.0137263
694.156	0.0136876
694.234	0.0137312
694.312	0.0138886
694.390	0.0138134
694.468	0.0138713
694.546	0.0136565
694.624	0.0138388
694.703	0.0139072
694.781	0.0138303
694.859	0.0138715
694.937	0.0138842
695.015	0.0138831
695.093	0.0137997
695.171	0.0137662
695.249	0.0136568
695.328	0.0136360
695.406	0.0135745
695.484	0.0136820
695.562	0.0134837
695.640	0.0134531
695.718	0.0136733
695.796	0.0136918
695.874	0.0136335
695.953	0.0139222
696.031	0.0138908
696.109	0.0139542
696.187	0.0141641
696.265	0.0141046
696.343	0.0141432
696.421	0.0141358
696.499	0.0142315
696.578	0.0141758
696.656	0.0142588
696.734	0.0142747
696.812	0.0141309
696.890	0.0142302
696.968	0.0142381
697.046	0.0140867
697.124	0.0139874
697.203	0.0139728
697.281	0.0139521
697.359	0.0138345
697.437	0.0136600
697.515	0.0139333
697.593	0.0138375
697.671	0.0137386
697.749	0.0138522
697.828	0.0139518
697.906	0.0140344
697.984	0.0140491
698.062	0.0141304
698.140	0.0140459
698.218	0.0142124
698.296	0.0142934
698.374	0.0142562
698.453	0.0142599
698.531	0.0142064
698.609	0.0142693
698.687	0.0143090
698.765	0.0143823
698.843	0.0142593
698.921	0.0141801
698.999	0.0141451
699.078	0.0141081
699.156	0.0141238
699.234	0.0138169
699.312	0.0138393
699.390	0.0137840
699.468	0.0136539
699.546	0.0135963
699.624	0.0134943
699.703	0.0135519
699.781	0.0134405
699.859	0.0136863
699.937	0.0136146
700.015	0.0136520
700.093	0.0137325
700.171	0.0137879
700.249	0.0138641
700.328	0.0139182
700.406	0.0141639
700.484	0.0140267
700.562	0.0141381
700.640	0.0142133
700.718	0.0140617
700.796	0.0139699
700.874	0.0139480
700.953	0.0139441
701.031	0.0138187
701.109	0.0138349
701.187	0.0137410
701.265	0.0137625
701.343	0.0138822
701.421	0.0137994
701.499	0.0138723
701.578	0.0139539
701.656	0.0139355
701.734	0.0140260
701.812	0.0140226
701.890	0.0139516
701.968	0.0138744
702.046	0.0140571
702.124	0.0140884
702.203	0.0140734
702.281	0.0141991
702.359	0.0140583
702.437	0.0141496
702.515	0.0142230
702.593	0.0142943
702.671	0.0141847
702.749	0.0142883
702.828	0.0142286
702.906	0.0142372
702.984	0.0142224
703.062	0.0140250
703.140	0.0140556
703.218	0.0139059
703.296	0.0139325
703.374	0.0137908
703.453	0.0138820
703.531	0.0139225
703.609	0.0138837
703.687	0.0138888
703.765	0.0139764
703.843	0.0138512
703.921	0.0138894
703.999	0.0139075
704.078	0.0140068
704.156	0.0139028
704.234	0.0138868
704.312	0.0138593
704.390	0.0140495
704.468	0.0139779
704.546	0.0138447
704.624	0.0139660
704.703	0.0138741
704.781	0.0138970
704.859	0.0138688
704.937	0.0137972
705.015	0.0138309
705.093	0.0139281
705.171	0.0138981
705.249	0.0137447
705.328	0.0140221
705.406	0.0139960
705.484	0.0138313
705.562	0.0138404
705.640	0.0139156
705.718	0.0138777
705.796	0.0139684
705.874	0.0140054
705.953	0.0139687
706.031	0.0138046
706.109	0.0138737
706.187	0.0138895
706.265	0.0138404
706.343	0.0137954
706.421	0.0138154
706.499	0.0138754
706.578	0.0138979
706.656	0.0139441
706.734	0.0138709
706.812	0.0139196
706.890	0.0138607
706.968	0.0140395
707.046	0.0139751
707.124	0.0140558
707.203	0.0141071
707.281	0.0140414
707.359	0.0140919
707.437	0.0138943
707.515	0.0140764
707.593	0.0138754
707.671	0.0141258
707.749	0.0140320
707.828	0.0140566
707.906	0.0140955
707.984	0.0140031
708.062	0.0140273
708.140	0.0139945
708.218	0.0142033
708.296	0.0139941
708.374	0.0139552
708.453	0.0138529
708.531	0.0140353
708.609	0.0139172
708.687	0.0138077
708.765	0.0138985
708.843	0.0138984
708.921	0.0137923
708.999	0.0138862
709.078	0.0139583
709.156	0.0139693
709.234	0.0139657
709.312	0.0139554
709.390	0.0140314
709.468	0.0139362
709.546	0.0138731
709.624	0.0137595
709.703	0.0137505
709.781	0.0137049
709.859	0.0135845
709.937	0.0135871
710.015	0.0135114
710.093	0.0135366
710.171	0.0136068
710.249	0.0134509
710.328	0.0136178
710.406	0.0137542
710.484	0.0139172
710.562	0.0138824
710.640	0.0139146
710.718	0.0140659
710.796	0.0140562
710.874	0.0140197
710.953	0.0139423
711.031	0.0140135
711.109	0.0141158
711.187	0.0139606
711.265	0.0138551
711.343	0.0138367
711.421	0.0139562
711.499	0.0139507
711.578	0.0137563
711.656	0.0137859
711.734	0.0137713
711.812	0.0136601
711.890	0.0136093
711.968	0.0137336
712.046	0.0137366
712.124	0.0136980
712.203	0.0138000
712.281	0.0137323
712.359	0.0139487
712.437	0.0138614
712.515	0.0139183
712.593	0.0140296
712.671	0.0139829
712.749	0.0139486
712.828	0.0141238
712.906	0.0139538
712.984	0.0139706
713.062	0.0140498
713.140	0.0139251
713.218	0.0138938
713.296	0.0138959
713.374	0.0140089
713.453	0.0140251
713.531	0.0138899
713.609	0.0139175
713.687	0.0138771
713.765	0.0140405
713.843	0.0139595
713.921	0.0137403
713.999	0.0138094
714.078	0.0138604
714.156	0.0139548
714.234	0.0138902
714.312	0.0139730
714.390	0.0140450
714.468	0.0139407
714.546	0.0139590
714.624	0.0140324
714.703	0.0141705
714.781	0.0141151
714.859	0.0139454
714.937	0.0138467
715.015	0.0139693
715.093	0.0138354
715.171	0.0139494
715.249	0.0138692
715.328	0.0137984
715.406	0.0135589
715.484	0.0136388
715.562	0.0136517
715.640	0.0136418
715.718	0.0136166
715.796	0.0138279
715.874	0.0138484
715.953	0.0138071
716.031	0.0138389
716.109	0.0139234
716.187	0.0139346
716.265	0.0140597
716.343	0.0139891
716.421	0.0140752
716.499	0.0141130
716.578	0.0140732
716.656	0.0141851
716.734	0.0142987
716.812	0.0141312
716.890	0.0141732
716.968	0.0139559
717.046	0.0141697
717.124	0.0140982
717.203	0.0139634
717.281	0.0138631
717.359	0.0138607
717.437	0.0137459
717.515	0.0138232
717.593	0.0138579
717.671	0.0138141
717.749	0.0137930
717.828	0.0137639
717.906	0.0139878
717.984	0.0137489
718.062	0.0138338
718.140	0.0138115
718.218	0.0139764
718.296	0.0140308
718.374	0.0139232
718.453	0.0138920
718.531	0.0139745
718.609	0.0139215
718.687	0.0140404
718.765	0.0138871
718.843	0.0139336
718.921	0.0140694
718.999	0.0140295
719.078	0.0138837
719.156	0.0139074
719.234	0.0138345
719.312	0.0138516
719.390	0.0138937
719.468	0.0140534
719.546	0.0138786
719.624	0.0139985
719.703	0.0138860
719.781	0.0141099
719.859	0.0140311
719.937	0.0141044
720.015	0.0138855
720.093	0.0139878
720.171	0.0139283
720.249	0.0138377
720.328	0.0137474
720.406	0.0137656
720.484	0.0137627
720.562	0.0136879
720.640	0.0137715
720.718	0.0137794
720.796	0.0138919
720.874	0.0137325
720.953	0.0137846
721.031	0.0139657
721.109	0.0139633
721.187	0.0139042
721.265	0.0138365
721.343	0.0139657
721.421	0.0140286
721.499	0.0141795
721.578	0.0141859
721.656	0.0140302
721.734	0.0141105
721.812	0.0139610
721.890	0.0141557
721.968	0.0140826
722.046	0.0138898
722.124	0.0138229
722.203	0.0139556
722.281	0.0138821
722.359	0.0138342
722.437	0.0138253
722.515	0.0139408
722.593	0.0138594
722.671	0.0136293
722.749	0.0138044
722.828	0.0137365
722.906	0.0138019
722.984	0.0139590
723.062	0.0138607
723.140	0.0137468
723.218	0.0138300
723.296	0.0138430
723.374	0.0138821
723.453	0.0139263
723.531	0.0139674
723.609	0.0140831
723.687	0.0140395
723.765	0.0140965
723.843	0.0141243
723.921	0.0141151
723.999	0.0140779
724.078	0.0141207
724.156	0.0141908
724.234	0.0142360
724.312	0.0140201
724.390	0.0139334
724.468	0.0140532
724.546	0.0139366
724.624	0.0138958
724.703	0.0139310
724.781	0.0138303
724.859	0.0138165
724.937	0.0140028
725.015	0.0138564
725.093	0.0139397
725.171	0.0138638
725.249	0.0138451
725.328	0.0138683
725.406	0.0139713
725.484	0.0139479
725.562	0.0140497
725.640	0.0139636
725.718	0.0140685
725.796	0.0142242
725.874	0.0140686
725.953	0.0139311
726.031	0.0139606
726.109	0.0139964
726.187	0.0139634
726.265	0.0140842
726.343	0.0140443
726.421	0.0140356
726.499	0.0141542
726.578	0.0141475
726.656	0.0138622
726.734	0.0140520
726.812	0.0138929
726.890	0.0140152
726.968	0.0138663
727.046	0.0139396
727.124	0.0138452
727.203	0.0140750
727.281	0.0139444
727.359	0.0138158
727.437	0.0136935
727.515	0.0137801
727.593	0.0137548
727.671	0.0137012
727.749	0.0138552
727.828	0.0138251
727.906	0.0138194
727.984	0.0137642
728.062	0.0138011
728.140	0.0138808
728.218	0.0140445
728.296	0.0138660
728.374	0.0139840
728.453	0.0139909
728.531	0.0139629
728.609	0.0139511
728.687	0.0140410
728.765	0.0139435
728.843	0.0139436
728.921	0.0139098
728.999	0.0140575
729.078	0.0140154
729.156	0.0138594
729.234	0.0139619
729.312	0.0143667
729.390	0.0140749
729.468	0.0140097
729.546	0.0141695
729.624	0.0139037
729.703	0.0140545
729.781	0.0139041
729.859	0.0140260
729.937	0.0138827
730.015	0.0138110
730.093	0.0140144
730.171	0.0141281
730.249	0.0140933
730.328	0.0139925
730.406	0.0141178
730.484	0.0139820
730.562	0.0139654
730.640	0.0139705
730.718	0.0140637
730.796	0.0139236
730.874	0.0140004
730.953	0.0139676
731.031	0.0139550
731.109	0.0138947
731.187	0.0138849
731.265	0.0139532
731.343	0.0138721
731.421	0.0139091
731.499	0.0139592
731.578	0.0140163
731.656	0.0139511
731.734	0.0139244
731.812	0.0139786
731.890	0.0141232
731.968	0.0141378
732.046	0.0140205
732.124	0.0140417
732.203	0.0139465
732.281	0.0140165
732.359	0.0141222
732.437	0.0139754
732.515	0.0138824
732.593	0.0138128
732.671	0.0139169
732.749	0.0139820
732.828	0.0137801
732.906	0.0137265
732.984	0.0138454
733.062	0.0138918
733.140	0.0138854
733.218	0.0137378
733.296	0.0137020
733.374	0.0138417
733.453	0.0137318
733.531	0.0137850
733.609	0.0139765
733.687	0.0139544
733.765	0.0139214
733.843	0.0140148
733.921	0.0138367
733.999	0.0139920
734.078	0.0140043
734.156	0.0140930
734.234	0.0139259
734.312	0.0138988
734.390	0.0140566
734.468	0.0140984
734.546	0.0139229
734.624	0.0139899
734.703	0.0140257
734.781	0.0139322
734.859	0.0138953
734.937	0.0138012
735.015	0.0137628
735.093	0.0139381
735.171	0.0138671
735.249	0.0138796
735.328	0.0138363
735.406	0.0138927
735.484	0.0138708
735.562	0.0139138
735.640	0.0138599
735.718	0.0140400
735.796	0.0138284
735.874	0.0138902
735.953	0.0138311
736.031	0.0137991
736.109	0.0139347
736.187	0.0138834
736.265	0.0138669
736.343	0.0140529
736.421	0.0140343
736.499	0.0141098
736.578	0.0140668
736.656	0.0138920
736.734	0.0141044
736.812	0.0141853
736.890	0.0140251
736.968	0.0140559
737.046	0.0140314
737.124	0.0139892
737.203	0.0138803
737.281	0.0139603
737.359	0.0138143
737.437	0.0138519
737.515	0.0138352
737.593	0.0139461
737.671	0.0139225
737.749	0.0139521
737.828	0.0138653
737.906	0.0140123
737.984	0.0140662
738.062	0.0138789
738.140	0.0140251
738.218	0.0141084
738.296	0.0141916
738.374	0.0141096
738.453	0.0141460
738.531	0.0140147
738.609	0.0140356
738.687	0.0139593
738.765	0.0138792
738.843	0.0139374
738.921	0.0139356
738.999	0.0138166
739.078	0.0138190
739.156	0.0138213
739.234	0.0137683
739.312	0.0138736
739.390	0.0140700
739.468	0.0139580
739.546	0.0138589
739.624	0.0139465
739.703	0.0138502
739.781	0.0139198
739.859	0.0139494
739.937	0.0139001
740.015	0.0138558
740.093	0.0138577
740.171	0.0138321
740.249	0.0138554
740.328	0.0139172
740.406	0.0138609
740.484	0.0138150
740.562	0.0138866
740.640	0.0137712
740.718	0.0139124
740.796	0.0138525
740.874	0.0140347
740.953	0.0138485
741.031	0.0138593
741.109	0.0140271
741.187	0.0139541
741.265	0.0139561
741.343	0.0139091
741.421	0.0138826
741.499	0.0140707
741.578	0.0139268
741.656	0.0139404
741.734	0.0140069
741.812	0.0138769
741.890	0.0138412
741.968	0.0139762
742.046	0.0140313
742.124	0.0139886
742.203	0.0138952
742.281	0.0139421
742.359	0.0139304
742.437	0.0140538
742.515	0.0139194
742.593	0.0140083
742.671	0.0139513
742.749	0.0139024
742.828	0.0139050
742.906	0.0138531
742.984	0.0140127
743.062	0.0140301
743.140	0.0138848
743.218	0.0139848
743.296	0.0139816
743.374	0.0138736
743.453	0.0138656
743.531	0.0139591
743.609	0.0137954
743.687	0.0139265
743.765	0.0140021
743.843	0.0137788
743.921	0.0139260
743.999	0.0139410
744.078	0.0139578
744.156	0.0139812
744.234	0.0139218
744.312	0.0138637
744.390	0.0139014
744.468	0.0140262
744.546	0.0139153
744.624	0.0140002
744.703	0.0139959
744.781	0.0140343
744.859	0.0140298
744.937	0.0138743
745.015	0.0138531
745.093	0.0137749
745.171	0.0138631
745.249	0.0138632
745.328	0.0139515
745.406	0.0140235
745.484	0.0139128
745.562	0.0138068
745.640	0.0138938
745.718	0.0139106
745.796	0.0139486
745.874	0.0139002
745.953	0.0141389
746.031	0.0139678
746.109	0.0140984
746.187	0.0140136
746.265	0.0140913
746.343	0.0140277
746.421	0.0141425
746.499	0.0141432
746.578	0.0142392
746.656	0.0142213
746.734	0.0141809
746.812	0.0140594
746.890	0.0140662
746.968	0.0141013
747.046	0.0140871
747.124	0.0138537
747.203	0.0141170
747.281	0.0140416
747.359	0.0139957
747.437	0.0139716
747.515	0.0139549
747.593	0.0140599
747.671	0.0140508
747.749	0.0140413
747.828	0.0140419
747.906	0.0141413
747.984	0.0140415
748.062	0.0140393
748.140	0.0141345
748.218	0.0139555
748.296	0.0140617
748.374	0.0140820
748.453	0.0139864
748.531	0.0140107
748.609	0.0139970
748.687	0.0140251
748.765	0.0140137
748.843	0.0140514
748.921	0.0140973
748.999	0.0139191
749.078	0.0137383
749.156	0.0139143
749.234	0.0140170
749.312	0.0137783
749.390	0.0138697
749.468	0.0139345
749.546	0.0140508
749.624	0.0139368
749.703	0.0139329
749.781	0.0139767
749.859	0.0141795
749.937	0.0140762
750.015	0.0139586
750.093	0.0140015
750.171	0.0138995
750.249	0.0139640
750.328	0.0140208
750.406	0.0139768
750.484	0.0141422
750.562	0.0140314
750.640	0.0139647
750.718	0.0140527
750.796	0.0139777
750.874	0.0140842
750.953	0.0140698
751.031	0.0138906
751.109	0.0138836
751.187	0.0139573
751.265	0.0139022
751.343	0.0139632
751.421	0.0140147
751.499	0.0140202
751.578	0.0137002
751.656	0.0138113
751.734	0.0138476
751.812	0.0137759
751.890	0.0137276
751.968	0.0139559
752.046	0.0138364
752.124	0.0138436
752.203	0.0139799
752.281	0.0140578
752.359	0.0138496
752.437	0.0139759
752.515	0.0139915
752.593	0.0138485
752.671	0.0139005
752.749	0.0139644
752.828	0.0139324
752.906	0.0137584
752.984	0.0137785
753.062	0.0138265
753.140	0.0137541
753.218	0.0139289
753.296	0.0140169
753.374	0.0139116
753.453	0.0139436
753.531	0.0140108
753.609	0.0140279
753.687	0.0140192
753.765	0.0141759
753.843	0.0141042
753.921	0.0141524
753.999	0.0140296
754.078	0.0141666
754.156	0.0142091
754.234	0.0142559
754.312	0.0140382
754.390	0.0140707
754.468	0.0139925
754.546	0.0140408
754.624	0.0139600
754.703	0.0139567
754.781	0.0139230
754.859	0.0140742
754.937	0.0139659
755.015	0.0140666
755.093	0.0140517
755.171	0.0140098
755.249	0.0141114
755.328	0.0142206
755.406	0.0141945
755.484	0.0141817
755.562	0.0140463
755.640	0.0140630
755.718	0.0140675
755.796	0.0140955
755.874	0.0139131
755.953	0.0139262
756.031	0.0137911
756.109	0.0138612
756.187	0.0137836
756.265	0.0137936
756.343	0.0136890
756.421	0.0136893
756.499	0.0138973
756.578	0.0139099
756.656	0.0137849
756.734	0.0138467
756.812	0.0140097
756.890	0.0140502
756.968	0.0140200
757.046	0.0140694
757.124	0.0141071
757.203	0.0140575
757.281	0.0140189
757.359	0.0139568
757.437	0.0138415
757.515	0.0137413
757.593	0.0136733
757.671	0.0138277
757.749	0.0138053
757.828	0.0137637
757.906	0.0135582
757.984	0.0137523
758.062	0.0137350
758.140	0.0138322
758.218	0.0137589
758.296	0.0139124
758.374	0.0138533
758.453	0.0140347
758.531	0.0139661
758.609	0.0139908
758.687	0.0140381
758.765	0.0140666
758.843	0.0138720
758.921	0.0140851
758.999	0.0140189
759.078	0.0138978
759.156	0.0139400
759.234	0.0139547
759.312	0.0139408
759.390	0.0138551
759.468	0.0139107
759.546	0.0139857
759.624	0.0139026
759.703	0.0140196
759.781	0.0139610
759.859	0.0140652
759.937	0.0139181
760.015	0.0139919
760.093	0.0139749
760.171	0.0140305
760.249	0.0139572
760.328	0.0139478
760.406	0.0139086
760.484	0.0138041
760.562	0.0140164
760.640	0.0138181
760.718	0.0139818
760.796	0.0139532
760.874	0.0138503
760.953	0.0139063
761.031	0.0139847
761.109	0.0139960
761.187	0.0139671
761.265	0.0140026
761.343	0.0139234
761.421	0.0139537
761.499	0.0139551
761.578	0.0139941
761.656	0.0139621
761.734	0.0138845
761.812	0.0141687
761.890	0.0138348
761.968	0.0139776
762.046	0.0138717
762.124	0.0140724
762.203	0.0139111
762.281	0.0137934
762.359	0.0139431
762.437	0.0137864
762.515	0.0139410
762.593	0.0139021
762.671	0.0139582
762.749	0.0140569
762.828	0.0139091
762.906	0.0140462
762.984	0.0141171
763.062	0.0140219
763.140	0.0140912
763.218	0.0140084
763.296	0.0139593
763.374	0.0140751
763.453	0.0140335
763.531	0.0139677
763.609	0.0138702
763.687	0.0139854
763.765	0.0139246
763.843	0.0137673
763.921	0.0138869
763.999	0.0139404
764.078	0.0136283
764.156	0.0138978
764.234	0.0138867
764.312	0.0138976
764.390	0.0138597
764.468	0.0139652
764.546	0.0139352
764.624	0.0139494
764.703	0.0138287
764.781	0.0139783
764.859	0.0139918
764.937	0.0139711
765.015	0.0139447
765.093	0.0138193
765.171	0.0137878
765.249	0.0138223
765.328	0.0137072
765.406	0.0139449
765.484	0.0139359
765.562	0.0139107
765.640	0.0138725
765.718	0.0139762
765.796	0.0138937
765.874	0.0137940
765.953	0.0138878
766.031	0.0141018
766.109	0.0138795
766.187	0.0138866
766.265	0.0139841
766.343	0.0139198
766.421	0.0137786
766.499	0.0137466
766.578	0.0138987
766.656	0.0139024
766.734	0.0139461
766.812	0.0138185
766.890	0.0137948
766.968	0.0138801
767.046	0.0138937
767.124	0.0138661
767.203	0.0139612
767.281	0.0140190
767.359	0.0138808
767.437	0.0139453
767.515	0.0139400
767.593	0.0139673
767.671	0.0140431
767.749	0.0141199
767.828	0.0138928
767.906	0.0138135
767.984	0.0139619
768.062	0.0139739
768.140	0.0139793
768.218	0.0139313
768.296	0.0139893
768.374	0.0140775
768.453	0.0138408
768.531	0.0138596
768.609	0.0139537
768.687	0.0140457
768.765	0.0138406
768.843	0.0140006
768.921	0.0140028
768.999	0.0140483
769.078	0.0139385
769.156	0.0140921
769.234	0.0140241
769.312	0.0140480
769.390	0.0139529
769.468	0.0138458
769.546	0.0140350
769.624	0.0140557
769.703	0.0139063
769.781	0.0139642
769.859	0.0140969
769.937	0.0139745
770.015	0.0138068
770.093	0.0140069
770.171	0.0139679
770.249	0.0139070
770.328	0.0139704
770.406	0.0139144
770.484	0.0140121
770.562	0.0139968
770.640	0.0138705
770.718	0.0137975
770.796	0.0138969
770.874	0.0137813
770.953	0.0139209
771.031	0.0139233
771.109	0.0138965
771.187	0.0139432
771.265	0.0139020
771.343	0.0139480
771.421	0.0139322
771.499	0.0140572
771.578	0.0140270
771.656	0.0139713
771.734	0.0139768
771.812	0.0141063
771.890	0.0140930
771.968	0.0141786
772.046	0.0141444
772.124	0.0140430
772.203	0.0139919
772.281	0.0140222
772.359	0.0141942
772.437	0.0140065
772.515	0.0140408
772.593	0.0141431
772.671	0.0140515
772.749	0.0139587
772.828	0.0140256
772.906	0.0139517
772.984	0.0139294
773.062	0.0141331
773.140	0.0140482
773.218	0.0139252
773.296	0.0138357
773.374	0.0140847
773.453	0.0140058
773.531	0.0140388
773.609	0.0139232
773.687	0.0139612
773.765	0.0138411
773.843	0.0139098
773.921	0.0140218
773.999	0.0138657
774.078	0.0139257
774.156	0.0138511
774.234	0.0139457
774.312	0.0139485
774.390	0.0140002
774.468	0.0138483
774.546	0.0137593
774.624	0.0138614
774.703	0.0140260
774.781	0.0139596
774.859	0.0138767
774.937	0.0140923
775.015	0.0139070
775.093	0.0141043
775.171	0.0140553
775.249	0.0141295
775.328	0.0141121
775.406	0.0142245
775.484	0.0140572
775.562	0.0141211
775.640	0.0140154
775.718	0.0140470
775.796	0.0140078
775.874	0.0140232
775.953	0.0139446
776.031	0.0138231
776.109	0.0139208
776.187	0.0140114
776.265	0.0139346
776.343	0.0139000
776.421	0.0139817
776.499	0.0139572
776.578	0.0139126
776.656	0.0140339
776.734	0.0139815
776.812	0.0139444
776.890	0.0140613
776.968	0.0140283
777.046	0.0139712
777.124	0.0139651
777.203	0.0139802
777.281	0.0141061
777.359	0.0140379
777.437	0.0140772
777.515	0.0141065
777.593	0.0138718
777.671	0.0139780
777.749	0.0140031
777.828	0.0140649
777.906	0.0139466
777.984	0.0139019
778.062	0.0141013
778.140	0.0138889
778.218	0.0141408
778.296	0.0140587
778.374	0.0138485
778.453	0.0139409
778.531	0.0139839
778.609	0.0140118
778.687	0.0140356
778.765	0.0140234
778.843	0.0139841
778.921	0.0139926
778.999	0.0140970
779.078	0.0141308
779.156	0.0138427
779.234	0.0139191
779.312	0.0140134
779.390	0.0138703
779.468	0.0140295
779.546	0.0140141
779.624	0.0139339
779.703	0.0139884
779.781	0.0138397
779.859	0.0139487
779.937	0.0139438
780.015	0.0139522
780.093	0.0139116
780.171	0.0139521
780.249	0.0141011
780.328	0.0139659
780.406	0.0140871
780.484	0.0139771
780.562	0.0139038
780.640	0.0138741
780.718	0.0139902
780.796	0.0141119
780.874	0.0139382
780.953	0.0139722
781.031	0.0140658
781.109	0.0140457
781.187	0.0139849
781.265	0.0138061
781.343	0.0139668
781.421	0.0140993
781.499	0.0140059
781.578	0.0139976
781.656	0.0140273
781.734	0.0140892
781.812	0.0139806
781.890	0.0138943
781.968	0.0139695
782.046	0.0139192
782.124	0.0139747
782.203	0.0140192
782.281	0.0138696
782.359	0.0138092
782.437	0.0139418
782.515	0.0139914
782.593	0.0139896
782.671	0.0138744
782.749	0.0139889
782.828	0.0141375
782.906	0.0138314
782.984	0.0140602
783.062	0.0141192
783.140	0.0139071
783.218	0.0141190
783.296	0.0141396
783.374	0.0138896
783.453	0.0138660
783.531	0.0140268
783.609	0.0139159
783.687	0.0139743
783.765	0.0139570
783.843	0.0138718
783.921	0.0138685
783.999	0.0138567
784.078	0.0138880
784.156	0.0137740
784.234	0.0136751
784.312	0.0137529
784.390	0.0138974
784.468	0.0139500
784.546	0.0138548
784.624	0.0138036
784.703	0.0138812
784.781	0.0138141
784.859	0.0137545
784.937	0.0138245
785.015	0.0139239
785.093	0.0137424
785.171	0.0137334
785.249	0.0138186
785.328	0.0138360
785.406	0.0137000
785.484	0.0137656
785.562	0.0137683
785.640	0.0137972
785.718	0.0137289
785.796	0.0136092
785.874	0.0137172
785.953	0.0136646
786.031	0.0139020
786.109	0.0138791
786.187	0.0137049
786.265	0.0138084
786.343	0.0138054
786.421	0.0138356
786.499	0.0138120
786.578	0.0139207
786.656	0.0138779
786.734	0.0138022
786.812	0.0140782
786.890	0.0140092
786.968	0.0140059
787.046	0.0139390
787.124	0.0138808
787.203	0.0140279
787.281	0.0139988
787.359	0.0139252
787.437	0.0140874
787.515	0.0140376
787.593	0.0140824
787.671	0.0139343
787.749	0.0139526
787.828	0.0138672
787.906	0.0138347
787.984	0.0140501
788.062	0.0139370
788.140	0.0137592
788.218	0.0138828
788.296	0.0139148
788.374	0.0138910
788.453	0.0138795
788.531	0.0138934
788.609	0.0138676
788.687	0.0139304
788.765	0.0138136
788.843	0.0139322
788.921	0.0139401
788.999	0.0138805
789.078	0.0137403
789.156	0.0138716
789.234	0.0138619
789.312	0.0138421
789.390	0.0138842
789.468	0.0137912
789.546	0.0138252
789.624	0.0137931
789.703	0.0138412
789.781	0.0138410
789.859	0.0139832
789.937	0.0139127
790.015	0.0139172
790.093	0.0138927
790.171	0.0138448
790.249	0.0138714
790.328	0.0140143
790.406	0.0139334
790.484	0.0139894
790.562	0.0139620
790.640	0.0139772
790.718	0.0140204
790.796	0.0139872
790.874	0.0138490
790.953	0.0138119
791.031	0.0139419
791.109	0.0138572
791.187	0.0138774
791.265	0.0139102
791.343	0.0138377
791.421	0.0137893
791.499	0.0138142
791.578	0.0138157
791.656	0.0137850
791.734	0.0138692
791.812	0.0139791
791.890	0.0139640
791.968	0.0138456
792.046	0.0139082
792.124	0.0139571
792.203	0.0139581
792.281	0.0139610
792.359	0.0139156
792.437	0.0138723
792.515	0.0138974
792.593	0.0139343
792.671	0.0139971
792.749	0.0140401
792.828	0.0139798
792.906	0.0139762
792.984	0.0138559
793.062	0.0139627
793.140	0.0139815
793.218	0.0139938
793.296	0.0139751
793.374	0.0140891
793.453	0.0139120
793.531	0.0138420
793.609	0.0138736
793.687	0.0140446
793.765	0.0140261
793.843	0.0140830
793.921	0.0139679
793.999	0.0140241
794.078	0.0140873
794.156	0.0140235
794.234	0.0140008
794.312	0.0140526
794.390	0.0139505
794.468	0.0139942
794.546	0.0139459
794.624	0.0140469
794.703	0.0138874
794.781	0.0139083
794.859	0.0139021
794.937	0.0138861
795.015	0.0139343
795.093	0.0139913
795.171	0.0140672
795.249	0.0139731
795.328	0.0139761
795.406	0.0140556
795.484	0.0140720
795.562	0.0139828
795.640	0.0138783
795.718	0.0139358
795.796	0.0141093
795.874	0.0140462
795.953	0.0140190
796.031	0.0140005
796.109	0.0139606
796.187	0.0140083
796.265	0.0141150
796.343	0.0139559
796.421	0.0140667
796.499	0.0140322
796.578	0.0141309
796.656	0.0141544
796.734	0.0139003
796.812	0.0141416
796.890	0.0140434
796.968	0.0139748
797.046	0.0140538
797.124	0.0141214
797.203	0.0138877
797.281	0.0138991
797.359	0.0139218
797.437	0.0140056
797.515	0.0140861
797.593	0.0140666
797.671	0.0138326
797.749	0.0139821
797.828	0.0140141
797.906	0.0141318
797.984	0.0141798
798.062	0.0139958
798.140	0.0139763
798.218	0.0139658
798.296	0.0140980
798.374	0.0139938
798.453	0.0140043
798.531	0.0140102
798.609	0.0139244
798.687	0.0139656
798.765	0.0139913
798.843	0.0139598
798.921	0.0140388
798.999	0.0140199
799.078	0.0139356
799.156	0.0138353
799.234	0.0140905
799.312	0.0139605
799.390	0.0140032
799.468	0.0139625
799.546	0.0139436
799.624	0.0140660
799.703	0.0139608
799.781	0.0139148
799.859	0.0139304
799.937	0.0139037
800.015	0.0139951
800.093	0.0139430
800.171	0.0139178
800.249	0.0138976
800.328	0.0139554
800.406	0.0139802
800.484	0.0139140
800.562	0.0139522
800.640	0.0139593
800.718	0.0139812
800.796	0.0140024
800.874	0.0139613
800.953	0.0141042
801.031	0.0141594
801.109	0.0142391
801.187	0.0140695
801.265	0.0140137
801.343	0.0140668
801.421	0.0140771
801.499	0.0140823
801.578	0.0141872
801.656	0.0140137
801.734	0.0139474
801.812	0.0140364
801.890	0.0140473
801.968	0.0139901
802.046	0.0139067
802.124	0.0138480
802.203	0.0138036
802.281	0.0139164
802.359	0.0138360
802.437	0.0138396
802.515	0.0138310
802.593	0.0136895
802.671	0.0138033
802.749	0.0137797
802.828	0.0137322
802.906	0.0138769
802.984	0.0139578
803.062	0.0138441
803.140	0.0138874
803.218	0.0138137
803.296	0.0137951
803.374	0.0138448
803.453	0.0139355
803.531	0.0138970
803.609	0.0137792
803.687	0.0137870
803.765	0.0137988
803.843	0.0138270
803.921	0.0138647
803.999	0.0138393
804.078	0.0138515
804.156	0.0139090
804.234	0.0139197
804.312	0.0138519
804.390	0.0139768
804.468	0.0139761
804.546	0.0138199
804.624	0.0140430
804.703	0.0140012
804.781	0.0138223
804.859	0.0140475
804.937	0.0140004
805.015	0.0139257
805.093	0.0138936
805.171	0.0139242
805.249	0.0139441
805.328	0.0141009
805.406	0.0140272
805.484	0.0139135
805.562	0.0140435
805.640	0.0139647
805.718	0.0139653
805.796	0.0140526
805.874	0.0139001
805.953	0.0138284
806.031	0.0139871
806.109	0.0138477
806.187	0.0138552
806.265	0.0139202
806.343	0.0138997
806.421	0.0140380
806.499	0.0139859
806.578	0.0140540
806.656	0.0139678
806.734	0.0141315
806.812	0.0139148
806.890	0.0139615
806.968	0.0139941
807.046	0.0139192
807.124	0.0138921
807.203	0.0139558
807.281	0.0138717
807.359	0.0138207
807.437	0.0137373
807.515	0.0138393
807.593	0.0138843
807.671	0.0137778
807.749	0.0136877
807.828	0.0136939
807.906	0.0137413
807.984	0.0137557
808.062	0.0138383
808.140	0.0137452
808.218	0.0139239
808.296	0.0138708
808.374	0.0139024
808.453	0.0138219
808.531	0.0139061
808.609	0.0138477
808.687	0.0137710
808.765	0.0139294
808.843	0.0139355
808.921	0.0139748
808.999	0.0139936
809.078	0.0139884
809.156	0.0140006
809.234	0.0140685
809.312	0.0138972
809.390	0.0139967
809.468	0.0138250
809.546	0.0140189
809.624	0.0138521
809.703	0.0139000
809.781	0.0138035
809.859	0.0138304
809.937	0.0140013
810.015	0.0138680
810.093	0.0137714
810.171	0.0138784
810.249	0.0137888
810.328	0.0137820
810.406	0.0139561
810.484	0.0138924
810.562	0.0138512
810.640	0.0139905
810.718	0.0140642
810.796	0.0139098
810.874	0.0139645
810.953	0.0139584
811.031	0.0139648
811.109	0.0140157
811.187	0.0138791
811.265	0.0139323
811.343	0.0138833
811.421	0.0139237
811.499	0.0139970
811.578	0.0139511
811.656	0.0139259
811.734	0.0139947
811.812	0.0139854
811.890	0.0139787
811.968	0.0139835
812.046	0.0138577
812.124	0.0137998
812.203	0.0139094
812.281	0.0139371
812.359	0.0138036
812.437	0.0139154
812.515	0.0138920
812.593	0.0138664
812.671	0.0139384
812.749	0.0138087
812.828	0.0141208
812.906	0.0139800
812.984	0.0139720
813.062	0.0140318
813.140	0.0140249
813.218	0.0139056
813.296	0.0138685
813.374	0.0139985
813.453	0.0139076
813.531	0.0139854
813.609	0.0140060
813.687	0.0139714
813.765	0.0138698
813.843	0.0140392
813.921	0.0139661
813.999	0.0138486
814.078	0.0138838
814.156	0.0140023
814.234	0.0139215
814.312	0.0140363
814.390	0.0140819
814.468	0.0139220
814.546	0.0138832
814.624	0.0140334
814.703	0.0140569
814.781	0.0138515
814.859	0.0138445
814.937	0.0139114
815.015	0.0138948
815.093	0.0139941
815.171	0.0139466
815.249	0.0138602
815.328	0.0139188
815.406	0.0139832
815.484	0.0139262
815.562	0.0138963
815.640	0.0140756
815.718	0.0140289
815.796	0.0140205
815.874	0.0140272
815.953	0.0139996
816.031	0.0139643
816.109	0.0139804
816.187	0.0140195
816.265	0.0139165
816.343	0.0139628
816.421	0.0140236
816.499	0.0140177
816.578	0.0140588
816.656	0.0140092
816.734	0.0140732
816.812	0.0141131
816.890	0.0140029
816.968	0.0139730
817.046	0.0139882
817.124	0.0140549
817.203	0.0139256
817.281	0.0140067
817.359	0.0139547
817.437	0.0139077
817.515	0.0138957
817.593	0.0138434
817.671	0.0139584
817.749	0.0140632
817.828	0.0140010
817.906	0.0139629
817.984	0.0140668
818.062	0.0140682
818.140	0.0139785
818.218	0.0141772
818.296	0.0140012
818.374	0.0140921
818.453	0.0139673
818.531	0.0139805
818.609	0.0140852
818.687	0.0139500
818.765	0.0139305
818.843	0.0140814
818.921	0.0140137
818.999	0.0138974
819.078	0.0139456
819.156	0.0138233
819.234	0.0139325
819.312	0.0139523
819.390	0.0140459
819.468	0.0140450
819.546	0.0139911
819.624	0.0140648
819.703	0.0140825
819.781	0.0139928
819.859	0.0139694
819.937	0.0140327
820.015	0.0141601
820.093	0.0141681
820.171	0.0140770
820.249	0.0140629
820.328	0.0141606
820.406	0.0141507
820.484	0.0138612
820.562	0.0139024
820.640	0.0138899
820.718	0.0140491
820.796	0.0140454
820.874	0.0139185
820.953	0.0138213
821.031	0.0138764
821.109	0.0138602
821.187	0.0139561
821.265	0.0140593
821.343	0.0140960
821.421	0.0140505
821.499	0.0140247
821.578	0.0140883
821.656	0.0139090
821.734	0.0140786
821.812	0.0141016
821.890	0.0140365
821.968	0.0140047
822.046	0.0140983
822.124	0.0141350
822.203	0.0139548
822.281	0.0139615
822.359	0.0138962
822.437	0.0141373
822.515	0.0142453
822.593	0.0141442
822.671	0.0139986
822.749	0.0139061
822.828	0.0141017
822.906	0.0139881
822.984	0.0139909
823.062	0.0139165
823.140	0.0139871
823.218	0.0140060
823.296	0.0138985
823.374	0.0139837
823.453	0.0139773
823.531	0.0138894
823.609	0.0139362
823.687	0.0140061
823.765	0.0139984
823.843	0.0139816
823.921	0.0139050
823.999	0.0139357
824.078	0.0140468
824.156	0.0140691
824.234	0.0141160
824.312	0.0139712
824.390	0.0139645
824.468	0.0139790
824.546	0.0139047
824.624	0.0140051
824.703	0.0138641
824.781	0.0140324
824.859	0.0140536
824.937	0.0140782
825.015	0.0139468
825.093	0.0138478
825.171	0.0139861
825.249	0.0138332
825.328	0.0138838
825.406	0.0139222
825.484	0.0140617
825.562	0.0139547
825.640	0.0140680
825.718	0.0140208
825.796	0.0140554
825.874	0.0139522
825.953	0.0140894
826.031	0.0140762
826.109	0.0139788
826.187	0.0140534
826.265	0.0139604
826.343	0.0139014
826.421	0.0139044
826.499	0.0139060
826.578	0.0138546
826.656	0.0139685
826.734	0.0140427
826.812	0.0138177
826.890	0.0139918
826.968	0.0138896
827.046	0.0139576
827.124	0.0137904
827.203	0.0138461
827.281	0.0139018
827.359	0.0140234
827.437	0.0137020
827.515	0.0139116
827.593	0.0139445
827.671	0.0139162
827.749	0.0138823
827.828	0.0139543
827.906	0.0139899
827.984	0.0138332
828.062	0.0138970
828.140	0.0138155
828.218	0.0138665
828.296	0.0138055
828.374	0.0138989
828.453	0.0139419
828.531	0.0138184
828.609	0.0139003
828.687	0.0138531
828.765	0.0137995
828.843	0.0137638
828.921	0.0139731
828.999	0.0139340
829.078	0.0139071
829.156	0.0138078
829.234	0.0138870
829.312	0.0138081
829.390	0.0138676
829.468	0.0139417
829.546	0.0139662
829.624	0.0138596
829.703	0.0139188
829.781	0.0139277
829.859	0.0137989
829.937	0.0140009
830.015	0.0139664
830.093	0.0139288
830.171	0.0139555
830.249	0.0138246
830.328	0.0138691
830.406	0.0139240
830.484	0.0138943
830.562	0.0139494
830.640	0.0138854
830.718	0.0139270
830.796	0.0139477
830.874	0.0137830
830.953	0.0137997
831.031	0.0138867
831.109	0.0137337
831.187	0.0138443
831.265	0.0138807
831.343	0.0138732
831.421	0.0138177
831.499	0.0137843
831.578	0.0138871
831.656	0.0140359
831.734	0.0138815
831.812	0.0139069
831.890	0.0138493
831.968	0.0139297
832.046	0.0138945
832.124	0.0138671
832.203	0.0138297
832.281	0.0140325
832.359	0.0139052
832.437	0.0139016
832.515	0.0138795
832.593	0.0138020
832.671	0.0138113
832.749	0.0140767
832.828	0.0137744
832.906	0.0137977
832.984	0.0137954
833.062	0.0137693
833.140	0.0137632
833.218	0.0138879
833.296	0.0138713
833.374	0.0137226
833.453	0.0138618
833.531	0.0138728
833.609	0.0137809
833.687	0.0137572
833.765	0.0138438
833.843	0.0138551
833.921	0.0138085
833.999	0.0137239
834.078	0.0138489
834.156	0.0139449
834.234	0.0138526
834.312	0.0138311
834.390	0.0139857
834.468	0.0139182
834.546	0.0138548
834.624	0.0140925
834.703	0.0138869
834.781	0.0138107
834.859	0.0139014
834.937	0.0139146
835.015	0.0139310
835.093	0.0139306
835.171	0.0137824
835.249	0.0139071
835.328	0.0139056
835.406	0.0139280
835.484	0.0139701
835.562	0.0139713
835.640	0.0140428
835.718	0.0139259
835.796	0.0139760
835.874	0.0140404
835.953	0.0139832
836.031	0.0140202
836.109	0.0138528
836.187	0.0139375
836.265	0.0140967
836.343	0.0139782
836.421	0.0139612
836.499	0.0140125
836.578	0.0139655
836.656	0.0139039
836.734	0.0140060
836.812	0.0140765
836.890	0.0140416
836.968	0.0139722
837.046	0.0141523
837.124	0.0141064
837.203	0.0141301
837.281	0.0139240
837.359	0.0137814
837.437	0.0140991
837.515	0.0140079
837.593	0.0137749
837.671	0.0139558
837.749	0.0138493
837.828	0.0138359
837.906	0.0139371
837.984	0.0139299
838.062	0.0138265
838.140	0.0138484
838.218	0.0139964
838.296	0.0139783
838.374	0.0141350
838.453	0.0140702
838.531	0.0140115
838.609	0.0139906
838.687	0.0140676
838.765	0.0139344
838.843	0.0140243
838.921	0.0140479
838.999	0.0139654
839.078	0.0140372
839.156	0.0138870
839.234	0.0139052
839.312	0.0138721
839.390	0.0139675
839.468	0.0139193
839.546	0.0139935
839.624	0.0139566
839.703	0.0139218
839.781	0.0139725
839.859	0.0140989
839.937	0.0139967
840.015	0.0139817
840.093	0.0139791
840.171	0.0140143
840.249	0.0140148
840.328	0.0138738
840.406	0.0140356
840.484	0.0139538
840.562	0.0140358
840.640	0.0141232
840.718	0.0139552
840.796	0.0141916
840.874	0.0140259
840.953	0.0139329
841.031	0.0140723
841.109	0.0139599
841.187	0.0139899
841.265	0.0139909
841.343	0.0138779
841.421	0.0140202
841.499	0.0139154
841.578	0.0139217
841.656	0.0139761
841.734	0.0139999
841.812	0.0141858
841.890	0.0140644
841.968	0.0140396
842.046	0.0143413
842.124	0.0141187
842.203	0.0141049
842.281	0.0141116
842.359	0.0140953
842.437	0.0141650
842.515	0.0142340
842.593	0.0140971
842.671	0.0141801
842.749	0.0140611
842.828	0.0140221
842.906	0.0139993
842.984	0.0140226
843.062	0.0139658
843.140	0.0139601
843.218	0.0139492
843.296	0.0139383
843.374	0.0140830
843.453	0.0139630
843.531	0.0140598
843.609	0.0139320
843.687	0.0139767
843.765	0.0140221
843.843	0.0140259
843.921	0.0139574
843.999	0.0140140
844.078	0.0140307
844.156	0.0141019
844.234	0.0140215
844.312	0.0140052
844.390	0.0140639
844.468	0.0141425
844.546	0.0142626
844.624	0.0141205
844.703	0.0139375
844.781	0.0140287
844.859	0.0140534
844.937	0.0140270
845.015	0.0141149
845.093	0.0140535
845.171	0.0140364
845.249	0.0141011
845.328	0.0138306
845.406	0.0140724
845.484	0.0139851
845.562	0.0139695
845.640	0.0139780
845.718	0.0139621
845.796	0.0139499
845.874	0.0140000
845.953	0.0140447
846.031	0.0139550
846.109	0.0141061
846.187	0.0140089
846.265	0.0140650
846.343	0.0141145
846.421	0.0139455
846.499	0.0140267
846.578	0.0139326
846.656	0.0139754
846.734	0.0140573
846.812	0.0139916
846.890	0.0138565
846.968	0.0139446
847.046	0.0138334
847.124	0.0137454
847.203	0.0137027
847.281	0.0139043
847.359	0.0138121
847.437	0.0140662
847.515	0.0138622
847.593	0.0139991
847.671	0.0139123
847.749	0.0139303
847.828	0.0139568
847.906	0.0139951
847.984	0.0139968
848.062	0.0137606
848.140	0.0137887
848.218	0.0139028
848.296	0.0137136
848.374	0.0138525
848.453	0.0138982
848.531	0.0138212
848.609	0.0139158
848.687	0.0139302
848.765	0.0139279
848.843	0.0138990
848.921	0.0138886
848.999	0.0139166
849.078	0.0137703
849.156	0.0139269
849.234	0.0139211
849.312	0.0139752
849.390	0.0140560
849.468	0.0137792
849.546	0.0139014
849.624	0.0141057
849.703	0.0141582
849.781	0.0140389
849.859	0.0138484
849.937	0.0138636
850.015	0.0138593
850.093	0.0138660
850.171	0.0138911
850.249	0.0137441
850.328	0.0137799
850.406	0.0138388
850.484	0.0137575
850.562	0.0137258
850.640	0.0139223
850.718	0.0139422
850.796	0.0138647
850.874	0.0137942
850.953	0.0140299
851.031	0.0139581
851.109	0.0137862
851.187	0.0138323
851.265	0.0138820
851.343	0.0140668
851.421	0.0139380
851.499	0.0138290
851.578	0.0138599
851.656	0.0139346
851.734	0.0138878
851.812	0.0138911
851.890	0.0139520
851.968	0.0139027
852.046	0.0139523
852.124	0.0138802
852.203	0.0139005
852.281	0.0137783
852.359	0.0139378
852.437	0.0137972
852.515	0.0138688
852.593	0.0139819
852.671	0.0138109
852.749	0.0136929
852.828	0.0137624
852.906	0.0138988
852.984	0.0138004
853.062	0.0138816
853.140	0.0138198
853.218	0.0140427
853.296	0.0139447
853.374	0.0139902
853.453	0.0140179
853.531	0.0138601
853.609	0.0138086
853.687	0.0137800
853.765	0.0139352
853.843	0.0140109
853.921	0.0139372
853.999	0.0138779
854.078	0.0139967
854.156	0.0138790
854.234	0.0139083
854.312	0.0138744
854.390	0.0137811
854.468	0.0139222
854.546	0.0140254
854.624	0.0138716
854.703	0.0138181
854.781	0.0137947
854.859	0.0138595
854.937	0.0139333
855.015	0.0137972
855.093	0.0138010
855.171	0.0139862
855.249	0.0138501
855.328	0.0138718
855.406	0.0139207
855.484	0.0138795
855.562	0.0138670
855.640	0.0139913
855.718	0.0139249
855.796	0.0138531
855.874	0.0138981
855.953	0.0139622
856.031	0.0137708
856.109	0.0137660
856.187	0.0139162
856.265	0.0138343
856.343	0.0138613
856.421	0.0137684
856.499	0.0138870
856.578	0.0139497
856.656	0.0138914
856.734	0.0139076
856.812	0.0138557
856.890	0.0140005
856.968	0.0140220
857.046	0.0136888
857.124	0.0139099
857.203	0.0139026
857.281	0.0138586
857.359	0.0139774
857.437	0.0139532
857.515	0.0139223
857.593	0.0138947
857.671	0.0140572
857.749	0.0139346
857.828	0.0139510
857.906	0.0139873
857.984	0.0140033
858.062	0.0138982
858.140	0.0139979
858.218	0.0140247
858.296	0.0138936
858.374	0.0138445
858.453	0.0140195
858.531	0.0140031
858.609	0.0140055
858.687	0.0138027
858.765	0.0140079
858.843	0.0140298
858.921	0.0140334
858.999	0.0139672
859.078	0.0139103
859.156	0.0139764
859.234	0.0137476
859.312	0.0138785
859.390	0.0137852
859.468	0.0138931
859.546	0.0139394
859.624	0.0138700
859.703	0.0140075
859.781	0.0139224
859.859	0.0140411
859.937	0.0139447
860.015	0.0139053
860.093	0.0139906
860.171	0.0141025
860.249	0.0138991
860.328	0.0140604
860.406	0.0139358
860.484	0.0141236
860.562	0.0142376
860.640	0.0139539
860.718	0.0141097
860.796	0.0140983
860.874	0.0138847
860.953	0.0139356
861.031	0.0139945
861.109	0.0140037
861.187	0.0140724
861.265	0.0139233
861.343	0.0138540
861.421	0.0139840
861.499	0.0139656
861.578	0.0139505
861.656	0.0139094
861.734	0.0140568
861.812	0.0141275
861.890	0.0140089
861.968	0.0142242
862.046	0.0140969
862.124	0.0139647
862.203	0.0143082
862.281	0.0140197
862.359	0.0138759
862.437	0.0140627
862.515	0.0140259
862.593	0.0139947
862.671	0.0140960
862.749	0.0141117
862.828	0.0138450
862.906	0.0138251
862.984	0.0138909
863.062	0.0139995
863.140	0.0140856
863.218	0.0140397
863.296	0.0138250
863.374	0.0138481
863.453	0.0140042
863.531	0.0139857
863.609	0.0139640
863.687	0.0139257
863.765	0.0140363
863.843	0.0140732
863.921	0.0140108
863.999	0.0138683
864.078	0.0140365
864.156	0.0140900
864.234	0.0140226
864.312	0.0140951
864.390	0.0140685
864.468	0.0139956
864.546	0.0139034
864.624	0.0138164
864.703	0.0139856
864.781	0.0139309
864.859	0.0139701
864.937	0.0138309
865.015	0.0138108
865.093	0.0140613
865.171	0.0139839
865.249	0.0138645
865.328	0.0138587
865.406	0.0137772
865.484	0.0139248
865.562	0.0138182
865.640	0.0136676
865.718	0.0140447
865.796	0.0140066
865.874	0.0139910
865.953	0.0139337
866.031	0.0139763
866.109	0.0139745
866.187	0.0140528
866.265	0.0139460
866.343	0.0139804
866.421	0.0139149
866.499	0.0139649
866.578	0.0139976
866.656	0.0139704
866.734	0.0138628
866.812	0.0138988
866.890	0.0139230
866.968	0.0138190
867.046	0.0138374
867.124	0.0140198
867.203	0.0139789
867.281	0.0139989
867.359	0.0139676
867.437	0.0140136
867.515	0.0138702
867.593	0.0140494
867.671	0.0139181
867.749	0.0140907
867.828	0.0141485
867.906	0.0138889
867.984	0.0140781
868.062	0.0140427
868.140	0.0139975
868.218	0.0141914
868.296	0.0140281
868.374	0.0139125
868.453	0.0138727
868.531	0.0137696
868.609	0.0137706
868.687	0.0138424
868.765	0.0140022
868.843	0.0139583
868.921	0.0139629
868.999	0.0139620
869.078	0.0138103
869.156	0.0139896
869.234	0.0140132
869.312	0.0139359
869.390	0.0139712
869.468	0.0140162
869.546	0.0138998
869.624	0.0140256
869.703	0.0139846
869.781	0.0138604
869.859	0.0139867
869.937	0.0139620
870.015	0.0140498
870.093	0.0139240
870.171	0.0138959
870.249	0.0138957
870.328	0.0138876
870.406	0.0138545
870.484	0.0139041
870.562	0.0137986
870.640	0.0139007
870.718	0.0139523
870.796	0.0138385
870.874	0.0137536
870.953	0.0139304
871.031	0.0137960
871.109	0.0139605
871.187	0.0138329
871.265	0.0137513
871.343	0.0139361
871.421	0.0139028
871.499	0.0138889
871.578	0.0138958
871.656	0.0140185
871.734	0.0138556
871.812	0.0139452
871.890	0.0137980
871.968	0.0139650
872.046	0.0139716
872.124	0.0138180
872.203	0.0138754
872.281	0.0140506
872.359	0.0139034
872.437	0.0138403
872.515	0.0139142
872.593	0.0140174
872.671	0.0139626
872.749	0.0140430
872.828	0.0139985
872.906	0.0139503
872.984	0.0140578
873.062	0.0140475
873.140	0.0139165
873.218	0.0140558
873.296	0.0141340
873.374	0.0139378
873.453	0.0140099
873.531	0.0140097
873.609	0.0140678
873.687	0.0139188
873.765	0.0139635
873.843	0.0138788
873.921	0.0140083
873.999	0.0139992
874.078	0.0140075
874.156	0.0139457
874.234	0.0139642
874.312	0.0140367
874.390	0.0138046
874.468	0.0137959
874.546	0.0139414
874.624	0.0139368
874.703	0.0138517
874.781	0.0139191
874.859	0.0140409
874.937	0.0139184
875.015	0.0140713
875.093	0.0140337
875.171	0.0140543
875.249	0.0140578
875.328	0.0139890
875.406	0.0141345
875.484	0.0140763
875.562	0.0140607
875.640	0.0140665
875.718	0.0140189
875.796	0.0140683
875.874	0.0138999
875.953	0.0140860
876.031	0.0140786
876.109	0.0140401
876.187	0.0140101
876.265	0.0137503
876.343	0.0139735
876.421	0.0139127
876.499	0.0137470
876.578	0.0139529
876.656	0.0137988
876.734	0.0139194
876.812	0.0138542
876.890	0.0138825
876.968	0.0139356
877.046	0.0139856
877.124	0.0140041
877.203	0.0139990
877.281	0.0139993
877.359	0.0139203
877.437	0.0138448
877.515	0.0140524
877.593	0.0139717
877.671	0.0141046
877.749	0.0139931
877.828	0.0140565
877.906	0.0138760
877.984	0.0139082
878.062	0.0138119
878.140	0.0138752
878.218	0.0137744
878.296	0.0137953
878.374	0.0138702
878.453	0.0138622
878.531	0.0137685
878.609	0.0139016
878.687	0.0140366
878.765	0.0138033
878.843	0.0138115
878.921	0.0138732
878.999	0.0137915
879.078	0.0139389
879.156	0.0138472
879.234	0.0139455
879.312	0.0138197
879.390	0.0139796
879.468	0.0139066
879.546	0.0138909
879.624	0.0139199
879.703	0.0139726
879.781	0.0138871
879.859	0.0138412
879.937	0.0139908
880.015	0.0139577
880.093	0.0138963
880.171	0.0138939
880.249	0.0140251
880.328	0.0138991
880.406	0.0138846
880.484	0.0138723
880.562	0.0138444
880.640	0.0138071
880.718	0.0139014
880.796	0.0138074
880.874	0.0138656
880.953	0.0138876
881.031	0.0138107
881.109	0.0138850
881.187	0.0139895
881.265	0.0139391
881.343	0.0137994
881.421	0.0138871
881.499	0.0139870
881.578	0.0138931
881.656	0.0137936
881.734	0.0138210
881.812	0.0137985
881.890	0.0138132
881.968	0.0138980
882.046	0.0139442
882.124	0.0139380
882.203	0.0140073
882.281	0.0139130
882.359	0.0138480
882.437	0.0138823
882.515	0.0138088
882.593	0.0138642
882.671	0.0139008
882.749	0.0139908
882.828	0.0138242
882.906	0.0140040
882.984	0.0139459
883.062	0.0138898
883.140	0.0138839
883.218	0.0139247
883.296	0.0140377
883.374	0.0138866
883.453	0.0140672
883.531	0.0140214
883.609	0.0139115
883.687	0.0140540
883.765	0.0140590
883.843	0.0139259
883.921	0.0140203
883.999	0.0139851
884.078	0.0140255
884.156	0.0139051
884.234	0.0140842
884.312	0.0140575
884.390	0.0140714
884.468	0.0139906
884.546	0.0139960
884.624	0.0139888
884.703	0.0139774
884.781	0.0140081
884.859	0.0139367
884.937	0.0140281
885.015	0.0138717
885.093	0.0138103
885.171	0.0138831
885.249	0.0138731
885.328	0.0138805
885.406	0.0137930
885.484	0.0138989
885.562	0.0139089
885.640	0.0138263
885.718	0.0138643
885.796	0.0139703
885.874	0.0137854
885.953	0.0139304
886.031	0.0137972
886.109	0.0138806
886.187	0.0139124
886.265	0.0137033
886.343	0.0139050
886.421	0.0139688
886.499	0.0138374
886.578	0.0138014
886.656	0.0140276
886.734	0.0139227
886.812	0.0137417
886.890	0.0140135
886.968	0.0140635
887.046	0.0137239
887.124	0.0140176
887.203	0.0140414
887.281	0.0138945
887.359	0.0138000
887.437	0.0139094
887.515	0.0139646
887.593	0.0139222
887.671	0.0139204
887.749	0.0139652
887.828	0.0138518
887.906	0.0139790
887.984	0.0138817
888.062	0.0139421
888.140	0.0139063
888.218	0.0138727
888.296	0.0139561
888.374	0.0139565
888.453	0.0139036
888.531	0.0140324
888.609	0.0139223
888.687	0.0139777
888.765	0.0140292
888.843	0.0139853
888.921	0.0138570
888.999	0.0139918
889.078	0.0137404
889.156	0.0139165
889.234	0.0140493
889.312	0.0139097
889.390	0.0138984
889.468	0.0138735
889.546	0.0139223
889.624	0.0139378
889.703	0.0138506
889.781	0.0138412
889.859	0.0138290
889.937	0.0139756
890.015	0.0139807
890.093	0.0140056
890.171	0.0139845
890.249	0.0139111
890.328	0.0139651
890.406	0.0138651
890.484	0.0139607
890.562	0.0140340
890.640	0.0140496
890.718	0.0139778
890.796	0.0138662
890.874	0.0139144
890.953	0.0139346
891.031	0.0138228
891.109	0.0139162
891.187	0.0138024
891.265	0.0140108
891.343	0.0137316
891.421	0.0139693
891.499	0.0140995
891.578	0.0139398
891.656	0.0138592
891.734	0.0138448
891.812	0.0139397
891.890	0.0139928
891.968	0.0140938
892.046	0.0140302
892.124	0.0140063
892.203	0.0140494
892.281	0.0141525
892.359	0.0140701
892.437	0.0140716
892.515	0.0141672
892.593	0.0140637
892.671	0.0138280
892.749	0.0138749
892.828	0.0140094
892.906	0.0139129
892.984	0.0140098
893.062	0.0140337
893.140	0.0139425
893.218	0.0138911
893.296	0.0139472
893.374	0.0139994
893.453	0.0140544
893.531	0.0140347
893.609	0.0140927
893.687	0.0139974
893.765	0.0140447
893.843	0.0140141
893.921	0.0141082
893.999	0.0140535
894.078	0.0139812
894.156	0.0142034
894.234	0.0140591
894.312	0.0141288
894.390	0.0141581
894.468	0.0138808
894.546	0.0140659
894.624	0.0141702
894.703	0.0139281
894.781	0.0139037
894.859	0.0140031
894.937	0.0139675
895.015	0.0139238
895.093	0.0140540
895.171	0.0139539
895.249	0.0139694
895.328	0.0138847
895.406	0.0138216
895.484	0.0140311
895.562	0.0139079
895.640	0.0140971
895.718	0.0139264
895.796	0.0138343
895.874	0.0140312
895.953	0.0140074
896.031	0.0140401
896.109	0.0139526
896.187	0.0138902
896.265	0.0140281
896.343	0.0140694
896.421	0.0138748
896.499	0.0139803
896.578	0.0140185
896.656	0.0140999
896.734	0.0140527
896.812	0.0139791
896.890	0.0140561
896.968	0.0139409
897.046	0.0139056
897.124	0.0139915
897.203	0.0140346
897.281	0.0139334
897.359	0.0139600
897.437	0.0139886
897.515	0.0139984
897.593	0.0140453
897.671	0.0139297
897.749	0.0140501
897.828	0.0139975
897.906	0.0139445
897.984	0.0139769
898.062	0.0141464
898.140	0.0140111
898.218	0.0140308
898.296	0.0141083
898.374	0.0140723
898.453	0.0141196
898.531	0.0141018
898.609	0.0140458
898.687	0.0139606
898.765	0.0141509
898.843	0.0140844
898.921	0.0140626
898.999	0.0141486
899.078	0.0140295
899.156	0.0140775
899.234	0.0140601
899.312	0.0139501
899.390	0.0139401
899.468	0.0138515
899.546	0.0139694
899.624	0.0140141
899.703	0.0139331
899.781	0.0139568
899.859	0.0139381
899.937	0.0139536
900.015	0.0137946
900.093	0.0139008
900.171	0.0139678
900.249	0.0138406
900.328	0.0140144
900.406	0.0137697
900.484	0.0139087
900.562	0.0140319
900.640	0.0138960
900.718	0.0139194
900.796	0.0140535
900.874	0.0139139
900.953	0.0140011
901.031	0.0139651
901.109	0.0139674
901.187	0.0140254
901.265	0.0140826
901.343	0.0139014
901.421	0.0139664
901.499	0.0140532
901.578	0.0138069
901.656	0.0139413
901.734	0.0140961
901.812	0.0139830
901.890	0.0138757
901.968	0.0138892
902.046	0.0139584
902.124	0.0141686
902.203	0.0141515
902.281	0.0139820
902.359	0.0138879
902.437	0.0139436
902.515	0.0139680
902.593	0.0140484
902.671	0.0141208
902.749	0.0139849
902.828	0.0138209
902.906	0.0138562
902.984	0.0138873
903.062	0.0140347
903.140	0.0139284
903.218	0.0138176
903.296	0.0138532
903.374	0.0138171
903.453	0.0138451
903.531	0.0139311
903.609	0.0138513
903.687	0.0139756
903.765	0.0139650
903.843	0.0137391
903.921	0.0137677
903.999	0.0138459
904.078	0.0139278
904.156	0.0138896
904.234	0.0139686
904.312	0.0140073
904.390	0.0139948
904.468	0.0139081
904.546	0.0140865
904.624	0.0139089
904.703	0.0140389
904.781	0.0140920
904.859	0.0139859
904.937	0.0140011
905.015	0.0139393
905.093	0.0139899
905.171	0.0140665
905.249	0.0140498
905.328	0.0141080
905.406	0.0139848
905.484	0.0139955
905.562	0.0140350
905.640	0.0139414
905.718	0.0139516
905.796	0.0140788
905.874	0.0138861
905.953	0.0140676
906.031	0.0139765
906.109	0.0139432
906.187	0.0140395
906.265	0.0139135
906.343	0.0139189
906.421	0.0140254
906.499	0.0140479
906.578	0.0140079
906.656	0.0139307
906.734	0.0140706
906.812	0.0139116
906.890	0.0139870
906.968	0.0138676
907.046	0.0139693
907.124	0.0140279
907.203	0.0138712
907.281	0.0139671
907.359	0.0138808
907.437	0.0138393
907.515	0.0138884
907.593	0.0139083
907.671	0.0139278
907.749	0.0139034
907.828	0.0138352
907.906	0.0139630
907.984	0.0139806
908.062	0.0138885
908.140	0.0139226
908.218	0.0137733
908.296	0.0137876
908.374	0.0138602
908.453	0.0139735
908.531	0.0138536
908.609	0.0139631
908.687	0.0139350
908.765	0.0137926
908.843	0.0137570
908.921	0.0139205
908.999	0.0139669
909.078	0.0138736
909.156	0.0138797
909.234	0.0139285
909.312	0.0139987
909.390	0.0139974
909.468	0.0139902
909.546	0.0140292
909.624	0.0140014
909.703	0.0139972
909.781	0.0140755
909.859	0.0140128
909.937	0.0139861
910.015	0.0139169
910.093	0.0140498
910.171	0.0139804
910.249	0.0139704
910.328	0.0140321
910.406	0.0139666
910.484	0.0139223
910.562	0.0139573
910.640	0.0139438
910.718	0.0138100
910.796	0.0137782
910.874	0.0138255
910.953	0.0138242
911.031	0.0137765
911.109	0.0138739
911.187	0.0138490
911.265	0.0138895
911.343	0.0139636
911.421	0.0137273
911.499	0.0138332
911.578	0.0139333
911.656	0.0138293
911.734	0.0138132
911.812	0.0138825
911.890	0.0139621
911.968	0.0138116
912.046	0.0137985
912.124	0.0137511
912.203	0.0137876
912.281	0.0139432
912.359	0.0138814
912.437	0.0137701
912.515	0.0138583
912.593	0.0137829
912.671	0.0139623
912.749	0.0139591
912.828	0.0137936
912.906	0.0139806
912.984	0.0138879
913.062	0.0139848
913.140	0.0137809
913.218	0.0139153
913.296	0.0138410
913.374	0.0140346
913.453	0.0140504
913.531	0.0138792
913.609	0.0139250
913.687	0.0139124
913.765	0.0139882
913.843	0.0139422
913.921	0.0139807
913.999	0.0139157
914.078	0.0139814
914.156	0.0137358
914.234	0.0138546
914.312	0.0140008
914.390	0.0139598
914.468	0.0139565
914.546	0.0139484
914.624	0.0139870
914.703	0.0140025
914.781	0.0139819
914.859	0.0138297
914.937	0.0139195
915.015	0.0141675
915.093	0.0139274
915.171	0.0139960
915.249	0.0139200
915.328	0.0139519
915.406	0.0140131
915.484	0.0140341
915.562	0.0139361
915.640	0.0139540
915.718	0.0139953
915.796	0.0138922
915.874	0.0139080
915.953	0.0139648
916.031	0.0137682
916.109	0.0139266
916.187	0.0139117
916.265	0.0140996
916.343	0.0138628
916.421	0.0138684
916.499	0.0139502
916.578	0.0138584
916.656	0.0139626
916.734	0.0138690
916.812	0.0140051
916.890	0.0140601
916.968	0.0139154
917.046	0.0138718
917.124	0.0139634
917.203	0.0140422
917.281	0.0139420
917.359	0.0139764
917.437	0.0140788
917.515	0.0141274
917.593	0.0140215
917.671	0.0139255
917.749	0.0140920
917.828	0.0139893
917.906	0.0138400
917.984	0.0140778
918.062	0.0140887
918.140	0.0138814
918.218	0.0138589
918.296	0.0139365
918.374	0.0138338
918.453	0.0139927
918.531	0.0139622
918.609	0.0139382
918.687	0.0138978
918.765	0.0139677
918.843	0.0139099
918.921	0.0138908
918.999	0.0140281
919.078	0.0140145
919.156	0.0138961
919.234	0.0139740
919.312	0.0140347
919.390	0.0140704
919.468	0.0138940
919.546	0.0139544
919.624	0.0141146
919.703	0.0139523
919.781	0.0140363
919.859	0.0140392
919.937	0.0139360
