05/06/2022	19:04:39	Ver.	4.1	UNKNOWN
Optical Delay	600.015094	Delta X		0.078125	Sweeps	1	Scan Rate	0/0
Coordinates	Axis 1	NaN	Axis 2	NaN	Axis 3	NaN	Axis 4	NaN	Axis 5	NaN	Axis 6	0.000000
TX Power	0.000000	RX Power	0.000000

600.015	0.0138435
600.093	0.0137289
600.171	0.0139223
600.249	0.0138138
600.328	0.0137045
600.406	0.0139009
600.484	0.0137051
600.562	0.0137906
600.640	0.0137942
600.718	0.0137233
600.796	0.0137753
600.874	0.0138099
600.953	0.0137162
601.031	0.0136839
601.109	0.0137347
601.187	0.0137859
601.265	0.0136361
601.343	0.0138543
601.421	0.0138708
601.499	0.0136986
601.578	0.0138283
601.656	0.0136407
601.734	0.0137010
601.812	0.0136945
601.890	0.0138758
601.968	0.0136851
602.046	0.0137332
602.124	0.0138286
602.203	0.0136883
602.281	0.0136520
602.359	0.0137987
602.437	0.0137726
602.515	0.0137109
602.593	0.0137488
602.671	0.0139394
602.749	0.0138177
602.828	0.0137670
602.906	0.0138143
602.984	0.0137209
603.062	0.0136600
603.140	0.0137184
603.218	0.0136384
603.296	0.0137270
603.374	0.0138607
603.453	0.0137773
603.531	0.0136030
603.609	0.0136416
603.687	0.0137685
603.765	0.0136910
603.843	0.0136185
603.921	0.0137312
603.999	0.0138383
604.078	0.0136913
604.156	0.0136541
604.234	0.0136372
604.312	0.0137389
604.390	0.0136900
604.468	0.0137167
604.546	0.0136249
604.624	0.0137095
604.703	0.0136522
604.781	0.0137379
604.859	0.0137115
604.937	0.0137218
605.015	0.0136311
605.093	0.0135520
605.171	0.0134707
605.249	0.0138324
605.328	0.0138755
605.406	0.0136364
605.484	0.0137273
605.562	0.0135814
605.640	0.0137478
605.718	0.0137587
605.796	0.0136454
605.874	0.0136256
605.953	0.0137563
606.031	0.0136891
606.109	0.0136691
606.187	0.0137711
606.265	0.0136957
606.343	0.0137669
606.421	0.0138260
606.499	0.0136484
606.578	0.0135861
606.656	0.0137376
606.734	0.0135851
606.812	0.0137412
606.890	0.0135893
606.968	0.0136990
607.046	0.0137563
607.124	0.0137132
607.203	0.0137914
607.281	0.0138232
607.359	0.0137640
607.437	0.0135706
607.515	0.0136623
607.593	0.0136337
607.671	0.0136979
607.749	0.0136599
607.828	0.0137013
607.906	0.0135867
607.984	0.0136322
608.062	0.0137504
608.140	0.0137769
608.218	0.0137009
608.296	0.0135103
608.374	0.0136234
608.453	0.0136838
608.531	0.0135928
608.609	0.0136498
608.687	0.0137200
608.765	0.0137595
608.843	0.0135847
608.921	0.0136591
608.999	0.0135997
609.078	0.0137399
609.156	0.0136824
609.234	0.0136643
609.312	0.0136813
609.390	0.0136578
609.468	0.0136467
609.546	0.0137499
609.624	0.0137827
609.703	0.0137263
609.781	0.0137231
609.859	0.0136067
609.937	0.0137874
610.015	0.0137119
610.093	0.0138953
610.171	0.0138562
610.249	0.0138146
610.328	0.0137529
610.406	0.0137830
610.484	0.0136579
610.562	0.0137678
610.640	0.0136822
610.718	0.0137634
610.796	0.0137892
610.874	0.0137020
610.953	0.0138094
611.031	0.0136658
611.109	0.0137967
611.187	0.0138087
611.265	0.0137318
611.343	0.0137975
611.421	0.0137089
611.499	0.0137890
611.578	0.0138248
611.656	0.0138473
611.734	0.0138197
611.812	0.0136575
611.890	0.0136856
611.968	0.0137315
612.046	0.0139101
612.124	0.0137814
612.203	0.0137206
612.281	0.0137686
612.359	0.0138360
612.437	0.0138097
612.515	0.0138418
612.593	0.0137373
612.671	0.0138184
612.749	0.0138490
612.828	0.0137343
612.906	0.0138481
612.984	0.0138600
613.062	0.0137563
613.140	0.0137933
613.218	0.0137809
613.296	0.0138084
613.374	0.0135787
613.453	0.0137866
613.531	0.0138282
613.609	0.0139027
613.687	0.0136846
613.765	0.0138140
613.843	0.0137646
613.921	0.0138487
613.999	0.0138740
614.078	0.0138251
614.156	0.0137933
614.234	0.0138355
614.312	0.0137959
614.390	0.0137913
614.468	0.0139226
614.546	0.0138010
614.624	0.0137859
614.703	0.0136813
614.781	0.0136936
614.859	0.0137489
614.937	0.0137328
615.015	0.0136932
615.093	0.0137252
615.171	0.0137984
615.249	0.0137257
615.328	0.0137302
615.406	0.0137843
615.484	0.0137617
615.562	0.0138690
615.640	0.0136474
615.718	0.0137215
615.796	0.0137471
615.874	0.0138888
615.953	0.0138437
616.031	0.0138353
616.109	0.0138661
616.187	0.0137846
616.265	0.0136771
616.343	0.0138553
616.421	0.0138740
616.499	0.0138331
616.578	0.0136949
616.656	0.0136384
616.734	0.0138314
616.812	0.0138437
616.890	0.0138736
616.968	0.0137253
617.046	0.0137410
617.124	0.0137333
617.203	0.0138714
617.281	0.0137903
617.359	0.0137146
617.437	0.0138634
617.515	0.0137160
617.593	0.0136937
617.671	0.0138507
617.749	0.0137527
617.828	0.0137604
617.906	0.0137959
617.984	0.0138374
618.062	0.0138192
618.140	0.0138725
618.218	0.0138676
618.296	0.0137601
618.374	0.0137933
618.453	0.0138406
618.531	0.0137827
618.609	0.0136343
618.687	0.0139365
618.765	0.0137934
618.843	0.0136707
618.921	0.0137838
618.999	0.0136529
619.078	0.0137664
619.156	0.0136868
619.234	0.0137198
619.312	0.0138406
619.390	0.0137141
619.468	0.0137482
619.546	0.0137354
619.624	0.0138568
619.703	0.0137135
619.781	0.0137759
619.859	0.0138294
619.937	0.0138297
620.015	0.0137233
620.093	0.0137955
620.171	0.0137912
620.249	0.0136725
620.328	0.0135930
620.406	0.0137488
620.484	0.0136547
620.562	0.0137251
620.640	0.0137573
620.718	0.0137638
620.796	0.0136817
620.874	0.0137560
620.953	0.0138184
621.031	0.0138398
621.109	0.0138647
621.187	0.0137062
621.265	0.0137853
621.343	0.0138041
621.421	0.0137087
621.499	0.0137701
621.578	0.0137825
621.656	0.0136835
621.734	0.0137680
621.812	0.0137807
621.890	0.0137756
621.968	0.0137878
622.046	0.0137566
622.124	0.0137002
622.203	0.0136917
622.281	0.0137647
622.359	0.0137512
622.437	0.0137124
622.515	0.0137480
622.593	0.0136862
622.671	0.0136633
622.749	0.0137397
622.828	0.0137171
622.906	0.0137996
622.984	0.0137881
623.062	0.0137099
623.140	0.0137337
623.218	0.0137206
623.296	0.0137875
623.374	0.0137476
623.453	0.0136564
623.531	0.0135208
623.609	0.0135970
623.687	0.0137474
623.765	0.0138522
623.843	0.0138451
623.921	0.0137735
623.999	0.0136468
624.078	0.0139000
624.156	0.0138110
624.234	0.0138187
624.312	0.0137734
624.390	0.0137287
624.468	0.0137436
624.546	0.0137152
624.624	0.0135561
624.703	0.0135584
624.781	0.0137888
624.859	0.0136896
624.937	0.0135693
625.015	0.0136309
625.093	0.0136253
625.171	0.0138276
625.249	0.0136624
625.328	0.0136411
625.406	0.0137439
625.484	0.0138013
625.562	0.0137714
625.640	0.0137325
625.718	0.0139608
625.796	0.0137253
625.874	0.0138182
625.953	0.0138181
626.031	0.0138901
626.109	0.0137547
626.187	0.0137447
626.265	0.0138288
626.343	0.0136566
626.421	0.0134316
626.499	0.0137147
626.578	0.0137111
626.656	0.0135909
626.734	0.0135891
626.812	0.0135992
626.890	0.0136921
626.968	0.0134937
627.046	0.0137715
627.124	0.0136118
627.203	0.0137842
627.281	0.0137138
627.359	0.0138344
627.437	0.0138528
627.515	0.0138176
627.593	0.0136622
627.671	0.0136536
627.749	0.0136959
627.828	0.0137692
627.906	0.0137311
627.984	0.0137697
628.062	0.0136393
628.140	0.0135252
628.218	0.0136552
628.296	0.0136570
628.374	0.0136385
628.453	0.0135646
628.531	0.0136520
628.609	0.0136303
628.687	0.0135973
628.765	0.0137302
628.843	0.0136891
628.921	0.0136085
628.999	0.0137736
629.078	0.0137767
629.156	0.0137700
629.234	0.0136092
629.312	0.0136950
629.390	0.0137226
629.468	0.0136279
629.546	0.0137444
629.624	0.0138232
629.703	0.0138699
629.781	0.0137947
629.859	0.0137755
629.937	0.0138322
630.015	0.0137668
630.093	0.0137561
630.171	0.0137286
630.249	0.0136366
630.328	0.0138175
630.406	0.0136681
630.484	0.0136525
630.562	0.0137979
630.640	0.0136726
630.718	0.0137904
630.796	0.0137273
630.874	0.0136171
630.953	0.0137725
631.031	0.0138651
631.109	0.0137643
631.187	0.0138209
631.265	0.0138098
631.343	0.0136878
631.421	0.0136566
631.499	0.0137109
631.578	0.0137758
631.656	0.0137301
631.734	0.0137357
631.812	0.0136703
631.890	0.0137565
631.968	0.0137219
632.046	0.0137443
632.124	0.0136300
632.203	0.0135890
632.281	0.0136798
632.359	0.0139551
632.437	0.0137714
632.515	0.0137452
632.593	0.0137476
632.671	0.0137214
632.749	0.0138148
632.828	0.0137336
632.906	0.0137239
632.984	0.0137692
633.062	0.0138285
633.140	0.0139127
633.218	0.0137086
633.296	0.0138186
633.374	0.0138245
633.453	0.0136881
633.531	0.0137003
633.609	0.0138749
633.687	0.0137187
633.765	0.0137029
633.843	0.0138096
633.921	0.0137428
633.999	0.0137262
634.078	0.0137510
634.156	0.0138178
634.234	0.0138668
634.312	0.0138116
634.390	0.0138223
634.468	0.0137660
634.546	0.0138151
634.624	0.0136567
634.703	0.0137166
634.781	0.0138151
634.859	0.0138116
634.937	0.0138580
635.015	0.0137106
635.093	0.0138419
635.171	0.0138715
635.249	0.0138998
635.328	0.0137275
635.406	0.0138246
635.484	0.0136895
635.562	0.0137799
635.640	0.0137299
635.718	0.0137502
635.796	0.0136737
635.874	0.0138387
635.953	0.0137461
636.031	0.0136279
636.109	0.0136726
636.187	0.0137910
636.265	0.0136601
636.343	0.0138628
636.421	0.0138314
636.499	0.0137853
636.578	0.0137273
636.656	0.0138162
636.734	0.0137466
636.812	0.0137089
636.890	0.0138035
636.968	0.0136345
637.046	0.0137677
637.124	0.0138583
637.203	0.0137569
637.281	0.0137788
637.359	0.0136358
637.437	0.0136089
637.515	0.0136936
637.593	0.0137458
637.671	0.0137621
637.749	0.0135894
637.828	0.0138033
637.906	0.0137971
637.984	0.0138191
638.062	0.0137441
638.140	0.0138185
638.218	0.0137127
638.296	0.0138670
638.374	0.0138171
638.453	0.0138033
638.531	0.0138308
638.609	0.0136896
638.687	0.0137223
638.765	0.0138067
638.843	0.0137201
638.921	0.0136019
638.999	0.0136958
639.078	0.0138478
639.156	0.0138103
639.234	0.0136359
639.312	0.0136756
639.390	0.0138165
639.468	0.0136523
639.546	0.0136835
639.624	0.0136956
639.703	0.0135765
639.781	0.0136108
639.859	0.0137218
639.937	0.0137520
640.015	0.0136546
640.093	0.0136401
640.171	0.0137699
640.249	0.0137083
640.328	0.0138244
640.406	0.0135709
640.484	0.0137135
640.562	0.0138504
640.640	0.0137943
640.718	0.0137522
640.796	0.0138290
640.874	0.0137150
640.953	0.0138614
641.031	0.0136966
641.109	0.0136978
641.187	0.0137189
641.265	0.0136434
641.343	0.0137787
641.421	0.0137281
641.499	0.0135252
641.578	0.0137779
641.656	0.0138388
641.734	0.0137254
641.812	0.0137865
641.890	0.0137116
641.968	0.0138651
642.046	0.0138283
642.124	0.0137523
642.203	0.0136791
642.281	0.0137234
642.359	0.0139011
642.437	0.0138172
642.515	0.0138682
642.593	0.0137502
642.671	0.0136005
642.749	0.0137592
642.828	0.0136949
642.906	0.0136323
642.984	0.0136469
643.062	0.0138042
643.140	0.0137449
643.218	0.0135767
643.296	0.0136301
643.374	0.0136490
643.453	0.0137483
643.531	0.0137869
643.609	0.0137868
643.687	0.0136544
643.765	0.0137132
643.843	0.0137756
643.921	0.0136517
643.999	0.0137309
644.078	0.0137365
644.156	0.0137392
644.234	0.0136152
644.312	0.0136340
644.390	0.0137360
644.468	0.0136298
644.546	0.0137570
644.624	0.0138686
644.703	0.0136962
644.781	0.0137763
644.859	0.0136166
644.937	0.0136873
645.015	0.0138535
645.093	0.0136790
645.171	0.0136448
645.249	0.0138674
645.328	0.0138164
645.406	0.0137299
645.484	0.0137985
645.562	0.0137129
645.640	0.0137675
645.718	0.0136419
645.796	0.0137158
645.874	0.0136187
645.953	0.0138132
646.031	0.0135381
646.109	0.0136716
646.187	0.0136894
646.265	0.0136742
646.343	0.0138045
646.421	0.0135999
646.499	0.0136149
646.578	0.0137078
646.656	0.0136415
646.734	0.0136662
646.812	0.0137187
646.890	0.0137200
646.968	0.0138134
647.046	0.0137043
647.124	0.0136700
647.203	0.0137632
647.281	0.0136903
647.359	0.0136987
647.437	0.0139002
647.515	0.0138788
647.593	0.0139684
647.671	0.0138463
647.749	0.0139804
647.828	0.0138394
647.906	0.0136580
647.984	0.0136752
648.062	0.0137342
648.140	0.0137853
648.218	0.0138057
648.296	0.0137353
648.374	0.0135880
648.453	0.0137456
648.531	0.0138011
648.609	0.0137438
648.687	0.0137204
648.765	0.0137109
648.843	0.0138303
648.921	0.0138013
648.999	0.0136795
649.078	0.0138769
649.156	0.0138115
649.234	0.0138429
649.312	0.0139686
649.390	0.0139079
649.468	0.0137689
649.546	0.0138184
649.624	0.0139661
649.703	0.0139822
649.781	0.0137118
649.859	0.0137424
649.937	0.0137865
650.015	0.0138278
650.093	0.0136868
650.171	0.0138180
650.249	0.0137290
650.328	0.0138441
650.406	0.0135180
650.484	0.0136325
650.562	0.0138264
650.640	0.0136132
650.718	0.0136892
650.796	0.0137442
650.874	0.0136983
650.953	0.0138171
651.031	0.0136333
651.109	0.0137241
651.187	0.0138121
651.265	0.0138294
651.343	0.0138831
651.421	0.0138014
651.499	0.0139926
651.578	0.0138571
651.656	0.0138923
651.734	0.0139021
651.812	0.0138544
651.890	0.0138045
651.968	0.0137312
652.046	0.0137865
652.124	0.0137299
652.203	0.0136575
652.281	0.0136594
652.359	0.0137295
652.437	0.0136181
652.515	0.0137342
652.593	0.0136348
652.671	0.0137398
652.749	0.0138598
652.828	0.0138264
652.906	0.0136392
652.984	0.0139384
653.062	0.0140209
653.140	0.0139906
653.218	0.0139654
653.296	0.0140087
653.374	0.0139295
653.453	0.0140475
653.531	0.0139735
653.609	0.0139751
653.687	0.0139318
653.765	0.0137039
653.843	0.0138585
653.921	0.0138176
653.999	0.0137189
654.078	0.0136296
654.156	0.0136169
654.234	0.0136520
654.312	0.0137313
654.390	0.0136240
654.468	0.0136709
654.546	0.0135558
654.624	0.0137141
654.703	0.0136525
654.781	0.0136239
654.859	0.0137698
654.937	0.0137984
655.015	0.0137699
655.093	0.0139534
655.171	0.0139724
655.249	0.0138731
655.328	0.0137870
655.406	0.0139100
655.484	0.0140713
655.562	0.0139279
655.640	0.0138010
655.718	0.0139394
655.796	0.0139326
655.874	0.0137939
655.953	0.0137561
656.031	0.0137341
656.109	0.0136667
656.187	0.0138062
656.265	0.0135521
656.343	0.0135894
656.421	0.0135512
656.499	0.0135123
656.578	0.0137247
656.656	0.0136693
656.734	0.0137076
656.812	0.0136443
656.890	0.0137714
656.968	0.0136206
657.046	0.0138528
657.124	0.0138502
657.203	0.0139305
657.281	0.0140179
657.359	0.0141793
657.437	0.0140702
657.515	0.0140138
657.593	0.0141090
657.671	0.0142429
657.749	0.0141097
657.828	0.0142325
657.906	0.0141688
657.984	0.0139925
658.062	0.0139294
658.140	0.0138927
658.218	0.0136964
658.296	0.0137540
658.374	0.0135559
658.453	0.0134431
658.531	0.0133575
658.609	0.0133263
658.687	0.0133674
658.765	0.0134292
658.843	0.0134307
658.921	0.0134120
658.999	0.0136830
659.078	0.0135828
659.156	0.0136900
659.234	0.0137442
659.312	0.0137677
659.390	0.0138956
659.468	0.0137553
659.546	0.0138463
659.624	0.0140242
659.703	0.0138699
659.781	0.0138947
659.859	0.0138794
659.937	0.0138712
660.015	0.0139899
660.093	0.0138820
660.171	0.0137313
660.249	0.0138888
660.328	0.0137644
660.406	0.0137086
660.484	0.0138393
660.562	0.0137946
660.640	0.0136563
660.718	0.0136506
660.796	0.0135407
660.874	0.0135842
660.953	0.0136581
661.031	0.0136250
661.109	0.0135548
661.187	0.0134916
661.265	0.0135768
661.343	0.0135265
661.421	0.0135933
661.499	0.0136060
661.578	0.0134642
661.656	0.0136081
661.734	0.0136293
661.812	0.0136775
661.890	0.0137513
661.968	0.0136131
662.046	0.0137066
662.124	0.0137906
662.203	0.0140150
662.281	0.0140095
662.359	0.0141403
662.437	0.0140363
662.515	0.0140155
662.593	0.0141008
662.671	0.0141267
662.749	0.0139066
662.828	0.0140087
662.906	0.0139497
662.984	0.0138150
663.062	0.0138261
663.140	0.0139267
663.218	0.0137868
663.296	0.0137312
663.374	0.0137096
663.453	0.0134793
663.531	0.0135834
663.609	0.0135956
663.687	0.0136882
663.765	0.0136772
663.843	0.0136933
663.921	0.0138057
663.999	0.0138327
664.078	0.0138650
664.156	0.0138551
664.234	0.0137684
664.312	0.0139708
664.390	0.0139947
664.468	0.0139427
664.546	0.0139556
664.624	0.0138593
664.703	0.0138553
664.781	0.0138136
664.859	0.0138304
664.937	0.0137779
665.015	0.0138500
665.093	0.0137415
665.171	0.0135864
665.249	0.0135023
665.328	0.0135278
665.406	0.0135162
665.484	0.0134971
665.562	0.0134538
665.640	0.0134518
665.718	0.0134607
665.796	0.0135026
665.874	0.0135992
665.953	0.0136574
666.031	0.0136781
666.109	0.0137169
666.187	0.0137058
666.265	0.0137587
666.343	0.0137130
666.421	0.0139028
666.499	0.0138216
666.578	0.0136495
666.656	0.0137376
666.734	0.0137026
666.812	0.0137421
666.890	0.0137044
666.968	0.0136603
667.046	0.0137753
667.124	0.0138064
667.203	0.0135538
667.281	0.0136635
667.359	0.0135845
667.437	0.0135574
667.515	0.0135639
667.593	0.0136128
667.671	0.0135529
667.749	0.0137463
667.828	0.0136757
667.906	0.0138097
667.984	0.0139613
668.062	0.0138896
668.140	0.0140674
668.218	0.0141495
668.296	0.0141786
668.374	0.0142479
668.453	0.0142242
668.531	0.0142342
668.609	0.0144301
668.687	0.0142763
668.765	0.0139757
668.843	0.0140231
668.921	0.0140432
668.999	0.0138763
669.078	0.0137165
669.156	0.0135039
669.234	0.0135552
669.312	0.0134628
669.390	0.0133714
669.468	0.0131719
669.546	0.0132810
669.624	0.0132687
669.703	0.0131860
669.781	0.0132830
669.859	0.0133731
669.937	0.0135336
670.015	0.0135104
670.093	0.0135473
670.171	0.0137173
670.249	0.0137959
670.328	0.0140001
670.406	0.0139977
670.484	0.0142201
670.562	0.0141822
670.640	0.0141932
670.718	0.0142330
670.796	0.0142464
670.874	0.0142223
670.953	0.0140827
671.031	0.0138633
671.109	0.0140369
671.187	0.0139832
671.265	0.0136986
671.343	0.0135580
671.421	0.0136256
671.499	0.0135100
671.578	0.0134339
671.656	0.0134911
671.734	0.0135015
671.812	0.0134940
671.890	0.0134848
671.968	0.0135216
672.046	0.0135532
672.124	0.0135129
672.203	0.0134828
672.281	0.0136572
672.359	0.0138013
672.437	0.0136926
672.515	0.0137313
672.593	0.0138683
672.671	0.0138560
672.749	0.0139677
672.828	0.0140939
672.906	0.0140969
672.984	0.0139153
673.062	0.0138660
673.140	0.0140247
673.218	0.0140860
673.296	0.0139144
673.374	0.0138024
673.453	0.0138024
673.531	0.0138749
673.609	0.0138164
673.687	0.0137544
673.765	0.0137253
673.843	0.0137897
673.921	0.0138319
673.999	0.0137412
674.078	0.0138247
674.156	0.0137816
674.234	0.0136908
674.312	0.0136174
674.390	0.0136587
674.468	0.0136983
674.546	0.0136834
674.624	0.0137592
674.703	0.0137965
674.781	0.0138081
674.859	0.0137738
674.937	0.0137800
675.015	0.0137643
675.093	0.0138028
675.171	0.0138117
675.249	0.0139311
675.328	0.0139030
675.406	0.0139040
675.484	0.0140363
675.562	0.0140100
675.640	0.0140159
675.718	0.0141709
675.796	0.0140321
675.874	0.0140385
675.953	0.0141560
676.031	0.0141005
676.109	0.0140556
676.187	0.0140009
676.265	0.0139491
676.343	0.0139037
676.421	0.0136247
676.499	0.0135947
676.578	0.0135136
676.656	0.0134718
676.734	0.0134496
676.812	0.0133889
676.890	0.0133810
676.968	0.0133292
677.046	0.0134654
677.124	0.0132675
677.203	0.0132255
677.281	0.0134724
677.359	0.0135236
677.437	0.0135378
677.515	0.0138027
677.593	0.0137382
677.671	0.0138317
677.749	0.0137542
677.828	0.0138762
677.906	0.0139670
677.984	0.0140656
678.062	0.0139575
678.140	0.0140303
678.218	0.0140618
678.296	0.0140223
678.374	0.0139481
678.453	0.0139368
678.531	0.0140897
678.609	0.0138792
678.687	0.0138723
678.765	0.0136790
678.843	0.0135543
678.921	0.0136072
678.999	0.0137058
679.078	0.0136545
679.156	0.0136826
679.234	0.0138050
679.312	0.0138099
679.390	0.0139771
679.468	0.0138862
679.546	0.0140431
679.624	0.0142050
679.703	0.0141164
679.781	0.0141578
679.859	0.0141744
679.937	0.0142865
680.015	0.0143343
680.093	0.0143403
680.171	0.0140361
680.249	0.0140228
680.328	0.0139411
680.406	0.0139387
680.484	0.0137499
680.562	0.0136826
680.640	0.0136743
680.718	0.0134089
680.796	0.0134692
680.874	0.0133654
680.953	0.0134136
681.031	0.0134566
681.109	0.0134198
681.187	0.0135174
681.265	0.0136365
681.343	0.0138029
681.421	0.0138406
681.499	0.0139415
681.578	0.0139046
681.656	0.0141209
681.734	0.0142359
681.812	0.0142891
681.890	0.0141818
681.968	0.0141209
682.046	0.0140967
682.124	0.0141000
682.203	0.0139117
682.281	0.0137786
682.359	0.0136137
682.437	0.0135329
682.515	0.0133604
682.593	0.0131215
682.671	0.0130224
682.749	0.0128482
682.828	0.0129726
682.906	0.0130414
682.984	0.0130172
683.062	0.0131485
683.140	0.0132301
683.218	0.0134164
683.296	0.0136596
683.374	0.0137588
683.453	0.0138705
683.531	0.0138870
683.609	0.0143775
683.687	0.0143833
683.765	0.0143476
683.843	0.0143531
683.921	0.0142421
683.999	0.0144380
684.078	0.0141432
684.156	0.0141393
684.234	0.0140280
684.312	0.0137021
684.390	0.0135795
684.468	0.0135255
684.546	0.0133325
684.624	0.0132202
684.703	0.0133108
684.781	0.0133027
684.859	0.0133142
684.937	0.0133802
685.015	0.0135461
685.093	0.0134327
685.171	0.0137345
685.249	0.0137145
685.328	0.0137923
685.406	0.0140898
685.484	0.0141138
685.562	0.0142031
685.640	0.0141259
685.718	0.0142101
685.796	0.0140842
685.874	0.0139137
685.953	0.0138024
686.031	0.0137952
686.109	0.0137064
686.187	0.0136578
686.265	0.0135494
686.343	0.0135780
686.421	0.0135566
686.499	0.0135003
686.578	0.0134730
686.656	0.0133330
686.734	0.0133371
686.812	0.0133605
686.890	0.0133430
686.968	0.0134850
687.046	0.0134858
687.124	0.0134485
687.203	0.0134861
687.281	0.0135305
687.359	0.0135425
687.437	0.0136489
687.515	0.0135895
687.593	0.0136389
687.671	0.0136933
687.749	0.0137514
687.828	0.0136623
687.906	0.0137917
687.984	0.0139204
688.062	0.0137896
688.140	0.0137504
688.218	0.0136723
688.296	0.0137905
688.374	0.0138699
688.453	0.0137395
688.531	0.0137486
688.609	0.0138660
688.687	0.0138290
688.765	0.0136979
688.843	0.0137100
688.921	0.0137305
688.999	0.0136549
689.078	0.0136589
689.156	0.0135840
689.234	0.0136053
689.312	0.0135500
689.390	0.0135497
689.468	0.0136382
689.546	0.0135185
689.624	0.0136014
689.703	0.0136071
689.781	0.0135249
689.859	0.0136188
689.937	0.0135983
690.015	0.0135750
690.093	0.0135570
690.171	0.0136844
690.249	0.0137419
690.328	0.0136501
690.406	0.0136887
690.484	0.0137844
690.562	0.0137801
690.640	0.0139003
690.718	0.0137632
690.796	0.0138786
690.874	0.0138600
690.953	0.0140626
691.031	0.0140678
691.109	0.0137421
691.187	0.0137595
691.265	0.0138098
691.343	0.0137421
691.421	0.0137638
691.499	0.0136918
691.578	0.0136153
691.656	0.0135479
691.734	0.0135473
691.812	0.0136124
691.890	0.0135836
691.968	0.0136707
692.046	0.0136738
692.124	0.0136614
692.203	0.0138510
692.281	0.0138203
692.359	0.0137505
692.437	0.0138683
692.515	0.0139069
692.593	0.0138741
692.671	0.0139394
692.749	0.0140598
692.828	0.0141473
692.906	0.0142191
692.984	0.0141525
693.062	0.0141633
693.140	0.0141101
693.218	0.0140967
693.296	0.0140697
693.374	0.0140242
693.453	0.0138710
693.531	0.0139469
693.609	0.0137222
693.687	0.0136220
693.765	0.0135750
693.843	0.0134409
693.921	0.0133770
693.999	0.0134118
694.078	0.0132082
694.156	0.0133779
694.234	0.0133163
694.312	0.0133114
694.390	0.0134293
694.468	0.0136662
694.546	0.0136657
694.624	0.0138751
694.703	0.0139118
694.781	0.0139626
694.859	0.0139059
694.937	0.0140425
695.015	0.0140536
695.093	0.0141526
695.171	0.0140451
695.249	0.0139733
695.328	0.0139648
695.406	0.0137420
695.484	0.0138168
695.562	0.0134932
695.640	0.0135703
695.718	0.0135111
695.796	0.0134230
695.874	0.0134261
695.953	0.0133614
696.031	0.0134241
696.109	0.0134487
696.187	0.0137417
696.265	0.0137901
696.343	0.0137269
696.421	0.0140096
696.499	0.0141831
696.578	0.0143505
696.656	0.0144314
696.734	0.0143536
696.812	0.0143940
696.890	0.0144273
696.968	0.0144931
697.046	0.0142871
697.124	0.0143225
697.203	0.0142127
697.281	0.0141577
697.359	0.0139102
697.437	0.0138441
697.515	0.0137314
697.593	0.0136818
697.671	0.0135967
697.749	0.0135096
697.828	0.0133448
697.906	0.0133936
697.984	0.0134045
698.062	0.0135120
698.140	0.0134920
698.218	0.0135219
698.296	0.0136712
698.374	0.0137606
698.453	0.0139124
698.531	0.0140659
698.609	0.0142767
698.687	0.0141640
698.765	0.0142181
698.843	0.0141779
698.921	0.0140690
698.999	0.0141246
699.078	0.0140458
699.156	0.0138977
699.234	0.0138028
699.312	0.0136002
699.390	0.0134743
699.468	0.0133016
699.546	0.0132804
699.624	0.0131206
699.703	0.0130640
699.781	0.0130025
699.859	0.0130460
699.937	0.0130267
700.015	0.0131309
700.093	0.0131736
700.171	0.0133294
700.249	0.0133691
700.328	0.0133183
700.406	0.0134081
700.484	0.0136478
700.562	0.0138697
700.640	0.0138574
700.718	0.0139694
700.796	0.0138541
700.874	0.0139678
700.953	0.0140144
701.031	0.0140254
701.109	0.0140501
701.187	0.0140487
701.265	0.0140641
701.343	0.0139223
701.421	0.0138871
701.499	0.0137302
701.578	0.0137247
701.656	0.0137166
701.734	0.0135616
701.812	0.0135686
701.890	0.0136784
701.968	0.0135713
702.046	0.0135355
702.124	0.0137312
702.203	0.0138179
702.281	0.0137532
702.359	0.0139895
702.437	0.0139278
702.515	0.0141833
702.593	0.0140503
702.671	0.0141193
702.749	0.0138893
702.828	0.0139775
702.906	0.0140076
702.984	0.0139948
703.062	0.0136613
703.140	0.0137620
703.218	0.0137424
703.296	0.0135837
703.374	0.0136950
703.453	0.0136756
703.531	0.0135246
703.609	0.0137231
703.687	0.0137595
703.765	0.0136230
703.843	0.0136413
703.921	0.0135751
703.999	0.0136484
704.078	0.0137824
704.156	0.0137430
704.234	0.0137776
704.312	0.0136369
704.390	0.0136582
704.468	0.0137412
704.546	0.0136665
704.624	0.0136823
704.703	0.0136202
704.781	0.0135780
704.859	0.0134431
704.937	0.0134202
705.015	0.0134039
705.093	0.0133591
705.171	0.0135155
705.249	0.0134272
705.328	0.0135102
705.406	0.0136326
705.484	0.0135007
705.562	0.0135655
705.640	0.0135444
705.718	0.0136256
705.796	0.0136989
705.874	0.0137587
705.953	0.0137975
706.031	0.0137962
706.109	0.0138145
706.187	0.0139282
706.265	0.0138741
706.343	0.0139021
706.421	0.0138669
706.499	0.0138503
706.578	0.0137922
706.656	0.0136276
706.734	0.0137897
706.812	0.0137244
706.890	0.0137918
706.968	0.0136896
707.046	0.0137398
707.124	0.0136347
707.203	0.0135794
707.281	0.0135034
707.359	0.0136907
707.437	0.0137260
707.515	0.0137319
707.593	0.0138696
707.671	0.0139649
707.749	0.0139439
707.828	0.0139799
707.906	0.0140862
707.984	0.0140243
708.062	0.0139007
708.140	0.0139700
708.218	0.0138439
708.296	0.0138734
708.374	0.0138863
708.453	0.0137644
708.531	0.0136720
708.609	0.0137576
708.687	0.0136536
708.765	0.0136859
708.843	0.0138161
708.921	0.0138249
708.999	0.0139018
709.078	0.0138386
709.156	0.0139234
709.234	0.0139769
709.312	0.0139884
709.390	0.0138417
709.468	0.0138042
709.546	0.0137689
709.624	0.0137693
709.703	0.0138382
709.781	0.0137903
709.859	0.0136195
709.937	0.0136758
710.015	0.0136627
710.093	0.0136106
710.171	0.0134933
710.249	0.0136223
710.328	0.0135761
710.406	0.0134041
710.484	0.0134563
710.562	0.0134824
710.640	0.0134897
710.718	0.0135614
710.796	0.0135847
710.874	0.0136061
710.953	0.0135713
711.031	0.0135865
711.109	0.0136420
711.187	0.0136925
711.265	0.0138116
711.343	0.0137994
711.421	0.0138342
711.499	0.0138278
711.578	0.0139941
711.656	0.0139298
711.734	0.0139827
711.812	0.0140875
711.890	0.0140511
711.968	0.0140422
712.046	0.0139616
712.124	0.0140209
712.203	0.0139099
712.281	0.0137945
712.359	0.0137971
712.437	0.0137796
712.515	0.0138489
712.593	0.0136795
712.671	0.0137273
712.749	0.0137064
712.828	0.0138238
712.906	0.0137892
712.984	0.0137997
713.062	0.0139681
713.140	0.0140162
713.218	0.0138995
713.296	0.0141071
713.374	0.0140658
713.453	0.0140734
713.531	0.0140637
713.609	0.0140115
713.687	0.0141691
713.765	0.0139889
713.843	0.0140151
713.921	0.0138318
713.999	0.0137820
714.078	0.0137115
714.156	0.0137787
714.234	0.0138044
714.312	0.0135858
714.390	0.0135097
714.468	0.0136756
714.546	0.0137771
714.624	0.0135743
714.703	0.0135643
714.781	0.0135723
714.859	0.0136164
714.937	0.0136156
715.015	0.0134079
715.093	0.0136715
715.171	0.0136343
715.249	0.0136586
715.328	0.0136416
715.406	0.0135362
715.484	0.0136951
715.562	0.0137230
715.640	0.0136825
715.718	0.0137046
715.796	0.0135703
715.874	0.0138146
715.953	0.0137827
716.031	0.0135742
716.109	0.0135469
716.187	0.0137376
716.265	0.0138118
716.343	0.0137042
716.421	0.0136227
716.499	0.0135625
716.578	0.0137888
716.656	0.0137658
716.734	0.0136671
716.812	0.0136506
716.890	0.0137276
716.968	0.0138070
717.046	0.0137238
717.124	0.0138634
717.203	0.0138889
717.281	0.0138424
717.359	0.0138756
717.437	0.0137563
717.515	0.0138488
717.593	0.0139883
717.671	0.0137923
717.749	0.0137553
717.828	0.0137210
717.906	0.0136390
717.984	0.0136661
718.062	0.0136414
718.140	0.0137106
718.218	0.0137405
718.296	0.0137413
718.374	0.0136904
718.453	0.0137173
718.531	0.0137284
718.609	0.0138004
718.687	0.0137648
718.765	0.0137472
718.843	0.0137981
718.921	0.0136949
718.999	0.0137376
719.078	0.0138152
719.156	0.0139123
719.234	0.0138925
719.312	0.0139276
719.390	0.0138646
719.468	0.0138366
719.546	0.0139279
719.624	0.0137957
719.703	0.0137329
719.781	0.0137601
719.859	0.0137452
719.937	0.0135955
720.015	0.0136493
720.093	0.0136349
720.171	0.0135937
720.249	0.0134829
720.328	0.0135651
720.406	0.0133371
720.484	0.0135024
720.562	0.0134636
720.640	0.0134264
720.718	0.0135789
720.796	0.0134885
720.874	0.0136150
720.953	0.0137469
721.031	0.0136654
721.109	0.0137186
721.187	0.0137143
721.265	0.0138223
721.343	0.0137297
721.421	0.0136348
721.499	0.0136749
721.578	0.0136074
721.656	0.0135726
721.734	0.0135444
721.812	0.0134772
721.890	0.0135430
721.968	0.0135645
722.046	0.0135896
722.124	0.0134952
722.203	0.0134703
722.281	0.0136215
722.359	0.0137101
722.437	0.0136433
722.515	0.0135894
722.593	0.0135268
722.671	0.0136190
722.749	0.0137158
722.828	0.0137307
722.906	0.0136000
722.984	0.0137052
723.062	0.0137086
723.140	0.0138631
723.218	0.0137575
723.296	0.0138860
723.374	0.0139567
723.453	0.0139667
723.531	0.0138504
723.609	0.0137666
723.687	0.0139375
723.765	0.0140391
723.843	0.0139328
723.921	0.0138537
723.999	0.0139059
724.078	0.0138106
724.156	0.0138257
724.234	0.0136914
724.312	0.0137408
724.390	0.0137244
724.468	0.0136232
724.546	0.0136501
724.624	0.0135921
724.703	0.0135944
724.781	0.0137353
724.859	0.0135294
724.937	0.0137006
725.015	0.0136669
725.093	0.0137577
725.171	0.0138379
725.249	0.0139973
725.328	0.0139521
725.406	0.0137853
725.484	0.0138983
725.562	0.0139278
725.640	0.0137828
725.718	0.0138721
725.796	0.0137994
725.874	0.0138055
725.953	0.0138049
726.031	0.0137850
726.109	0.0137189
726.187	0.0136326
726.265	0.0136726
726.343	0.0137193
726.421	0.0137502
726.499	0.0137438
726.578	0.0137212
726.656	0.0138661
726.734	0.0137676
726.812	0.0137853
726.890	0.0137357
726.968	0.0138367
727.046	0.0137925
727.124	0.0138538
727.203	0.0137641
727.281	0.0136146
727.359	0.0137109
727.437	0.0138167
727.515	0.0137682
727.593	0.0136662
727.671	0.0137893
727.749	0.0136443
727.828	0.0136214
727.906	0.0136607
727.984	0.0136943
728.062	0.0136408
728.140	0.0136751
728.218	0.0137480
728.296	0.0135826
728.374	0.0137650
728.453	0.0136635
728.531	0.0136353
728.609	0.0136720
728.687	0.0139375
728.765	0.0137013
728.843	0.0138146
728.921	0.0139243
728.999	0.0139101
729.078	0.0138813
729.156	0.0138913
729.234	0.0138443
729.312	0.0137953
729.390	0.0136787
729.468	0.0137718
729.546	0.0135883
729.624	0.0138497
729.703	0.0135046
729.781	0.0137093
729.859	0.0136369
729.937	0.0136659
730.015	0.0137135
730.093	0.0136645
730.171	0.0137706
730.249	0.0136137
730.328	0.0138057
730.406	0.0137856
730.484	0.0137377
730.562	0.0137992
730.640	0.0138116
730.718	0.0138634
730.796	0.0137012
730.874	0.0138084
730.953	0.0137944
731.031	0.0137627
731.109	0.0136855
731.187	0.0137479
731.265	0.0137418
731.343	0.0135915
731.421	0.0136117
731.499	0.0137899
731.578	0.0138110
731.656	0.0136541
731.734	0.0136962
731.812	0.0136029
731.890	0.0137025
731.968	0.0137054
732.046	0.0138775
732.124	0.0137505
732.203	0.0138914
732.281	0.0138123
732.359	0.0138367
732.437	0.0137516
732.515	0.0138168
732.593	0.0138213
732.671	0.0137495
732.749	0.0139513
732.828	0.0138530
732.906	0.0138628
732.984	0.0138144
733.062	0.0137703
733.140	0.0137283
733.218	0.0138265
733.296	0.0137966
733.374	0.0137168
733.453	0.0137029
733.531	0.0137126
733.609	0.0134852
733.687	0.0134521
733.765	0.0135281
733.843	0.0135270
733.921	0.0134945
733.999	0.0136749
734.078	0.0136417
734.156	0.0137247
734.234	0.0138015
734.312	0.0137026
734.390	0.0137533
734.468	0.0137837
734.546	0.0138046
734.624	0.0138911
734.703	0.0138949
734.781	0.0138740
734.859	0.0138680
734.937	0.0139571
735.015	0.0137598
735.093	0.0138077
735.171	0.0135990
735.249	0.0136264
735.328	0.0135986
735.406	0.0136217
735.484	0.0136436
735.562	0.0135390
735.640	0.0135899
735.718	0.0134258
735.796	0.0136235
735.874	0.0136009
735.953	0.0137840
736.031	0.0137260
736.109	0.0138065
736.187	0.0137921
736.265	0.0139431
736.343	0.0138007
736.421	0.0138197
736.499	0.0139262
736.578	0.0139049
736.656	0.0138591
736.734	0.0136981
736.812	0.0136592
736.890	0.0138953
736.968	0.0138331
737.046	0.0138071
737.124	0.0136477
737.203	0.0137360
737.281	0.0136707
737.359	0.0137251
737.437	0.0136071
737.515	0.0138039
737.593	0.0136246
737.671	0.0136094
737.749	0.0135448
737.828	0.0135171
737.906	0.0135840
737.984	0.0136909
738.062	0.0137109
738.140	0.0137049
738.218	0.0136903
738.296	0.0136813
738.374	0.0136949
738.453	0.0137814
738.531	0.0137405
738.609	0.0137465
738.687	0.0135410
738.765	0.0136337
738.843	0.0137211
738.921	0.0136401
738.999	0.0137033
739.078	0.0137079
739.156	0.0136605
739.234	0.0137327
739.312	0.0137937
739.390	0.0136760
739.468	0.0136325
739.546	0.0136299
739.624	0.0136865
739.703	0.0137945
739.781	0.0137085
739.859	0.0138178
739.937	0.0136974
740.015	0.0137605
740.093	0.0136774
740.171	0.0139128
740.249	0.0138431
740.328	0.0136781
740.406	0.0138807
740.484	0.0137930
740.562	0.0138419
740.640	0.0136517
740.718	0.0138091
740.796	0.0139693
740.874	0.0137699
740.953	0.0137653
741.031	0.0138438
741.109	0.0138297
741.187	0.0138487
741.265	0.0137725
741.343	0.0138846
741.421	0.0137827
741.499	0.0139160
741.578	0.0138364
741.656	0.0137753
741.734	0.0137791
741.812	0.0138739
741.890	0.0138395
741.968	0.0138152
742.046	0.0138640
742.124	0.0138554
742.203	0.0137009
742.281	0.0137078
742.359	0.0137078
742.437	0.0136504
742.515	0.0137461
742.593	0.0136936
742.671	0.0136466
742.749	0.0136089
742.828	0.0136289
742.906	0.0136230
742.984	0.0137310
743.062	0.0135811
743.140	0.0137196
743.218	0.0135359
743.296	0.0136452
743.374	0.0138013
743.453	0.0137478
743.531	0.0137061
743.609	0.0138305
743.687	0.0137557
743.765	0.0138778
743.843	0.0139371
743.921	0.0138854
743.999	0.0136981
744.078	0.0137827
744.156	0.0137821
744.234	0.0137556
744.312	0.0136182
744.390	0.0135464
744.468	0.0135796
744.546	0.0137077
744.624	0.0137383
744.703	0.0136282
744.781	0.0136946
744.859	0.0136163
744.937	0.0136832
745.015	0.0136339
745.093	0.0136423
745.171	0.0137009
745.249	0.0137452
745.328	0.0137529
745.406	0.0137465
745.484	0.0138551
745.562	0.0138811
745.640	0.0137537
745.718	0.0138117
745.796	0.0137634
745.874	0.0138294
745.953	0.0137095
746.031	0.0138113
746.109	0.0136213
746.187	0.0137823
746.265	0.0136315
746.343	0.0136902
746.421	0.0137404
746.499	0.0136816
746.578	0.0136935
746.656	0.0136144
746.734	0.0137083
746.812	0.0136732
746.890	0.0137354
746.968	0.0136636
747.046	0.0137231
747.124	0.0137672
747.203	0.0139269
747.281	0.0140272
747.359	0.0139256
747.437	0.0138807
747.515	0.0139237
747.593	0.0139769
747.671	0.0140831
747.749	0.0140919
747.828	0.0140411
747.906	0.0138210
747.984	0.0137633
748.062	0.0137926
748.140	0.0138210
748.218	0.0137132
748.296	0.0137543
748.374	0.0137743
748.453	0.0135043
748.531	0.0136900
748.609	0.0137073
748.687	0.0137690
748.765	0.0137379
748.843	0.0137757
748.921	0.0137860
748.999	0.0139340
749.078	0.0137222
749.156	0.0138732
749.234	0.0138855
749.312	0.0137567
749.390	0.0139379
749.468	0.0138220
749.546	0.0136201
749.624	0.0139832
749.703	0.0137567
749.781	0.0137865
749.859	0.0138068
749.937	0.0139338
750.015	0.0137354
750.093	0.0136739
750.171	0.0138203
750.249	0.0136979
750.328	0.0137159
750.406	0.0136932
750.484	0.0135989
750.562	0.0136175
750.640	0.0136221
750.718	0.0136872
750.796	0.0138149
750.874	0.0136312
750.953	0.0137141
751.031	0.0136892
751.109	0.0136394
751.187	0.0136048
751.265	0.0136685
751.343	0.0136971
751.421	0.0135825
751.499	0.0137688
751.578	0.0138333
751.656	0.0137574
751.734	0.0139258
751.812	0.0137516
751.890	0.0138802
751.968	0.0138943
752.046	0.0136688
752.124	0.0137475
752.203	0.0137395
752.281	0.0136369
752.359	0.0136711
752.437	0.0135494
752.515	0.0134580
752.593	0.0135613
752.671	0.0134335
752.749	0.0135475
752.828	0.0135009
752.906	0.0135237
752.984	0.0137607
753.062	0.0137233
753.140	0.0136911
753.218	0.0137953
753.296	0.0138276
753.374	0.0136649
753.453	0.0136021
753.531	0.0139023
753.609	0.0139068
753.687	0.0138229
753.765	0.0138130
753.843	0.0138363
753.921	0.0137504
753.999	0.0137779
754.078	0.0136816
754.156	0.0137367
754.234	0.0138419
754.312	0.0135960
754.390	0.0137533
754.468	0.0137133
754.546	0.0135412
754.624	0.0136936
754.703	0.0136890
754.781	0.0136469
754.859	0.0137328
754.937	0.0138497
755.015	0.0138888
755.093	0.0138316
755.171	0.0138671
755.249	0.0139679
755.328	0.0139179
755.406	0.0138308
755.484	0.0138086
755.562	0.0136832
755.640	0.0136617
755.718	0.0135743
755.796	0.0136163
755.874	0.0135760
755.953	0.0136098
756.031	0.0137560
756.109	0.0136182
756.187	0.0134553
756.265	0.0135625
756.343	0.0138193
756.421	0.0136626
756.499	0.0137560
756.578	0.0137550
756.656	0.0137409
756.734	0.0137423
756.812	0.0137111
756.890	0.0138020
756.968	0.0136988
757.046	0.0137724
757.124	0.0136351
757.203	0.0135824
757.281	0.0134864
757.359	0.0136807
757.437	0.0136244
757.515	0.0137670
757.593	0.0136565
757.671	0.0135486
757.749	0.0137164
757.828	0.0137913
757.906	0.0137370
757.984	0.0136716
758.062	0.0137859
758.140	0.0136453
758.218	0.0136365
758.296	0.0136307
758.374	0.0136077
758.453	0.0136097
758.531	0.0136754
758.609	0.0135336
758.687	0.0136507
758.765	0.0135040
758.843	0.0135968
758.921	0.0136479
758.999	0.0137594
759.078	0.0138174
759.156	0.0137243
759.234	0.0136549
759.312	0.0139253
759.390	0.0137788
759.468	0.0138245
759.546	0.0137937
759.624	0.0135447
759.703	0.0137366
759.781	0.0137135
759.859	0.0137164
759.937	0.0137586
760.015	0.0136466
760.093	0.0136007
760.171	0.0136124
760.249	0.0136132
760.328	0.0137662
760.406	0.0136806
760.484	0.0136538
760.562	0.0138338
760.640	0.0137780
760.718	0.0138150
760.796	0.0136951
760.874	0.0136205
760.953	0.0136439
761.031	0.0137063
761.109	0.0137120
761.187	0.0136612
761.265	0.0135760
761.343	0.0136483
761.421	0.0135878
761.499	0.0135971
761.578	0.0135526
761.656	0.0136826
761.734	0.0135830
761.812	0.0134325
761.890	0.0135126
761.968	0.0135886
762.046	0.0136256
762.124	0.0136172
762.203	0.0136356
762.281	0.0137164
762.359	0.0137773
762.437	0.0135752
762.515	0.0136588
762.593	0.0138995
762.671	0.0137769
762.749	0.0138877
762.828	0.0138752
762.906	0.0139148
762.984	0.0140083
763.062	0.0138392
763.140	0.0137809
763.218	0.0137788
763.296	0.0135468
763.374	0.0136325
763.453	0.0136432
763.531	0.0134497
763.609	0.0135443
763.687	0.0133947
763.765	0.0135236
763.843	0.0133949
763.921	0.0134270
763.999	0.0134779
764.078	0.0135835
764.156	0.0136337
764.234	0.0137180
764.312	0.0137595
764.390	0.0137503
764.468	0.0137177
764.546	0.0138028
764.624	0.0138906
764.703	0.0138133
764.781	0.0138818
764.859	0.0138416
764.937	0.0137762
765.015	0.0137190
765.093	0.0137110
765.171	0.0138152
765.249	0.0137528
765.328	0.0135480
765.406	0.0137395
765.484	0.0136768
765.562	0.0136322
765.640	0.0136865
765.718	0.0135970
765.796	0.0137025
765.874	0.0139262
765.953	0.0137991
766.031	0.0138155
766.109	0.0139117
766.187	0.0137904
766.265	0.0139715
766.343	0.0138180
766.421	0.0136669
766.499	0.0138203
766.578	0.0137142
766.656	0.0140050
766.734	0.0137371
766.812	0.0137379
766.890	0.0137980
766.968	0.0137390
767.046	0.0136282
767.124	0.0137716
767.203	0.0136730
767.281	0.0137518
767.359	0.0136092
767.437	0.0137180
767.515	0.0136192
767.593	0.0136919
767.671	0.0136449
767.749	0.0137585
767.828	0.0137888
767.906	0.0135835
767.984	0.0137016
768.062	0.0136705
768.140	0.0137615
768.218	0.0138795
768.296	0.0137395
768.374	0.0137120
768.453	0.0138669
768.531	0.0137463
768.609	0.0137639
768.687	0.0137448
768.765	0.0139179
768.843	0.0139926
768.921	0.0138029
768.999	0.0138560
769.078	0.0138906
769.156	0.0138196
769.234	0.0136716
769.312	0.0138984
769.390	0.0139803
769.468	0.0137318
769.546	0.0137445
769.624	0.0137754
769.703	0.0139680
769.781	0.0138721
769.859	0.0138173
769.937	0.0138734
770.015	0.0138818
770.093	0.0140138
770.171	0.0139288
770.249	0.0138297
770.328	0.0139610
770.406	0.0139803
770.484	0.0138901
770.562	0.0139188
770.640	0.0138983
770.718	0.0138332
770.796	0.0138460
770.874	0.0137734
770.953	0.0138834
771.031	0.0137894
771.109	0.0138547
771.187	0.0138207
771.265	0.0137856
771.343	0.0136266
771.421	0.0135474
771.499	0.0136755
771.578	0.0138026
771.656	0.0138196
771.734	0.0137245
771.812	0.0138017
771.890	0.0138392
771.968	0.0138753
772.046	0.0138981
772.124	0.0137935
772.203	0.0138740
772.281	0.0140081
772.359	0.0138454
772.437	0.0138292
772.515	0.0137619
772.593	0.0137979
772.671	0.0138171
772.749	0.0138150
772.828	0.0138560
772.906	0.0136665
772.984	0.0136468
773.062	0.0137238
773.140	0.0137943
773.218	0.0138126
773.296	0.0137463
773.374	0.0138038
773.453	0.0138076
773.531	0.0137229
773.609	0.0138491
773.687	0.0138022
773.765	0.0139282
773.843	0.0138321
773.921	0.0137400
773.999	0.0138007
774.078	0.0138109
774.156	0.0137752
774.234	0.0136958
774.312	0.0137529
774.390	0.0137179
774.468	0.0135900
774.546	0.0136224
774.624	0.0136886
774.703	0.0137364
774.781	0.0137576
774.859	0.0137428
774.937	0.0135837
775.015	0.0136315
775.093	0.0136396
775.171	0.0138550
775.249	0.0137773
775.328	0.0137596
775.406	0.0139559
775.484	0.0139146
775.562	0.0138927
775.640	0.0138964
775.718	0.0138908
775.796	0.0139544
775.874	0.0138992
775.953	0.0140338
776.031	0.0139329
776.109	0.0136792
776.187	0.0137627
776.265	0.0138257
776.343	0.0137727
776.421	0.0138860
776.499	0.0136905
776.578	0.0137692
776.656	0.0137405
776.734	0.0136705
776.812	0.0137121
776.890	0.0137341
776.968	0.0137368
777.046	0.0137324
777.124	0.0138282
777.203	0.0136705
777.281	0.0137419
777.359	0.0135857
777.437	0.0136629
777.515	0.0137811
777.593	0.0137045
777.671	0.0136251
777.749	0.0136861
777.828	0.0137724
777.906	0.0136447
777.984	0.0136856
778.062	0.0134873
778.140	0.0138078
778.218	0.0136488
778.296	0.0135181
778.374	0.0137370
778.453	0.0134758
778.531	0.0134770
778.609	0.0135370
778.687	0.0136152
778.765	0.0135180
778.843	0.0135934
778.921	0.0137282
778.999	0.0135347
779.078	0.0135689
779.156	0.0135746
779.234	0.0136897
779.312	0.0136878
779.390	0.0135126
779.468	0.0135609
779.546	0.0137244
779.624	0.0137077
779.703	0.0135414
779.781	0.0136918
779.859	0.0137437
779.937	0.0137248
780.015	0.0135580
780.093	0.0136783
780.171	0.0136142
780.249	0.0136514
780.328	0.0137716
780.406	0.0136973
780.484	0.0136758
780.562	0.0136832
780.640	0.0137022
780.718	0.0137148
780.796	0.0136039
780.874	0.0136565
780.953	0.0135560
781.031	0.0136046
781.109	0.0136584
781.187	0.0136629
781.265	0.0138123
781.343	0.0136258
781.421	0.0139015
781.499	0.0137741
781.578	0.0138074
781.656	0.0137113
781.734	0.0137934
781.812	0.0137008
781.890	0.0136404
781.968	0.0136903
782.046	0.0137200
782.124	0.0137045
782.203	0.0137130
782.281	0.0135966
782.359	0.0136755
782.437	0.0135518
782.515	0.0136050
782.593	0.0136317
782.671	0.0136543
782.749	0.0138037
782.828	0.0135787
782.906	0.0137267
782.984	0.0136931
783.062	0.0137975
783.140	0.0137587
783.218	0.0138573
783.296	0.0138204
783.374	0.0138158
783.453	0.0137977
783.531	0.0137172
783.609	0.0137933
783.687	0.0137131
783.765	0.0136604
783.843	0.0137605
783.921	0.0136297
783.999	0.0136558
784.078	0.0135872
784.156	0.0137088
784.234	0.0136868
784.312	0.0135008
784.390	0.0136497
784.468	0.0136537
784.546	0.0137112
784.624	0.0137109
784.703	0.0138238
784.781	0.0136386
784.859	0.0136563
784.937	0.0136516
785.015	0.0136096
785.093	0.0136420
785.171	0.0136667
785.249	0.0136934
785.328	0.0135107
785.406	0.0135895
785.484	0.0135953
785.562	0.0134231
785.640	0.0134618
785.718	0.0135719
785.796	0.0135975
785.874	0.0134329
785.953	0.0133951
786.031	0.0135230
786.109	0.0136437
786.187	0.0135600
786.265	0.0136446
786.343	0.0134560
786.421	0.0135560
786.499	0.0136087
786.578	0.0135280
786.656	0.0136298
786.734	0.0137578
786.812	0.0137148
786.890	0.0138501
786.968	0.0137664
787.046	0.0139529
787.124	0.0138354
787.203	0.0135717
787.281	0.0137576
787.359	0.0138969
787.437	0.0137856
787.515	0.0139907
787.593	0.0137206
787.671	0.0139088
787.749	0.0138867
787.828	0.0138122
787.906	0.0138756
787.984	0.0138580
788.062	0.0137628
788.140	0.0137799
788.218	0.0138347
788.296	0.0138470
788.374	0.0136978
788.453	0.0137128
788.531	0.0137127
788.609	0.0138093
788.687	0.0137313
788.765	0.0138801
788.843	0.0138696
788.921	0.0137100
788.999	0.0138419
789.078	0.0137078
789.156	0.0136746
789.234	0.0137826
789.312	0.0137781
789.390	0.0136956
789.468	0.0137178
789.546	0.0136993
789.624	0.0136568
789.703	0.0136835
789.781	0.0135091
789.859	0.0135990
789.937	0.0137608
790.015	0.0136664
790.093	0.0136205
790.171	0.0135511
790.249	0.0136584
790.328	0.0138013
790.406	0.0137796
790.484	0.0136078
790.562	0.0137050
790.640	0.0136626
790.718	0.0140456
790.796	0.0139440
790.874	0.0140347
790.953	0.0138657
791.031	0.0138191
791.109	0.0139133
791.187	0.0137842
791.265	0.0138695
791.343	0.0138668
791.421	0.0138419
791.499	0.0139185
791.578	0.0138121
791.656	0.0138373
791.734	0.0139494
791.812	0.0138638
791.890	0.0138826
791.968	0.0137995
792.046	0.0138065
792.124	0.0138109
792.203	0.0138848
792.281	0.0140353
792.359	0.0139347
792.437	0.0138790
792.515	0.0140567
792.593	0.0139475
792.671	0.0139533
792.749	0.0139677
792.828	0.0139333
792.906	0.0138998
792.984	0.0138642
793.062	0.0139627
793.140	0.0139715
793.218	0.0137891
793.296	0.0138141
793.374	0.0138249
793.453	0.0137077
793.531	0.0137099
793.609	0.0137702
793.687	0.0138782
793.765	0.0137901
793.843	0.0137946
793.921	0.0137572
793.999	0.0137057
794.078	0.0136639
794.156	0.0136388
794.234	0.0137943
794.312	0.0136111
794.390	0.0136014
794.468	0.0136222
794.546	0.0137365
794.624	0.0136808
794.703	0.0136596
794.781	0.0135392
794.859	0.0135073
794.937	0.0134972
795.015	0.0136098
795.093	0.0136716
795.171	0.0137106
795.249	0.0136096
795.328	0.0135882
795.406	0.0137039
795.484	0.0136297
795.562	0.0135297
795.640	0.0136825
795.718	0.0138044
795.796	0.0137304
795.874	0.0136281
795.953	0.0137468
796.031	0.0137350
796.109	0.0136989
796.187	0.0135956
796.265	0.0137962
796.343	0.0137029
796.421	0.0139548
796.499	0.0139503
796.578	0.0137220
796.656	0.0137234
796.734	0.0136898
796.812	0.0136201
796.890	0.0138239
796.968	0.0137887
797.046	0.0136800
797.124	0.0136163
797.203	0.0137941
797.281	0.0136051
797.359	0.0136159
797.437	0.0136448
797.515	0.0137195
797.593	0.0136391
797.671	0.0136221
797.749	0.0137991
797.828	0.0135633
797.906	0.0137036
797.984	0.0138036
798.062	0.0138573
798.140	0.0138677
798.218	0.0137486
798.296	0.0138091
798.374	0.0138641
798.453	0.0136548
798.531	0.0138265
798.609	0.0137691
798.687	0.0137781
798.765	0.0138184
798.843	0.0137957
798.921	0.0137434
798.999	0.0135510
799.078	0.0136312
799.156	0.0136214
799.234	0.0136351
799.312	0.0135929
799.390	0.0137482
799.468	0.0136819
799.546	0.0135165
799.624	0.0135278
799.703	0.0136526
799.781	0.0135108
799.859	0.0136559
799.937	0.0137963
800.015	0.0136166
800.093	0.0135877
800.171	0.0136764
800.249	0.0135992
800.328	0.0137325
800.406	0.0137563
800.484	0.0137308
800.562	0.0137795
800.640	0.0137945
800.718	0.0137502
800.796	0.0136208
800.874	0.0137826
800.953	0.0136774
801.031	0.0136604
801.109	0.0137223
801.187	0.0136760
801.265	0.0134957
801.343	0.0136086
801.421	0.0137148
801.499	0.0137145
801.578	0.0137428
801.656	0.0138424
801.734	0.0135403
801.812	0.0135778
801.890	0.0137063
801.968	0.0138090
802.046	0.0136777
802.124	0.0136275
802.203	0.0137297
802.281	0.0136026
802.359	0.0136099
802.437	0.0137783
802.515	0.0137933
802.593	0.0136205
802.671	0.0137029
802.749	0.0136794
802.828	0.0138829
802.906	0.0137196
802.984	0.0137921
803.062	0.0135653
803.140	0.0138173
803.218	0.0136484
803.296	0.0137738
803.374	0.0137261
803.453	0.0137675
803.531	0.0135703
803.609	0.0136064
803.687	0.0137938
803.765	0.0139498
803.843	0.0139050
803.921	0.0137753
803.999	0.0137690
804.078	0.0136865
804.156	0.0137934
804.234	0.0136631
804.312	0.0137247
804.390	0.0137471
804.468	0.0136717
804.546	0.0135470
804.624	0.0137712
804.703	0.0135281
804.781	0.0134742
804.859	0.0135760
804.937	0.0136441
805.015	0.0137574
805.093	0.0136742
805.171	0.0136026
805.249	0.0137351
805.328	0.0135796
805.406	0.0136181
805.484	0.0137352
805.562	0.0137067
805.640	0.0137272
805.718	0.0136146
805.796	0.0136682
805.874	0.0136200
805.953	0.0136620
806.031	0.0138005
806.109	0.0136073
806.187	0.0137494
806.265	0.0136773
806.343	0.0137173
806.421	0.0137949
806.499	0.0136809
806.578	0.0136948
806.656	0.0137289
806.734	0.0137745
806.812	0.0137841
806.890	0.0138323
806.968	0.0138561
807.046	0.0138319
807.124	0.0138622
807.203	0.0138174
807.281	0.0137833
807.359	0.0136080
807.437	0.0137539
807.515	0.0137599
807.593	0.0136948
807.671	0.0138021
807.749	0.0137735
807.828	0.0139332
807.906	0.0138299
807.984	0.0137213
808.062	0.0136373
808.140	0.0136932
808.218	0.0137631
808.296	0.0137868
808.374	0.0137647
808.453	0.0137051
808.531	0.0137147
808.609	0.0135622
808.687	0.0137617
808.765	0.0136261
808.843	0.0136613
808.921	0.0137936
808.999	0.0136709
809.078	0.0136734
809.156	0.0138522
809.234	0.0137366
809.312	0.0138136
809.390	0.0136276
809.468	0.0136583
809.546	0.0136837
809.624	0.0136513
809.703	0.0137173
809.781	0.0136291
809.859	0.0136517
809.937	0.0136476
810.015	0.0138548
810.093	0.0136752
810.171	0.0136971
810.249	0.0136320
810.328	0.0136866
810.406	0.0137312
810.484	0.0138743
810.562	0.0138812
810.640	0.0137215
810.718	0.0137883
810.796	0.0138459
810.874	0.0138789
810.953	0.0138445
811.031	0.0138866
811.109	0.0138917
811.187	0.0139657
811.265	0.0139478
811.343	0.0138762
811.421	0.0138528
811.499	0.0138428
811.578	0.0139316
811.656	0.0138781
811.734	0.0137596
811.812	0.0138834
811.890	0.0138004
811.968	0.0137289
812.046	0.0138108
812.124	0.0137550
812.203	0.0137411
812.281	0.0137624
812.359	0.0138341
812.437	0.0138739
812.515	0.0137901
812.593	0.0137605
812.671	0.0138089
812.749	0.0139137
812.828	0.0137856
812.906	0.0137748
812.984	0.0138192
813.062	0.0137914
813.140	0.0138312
813.218	0.0138206
813.296	0.0138468
813.374	0.0137935
813.453	0.0138457
813.531	0.0139508
813.609	0.0139809
813.687	0.0139011
813.765	0.0138091
813.843	0.0136894
813.921	0.0137757
813.999	0.0137675
814.078	0.0138184
814.156	0.0137998
814.234	0.0139217
814.312	0.0138069
814.390	0.0137770
814.468	0.0139298
814.546	0.0138952
814.624	0.0138560
814.703	0.0138969
814.781	0.0138736
814.859	0.0138563
814.937	0.0138834
815.015	0.0138972
815.093	0.0138483
815.171	0.0138488
815.249	0.0140240
815.328	0.0139787
815.406	0.0136707
815.484	0.0136956
815.562	0.0139337
815.640	0.0137532
815.718	0.0138078
815.796	0.0139244
815.874	0.0138074
815.953	0.0137926
816.031	0.0138616
816.109	0.0139472
816.187	0.0137723
816.265	0.0138239
816.343	0.0136877
816.421	0.0137601
816.499	0.0137717
816.578	0.0138659
816.656	0.0137621
816.734	0.0138081
816.812	0.0139001
816.890	0.0135680
816.968	0.0137070
817.046	0.0137121
817.124	0.0136721
817.203	0.0137067
817.281	0.0137388
817.359	0.0136965
817.437	0.0136281
817.515	0.0137087
817.593	0.0137141
817.671	0.0137839
817.749	0.0138295
817.828	0.0136949
817.906	0.0136752
817.984	0.0137656
818.062	0.0136793
818.140	0.0138544
818.218	0.0138734
818.296	0.0136943
818.374	0.0137856
818.453	0.0137576
818.531	0.0138580
818.609	0.0137848
818.687	0.0137022
818.765	0.0136463
818.843	0.0138798
818.921	0.0138714
818.999	0.0138095
819.078	0.0138269
819.156	0.0136797
819.234	0.0137405
819.312	0.0137679
819.390	0.0138258
819.468	0.0137187
819.546	0.0137103
819.624	0.0138388
819.703	0.0138570
819.781	0.0137747
819.859	0.0137206
819.937	0.0139292
820.015	0.0138588
820.093	0.0138084
820.171	0.0137630
820.249	0.0137624
820.328	0.0137499
820.406	0.0137701
820.484	0.0136839
820.562	0.0137206
820.640	0.0138051
820.718	0.0136280
820.796	0.0137109
820.874	0.0138137
820.953	0.0137042
821.031	0.0136491
821.109	0.0136725
821.187	0.0138068
821.265	0.0137887
821.343	0.0138009
821.421	0.0138516
821.499	0.0137807
821.578	0.0137650
821.656	0.0137443
821.734	0.0137364
821.812	0.0137042
821.890	0.0137360
821.968	0.0137485
822.046	0.0137995
822.124	0.0137813
822.203	0.0138443
822.281	0.0138130
822.359	0.0138461
822.437	0.0139076
822.515	0.0139110
822.593	0.0137997
822.671	0.0138552
822.749	0.0139029
822.828	0.0138226
822.906	0.0137301
822.984	0.0136130
823.062	0.0138779
823.140	0.0137484
823.218	0.0137154
823.296	0.0138865
823.374	0.0138937
823.453	0.0137202
823.531	0.0137827
823.609	0.0137544
823.687	0.0137730
823.765	0.0137847
823.843	0.0138235
823.921	0.0137505
823.999	0.0137482
824.078	0.0137433
824.156	0.0138229
824.234	0.0137610
824.312	0.0136832
824.390	0.0136958
824.468	0.0136445
824.546	0.0137643
824.624	0.0136510
824.703	0.0137496
824.781	0.0136842
824.859	0.0136708
824.937	0.0137157
825.015	0.0137223
825.093	0.0137419
825.171	0.0135723
825.249	0.0136346
825.328	0.0137256
825.406	0.0135914
825.484	0.0136377
825.562	0.0137127
825.640	0.0137586
825.718	0.0137501
825.796	0.0137216
825.874	0.0136779
825.953	0.0138165
826.031	0.0137424
826.109	0.0136672
826.187	0.0137104
826.265	0.0136338
826.343	0.0136742
826.421	0.0138398
826.499	0.0137946
826.578	0.0137698
826.656	0.0137553
826.734	0.0136250
826.812	0.0137091
826.890	0.0136379
826.968	0.0137331
827.046	0.0137981
827.124	0.0135371
827.203	0.0134499
827.281	0.0135734
827.359	0.0136672
827.437	0.0135506
827.515	0.0135577
827.593	0.0133410
827.671	0.0135052
827.749	0.0136440
827.828	0.0135852
827.906	0.0134959
827.984	0.0135953
828.062	0.0135297
828.140	0.0137111
828.218	0.0136250
828.296	0.0136686
828.374	0.0136001
828.453	0.0136317
828.531	0.0136356
828.609	0.0136642
828.687	0.0135642
828.765	0.0136444
828.843	0.0136211
828.921	0.0137290
828.999	0.0137012
829.078	0.0137289
829.156	0.0136341
829.234	0.0136668
829.312	0.0137190
829.390	0.0136031
829.468	0.0138110
829.546	0.0137881
829.624	0.0136912
829.703	0.0136398
829.781	0.0137981
829.859	0.0138388
829.937	0.0138063
830.015	0.0138263
830.093	0.0140261
830.171	0.0137962
830.249	0.0138248
830.328	0.0137887
830.406	0.0138955
830.484	0.0137310
830.562	0.0136780
830.640	0.0138008
830.718	0.0137099
830.796	0.0138449
830.874	0.0138171
830.953	0.0137647
831.031	0.0137149
831.109	0.0137437
831.187	0.0135615
831.265	0.0136299
831.343	0.0136412
831.421	0.0135628
831.499	0.0136608
831.578	0.0136645
831.656	0.0136974
831.734	0.0136513
831.812	0.0138286
831.890	0.0137057
831.968	0.0138627
832.046	0.0137667
832.124	0.0137615
832.203	0.0138329
832.281	0.0137354
832.359	0.0138169
832.437	0.0137843
832.515	0.0138448
832.593	0.0138277
832.671	0.0136845
832.749	0.0137431
832.828	0.0138620
832.906	0.0139407
832.984	0.0138017
833.062	0.0138177
833.140	0.0136778
833.218	0.0136763
833.296	0.0138229
833.374	0.0137832
833.453	0.0136945
833.531	0.0137132
833.609	0.0137920
833.687	0.0138152
833.765	0.0137354
833.843	0.0137579
833.921	0.0136215
833.999	0.0138779
834.078	0.0139145
834.156	0.0139375
834.234	0.0138135
834.312	0.0137640
834.390	0.0138281
834.468	0.0138869
834.546	0.0137564
834.624	0.0138597
834.703	0.0138739
834.781	0.0139250
834.859	0.0138543
834.937	0.0137818
835.015	0.0137566
835.093	0.0138580
835.171	0.0138925
835.249	0.0138828
835.328	0.0139107
835.406	0.0139287
835.484	0.0139026
835.562	0.0139127
835.640	0.0138186
835.718	0.0138150
835.796	0.0138017
835.874	0.0137876
835.953	0.0138993
836.031	0.0137933
836.109	0.0137096
836.187	0.0137469
836.265	0.0138715
836.343	0.0138184
836.421	0.0138392
836.499	0.0137949
836.578	0.0138273
836.656	0.0140728
836.734	0.0139247
836.812	0.0138596
836.890	0.0138632
836.968	0.0139035
837.046	0.0139905
837.124	0.0140169
837.203	0.0140282
837.281	0.0138434
837.359	0.0138401
837.437	0.0137885
837.515	0.0140055
837.593	0.0138806
837.671	0.0138406
837.749	0.0138320
837.828	0.0137013
837.906	0.0138143
837.984	0.0137197
838.062	0.0138748
838.140	0.0139295
838.218	0.0139127
838.296	0.0138303
838.374	0.0137811
838.453	0.0138811
838.531	0.0138135
838.609	0.0139050
838.687	0.0139877
838.765	0.0138657
838.843	0.0138736
838.921	0.0138660
838.999	0.0139779
839.078	0.0138551
839.156	0.0137993
839.234	0.0139276
839.312	0.0138092
839.390	0.0137624
839.468	0.0139027
839.546	0.0138435
839.624	0.0137514
839.703	0.0138635
839.781	0.0138303
839.859	0.0137756
839.937	0.0136812
840.015	0.0136522
840.093	0.0137361
840.171	0.0138334
840.249	0.0138091
840.328	0.0137815
840.406	0.0138508
840.484	0.0137773
840.562	0.0137551
840.640	0.0137888
840.718	0.0138074
840.796	0.0137857
840.874	0.0139531
840.953	0.0138432
841.031	0.0138210
841.109	0.0138454
841.187	0.0138329
841.265	0.0138799
841.343	0.0139245
841.421	0.0138445
841.499	0.0138017
841.578	0.0137864
841.656	0.0137832
841.734	0.0138802
841.812	0.0137507
841.890	0.0135741
841.968	0.0137061
842.046	0.0137624
842.124	0.0136037
842.203	0.0136504
842.281	0.0136680
842.359	0.0135975
842.437	0.0135084
842.515	0.0136075
842.593	0.0136697
842.671	0.0136501
842.749	0.0136488
842.828	0.0135535
842.906	0.0136651
842.984	0.0136275
843.062	0.0136761
843.140	0.0136394
843.218	0.0136104
843.296	0.0135912
843.374	0.0136595
843.453	0.0136011
843.531	0.0135495
843.609	0.0135692
843.687	0.0135954
843.765	0.0136289
843.843	0.0136349
843.921	0.0135048
843.999	0.0136160
844.078	0.0137041
844.156	0.0135648
844.234	0.0135815
844.312	0.0136831
844.390	0.0139127
844.468	0.0137376
844.546	0.0137868
844.624	0.0138826
844.703	0.0139799
844.781	0.0139342
844.859	0.0138334
844.937	0.0137628
845.015	0.0138094
845.093	0.0137914
845.171	0.0138380
845.249	0.0137272
845.328	0.0137887
845.406	0.0137713
845.484	0.0135672
845.562	0.0135997
845.640	0.0136967
845.718	0.0137106
845.796	0.0136335
845.874	0.0137294
845.953	0.0136722
846.031	0.0136366
846.109	0.0136372
846.187	0.0136263
846.265	0.0137824
846.343	0.0138799
846.421	0.0138916
846.499	0.0138139
846.578	0.0138248
846.656	0.0136677
846.734	0.0136745
846.812	0.0137337
846.890	0.0136500
846.968	0.0136481
847.046	0.0135969
847.124	0.0135937
847.203	0.0136646
847.281	0.0136726
847.359	0.0137285
847.437	0.0136940
847.515	0.0136806
847.593	0.0136347
847.671	0.0136083
847.749	0.0138172
847.828	0.0138007
847.906	0.0135867
847.984	0.0136459
848.062	0.0138451
848.140	0.0136086
848.218	0.0136243
848.296	0.0137896
848.374	0.0136839
848.453	0.0137514
848.531	0.0137993
848.609	0.0138322
848.687	0.0136638
848.765	0.0136861
848.843	0.0138741
848.921	0.0137434
848.999	0.0137592
849.078	0.0136158
849.156	0.0136522
849.234	0.0138570
849.312	0.0138157
849.390	0.0137232
849.468	0.0135086
849.546	0.0137212
849.624	0.0136836
849.703	0.0136665
849.781	0.0135693
849.859	0.0136639
849.937	0.0135456
850.015	0.0135701
850.093	0.0136519
850.171	0.0136823
850.249	0.0137177
850.328	0.0135835
850.406	0.0138077
850.484	0.0136947
850.562	0.0136761
850.640	0.0137766
850.718	0.0136901
850.796	0.0136542
850.874	0.0138247
850.953	0.0138754
851.031	0.0137226
851.109	0.0137950
851.187	0.0137415
851.265	0.0136728
851.343	0.0137801
851.421	0.0138809
851.499	0.0137012
851.578	0.0136798
851.656	0.0136961
851.734	0.0138142
851.812	0.0136119
851.890	0.0135115
851.968	0.0137359
852.046	0.0136577
852.124	0.0138280
852.203	0.0136925
852.281	0.0137366
852.359	0.0137540
852.437	0.0137688
852.515	0.0136621
852.593	0.0136945
852.671	0.0138228
852.749	0.0137733
852.828	0.0137724
852.906	0.0137726
852.984	0.0139055
853.062	0.0137708
853.140	0.0137876
853.218	0.0137173
853.296	0.0138055
853.374	0.0137724
853.453	0.0137906
853.531	0.0138177
853.609	0.0139256
853.687	0.0138108
853.765	0.0138057
853.843	0.0138198
853.921	0.0137695
853.999	0.0137340
854.078	0.0137532
854.156	0.0137875
854.234	0.0135941
854.312	0.0136014
854.390	0.0136580
854.468	0.0136723
854.546	0.0137466
854.624	0.0135700
854.703	0.0136616
854.781	0.0136678
854.859	0.0135872
854.937	0.0138072
855.015	0.0136230
855.093	0.0138463
855.171	0.0139157
855.249	0.0137643
855.328	0.0138674
855.406	0.0138243
855.484	0.0136742
855.562	0.0138483
855.640	0.0138686
855.718	0.0138354
855.796	0.0138297
855.874	0.0138261
855.953	0.0139317
856.031	0.0138897
856.109	0.0138226
856.187	0.0137983
856.265	0.0137921
856.343	0.0138489
856.421	0.0136493
856.499	0.0137672
856.578	0.0139108
856.656	0.0136944
856.734	0.0137424
856.812	0.0136472
856.890	0.0137084
856.968	0.0136812
857.046	0.0137643
857.124	0.0137558
857.203	0.0138450
857.281	0.0136497
857.359	0.0138146
857.437	0.0138042
857.515	0.0138301
857.593	0.0137875
857.671	0.0139442
857.749	0.0138382
857.828	0.0137151
857.906	0.0138968
857.984	0.0137644
858.062	0.0138076
858.140	0.0137569
858.218	0.0136575
858.296	0.0136964
858.374	0.0136113
858.453	0.0136301
858.531	0.0137280
858.609	0.0137439
858.687	0.0135567
858.765	0.0136269
858.843	0.0138003
858.921	0.0136465
858.999	0.0136748
859.078	0.0137119
859.156	0.0137525
859.234	0.0137516
859.312	0.0138512
859.390	0.0139433
859.468	0.0137347
859.546	0.0137617
859.624	0.0138616
859.703	0.0138548
859.781	0.0138198
859.859	0.0137492
859.937	0.0139185
860.015	0.0139268
860.093	0.0137892
860.171	0.0138263
860.249	0.0140078
860.328	0.0138481
860.406	0.0138326
860.484	0.0138263
860.562	0.0136292
860.640	0.0137635
860.718	0.0137961
860.796	0.0137212
860.874	0.0137694
860.953	0.0137397
861.031	0.0137479
861.109	0.0137468
861.187	0.0136790
861.265	0.0138111
861.343	0.0138751
861.421	0.0138390
861.499	0.0140111
861.578	0.0137660
861.656	0.0138161
861.734	0.0138212
861.812	0.0140262
861.890	0.0139025
861.968	0.0137965
862.046	0.0138085
862.124	0.0138396
862.203	0.0137494
862.281	0.0138760
862.359	0.0137925
862.437	0.0137309
862.515	0.0137767
862.593	0.0137402
862.671	0.0137469
862.749	0.0137807
862.828	0.0136230
862.906	0.0136540
862.984	0.0135432
863.062	0.0135685
863.140	0.0135326
863.218	0.0136202
863.296	0.0136553
863.374	0.0138108
863.453	0.0137418
863.531	0.0137469
863.609	0.0136576
863.687	0.0137472
863.765	0.0137801
863.843	0.0138824
863.921	0.0138010
863.999	0.0136686
864.078	0.0137384
864.156	0.0137650
864.234	0.0136948
864.312	0.0136428
864.390	0.0137350
864.468	0.0137194
864.546	0.0136962
864.624	0.0136691
864.703	0.0136250
864.781	0.0137576
864.859	0.0137136
864.937	0.0137238
865.015	0.0137448
865.093	0.0136259
865.171	0.0137922
865.249	0.0137656
865.328	0.0136976
865.406	0.0137539
865.484	0.0138602
865.562	0.0136973
865.640	0.0136411
865.718	0.0136736
865.796	0.0137101
865.874	0.0138322
865.953	0.0137579
866.031	0.0138355
866.109	0.0138901
866.187	0.0136751
866.265	0.0136971
866.343	0.0137375
866.421	0.0136765
866.499	0.0136437
866.578	0.0137218
866.656	0.0135718
866.734	0.0136924
866.812	0.0138163
866.890	0.0136189
866.968	0.0136185
867.046	0.0137298
867.124	0.0136648
867.203	0.0137705
867.281	0.0137114
867.359	0.0138541
867.437	0.0137446
867.515	0.0138236
867.593	0.0138847
867.671	0.0139014
867.749	0.0138007
867.828	0.0137737
867.906	0.0137991
867.984	0.0136723
868.062	0.0138510
868.140	0.0136968
868.218	0.0136752
868.296	0.0136488
868.374	0.0136500
868.453	0.0137403
868.531	0.0136952
868.609	0.0136773
868.687	0.0138031
868.765	0.0137440
868.843	0.0137617
868.921	0.0137857
868.999	0.0138110
869.078	0.0137840
869.156	0.0137510
869.234	0.0137916
869.312	0.0138873
869.390	0.0139260
869.468	0.0138055
869.546	0.0138245
869.624	0.0138544
869.703	0.0139003
869.781	0.0137937
869.859	0.0137373
869.937	0.0136674
870.015	0.0137797
870.093	0.0138643
870.171	0.0137457
870.249	0.0138269
870.328	0.0137470
870.406	0.0137691
870.484	0.0137376
870.562	0.0136775
870.640	0.0138141
870.718	0.0137768
870.796	0.0138058
870.874	0.0138100
870.953	0.0137935
871.031	0.0137151
871.109	0.0137175
871.187	0.0137947
871.265	0.0137883
871.343	0.0137184
871.421	0.0138051
871.499	0.0138390
871.578	0.0137804
871.656	0.0137271
871.734	0.0135523
871.812	0.0137019
871.890	0.0136553
871.968	0.0137535
872.046	0.0136813
872.124	0.0137018
872.203	0.0138078
872.281	0.0136652
872.359	0.0136809
872.437	0.0136230
872.515	0.0136068
872.593	0.0135283
872.671	0.0134898
872.749	0.0136077
872.828	0.0136040
872.906	0.0136986
872.984	0.0137952
873.062	0.0137023
873.140	0.0135662
873.218	0.0137209
873.296	0.0136048
873.374	0.0135658
873.453	0.0138046
873.531	0.0137865
873.609	0.0137650
873.687	0.0136504
873.765	0.0137917
873.843	0.0136099
873.921	0.0136374
873.999	0.0136575
874.078	0.0135699
874.156	0.0135432
874.234	0.0135899
874.312	0.0135809
874.390	0.0136048
874.468	0.0136041
874.546	0.0136572
874.624	0.0136681
874.703	0.0136134
874.781	0.0137198
874.859	0.0136491
874.937	0.0138084
875.015	0.0136780
875.093	0.0137064
875.171	0.0137016
875.249	0.0137025
875.328	0.0138034
875.406	0.0137804
875.484	0.0136983
875.562	0.0138010
875.640	0.0137112
875.718	0.0136349
875.796	0.0137568
875.874	0.0135320
875.953	0.0136991
876.031	0.0136468
876.109	0.0135915
876.187	0.0137639
876.265	0.0136755
876.343	0.0136156
876.421	0.0136856
876.499	0.0136137
876.578	0.0136768
876.656	0.0137167
876.734	0.0137453
876.812	0.0137261
876.890	0.0137852
876.968	0.0137739
877.046	0.0137222
877.124	0.0137232
877.203	0.0138427
877.281	0.0138514
877.359	0.0138611
877.437	0.0137662
877.515	0.0136895
877.593	0.0137411
877.671	0.0137292
877.749	0.0137310
877.828	0.0136198
877.906	0.0136556
877.984	0.0136697
878.062	0.0137662
878.140	0.0136727
878.218	0.0138367
878.296	0.0136136
878.374	0.0137206
878.453	0.0137758
878.531	0.0137037
878.609	0.0136526
878.687	0.0136489
878.765	0.0137950
878.843	0.0136913
878.921	0.0136938
878.999	0.0136842
879.078	0.0135275
879.156	0.0135214
879.234	0.0136881
879.312	0.0137763
879.390	0.0137613
879.468	0.0135741
879.546	0.0135505
879.624	0.0136022
879.703	0.0135737
879.781	0.0135625
879.859	0.0136044
879.937	0.0137837
880.015	0.0136780
880.093	0.0137379
880.171	0.0136439
880.249	0.0134879
880.328	0.0135392
880.406	0.0136129
880.484	0.0136203
880.562	0.0136752
880.640	0.0136347
880.718	0.0136553
880.796	0.0135482
880.874	0.0136641
880.953	0.0134958
881.031	0.0136483
881.109	0.0136710
881.187	0.0137504
881.265	0.0137658
881.343	0.0137920
881.421	0.0137284
881.499	0.0136676
881.578	0.0136599
881.656	0.0136727
881.734	0.0137000
881.812	0.0137049
881.890	0.0137060
881.968	0.0136366
882.046	0.0137100
882.124	0.0138295
882.203	0.0137466
882.281	0.0137902
882.359	0.0136525
882.437	0.0137661
882.515	0.0137663
882.593	0.0136497
882.671	0.0138142
882.749	0.0139574
882.828	0.0137356
882.906	0.0137212
882.984	0.0136839
883.062	0.0137210
883.140	0.0137978
883.218	0.0135765
883.296	0.0137594
883.374	0.0137759
883.453	0.0138162
883.531	0.0136673
883.609	0.0137263
883.687	0.0137810
883.765	0.0136359
883.843	0.0137341
883.921	0.0138496
883.999	0.0138143
884.078	0.0138040
884.156	0.0137782
884.234	0.0137910
884.312	0.0137237
884.390	0.0137197
884.468	0.0136971
884.546	0.0135738
884.624	0.0137156
884.703	0.0138734
884.781	0.0138345
884.859	0.0136943
884.937	0.0136749
885.015	0.0137332
885.093	0.0138869
885.171	0.0136829
885.249	0.0137939
885.328	0.0136848
885.406	0.0137508
885.484	0.0135976
885.562	0.0135938
885.640	0.0138454
885.718	0.0137628
885.796	0.0136673
885.874	0.0136674
885.953	0.0137560
886.031	0.0138106
886.109	0.0137277
886.187	0.0138142
886.265	0.0138862
886.343	0.0138837
886.421	0.0139326
886.499	0.0138068
886.578	0.0138853
886.656	0.0139754
886.734	0.0138821
886.812	0.0137899
886.890	0.0137668
886.968	0.0139406
887.046	0.0138295
887.124	0.0137267
887.203	0.0137453
887.281	0.0137894
887.359	0.0137521
887.437	0.0136927
887.515	0.0136570
887.593	0.0138219
887.671	0.0137518
887.749	0.0136563
887.828	0.0136690
887.906	0.0137469
887.984	0.0138673
888.062	0.0136597
888.140	0.0137483
888.218	0.0137180
888.296	0.0138134
888.374	0.0137740
888.453	0.0136214
888.531	0.0138573
888.609	0.0139098
888.687	0.0137861
888.765	0.0136916
888.843	0.0138441
888.921	0.0138065
888.999	0.0138226
889.078	0.0137859
889.156	0.0137999
889.234	0.0137675
889.312	0.0138325
889.390	0.0137717
889.468	0.0137874
889.546	0.0136645
889.624	0.0135951
889.703	0.0136937
889.781	0.0138218
889.859	0.0138531
889.937	0.0136786
890.015	0.0138515
890.093	0.0139221
890.171	0.0138009
890.249	0.0137505
890.328	0.0138888
890.406	0.0138169
890.484	0.0138049
890.562	0.0137671
890.640	0.0138828
890.718	0.0136757
890.796	0.0136206
890.874	0.0137702
890.953	0.0136168
891.031	0.0136874
891.109	0.0137840
891.187	0.0136585
891.265	0.0136843
891.343	0.0136478
891.421	0.0137669
891.499	0.0137806
891.578	0.0137782
891.656	0.0137275
891.734	0.0136819
891.812	0.0137346
891.890	0.0137319
891.968	0.0137840
892.046	0.0138992
892.124	0.0137854
892.203	0.0138939
892.281	0.0137788
892.359	0.0138647
892.437	0.0136649
892.515	0.0136456
892.593	0.0137907
892.671	0.0138071
892.749	0.0137927
892.828	0.0136861
892.906	0.0137575
892.984	0.0137601
893.062	0.0138130
893.140	0.0137655
893.218	0.0136792
893.296	0.0136662
893.374	0.0139642
893.453	0.0137794
893.531	0.0136752
893.609	0.0138091
893.687	0.0138200
893.765	0.0137263
893.843	0.0137559
893.921	0.0136680
893.999	0.0136434
894.078	0.0137985
894.156	0.0139379
894.234	0.0137514
894.312	0.0138287
894.390	0.0137586
894.468	0.0137762
894.546	0.0138024
894.624	0.0137468
894.703	0.0138612
894.781	0.0139189
894.859	0.0138606
894.937	0.0137373
895.015	0.0137746
895.093	0.0138847
895.171	0.0137408
895.249	0.0137678
895.328	0.0138625
895.406	0.0137372
895.484	0.0137543
895.562	0.0138290
895.640	0.0138136
895.718	0.0137447
895.796	0.0136456
895.874	0.0135819
895.953	0.0136858
896.031	0.0137093
896.109	0.0137508
896.187	0.0137061
896.265	0.0137048
896.343	0.0137505
896.421	0.0136971
896.499	0.0136563
896.578	0.0136590
896.656	0.0137080
896.734	0.0136903
896.812	0.0136488
896.890	0.0136569
896.968	0.0136721
897.046	0.0137700
897.124	0.0136538
897.203	0.0137518
897.281	0.0136858
897.359	0.0137047
897.437	0.0136552
897.515	0.0136688
897.593	0.0137009
897.671	0.0135851
897.749	0.0136562
897.828	0.0137163
897.906	0.0136524
897.984	0.0137151
898.062	0.0137365
898.140	0.0137293
898.218	0.0137553
898.296	0.0137395
898.374	0.0136700
898.453	0.0137068
898.531	0.0136497
898.609	0.0137538
898.687	0.0137044
898.765	0.0136640
898.843	0.0137070
898.921	0.0135880
898.999	0.0137267
899.078	0.0138107
899.156	0.0137906
899.234	0.0138364
899.312	0.0138605
899.390	0.0137350
899.468	0.0138573
899.546	0.0137083
899.624	0.0136520
899.703	0.0137746
899.781	0.0138457
899.859	0.0137415
899.937	0.0138363
900.015	0.0136566
900.093	0.0137654
900.171	0.0136392
900.249	0.0137265
900.328	0.0135668
900.406	0.0135966
900.484	0.0136636
900.562	0.0135839
900.640	0.0137662
900.718	0.0138654
900.796	0.0137936
900.874	0.0136747
900.953	0.0138154
901.031	0.0138387
901.109	0.0136685
901.187	0.0137619
901.265	0.0136371
901.343	0.0137575
901.421	0.0137151
901.499	0.0135336
901.578	0.0135779
901.656	0.0136420
901.734	0.0136244
901.812	0.0136089
901.890	0.0137482
901.968	0.0136485
902.046	0.0139535
902.124	0.0137534
902.203	0.0136477
902.281	0.0138091
902.359	0.0136660
902.437	0.0138610
902.515	0.0137472
902.593	0.0136380
902.671	0.0137236
902.749	0.0138051
902.828	0.0136597
902.906	0.0137573
902.984	0.0137237
903.062	0.0137270
903.140	0.0135774
903.218	0.0137476
903.296	0.0137914
903.374	0.0138120
903.453	0.0136479
903.531	0.0137455
903.609	0.0137548
903.687	0.0136945
903.765	0.0137084
903.843	0.0138228
903.921	0.0137579
903.999	0.0137232
904.078	0.0136781
904.156	0.0136866
904.234	0.0135978
904.312	0.0137147
904.390	0.0137510
904.468	0.0137262
904.546	0.0136915
904.624	0.0136064
904.703	0.0136511
904.781	0.0135918
904.859	0.0136728
904.937	0.0138085
905.015	0.0135375
905.093	0.0135443
905.171	0.0136968
905.249	0.0135916
905.328	0.0134525
905.406	0.0136037
905.484	0.0135325
905.562	0.0136004
905.640	0.0134774
905.718	0.0135719
905.796	0.0137550
905.874	0.0136030
905.953	0.0135760
906.031	0.0137260
906.109	0.0136725
906.187	0.0136302
906.265	0.0136051
906.343	0.0137050
906.421	0.0137280
906.499	0.0137001
906.578	0.0136951
906.656	0.0136221
906.734	0.0137268
906.812	0.0136756
906.890	0.0135492
906.968	0.0136037
907.046	0.0136786
907.124	0.0135744
907.203	0.0138133
907.281	0.0137755
907.359	0.0135509
907.437	0.0137766
907.515	0.0135876
907.593	0.0135870
907.671	0.0137245
907.749	0.0136610
907.828	0.0136058
907.906	0.0137239
907.984	0.0137205
908.062	0.0137803
908.140	0.0136976
908.218	0.0137289
908.296	0.0136877
908.374	0.0137699
908.453	0.0137701
908.531	0.0136980
908.609	0.0137881
908.687	0.0137718
908.765	0.0136729
908.843	0.0137685
908.921	0.0138274
908.999	0.0138334
909.078	0.0138151
909.156	0.0137550
909.234	0.0136314
909.312	0.0135529
909.390	0.0136784
909.468	0.0137257
909.546	0.0137413
909.624	0.0137717
909.703	0.0137827
909.781	0.0136852
909.859	0.0136798
909.937	0.0137855
910.015	0.0136205
910.093	0.0136285
910.171	0.0136165
910.249	0.0137349
910.328	0.0137063
910.406	0.0137750
910.484	0.0137450
910.562	0.0136952
910.640	0.0135787
910.718	0.0137724
910.796	0.0136193
910.874	0.0137357
910.953	0.0137167
911.031	0.0137473
911.109	0.0137747
911.187	0.0138540
911.265	0.0137528
911.343	0.0138421
911.421	0.0135808
911.499	0.0137080
911.578	0.0138272
911.656	0.0137643
911.734	0.0136631
911.812	0.0136352
911.890	0.0136854
911.968	0.0137703
912.046	0.0137197
912.124	0.0136706
912.203	0.0137491
912.281	0.0138300
912.359	0.0138768
912.437	0.0136559
912.515	0.0138123
912.593	0.0137800
912.671	0.0137443
912.749	0.0137463
912.828	0.0139182
912.906	0.0138933
912.984	0.0137545
913.062	0.0138138
913.140	0.0139066
913.218	0.0137658
913.296	0.0138554
913.374	0.0137842
913.453	0.0138821
913.531	0.0137153
913.609	0.0138052
913.687	0.0138892
913.765	0.0139002
913.843	0.0138063
913.921	0.0139134
913.999	0.0136958
914.078	0.0138804
914.156	0.0138885
914.234	0.0138647
914.312	0.0137119
914.390	0.0138665
914.468	0.0138102
914.546	0.0138559
914.624	0.0139104
914.703	0.0139117
914.781	0.0138439
914.859	0.0138383
914.937	0.0139085
915.015	0.0139761
915.093	0.0137793
915.171	0.0138307
915.249	0.0138090
915.328	0.0138089
915.406	0.0139085
915.484	0.0137649
915.562	0.0138364
915.640	0.0137654
915.718	0.0138561
915.796	0.0137363
915.874	0.0137256
915.953	0.0136724
916.031	0.0137868
916.109	0.0137856
916.187	0.0136970
916.265	0.0137920
916.343	0.0138110
916.421	0.0136999
916.499	0.0138232
916.578	0.0138466
916.656	0.0138332
916.734	0.0137482
916.812	0.0138861
916.890	0.0137719
916.968	0.0139313
917.046	0.0139185
917.124	0.0137523
917.203	0.0140089
917.281	0.0138757
917.359	0.0138811
917.437	0.0138682
917.515	0.0138023
917.593	0.0138177
917.671	0.0139080
917.749	0.0138792
917.828	0.0138846
917.906	0.0137811
917.984	0.0138007
918.062	0.0137605
918.140	0.0138412
918.218	0.0137762
918.296	0.0136701
918.374	0.0137945
918.453	0.0137076
918.531	0.0137308
918.609	0.0137323
918.687	0.0137733
918.765	0.0138203
918.843	0.0138464
918.921	0.0138365
918.999	0.0138475
919.078	0.0137004
919.156	0.0138327
919.234	0.0137370
919.312	0.0136613
919.390	0.0137041
919.468	0.0138155
919.546	0.0138216
919.624	0.0136585
919.703	0.0137717
919.781	0.0137527
919.859	0.0137649
919.937	0.0137295
