05/06/2022	19:09:50	Ver.	4.1	UNKNOWN
Optical Delay	600.015094	Delta X		0.078125	Sweeps	1	Scan Rate	0/0
Coordinates	Axis 1	NaN	Axis 2	NaN	Axis 3	NaN	Axis 4	NaN	Axis 5	NaN	Axis 6	0.000000
TX Power	0.000000	RX Power	0.000000

600.015	0.0140427
600.093	0.0141182
600.171	0.0139452
600.249	0.0139790
600.328	0.0140061
600.406	0.0139687
600.484	0.0141376
600.562	0.0140429
600.640	0.0139219
600.718	0.0141193
600.796	0.0140677
600.874	0.0140723
600.953	0.0140424
601.031	0.0140654
601.109	0.0141125
601.187	0.0141035
601.265	0.0140631
601.343	0.0139878
601.421	0.0140149
601.499	0.0139886
601.578	0.0140493
601.656	0.0141038
601.734	0.0140633
601.812	0.0140211
601.890	0.0139754
601.968	0.0140450
602.046	0.0141619
602.124	0.0140338
602.203	0.0140598
602.281	0.0139701
602.359	0.0140408
602.437	0.0141338
602.515	0.0139178
602.593	0.0141252
602.671	0.0139925
602.749	0.0138960
602.828	0.0140285
602.906	0.0139394
602.984	0.0140031
603.062	0.0140759
603.140	0.0140031
603.218	0.0141651
603.296	0.0140723
603.374	0.0140015
603.453	0.0139944
603.531	0.0139091
603.609	0.0139101
603.687	0.0140143
603.765	0.0140651
603.843	0.0138737
603.921	0.0140179
603.999	0.0141540
604.078	0.0140753
604.156	0.0139845
604.234	0.0141235
604.312	0.0141221
604.390	0.0142174
604.468	0.0140353
604.546	0.0141461
604.624	0.0141030
604.703	0.0141064
604.781	0.0141342
604.859	0.0140268
604.937	0.0141418
605.015	0.0140404
605.093	0.0140527
605.171	0.0140023
605.249	0.0141216
605.328	0.0140794
605.406	0.0140675
605.484	0.0141032
605.562	0.0142559
605.640	0.0141531
605.718	0.0140395
605.796	0.0141318
605.874	0.0141565
605.953	0.0141574
606.031	0.0141417
606.109	0.0140736
606.187	0.0140112
606.265	0.0141443
606.343	0.0140884
606.421	0.0140337
606.499	0.0141716
606.578	0.0141470
606.656	0.0142140
606.734	0.0141054
606.812	0.0141387
606.890	0.0140658
606.968	0.0140879
607.046	0.0142043
607.124	0.0141013
607.203	0.0140437
607.281	0.0140374
607.359	0.0140943
607.437	0.0142027
607.515	0.0141445
607.593	0.0140839
607.671	0.0141547
607.749	0.0140280
607.828	0.0141314
607.906	0.0141490
607.984	0.0141196
608.062	0.0141180
608.140	0.0141963
608.218	0.0140281
608.296	0.0140674
608.374	0.0141595
608.453	0.0140714
608.531	0.0139874
608.609	0.0141029
608.687	0.0141118
608.765	0.0140472
608.843	0.0140225
608.921	0.0139752
608.999	0.0139307
609.078	0.0138676
609.156	0.0140168
609.234	0.0139491
609.312	0.0140640
609.390	0.0138736
609.468	0.0138758
609.546	0.0139664
609.624	0.0139321
609.703	0.0140492
609.781	0.0141362
609.859	0.0141314
609.937	0.0139353
610.015	0.0138564
610.093	0.0138680
610.171	0.0139672
610.249	0.0140247
610.328	0.0140038
610.406	0.0139542
610.484	0.0139497
610.562	0.0140264
610.640	0.0140294
610.718	0.0139644
610.796	0.0138464
610.874	0.0140173
610.953	0.0141659
611.031	0.0137833
611.109	0.0139448
611.187	0.0139602
611.265	0.0140530
611.343	0.0138825
611.421	0.0139385
611.499	0.0140472
611.578	0.0139626
611.656	0.0139864
611.734	0.0140129
611.812	0.0139850
611.890	0.0140497
611.968	0.0139773
612.046	0.0140171
612.124	0.0140254
612.203	0.0140089
612.281	0.0140381
612.359	0.0141569
612.437	0.0139722
612.515	0.0140921
612.593	0.0140540
612.671	0.0139838
612.749	0.0140652
612.828	0.0139365
612.906	0.0140119
612.984	0.0140938
613.062	0.0139632
613.140	0.0139816
613.218	0.0141708
613.296	0.0139399
613.374	0.0140373
613.453	0.0139873
613.531	0.0138394
613.609	0.0140594
613.687	0.0139984
613.765	0.0140296
613.843	0.0139410
613.921	0.0139315
613.999	0.0138954
614.078	0.0139524
614.156	0.0140086
614.234	0.0140275
614.312	0.0141388
614.390	0.0139519
614.468	0.0139227
614.546	0.0139345
614.624	0.0139539
614.703	0.0140766
614.781	0.0138900
614.859	0.0139053
614.937	0.0138718
615.015	0.0139549
615.093	0.0140530
615.171	0.0140521
615.249	0.0139659
615.328	0.0138644
615.406	0.0138425
615.484	0.0140531
615.562	0.0139789
615.640	0.0140591
615.718	0.0139899
615.796	0.0139050
615.874	0.0138829
615.953	0.0139038
616.031	0.0140641
616.109	0.0140058
616.187	0.0139635
616.265	0.0140363
616.343	0.0139848
616.421	0.0138924
616.499	0.0138794
616.578	0.0139453
616.656	0.0141090
616.734	0.0140046
616.812	0.0139925
616.890	0.0140000
616.968	0.0139146
617.046	0.0139170
617.124	0.0139977
617.203	0.0139260
617.281	0.0139557
617.359	0.0139442
617.437	0.0137988
617.515	0.0138287
617.593	0.0139989
617.671	0.0140224
617.749	0.0140318
617.828	0.0139402
617.906	0.0140540
617.984	0.0138274
618.062	0.0139117
618.140	0.0140417
618.218	0.0141022
618.296	0.0139693
618.374	0.0138786
618.453	0.0140390
618.531	0.0139622
618.609	0.0139658
618.687	0.0139559
618.765	0.0139625
618.843	0.0139377
618.921	0.0138787
618.999	0.0140547
619.078	0.0140601
619.156	0.0138988
619.234	0.0139946
619.312	0.0140508
619.390	0.0141567
619.468	0.0140130
619.546	0.0140778
619.624	0.0138416
619.703	0.0139624
619.781	0.0141526
619.859	0.0140191
619.937	0.0140887
620.015	0.0140100
620.093	0.0139787
620.171	0.0139818
620.249	0.0140714
620.328	0.0140660
620.406	0.0139742
620.484	0.0139400
620.562	0.0140757
620.640	0.0141653
620.718	0.0141348
620.796	0.0141342
620.874	0.0140675
620.953	0.0141003
621.031	0.0141634
621.109	0.0140664
621.187	0.0140227
621.265	0.0141170
621.343	0.0140399
621.421	0.0139587
621.499	0.0142213
621.578	0.0141049
621.656	0.0140559
621.734	0.0141045
621.812	0.0140948
621.890	0.0141200
621.968	0.0140149
622.046	0.0139922
622.124	0.0140315
622.203	0.0141747
622.281	0.0141182
622.359	0.0141142
622.437	0.0142016
622.515	0.0139722
622.593	0.0142378
622.671	0.0138635
622.749	0.0140398
622.828	0.0140479
622.906	0.0140563
622.984	0.0141727
623.062	0.0141138
623.140	0.0140357
623.218	0.0140360
623.296	0.0139665
623.374	0.0141390
623.453	0.0140468
623.531	0.0141063
623.609	0.0141039
623.687	0.0139781
623.765	0.0141258
623.843	0.0141320
623.921	0.0141014
623.999	0.0139600
624.078	0.0139777
624.156	0.0141213
624.234	0.0140171
624.312	0.0138913
624.390	0.0140663
624.468	0.0139168
624.546	0.0141327
624.624	0.0139274
624.703	0.0140593
624.781	0.0141055
624.859	0.0140206
624.937	0.0140639
625.015	0.0142134
625.093	0.0139624
625.171	0.0141105
625.249	0.0140914
625.328	0.0140427
625.406	0.0140773
625.484	0.0141203
625.562	0.0140590
625.640	0.0140133
625.718	0.0142248
625.796	0.0140118
625.874	0.0141124
625.953	0.0139709
626.031	0.0138620
626.109	0.0141042
626.187	0.0141541
626.265	0.0140430
626.343	0.0140626
626.421	0.0140756
626.499	0.0139800
626.578	0.0142046
626.656	0.0140480
626.734	0.0140656
626.812	0.0140459
626.890	0.0140492
626.968	0.0140841
627.046	0.0140144
627.124	0.0140004
627.203	0.0140791
627.281	0.0139867
627.359	0.0139651
627.437	0.0139803
627.515	0.0139570
627.593	0.0140108
627.671	0.0140506
627.749	0.0139397
627.828	0.0138380
627.906	0.0140385
627.984	0.0141852
628.062	0.0140002
628.140	0.0140514
628.218	0.0140694
628.296	0.0139938
628.374	0.0140711
628.453	0.0139758
628.531	0.0140646
628.609	0.0141847
628.687	0.0139590
628.765	0.0140909
628.843	0.0140951
628.921	0.0139786
628.999	0.0138717
629.078	0.0138342
629.156	0.0139419
629.234	0.0139965
629.312	0.0139002
629.390	0.0140243
629.468	0.0139739
629.546	0.0139365
629.624	0.0139559
629.703	0.0140195
629.781	0.0139373
629.859	0.0140548
629.937	0.0139049
630.015	0.0138711
630.093	0.0139456
630.171	0.0139021
630.249	0.0138464
630.328	0.0138427
630.406	0.0140141
630.484	0.0138774
630.562	0.0138926
630.640	0.0139436
630.718	0.0140094
630.796	0.0139144
630.874	0.0139002
630.953	0.0139365
631.031	0.0138874
631.109	0.0140121
631.187	0.0138939
631.265	0.0139845
631.343	0.0139510
631.421	0.0139642
631.499	0.0139838
631.578	0.0138405
631.656	0.0141335
631.734	0.0140477
631.812	0.0139468
631.890	0.0139026
631.968	0.0139403
632.046	0.0139272
632.124	0.0138500
632.203	0.0138349
632.281	0.0138605
632.359	0.0139649
632.437	0.0139088
632.515	0.0139736
632.593	0.0139439
632.671	0.0139243
632.749	0.0138598
632.828	0.0139526
632.906	0.0139114
632.984	0.0139141
633.062	0.0138622
633.140	0.0140004
633.218	0.0139873
633.296	0.0139510
633.374	0.0139555
633.453	0.0140266
633.531	0.0138560
633.609	0.0139564
633.687	0.0140581
633.765	0.0139023
633.843	0.0139462
633.921	0.0140086
633.999	0.0138852
634.078	0.0140251
634.156	0.0139953
634.234	0.0139652
634.312	0.0139355
634.390	0.0138597
634.468	0.0138753
634.546	0.0139452
634.624	0.0140165
634.703	0.0140452
634.781	0.0142474
634.859	0.0139836
634.937	0.0140340
635.015	0.0140268
635.093	0.0140598
635.171	0.0142789
635.249	0.0140730
635.328	0.0140569
635.406	0.0142280
635.484	0.0140808
635.562	0.0140263
635.640	0.0139275
635.718	0.0141181
635.796	0.0141227
635.874	0.0141663
635.953	0.0141331
636.031	0.0139341
636.109	0.0140107
636.187	0.0140424
636.265	0.0140938
636.343	0.0140861
636.421	0.0140081
636.499	0.0139059
636.578	0.0139862
636.656	0.0140695
636.734	0.0139419
636.812	0.0140559
636.890	0.0141878
636.968	0.0140332
637.046	0.0142297
637.124	0.0140919
637.203	0.0141451
637.281	0.0141294
637.359	0.0141753
637.437	0.0141358
637.515	0.0139221
637.593	0.0141858
637.671	0.0141972
637.749	0.0142986
637.828	0.0141040
637.906	0.0141691
637.984	0.0141963
638.062	0.0141155
638.140	0.0140484
638.218	0.0141048
638.296	0.0141456
638.374	0.0141373
638.453	0.0141254
638.531	0.0141633
638.609	0.0139716
638.687	0.0140483
638.765	0.0141706
638.843	0.0141105
638.921	0.0140789
638.999	0.0141322
639.078	0.0142230
639.156	0.0142040
639.234	0.0142024
639.312	0.0141714
639.390	0.0140363
639.468	0.0140443
639.546	0.0140795
639.624	0.0139906
639.703	0.0140558
639.781	0.0139846
639.859	0.0139388
639.937	0.0141315
640.015	0.0141210
640.093	0.0140117
640.171	0.0140491
640.249	0.0139541
640.328	0.0139450
640.406	0.0140692
640.484	0.0140691
640.562	0.0141074
640.640	0.0140943
640.718	0.0141323
640.796	0.0142848
640.874	0.0141485
640.953	0.0142072
641.031	0.0142687
641.109	0.0142599
641.187	0.0142495
641.265	0.0141984
641.343	0.0141773
641.421	0.0142508
641.499	0.0141505
641.578	0.0140900
641.656	0.0141042
641.734	0.0142318
641.812	0.0140632
641.890	0.0141629
641.968	0.0141879
642.046	0.0140528
642.124	0.0141038
642.203	0.0140770
642.281	0.0141828
642.359	0.0141751
642.437	0.0142152
642.515	0.0141716
642.593	0.0141843
642.671	0.0141336
642.749	0.0142319
642.828	0.0140475
642.906	0.0141307
642.984	0.0139352
643.062	0.0140282
643.140	0.0140153
643.218	0.0140221
643.296	0.0139940
643.374	0.0139886
643.453	0.0139221
643.531	0.0140192
643.609	0.0140446
643.687	0.0140876
643.765	0.0140529
643.843	0.0139823
643.921	0.0139306
643.999	0.0140642
644.078	0.0139660
644.156	0.0141203
644.234	0.0140891
644.312	0.0141042
644.390	0.0141376
644.468	0.0142585
644.546	0.0141551
644.624	0.0141743
644.703	0.0142619
644.781	0.0141128
644.859	0.0142440
644.937	0.0141674
645.015	0.0140152
645.093	0.0138662
645.171	0.0139784
645.249	0.0140047
645.328	0.0139481
645.406	0.0138567
645.484	0.0139606
645.562	0.0140581
645.640	0.0138880
645.718	0.0140394
645.796	0.0139699
645.874	0.0139729
645.953	0.0138867
646.031	0.0140250
646.109	0.0140575
646.187	0.0140421
646.265	0.0140249
646.343	0.0138250
646.421	0.0139868
646.499	0.0139338
646.578	0.0139946
646.656	0.0140215
646.734	0.0140167
646.812	0.0142351
646.890	0.0141254
646.968	0.0141146
647.046	0.0142081
647.124	0.0142197
647.203	0.0141238
647.281	0.0142417
647.359	0.0143777
647.437	0.0142988
647.515	0.0143484
647.593	0.0142237
647.671	0.0142014
647.749	0.0141831
647.828	0.0140522
647.906	0.0141618
647.984	0.0140828
648.062	0.0139613
648.140	0.0140359
648.218	0.0139816
648.296	0.0139725
648.374	0.0139891
648.453	0.0138721
648.531	0.0138411
648.609	0.0139162
648.687	0.0137875
648.765	0.0138314
648.843	0.0138477
648.921	0.0137459
648.999	0.0137881
649.078	0.0138694
649.156	0.0139234
649.234	0.0140019
649.312	0.0139626
649.390	0.0141051
649.468	0.0140872
649.546	0.0141357
649.624	0.0141595
649.703	0.0141016
649.781	0.0142385
649.859	0.0143353
649.937	0.0144217
650.015	0.0142432
650.093	0.0142306
650.171	0.0143085
650.249	0.0142969
650.328	0.0143666
650.406	0.0143718
650.484	0.0143647
650.562	0.0142276
650.640	0.0143130
650.718	0.0141415
650.796	0.0141859
650.874	0.0141708
650.953	0.0141434
651.031	0.0139980
651.109	0.0139213
651.187	0.0136416
651.265	0.0136592
651.343	0.0135992
651.421	0.0136261
651.499	0.0134546
651.578	0.0134842
651.656	0.0133082
651.734	0.0133640
651.812	0.0133546
651.890	0.0134631
651.968	0.0133674
652.046	0.0134829
652.124	0.0136378
652.203	0.0137731
652.281	0.0137650
652.359	0.0137103
652.437	0.0139851
652.515	0.0140186
652.593	0.0143004
652.671	0.0143748
652.749	0.0143738
652.828	0.0145110
652.906	0.0145789
652.984	0.0146887
653.062	0.0146285
653.140	0.0147517
653.218	0.0146207
653.296	0.0145000
653.374	0.0147456
653.453	0.0145872
653.531	0.0143726
653.609	0.0142857
653.687	0.0142103
653.765	0.0140626
653.843	0.0139540
653.921	0.0137224
653.999	0.0137378
654.078	0.0136081
654.156	0.0134193
654.234	0.0132951
654.312	0.0133900
654.390	0.0134467
654.468	0.0133552
654.546	0.0134978
654.624	0.0133952
654.703	0.0134782
654.781	0.0136632
654.859	0.0135270
654.937	0.0138100
655.015	0.0139664
655.093	0.0140222
655.171	0.0140491
655.249	0.0141266
655.328	0.0141785
655.406	0.0143662
655.484	0.0143471
655.562	0.0143983
655.640	0.0144175
655.718	0.0143906
655.796	0.0143443
655.874	0.0144299
655.953	0.0141775
656.031	0.0142114
656.109	0.0141689
656.187	0.0141763
656.265	0.0139963
656.343	0.0138781
656.421	0.0139349
656.499	0.0139903
656.578	0.0138464
656.656	0.0138863
656.734	0.0137955
656.812	0.0137494
656.890	0.0137341
656.968	0.0137448
657.046	0.0138211
657.124	0.0138778
657.203	0.0137993
657.281	0.0138336
657.359	0.0139006
657.437	0.0139822
657.515	0.0139944
657.593	0.0140555
657.671	0.0142975
657.749	0.0143877
657.828	0.0142129
657.906	0.0143382
657.984	0.0143246
658.062	0.0145072
658.140	0.0145587
658.218	0.0144415
658.296	0.0143914
658.374	0.0145220
658.453	0.0145380
658.531	0.0144647
658.609	0.0143239
658.687	0.0143385
658.765	0.0143511
658.843	0.0141580
658.921	0.0142628
658.999	0.0142368
659.078	0.0141302
659.156	0.0140501
659.234	0.0139147
659.312	0.0137824
659.390	0.0138622
659.468	0.0138828
659.546	0.0139638
659.624	0.0137691
659.703	0.0136999
659.781	0.0138058
659.859	0.0138274
659.937	0.0137430
660.015	0.0137695
660.093	0.0138298
660.171	0.0138668
660.249	0.0138375
660.328	0.0139506
660.406	0.0139423
660.484	0.0139703
660.562	0.0140514
660.640	0.0141237
660.718	0.0140902
660.796	0.0140993
660.874	0.0141187
660.953	0.0142718
661.031	0.0141407
661.109	0.0142223
661.187	0.0141898
661.265	0.0142479
661.343	0.0143684
661.421	0.0142487
661.499	0.0143951
661.578	0.0142603
661.656	0.0142245
661.734	0.0143753
661.812	0.0142974
661.890	0.0142518
661.968	0.0141837
662.046	0.0142155
662.124	0.0142503
662.203	0.0141729
662.281	0.0141413
662.359	0.0140812
662.437	0.0141138
662.515	0.0140826
662.593	0.0139465
662.671	0.0138600
662.749	0.0137225
662.828	0.0137757
662.906	0.0139484
662.984	0.0138247
663.062	0.0138234
663.140	0.0139023
663.218	0.0139413
663.296	0.0140271
663.374	0.0141649
663.453	0.0142135
663.531	0.0142857
663.609	0.0143877
663.687	0.0145835
663.765	0.0144061
663.843	0.0144736
663.921	0.0144543
663.999	0.0144984
664.078	0.0143832
664.156	0.0142606
664.234	0.0142988
664.312	0.0143150
664.390	0.0141308
664.468	0.0139896
664.546	0.0138128
664.624	0.0137171
664.703	0.0135908
664.781	0.0135947
664.859	0.0135329
664.937	0.0135591
665.015	0.0135691
665.093	0.0133942
665.171	0.0135196
665.249	0.0137432
665.328	0.0136376
665.406	0.0136837
665.484	0.0138568
665.562	0.0137861
665.640	0.0139937
665.718	0.0139848
665.796	0.0140391
665.874	0.0141517
665.953	0.0141471
666.031	0.0144806
666.109	0.0146049
666.187	0.0145921
666.265	0.0147368
666.343	0.0146964
666.421	0.0147678
666.499	0.0146465
666.578	0.0146964
666.656	0.0146356
666.734	0.0146702
666.812	0.0144159
666.890	0.0142896
666.968	0.0142139
667.046	0.0139523
667.124	0.0139212
667.203	0.0137113
667.281	0.0137149
667.359	0.0135429
667.437	0.0134412
667.515	0.0132585
667.593	0.0132023
667.671	0.0131150
667.749	0.0130885
667.828	0.0130819
667.906	0.0131928
667.984	0.0131105
668.062	0.0133020
668.140	0.0134830
668.218	0.0134615
668.296	0.0136119
668.374	0.0137566
668.453	0.0139214
668.531	0.0140468
668.609	0.0140150
668.687	0.0144040
668.765	0.0145494
668.843	0.0146922
668.921	0.0147011
668.999	0.0146062
669.078	0.0146630
669.156	0.0146794
669.234	0.0146128
669.312	0.0144983
669.390	0.0146538
669.468	0.0143751
669.546	0.0141272
669.624	0.0141597
669.703	0.0138525
669.781	0.0139816
669.859	0.0138392
669.937	0.0136153
670.015	0.0134989
670.093	0.0133414
670.171	0.0134121
670.249	0.0133822
670.328	0.0133415
670.406	0.0134624
670.484	0.0134920
670.562	0.0136984
670.640	0.0137832
670.718	0.0138961
670.796	0.0138797
670.874	0.0141372
670.953	0.0144677
671.031	0.0144464
671.109	0.0147152
671.187	0.0146742
671.265	0.0146289
671.343	0.0148315
671.421	0.0148388
671.499	0.0148075
671.578	0.0145026
671.656	0.0145690
671.734	0.0146504
671.812	0.0144140
671.890	0.0141534
671.968	0.0141113
672.046	0.0140375
672.124	0.0138837
672.203	0.0136922
672.281	0.0135680
672.359	0.0135686
672.437	0.0135175
672.515	0.0134894
672.593	0.0134824
672.671	0.0135309
672.749	0.0134087
672.828	0.0134763
672.906	0.0134833
672.984	0.0136131
673.062	0.0137204
673.140	0.0137583
673.218	0.0138474
673.296	0.0137556
673.374	0.0138718
673.453	0.0140002
673.531	0.0141653
673.609	0.0141195
673.687	0.0142014
673.765	0.0141890
673.843	0.0143289
673.921	0.0142982
673.999	0.0144117
674.078	0.0143438
674.156	0.0144022
674.234	0.0144965
674.312	0.0145103
674.390	0.0143925
674.468	0.0145242
674.546	0.0145002
674.624	0.0143493
674.703	0.0143138
674.781	0.0142517
674.859	0.0144099
674.937	0.0142110
675.015	0.0141592
675.093	0.0141235
675.171	0.0142645
675.249	0.0141769
675.328	0.0141824
675.406	0.0141560
675.484	0.0140437
675.562	0.0139145
675.640	0.0141106
675.718	0.0140221
675.796	0.0139257
675.874	0.0138952
675.953	0.0137880
676.031	0.0138977
676.109	0.0137753
676.187	0.0138716
676.265	0.0136330
676.343	0.0136308
676.421	0.0137213
676.499	0.0138393
676.578	0.0138175
676.656	0.0137727
676.734	0.0138892
676.812	0.0139628
676.890	0.0139498
676.968	0.0139209
677.046	0.0140921
677.124	0.0142645
677.203	0.0144314
677.281	0.0143666
677.359	0.0144269
677.437	0.0144039
677.515	0.0144814
677.593	0.0145207
677.671	0.0145890
677.749	0.0143610
677.828	0.0141729
677.906	0.0142937
677.984	0.0140965
678.062	0.0139008
678.140	0.0138294
678.218	0.0139369
678.296	0.0137793
678.374	0.0136269
678.453	0.0135500
678.531	0.0136024
678.609	0.0136660
678.687	0.0136404
678.765	0.0136169
678.843	0.0137135
678.921	0.0137786
678.999	0.0139941
679.078	0.0139737
679.156	0.0139837
679.234	0.0142489
679.312	0.0143764
679.390	0.0143641
679.468	0.0144739
679.546	0.0145321
679.624	0.0147288
679.703	0.0147260
679.781	0.0147572
679.859	0.0148041
679.937	0.0148232
680.015	0.0146455
680.093	0.0145499
680.171	0.0145073
680.249	0.0145382
680.328	0.0144624
680.406	0.0143965
680.484	0.0141503
680.562	0.0139014
680.640	0.0137677
680.718	0.0138212
680.796	0.0136148
680.874	0.0134957
680.953	0.0134814
681.031	0.0133380
681.109	0.0134012
681.187	0.0134295
681.265	0.0133904
681.343	0.0134010
681.421	0.0134904
681.499	0.0135627
681.578	0.0134701
681.656	0.0135895
681.734	0.0137160
681.812	0.0138249
681.890	0.0141263
681.968	0.0143304
682.046	0.0145080
682.124	0.0144259
682.203	0.0145934
682.281	0.0147522
682.359	0.0148325
682.437	0.0150558
682.515	0.0149300
682.593	0.0150188
682.671	0.0150497
682.749	0.0147810
682.828	0.0147789
682.906	0.0146142
682.984	0.0142982
683.062	0.0140636
683.140	0.0139075
683.218	0.0137334
683.296	0.0135549
683.374	0.0134728
683.453	0.0133195
683.531	0.0132500
683.609	0.0132252
683.687	0.0131545
683.765	0.0132059
683.843	0.0132890
683.921	0.0134515
683.999	0.0134614
684.078	0.0136765
684.156	0.0139173
684.234	0.0141380
684.312	0.0141003
684.390	0.0142461
684.468	0.0144658
684.546	0.0146664
684.624	0.0146908
684.703	0.0147856
684.781	0.0147694
684.859	0.0147028
684.937	0.0147169
685.015	0.0146368
685.093	0.0145928
685.171	0.0144225
685.249	0.0143874
685.328	0.0142399
685.406	0.0141916
685.484	0.0140335
685.562	0.0137386
685.640	0.0136633
685.718	0.0136531
685.796	0.0135243
685.874	0.0134514
685.953	0.0133842
686.031	0.0132773
686.109	0.0132916
686.187	0.0133759
686.265	0.0134002
686.343	0.0134695
686.421	0.0135394
686.499	0.0135921
686.578	0.0137220
686.656	0.0138506
686.734	0.0139102
686.812	0.0140562
686.890	0.0140406
686.968	0.0140919
687.046	0.0142593
687.124	0.0143408
687.203	0.0144083
687.281	0.0144426
687.359	0.0145327
687.437	0.0144756
687.515	0.0144737
687.593	0.0145869
687.671	0.0144972
687.749	0.0144013
687.828	0.0143896
687.906	0.0142982
687.984	0.0141496
688.062	0.0140540
688.140	0.0139849
688.218	0.0139428
688.296	0.0138275
688.374	0.0138709
688.453	0.0138380
688.531	0.0136395
688.609	0.0135959
688.687	0.0137147
688.765	0.0135858
688.843	0.0136207
688.921	0.0134609
688.999	0.0137189
689.078	0.0136707
689.156	0.0136787
689.234	0.0137990
689.312	0.0137093
689.390	0.0139970
689.468	0.0139796
689.546	0.0139062
689.624	0.0139277
689.703	0.0139403
689.781	0.0139197
689.859	0.0140302
689.937	0.0140705
690.015	0.0140314
690.093	0.0141000
690.171	0.0140470
690.249	0.0140551
690.328	0.0141061
690.406	0.0141241
690.484	0.0140753
690.562	0.0140419
690.640	0.0141694
690.718	0.0141241
690.796	0.0141548
690.874	0.0141582
690.953	0.0141653
691.031	0.0141500
691.109	0.0140702
691.187	0.0141105
691.265	0.0140384
691.343	0.0140351
691.421	0.0140370
691.499	0.0139428
691.578	0.0140224
691.656	0.0139816
691.734	0.0141105
691.812	0.0140300
691.890	0.0139817
691.968	0.0139255
692.046	0.0137631
692.124	0.0137408
692.203	0.0137572
692.281	0.0139664
692.359	0.0138523
692.437	0.0138904
692.515	0.0138519
692.593	0.0140522
692.671	0.0141491
692.749	0.0140952
692.828	0.0142850
692.906	0.0142377
692.984	0.0144254
693.062	0.0144199
693.140	0.0141561
693.218	0.0143391
693.296	0.0144048
693.374	0.0142749
693.453	0.0141589
693.531	0.0141847
693.609	0.0142017
693.687	0.0141102
693.765	0.0140754
693.843	0.0139734
693.921	0.0137879
693.999	0.0139228
694.078	0.0138691
694.156	0.0137955
694.234	0.0137103
694.312	0.0136988
694.390	0.0136073
694.468	0.0137463
694.546	0.0137459
694.624	0.0136366
694.703	0.0137658
694.781	0.0137833
694.859	0.0138992
694.937	0.0139441
695.015	0.0139917
695.093	0.0139499
695.171	0.0139551
695.249	0.0139802
695.328	0.0141705
695.406	0.0142413
695.484	0.0143790
695.562	0.0143489
695.640	0.0142843
695.718	0.0145562
695.796	0.0145214
695.874	0.0143777
695.953	0.0145303
696.031	0.0144551
696.109	0.0142869
696.187	0.0143247
696.265	0.0143081
696.343	0.0140992
696.421	0.0140497
696.499	0.0140176
696.578	0.0140038
696.656	0.0138320
696.734	0.0138276
696.812	0.0137576
696.890	0.0138762
696.968	0.0136993
697.046	0.0136617
697.124	0.0138424
697.203	0.0138111
697.281	0.0138787
697.359	0.0137859
697.437	0.0140300
697.515	0.0141908
697.593	0.0141465
697.671	0.0142651
697.749	0.0142614
697.828	0.0142898
697.906	0.0142812
697.984	0.0144867
698.062	0.0143591
698.140	0.0145230
698.218	0.0144308
698.296	0.0142401
698.374	0.0141893
698.453	0.0142793
698.531	0.0141290
698.609	0.0142587
698.687	0.0141017
698.765	0.0139864
698.843	0.0140559
698.921	0.0137305
698.999	0.0138972
699.078	0.0138765
699.156	0.0138219
699.234	0.0138534
699.312	0.0139787
699.390	0.0140194
699.468	0.0139988
699.546	0.0139140
699.624	0.0141602
699.703	0.0141634
699.781	0.0140189
699.859	0.0141578
699.937	0.0141920
700.015	0.0142470
700.093	0.0142978
700.171	0.0142866
700.249	0.0143348
700.328	0.0143974
700.406	0.0143836
700.484	0.0143081
700.562	0.0143932
700.640	0.0142231
700.718	0.0142206
700.796	0.0140679
700.874	0.0142660
700.953	0.0142452
701.031	0.0142100
701.109	0.0141942
701.187	0.0141721
701.265	0.0141172
701.343	0.0141869
701.421	0.0141355
701.499	0.0142084
701.578	0.0140334
701.656	0.0140894
701.734	0.0140652
701.812	0.0139181
701.890	0.0139905
701.968	0.0139383
702.046	0.0139087
702.124	0.0138583
702.203	0.0138847
702.281	0.0138722
702.359	0.0139111
702.437	0.0140136
702.515	0.0140446
702.593	0.0139345
702.671	0.0140009
702.749	0.0141412
702.828	0.0140445
702.906	0.0143058
702.984	0.0142472
703.062	0.0142030
703.140	0.0142699
703.218	0.0142294
703.296	0.0141886
703.374	0.0143127
703.453	0.0142424
703.531	0.0142713
703.609	0.0143934
703.687	0.0143626
703.765	0.0141798
703.843	0.0140204
703.921	0.0141046
703.999	0.0141462
704.078	0.0141480
704.156	0.0140576
704.234	0.0139258
704.312	0.0138433
704.390	0.0138440
704.468	0.0138548
704.546	0.0138970
704.624	0.0136668
704.703	0.0137743
704.781	0.0138705
704.859	0.0139505
704.937	0.0139513
705.015	0.0139133
705.093	0.0138940
705.171	0.0140138
705.249	0.0141064
705.328	0.0138743
705.406	0.0140594
705.484	0.0140393
705.562	0.0141058
705.640	0.0141397
705.718	0.0139511
705.796	0.0140613
705.874	0.0140224
705.953	0.0140432
706.031	0.0139400
706.109	0.0139649
706.187	0.0138995
706.265	0.0140211
706.343	0.0141546
706.421	0.0139878
706.499	0.0139567
706.578	0.0140761
706.656	0.0141821
706.734	0.0142233
706.812	0.0141273
706.890	0.0141740
706.968	0.0142116
707.046	0.0140971
707.124	0.0142006
707.203	0.0141873
707.281	0.0140577
707.359	0.0139393
707.437	0.0139162
707.515	0.0139776
707.593	0.0138596
707.671	0.0137578
707.749	0.0139154
707.828	0.0138684
707.906	0.0138570
707.984	0.0140171
708.062	0.0138890
708.140	0.0139529
708.218	0.0137608
708.296	0.0138750
708.374	0.0137578
708.453	0.0139452
708.531	0.0139854
708.609	0.0139290
708.687	0.0139412
708.765	0.0140018
708.843	0.0139394
708.921	0.0138798
708.999	0.0140357
709.078	0.0140879
709.156	0.0140269
709.234	0.0138858
709.312	0.0138388
709.390	0.0139494
709.468	0.0138846
709.546	0.0138387
709.624	0.0137630
709.703	0.0136378
709.781	0.0137582
709.859	0.0138574
709.937	0.0137084
710.015	0.0137357
710.093	0.0137975
710.171	0.0139629
710.249	0.0138878
710.328	0.0140434
710.406	0.0140534
710.484	0.0140854
710.562	0.0142660
710.640	0.0141812
710.718	0.0142074
710.796	0.0142971
710.874	0.0141611
710.953	0.0141380
711.031	0.0142310
711.109	0.0140945
711.187	0.0141529
711.265	0.0139408
711.343	0.0140598
711.421	0.0140037
711.499	0.0140180
711.578	0.0140011
711.656	0.0140024
711.734	0.0139734
711.812	0.0140849
711.890	0.0139777
711.968	0.0140665
712.046	0.0139608
712.124	0.0140495
712.203	0.0141640
712.281	0.0140653
712.359	0.0140800
712.437	0.0140607
712.515	0.0140226
712.593	0.0140289
712.671	0.0141470
712.749	0.0142121
712.828	0.0140820
712.906	0.0140710
712.984	0.0140081
713.062	0.0139929
713.140	0.0138854
713.218	0.0140021
713.296	0.0138850
713.374	0.0139183
713.453	0.0139778
713.531	0.0138454
713.609	0.0139872
713.687	0.0140440
713.765	0.0140777
713.843	0.0139980
713.921	0.0139349
713.999	0.0140796
714.078	0.0140152
714.156	0.0140588
714.234	0.0139983
714.312	0.0140273
714.390	0.0140453
714.468	0.0141969
714.546	0.0140490
714.624	0.0140752
714.703	0.0140737
714.781	0.0139865
714.859	0.0139542
714.937	0.0140458
715.015	0.0140385
715.093	0.0137984
715.171	0.0140218
715.249	0.0139288
715.328	0.0140096
715.406	0.0140803
715.484	0.0139445
715.562	0.0140083
715.640	0.0139469
715.718	0.0140088
715.796	0.0139151
715.874	0.0140177
715.953	0.0141837
716.031	0.0141024
716.109	0.0140806
716.187	0.0140018
716.265	0.0141504
716.343	0.0139913
716.421	0.0141631
716.499	0.0140670
716.578	0.0140712
716.656	0.0140904
716.734	0.0140701
716.812	0.0140063
716.890	0.0140184
716.968	0.0139737
717.046	0.0140923
717.124	0.0141022
717.203	0.0140084
717.281	0.0138751
717.359	0.0139259
717.437	0.0139980
717.515	0.0139013
717.593	0.0139870
717.671	0.0139489
717.749	0.0140287
717.828	0.0141754
717.906	0.0141597
717.984	0.0142464
718.062	0.0141160
718.140	0.0141190
718.218	0.0142792
718.296	0.0142368
718.374	0.0141917
718.453	0.0142793
718.531	0.0142518
718.609	0.0142991
718.687	0.0143814
718.765	0.0141737
718.843	0.0141502
718.921	0.0142002
718.999	0.0142153
719.078	0.0141634
719.156	0.0141090
719.234	0.0139935
719.312	0.0140210
719.390	0.0140522
719.468	0.0139284
719.546	0.0138994
719.624	0.0138496
719.703	0.0138212
719.781	0.0139794
719.859	0.0138741
719.937	0.0138374
720.015	0.0141209
720.093	0.0140108
720.171	0.0139162
720.249	0.0141267
720.328	0.0142033
720.406	0.0142300
720.484	0.0140816
720.562	0.0141676
720.640	0.0141201
720.718	0.0141582
720.796	0.0141003
720.874	0.0141451
720.953	0.0141835
721.031	0.0139562
721.109	0.0140928
721.187	0.0142449
721.265	0.0142524
721.343	0.0141648
721.421	0.0140839
721.499	0.0140630
721.578	0.0141582
721.656	0.0141719
721.734	0.0141882
721.812	0.0142749
721.890	0.0142352
721.968	0.0141395
722.046	0.0142774
722.124	0.0142509
722.203	0.0141395
722.281	0.0140408
722.359	0.0141154
722.437	0.0142494
722.515	0.0142770
722.593	0.0141297
722.671	0.0141666
722.749	0.0141962
722.828	0.0141047
722.906	0.0143020
722.984	0.0142424
723.062	0.0141998
723.140	0.0142815
723.218	0.0142236
723.296	0.0142471
723.374	0.0140900
723.453	0.0142420
723.531	0.0143047
723.609	0.0142078
723.687	0.0140981
723.765	0.0142243
723.843	0.0142562
723.921	0.0142593
723.999	0.0142162
724.078	0.0141124
724.156	0.0142323
724.234	0.0142589
724.312	0.0140985
724.390	0.0141129
724.468	0.0139921
724.546	0.0139690
724.624	0.0139401
724.703	0.0141429
724.781	0.0140796
724.859	0.0140328
724.937	0.0139202
725.015	0.0140587
725.093	0.0139970
725.171	0.0139085
725.249	0.0139503
725.328	0.0139260
725.406	0.0138659
725.484	0.0141257
725.562	0.0140800
725.640	0.0139503
725.718	0.0140714
725.796	0.0140955
725.874	0.0142400
725.953	0.0142405
726.031	0.0141335
726.109	0.0141362
726.187	0.0141682
726.265	0.0142784
726.343	0.0142208
726.421	0.0141118
726.499	0.0141887
726.578	0.0141880
726.656	0.0144014
726.734	0.0140456
726.812	0.0140998
726.890	0.0141736
726.968	0.0141261
727.046	0.0142204
727.124	0.0140659
727.203	0.0140813
727.281	0.0141238
727.359	0.0140877
727.437	0.0138562
727.515	0.0138294
727.593	0.0139645
727.671	0.0138469
727.749	0.0139876
727.828	0.0140634
727.906	0.0139864
727.984	0.0139429
728.062	0.0140428
728.140	0.0140087
728.218	0.0139668
728.296	0.0139931
728.374	0.0140247
728.453	0.0139872
728.531	0.0140645
728.609	0.0139665
728.687	0.0139749
728.765	0.0141251
728.843	0.0141852
728.921	0.0138950
728.999	0.0141008
729.078	0.0140569
729.156	0.0140808
729.234	0.0141598
729.312	0.0140594
729.390	0.0139560
729.468	0.0140573
729.546	0.0139348
729.624	0.0140305
729.703	0.0139278
729.781	0.0140285
729.859	0.0140213
729.937	0.0139415
730.015	0.0138286
730.093	0.0138667
730.171	0.0138658
730.249	0.0137794
730.328	0.0139223
730.406	0.0139308
730.484	0.0138556
730.562	0.0138940
730.640	0.0139307
730.718	0.0139890
730.796	0.0140743
730.874	0.0140286
730.953	0.0141329
731.031	0.0141179
731.109	0.0141978
731.187	0.0141522
731.265	0.0142587
731.343	0.0142033
731.421	0.0143561
731.499	0.0142284
731.578	0.0140214
731.656	0.0141268
731.734	0.0140640
731.812	0.0140186
731.890	0.0141740
731.968	0.0140091
732.046	0.0138724
732.124	0.0138888
732.203	0.0139407
732.281	0.0139301
732.359	0.0138979
732.437	0.0138391
732.515	0.0139783
732.593	0.0139478
732.671	0.0139349
732.749	0.0138254
732.828	0.0137947
732.906	0.0138825
732.984	0.0139323
733.062	0.0138877
733.140	0.0139598
733.218	0.0139246
733.296	0.0139663
733.374	0.0139946
733.453	0.0139511
733.531	0.0141896
733.609	0.0140519
733.687	0.0141069
733.765	0.0140047
733.843	0.0141212
733.921	0.0139772
733.999	0.0141624
734.078	0.0142790
734.156	0.0142173
734.234	0.0140129
734.312	0.0140544
734.390	0.0140986
734.468	0.0140902
734.546	0.0140179
734.624	0.0140833
734.703	0.0142007
734.781	0.0140936
734.859	0.0139809
734.937	0.0139463
735.015	0.0140432
735.093	0.0139507
735.171	0.0139897
735.249	0.0138988
735.328	0.0140087
735.406	0.0140702
735.484	0.0139561
735.562	0.0139638
735.640	0.0139970
735.718	0.0140105
735.796	0.0140419
735.874	0.0139673
735.953	0.0140808
736.031	0.0141188
736.109	0.0142338
736.187	0.0141335
736.265	0.0139439
736.343	0.0142728
736.421	0.0141171
736.499	0.0140327
736.578	0.0141224
736.656	0.0140792
736.734	0.0142592
736.812	0.0140964
736.890	0.0141188
736.968	0.0140081
737.046	0.0141110
737.124	0.0141612
737.203	0.0140897
737.281	0.0140516
737.359	0.0140337
737.437	0.0141055
737.515	0.0139423
737.593	0.0139744
737.671	0.0139420
737.749	0.0138607
737.828	0.0140403
737.906	0.0140300
737.984	0.0139919
738.062	0.0141028
738.140	0.0140810
738.218	0.0138767
738.296	0.0138859
738.374	0.0139724
738.453	0.0139900
738.531	0.0139471
738.609	0.0139522
738.687	0.0137723
738.765	0.0139598
738.843	0.0139692
738.921	0.0137730
738.999	0.0138335
739.078	0.0141698
739.156	0.0141250
739.234	0.0141076
739.312	0.0141184
739.390	0.0140851
739.468	0.0139914
739.546	0.0140931
739.624	0.0141053
739.703	0.0141499
739.781	0.0141161
739.859	0.0140063
739.937	0.0140270
740.015	0.0140438
740.093	0.0140475
740.171	0.0140910
740.249	0.0140157
740.328	0.0139459
740.406	0.0140241
740.484	0.0139332
740.562	0.0139893
740.640	0.0140327
740.718	0.0139912
740.796	0.0140135
740.874	0.0139706
740.953	0.0139890
741.031	0.0140089
741.109	0.0139818
741.187	0.0139536
741.265	0.0140445
741.343	0.0140221
741.421	0.0141569
741.499	0.0140181
741.578	0.0139279
741.656	0.0140392
741.734	0.0140211
741.812	0.0140859
741.890	0.0142215
741.968	0.0139399
742.046	0.0140189
742.124	0.0142109
742.203	0.0139862
742.281	0.0139822
742.359	0.0141278
742.437	0.0142142
742.515	0.0142046
742.593	0.0140566
742.671	0.0140736
742.749	0.0141438
742.828	0.0140964
742.906	0.0141505
742.984	0.0141258
743.062	0.0140044
743.140	0.0142609
743.218	0.0141149
743.296	0.0141717
743.374	0.0139682
743.453	0.0141515
743.531	0.0140266
743.609	0.0141322
743.687	0.0141190
743.765	0.0141026
743.843	0.0142791
743.921	0.0141071
743.999	0.0141193
744.078	0.0141759
744.156	0.0140916
744.234	0.0141712
744.312	0.0141880
744.390	0.0141897
744.468	0.0141692
744.546	0.0140981
744.624	0.0141329
744.703	0.0140430
744.781	0.0141913
744.859	0.0143229
744.937	0.0141113
745.015	0.0141222
745.093	0.0139961
745.171	0.0141219
745.249	0.0139783
745.328	0.0140900
745.406	0.0140987
745.484	0.0140322
745.562	0.0141051
745.640	0.0139601
745.718	0.0139339
745.796	0.0141216
745.874	0.0141655
745.953	0.0140862
746.031	0.0138373
746.109	0.0140654
746.187	0.0139922
746.265	0.0139474
746.343	0.0139375
746.421	0.0140663
746.499	0.0140816
746.578	0.0141727
746.656	0.0142055
746.734	0.0141819
746.812	0.0139155
746.890	0.0141958
746.968	0.0141527
747.046	0.0141203
747.124	0.0142184
747.203	0.0140933
747.281	0.0140639
747.359	0.0142513
747.437	0.0141787
747.515	0.0141707
747.593	0.0141487
747.671	0.0139946
747.749	0.0139391
747.828	0.0140794
747.906	0.0140403
747.984	0.0138528
748.062	0.0139374
748.140	0.0139867
748.218	0.0139680
748.296	0.0139330
748.374	0.0139415
748.453	0.0139709
748.531	0.0141064
748.609	0.0140310
748.687	0.0140479
748.765	0.0140938
748.843	0.0140530
748.921	0.0140836
748.999	0.0141244
749.078	0.0141254
749.156	0.0140411
749.234	0.0141618
749.312	0.0141506
749.390	0.0141316
749.468	0.0140745
749.546	0.0140615
749.624	0.0140440
749.703	0.0140471
749.781	0.0141168
749.859	0.0140658
749.937	0.0139861
750.015	0.0139949
750.093	0.0140240
750.171	0.0140618
750.249	0.0140775
750.328	0.0140305
750.406	0.0139546
750.484	0.0139765
750.562	0.0139951
750.640	0.0141128
750.718	0.0140154
750.796	0.0141412
750.874	0.0140982
750.953	0.0141775
751.031	0.0141251
751.109	0.0141348
751.187	0.0139500
751.265	0.0142110
751.343	0.0139825
751.421	0.0141252
751.499	0.0141004
751.578	0.0141226
751.656	0.0140575
751.734	0.0141020
751.812	0.0140453
751.890	0.0139883
751.968	0.0140388
752.046	0.0139698
752.124	0.0138862
752.203	0.0139880
752.281	0.0139848
752.359	0.0139826
752.437	0.0140273
752.515	0.0141056
752.593	0.0140198
752.671	0.0139636
752.749	0.0139542
752.828	0.0139638
752.906	0.0138509
752.984	0.0140074
753.062	0.0140360
753.140	0.0139605
753.218	0.0139473
753.296	0.0139738
753.374	0.0141061
753.453	0.0139674
753.531	0.0140833
753.609	0.0141002
753.687	0.0138864
753.765	0.0139178
753.843	0.0139919
753.921	0.0138953
753.999	0.0139598
754.078	0.0139108
754.156	0.0139267
754.234	0.0138315
754.312	0.0139967
754.390	0.0139155
754.468	0.0139735
754.546	0.0141167
754.624	0.0140067
754.703	0.0139530
754.781	0.0140056
754.859	0.0140893
754.937	0.0140685
755.015	0.0140477
755.093	0.0140524
755.171	0.0140436
755.249	0.0139616
755.328	0.0139178
755.406	0.0139469
755.484	0.0140177
755.562	0.0140865
755.640	0.0139976
755.718	0.0140420
755.796	0.0139898
755.874	0.0137803
755.953	0.0138666
756.031	0.0139389
756.109	0.0138806
756.187	0.0139081
756.265	0.0138360
756.343	0.0138470
756.421	0.0139648
756.499	0.0138090
756.578	0.0138815
756.656	0.0138172
756.734	0.0139528
756.812	0.0138172
756.890	0.0138093
756.968	0.0138309
757.046	0.0138754
757.124	0.0138788
757.203	0.0140063
757.281	0.0139199
757.359	0.0138721
757.437	0.0139247
757.515	0.0138361
757.593	0.0138984
757.671	0.0139129
757.749	0.0140778
757.828	0.0139877
757.906	0.0140289
757.984	0.0140143
758.062	0.0138592
758.140	0.0140169
758.218	0.0140479
758.296	0.0139916
758.374	0.0137951
758.453	0.0140472
758.531	0.0140748
758.609	0.0138747
758.687	0.0138976
758.765	0.0139555
758.843	0.0137346
758.921	0.0139404
758.999	0.0140038
759.078	0.0138400
759.156	0.0139185
759.234	0.0139223
759.312	0.0137955
759.390	0.0138480
759.468	0.0139102
759.546	0.0139179
759.624	0.0140105
759.703	0.0139708
759.781	0.0140128
759.859	0.0140899
759.937	0.0139017
760.015	0.0138578
760.093	0.0140397
760.171	0.0141078
760.249	0.0142040
760.328	0.0139074
760.406	0.0140361
760.484	0.0139957
760.562	0.0140576
760.640	0.0140982
760.718	0.0140410
760.796	0.0141597
760.874	0.0140786
760.953	0.0140862
761.031	0.0140968
761.109	0.0140709
761.187	0.0140762
761.265	0.0140071
761.343	0.0138908
761.421	0.0139021
761.499	0.0139774
761.578	0.0140102
761.656	0.0140990
761.734	0.0140102
761.812	0.0140438
761.890	0.0141046
761.968	0.0140255
762.046	0.0140519
762.124	0.0140656
762.203	0.0141952
762.281	0.0141745
762.359	0.0142406
762.437	0.0140571
762.515	0.0139685
762.593	0.0140994
762.671	0.0140890
762.749	0.0141316
762.828	0.0139857
762.906	0.0140951
762.984	0.0140912
763.062	0.0142151
763.140	0.0141180
763.218	0.0140897
763.296	0.0139226
763.374	0.0140739
763.453	0.0140524
763.531	0.0141128
763.609	0.0139955
763.687	0.0139857
763.765	0.0140244
763.843	0.0141723
763.921	0.0140834
763.999	0.0141541
764.078	0.0140428
764.156	0.0141267
764.234	0.0141295
764.312	0.0140211
764.390	0.0141023
764.468	0.0141710
764.546	0.0142101
764.624	0.0142035
764.703	0.0140829
764.781	0.0142525
764.859	0.0142406
764.937	0.0140881
765.015	0.0141320
765.093	0.0141599
765.171	0.0142241
765.249	0.0140543
765.328	0.0140785
765.406	0.0141763
765.484	0.0141862
765.562	0.0142260
765.640	0.0140398
765.718	0.0141673
765.796	0.0142873
765.874	0.0139660
765.953	0.0141743
766.031	0.0141235
766.109	0.0140161
766.187	0.0140953
766.265	0.0140592
766.343	0.0141660
766.421	0.0140070
766.499	0.0140777
766.578	0.0139795
766.656	0.0140843
766.734	0.0140829
766.812	0.0139316
766.890	0.0140921
766.968	0.0140086
767.046	0.0140606
767.124	0.0140134
767.203	0.0139727
767.281	0.0140592
767.359	0.0141470
767.437	0.0140296
767.515	0.0140508
767.593	0.0140958
767.671	0.0140913
767.749	0.0140776
767.828	0.0140141
767.906	0.0142065
767.984	0.0142515
768.062	0.0142376
768.140	0.0142664
768.218	0.0142722
768.296	0.0143744
768.374	0.0142858
768.453	0.0143873
768.531	0.0141374
768.609	0.0142880
768.687	0.0142983
768.765	0.0142934
768.843	0.0143059
768.921	0.0144237
768.999	0.0142743
769.078	0.0142162
769.156	0.0142991
769.234	0.0142939
769.312	0.0142294
769.390	0.0141894
769.468	0.0141907
769.546	0.0141193
769.624	0.0140477
769.703	0.0140328
769.781	0.0140695
769.859	0.0139687
769.937	0.0139210
770.015	0.0139796
770.093	0.0138897
770.171	0.0138326
770.249	0.0139784
770.328	0.0140493
770.406	0.0139229
770.484	0.0139520
770.562	0.0140692
770.640	0.0141138
770.718	0.0141451
770.796	0.0141806
770.874	0.0142566
770.953	0.0143190
771.031	0.0143295
771.109	0.0143464
771.187	0.0142583
771.265	0.0144242
771.343	0.0143519
771.421	0.0143088
771.499	0.0143724
771.578	0.0140525
771.656	0.0142561
771.734	0.0143081
771.812	0.0142782
771.890	0.0140903
771.968	0.0141380
772.046	0.0141045
772.124	0.0140277
772.203	0.0141234
772.281	0.0140614
772.359	0.0139629
772.437	0.0139200
772.515	0.0138590
772.593	0.0139468
772.671	0.0139770
772.749	0.0139664
772.828	0.0140555
772.906	0.0139707
772.984	0.0139845
773.062	0.0138531
773.140	0.0139711
773.218	0.0138820
773.296	0.0139362
773.374	0.0139003
773.453	0.0139486
773.531	0.0139526
773.609	0.0138577
773.687	0.0138839
773.765	0.0137919
773.843	0.0138136
773.921	0.0139086
773.999	0.0139298
774.078	0.0139061
774.156	0.0140141
774.234	0.0140490
774.312	0.0140285
774.390	0.0140434
774.468	0.0140206
774.546	0.0139995
774.624	0.0141380
774.703	0.0141139
774.781	0.0139964
774.859	0.0141254
774.937	0.0141422
775.015	0.0141313
775.093	0.0139503
775.171	0.0140142
775.249	0.0141567
775.328	0.0140699
775.406	0.0139130
775.484	0.0140189
775.562	0.0139446
775.640	0.0139995
775.718	0.0140480
775.796	0.0137817
775.874	0.0139298
775.953	0.0138830
776.031	0.0139180
776.109	0.0137905
776.187	0.0137813
776.265	0.0138074
776.343	0.0138942
776.421	0.0138338
776.499	0.0139835
776.578	0.0139193
776.656	0.0138799
776.734	0.0138396
776.812	0.0137968
776.890	0.0140543
776.968	0.0138834
777.046	0.0139119
777.124	0.0140089
777.203	0.0139603
777.281	0.0140359
777.359	0.0141177
777.437	0.0139687
777.515	0.0140538
777.593	0.0139754
777.671	0.0138219
777.749	0.0138686
777.828	0.0139457
777.906	0.0138361
777.984	0.0138093
778.062	0.0139838
778.140	0.0137748
778.218	0.0139313
778.296	0.0138739
778.374	0.0138380
778.453	0.0139490
778.531	0.0138941
778.609	0.0138561
778.687	0.0140362
778.765	0.0140034
778.843	0.0140221
778.921	0.0141163
778.999	0.0139357
779.078	0.0139910
779.156	0.0140952
779.234	0.0140083
779.312	0.0139930
779.390	0.0140192
779.468	0.0140916
779.546	0.0139076
779.624	0.0139256
779.703	0.0140162
779.781	0.0139689
779.859	0.0139416
779.937	0.0140149
780.015	0.0137695
780.093	0.0138517
780.171	0.0138963
780.249	0.0139892
780.328	0.0139375
780.406	0.0138214
780.484	0.0138918
780.562	0.0137917
780.640	0.0137813
780.718	0.0137235
780.796	0.0138419
780.874	0.0137947
780.953	0.0137359
781.031	0.0138496
781.109	0.0138626
781.187	0.0138168
781.265	0.0140094
781.343	0.0138735
781.421	0.0139512
781.499	0.0138956
781.578	0.0140471
781.656	0.0140340
781.734	0.0139014
781.812	0.0140163
781.890	0.0139971
781.968	0.0138827
782.046	0.0138773
782.124	0.0139860
782.203	0.0139645
782.281	0.0139860
782.359	0.0140320
782.437	0.0138300
782.515	0.0137586
782.593	0.0138293
782.671	0.0138931
782.749	0.0137599
782.828	0.0138663
782.906	0.0139137
782.984	0.0140626
783.062	0.0139594
783.140	0.0138589
783.218	0.0139398
783.296	0.0139770
783.374	0.0140057
783.453	0.0140249
783.531	0.0138762
783.609	0.0140640
783.687	0.0140125
783.765	0.0139140
783.843	0.0140447
783.921	0.0139190
783.999	0.0138754
784.078	0.0140367
784.156	0.0140524
784.234	0.0139655
784.312	0.0139417
784.390	0.0140060
784.468	0.0139809
784.546	0.0139204
784.624	0.0139094
784.703	0.0138820
784.781	0.0139527
784.859	0.0140524
784.937	0.0140157
785.015	0.0138905
785.093	0.0141080
785.171	0.0141077
785.249	0.0139356
785.328	0.0139900
785.406	0.0141612
785.484	0.0142467
785.562	0.0140775
785.640	0.0140973
785.718	0.0138838
785.796	0.0138283
785.874	0.0141227
785.953	0.0141026
786.031	0.0140923
786.109	0.0139571
786.187	0.0140253
786.265	0.0139536
786.343	0.0140338
786.421	0.0140201
786.499	0.0139504
786.578	0.0139429
786.656	0.0139592
786.734	0.0139358
786.812	0.0138825
786.890	0.0140701
786.968	0.0138326
787.046	0.0137874
787.124	0.0139261
787.203	0.0139050
787.281	0.0138311
787.359	0.0139112
787.437	0.0137664
787.515	0.0137678
787.593	0.0139036
787.671	0.0138925
787.749	0.0139481
787.828	0.0139009
787.906	0.0139507
787.984	0.0139698
788.062	0.0140681
788.140	0.0141619
788.218	0.0141307
788.296	0.0141603
788.374	0.0143581
788.453	0.0143194
788.531	0.0142139
788.609	0.0141549
788.687	0.0142713
788.765	0.0140932
788.843	0.0141737
788.921	0.0141770
788.999	0.0141086
789.078	0.0142336
789.156	0.0142661
789.234	0.0141994
789.312	0.0142323
789.390	0.0142422
789.468	0.0141002
789.546	0.0142129
789.624	0.0141859
789.703	0.0140665
789.781	0.0141188
789.859	0.0141663
789.937	0.0141357
790.015	0.0141859
790.093	0.0141393
790.171	0.0142324
790.249	0.0143286
790.328	0.0141924
790.406	0.0142265
790.484	0.0142102
790.562	0.0142146
790.640	0.0142425
790.718	0.0142105
790.796	0.0140626
790.874	0.0140453
790.953	0.0141449
791.031	0.0140723
791.109	0.0140083
791.187	0.0140504
791.265	0.0140527
791.343	0.0140105
791.421	0.0140005
791.499	0.0140033
791.578	0.0140535
791.656	0.0140454
791.734	0.0139812
791.812	0.0141845
791.890	0.0142609
791.968	0.0141843
792.046	0.0141524
792.124	0.0142508
792.203	0.0142968
792.281	0.0141149
792.359	0.0142381
792.437	0.0143575
792.515	0.0143525
792.593	0.0141157
792.671	0.0139853
792.749	0.0141813
792.828	0.0142653
792.906	0.0141425
792.984	0.0141290
793.062	0.0139986
793.140	0.0141109
793.218	0.0140376
793.296	0.0138936
793.374	0.0140190
793.453	0.0139631
793.531	0.0140520
793.609	0.0139796
793.687	0.0138289
793.765	0.0138731
793.843	0.0139717
793.921	0.0140942
793.999	0.0140054
794.078	0.0139649
794.156	0.0141244
794.234	0.0140890
794.312	0.0141630
794.390	0.0141008
794.468	0.0140453
794.546	0.0141698
794.624	0.0141986
794.703	0.0142303
794.781	0.0143204
794.859	0.0142457
794.937	0.0142726
795.015	0.0142750
795.093	0.0141761
795.171	0.0141753
795.249	0.0142471
795.328	0.0143417
795.406	0.0143900
795.484	0.0143638
795.562	0.0142528
795.640	0.0141585
795.718	0.0141774
795.796	0.0142507
795.874	0.0141940
795.953	0.0141576
796.031	0.0139092
796.109	0.0140070
796.187	0.0140331
796.265	0.0139854
796.343	0.0140806
796.421	0.0139358
796.499	0.0139861
796.578	0.0138667
796.656	0.0138895
796.734	0.0139357
796.812	0.0139478
796.890	0.0140224
796.968	0.0139829
797.046	0.0140517
797.124	0.0141409
797.203	0.0140820
797.281	0.0142013
797.359	0.0141397
797.437	0.0140288
797.515	0.0141910
797.593	0.0142438
797.671	0.0142522
797.749	0.0140907
797.828	0.0140913
797.906	0.0141772
797.984	0.0142735
798.062	0.0140789
798.140	0.0141727
798.218	0.0141353
798.296	0.0140796
798.374	0.0141595
798.453	0.0140717
798.531	0.0141503
798.609	0.0142295
798.687	0.0142712
798.765	0.0141866
798.843	0.0140784
798.921	0.0142309
798.999	0.0141724
799.078	0.0142945
799.156	0.0142277
799.234	0.0141822
799.312	0.0141773
799.390	0.0142599
799.468	0.0141892
799.546	0.0140559
799.624	0.0139588
799.703	0.0140819
799.781	0.0140105
799.859	0.0138246
799.937	0.0138676
800.015	0.0139380
800.093	0.0140233
800.171	0.0139713
800.249	0.0138271
800.328	0.0138820
800.406	0.0139378
800.484	0.0141183
800.562	0.0139741
800.640	0.0139352
800.718	0.0139809
800.796	0.0141071
800.874	0.0140364
800.953	0.0140024
801.031	0.0141199
801.109	0.0141505
801.187	0.0140845
801.265	0.0141168
801.343	0.0140672
801.421	0.0140987
801.499	0.0141609
801.578	0.0141329
801.656	0.0141619
801.734	0.0141439
801.812	0.0140945
801.890	0.0141204
801.968	0.0141082
802.046	0.0141711
802.124	0.0142566
802.203	0.0142656
802.281	0.0141837
802.359	0.0141264
802.437	0.0142783
802.515	0.0143542
802.593	0.0141933
802.671	0.0141780
802.749	0.0141625
802.828	0.0142186
802.906	0.0141755
802.984	0.0140209
803.062	0.0141868
803.140	0.0141107
803.218	0.0141756
803.296	0.0141120
803.374	0.0140851
803.453	0.0141437
803.531	0.0140115
803.609	0.0139951
803.687	0.0140723
803.765	0.0139668
803.843	0.0139950
803.921	0.0139005
803.999	0.0138630
804.078	0.0139425
804.156	0.0140836
804.234	0.0140382
804.312	0.0139061
804.390	0.0139482
804.468	0.0138545
804.546	0.0140160
804.624	0.0139363
804.703	0.0140240
804.781	0.0140158
804.859	0.0140005
804.937	0.0139595
805.015	0.0140420
805.093	0.0140504
805.171	0.0142036
805.249	0.0140516
805.328	0.0140546
805.406	0.0140402
805.484	0.0140328
805.562	0.0141142
805.640	0.0142373
805.718	0.0140159
805.796	0.0141254
805.874	0.0142352
805.953	0.0142149
806.031	0.0139903
806.109	0.0140371
806.187	0.0139679
806.265	0.0140936
806.343	0.0141210
806.421	0.0140275
806.499	0.0139195
806.578	0.0138960
806.656	0.0139156
806.734	0.0138665
806.812	0.0136650
806.890	0.0137047
806.968	0.0138820
807.046	0.0138490
807.124	0.0137857
807.203	0.0138506
807.281	0.0137838
807.359	0.0137775
807.437	0.0138517
807.515	0.0139249
807.593	0.0138548
807.671	0.0139687
807.749	0.0140390
807.828	0.0139414
807.906	0.0140533
807.984	0.0140005
808.062	0.0139261
808.140	0.0140002
808.218	0.0140947
808.296	0.0138293
808.374	0.0140130
808.453	0.0139284
808.531	0.0139517
808.609	0.0139693
808.687	0.0138370
808.765	0.0138838
808.843	0.0140332
808.921	0.0140031
808.999	0.0139755
809.078	0.0139471
809.156	0.0138592
809.234	0.0140099
809.312	0.0138846
809.390	0.0138904
809.468	0.0139916
809.546	0.0139225
809.624	0.0139095
809.703	0.0138123
809.781	0.0138036
809.859	0.0139647
809.937	0.0141196
810.015	0.0138051
810.093	0.0138017
810.171	0.0140279
810.249	0.0137982
810.328	0.0137663
810.406	0.0139581
810.484	0.0139198
810.562	0.0139989
810.640	0.0139123
810.718	0.0138373
810.796	0.0137966
810.874	0.0139380
810.953	0.0139883
811.031	0.0137817
811.109	0.0138803
811.187	0.0140761
811.265	0.0139095
811.343	0.0138745
811.421	0.0138530
811.499	0.0139914
811.578	0.0140968
811.656	0.0141049
811.734	0.0139539
811.812	0.0139632
811.890	0.0139510
811.968	0.0139846
812.046	0.0140016
812.124	0.0140342
812.203	0.0140124
812.281	0.0140324
812.359	0.0141512
812.437	0.0139247
812.515	0.0141982
812.593	0.0139468
812.671	0.0140652
812.749	0.0141882
812.828	0.0140167
812.906	0.0142492
812.984	0.0141814
813.062	0.0141938
813.140	0.0141084
813.218	0.0141224
813.296	0.0141003
813.374	0.0140842
813.453	0.0141817
813.531	0.0141119
813.609	0.0140046
813.687	0.0139503
813.765	0.0139712
813.843	0.0140792
813.921	0.0140604
813.999	0.0141367
814.078	0.0139438
814.156	0.0139030
814.234	0.0138929
814.312	0.0139856
814.390	0.0142282
814.468	0.0140002
814.546	0.0138832
814.624	0.0140028
814.703	0.0140091
814.781	0.0140263
814.859	0.0140263
814.937	0.0139375
815.015	0.0140374
815.093	0.0141218
815.171	0.0140438
815.249	0.0140147
815.328	0.0141292
815.406	0.0141694
815.484	0.0141428
815.562	0.0140250
815.640	0.0141116
815.718	0.0142844
815.796	0.0141943
815.874	0.0142444
815.953	0.0141871
816.031	0.0142410
816.109	0.0142963
816.187	0.0144180
816.265	0.0143732
816.343	0.0142808
816.421	0.0141330
816.499	0.0142055
816.578	0.0142292
816.656	0.0141705
816.734	0.0142732
816.812	0.0142146
816.890	0.0140885
816.968	0.0141287
817.046	0.0141920
817.124	0.0141302
817.203	0.0139223
817.281	0.0139343
817.359	0.0139448
817.437	0.0139136
817.515	0.0138746
817.593	0.0139529
817.671	0.0140952
817.749	0.0140309
817.828	0.0140010
817.906	0.0140858
817.984	0.0140612
818.062	0.0142624
818.140	0.0141487
818.218	0.0140778
818.296	0.0140628
818.374	0.0141920
818.453	0.0141595
818.531	0.0141920
818.609	0.0142567
818.687	0.0141475
818.765	0.0142429
818.843	0.0141238
818.921	0.0141731
818.999	0.0142122
819.078	0.0142375
819.156	0.0141318
819.234	0.0142341
819.312	0.0143600
819.390	0.0142079
819.468	0.0141660
819.546	0.0141840
819.624	0.0141455
819.703	0.0142539
819.781	0.0143024
819.859	0.0141297
819.937	0.0140688
820.015	0.0142196
820.093	0.0143285
820.171	0.0142723
820.249	0.0142014
820.328	0.0141877
820.406	0.0141146
820.484	0.0140158
820.562	0.0140948
820.640	0.0142395
820.718	0.0142293
820.796	0.0142248
820.874	0.0139792
820.953	0.0141521
821.031	0.0141583
821.109	0.0141055
821.187	0.0141589
821.265	0.0141534
821.343	0.0142609
821.421	0.0141828
821.499	0.0142400
821.578	0.0141731
821.656	0.0141480
821.734	0.0141309
821.812	0.0141745
821.890	0.0141893
821.968	0.0141857
822.046	0.0140237
822.124	0.0139607
822.203	0.0141495
822.281	0.0142131
822.359	0.0141235
822.437	0.0141282
822.515	0.0140231
822.593	0.0140587
822.671	0.0140983
822.749	0.0141963
822.828	0.0140826
822.906	0.0141161
822.984	0.0142146
823.062	0.0140825
823.140	0.0139673
823.218	0.0139935
823.296	0.0141322
823.374	0.0143422
823.453	0.0141909
823.531	0.0141890
823.609	0.0140375
823.687	0.0141837
823.765	0.0141943
823.843	0.0141984
823.921	0.0141428
823.999	0.0140297
824.078	0.0141810
824.156	0.0142252
824.234	0.0141453
824.312	0.0140694
824.390	0.0141820
824.468	0.0140595
824.546	0.0140466
824.624	0.0141068
824.703	0.0141757
824.781	0.0141064
824.859	0.0139893
824.937	0.0140857
825.015	0.0140147
825.093	0.0141071
825.171	0.0142223
825.249	0.0141216
825.328	0.0140317
825.406	0.0141410
825.484	0.0141093
825.562	0.0140063
825.640	0.0142249
825.718	0.0141776
825.796	0.0141373
825.874	0.0141922
825.953	0.0141633
826.031	0.0141588
826.109	0.0141484
826.187	0.0143108
826.265	0.0141870
826.343	0.0141489
826.421	0.0141983
826.499	0.0142513
826.578	0.0143050
826.656	0.0142248
826.734	0.0140888
826.812	0.0142198
826.890	0.0141399
826.968	0.0140409
827.046	0.0140362
827.124	0.0140507
827.203	0.0140798
827.281	0.0140529
827.359	0.0141742
827.437	0.0141727
827.515	0.0141059
827.593	0.0140726
827.671	0.0140574
827.749	0.0140353
827.828	0.0139087
827.906	0.0139484
827.984	0.0138852
828.062	0.0140306
828.140	0.0139597
828.218	0.0140044
828.296	0.0141401
828.374	0.0140160
828.453	0.0140178
828.531	0.0140368
828.609	0.0140497
828.687	0.0142185
828.765	0.0142099
828.843	0.0141074
828.921	0.0141090
828.999	0.0141812
829.078	0.0141354
829.156	0.0141976
829.234	0.0142482
829.312	0.0142150
829.390	0.0141410
829.468	0.0141993
829.546	0.0141741
829.624	0.0141454
829.703	0.0141537
829.781	0.0142291
829.859	0.0141626
829.937	0.0140961
830.015	0.0141057
830.093	0.0141069
830.171	0.0141027
830.249	0.0140640
830.328	0.0141402
830.406	0.0140289
830.484	0.0139717
830.562	0.0140018
830.640	0.0139603
830.718	0.0141373
830.796	0.0141120
830.874	0.0137457
830.953	0.0138829
831.031	0.0139812
831.109	0.0138404
831.187	0.0140693
831.265	0.0139108
831.343	0.0140084
831.421	0.0141433
831.499	0.0139649
831.578	0.0140057
831.656	0.0139184
831.734	0.0140264
831.812	0.0140822
831.890	0.0140377
831.968	0.0140192
832.046	0.0140876
832.124	0.0140517
832.203	0.0139930
832.281	0.0139691
832.359	0.0140483
832.437	0.0139225
832.515	0.0139514
832.593	0.0139284
832.671	0.0139365
832.749	0.0139566
832.828	0.0139761
832.906	0.0140220
832.984	0.0140368
833.062	0.0139806
833.140	0.0139705
833.218	0.0138498
833.296	0.0139049
833.374	0.0140282
833.453	0.0140219
833.531	0.0139120
833.609	0.0139854
833.687	0.0139400
833.765	0.0139040
833.843	0.0141290
833.921	0.0140265
833.999	0.0139561
834.078	0.0139842
834.156	0.0139182
834.234	0.0138739
834.312	0.0138639
834.390	0.0139432
834.468	0.0138865
834.546	0.0138180
834.624	0.0138538
834.703	0.0138510
834.781	0.0139298
834.859	0.0138524
834.937	0.0137946
835.015	0.0140061
835.093	0.0139247
835.171	0.0138046
835.249	0.0140760
835.328	0.0138966
835.406	0.0139385
835.484	0.0139069
835.562	0.0138323
835.640	0.0140091
835.718	0.0137555
835.796	0.0137091
835.874	0.0139414
835.953	0.0139668
836.031	0.0138308
836.109	0.0137460
836.187	0.0140044
836.265	0.0138668
836.343	0.0139606
836.421	0.0138363
836.499	0.0139177
836.578	0.0138994
836.656	0.0139488
836.734	0.0139812
836.812	0.0139443
836.890	0.0139767
836.968	0.0141338
837.046	0.0140680
837.124	0.0140193
837.203	0.0139593
837.281	0.0139968
837.359	0.0139780
837.437	0.0139157
837.515	0.0140111
837.593	0.0139610
837.671	0.0139230
837.749	0.0139412
837.828	0.0139431
837.906	0.0138443
837.984	0.0138112
838.062	0.0138733
838.140	0.0139186
838.218	0.0140251
838.296	0.0139332
838.374	0.0138632
838.453	0.0137925
838.531	0.0138929
838.609	0.0139353
838.687	0.0138875
838.765	0.0139231
838.843	0.0139917
838.921	0.0139008
838.999	0.0138913
839.078	0.0139680
839.156	0.0139865
839.234	0.0140083
839.312	0.0139328
839.390	0.0139332
839.468	0.0139405
839.546	0.0140097
839.624	0.0139355
839.703	0.0140060
839.781	0.0141725
839.859	0.0139614
839.937	0.0138187
840.015	0.0141046
840.093	0.0140617
840.171	0.0139079
840.249	0.0139321
840.328	0.0140309
840.406	0.0139741
840.484	0.0139452
840.562	0.0141478
840.640	0.0140604
840.718	0.0138867
840.796	0.0139691
840.874	0.0139303
840.953	0.0140517
841.031	0.0140730
841.109	0.0139986
841.187	0.0138744
841.265	0.0138188
841.343	0.0139539
841.421	0.0139259
841.499	0.0140604
841.578	0.0139520
841.656	0.0140092
841.734	0.0139021
841.812	0.0139442
841.890	0.0140412
841.968	0.0140635
842.046	0.0140165
842.124	0.0142154
842.203	0.0139770
842.281	0.0140936
842.359	0.0141839
842.437	0.0141721
842.515	0.0140007
842.593	0.0139905
842.671	0.0140400
842.749	0.0139022
842.828	0.0139206
842.906	0.0139891
842.984	0.0141607
843.062	0.0140557
843.140	0.0139612
843.218	0.0140939
843.296	0.0140315
843.374	0.0140657
843.453	0.0141753
843.531	0.0141101
843.609	0.0141664
843.687	0.0140549
843.765	0.0141832
843.843	0.0141748
843.921	0.0142244
843.999	0.0141615
844.078	0.0142252
844.156	0.0143188
844.234	0.0142484
844.312	0.0142725
844.390	0.0142358
844.468	0.0141936
844.546	0.0142935
844.624	0.0142493
844.703	0.0141359
844.781	0.0143257
844.859	0.0142380
844.937	0.0141711
845.015	0.0142884
845.093	0.0142719
845.171	0.0140848
845.249	0.0142872
845.328	0.0142348
845.406	0.0142009
845.484	0.0141375
845.562	0.0141679
845.640	0.0140673
845.718	0.0141855
845.796	0.0142471
845.874	0.0142886
845.953	0.0142793
846.031	0.0142226
846.109	0.0142094
846.187	0.0141781
846.265	0.0143513
846.343	0.0141670
846.421	0.0142226
846.499	0.0141674
846.578	0.0142331
846.656	0.0142151
846.734	0.0142573
846.812	0.0141521
846.890	0.0141748
846.968	0.0141290
847.046	0.0141747
847.124	0.0142184
847.203	0.0142083
847.281	0.0141245
847.359	0.0141167
847.437	0.0140637
847.515	0.0142460
847.593	0.0141010
847.671	0.0140071
847.749	0.0140221
847.828	0.0139615
847.906	0.0141138
847.984	0.0139734
848.062	0.0140430
848.140	0.0140865
848.218	0.0140623
848.296	0.0139988
848.374	0.0140769
848.453	0.0141409
848.531	0.0142345
848.609	0.0141110
848.687	0.0140942
848.765	0.0141592
848.843	0.0141093
848.921	0.0140991
848.999	0.0141083
849.078	0.0142996
849.156	0.0141627
849.234	0.0142120
849.312	0.0140223
849.390	0.0141856
849.468	0.0141967
849.546	0.0140178
849.624	0.0142505
849.703	0.0141998
849.781	0.0142424
849.859	0.0141978
849.937	0.0142469
850.015	0.0141930
850.093	0.0141447
850.171	0.0142482
850.249	0.0141203
850.328	0.0140813
850.406	0.0140996
850.484	0.0140223
850.562	0.0140450
850.640	0.0140937
850.718	0.0139346
850.796	0.0140938
850.874	0.0140376
850.953	0.0139896
851.031	0.0139668
851.109	0.0139443
851.187	0.0140294
851.265	0.0140742
851.343	0.0138746
851.421	0.0140257
851.499	0.0140144
851.578	0.0139099
851.656	0.0139565
851.734	0.0139769
851.812	0.0139108
851.890	0.0138403
851.968	0.0138378
852.046	0.0139637
852.124	0.0140239
852.203	0.0140408
852.281	0.0139909
852.359	0.0141617
852.437	0.0140060
852.515	0.0140791
852.593	0.0140466
852.671	0.0139570
852.749	0.0140511
852.828	0.0139944
852.906	0.0139173
852.984	0.0141106
853.062	0.0140218
853.140	0.0139017
853.218	0.0139648
853.296	0.0138595
853.374	0.0139764
853.453	0.0139559
853.531	0.0139536
853.609	0.0140454
853.687	0.0139079
853.765	0.0139046
853.843	0.0139619
853.921	0.0138820
853.999	0.0139294
854.078	0.0139614
854.156	0.0140760
854.234	0.0140324
854.312	0.0140388
854.390	0.0140231
854.468	0.0140919
854.546	0.0141206
854.624	0.0139232
854.703	0.0140587
854.781	0.0140542
854.859	0.0141436
854.937	0.0141028
855.015	0.0141033
855.093	0.0139549
855.171	0.0138783
855.249	0.0139709
855.328	0.0140369
855.406	0.0140804
855.484	0.0140253
855.562	0.0140948
855.640	0.0140563
855.718	0.0138719
855.796	0.0137879
855.874	0.0139133
855.953	0.0140739
856.031	0.0137904
856.109	0.0138017
856.187	0.0136750
856.265	0.0138400
856.343	0.0137018
856.421	0.0138180
856.499	0.0138242
856.578	0.0136387
856.656	0.0137970
856.734	0.0137397
856.812	0.0138502
856.890	0.0140611
856.968	0.0139022
857.046	0.0139476
857.124	0.0140368
857.203	0.0138823
857.281	0.0140094
857.359	0.0140377
857.437	0.0139598
857.515	0.0141071
857.593	0.0140880
857.671	0.0139794
857.749	0.0140889
857.828	0.0139537
857.906	0.0139281
857.984	0.0139915
858.062	0.0139996
858.140	0.0139625
858.218	0.0139775
858.296	0.0137856
858.374	0.0138339
858.453	0.0138849
858.531	0.0138209
858.609	0.0138676
858.687	0.0138696
858.765	0.0137568
858.843	0.0137774
858.921	0.0138123
858.999	0.0138158
859.078	0.0137466
859.156	0.0137037
859.234	0.0138533
859.312	0.0139342
859.390	0.0139262
859.468	0.0139089
859.546	0.0139631
859.624	0.0140762
859.703	0.0138551
859.781	0.0138894
859.859	0.0138666
859.937	0.0139736
860.015	0.0140313
860.093	0.0140252
860.171	0.0140703
860.249	0.0139036
860.328	0.0140307
860.406	0.0139797
860.484	0.0140598
860.562	0.0139401
860.640	0.0139970
860.718	0.0141460
860.796	0.0140450
860.874	0.0139657
860.953	0.0139645
861.031	0.0140059
861.109	0.0138950
861.187	0.0140089
861.265	0.0140085
861.343	0.0140297
861.421	0.0138543
861.499	0.0139574
861.578	0.0139511
861.656	0.0139933
861.734	0.0141182
861.812	0.0140428
861.890	0.0141924
861.968	0.0140000
862.046	0.0140510
862.124	0.0141269
862.203	0.0139202
862.281	0.0139665
862.359	0.0140583
862.437	0.0140136
862.515	0.0140768
862.593	0.0140537
862.671	0.0140311
862.749	0.0141758
862.828	0.0140090
862.906	0.0140494
862.984	0.0140466
863.062	0.0142669
863.140	0.0140608
863.218	0.0140625
863.296	0.0140229
863.374	0.0140078
863.453	0.0140469
863.531	0.0141055
863.609	0.0140139
863.687	0.0140798
863.765	0.0139533
863.843	0.0139277
863.921	0.0140160
863.999	0.0139191
864.078	0.0138739
864.156	0.0140630
864.234	0.0139822
864.312	0.0139671
864.390	0.0140585
864.468	0.0139276
864.546	0.0139156
864.624	0.0140888
864.703	0.0141928
864.781	0.0140438
864.859	0.0141582
864.937	0.0140961
865.015	0.0140630
865.093	0.0139789
865.171	0.0141235
865.249	0.0140803
865.328	0.0140411
865.406	0.0140416
865.484	0.0141073
865.562	0.0139313
865.640	0.0140147
865.718	0.0139545
865.796	0.0140627
865.874	0.0141080
865.953	0.0140977
866.031	0.0140768
866.109	0.0140697
866.187	0.0140273
866.265	0.0138710
866.343	0.0139928
866.421	0.0139969
866.499	0.0139567
866.578	0.0141651
866.656	0.0140488
866.734	0.0141140
866.812	0.0140392
866.890	0.0140735
866.968	0.0140420
867.046	0.0140450
867.124	0.0140202
867.203	0.0140854
867.281	0.0142517
867.359	0.0142235
867.437	0.0141128
867.515	0.0138873
867.593	0.0140887
867.671	0.0140871
867.749	0.0141731
867.828	0.0141326
867.906	0.0141068
867.984	0.0140231
868.062	0.0141564
868.140	0.0140337
868.218	0.0140887
868.296	0.0138824
868.374	0.0141235
868.453	0.0140479
868.531	0.0140392
868.609	0.0140618
868.687	0.0139820
868.765	0.0139534
868.843	0.0139862
868.921	0.0140472
868.999	0.0140976
869.078	0.0140674
869.156	0.0141347
869.234	0.0139999
869.312	0.0140239
869.390	0.0140610
869.468	0.0140730
869.546	0.0139563
869.624	0.0139778
869.703	0.0139386
869.781	0.0141216
869.859	0.0140858
869.937	0.0140565
870.015	0.0140945
870.093	0.0138618
870.171	0.0140769
870.249	0.0140186
870.328	0.0140830
870.406	0.0140047
870.484	0.0141950
870.562	0.0142999
870.640	0.0142578
870.718	0.0142191
870.796	0.0142908
870.874	0.0141634
870.953	0.0141775
871.031	0.0142513
871.109	0.0140748
871.187	0.0141618
871.265	0.0140737
871.343	0.0141135
871.421	0.0142563
871.499	0.0142193
871.578	0.0139588
871.656	0.0140942
871.734	0.0141048
871.812	0.0141265
871.890	0.0140617
871.968	0.0140971
872.046	0.0141422
872.124	0.0142004
872.203	0.0139484
872.281	0.0139314
872.359	0.0139296
872.437	0.0140953
872.515	0.0141165
872.593	0.0141302
872.671	0.0141555
872.749	0.0140704
872.828	0.0140027
872.906	0.0140937
872.984	0.0139644
873.062	0.0141180
873.140	0.0141059
873.218	0.0139651
873.296	0.0141235
873.374	0.0141653
873.453	0.0142283
873.531	0.0141755
873.609	0.0141561
873.687	0.0141081
873.765	0.0141161
873.843	0.0141206
873.921	0.0139641
873.999	0.0140681
874.078	0.0140479
874.156	0.0140678
874.234	0.0141352
874.312	0.0141263
874.390	0.0140398
874.468	0.0141280
874.546	0.0139876
874.624	0.0140825
874.703	0.0138842
874.781	0.0140264
874.859	0.0140436
874.937	0.0139549
875.015	0.0140083
875.093	0.0141232
875.171	0.0139062
875.249	0.0139883
875.328	0.0140426
875.406	0.0140746
875.484	0.0139135
875.562	0.0140002
875.640	0.0140298
875.718	0.0141039
875.796	0.0140103
875.874	0.0142177
875.953	0.0140632
876.031	0.0141889
876.109	0.0140278
876.187	0.0142159
876.265	0.0140243
876.343	0.0140189
876.421	0.0140485
876.499	0.0140504
876.578	0.0140726
876.656	0.0140015
876.734	0.0139429
876.812	0.0139286
876.890	0.0138655
876.968	0.0138967
877.046	0.0139129
877.124	0.0138583
877.203	0.0136861
877.281	0.0137318
877.359	0.0138533
877.437	0.0137894
877.515	0.0138203
877.593	0.0139881
877.671	0.0138167
877.749	0.0139068
877.828	0.0139213
877.906	0.0140002
877.984	0.0140794
878.062	0.0139472
878.140	0.0139809
878.218	0.0139878
878.296	0.0140158
878.374	0.0140413
878.453	0.0140163
878.531	0.0140340
878.609	0.0140295
878.687	0.0141339
878.765	0.0141323
878.843	0.0141653
878.921	0.0141139
878.999	0.0139238
879.078	0.0140470
879.156	0.0140755
879.234	0.0140434
879.312	0.0141356
879.390	0.0140040
879.468	0.0140175
879.546	0.0140239
879.624	0.0139875
879.703	0.0138984
879.781	0.0140479
879.859	0.0139348
879.937	0.0139250
880.015	0.0140633
880.093	0.0139773
880.171	0.0140993
880.249	0.0140430
880.328	0.0141301
880.406	0.0139751
880.484	0.0140099
880.562	0.0140669
880.640	0.0140456
880.718	0.0139940
880.796	0.0140253
880.874	0.0140187
880.953	0.0139811
881.031	0.0140210
881.109	0.0141110
881.187	0.0138523
881.265	0.0139834
881.343	0.0140177
881.421	0.0140827
881.499	0.0139934
881.578	0.0139711
881.656	0.0139774
881.734	0.0139842
881.812	0.0140155
881.890	0.0140278
881.968	0.0139362
882.046	0.0139356
882.124	0.0139520
882.203	0.0139731
882.281	0.0137765
882.359	0.0141135
882.437	0.0140186
882.515	0.0141190
882.593	0.0140067
882.671	0.0139510
882.749	0.0141271
882.828	0.0140531
882.906	0.0140200
882.984	0.0140680
883.062	0.0140334
883.140	0.0140242
883.218	0.0140591
883.296	0.0140492
883.374	0.0141367
883.453	0.0138957
883.531	0.0140663
883.609	0.0140701
883.687	0.0140362
883.765	0.0140614
883.843	0.0140902
883.921	0.0140488
883.999	0.0140079
884.078	0.0141319
884.156	0.0140810
884.234	0.0138508
884.312	0.0140156
884.390	0.0139755
884.468	0.0139977
884.546	0.0140868
884.624	0.0140655
884.703	0.0141729
884.781	0.0141908
884.859	0.0141129
884.937	0.0141286
885.015	0.0140067
885.093	0.0140752
885.171	0.0141203
885.249	0.0140739
885.328	0.0141238
885.406	0.0142268
885.484	0.0141717
885.562	0.0140523
885.640	0.0140807
885.718	0.0140922
885.796	0.0140854
885.874	0.0141026
885.953	0.0139906
886.031	0.0141988
886.109	0.0142163
886.187	0.0141507
886.265	0.0141660
886.343	0.0141127
886.421	0.0140645
886.499	0.0141589
886.578	0.0141908
886.656	0.0141884
886.734	0.0141223
886.812	0.0141180
886.890	0.0143086
886.968	0.0141990
887.046	0.0141484
887.124	0.0141745
887.203	0.0142748
887.281	0.0143356
887.359	0.0141938
887.437	0.0141477
887.515	0.0141960
887.593	0.0141235
887.671	0.0141508
887.749	0.0139478
887.828	0.0140125
887.906	0.0140326
887.984	0.0142316
888.062	0.0141199
888.140	0.0140039
888.218	0.0141216
888.296	0.0140771
888.374	0.0140237
888.453	0.0140684
888.531	0.0140918
888.609	0.0141621
888.687	0.0140636
888.765	0.0139966
888.843	0.0141125
888.921	0.0139848
888.999	0.0141114
889.078	0.0141538
889.156	0.0141187
889.234	0.0141255
889.312	0.0141085
889.390	0.0141016
889.468	0.0141122
889.546	0.0140959
889.624	0.0140887
889.703	0.0140959
889.781	0.0142287
889.859	0.0140444
889.937	0.0140664
890.015	0.0142015
890.093	0.0139987
890.171	0.0139625
890.249	0.0140765
890.328	0.0140860
890.406	0.0140830
890.484	0.0139778
890.562	0.0140001
890.640	0.0139657
890.718	0.0139684
890.796	0.0139957
890.874	0.0140742
890.953	0.0140886
891.031	0.0139832
891.109	0.0141048
891.187	0.0141370
891.265	0.0139366
891.343	0.0140453
891.421	0.0141724
891.499	0.0140993
891.578	0.0140570
891.656	0.0141303
891.734	0.0141563
891.812	0.0141444
891.890	0.0139929
891.968	0.0140159
892.046	0.0142068
892.124	0.0140984
892.203	0.0141201
892.281	0.0140488
892.359	0.0140736
892.437	0.0139839
892.515	0.0140041
892.593	0.0139335
892.671	0.0142564
892.749	0.0141296
892.828	0.0140006
892.906	0.0141073
892.984	0.0141325
893.062	0.0139359
893.140	0.0138783
893.218	0.0140638
893.296	0.0140446
893.374	0.0139357
893.453	0.0140081
893.531	0.0137775
893.609	0.0140400
893.687	0.0138691
893.765	0.0139197
893.843	0.0139528
893.921	0.0140810
893.999	0.0140106
894.078	0.0138900
894.156	0.0140259
894.234	0.0138816
894.312	0.0139106
894.390	0.0139518
894.468	0.0139810
894.546	0.0140459
894.624	0.0141862
894.703	0.0141297
894.781	0.0139355
894.859	0.0140804
894.937	0.0141181
895.015	0.0141004
895.093	0.0140495
895.171	0.0140410
895.249	0.0140462
895.328	0.0141110
895.406	0.0140707
895.484	0.0140077
895.562	0.0138755
895.640	0.0140372
895.718	0.0140039
895.796	0.0137926
895.874	0.0138226
895.953	0.0140914
896.031	0.0140043
896.109	0.0139860
896.187	0.0141123
896.265	0.0140514
896.343	0.0140415
896.421	0.0140103
896.499	0.0140044
896.578	0.0140742
896.656	0.0139819
896.734	0.0141165
896.812	0.0141226
896.890	0.0139845
896.968	0.0140957
897.046	0.0141758
897.124	0.0140953
897.203	0.0141580
897.281	0.0141933
897.359	0.0140559
897.437	0.0140228
897.515	0.0141012
897.593	0.0140427
897.671	0.0141062
897.749	0.0140613
897.828	0.0141719
897.906	0.0140436
897.984	0.0142203
898.062	0.0141587
898.140	0.0140704
898.218	0.0140556
898.296	0.0142408
898.374	0.0140610
898.453	0.0141363
898.531	0.0141033
898.609	0.0142108
898.687	0.0142796
898.765	0.0141809
898.843	0.0141890
898.921	0.0141553
898.999	0.0142173
899.078	0.0141954
899.156	0.0142522
899.234	0.0140880
899.312	0.0141460
899.390	0.0140012
899.468	0.0141392
899.546	0.0141901
899.624	0.0141175
899.703	0.0142329
899.781	0.0141562
899.859	0.0140725
899.937	0.0141292
900.015	0.0141381
900.093	0.0141486
900.171	0.0143475
900.249	0.0141040
900.328	0.0141934
900.406	0.0142094
900.484	0.0140998
900.562	0.0140952
900.640	0.0139619
900.718	0.0139484
900.796	0.0141292
900.874	0.0141131
900.953	0.0141820
901.031	0.0141022
901.109	0.0140540
901.187	0.0139727
901.265	0.0141187
901.343	0.0139406
901.421	0.0141157
901.499	0.0141190
901.578	0.0141197
901.656	0.0141521
901.734	0.0141586
901.812	0.0142016
901.890	0.0141563
901.968	0.0140869
902.046	0.0141245
902.124	0.0141297
902.203	0.0141085
902.281	0.0143632
902.359	0.0143093
902.437	0.0141639
902.515	0.0140175
902.593	0.0141405
902.671	0.0141158
902.749	0.0141408
902.828	0.0142833
902.906	0.0142392
902.984	0.0141085
903.062	0.0140950
903.140	0.0140991
903.218	0.0141182
903.296	0.0141778
903.374	0.0140571
903.453	0.0140456
903.531	0.0140273
903.609	0.0141990
903.687	0.0141059
903.765	0.0140995
903.843	0.0140515
903.921	0.0141028
903.999	0.0141183
904.078	0.0140436
904.156	0.0140667
904.234	0.0141164
904.312	0.0141861
904.390	0.0139673
904.468	0.0140932
904.546	0.0140987
904.624	0.0141239
904.703	0.0139798
904.781	0.0140739
904.859	0.0140677
904.937	0.0140926
905.015	0.0141402
905.093	0.0140559
905.171	0.0140353
905.249	0.0141004
905.328	0.0141010
905.406	0.0141022
905.484	0.0141228
905.562	0.0142070
905.640	0.0141854
905.718	0.0140903
905.796	0.0142178
905.874	0.0140483
905.953	0.0141539
906.031	0.0141181
906.109	0.0142023
906.187	0.0140533
906.265	0.0141066
906.343	0.0141805
906.421	0.0142049
906.499	0.0140372
906.578	0.0140613
906.656	0.0141637
906.734	0.0140036
906.812	0.0141328
906.890	0.0142633
906.968	0.0142122
907.046	0.0142319
907.124	0.0141338
907.203	0.0142412
907.281	0.0142001
907.359	0.0141763
907.437	0.0143074
907.515	0.0142806
907.593	0.0142303
907.671	0.0142702
907.749	0.0141899
907.828	0.0142156
907.906	0.0141963
907.984	0.0142413
908.062	0.0140688
908.140	0.0141183
908.218	0.0142315
908.296	0.0142402
908.374	0.0141753
908.453	0.0141186
908.531	0.0142518
908.609	0.0142004
908.687	0.0141582
908.765	0.0140655
908.843	0.0141291
908.921	0.0141351
908.999	0.0139874
909.078	0.0139370
909.156	0.0140783
909.234	0.0140438
909.312	0.0139612
909.390	0.0139699
909.468	0.0140983
909.546	0.0140451
909.624	0.0141393
909.703	0.0139243
909.781	0.0141039
909.859	0.0141879
909.937	0.0142076
910.015	0.0140592
910.093	0.0140914
910.171	0.0140939
910.249	0.0140755
910.328	0.0141260
910.406	0.0141154
910.484	0.0139664
910.562	0.0139996
910.640	0.0140939
910.718	0.0140934
910.796	0.0139616
910.874	0.0141585
910.953	0.0140681
911.031	0.0140610
911.109	0.0140524
911.187	0.0139987
911.265	0.0141125
911.343	0.0141043
911.421	0.0140801
911.499	0.0139552
911.578	0.0139761
911.656	0.0140853
911.734	0.0140736
911.812	0.0139487
911.890	0.0138734
911.968	0.0141280
912.046	0.0140842
912.124	0.0140289
912.203	0.0141402
912.281	0.0139719
912.359	0.0141414
912.437	0.0140832
912.515	0.0141533
912.593	0.0141520
912.671	0.0139911
912.749	0.0140253
912.828	0.0141127
912.906	0.0140000
912.984	0.0140073
913.062	0.0141782
913.140	0.0140721
913.218	0.0140372
913.296	0.0141100
913.374	0.0140475
913.453	0.0140519
913.531	0.0142874
913.609	0.0140132
913.687	0.0139431
913.765	0.0140834
913.843	0.0139175
913.921	0.0140456
913.999	0.0140258
914.078	0.0140568
914.156	0.0140759
914.234	0.0141046
914.312	0.0141798
914.390	0.0139578
914.468	0.0139960
914.546	0.0139355
914.624	0.0141380
914.703	0.0140861
914.781	0.0142635
914.859	0.0141562
914.937	0.0140696
915.015	0.0141238
915.093	0.0142363
915.171	0.0142343
915.249	0.0141900
915.328	0.0141636
915.406	0.0141226
915.484	0.0142254
915.562	0.0142135
915.640	0.0141434
915.718	0.0142548
915.796	0.0143713
915.874	0.0142056
915.953	0.0142323
916.031	0.0141943
916.109	0.0142648
916.187	0.0143072
916.265	0.0141222
916.343	0.0140961
916.421	0.0140918
916.499	0.0140821
916.578	0.0142184
916.656	0.0142924
916.734	0.0140443
916.812	0.0140945
916.890	0.0140642
916.968	0.0139830
917.046	0.0141604
917.124	0.0142017
917.203	0.0140542
917.281	0.0141476
917.359	0.0142262
917.437	0.0140858
917.515	0.0140613
917.593	0.0142190
917.671	0.0142091
917.749	0.0141009
917.828	0.0140966
917.906	0.0141323
917.984	0.0141561
918.062	0.0140791
918.140	0.0141106
918.218	0.0141335
918.296	0.0140001
918.374	0.0141180
918.453	0.0140753
918.531	0.0140442
918.609	0.0141282
918.687	0.0140642
918.765	0.0141078
918.843	0.0140543
918.921	0.0141386
918.999	0.0139767
919.078	0.0141671
919.156	0.0140732
919.234	0.0139473
919.312	0.0139301
919.390	0.0140147
919.468	0.0139433
919.546	0.0139557
919.624	0.0140407
919.703	0.0139964
919.781	0.0140010
919.859	0.0140652
919.937	0.0139989
