05/08/2022	20:14:57	Ver.	4.1	UNKNOWN
Optical Delay	600.015094	Delta X		0.078125	Sweeps	1	Scan Rate	0/0
Coordinates	Axis 1	NaN	Axis 2	NaN	Axis 3	NaN	Axis 4	NaN	Axis 5	NaN	Axis 6	0.000000
TX Power	0.000000	RX Power	0.000000

600.015	0.0136942
600.093	0.0137061
600.171	0.0136559
600.249	0.0136795
600.328	0.0137923
600.406	0.0136135
600.484	0.0136707
600.562	0.0136913
600.640	0.0137859
600.718	0.0138293
600.796	0.0136312
600.874	0.0136983
600.953	0.0136298
601.031	0.0136596
601.109	0.0136794
601.187	0.0136780
601.265	0.0137836
601.343	0.0137603
601.421	0.0136828
601.499	0.0137562
601.578	0.0135799
601.656	0.0137044
601.734	0.0136465
601.812	0.0137580
601.890	0.0136662
601.968	0.0137267
602.046	0.0136697
602.124	0.0137859
602.203	0.0137426
602.281	0.0137369
602.359	0.0137372
602.437	0.0137982
602.515	0.0136428
602.593	0.0138840
602.671	0.0138078
602.749	0.0137323
602.828	0.0138555
602.906	0.0136611
602.984	0.0139107
603.062	0.0138812
603.140	0.0137624
603.218	0.0138183
603.296	0.0137793
603.374	0.0137668
603.453	0.0137744
603.531	0.0136825
603.609	0.0137151
603.687	0.0137409
603.765	0.0138385
603.843	0.0137301
603.921	0.0137297
603.999	0.0137231
604.078	0.0138425
604.156	0.0138939
604.234	0.0138988
604.312	0.0139159
604.390	0.0137608
604.468	0.0137580
604.546	0.0138536
604.624	0.0138835
604.703	0.0139039
604.781	0.0138573
604.859	0.0137938
604.937	0.0138686
605.015	0.0140131
605.093	0.0140277
605.171	0.0139323
605.249	0.0137756
605.328	0.0137267
605.406	0.0138261
605.484	0.0139735
605.562	0.0139661
605.640	0.0137465
605.718	0.0138210
605.796	0.0138240
605.874	0.0137717
605.953	0.0138652
606.031	0.0138986
606.109	0.0140306
606.187	0.0137598
606.265	0.0138550
606.343	0.0138561
606.421	0.0137234
606.499	0.0139341
606.578	0.0138878
606.656	0.0136859
606.734	0.0139075
606.812	0.0137649
606.890	0.0139553
606.968	0.0139422
607.046	0.0137419
607.124	0.0138580
607.203	0.0138990
607.281	0.0138147
607.359	0.0137683
607.437	0.0138710
607.515	0.0138494
607.593	0.0138876
607.671	0.0138980
607.749	0.0139265
607.828	0.0136877
607.906	0.0138940
607.984	0.0140195
608.062	0.0138688
608.140	0.0138734
608.218	0.0138472
608.296	0.0138595
608.374	0.0139787
608.453	0.0139538
608.531	0.0139268
608.609	0.0139979
608.687	0.0140774
608.765	0.0140144
608.843	0.0140556
608.921	0.0139678
608.999	0.0139815
609.078	0.0140309
609.156	0.0139815
609.234	0.0140813
609.312	0.0140437
609.390	0.0140765
609.468	0.0140523
609.546	0.0141142
609.624	0.0140571
609.703	0.0140315
609.781	0.0140971
609.859	0.0140501
609.937	0.0140141
610.015	0.0141650
610.093	0.0141104
610.171	0.0141633
610.249	0.0141074
610.328	0.0140033
610.406	0.0139416
610.484	0.0140548
610.562	0.0140434
610.640	0.0140258
610.718	0.0141169
610.796	0.0141374
610.874	0.0140426
610.953	0.0139433
611.031	0.0140612
611.109	0.0141071
611.187	0.0138944
611.265	0.0139429
611.343	0.0139962
611.421	0.0140514
611.499	0.0142334
611.578	0.0139694
611.656	0.0140801
611.734	0.0139856
611.812	0.0140345
611.890	0.0139693
611.968	0.0139600
612.046	0.0140527
612.124	0.0141135
612.203	0.0139206
612.281	0.0139342
612.359	0.0139776
612.437	0.0139315
612.515	0.0138789
612.593	0.0138920
612.671	0.0137964
612.749	0.0139565
612.828	0.0140398
612.906	0.0140099
612.984	0.0139298
613.062	0.0139195
613.140	0.0138943
613.218	0.0139969
613.296	0.0139265
613.374	0.0138418
613.453	0.0139529
613.531	0.0137850
613.609	0.0138418
613.687	0.0139416
613.765	0.0139458
613.843	0.0138063
613.921	0.0138927
613.999	0.0138886
614.078	0.0138569
614.156	0.0138129
614.234	0.0138238
614.312	0.0139310
614.390	0.0138855
614.468	0.0137008
614.546	0.0138722
614.624	0.0138506
614.703	0.0139211
614.781	0.0139623
614.859	0.0139207
614.937	0.0138390
615.015	0.0137941
615.093	0.0139883
615.171	0.0139082
615.249	0.0138454
615.328	0.0140070
615.406	0.0139053
615.484	0.0138581
615.562	0.0136927
615.640	0.0137273
615.718	0.0138729
615.796	0.0138721
615.874	0.0139262
615.953	0.0139677
616.031	0.0139323
616.109	0.0140578
616.187	0.0138087
616.265	0.0139350
616.343	0.0139294
616.421	0.0139202
616.499	0.0138434
616.578	0.0139138
616.656	0.0139059
616.734	0.0138601
616.812	0.0138811
616.890	0.0139274
616.968	0.0139671
617.046	0.0138747
617.124	0.0139507
617.203	0.0138393
617.281	0.0137871
617.359	0.0138538
617.437	0.0138586
617.515	0.0136456
617.593	0.0137643
617.671	0.0137592
617.749	0.0138480
617.828	0.0138325
617.906	0.0137534
617.984	0.0138020
618.062	0.0137259
618.140	0.0138020
618.218	0.0137370
618.296	0.0138707
618.374	0.0138354
618.453	0.0136666
618.531	0.0137470
618.609	0.0139090
618.687	0.0137284
618.765	0.0139526
618.843	0.0136841
618.921	0.0137241
618.999	0.0138946
619.078	0.0137877
619.156	0.0138147
619.234	0.0138007
619.312	0.0137460
619.390	0.0137818
619.468	0.0137253
619.546	0.0136813
619.624	0.0136910
619.703	0.0137617
619.781	0.0136929
619.859	0.0138298
619.937	0.0139124
620.015	0.0136445
620.093	0.0138320
620.171	0.0136492
620.249	0.0136948
620.328	0.0137689
620.406	0.0137039
620.484	0.0137003
620.562	0.0136471
620.640	0.0137042
620.718	0.0138551
620.796	0.0136882
620.874	0.0137952
620.953	0.0137045
621.031	0.0137575
621.109	0.0137149
621.187	0.0137501
621.265	0.0136645
621.343	0.0135677
621.421	0.0137247
621.499	0.0136843
621.578	0.0136209
621.656	0.0136960
621.734	0.0137489
621.812	0.0136199
621.890	0.0137144
621.968	0.0136492
622.046	0.0137437
622.124	0.0137066
622.203	0.0135686
622.281	0.0138029
622.359	0.0136594
622.437	0.0137898
622.515	0.0137416
622.593	0.0138583
622.671	0.0137540
622.749	0.0138386
622.828	0.0136801
622.906	0.0135964
622.984	0.0137148
623.062	0.0137624
623.140	0.0138404
623.218	0.0138359
623.296	0.0137973
623.374	0.0137868
623.453	0.0137762
623.531	0.0137656
623.609	0.0138593
623.687	0.0136664
623.765	0.0137731
623.843	0.0137177
623.921	0.0137677
623.999	0.0138708
624.078	0.0137465
624.156	0.0138638
624.234	0.0138163
624.312	0.0137395
624.390	0.0138274
624.468	0.0137929
624.546	0.0137912
624.624	0.0137199
624.703	0.0138931
624.781	0.0138475
624.859	0.0137697
624.937	0.0137835
625.015	0.0139518
625.093	0.0138491
625.171	0.0139528
625.249	0.0138682
625.328	0.0137656
625.406	0.0139146
625.484	0.0139069
625.562	0.0138340
625.640	0.0138024
625.718	0.0138463
625.796	0.0138427
625.874	0.0137273
625.953	0.0138014
626.031	0.0137944
626.109	0.0136957
626.187	0.0137599
626.265	0.0138020
626.343	0.0139586
626.421	0.0138052
626.499	0.0138622
626.578	0.0138432
626.656	0.0136420
626.734	0.0137871
626.812	0.0138396
626.890	0.0138204
626.968	0.0139086
627.046	0.0138040
627.124	0.0138573
627.203	0.0138019
627.281	0.0139064
627.359	0.0138641
627.437	0.0138349
627.515	0.0138343
627.593	0.0138847
627.671	0.0137453
627.749	0.0137218
627.828	0.0138976
627.906	0.0139410
627.984	0.0139344
628.062	0.0137280
628.140	0.0138424
628.218	0.0137117
628.296	0.0137608
628.374	0.0139001
628.453	0.0137770
628.531	0.0138516
628.609	0.0138515
628.687	0.0138522
628.765	0.0137715
628.843	0.0137463
628.921	0.0137589
628.999	0.0137989
629.078	0.0138145
629.156	0.0136630
629.234	0.0137197
629.312	0.0136320
629.390	0.0136632
629.468	0.0138000
629.546	0.0138375
629.624	0.0138938
629.703	0.0139029
629.781	0.0138999
629.859	0.0138828
629.937	0.0138831
630.015	0.0139475
630.093	0.0139436
630.171	0.0140989
630.249	0.0139735
630.328	0.0140418
630.406	0.0141412
630.484	0.0142522
630.562	0.0141666
630.640	0.0141522
630.718	0.0142356
630.796	0.0141064
630.874	0.0141071
630.953	0.0142329
631.031	0.0141695
631.109	0.0140284
631.187	0.0140940
631.265	0.0141546
631.343	0.0142242
631.421	0.0141242
631.499	0.0141048
631.578	0.0141833
631.656	0.0140816
631.734	0.0140376
631.812	0.0141089
631.890	0.0140227
631.968	0.0139718
632.046	0.0141927
632.124	0.0141254
632.203	0.0138297
632.281	0.0139295
632.359	0.0139037
632.437	0.0140182
632.515	0.0140572
632.593	0.0138930
632.671	0.0138855
632.749	0.0138218
632.828	0.0138734
632.906	0.0139091
632.984	0.0139042
633.062	0.0137703
633.140	0.0139258
633.218	0.0140086
633.296	0.0139212
633.374	0.0138109
633.453	0.0139384
633.531	0.0138638
633.609	0.0139245
633.687	0.0139005
633.765	0.0138997
633.843	0.0139830
633.921	0.0138620
633.999	0.0138526
634.078	0.0137752
634.156	0.0137459
634.234	0.0139030
634.312	0.0139494
634.390	0.0140254
634.468	0.0137820
634.546	0.0138409
634.624	0.0139735
634.703	0.0139987
634.781	0.0139139
634.859	0.0137976
634.937	0.0138715
635.015	0.0139071
635.093	0.0138885
635.171	0.0138021
635.249	0.0138183
635.328	0.0138613
635.406	0.0138149
635.484	0.0139214
635.562	0.0138080
635.640	0.0139423
635.718	0.0139787
635.796	0.0139687
635.874	0.0139024
635.953	0.0139513
636.031	0.0140733
636.109	0.0138245
636.187	0.0139292
636.265	0.0139521
636.343	0.0138123
636.421	0.0137047
636.499	0.0138419
636.578	0.0138932
636.656	0.0138335
636.734	0.0138059
636.812	0.0139297
636.890	0.0139597
636.968	0.0140614
637.046	0.0138513
637.124	0.0138332
637.203	0.0138499
637.281	0.0139063
637.359	0.0138638
637.437	0.0139715
637.515	0.0139235
637.593	0.0137933
637.671	0.0138675
637.749	0.0139229
637.828	0.0138332
637.906	0.0137580
637.984	0.0137486
638.062	0.0137560
638.140	0.0137363
638.218	0.0138196
638.296	0.0138293
638.374	0.0139061
638.453	0.0138255
638.531	0.0139549
638.609	0.0138866
638.687	0.0138913
638.765	0.0140060
638.843	0.0139712
638.921	0.0138792
638.999	0.0138323
639.078	0.0138270
639.156	0.0139601
639.234	0.0137701
639.312	0.0137682
639.390	0.0137311
639.468	0.0136646
639.546	0.0137956
639.624	0.0137305
639.703	0.0135783
639.781	0.0137828
639.859	0.0137725
639.937	0.0137005
640.015	0.0136813
640.093	0.0137404
640.171	0.0137566
640.249	0.0137054
640.328	0.0138345
640.406	0.0137679
640.484	0.0138245
640.562	0.0138877
640.640	0.0138818
640.718	0.0138501
640.796	0.0136382
640.874	0.0138229
640.953	0.0139794
641.031	0.0138998
641.109	0.0138609
641.187	0.0138851
641.265	0.0139710
641.343	0.0139312
641.421	0.0139893
641.499	0.0140610
641.578	0.0141005
641.656	0.0139940
641.734	0.0140726
641.812	0.0139874
641.890	0.0140132
641.968	0.0139477
642.046	0.0139157
642.124	0.0139096
642.203	0.0139365
642.281	0.0139182
642.359	0.0138013
642.437	0.0137434
642.515	0.0136492
642.593	0.0136138
642.671	0.0137649
642.749	0.0137047
642.828	0.0135869
642.906	0.0136555
642.984	0.0136027
643.062	0.0136951
643.140	0.0136536
643.218	0.0138633
643.296	0.0139829
643.374	0.0138713
643.453	0.0139745
643.531	0.0141307
643.609	0.0140759
643.687	0.0142403
643.765	0.0141621
643.843	0.0142369
643.921	0.0142105
643.999	0.0140332
644.078	0.0141238
644.156	0.0141551
644.234	0.0139931
644.312	0.0141951
644.390	0.0140314
644.468	0.0140829
644.546	0.0139734
644.624	0.0138938
644.703	0.0138789
644.781	0.0137268
644.859	0.0135937
644.937	0.0135827
645.015	0.0133919
645.093	0.0133675
645.171	0.0132127
645.249	0.0132849
645.328	0.0132153
645.406	0.0132768
645.484	0.0131992
645.562	0.0132507
645.640	0.0133354
645.718	0.0133949
645.796	0.0133712
645.874	0.0134129
645.953	0.0136404
646.031	0.0137215
646.109	0.0139329
646.187	0.0138704
646.265	0.0139613
646.343	0.0137650
646.421	0.0139950
646.499	0.0141956
646.578	0.0140578
646.656	0.0142011
646.734	0.0142344
646.812	0.0144082
646.890	0.0144478
646.968	0.0143570
647.046	0.0143552
647.124	0.0144822
647.203	0.0144057
647.281	0.0143890
647.359	0.0143651
647.437	0.0140475
647.515	0.0140101
647.593	0.0139277
647.671	0.0137515
647.749	0.0135863
647.828	0.0133350
647.906	0.0132335
647.984	0.0132137
648.062	0.0131017
648.140	0.0129400
648.218	0.0128096
648.296	0.0128790
648.374	0.0129994
648.453	0.0131415
648.531	0.0130910
648.609	0.0132233
648.687	0.0134966
648.765	0.0135297
648.843	0.0136926
648.921	0.0139160
648.999	0.0140721
649.078	0.0143581
649.156	0.0145119
649.234	0.0146215
649.312	0.0147853
649.390	0.0149382
649.468	0.0151490
649.546	0.0152531
649.624	0.0153927
649.703	0.0151809
649.781	0.0152554
649.859	0.0152356
649.937	0.0152050
650.015	0.0150450
650.093	0.0147539
650.171	0.0144778
650.249	0.0144021
650.328	0.0141232
650.406	0.0138081
650.484	0.0136015
650.562	0.0131112
650.640	0.0128917
650.718	0.0126090
650.796	0.0125476
650.874	0.0122742
650.953	0.0121841
651.031	0.0122437
651.109	0.0121973
651.187	0.0121750
651.265	0.0123283
651.343	0.0123370
651.421	0.0125587
651.499	0.0128189
651.578	0.0130512
651.656	0.0133331
651.734	0.0136036
651.812	0.0139563
651.890	0.0142471
651.968	0.0143478
652.046	0.0146227
652.124	0.0148512
652.203	0.0151347
652.281	0.0153840
652.359	0.0156321
652.437	0.0157172
652.515	0.0158372
652.593	0.0159509
652.671	0.0159536
652.749	0.0158942
652.828	0.0156806
652.906	0.0156834
652.984	0.0154743
653.062	0.0153921
653.140	0.0150146
653.218	0.0145879
653.296	0.0144634
653.374	0.0142557
653.453	0.0138447
653.531	0.0136170
653.609	0.0133456
653.687	0.0131625
653.765	0.0129453
653.843	0.0127885
653.921	0.0127423
653.999	0.0126593
654.078	0.0126907
654.156	0.0126487
654.234	0.0127332
654.312	0.0128300
654.390	0.0130058
654.468	0.0131107
654.546	0.0131786
654.624	0.0133329
654.703	0.0133194
654.781	0.0135889
654.859	0.0138041
654.937	0.0137848
655.015	0.0139194
655.093	0.0140311
655.171	0.0140796
655.249	0.0142788
655.328	0.0143373
655.406	0.0144006
655.484	0.0144123
655.562	0.0145000
655.640	0.0145068
655.718	0.0147358
655.796	0.0145940
655.874	0.0147823
655.953	0.0147530
656.031	0.0147335
656.109	0.0147220
656.187	0.0146973
656.265	0.0145469
656.343	0.0145967
656.421	0.0144128
656.499	0.0141036
656.578	0.0141430
656.656	0.0139662
656.734	0.0138311
656.812	0.0138407
656.890	0.0136060
656.968	0.0134766
657.046	0.0134944
657.124	0.0135181
657.203	0.0135635
657.281	0.0134675
657.359	0.0136553
657.437	0.0134492
657.515	0.0135670
657.593	0.0135610
657.671	0.0135507
657.749	0.0136639
657.828	0.0137123
657.906	0.0138480
657.984	0.0139688
658.062	0.0141301
658.140	0.0142514
658.218	0.0143002
658.296	0.0145380
658.374	0.0145430
658.453	0.0145971
658.531	0.0145666
658.609	0.0145703
658.687	0.0144411
658.765	0.0143620
658.843	0.0142463
658.921	0.0141008
658.999	0.0138878
659.078	0.0134670
659.156	0.0133542
659.234	0.0130782
659.312	0.0128676
659.390	0.0124233
659.468	0.0122969
659.546	0.0121555
659.624	0.0119318
659.703	0.0119009
659.781	0.0120007
659.859	0.0119350
659.937	0.0121351
660.015	0.0121039
660.093	0.0123519
660.171	0.0124142
660.249	0.0126479
660.328	0.0129523
660.406	0.0132374
660.484	0.0134704
660.562	0.0138120
660.640	0.0142078
660.718	0.0146236
660.796	0.0148399
660.874	0.0152262
660.953	0.0157812
661.031	0.0159339
661.109	0.0160950
661.187	0.0163627
661.265	0.0165547
661.343	0.0166302
661.421	0.0165254
661.499	0.0164104
661.578	0.0163739
661.656	0.0162075
661.734	0.0161791
661.812	0.0160021
661.890	0.0154602
661.968	0.0151830
662.046	0.0149481
662.124	0.0146342
662.203	0.0145364
662.281	0.0140499
662.359	0.0137427
662.437	0.0134574
662.515	0.0131209
662.593	0.0128449
662.671	0.0128179
662.749	0.0125095
662.828	0.0123247
662.906	0.0122031
662.984	0.0122392
663.062	0.0120909
663.140	0.0120745
663.218	0.0121420
663.296	0.0121555
663.374	0.0123428
663.453	0.0122917
663.531	0.0124753
663.609	0.0124659
663.687	0.0126490
663.765	0.0127233
663.843	0.0126948
663.921	0.0126841
663.999	0.0127995
664.078	0.0128746
664.156	0.0129100
664.234	0.0131039
664.312	0.0130246
664.390	0.0131703
664.468	0.0132190
664.546	0.0131902
664.624	0.0134035
664.703	0.0134460
664.781	0.0135506
664.859	0.0134122
664.937	0.0136937
665.015	0.0139314
665.093	0.0139503
665.171	0.0142122
665.249	0.0144221
665.328	0.0145681
665.406	0.0148642
665.484	0.0149828
665.562	0.0152602
665.640	0.0154060
665.718	0.0155421
665.796	0.0156293
665.874	0.0158426
665.953	0.0158478
666.031	0.0160606
666.109	0.0160501
666.187	0.0159575
666.265	0.0159238
666.343	0.0157529
666.421	0.0157598
666.499	0.0156713
666.578	0.0156382
666.656	0.0154636
666.734	0.0152077
666.812	0.0151701
666.890	0.0150908
666.968	0.0148325
667.046	0.0146290
667.124	0.0143058
667.203	0.0143277
667.281	0.0142097
667.359	0.0138773
667.437	0.0137549
667.515	0.0134557
667.593	0.0132969
667.671	0.0130583
667.749	0.0129224
667.828	0.0127470
667.906	0.0124756
667.984	0.0124419
668.062	0.0121663
668.140	0.0121073
668.218	0.0118726
668.296	0.0121158
668.374	0.0119850
668.453	0.0119551
668.531	0.0119493
668.609	0.0119522
668.687	0.0119953
668.765	0.0118812
668.843	0.0119464
668.921	0.0120170
668.999	0.0122406
669.078	0.0121533
669.156	0.0123401
669.234	0.0124013
669.312	0.0125805
669.390	0.0126331
669.468	0.0129295
669.546	0.0128589
669.624	0.0131329
669.703	0.0132462
669.781	0.0133687
669.859	0.0136423
669.937	0.0137609
670.015	0.0139285
670.093	0.0140966
670.171	0.0145161
670.249	0.0147328
670.328	0.0149031
670.406	0.0151302
670.484	0.0152505
670.562	0.0154264
670.640	0.0155671
670.718	0.0158453
670.796	0.0159848
670.874	0.0159763
670.953	0.0160043
671.031	0.0160671
671.109	0.0160474
671.187	0.0159191
671.265	0.0160333
671.343	0.0160061
671.421	0.0158494
671.499	0.0156545
671.578	0.0156917
671.656	0.0154471
671.734	0.0153023
671.812	0.0149185
671.890	0.0149289
671.968	0.0146685
672.046	0.0144305
672.124	0.0143601
672.203	0.0141904
672.281	0.0140977
672.359	0.0137743
672.437	0.0136917
672.515	0.0134489
672.593	0.0134677
672.671	0.0134766
672.749	0.0134073
672.828	0.0130807
672.906	0.0129631
672.984	0.0127957
673.062	0.0123979
673.140	0.0124267
673.218	0.0121008
673.296	0.0117316
673.374	0.0116451
673.453	0.0113820
673.531	0.0112058
673.609	0.0111911
673.687	0.0110158
673.765	0.0111139
673.843	0.0109457
673.921	0.0110710
673.999	0.0111717
674.078	0.0111471
674.156	0.0113371
674.234	0.0114757
674.312	0.0115341
674.390	0.0117250
674.468	0.0119711
674.546	0.0123355
674.624	0.0125356
674.703	0.0128720
674.781	0.0132901
674.859	0.0135610
674.937	0.0138891
675.015	0.0143573
675.093	0.0146141
675.171	0.0149461
675.249	0.0152456
675.328	0.0154589
675.406	0.0155840
675.484	0.0158115
675.562	0.0160716
675.640	0.0161952
675.718	0.0163354
675.796	0.0164646
675.874	0.0164423
675.953	0.0164108
676.031	0.0167113
676.109	0.0167059
676.187	0.0167313
676.265	0.0165708
676.343	0.0164325
676.421	0.0165271
676.499	0.0164321
676.578	0.0163268
676.656	0.0160845
676.734	0.0157757
676.812	0.0156316
676.890	0.0154148
676.968	0.0153234
677.046	0.0150620
677.124	0.0147378
677.203	0.0143701
677.281	0.0141418
677.359	0.0138681
677.437	0.0135624
677.515	0.0132183
677.593	0.0129668
677.671	0.0126244
677.749	0.0123729
677.828	0.0120730
677.906	0.0117628
677.984	0.0115717
678.062	0.0112804
678.140	0.0109853
678.218	0.0109470
678.296	0.0108224
678.374	0.0105641
678.453	0.0107195
678.531	0.0109197
678.609	0.0109794
678.687	0.0110868
678.765	0.0111734
678.843	0.0114291
678.921	0.0117340
678.999	0.0121369
679.078	0.0121162
679.156	0.0125196
679.234	0.0127976
679.312	0.0129413
679.390	0.0133828
679.468	0.0133690
679.546	0.0135587
679.624	0.0140292
679.703	0.0139990
679.781	0.0140559
679.859	0.0143378
679.937	0.0144225
680.015	0.0145348
680.093	0.0146442
680.171	0.0148206
680.249	0.0150027
680.328	0.0149308
680.406	0.0150432
680.484	0.0151963
680.562	0.0152375
680.640	0.0154022
680.718	0.0155781
680.796	0.0156329
680.874	0.0155253
680.953	0.0155871
681.031	0.0156548
681.109	0.0156551
681.187	0.0154651
681.265	0.0153226
681.343	0.0152154
681.421	0.0152225
681.499	0.0150334
681.578	0.0148205
681.656	0.0146539
681.734	0.0144456
681.812	0.0143990
681.890	0.0143304
681.968	0.0141817
682.046	0.0143443
682.124	0.0142371
682.203	0.0142139
682.281	0.0143676
682.359	0.0141932
682.437	0.0141579
682.515	0.0141328
682.593	0.0139278
682.671	0.0137973
682.749	0.0137199
682.828	0.0135692
682.906	0.0132938
682.984	0.0130664
683.062	0.0129773
683.140	0.0128024
683.218	0.0128596
683.296	0.0125819
683.374	0.0123631
683.453	0.0125873
683.531	0.0124192
683.609	0.0124319
683.687	0.0124419
683.765	0.0124957
683.843	0.0124776
683.921	0.0127198
683.999	0.0127809
684.078	0.0129736
684.156	0.0131107
684.234	0.0132005
684.312	0.0133897
684.390	0.0135271
684.468	0.0135342
684.546	0.0137258
684.624	0.0137225
684.703	0.0135516
684.781	0.0136545
684.859	0.0135550
684.937	0.0134340
685.015	0.0133878
685.093	0.0134023
685.171	0.0133714
685.249	0.0131710
685.328	0.0131677
685.406	0.0132380
685.484	0.0132945
685.562	0.0133826
685.640	0.0134675
685.718	0.0134440
685.796	0.0137059
685.874	0.0138067
685.953	0.0139586
686.031	0.0140732
686.109	0.0143030
686.187	0.0145600
686.265	0.0147672
686.343	0.0148971
686.421	0.0151112
686.499	0.0150847
686.578	0.0152756
686.656	0.0152997
686.734	0.0153372
686.812	0.0154021
686.890	0.0153954
686.968	0.0155059
687.046	0.0153964
687.124	0.0153354
687.203	0.0152650
687.281	0.0152746
687.359	0.0152700
687.437	0.0152526
687.515	0.0151498
687.593	0.0150293
687.671	0.0151115
687.749	0.0150337
687.828	0.0148897
687.906	0.0147736
687.984	0.0147115
688.062	0.0146587
688.140	0.0144995
688.218	0.0142114
688.296	0.0139088
688.374	0.0136773
688.453	0.0135873
688.531	0.0133693
688.609	0.0131970
688.687	0.0129406
688.765	0.0127273
688.843	0.0125890
688.921	0.0125243
688.999	0.0123157
689.078	0.0123306
689.156	0.0122655
689.234	0.0122508
689.312	0.0123408
689.390	0.0123585
689.468	0.0124207
689.546	0.0123931
689.624	0.0125031
689.703	0.0126433
689.781	0.0125695
689.859	0.0127280
689.937	0.0127415
690.015	0.0128280
690.093	0.0132117
690.171	0.0131944
690.249	0.0133868
690.328	0.0135010
690.406	0.0137307
690.484	0.0138918
690.562	0.0140721
690.640	0.0141973
690.718	0.0143425
690.796	0.0146219
690.874	0.0146854
690.953	0.0148048
691.031	0.0149136
691.109	0.0148554
691.187	0.0148698
691.265	0.0148623
691.343	0.0148811
691.421	0.0147205
691.499	0.0146434
691.578	0.0145793
691.656	0.0144474
691.734	0.0143929
691.812	0.0143513
691.890	0.0143086
691.968	0.0141655
692.046	0.0140852
692.124	0.0140744
692.203	0.0140918
692.281	0.0141555
692.359	0.0140273
692.437	0.0140311
692.515	0.0139400
692.593	0.0140634
692.671	0.0141257
692.749	0.0141000
692.828	0.0140424
692.906	0.0139683
692.984	0.0140115
693.062	0.0138802
693.140	0.0139046
693.218	0.0140225
693.296	0.0137947
693.374	0.0138231
693.453	0.0141070
693.531	0.0139291
693.609	0.0139207
693.687	0.0140106
693.765	0.0137506
693.843	0.0139166
693.921	0.0138929
693.999	0.0136905
694.078	0.0134972
694.156	0.0135114
694.234	0.0133076
694.312	0.0133279
694.390	0.0133207
694.468	0.0132206
694.546	0.0132475
694.624	0.0131832
694.703	0.0132607
694.781	0.0132279
694.859	0.0132587
694.937	0.0135439
695.015	0.0137032
695.093	0.0136050
695.171	0.0136813
695.249	0.0137289
695.328	0.0137881
695.406	0.0138289
695.484	0.0139217
695.562	0.0138418
695.640	0.0138947
695.718	0.0140384
695.796	0.0138583
695.874	0.0140071
695.953	0.0138627
696.031	0.0139711
696.109	0.0137586
696.187	0.0137831
696.265	0.0136745
696.343	0.0136110
696.421	0.0136646
696.499	0.0136868
696.578	0.0135452
696.656	0.0133782
696.734	0.0133606
696.812	0.0132599
696.890	0.0132073
696.968	0.0131032
697.046	0.0130026
697.124	0.0130917
697.203	0.0128969
697.281	0.0128105
697.359	0.0127760
697.437	0.0127332
697.515	0.0127557
697.593	0.0126800
697.671	0.0128885
697.749	0.0128948
697.828	0.0130927
697.906	0.0131372
697.984	0.0134026
698.062	0.0135367
698.140	0.0136515
698.218	0.0139561
698.296	0.0140790
698.374	0.0142483
698.453	0.0143138
698.531	0.0145034
698.609	0.0147047
698.687	0.0148321
698.765	0.0148616
698.843	0.0148143
698.921	0.0149022
698.999	0.0148848
699.078	0.0148100
699.156	0.0147939
699.234	0.0146993
699.312	0.0147469
699.390	0.0147107
699.468	0.0144998
699.546	0.0145034
699.624	0.0143590
699.703	0.0142477
699.781	0.0141784
699.859	0.0138077
699.937	0.0139230
700.015	0.0137907
700.093	0.0134164
700.171	0.0133822
700.249	0.0129926
700.328	0.0128857
700.406	0.0127441
700.484	0.0125583
700.562	0.0125982
700.640	0.0126185
700.718	0.0125526
700.796	0.0126208
700.874	0.0125191
700.953	0.0128485
701.031	0.0127995
701.109	0.0129708
701.187	0.0131168
701.265	0.0132879
701.343	0.0135426
701.421	0.0136419
701.499	0.0138968
701.578	0.0139710
701.656	0.0142185
701.734	0.0144716
701.812	0.0144264
701.890	0.0144930
701.968	0.0146592
702.046	0.0147094
702.124	0.0146675
702.203	0.0145460
702.281	0.0144616
702.359	0.0144225
702.437	0.0142810
702.515	0.0142071
702.593	0.0141689
702.671	0.0139388
702.749	0.0138586
702.828	0.0138895
702.906	0.0136295
702.984	0.0138034
703.062	0.0136294
703.140	0.0132899
703.218	0.0134016
703.296	0.0133149
703.374	0.0131945
703.453	0.0130930
703.531	0.0130370
703.609	0.0129243
703.687	0.0129008
703.765	0.0129343
703.843	0.0128964
703.921	0.0128652
703.999	0.0130128
704.078	0.0131245
704.156	0.0131494
704.234	0.0132533
704.312	0.0134573
704.390	0.0133200
704.468	0.0135292
704.546	0.0137220
704.624	0.0138033
704.703	0.0138587
704.781	0.0139670
704.859	0.0141177
704.937	0.0141879
705.015	0.0144395
705.093	0.0144926
705.171	0.0144239
705.249	0.0144465
705.328	0.0145921
705.406	0.0145080
705.484	0.0145182
705.562	0.0146825
705.640	0.0145461
705.718	0.0145145
705.796	0.0146699
705.874	0.0145998
705.953	0.0147086
706.031	0.0147268
706.109	0.0148479
706.187	0.0149228
706.265	0.0148803
706.343	0.0146835
706.421	0.0148994
706.499	0.0148523
706.578	0.0148319
706.656	0.0146749
706.734	0.0146088
706.812	0.0146122
706.890	0.0145592
706.968	0.0143874
707.046	0.0142701
707.124	0.0141010
707.203	0.0141557
707.281	0.0139092
707.359	0.0137132
707.437	0.0136452
707.515	0.0135109
707.593	0.0134174
707.671	0.0131904
707.749	0.0131608
707.828	0.0130486
707.906	0.0130247
707.984	0.0128493
708.062	0.0128201
708.140	0.0127805
708.218	0.0128479
708.296	0.0127703
708.374	0.0129793
708.453	0.0129055
708.531	0.0130928
708.609	0.0132540
708.687	0.0133286
708.765	0.0133105
708.843	0.0135106
708.921	0.0136359
708.999	0.0135452
709.078	0.0136409
709.156	0.0135748
709.234	0.0138423
709.312	0.0138464
709.390	0.0138841
709.468	0.0139970
709.546	0.0140004
709.624	0.0141817
709.703	0.0140633
709.781	0.0141862
709.859	0.0140733
709.937	0.0141312
710.015	0.0143802
710.093	0.0142825
710.171	0.0143633
710.249	0.0143804
710.328	0.0143946
710.406	0.0145553
710.484	0.0145264
710.562	0.0147653
710.640	0.0146679
710.718	0.0147894
710.796	0.0146272
710.874	0.0147948
710.953	0.0147070
711.031	0.0146310
711.109	0.0146265
711.187	0.0145919
711.265	0.0144453
711.343	0.0144403
711.421	0.0144630
711.499	0.0143805
711.578	0.0142245
711.656	0.0140887
711.734	0.0142039
711.812	0.0140931
711.890	0.0139485
711.968	0.0140248
712.046	0.0139104
712.124	0.0139169
712.203	0.0139476
712.281	0.0138608
712.359	0.0138837
712.437	0.0139436
712.515	0.0138842
712.593	0.0137797
712.671	0.0137617
712.749	0.0137045
712.828	0.0137537
712.906	0.0135156
712.984	0.0135886
713.062	0.0135879
713.140	0.0135111
713.218	0.0134799
713.296	0.0135056
713.374	0.0134484
713.453	0.0134319
713.531	0.0135022
713.609	0.0136078
713.687	0.0133692
713.765	0.0134379
713.843	0.0135015
713.921	0.0135635
713.999	0.0134617
714.078	0.0135734
714.156	0.0137576
714.234	0.0136204
714.312	0.0137018
714.390	0.0136559
714.468	0.0136639
714.546	0.0137010
714.624	0.0135861
714.703	0.0134332
714.781	0.0135526
714.859	0.0134524
714.937	0.0134836
715.015	0.0135555
715.093	0.0135145
715.171	0.0134802
715.249	0.0135342
715.328	0.0134170
715.406	0.0134664
715.484	0.0132272
715.562	0.0132503
715.640	0.0133017
715.718	0.0131438
715.796	0.0131549
715.874	0.0132065
715.953	0.0133746
716.031	0.0133376
716.109	0.0133658
716.187	0.0135638
716.265	0.0135562
716.343	0.0133740
716.421	0.0134564
716.499	0.0136166
716.578	0.0137082
716.656	0.0137763
716.734	0.0139442
716.812	0.0139928
716.890	0.0140742
716.968	0.0141244
717.046	0.0143401
717.124	0.0144589
717.203	0.0144694
717.281	0.0144266
717.359	0.0144680
717.437	0.0145572
717.515	0.0145598
717.593	0.0146275
717.671	0.0146246
717.749	0.0146280
717.828	0.0147503
717.906	0.0147883
717.984	0.0146751
718.062	0.0147701
718.140	0.0146856
718.218	0.0146983
718.296	0.0146977
718.374	0.0145886
718.453	0.0145698
718.531	0.0144204
718.609	0.0142976
718.687	0.0141747
718.765	0.0140492
718.843	0.0141591
718.921	0.0140086
718.999	0.0137373
719.078	0.0137022
719.156	0.0135410
719.234	0.0136301
719.312	0.0134561
719.390	0.0133643
719.468	0.0134390
719.546	0.0132957
719.624	0.0132363
719.703	0.0132783
719.781	0.0134177
719.859	0.0133768
719.937	0.0133681
720.015	0.0133913
720.093	0.0133059
720.171	0.0133582
720.249	0.0135487
720.328	0.0135451
720.406	0.0134534
720.484	0.0132549
720.562	0.0134081
720.640	0.0135208
720.718	0.0134421
720.796	0.0133837
720.874	0.0134207
720.953	0.0134382
721.031	0.0135311
721.109	0.0134945
721.187	0.0134443
721.265	0.0134835
721.343	0.0135387
721.421	0.0136160
721.499	0.0135403
721.578	0.0135319
721.656	0.0136622
721.734	0.0137815
721.812	0.0139551
721.890	0.0138855
721.968	0.0140800
722.046	0.0141605
722.124	0.0140345
722.203	0.0140729
722.281	0.0141328
722.359	0.0140880
722.437	0.0143589
722.515	0.0142634
722.593	0.0141840
722.671	0.0140562
722.749	0.0142321
722.828	0.0141232
722.906	0.0139117
722.984	0.0140250
723.062	0.0139471
723.140	0.0138710
723.218	0.0139552
723.296	0.0137829
723.374	0.0136897
723.453	0.0138602
723.531	0.0137431
723.609	0.0137096
723.687	0.0136777
723.765	0.0137326
723.843	0.0137239
723.921	0.0136424
723.999	0.0137401
724.078	0.0137878
724.156	0.0137488
724.234	0.0139079
724.312	0.0138082
724.390	0.0138445
724.468	0.0136974
724.546	0.0137458
724.624	0.0138737
724.703	0.0138913
724.781	0.0140137
724.859	0.0138634
724.937	0.0140395
725.015	0.0139870
725.093	0.0139823
725.171	0.0138454
725.249	0.0140468
725.328	0.0141258
725.406	0.0140652
725.484	0.0141528
725.562	0.0141148
725.640	0.0141216
725.718	0.0141626
725.796	0.0143108
725.874	0.0142508
725.953	0.0141937
726.031	0.0140862
726.109	0.0140363
726.187	0.0140204
726.265	0.0139663
726.343	0.0140237
726.421	0.0138991
726.499	0.0136488
726.578	0.0136858
726.656	0.0135326
726.734	0.0135551
726.812	0.0134202
726.890	0.0133866
726.968	0.0131064
727.046	0.0130650
727.124	0.0131168
727.203	0.0132094
727.281	0.0132558
727.359	0.0132700
727.437	0.0132780
727.515	0.0132119
727.593	0.0131463
727.671	0.0130910
727.749	0.0133040
727.828	0.0133522
727.906	0.0133099
727.984	0.0133033
728.062	0.0134756
728.140	0.0135268
728.218	0.0135645
728.296	0.0136555
728.374	0.0138101
728.453	0.0137537
728.531	0.0139700
728.609	0.0140385
728.687	0.0142868
728.765	0.0143194
728.843	0.0144392
728.921	0.0146197
728.999	0.0144699
729.078	0.0145880
729.156	0.0147813
729.234	0.0147124
729.312	0.0147292
729.390	0.0146747
729.468	0.0147662
729.546	0.0146608
729.624	0.0146956
729.703	0.0145528
729.781	0.0145209
729.859	0.0143632
729.937	0.0143724
730.015	0.0144161
730.093	0.0142680
730.171	0.0142818
730.249	0.0141120
730.328	0.0141448
730.406	0.0140141
730.484	0.0138970
730.562	0.0140069
730.640	0.0138177
730.718	0.0140019
730.796	0.0137825
730.874	0.0136536
730.953	0.0137492
731.031	0.0136534
731.109	0.0135764
731.187	0.0137273
731.265	0.0137775
731.343	0.0137596
731.421	0.0136479
731.499	0.0136559
731.578	0.0136230
731.656	0.0137634
731.734	0.0137473
731.812	0.0138992
731.890	0.0137300
731.968	0.0138140
732.046	0.0139206
732.124	0.0139397
732.203	0.0138525
732.281	0.0139054
732.359	0.0138454
732.437	0.0137384
732.515	0.0137915
732.593	0.0138148
732.671	0.0138133
732.749	0.0138933
732.828	0.0136559
732.906	0.0135951
732.984	0.0137508
733.062	0.0137117
733.140	0.0135290
733.218	0.0135745
733.296	0.0137000
733.374	0.0136787
733.453	0.0135811
733.531	0.0137848
733.609	0.0136452
733.687	0.0136856
733.765	0.0137380
733.843	0.0137895
733.921	0.0136938
733.999	0.0137386
734.078	0.0138210
734.156	0.0137692
734.234	0.0137502
734.312	0.0136765
734.390	0.0138274
734.468	0.0140043
734.546	0.0139361
734.624	0.0139246
734.703	0.0141451
734.781	0.0143115
734.859	0.0142736
734.937	0.0143073
735.015	0.0143996
735.093	0.0143078
735.171	0.0143409
735.249	0.0143123
735.328	0.0142974
735.406	0.0143645
735.484	0.0143783
735.562	0.0143027
735.640	0.0143691
735.718	0.0144599
735.796	0.0142801
735.874	0.0140688
735.953	0.0142024
736.031	0.0141846
736.109	0.0139777
736.187	0.0140232
736.265	0.0140563
736.343	0.0140308
736.421	0.0139179
736.499	0.0138065
736.578	0.0138226
736.656	0.0136617
736.734	0.0136510
736.812	0.0137135
736.890	0.0136357
736.968	0.0136346
737.046	0.0134816
737.124	0.0133136
737.203	0.0135191
737.281	0.0133535
737.359	0.0133521
737.437	0.0133692
737.515	0.0133644
737.593	0.0133383
737.671	0.0133110
737.749	0.0133637
737.828	0.0133158
737.906	0.0132677
737.984	0.0133751
738.062	0.0133619
738.140	0.0133795
738.218	0.0133843
738.296	0.0134960
738.374	0.0134188
738.453	0.0134708
738.531	0.0134282
738.609	0.0135931
738.687	0.0135496
738.765	0.0134895
738.843	0.0135253
738.921	0.0136688
738.999	0.0137907
739.078	0.0136325
739.156	0.0135857
739.234	0.0136603
739.312	0.0136339
739.390	0.0136534
739.468	0.0136646
739.546	0.0138836
739.624	0.0137609
739.703	0.0137640
739.781	0.0139169
739.859	0.0139711
739.937	0.0139268
740.015	0.0138290
740.093	0.0139918
740.171	0.0139975
740.249	0.0140605
740.328	0.0140453
740.406	0.0139417
740.484	0.0140812
740.562	0.0139397
740.640	0.0139387
740.718	0.0140076
740.796	0.0138885
740.874	0.0139201
740.953	0.0138507
741.031	0.0139045
741.109	0.0139420
741.187	0.0138110
741.265	0.0140182
741.343	0.0138596
741.421	0.0138026
741.499	0.0139291
741.578	0.0139975
741.656	0.0140375
741.734	0.0139693
741.812	0.0140759
741.890	0.0140707
741.968	0.0140761
742.046	0.0140637
742.124	0.0140335
742.203	0.0141223
742.281	0.0139926
742.359	0.0140386
742.437	0.0139655
742.515	0.0138808
742.593	0.0139845
742.671	0.0139902
742.749	0.0139172
742.828	0.0139884
742.906	0.0138539
742.984	0.0137105
743.062	0.0136946
743.140	0.0136300
743.218	0.0135802
743.296	0.0135928
743.374	0.0135403
743.453	0.0136300
743.531	0.0136337
743.609	0.0135796
743.687	0.0135217
743.765	0.0135152
743.843	0.0136315
743.921	0.0136440
743.999	0.0134755
744.078	0.0137254
744.156	0.0137972
744.234	0.0135972
744.312	0.0136240
744.390	0.0138950
744.468	0.0136996
744.546	0.0135687
744.624	0.0136868
744.703	0.0137425
744.781	0.0136738
744.859	0.0138766
744.937	0.0137164
745.015	0.0137035
745.093	0.0137554
745.171	0.0137913
745.249	0.0137770
745.328	0.0138272
745.406	0.0140260
745.484	0.0139955
745.562	0.0141444
745.640	0.0140490
745.718	0.0140987
745.796	0.0141866
745.874	0.0141931
745.953	0.0142841
746.031	0.0142882
746.109	0.0141957
746.187	0.0142561
746.265	0.0142699
746.343	0.0142875
746.421	0.0141598
746.499	0.0140952
746.578	0.0142258
746.656	0.0141720
746.734	0.0141150
746.812	0.0139548
746.890	0.0139701
746.968	0.0139240
747.046	0.0138425
747.124	0.0137091
747.203	0.0137633
747.281	0.0138268
747.359	0.0135935
747.437	0.0135754
747.515	0.0137075
747.593	0.0134572
747.671	0.0134000
747.749	0.0137723
747.828	0.0136008
747.906	0.0136279
747.984	0.0135435
748.062	0.0136112
748.140	0.0136839
748.218	0.0136137
748.296	0.0134597
748.374	0.0135614
748.453	0.0135750
748.531	0.0136385
748.609	0.0135981
748.687	0.0136531
748.765	0.0137254
748.843	0.0136498
748.921	0.0137340
748.999	0.0136132
749.078	0.0136988
749.156	0.0138649
749.234	0.0137630
749.312	0.0138828
749.390	0.0138582
749.468	0.0139217
749.546	0.0139218
749.624	0.0139336
749.703	0.0139120
749.781	0.0139088
749.859	0.0139298
749.937	0.0139279
750.015	0.0138168
750.093	0.0138339
750.171	0.0138710
750.249	0.0136976
750.328	0.0137583
750.406	0.0136674
750.484	0.0134902
750.562	0.0135675
750.640	0.0135104
750.718	0.0136430
750.796	0.0134057
750.874	0.0136181
750.953	0.0135069
751.031	0.0134973
751.109	0.0135815
751.187	0.0135968
751.265	0.0135448
751.343	0.0135834
751.421	0.0135119
751.499	0.0136646
751.578	0.0137787
751.656	0.0136240
751.734	0.0136551
751.812	0.0135831
751.890	0.0137299
751.968	0.0138729
752.046	0.0138473
752.124	0.0138583
752.203	0.0139137
752.281	0.0138731
752.359	0.0138107
752.437	0.0138909
752.515	0.0139340
752.593	0.0140038
752.671	0.0139371
752.749	0.0138843
752.828	0.0140109
752.906	0.0140249
752.984	0.0139621
753.062	0.0139765
753.140	0.0140639
753.218	0.0140100
753.296	0.0141431
753.374	0.0141563
753.453	0.0140773
753.531	0.0142280
753.609	0.0141117
753.687	0.0142135
753.765	0.0141594
753.843	0.0141835
753.921	0.0141164
753.999	0.0139918
754.078	0.0142015
754.156	0.0141441
754.234	0.0140986
754.312	0.0139445
754.390	0.0139005
754.468	0.0138511
754.546	0.0139911
754.624	0.0140026
754.703	0.0139101
754.781	0.0139735
754.859	0.0137942
754.937	0.0138139
755.015	0.0138554
755.093	0.0140152
755.171	0.0139047
755.249	0.0139163
755.328	0.0139313
755.406	0.0140141
755.484	0.0139111
755.562	0.0140308
755.640	0.0138111
755.718	0.0139767
755.796	0.0140875
755.874	0.0141288
755.953	0.0140591
756.031	0.0139068
756.109	0.0139342
756.187	0.0139170
756.265	0.0138042
756.343	0.0137137
756.421	0.0137270
756.499	0.0137389
756.578	0.0137717
756.656	0.0135859
756.734	0.0136301
756.812	0.0136264
756.890	0.0135005
756.968	0.0134447
757.046	0.0134856
757.124	0.0135989
757.203	0.0136500
757.281	0.0136208
757.359	0.0136311
757.437	0.0136861
757.515	0.0136489
757.593	0.0136706
757.671	0.0137307
757.749	0.0137545
757.828	0.0138305
757.906	0.0137534
757.984	0.0137571
758.062	0.0139491
758.140	0.0138544
758.218	0.0139483
758.296	0.0139557
758.374	0.0139021
758.453	0.0139232
758.531	0.0138931
758.609	0.0140409
758.687	0.0141118
758.765	0.0141212
758.843	0.0140457
758.921	0.0140204
758.999	0.0140363
759.078	0.0138152
759.156	0.0138647
759.234	0.0140595
759.312	0.0139978
759.390	0.0138216
759.468	0.0139405
759.546	0.0140442
759.624	0.0139511
759.703	0.0138722
759.781	0.0138637
759.859	0.0139063
759.937	0.0137556
760.015	0.0138184
760.093	0.0138223
760.171	0.0137550
760.249	0.0137888
760.328	0.0137359
760.406	0.0138087
760.484	0.0137497
760.562	0.0137787
760.640	0.0139030
760.718	0.0137061
760.796	0.0137556
760.874	0.0138559
760.953	0.0137763
761.031	0.0138142
761.109	0.0135443
761.187	0.0137849
761.265	0.0137868
761.343	0.0137956
761.421	0.0138586
761.499	0.0137589
761.578	0.0137077
761.656	0.0137063
761.734	0.0137862
761.812	0.0136474
761.890	0.0136387
761.968	0.0137029
762.046	0.0138801
762.124	0.0137101
762.203	0.0135779
762.281	0.0137274
762.359	0.0137560
762.437	0.0137651
762.515	0.0135587
762.593	0.0136561
762.671	0.0137464
762.749	0.0137128
762.828	0.0136501
762.906	0.0136177
762.984	0.0136927
763.062	0.0137455
763.140	0.0137785
763.218	0.0138921
763.296	0.0139320
763.374	0.0137909
763.453	0.0138981
763.531	0.0139007
763.609	0.0138605
763.687	0.0139436
763.765	0.0140693
763.843	0.0140176
763.921	0.0140531
763.999	0.0140199
764.078	0.0140650
764.156	0.0140665
764.234	0.0139342
764.312	0.0137730
764.390	0.0139932
764.468	0.0138732
764.546	0.0138525
764.624	0.0138875
764.703	0.0137602
764.781	0.0138620
764.859	0.0138773
764.937	0.0137504
765.015	0.0136674
765.093	0.0136913
765.171	0.0136200
765.249	0.0134678
765.328	0.0134993
765.406	0.0137372
765.484	0.0135777
765.562	0.0135368
765.640	0.0135017
765.718	0.0136109
765.796	0.0134985
765.874	0.0137090
765.953	0.0136343
766.031	0.0136555
766.109	0.0136609
766.187	0.0134756
766.265	0.0136377
766.343	0.0138165
766.421	0.0136552
766.499	0.0136495
766.578	0.0136497
766.656	0.0137444
766.734	0.0138812
766.812	0.0138923
766.890	0.0138948
766.968	0.0138653
767.046	0.0138531
767.124	0.0139140
767.203	0.0139667
767.281	0.0138437
767.359	0.0140320
767.437	0.0140344
767.515	0.0139368
767.593	0.0138668
767.671	0.0140086
767.749	0.0139842
767.828	0.0139665
767.906	0.0140176
767.984	0.0140149
768.062	0.0141010
768.140	0.0138815
768.218	0.0141055
768.296	0.0139517
768.374	0.0140948
768.453	0.0141046
768.531	0.0139851
768.609	0.0140242
768.687	0.0141341
768.765	0.0140451
768.843	0.0140583
768.921	0.0140394
768.999	0.0140981
769.078	0.0139398
769.156	0.0138464
769.234	0.0139264
769.312	0.0138536
769.390	0.0138328
769.468	0.0138705
769.546	0.0138868
769.624	0.0136217
769.703	0.0138428
769.781	0.0138037
769.859	0.0138654
769.937	0.0138396
770.015	0.0138438
770.093	0.0137265
770.171	0.0138826
770.249	0.0138563
770.328	0.0137217
770.406	0.0136350
770.484	0.0137275
770.562	0.0136963
770.640	0.0137565
770.718	0.0136548
770.796	0.0135786
770.874	0.0135992
770.953	0.0134128
771.031	0.0135206
771.109	0.0136651
771.187	0.0136170
771.265	0.0136101
771.343	0.0137251
771.421	0.0135189
771.499	0.0134761
771.578	0.0136061
771.656	0.0136443
771.734	0.0136369
771.812	0.0136197
771.890	0.0137001
771.968	0.0136440
772.046	0.0137892
772.124	0.0138821
772.203	0.0138395
772.281	0.0138255
772.359	0.0141297
772.437	0.0141266
772.515	0.0139777
772.593	0.0140983
772.671	0.0141236
772.749	0.0141422
772.828	0.0140939
772.906	0.0140279
772.984	0.0140111
773.062	0.0140729
773.140	0.0140544
773.218	0.0141008
773.296	0.0141049
773.374	0.0141830
773.453	0.0142164
773.531	0.0142790
773.609	0.0141959
773.687	0.0140833
773.765	0.0141834
773.843	0.0142732
773.921	0.0141566
773.999	0.0140207
774.078	0.0142525
774.156	0.0140605
774.234	0.0139877
774.312	0.0140056
774.390	0.0139838
774.468	0.0138454
774.546	0.0140336
774.624	0.0138500
774.703	0.0137540
774.781	0.0138126
774.859	0.0138074
774.937	0.0137387
775.015	0.0135869
775.093	0.0134858
775.171	0.0136501
775.249	0.0135680
775.328	0.0135084
775.406	0.0134353
775.484	0.0135571
775.562	0.0134726
775.640	0.0135110
775.718	0.0135984
775.796	0.0134840
775.874	0.0135026
775.953	0.0135903
776.031	0.0136402
776.109	0.0137895
776.187	0.0137202
776.265	0.0136861
776.343	0.0135820
776.421	0.0137988
776.499	0.0137254
776.578	0.0137435
776.656	0.0138126
776.734	0.0138361
776.812	0.0137354
776.890	0.0136858
776.968	0.0138139
777.046	0.0138679
777.124	0.0138161
777.203	0.0139285
777.281	0.0139880
777.359	0.0139148
777.437	0.0140780
777.515	0.0140191
777.593	0.0140172
777.671	0.0141402
777.749	0.0140353
777.828	0.0142375
777.906	0.0141520
777.984	0.0140098
778.062	0.0141274
778.140	0.0138367
778.218	0.0138281
778.296	0.0138615
778.374	0.0137483
778.453	0.0138000
778.531	0.0137305
778.609	0.0135893
778.687	0.0136645
778.765	0.0136017
778.843	0.0135336
778.921	0.0136971
778.999	0.0136742
779.078	0.0138290
779.156	0.0138195
779.234	0.0138791
779.312	0.0139172
779.390	0.0138692
779.468	0.0140417
779.546	0.0140285
779.624	0.0139541
779.703	0.0141045
779.781	0.0141132
779.859	0.0141404
779.937	0.0140564
780.015	0.0141814
780.093	0.0143123
780.171	0.0140705
780.249	0.0141012
780.328	0.0141771
780.406	0.0141375
780.484	0.0140730
780.562	0.0139331
780.640	0.0138109
780.718	0.0137956
780.796	0.0138180
780.874	0.0138691
780.953	0.0138654
781.031	0.0137909
781.109	0.0137669
781.187	0.0137593
781.265	0.0136726
781.343	0.0137518
781.421	0.0136672
781.499	0.0135912
781.578	0.0135769
781.656	0.0135254
781.734	0.0135315
781.812	0.0135060
781.890	0.0134211
781.968	0.0134660
782.046	0.0135439
782.124	0.0135416
782.203	0.0134558
782.281	0.0133756
782.359	0.0135406
782.437	0.0134880
782.515	0.0136168
782.593	0.0135910
782.671	0.0137502
782.749	0.0136638
782.828	0.0137829
782.906	0.0138294
782.984	0.0139584
783.062	0.0139535
783.140	0.0139570
783.218	0.0141080
783.296	0.0140116
783.374	0.0140244
783.453	0.0141077
783.531	0.0141139
783.609	0.0142780
783.687	0.0140459
783.765	0.0139922
783.843	0.0139332
783.921	0.0140779
783.999	0.0141409
784.078	0.0141515
784.156	0.0140407
784.234	0.0139999
784.312	0.0141801
784.390	0.0142381
784.468	0.0141376
784.546	0.0141882
784.624	0.0140887
784.703	0.0140908
784.781	0.0139318
784.859	0.0140047
784.937	0.0140748
785.015	0.0140763
785.093	0.0139839
785.171	0.0140463
785.249	0.0140524
785.328	0.0140812
785.406	0.0138746
785.484	0.0140101
785.562	0.0140828
785.640	0.0139803
785.718	0.0139690
785.796	0.0138717
785.874	0.0137534
785.953	0.0138461
786.031	0.0138881
786.109	0.0137533
786.187	0.0135703
786.265	0.0138674
786.343	0.0136726
786.421	0.0134937
786.499	0.0135479
786.578	0.0136003
786.656	0.0135146
786.734	0.0134449
786.812	0.0134584
786.890	0.0134713
786.968	0.0134882
787.046	0.0134167
787.124	0.0136128
787.203	0.0135867
787.281	0.0137283
787.359	0.0136861
787.437	0.0137805
787.515	0.0138642
787.593	0.0138595
787.671	0.0138863
787.749	0.0138634
787.828	0.0140097
787.906	0.0139464
787.984	0.0139680
788.062	0.0141125
788.140	0.0141217
788.218	0.0139840
788.296	0.0140426
788.374	0.0141032
788.453	0.0143999
788.531	0.0143044
788.609	0.0141501
788.687	0.0142027
788.765	0.0143353
788.843	0.0141988
788.921	0.0142351
788.999	0.0141861
789.078	0.0143711
789.156	0.0141936
789.234	0.0140763
789.312	0.0142066
789.390	0.0140260
789.468	0.0139728
789.546	0.0140415
789.624	0.0140544
789.703	0.0139702
789.781	0.0140257
789.859	0.0138349
789.937	0.0140377
790.015	0.0139290
790.093	0.0138452
790.171	0.0137720
790.249	0.0140195
790.328	0.0138338
790.406	0.0138981
790.484	0.0139313
790.562	0.0138377
790.640	0.0139300
790.718	0.0139278
790.796	0.0138564
790.874	0.0138715
790.953	0.0137867
791.031	0.0138411
791.109	0.0139249
791.187	0.0138214
791.265	0.0138341
791.343	0.0138934
791.421	0.0137528
791.499	0.0138097
791.578	0.0137694
791.656	0.0136156
791.734	0.0136217
791.812	0.0138322
791.890	0.0138679
791.968	0.0139309
792.046	0.0137450
792.124	0.0139511
792.203	0.0138490
792.281	0.0139293
792.359	0.0138923
792.437	0.0138549
792.515	0.0137989
792.593	0.0137492
792.671	0.0138213
792.749	0.0138725
792.828	0.0137070
792.906	0.0135616
792.984	0.0136402
793.062	0.0134537
793.140	0.0136021
793.218	0.0135278
793.296	0.0135718
793.374	0.0134847
793.453	0.0133146
793.531	0.0134753
793.609	0.0134769
793.687	0.0135220
793.765	0.0135561
793.843	0.0135168
793.921	0.0136036
793.999	0.0137518
794.078	0.0138810
794.156	0.0140221
794.234	0.0139411
794.312	0.0140054
794.390	0.0139098
794.468	0.0141186
794.546	0.0140772
794.624	0.0140874
794.703	0.0139728
794.781	0.0140321
794.859	0.0140814
794.937	0.0140408
795.015	0.0140448
795.093	0.0139120
795.171	0.0140024
795.249	0.0138889
795.328	0.0139386
795.406	0.0139523
795.484	0.0139112
795.562	0.0139436
795.640	0.0138383
795.718	0.0138979
795.796	0.0137466
795.874	0.0137630
795.953	0.0136787
796.031	0.0136815
796.109	0.0137883
796.187	0.0136053
796.265	0.0136031
796.343	0.0138115
796.421	0.0135574
796.499	0.0137766
796.578	0.0137730
796.656	0.0138044
796.734	0.0138689
796.812	0.0138998
796.890	0.0141341
796.968	0.0140167
797.046	0.0140035
797.124	0.0139383
797.203	0.0142212
797.281	0.0142606
797.359	0.0142492
797.437	0.0142663
797.515	0.0142467
797.593	0.0142358
797.671	0.0140901
797.749	0.0139925
797.828	0.0140846
797.906	0.0141006
797.984	0.0139896
798.062	0.0138064
798.140	0.0137852
798.218	0.0137334
798.296	0.0136334
798.374	0.0137414
798.453	0.0135793
798.531	0.0135900
798.609	0.0136943
798.687	0.0136903
798.765	0.0137601
798.843	0.0137515
798.921	0.0137556
798.999	0.0139954
799.078	0.0139751
799.156	0.0138403
799.234	0.0139792
799.312	0.0140074
799.390	0.0141077
799.468	0.0140816
799.546	0.0139442
799.624	0.0140192
799.703	0.0140055
799.781	0.0140502
799.859	0.0139399
799.937	0.0139112
800.015	0.0138054
800.093	0.0137869
800.171	0.0139764
800.249	0.0138898
800.328	0.0137375
800.406	0.0138303
800.484	0.0139040
800.562	0.0137647
800.640	0.0139391
800.718	0.0139217
800.796	0.0138086
800.874	0.0139087
800.953	0.0139648
801.031	0.0137273
801.109	0.0138026
801.187	0.0138640
801.265	0.0138449
801.343	0.0136755
801.421	0.0137865
801.499	0.0137711
801.578	0.0138951
801.656	0.0137514
801.734	0.0137989
801.812	0.0137318
801.890	0.0138090
801.968	0.0137958
802.046	0.0137935
802.124	0.0136919
802.203	0.0139149
802.281	0.0138289
802.359	0.0139682
802.437	0.0139950
802.515	0.0140688
802.593	0.0140405
802.671	0.0141797
802.749	0.0141983
802.828	0.0142216
802.906	0.0140568
802.984	0.0141005
803.062	0.0140786
803.140	0.0141167
803.218	0.0141055
803.296	0.0141553
803.374	0.0140276
803.453	0.0140585
803.531	0.0138758
803.609	0.0138371
803.687	0.0139597
803.765	0.0137901
803.843	0.0138892
803.921	0.0138378
803.999	0.0137903
804.078	0.0137266
804.156	0.0135615
804.234	0.0137080
804.312	0.0136744
804.390	0.0136146
804.468	0.0135832
804.546	0.0134704
804.624	0.0134880
804.703	0.0135300
804.781	0.0135824
804.859	0.0135152
804.937	0.0134003
805.015	0.0133786
805.093	0.0134576
805.171	0.0135773
805.249	0.0134097
805.328	0.0134592
805.406	0.0135017
805.484	0.0135192
805.562	0.0135966
805.640	0.0136389
805.718	0.0137722
805.796	0.0137009
805.874	0.0138236
805.953	0.0138621
806.031	0.0138227
806.109	0.0139049
806.187	0.0139056
806.265	0.0138660
806.343	0.0138033
806.421	0.0137418
806.499	0.0139259
806.578	0.0140437
806.656	0.0137770
806.734	0.0138651
806.812	0.0139447
806.890	0.0137696
806.968	0.0138982
807.046	0.0139066
807.124	0.0139629
807.203	0.0136807
807.281	0.0137576
807.359	0.0135571
807.437	0.0137190
807.515	0.0137213
807.593	0.0138298
807.671	0.0137926
807.749	0.0137137
807.828	0.0138575
807.906	0.0136303
807.984	0.0136720
808.062	0.0138084
808.140	0.0137016
808.218	0.0137201
808.296	0.0136636
808.374	0.0137524
808.453	0.0137103
808.531	0.0137809
808.609	0.0136552
808.687	0.0138474
808.765	0.0136803
808.843	0.0137006
808.921	0.0136836
808.999	0.0136973
809.078	0.0137224
809.156	0.0137202
809.234	0.0139521
809.312	0.0138551
809.390	0.0137695
809.468	0.0139224
809.546	0.0140298
809.624	0.0139157
809.703	0.0139214
809.781	0.0139175
809.859	0.0137881
809.937	0.0138847
810.015	0.0138988
810.093	0.0138232
810.171	0.0138323
810.249	0.0137822
810.328	0.0136852
810.406	0.0137894
810.484	0.0137560
810.562	0.0136703
810.640	0.0138203
810.718	0.0137016
810.796	0.0135770
810.874	0.0136904
810.953	0.0138276
811.031	0.0136357
811.109	0.0136977
811.187	0.0136703
811.265	0.0136605
811.343	0.0136922
811.421	0.0135909
811.499	0.0136614
811.578	0.0137769
811.656	0.0137724
811.734	0.0137135
811.812	0.0137101
811.890	0.0136909
811.968	0.0137173
812.046	0.0136684
812.124	0.0137159
812.203	0.0136905
812.281	0.0137443
812.359	0.0138061
812.437	0.0138593
812.515	0.0138412
812.593	0.0138057
812.671	0.0138333
812.749	0.0138909
812.828	0.0138755
812.906	0.0140139
812.984	0.0140267
813.062	0.0139863
813.140	0.0139771
813.218	0.0139301
813.296	0.0140133
813.374	0.0141131
813.453	0.0141077
813.531	0.0140630
813.609	0.0140729
813.687	0.0142096
813.765	0.0142236
813.843	0.0142783
813.921	0.0140447
813.999	0.0140177
814.078	0.0142717
814.156	0.0141817
814.234	0.0140873
814.312	0.0140506
814.390	0.0141912
814.468	0.0142566
814.546	0.0140855
814.624	0.0141425
814.703	0.0140750
814.781	0.0141083
814.859	0.0142829
814.937	0.0141346
815.015	0.0141374
815.093	0.0141013
815.171	0.0140421
815.249	0.0141576
815.328	0.0140155
815.406	0.0140007
815.484	0.0140514
815.562	0.0140607
815.640	0.0139231
815.718	0.0138312
815.796	0.0137711
815.874	0.0139059
815.953	0.0138242
816.031	0.0137612
816.109	0.0137510
816.187	0.0136826
816.265	0.0138786
816.343	0.0137386
816.421	0.0136101
816.499	0.0138263
816.578	0.0138048
816.656	0.0137068
816.734	0.0136019
816.812	0.0136451
816.890	0.0136307
816.968	0.0138519
817.046	0.0136347
817.124	0.0137708
817.203	0.0138051
817.281	0.0136620
817.359	0.0136361
817.437	0.0136186
817.515	0.0137589
817.593	0.0137986
817.671	0.0139096
817.749	0.0138289
817.828	0.0138698
817.906	0.0138245
817.984	0.0139330
818.062	0.0140221
818.140	0.0141519
818.218	0.0141344
818.296	0.0141808
818.374	0.0141875
818.453	0.0143356
818.531	0.0142259
818.609	0.0141893
818.687	0.0143449
818.765	0.0144283
818.843	0.0142931
818.921	0.0142353
818.999	0.0142546
819.078	0.0143381
819.156	0.0143430
819.234	0.0141959
819.312	0.0142238
819.390	0.0141669
819.468	0.0140974
819.546	0.0139895
819.624	0.0139431
819.703	0.0140136
819.781	0.0139451
819.859	0.0139761
819.937	0.0139393
820.015	0.0139137
820.093	0.0138537
820.171	0.0138570
820.249	0.0139155
820.328	0.0138623
820.406	0.0140408
820.484	0.0139041
820.562	0.0139581
820.640	0.0139527
820.718	0.0137990
820.796	0.0140612
820.874	0.0137670
820.953	0.0137095
821.031	0.0139104
821.109	0.0138478
821.187	0.0138182
821.265	0.0139759
821.343	0.0140238
821.421	0.0139558
821.499	0.0139805
821.578	0.0139526
821.656	0.0140420
821.734	0.0139596
821.812	0.0140222
821.890	0.0139837
821.968	0.0139594
822.046	0.0139717
822.124	0.0139574
822.203	0.0140305
822.281	0.0138464
822.359	0.0137223
822.437	0.0138546
822.515	0.0137009
822.593	0.0138142
822.671	0.0139127
822.749	0.0137357
822.828	0.0137863
822.906	0.0136722
822.984	0.0135167
823.062	0.0136804
823.140	0.0135722
823.218	0.0134782
823.296	0.0136273
823.374	0.0136031
823.453	0.0135302
823.531	0.0135486
823.609	0.0136337
823.687	0.0135431
823.765	0.0136267
823.843	0.0136231
823.921	0.0137498
823.999	0.0135545
824.078	0.0136195
824.156	0.0135313
824.234	0.0135697
824.312	0.0135991
824.390	0.0136175
824.468	0.0136101
824.546	0.0136932
824.624	0.0136323
824.703	0.0136997
824.781	0.0135813
824.859	0.0137067
824.937	0.0136739
825.015	0.0138042
825.093	0.0136195
825.171	0.0137315
825.249	0.0138267
825.328	0.0138066
825.406	0.0139035
825.484	0.0138938
825.562	0.0138391
825.640	0.0137753
825.718	0.0138538
825.796	0.0139028
825.874	0.0138354
825.953	0.0139653
826.031	0.0138383
826.109	0.0137465
826.187	0.0136736
826.265	0.0137982
826.343	0.0137160
826.421	0.0137543
826.499	0.0138754
826.578	0.0136983
826.656	0.0138000
826.734	0.0137117
826.812	0.0137446
826.890	0.0136720
826.968	0.0138166
827.046	0.0137874
827.124	0.0135349
827.203	0.0136633
827.281	0.0136214
827.359	0.0137534
827.437	0.0137115
827.515	0.0136649
827.593	0.0137023
827.671	0.0136685
827.749	0.0136554
827.828	0.0136460
827.906	0.0135226
827.984	0.0138384
828.062	0.0138410
828.140	0.0136866
828.218	0.0136722
828.296	0.0137283
828.374	0.0139002
828.453	0.0138815
828.531	0.0138036
828.609	0.0137943
828.687	0.0140092
828.765	0.0139543
828.843	0.0138356
828.921	0.0139342
828.999	0.0141609
829.078	0.0138855
829.156	0.0137890
829.234	0.0138057
829.312	0.0137760
829.390	0.0138876
829.468	0.0139005
829.546	0.0139531
829.624	0.0137230
829.703	0.0137465
829.781	0.0138985
829.859	0.0138662
829.937	0.0137375
830.015	0.0139063
830.093	0.0138176
830.171	0.0137700
830.249	0.0138329
830.328	0.0136345
830.406	0.0137048
830.484	0.0138418
830.562	0.0138161
830.640	0.0136505
830.718	0.0137748
830.796	0.0138255
830.874	0.0136078
830.953	0.0136411
831.031	0.0136732
831.109	0.0136956
831.187	0.0137448
831.265	0.0137799
831.343	0.0137890
831.421	0.0136969
831.499	0.0137433
831.578	0.0138061
831.656	0.0137937
831.734	0.0138235
831.812	0.0138206
831.890	0.0138557
831.968	0.0137547
832.046	0.0138696
832.124	0.0138043
832.203	0.0137985
832.281	0.0139152
832.359	0.0138143
832.437	0.0140457
832.515	0.0140321
832.593	0.0139676
832.671	0.0141106
832.749	0.0139912
832.828	0.0139749
832.906	0.0140274
832.984	0.0139240
833.062	0.0141525
833.140	0.0140294
833.218	0.0140496
833.296	0.0140860
833.374	0.0140831
833.453	0.0139495
833.531	0.0139815
833.609	0.0139669
833.687	0.0139878
833.765	0.0140020
833.843	0.0138944
833.921	0.0140506
833.999	0.0139999
834.078	0.0139946
834.156	0.0139600
834.234	0.0138128
834.312	0.0140131
834.390	0.0138647
834.468	0.0138617
834.546	0.0136774
834.624	0.0137341
834.703	0.0136991
834.781	0.0136781
834.859	0.0137634
834.937	0.0136211
835.015	0.0135609
835.093	0.0135735
835.171	0.0136097
835.249	0.0135837
835.328	0.0136346
835.406	0.0136273
835.484	0.0136078
835.562	0.0135651
835.640	0.0135894
835.718	0.0137518
835.796	0.0137330
835.874	0.0136636
835.953	0.0137265
836.031	0.0138936
836.109	0.0138680
836.187	0.0138485
836.265	0.0140747
836.343	0.0138663
836.421	0.0139129
836.499	0.0139027
836.578	0.0139718
836.656	0.0139430
836.734	0.0139118
836.812	0.0138338
836.890	0.0139517
836.968	0.0139148
837.046	0.0139113
837.124	0.0139458
837.203	0.0139514
837.281	0.0139496
837.359	0.0139532
837.437	0.0140487
837.515	0.0140060
837.593	0.0140232
837.671	0.0143198
837.749	0.0141346
837.828	0.0140091
837.906	0.0141643
837.984	0.0141663
838.062	0.0140697
838.140	0.0141054
838.218	0.0141489
838.296	0.0141473
838.374	0.0141520
838.453	0.0141283
838.531	0.0140937
838.609	0.0140671
838.687	0.0141786
838.765	0.0140482
838.843	0.0140797
838.921	0.0140444
838.999	0.0140585
839.078	0.0139753
839.156	0.0139880
839.234	0.0139733
839.312	0.0139299
839.390	0.0137374
839.468	0.0138075
839.546	0.0136838
839.624	0.0136864
839.703	0.0137916
839.781	0.0136602
839.859	0.0136789
839.937	0.0137759
840.015	0.0137838
840.093	0.0136475
840.171	0.0136931
840.249	0.0139201
840.328	0.0137421
840.406	0.0137345
840.484	0.0137901
840.562	0.0138329
840.640	0.0138509
840.718	0.0138047
840.796	0.0140709
840.874	0.0141020
840.953	0.0139243
841.031	0.0140590
841.109	0.0139234
841.187	0.0139854
841.265	0.0140405
841.343	0.0138940
841.421	0.0138590
841.499	0.0140096
841.578	0.0139182
841.656	0.0140083
841.734	0.0139177
841.812	0.0140188
841.890	0.0139085
841.968	0.0140848
842.046	0.0139951
842.124	0.0140250
842.203	0.0139902
842.281	0.0139455
842.359	0.0139029
842.437	0.0139507
842.515	0.0138750
842.593	0.0139894
842.671	0.0138705
842.749	0.0138833
842.828	0.0140004
842.906	0.0140009
842.984	0.0139489
843.062	0.0139310
843.140	0.0140346
843.218	0.0140747
843.296	0.0139610
843.374	0.0140788
843.453	0.0141358
843.531	0.0141464
843.609	0.0142915
843.687	0.0142152
843.765	0.0141045
843.843	0.0141706
843.921	0.0141640
843.999	0.0141959
844.078	0.0141023
844.156	0.0141613
844.234	0.0142007
844.312	0.0141193
844.390	0.0141576
844.468	0.0140399
844.546	0.0140836
844.624	0.0139075
844.703	0.0140527
844.781	0.0137940
844.859	0.0139336
844.937	0.0140005
845.015	0.0138322
845.093	0.0137734
845.171	0.0138040
845.249	0.0139025
845.328	0.0137907
845.406	0.0137155
845.484	0.0136375
845.562	0.0136723
845.640	0.0137502
845.718	0.0137103
845.796	0.0137302
845.874	0.0137022
845.953	0.0136337
846.031	0.0137225
846.109	0.0137986
846.187	0.0137558
846.265	0.0138100
846.343	0.0139085
846.421	0.0138888
846.499	0.0138029
846.578	0.0137753
846.656	0.0138542
846.734	0.0140466
846.812	0.0138732
846.890	0.0138853
846.968	0.0140185
847.046	0.0140149
847.124	0.0138079
847.203	0.0139800
847.281	0.0138921
847.359	0.0139019
847.437	0.0137276
847.515	0.0138391
847.593	0.0138415
847.671	0.0136592
847.749	0.0137147
847.828	0.0137895
847.906	0.0138868
847.984	0.0136355
848.062	0.0137824
848.140	0.0137988
848.218	0.0135891
848.296	0.0138193
848.374	0.0135490
848.453	0.0136514
848.531	0.0137080
848.609	0.0138013
848.687	0.0137989
848.765	0.0136503
848.843	0.0138686
848.921	0.0138932
848.999	0.0138177
849.078	0.0138408
849.156	0.0137431
849.234	0.0138763
849.312	0.0139177
849.390	0.0139031
849.468	0.0137556
849.546	0.0137820
849.624	0.0138537
849.703	0.0138470
849.781	0.0138593
849.859	0.0137920
849.937	0.0139055
850.015	0.0139069
850.093	0.0137576
850.171	0.0139253
850.249	0.0138692
850.328	0.0137350
850.406	0.0136872
850.484	0.0138354
850.562	0.0137693
850.640	0.0136723
850.718	0.0136583
850.796	0.0137553
850.874	0.0136666
850.953	0.0136930
851.031	0.0135785
851.109	0.0135635
851.187	0.0137598
851.265	0.0135690
851.343	0.0137566
851.421	0.0136745
851.499	0.0136180
851.578	0.0137537
851.656	0.0137124
851.734	0.0136727
851.812	0.0138045
851.890	0.0138194
851.968	0.0138325
852.046	0.0139796
852.124	0.0139114
852.203	0.0138265
852.281	0.0138800
852.359	0.0140596
852.437	0.0139735
852.515	0.0138567
852.593	0.0137856
852.671	0.0138319
852.749	0.0137424
852.828	0.0138531
852.906	0.0138141
852.984	0.0139891
853.062	0.0138994
853.140	0.0138098
853.218	0.0139309
853.296	0.0138911
853.374	0.0139666
853.453	0.0137991
853.531	0.0138004
853.609	0.0138938
853.687	0.0137790
853.765	0.0138950
853.843	0.0139616
853.921	0.0137605
853.999	0.0138334
854.078	0.0139040
854.156	0.0137840
854.234	0.0137452
854.312	0.0137065
854.390	0.0136743
854.468	0.0138930
854.546	0.0137176
854.624	0.0137619
854.703	0.0136878
854.781	0.0137473
854.859	0.0138203
854.937	0.0136951
855.015	0.0137547
855.093	0.0137921
855.171	0.0137925
855.249	0.0138103
855.328	0.0137486
855.406	0.0136758
855.484	0.0137574
855.562	0.0138348
855.640	0.0138515
855.718	0.0138506
855.796	0.0137976
855.874	0.0138405
855.953	0.0137635
856.031	0.0137552
856.109	0.0137704
856.187	0.0138261
856.265	0.0139030
856.343	0.0138123
856.421	0.0137952
856.499	0.0138779
856.578	0.0138626
856.656	0.0138990
856.734	0.0139136
856.812	0.0139080
856.890	0.0139458
856.968	0.0139841
857.046	0.0139710
857.124	0.0139728
857.203	0.0140163
857.281	0.0140611
857.359	0.0141705
857.437	0.0140322
857.515	0.0139458
857.593	0.0141822
857.671	0.0141588
857.749	0.0140770
857.828	0.0141265
857.906	0.0140279
857.984	0.0140834
858.062	0.0141025
858.140	0.0138444
858.218	0.0139307
858.296	0.0138953
858.374	0.0138233
858.453	0.0138854
858.531	0.0137240
858.609	0.0137555
858.687	0.0135731
858.765	0.0137403
858.843	0.0136726
858.921	0.0135667
858.999	0.0135993
859.078	0.0136681
859.156	0.0135452
859.234	0.0137613
859.312	0.0138245
859.390	0.0136602
859.468	0.0137202
859.546	0.0137424
859.624	0.0137189
859.703	0.0136772
859.781	0.0137498
859.859	0.0137356
859.937	0.0137415
860.015	0.0137828
860.093	0.0136021
860.171	0.0137305
860.249	0.0137663
860.328	0.0136574
860.406	0.0135954
860.484	0.0135573
860.562	0.0135950
860.640	0.0136198
860.718	0.0136802
860.796	0.0137537
860.874	0.0135720
860.953	0.0135429
861.031	0.0135778
861.109	0.0136105
861.187	0.0137168
861.265	0.0135555
861.343	0.0135578
861.421	0.0135562
861.499	0.0136375
861.578	0.0135542
861.656	0.0135931
861.734	0.0137984
861.812	0.0137726
861.890	0.0136208
861.968	0.0137618
862.046	0.0135335
862.124	0.0136908
862.203	0.0137497
862.281	0.0137112
862.359	0.0137869
862.437	0.0137724
862.515	0.0138535
862.593	0.0138007
862.671	0.0138844
862.749	0.0137368
862.828	0.0138441
862.906	0.0138464
862.984	0.0139545
863.062	0.0140066
863.140	0.0138752
863.218	0.0139476
863.296	0.0140047
863.374	0.0139867
863.453	0.0139143
863.531	0.0138577
863.609	0.0138747
863.687	0.0139604
863.765	0.0138207
863.843	0.0138716
863.921	0.0139010
863.999	0.0139136
864.078	0.0137579
864.156	0.0138263
864.234	0.0138747
864.312	0.0138888
864.390	0.0138173
864.468	0.0138652
864.546	0.0137109
864.624	0.0139951
864.703	0.0138821
864.781	0.0137268
864.859	0.0137286
864.937	0.0137539
865.015	0.0137474
865.093	0.0137580
865.171	0.0137418
865.249	0.0137515
865.328	0.0135863
865.406	0.0136791
865.484	0.0135278
865.562	0.0137539
865.640	0.0136362
865.718	0.0136963
865.796	0.0135122
865.874	0.0136391
865.953	0.0136122
866.031	0.0135621
866.109	0.0135699
866.187	0.0137028
866.265	0.0136643
866.343	0.0136602
866.421	0.0135535
866.499	0.0136221
866.578	0.0138127
866.656	0.0136572
866.734	0.0137851
866.812	0.0138290
866.890	0.0138366
866.968	0.0138660
867.046	0.0137958
867.124	0.0138605
867.203	0.0139727
867.281	0.0138849
867.359	0.0138359
867.437	0.0138651
867.515	0.0139568
867.593	0.0138840
867.671	0.0139629
867.749	0.0139316
867.828	0.0139478
867.906	0.0139038
867.984	0.0138730
868.062	0.0139839
868.140	0.0139902
868.218	0.0139423
868.296	0.0138165
868.374	0.0139114
868.453	0.0138367
868.531	0.0139130
868.609	0.0137690
868.687	0.0137197
868.765	0.0137737
868.843	0.0138011
868.921	0.0138425
868.999	0.0137817
869.078	0.0136758
869.156	0.0136553
869.234	0.0135497
869.312	0.0136915
869.390	0.0136476
869.468	0.0137031
869.546	0.0137028
869.624	0.0136351
869.703	0.0137167
869.781	0.0135381
869.859	0.0135835
869.937	0.0137633
870.015	0.0134367
870.093	0.0135742
870.171	0.0137038
870.249	0.0135162
870.328	0.0137151
870.406	0.0136549
870.484	0.0136417
870.562	0.0136391
870.640	0.0137046
870.718	0.0136568
870.796	0.0136832
870.874	0.0137838
870.953	0.0138161
871.031	0.0138648
871.109	0.0139134
871.187	0.0137990
871.265	0.0139734
871.343	0.0140505
871.421	0.0138950
871.499	0.0138132
871.578	0.0139588
871.656	0.0139816
871.734	0.0139268
871.812	0.0139201
871.890	0.0137817
871.968	0.0139298
872.046	0.0138092
872.124	0.0137970
872.203	0.0138417
872.281	0.0139059
872.359	0.0139572
872.437	0.0138599
872.515	0.0138444
872.593	0.0139390
872.671	0.0139168
872.749	0.0138013
872.828	0.0138531
872.906	0.0138784
872.984	0.0137167
873.062	0.0136320
873.140	0.0138464
873.218	0.0137558
873.296	0.0136502
873.374	0.0137116
873.453	0.0136218
873.531	0.0134881
873.609	0.0134501
873.687	0.0135702
873.765	0.0136244
873.843	0.0137647
873.921	0.0137118
873.999	0.0136509
874.078	0.0136429
874.156	0.0137656
874.234	0.0138585
874.312	0.0138018
874.390	0.0137195
874.468	0.0136906
874.546	0.0137312
874.624	0.0138439
874.703	0.0137583
874.781	0.0137981
874.859	0.0137148
874.937	0.0137775
875.015	0.0136195
875.093	0.0136940
875.171	0.0137990
875.249	0.0138327
875.328	0.0138003
875.406	0.0138326
875.484	0.0136810
875.562	0.0137937
875.640	0.0139219
875.718	0.0138399
875.796	0.0138161
875.874	0.0139824
875.953	0.0138775
876.031	0.0137971
876.109	0.0141028
876.187	0.0140526
876.265	0.0139812
876.343	0.0138461
876.421	0.0139285
876.499	0.0139272
876.578	0.0140005
876.656	0.0140005
876.734	0.0140532
876.812	0.0140986
876.890	0.0140580
876.968	0.0140025
877.046	0.0140445
877.124	0.0141432
877.203	0.0139830
877.281	0.0139994
877.359	0.0139880
877.437	0.0140356
877.515	0.0140059
877.593	0.0139346
877.671	0.0140708
877.749	0.0140584
877.828	0.0140352
877.906	0.0140866
877.984	0.0142551
878.062	0.0141566
878.140	0.0141600
878.218	0.0141203
878.296	0.0142275
878.374	0.0142595
878.453	0.0141061
878.531	0.0141660
878.609	0.0143407
878.687	0.0141151
878.765	0.0140568
878.843	0.0141733
878.921	0.0140696
878.999	0.0140105
879.078	0.0140401
879.156	0.0141129
879.234	0.0141074
879.312	0.0140255
879.390	0.0140115
879.468	0.0139452
879.546	0.0140938
879.624	0.0138587
879.703	0.0139801
879.781	0.0140999
879.859	0.0141223
879.937	0.0139529
880.015	0.0140563
880.093	0.0140865
880.171	0.0140594
880.249	0.0140357
880.328	0.0139209
880.406	0.0139747
880.484	0.0137772
880.562	0.0138802
880.640	0.0139209
880.718	0.0137984
880.796	0.0139990
880.874	0.0139618
880.953	0.0139056
881.031	0.0138232
881.109	0.0136773
881.187	0.0136322
881.265	0.0139324
881.343	0.0138746
881.421	0.0138396
881.499	0.0137676
881.578	0.0138085
881.656	0.0138721
881.734	0.0137688
881.812	0.0137866
881.890	0.0138802
881.968	0.0138541
882.046	0.0139393
882.124	0.0137823
882.203	0.0139322
882.281	0.0139454
882.359	0.0138083
882.437	0.0138263
882.515	0.0140961
882.593	0.0138770
882.671	0.0138289
882.749	0.0138773
882.828	0.0139389
882.906	0.0140048
882.984	0.0138773
883.062	0.0139594
883.140	0.0138959
883.218	0.0138971
883.296	0.0138320
883.374	0.0139160
883.453	0.0138445
883.531	0.0138214
883.609	0.0139176
883.687	0.0137733
883.765	0.0137568
883.843	0.0138194
883.921	0.0137761
883.999	0.0138206
884.078	0.0137361
884.156	0.0138242
884.234	0.0138136
884.312	0.0136669
884.390	0.0137872
884.468	0.0137124
884.546	0.0137167
884.624	0.0136760
884.703	0.0136688
884.781	0.0135201
884.859	0.0136149
884.937	0.0136160
885.015	0.0133920
885.093	0.0134676
885.171	0.0136240
885.249	0.0134160
885.328	0.0135621
885.406	0.0135448
885.484	0.0135777
885.562	0.0135448
885.640	0.0134771
885.718	0.0134706
885.796	0.0134079
885.874	0.0134290
885.953	0.0134682
886.031	0.0136019
886.109	0.0134829
886.187	0.0134148
886.265	0.0134447
886.343	0.0135246
886.421	0.0134219
886.499	0.0135486
886.578	0.0136879
886.656	0.0136151
886.734	0.0136178
886.812	0.0136866
886.890	0.0137210
886.968	0.0135492
887.046	0.0136243
887.124	0.0136951
887.203	0.0137605
887.281	0.0137303
887.359	0.0138809
887.437	0.0137556
887.515	0.0136930
887.593	0.0140318
887.671	0.0139011
887.749	0.0138603
887.828	0.0138609
887.906	0.0138914
887.984	0.0139473
888.062	0.0139874
888.140	0.0139471
888.218	0.0139043
888.296	0.0138590
888.374	0.0139728
888.453	0.0138787
888.531	0.0139916
888.609	0.0139680
888.687	0.0139503
888.765	0.0139641
888.843	0.0140091
888.921	0.0138308
888.999	0.0139590
889.078	0.0139416
889.156	0.0138167
889.234	0.0138439
889.312	0.0138649
889.390	0.0137891
889.468	0.0138145
889.546	0.0137203
889.624	0.0137207
889.703	0.0139063
889.781	0.0138518
889.859	0.0138757
889.937	0.0138407
890.015	0.0138531
890.093	0.0138046
890.171	0.0138091
890.249	0.0137370
890.328	0.0139108
890.406	0.0138323
890.484	0.0140117
890.562	0.0138700
890.640	0.0138399
890.718	0.0137787
890.796	0.0138441
890.874	0.0137818
890.953	0.0137971
891.031	0.0138896
891.109	0.0137525
891.187	0.0138156
891.265	0.0139350
891.343	0.0138395
891.421	0.0138814
891.499	0.0139087
891.578	0.0138548
891.656	0.0139273
891.734	0.0136249
891.812	0.0137154
891.890	0.0138174
891.968	0.0139017
892.046	0.0137710
892.124	0.0136529
892.203	0.0136961
892.281	0.0138261
892.359	0.0137828
892.437	0.0136353
892.515	0.0137055
892.593	0.0138093
892.671	0.0138135
892.749	0.0138210
892.828	0.0137962
892.906	0.0139076
892.984	0.0139009
893.062	0.0138758
893.140	0.0139690
893.218	0.0138764
893.296	0.0140292
893.374	0.0138180
893.453	0.0140347
893.531	0.0140546
893.609	0.0139684
893.687	0.0139673
893.765	0.0140021
893.843	0.0140212
893.921	0.0141697
893.999	0.0140424
894.078	0.0141046
894.156	0.0141304
894.234	0.0138988
894.312	0.0138998
894.390	0.0140820
894.468	0.0139758
894.546	0.0139798
894.624	0.0140021
894.703	0.0140421
894.781	0.0139892
894.859	0.0139062
894.937	0.0139321
895.015	0.0138676
895.093	0.0139589
895.171	0.0139169
895.249	0.0138763
895.328	0.0137773
895.406	0.0138794
895.484	0.0138777
895.562	0.0138092
895.640	0.0139268
895.718	0.0139063
895.796	0.0137120
895.874	0.0137880
895.953	0.0138985
896.031	0.0138831
896.109	0.0138308
896.187	0.0138175
896.265	0.0139689
896.343	0.0138978
896.421	0.0138761
896.499	0.0139744
896.578	0.0139738
896.656	0.0140907
896.734	0.0141176
896.812	0.0140096
896.890	0.0139952
896.968	0.0139831
897.046	0.0140149
897.124	0.0139009
897.203	0.0139732
897.281	0.0140356
897.359	0.0140072
897.437	0.0140557
897.515	0.0139610
897.593	0.0138090
897.671	0.0137633
897.749	0.0138249
897.828	0.0139157
897.906	0.0138604
897.984	0.0138555
898.062	0.0137489
898.140	0.0140298
898.218	0.0139191
898.296	0.0139037
898.374	0.0138551
898.453	0.0139212
898.531	0.0137267
898.609	0.0137034
898.687	0.0138200
898.765	0.0139717
898.843	0.0139221
898.921	0.0139587
898.999	0.0139088
899.078	0.0137970
899.156	0.0138748
899.234	0.0140227
899.312	0.0137991
899.390	0.0138734
899.468	0.0138920
899.546	0.0140713
899.624	0.0138538
899.703	0.0139203
899.781	0.0140726
899.859	0.0139785
899.937	0.0140041
900.015	0.0139420
900.093	0.0141128
900.171	0.0141097
900.249	0.0141853
900.328	0.0141995
900.406	0.0142501
900.484	0.0140899
900.562	0.0142502
900.640	0.0141028
900.718	0.0141067
900.796	0.0141463
900.874	0.0141484
900.953	0.0142592
901.031	0.0142186
901.109	0.0141214
901.187	0.0141549
901.265	0.0142025
901.343	0.0142316
901.421	0.0142316
901.499	0.0142369
901.578	0.0142454
901.656	0.0141228
901.734	0.0140154
901.812	0.0140816
901.890	0.0139813
901.968	0.0139738
902.046	0.0140772
902.124	0.0139586
902.203	0.0139584
902.281	0.0138783
902.359	0.0137385
902.437	0.0138699
902.515	0.0138008
902.593	0.0138942
902.671	0.0136879
902.749	0.0137562
902.828	0.0136621
902.906	0.0135358
902.984	0.0135964
903.062	0.0136217
903.140	0.0136997
903.218	0.0136938
903.296	0.0137814
903.374	0.0136557
903.453	0.0136964
903.531	0.0137537
903.609	0.0137357
903.687	0.0137955
903.765	0.0136765
903.843	0.0136747
903.921	0.0138223
903.999	0.0137905
904.078	0.0137150
904.156	0.0138270
904.234	0.0139181
904.312	0.0138903
904.390	0.0138519
904.468	0.0138214
904.546	0.0138914
904.624	0.0137674
904.703	0.0139127
904.781	0.0138620
904.859	0.0140719
904.937	0.0139619
905.015	0.0140417
905.093	0.0141276
905.171	0.0140572
905.249	0.0142155
905.328	0.0140675
905.406	0.0142343
905.484	0.0141727
905.562	0.0142973
905.640	0.0142693
905.718	0.0142201
905.796	0.0141559
905.874	0.0141196
905.953	0.0141183
906.031	0.0141901
906.109	0.0142585
906.187	0.0141740
906.265	0.0141413
906.343	0.0142380
906.421	0.0140956
906.499	0.0141444
906.578	0.0141140
906.656	0.0139639
906.734	0.0140548
906.812	0.0140573
906.890	0.0140660
906.968	0.0139513
907.046	0.0139880
907.124	0.0139600
907.203	0.0140701
907.281	0.0139368
907.359	0.0138554
907.437	0.0138055
907.515	0.0138998
907.593	0.0138580
907.671	0.0138066
907.749	0.0137048
907.828	0.0137644
907.906	0.0136871
907.984	0.0137715
908.062	0.0136404
908.140	0.0137232
908.218	0.0136403
908.296	0.0138004
908.374	0.0135593
908.453	0.0137588
908.531	0.0136316
908.609	0.0136244
908.687	0.0136132
908.765	0.0136584
908.843	0.0136502
908.921	0.0136312
908.999	0.0136742
909.078	0.0136658
909.156	0.0137096
909.234	0.0137960
909.312	0.0137927
909.390	0.0138181
909.468	0.0138618
909.546	0.0139488
909.624	0.0137753
909.703	0.0139030
909.781	0.0140560
909.859	0.0140588
909.937	0.0141064
910.015	0.0139558
910.093	0.0140324
910.171	0.0140056
910.249	0.0139430
910.328	0.0139567
910.406	0.0139069
910.484	0.0139941
910.562	0.0140210
910.640	0.0140527
910.718	0.0140504
910.796	0.0140749
910.874	0.0140428
910.953	0.0141074
911.031	0.0140324
911.109	0.0138490
911.187	0.0139365
911.265	0.0138145
911.343	0.0139042
911.421	0.0138621
911.499	0.0138815
911.578	0.0139620
911.656	0.0138916
911.734	0.0137622
911.812	0.0137943
911.890	0.0138092
911.968	0.0138535
912.046	0.0137666
912.124	0.0138844
912.203	0.0139053
912.281	0.0138930
912.359	0.0138156
912.437	0.0139213
912.515	0.0138551
912.593	0.0138424
912.671	0.0137971
912.749	0.0137643
912.828	0.0138559
912.906	0.0138448
912.984	0.0138805
913.062	0.0137965
913.140	0.0139816
913.218	0.0139496
913.296	0.0136750
913.374	0.0138162
913.453	0.0139565
913.531	0.0139009
913.609	0.0138516
913.687	0.0139226
913.765	0.0138345
913.843	0.0138683
913.921	0.0139486
913.999	0.0138529
914.078	0.0138316
914.156	0.0138508
914.234	0.0137897
914.312	0.0138007
914.390	0.0138884
914.468	0.0138031
914.546	0.0137684
914.624	0.0138353
914.703	0.0136551
914.781	0.0137100
914.859	0.0138088
914.937	0.0137838
915.015	0.0137510
915.093	0.0138504
915.171	0.0137672
915.249	0.0137624
915.328	0.0138203
915.406	0.0138995
915.484	0.0138173
915.562	0.0136965
915.640	0.0138870
915.718	0.0138431
915.796	0.0138884
915.874	0.0139063
915.953	0.0138553
916.031	0.0138783
916.109	0.0139119
916.187	0.0137885
916.265	0.0138506
916.343	0.0139429
916.421	0.0139676
916.499	0.0137828
916.578	0.0139421
916.656	0.0138677
916.734	0.0138620
916.812	0.0139857
916.890	0.0139050
916.968	0.0137567
917.046	0.0137988
917.124	0.0138378
917.203	0.0138921
917.281	0.0138008
917.359	0.0139246
917.437	0.0139515
917.515	0.0139550
917.593	0.0139456
917.671	0.0138115
917.749	0.0138501
917.828	0.0139181
917.906	0.0138367
917.984	0.0140238
918.062	0.0140013
918.140	0.0138779
918.218	0.0139304
918.296	0.0139411
918.374	0.0140607
918.453	0.0139616
918.531	0.0138567
918.609	0.0139639
918.687	0.0139804
918.765	0.0139549
918.843	0.0138715
918.921	0.0138932
918.999	0.0139661
919.078	0.0139001
919.156	0.0138960
919.234	0.0138675
919.312	0.0139632
919.390	0.0139738
919.468	0.0139451
919.546	0.0139417
919.624	0.0138869
919.703	0.0140112
919.781	0.0140837
919.859	0.0138757
919.937	0.0139166
