05/08/2022	20:16:27	Ver.	4.1	UNKNOWN
Optical Delay	600.015094	Delta X		0.078125	Sweeps	1	Scan Rate	0/0
Coordinates	Axis 1	NaN	Axis 2	NaN	Axis 3	NaN	Axis 4	NaN	Axis 5	NaN	Axis 6	0.000000
TX Power	0.000000	RX Power	0.000000

600.015	0.0138696
600.093	0.0138760
600.171	0.0137572
600.249	0.0138816
600.328	0.0138918
600.406	0.0138587
600.484	0.0138261
600.562	0.0139806
600.640	0.0137955
600.718	0.0138536
600.796	0.0138374
600.874	0.0136798
600.953	0.0138641
601.031	0.0138396
601.109	0.0134673
601.187	0.0138039
601.265	0.0137992
601.343	0.0137865
601.421	0.0139165
601.499	0.0137858
601.578	0.0137393
601.656	0.0138126
601.734	0.0137615
601.812	0.0138246
601.890	0.0139458
601.968	0.0137907
602.046	0.0139450
602.124	0.0139086
602.203	0.0138109
602.281	0.0138931
602.359	0.0138195
602.437	0.0137309
602.515	0.0137771
602.593	0.0137992
602.671	0.0139046
602.749	0.0138493
602.828	0.0137249
602.906	0.0137504
602.984	0.0137038
603.062	0.0137805
603.140	0.0137634
603.218	0.0137437
603.296	0.0137746
603.374	0.0138242
603.453	0.0138959
603.531	0.0137337
603.609	0.0138643
603.687	0.0138786
603.765	0.0136889
603.843	0.0139079
603.921	0.0138702
603.999	0.0138421
604.078	0.0138447
604.156	0.0138197
604.234	0.0138737
604.312	0.0139254
604.390	0.0139288
604.468	0.0138473
604.546	0.0137244
604.624	0.0139234
604.703	0.0139272
604.781	0.0138931
604.859	0.0138891
604.937	0.0138451
605.015	0.0138026
605.093	0.0137969
605.171	0.0139570
605.249	0.0137768
605.328	0.0137947
605.406	0.0138069
605.484	0.0138749
605.562	0.0139024
605.640	0.0138850
605.718	0.0137813
605.796	0.0138324
605.874	0.0137714
605.953	0.0137676
606.031	0.0138812
606.109	0.0138919
606.187	0.0137793
606.265	0.0137869
606.343	0.0139526
606.421	0.0137982
606.499	0.0138379
606.578	0.0138757
606.656	0.0138432
606.734	0.0138446
606.812	0.0138324
606.890	0.0138524
606.968	0.0139783
607.046	0.0138399
607.124	0.0137984
607.203	0.0138706
607.281	0.0139367
607.359	0.0139072
607.437	0.0139363
607.515	0.0139250
607.593	0.0139157
607.671	0.0141164
607.749	0.0140246
607.828	0.0138380
607.906	0.0138850
607.984	0.0140288
608.062	0.0138733
608.140	0.0140241
608.218	0.0139695
608.296	0.0139242
608.374	0.0139525
608.453	0.0137698
608.531	0.0139024
608.609	0.0138547
608.687	0.0139008
608.765	0.0138379
608.843	0.0137895
608.921	0.0139325
608.999	0.0138770
609.078	0.0138506
609.156	0.0138822
609.234	0.0137413
609.312	0.0138966
609.390	0.0140566
609.468	0.0140107
609.546	0.0139367
609.624	0.0139406
609.703	0.0140943
609.781	0.0140102
609.859	0.0139617
609.937	0.0140280
610.015	0.0139196
610.093	0.0139861
610.171	0.0139473
610.249	0.0138565
610.328	0.0140173
610.406	0.0140820
610.484	0.0140652
610.562	0.0141621
610.640	0.0139480
610.718	0.0140895
610.796	0.0140015
610.874	0.0139544
610.953	0.0140240
611.031	0.0140445
611.109	0.0140273
611.187	0.0141159
611.265	0.0139863
611.343	0.0140396
611.421	0.0141566
611.499	0.0140329
611.578	0.0139256
611.656	0.0141125
611.734	0.0140633
611.812	0.0141579
611.890	0.0140670
611.968	0.0138587
612.046	0.0140189
612.124	0.0140683
612.203	0.0141322
612.281	0.0140163
612.359	0.0141240
612.437	0.0139807
612.515	0.0141535
612.593	0.0141199
612.671	0.0142408
612.749	0.0141954
612.828	0.0141241
612.906	0.0142696
612.984	0.0140962
613.062	0.0141288
613.140	0.0142584
613.218	0.0142695
613.296	0.0140474
613.374	0.0140084
613.453	0.0142122
613.531	0.0142001
613.609	0.0141837
613.687	0.0141420
613.765	0.0140410
613.843	0.0140177
613.921	0.0140801
613.999	0.0140908
614.078	0.0141405
614.156	0.0139527
614.234	0.0140684
614.312	0.0141795
614.390	0.0140145
614.468	0.0140532
614.546	0.0142347
614.624	0.0141496
614.703	0.0141357
614.781	0.0140885
614.859	0.0139964
614.937	0.0140173
615.015	0.0140874
615.093	0.0140450
615.171	0.0141410
615.249	0.0140207
615.328	0.0140137
615.406	0.0138602
615.484	0.0140215
615.562	0.0140501
615.640	0.0139722
615.718	0.0139622
615.796	0.0139772
615.874	0.0140863
615.953	0.0140772
616.031	0.0140820
616.109	0.0140003
616.187	0.0141036
616.265	0.0140250
616.343	0.0139674
616.421	0.0141127
616.499	0.0140757
616.578	0.0141103
616.656	0.0139897
616.734	0.0138895
616.812	0.0138958
616.890	0.0140119
616.968	0.0141198
617.046	0.0139954
617.124	0.0139902
617.203	0.0140086
617.281	0.0139720
617.359	0.0141871
617.437	0.0141473
617.515	0.0139182
617.593	0.0139524
617.671	0.0139325
617.749	0.0139878
617.828	0.0139960
617.906	0.0139645
617.984	0.0139245
618.062	0.0140192
618.140	0.0140693
618.218	0.0141076
618.296	0.0140942
618.374	0.0140844
618.453	0.0139676
618.531	0.0140887
618.609	0.0138667
618.687	0.0139374
618.765	0.0139206
618.843	0.0139373
618.921	0.0139646
618.999	0.0139370
619.078	0.0139417
619.156	0.0138895
619.234	0.0138358
619.312	0.0139477
619.390	0.0139440
619.468	0.0138962
619.546	0.0139331
619.624	0.0138324
619.703	0.0137858
619.781	0.0138293
619.859	0.0137141
619.937	0.0138140
620.015	0.0137988
620.093	0.0137354
620.171	0.0138049
620.249	0.0137868
620.328	0.0138397
620.406	0.0137491
620.484	0.0137285
620.562	0.0137759
620.640	0.0139734
620.718	0.0137306
620.796	0.0139120
620.874	0.0138004
620.953	0.0137365
621.031	0.0137004
621.109	0.0139226
621.187	0.0137654
621.265	0.0137904
621.343	0.0138618
621.421	0.0139001
621.499	0.0137411
621.578	0.0137511
621.656	0.0137951
621.734	0.0139339
621.812	0.0138822
621.890	0.0139041
621.968	0.0139111
622.046	0.0139074
622.124	0.0138907
622.203	0.0139767
622.281	0.0140602
622.359	0.0139976
622.437	0.0139441
622.515	0.0139237
622.593	0.0140055
622.671	0.0140672
622.749	0.0138568
622.828	0.0139323
622.906	0.0139143
622.984	0.0139931
623.062	0.0137790
623.140	0.0140220
623.218	0.0140683
623.296	0.0139177
623.374	0.0140128
623.453	0.0139509
623.531	0.0139294
623.609	0.0139690
623.687	0.0139066
623.765	0.0138837
623.843	0.0139371
623.921	0.0139584
623.999	0.0139302
624.078	0.0139832
624.156	0.0139205
624.234	0.0138506
624.312	0.0138789
624.390	0.0137722
624.468	0.0137949
624.546	0.0139753
624.624	0.0139265
624.703	0.0138479
624.781	0.0138315
624.859	0.0138371
624.937	0.0137782
625.015	0.0138428
625.093	0.0138287
625.171	0.0138770
625.249	0.0139555
625.328	0.0137778
625.406	0.0139010
625.484	0.0138048
625.562	0.0137553
625.640	0.0139146
625.718	0.0138639
625.796	0.0138330
625.874	0.0138438
625.953	0.0139342
626.031	0.0138271
626.109	0.0138656
626.187	0.0138895
626.265	0.0137805
626.343	0.0138451
626.421	0.0138963
626.499	0.0139436
626.578	0.0139761
626.656	0.0139957
626.734	0.0139823
626.812	0.0139365
626.890	0.0138001
626.968	0.0139431
627.046	0.0138868
627.124	0.0139283
627.203	0.0137556
627.281	0.0138721
627.359	0.0138775
627.437	0.0139484
627.515	0.0139267
627.593	0.0138671
627.671	0.0138691
627.749	0.0137868
627.828	0.0140292
627.906	0.0139544
627.984	0.0138954
628.062	0.0137871
628.140	0.0138575
628.218	0.0138441
628.296	0.0138467
628.374	0.0139148
628.453	0.0138528
628.531	0.0139262
628.609	0.0137956
628.687	0.0137791
628.765	0.0138309
628.843	0.0139625
628.921	0.0139769
628.999	0.0138340
629.078	0.0138965
629.156	0.0137135
629.234	0.0137106
629.312	0.0138439
629.390	0.0138208
629.468	0.0138511
629.546	0.0138826
629.624	0.0138502
629.703	0.0137209
629.781	0.0138114
629.859	0.0137470
629.937	0.0138551
630.015	0.0138160
630.093	0.0137929
630.171	0.0138706
630.249	0.0138266
630.328	0.0137748
630.406	0.0138217
630.484	0.0138618
630.562	0.0138752
630.640	0.0137603
630.718	0.0139544
630.796	0.0140048
630.874	0.0139622
630.953	0.0140084
631.031	0.0137383
631.109	0.0138982
631.187	0.0140422
631.265	0.0140282
631.343	0.0140610
631.421	0.0139124
631.499	0.0140495
631.578	0.0140012
631.656	0.0140485
631.734	0.0139733
631.812	0.0139992
631.890	0.0137666
631.968	0.0139571
632.046	0.0140088
632.124	0.0141598
632.203	0.0139459
632.281	0.0140430
632.359	0.0141623
632.437	0.0140211
632.515	0.0140691
632.593	0.0139105
632.671	0.0140869
632.749	0.0142508
632.828	0.0139450
632.906	0.0141145
632.984	0.0140945
633.062	0.0140716
633.140	0.0139943
633.218	0.0138892
633.296	0.0141743
633.374	0.0142191
633.453	0.0141241
633.531	0.0141743
633.609	0.0143039
633.687	0.0141370
633.765	0.0141425
633.843	0.0142027
633.921	0.0141999
633.999	0.0141597
634.078	0.0140987
634.156	0.0141173
634.234	0.0141748
634.312	0.0142513
634.390	0.0142315
634.468	0.0141579
634.546	0.0140852
634.624	0.0141640
634.703	0.0142755
634.781	0.0142846
634.859	0.0142621
634.937	0.0142371
635.015	0.0141970
635.093	0.0140783
635.171	0.0142083
635.249	0.0140801
635.328	0.0141299
635.406	0.0140543
635.484	0.0142347
635.562	0.0142178
635.640	0.0140464
635.718	0.0140456
635.796	0.0141130
635.874	0.0142373
635.953	0.0141388
636.031	0.0143068
636.109	0.0142072
636.187	0.0142596
636.265	0.0142247
636.343	0.0141264
636.421	0.0141343
636.499	0.0143729
636.578	0.0143102
636.656	0.0142844
636.734	0.0143087
636.812	0.0141159
636.890	0.0140475
636.968	0.0141596
637.046	0.0141408
637.124	0.0141085
637.203	0.0140447
637.281	0.0140540
637.359	0.0140242
637.437	0.0139984
637.515	0.0139740
637.593	0.0139043
637.671	0.0138486
637.749	0.0139485
637.828	0.0138615
637.906	0.0138915
637.984	0.0137985
638.062	0.0138999
638.140	0.0139084
638.218	0.0138139
638.296	0.0139648
638.374	0.0140421
638.453	0.0138741
638.531	0.0139703
638.609	0.0139950
638.687	0.0139864
638.765	0.0141687
638.843	0.0142345
638.921	0.0140897
638.999	0.0141503
639.078	0.0140663
639.156	0.0141001
639.234	0.0141179
639.312	0.0139948
639.390	0.0142250
639.468	0.0144250
639.546	0.0142950
639.624	0.0142645
639.703	0.0143810
639.781	0.0141805
639.859	0.0140728
639.937	0.0139423
640.015	0.0140917
640.093	0.0139469
640.171	0.0139104
640.249	0.0139369
640.328	0.0137347
640.406	0.0135600
640.484	0.0135894
640.562	0.0134652
640.640	0.0134610
640.718	0.0136463
640.796	0.0134766
640.874	0.0134485
640.953	0.0135571
641.031	0.0136658
641.109	0.0138519
641.187	0.0139914
641.265	0.0140388
641.343	0.0141145
641.421	0.0143196
641.499	0.0144202
641.578	0.0146088
641.656	0.0145112
641.734	0.0145603
641.812	0.0146317
641.890	0.0145290
641.968	0.0145783
642.046	0.0143918
642.124	0.0144572
642.203	0.0144954
642.281	0.0144251
642.359	0.0142773
642.437	0.0142138
642.515	0.0142350
642.593	0.0141835
642.671	0.0140738
642.749	0.0138692
642.828	0.0137389
642.906	0.0137235
642.984	0.0135268
643.062	0.0135238
643.140	0.0134354
643.218	0.0132997
643.296	0.0134174
643.374	0.0133155
643.453	0.0132517
643.531	0.0130899
643.609	0.0132433
643.687	0.0132996
643.765	0.0132858
643.843	0.0134301
643.921	0.0136442
643.999	0.0137585
644.078	0.0138286
644.156	0.0139575
644.234	0.0140502
644.312	0.0143443
644.390	0.0142697
644.468	0.0144302
644.546	0.0145786
644.624	0.0146981
644.703	0.0147389
644.781	0.0145704
644.859	0.0145538
644.937	0.0146922
645.015	0.0146578
645.093	0.0145733
645.171	0.0146066
645.249	0.0146244
645.328	0.0146095
645.406	0.0145308
645.484	0.0144530
645.562	0.0142420
645.640	0.0142202
645.718	0.0140896
645.796	0.0139110
645.874	0.0137331
645.953	0.0135148
646.031	0.0134473
646.109	0.0132874
646.187	0.0132391
646.265	0.0132376
646.343	0.0131586
646.421	0.0131555
646.499	0.0131348
646.578	0.0132054
646.656	0.0132104
646.734	0.0134195
646.812	0.0135754
646.890	0.0136396
646.968	0.0138212
647.046	0.0141271
647.124	0.0141161
647.203	0.0142567
647.281	0.0145474
647.359	0.0146676
647.437	0.0149417
647.515	0.0150709
647.593	0.0150904
647.671	0.0152489
647.749	0.0151530
647.828	0.0151499
647.906	0.0151400
647.984	0.0148386
648.062	0.0147598
648.140	0.0147211
648.218	0.0145727
648.296	0.0142844
648.374	0.0141429
648.453	0.0140787
648.531	0.0137886
648.609	0.0134826
648.687	0.0132833
648.765	0.0131467
648.843	0.0129903
648.921	0.0129426
648.999	0.0126284
649.078	0.0125871
649.156	0.0124352
649.234	0.0122575
649.312	0.0123648
649.390	0.0123979
649.468	0.0123019
649.546	0.0123067
649.624	0.0126852
649.703	0.0127774
649.781	0.0129063
649.859	0.0132902
649.937	0.0134715
650.015	0.0137569
650.093	0.0140611
650.171	0.0144223
650.249	0.0146566
650.328	0.0149788
650.406	0.0148659
650.484	0.0152470
650.562	0.0153607
650.640	0.0155269
650.718	0.0155064
650.796	0.0153781
650.874	0.0154984
650.953	0.0154845
651.031	0.0153666
651.109	0.0152508
651.187	0.0151099
651.265	0.0147897
651.343	0.0148436
651.421	0.0144463
651.499	0.0142219
651.578	0.0140524
651.656	0.0137334
651.734	0.0135583
651.812	0.0133994
651.890	0.0131164
651.968	0.0130556
652.046	0.0127926
652.124	0.0127114
652.203	0.0126914
652.281	0.0126545
652.359	0.0125875
652.437	0.0124768
652.515	0.0126844
652.593	0.0126265
652.671	0.0127451
652.749	0.0127277
652.828	0.0128629
652.906	0.0130022
652.984	0.0132143
653.062	0.0133353
653.140	0.0132430
653.218	0.0136047
653.296	0.0138188
653.374	0.0138944
653.453	0.0141225
653.531	0.0143580
653.609	0.0143721
653.687	0.0143978
653.765	0.0146022
653.843	0.0148706
653.921	0.0148298
653.999	0.0147407
654.078	0.0148213
654.156	0.0147667
654.234	0.0148170
654.312	0.0147184
654.390	0.0147596
654.468	0.0146257
654.546	0.0144154
654.624	0.0143896
654.703	0.0140869
654.781	0.0140112
654.859	0.0139130
654.937	0.0137308
655.015	0.0136479
655.093	0.0134308
655.171	0.0131677
655.249	0.0131509
655.328	0.0132364
655.406	0.0132036
655.484	0.0131845
655.562	0.0133336
655.640	0.0132562
655.718	0.0133201
655.796	0.0135472
655.874	0.0135587
655.953	0.0137424
656.031	0.0139246
656.109	0.0140552
656.187	0.0142108
656.265	0.0144289
656.343	0.0144941
656.421	0.0145184
656.499	0.0146222
656.578	0.0147862
656.656	0.0147064
656.734	0.0149332
656.812	0.0150114
656.890	0.0148866
656.968	0.0146127
657.046	0.0145695
657.124	0.0143827
657.203	0.0141879
657.281	0.0140470
657.359	0.0135720
657.437	0.0132983
657.515	0.0132375
657.593	0.0128564
657.671	0.0125529
657.749	0.0123877
657.828	0.0123287
657.906	0.0120160
657.984	0.0120441
658.062	0.0120966
658.140	0.0119055
658.218	0.0119974
658.296	0.0122086
658.374	0.0123170
658.453	0.0124549
658.531	0.0127917
658.609	0.0130168
658.687	0.0132372
658.765	0.0135857
658.843	0.0139486
658.921	0.0142458
658.999	0.0144987
659.078	0.0147773
659.156	0.0150885
659.234	0.0154435
659.312	0.0155036
659.390	0.0156564
659.468	0.0157902
659.546	0.0157920
659.624	0.0161407
659.703	0.0161548
659.781	0.0161597
659.859	0.0161369
659.937	0.0159610
660.015	0.0156688
660.093	0.0154614
660.171	0.0152393
660.249	0.0150631
660.328	0.0148071
660.406	0.0144241
660.484	0.0141850
660.562	0.0138590
660.640	0.0135170
660.718	0.0133735
660.796	0.0131068
660.874	0.0130576
660.953	0.0129089
661.031	0.0127590
661.109	0.0128075
661.187	0.0127144
661.265	0.0128331
661.343	0.0127415
661.421	0.0128001
661.499	0.0128477
661.578	0.0129366
661.656	0.0130042
661.734	0.0131356
661.812	0.0131490
661.890	0.0132377
661.968	0.0132288
662.046	0.0133863
662.124	0.0132877
662.203	0.0132880
662.281	0.0135011
662.359	0.0135009
662.437	0.0134207
662.515	0.0134356
662.593	0.0135764
662.671	0.0135046
662.749	0.0134460
662.828	0.0134245
662.906	0.0134200
662.984	0.0135891
663.062	0.0135652
663.140	0.0133941
663.218	0.0134450
663.296	0.0135373
663.374	0.0135719
663.453	0.0137849
663.531	0.0139807
663.609	0.0139352
663.687	0.0141882
663.765	0.0144309
663.843	0.0147310
663.921	0.0147397
663.999	0.0150288
664.078	0.0153545
664.156	0.0155618
664.234	0.0157108
664.312	0.0157703
664.390	0.0159688
664.468	0.0160836
664.546	0.0161533
664.624	0.0164203
664.703	0.0162961
664.781	0.0163052
664.859	0.0162215
664.937	0.0162236
665.015	0.0160524
665.093	0.0159069
665.171	0.0157698
665.249	0.0155067
665.328	0.0153003
665.406	0.0150374
665.484	0.0145675
665.562	0.0143292
665.640	0.0140857
665.718	0.0136488
665.796	0.0135853
665.874	0.0130999
665.953	0.0128308
666.031	0.0125346
666.109	0.0123498
666.187	0.0121220
666.265	0.0118726
666.343	0.0119151
666.421	0.0118446
666.499	0.0116501
666.578	0.0116190
666.656	0.0117290
666.734	0.0117451
666.812	0.0116991
666.890	0.0119257
666.968	0.0120881
667.046	0.0122632
667.124	0.0121660
667.203	0.0123455
667.281	0.0127589
667.359	0.0130118
667.437	0.0131200
667.515	0.0133715
667.593	0.0136468
667.671	0.0139148
667.749	0.0141341
667.828	0.0142760
667.906	0.0144180
667.984	0.0145911
668.062	0.0147379
668.140	0.0147757
668.218	0.0149428
668.296	0.0150808
668.374	0.0150152
668.453	0.0150725
668.531	0.0151675
668.609	0.0152837
668.687	0.0152071
668.765	0.0153156
668.843	0.0154587
668.921	0.0154872
668.999	0.0153941
669.078	0.0155959
669.156	0.0155355
669.234	0.0155006
669.312	0.0157610
669.390	0.0156057
669.468	0.0156363
669.546	0.0156292
669.624	0.0156736
669.703	0.0155059
669.781	0.0155195
669.859	0.0154771
669.937	0.0153953
670.015	0.0153712
670.093	0.0152057
670.171	0.0151021
670.249	0.0151025
670.328	0.0147530
670.406	0.0145671
670.484	0.0144994
670.562	0.0144220
670.640	0.0143066
670.718	0.0140460
670.796	0.0139050
670.874	0.0137551
670.953	0.0135262
671.031	0.0132002
671.109	0.0129504
671.187	0.0126048
671.265	0.0125553
671.343	0.0122845
671.421	0.0119180
671.499	0.0116872
671.578	0.0116730
671.656	0.0116670
671.734	0.0114380
671.812	0.0115511
671.890	0.0115758
671.968	0.0117739
672.046	0.0117597
672.124	0.0119243
672.203	0.0121864
672.281	0.0124605
672.359	0.0127534
672.437	0.0128101
672.515	0.0132089
672.593	0.0134062
672.671	0.0137083
672.749	0.0138022
672.828	0.0139353
672.906	0.0140659
672.984	0.0142526
673.062	0.0142368
673.140	0.0142608
673.218	0.0142995
673.296	0.0143996
673.374	0.0145847
673.453	0.0145662
673.531	0.0146886
673.609	0.0146688
673.687	0.0148363
673.765	0.0147389
673.843	0.0148741
673.921	0.0149538
673.999	0.0149759
674.078	0.0150764
674.156	0.0151737
674.234	0.0151685
674.312	0.0151806
674.390	0.0152708
674.468	0.0153664
674.546	0.0154670
674.624	0.0154871
674.703	0.0154515
674.781	0.0156841
674.859	0.0157513
674.937	0.0156226
675.015	0.0154617
675.093	0.0155289
675.171	0.0155238
675.249	0.0153128
675.328	0.0152711
675.406	0.0152266
675.484	0.0151286
675.562	0.0150884
675.640	0.0148637
675.718	0.0147805
675.796	0.0146674
675.874	0.0144479
675.953	0.0140996
676.031	0.0140689
676.109	0.0138027
676.187	0.0134767
676.265	0.0133881
676.343	0.0130640
676.421	0.0127402
676.499	0.0122749
676.578	0.0120031
676.656	0.0118500
676.734	0.0115564
676.812	0.0113988
676.890	0.0110800
676.968	0.0111103
677.046	0.0108841
677.124	0.0107449
677.203	0.0108235
677.281	0.0109373
677.359	0.0108183
677.437	0.0109652
677.515	0.0111871
677.593	0.0113182
677.671	0.0114336
677.749	0.0115409
677.828	0.0118348
677.906	0.0119254
677.984	0.0122269
678.062	0.0125650
678.140	0.0128135
678.218	0.0130464
678.296	0.0134036
678.374	0.0136734
678.453	0.0141497
678.531	0.0143472
678.609	0.0146283
678.687	0.0149564
678.765	0.0153399
678.843	0.0156140
678.921	0.0159846
678.999	0.0161250
679.078	0.0164007
679.156	0.0165716
679.234	0.0165733
679.312	0.0166666
679.390	0.0169160
679.468	0.0168061
679.546	0.0168686
679.624	0.0166097
679.703	0.0165807
679.781	0.0164810
679.859	0.0162764
679.937	0.0161194
680.015	0.0159471
680.093	0.0156500
680.171	0.0155219
680.249	0.0151762
680.328	0.0151917
680.406	0.0149743
680.484	0.0147963
680.562	0.0146860
680.640	0.0143154
680.718	0.0142413
680.796	0.0141517
680.874	0.0141294
680.953	0.0137977
681.031	0.0137481
681.109	0.0137095
681.187	0.0133444
681.265	0.0131041
681.343	0.0128728
681.421	0.0127072
681.499	0.0123399
681.578	0.0124241
681.656	0.0120795
681.734	0.0116824
681.812	0.0117056
681.890	0.0114224
681.968	0.0113397
682.046	0.0111055
682.124	0.0111462
682.203	0.0110561
682.281	0.0111180
682.359	0.0111293
682.437	0.0113495
682.515	0.0113053
682.593	0.0115501
682.671	0.0115881
682.749	0.0117896
682.828	0.0119792
682.906	0.0122001
682.984	0.0123335
683.062	0.0125976
683.140	0.0128884
683.218	0.0129638
683.296	0.0133222
683.374	0.0135255
683.453	0.0138420
683.531	0.0141364
683.609	0.0143878
683.687	0.0146000
683.765	0.0148000
683.843	0.0149817
683.921	0.0152915
683.999	0.0152322
684.078	0.0153077
684.156	0.0154208
684.234	0.0155413
684.312	0.0156163
684.390	0.0157568
684.468	0.0156585
684.546	0.0157423
684.624	0.0156733
684.703	0.0156270
684.781	0.0155600
684.859	0.0155458
684.937	0.0154568
685.015	0.0154198
685.093	0.0152014
685.171	0.0150951
685.249	0.0148665
685.328	0.0146909
685.406	0.0146648
685.484	0.0144296
685.562	0.0142534
685.640	0.0141393
685.718	0.0139769
685.796	0.0137401
685.874	0.0136759
685.953	0.0135654
686.031	0.0135812
686.109	0.0136832
686.187	0.0136359
686.265	0.0134360
686.343	0.0135509
686.421	0.0136294
686.499	0.0137407
686.578	0.0135529
686.656	0.0135139
686.734	0.0134187
686.812	0.0133580
686.890	0.0132281
686.968	0.0133201
687.046	0.0133246
687.124	0.0131625
687.203	0.0132801
687.281	0.0133919
687.359	0.0133083
687.437	0.0132632
687.515	0.0133912
687.593	0.0134119
687.671	0.0133517
687.749	0.0133127
687.828	0.0133427
687.906	0.0133546
687.984	0.0133128
688.062	0.0133619
688.140	0.0134583
688.218	0.0134277
688.296	0.0133855
688.374	0.0133295
688.453	0.0133848
688.531	0.0135429
688.609	0.0135565
688.687	0.0136433
688.765	0.0136510
688.843	0.0136840
688.921	0.0138774
688.999	0.0140646
689.078	0.0140338
689.156	0.0140594
689.234	0.0142872
689.312	0.0145010
689.390	0.0144750
689.468	0.0145195
689.546	0.0147193
689.624	0.0147234
689.703	0.0148880
689.781	0.0147198
689.859	0.0147823
689.937	0.0149852
690.015	0.0148613
690.093	0.0148949
690.171	0.0149706
690.249	0.0148226
690.328	0.0150176
690.406	0.0149947
690.484	0.0149917
690.562	0.0150398
690.640	0.0149500
690.718	0.0149728
690.796	0.0149773
690.874	0.0150426
690.953	0.0150256
691.031	0.0149626
691.109	0.0148616
691.187	0.0149751
691.265	0.0148536
691.343	0.0146806
691.421	0.0147662
691.499	0.0145629
691.578	0.0144688
691.656	0.0145064
691.734	0.0144032
691.812	0.0142458
691.890	0.0141565
691.968	0.0141700
692.046	0.0140891
692.124	0.0140451
692.203	0.0140530
692.281	0.0139225
692.359	0.0138750
692.437	0.0138961
692.515	0.0137920
692.593	0.0138295
692.671	0.0136463
692.749	0.0135296
692.828	0.0135649
692.906	0.0135600
692.984	0.0136201
693.062	0.0134992
693.140	0.0134499
693.218	0.0134302
693.296	0.0134550
693.374	0.0135130
693.453	0.0134303
693.531	0.0135609
693.609	0.0136350
693.687	0.0134963
693.765	0.0135008
693.843	0.0136021
693.921	0.0135715
693.999	0.0136803
694.078	0.0137318
694.156	0.0135577
694.234	0.0135847
694.312	0.0135558
694.390	0.0135669
694.468	0.0137976
694.546	0.0137370
694.624	0.0136495
694.703	0.0139735
694.781	0.0139371
694.859	0.0137941
694.937	0.0139374
695.015	0.0139421
695.093	0.0140291
695.171	0.0140536
695.249	0.0139738
695.328	0.0139796
695.406	0.0139456
695.484	0.0140298
695.562	0.0139915
695.640	0.0140351
695.718	0.0141233
695.796	0.0141472
695.874	0.0140685
695.953	0.0141140
696.031	0.0138773
696.109	0.0139893
696.187	0.0140884
696.265	0.0138895
696.343	0.0139836
696.421	0.0139568
696.499	0.0139583
696.578	0.0141634
696.656	0.0142107
696.734	0.0142540
696.812	0.0144321
696.890	0.0143892
696.968	0.0145988
697.046	0.0145622
697.124	0.0147391
697.203	0.0147409
697.281	0.0147699
697.359	0.0149639
697.437	0.0150188
697.515	0.0149648
697.593	0.0150582
697.671	0.0149214
697.749	0.0149395
697.828	0.0150887
697.906	0.0149409
697.984	0.0149484
698.062	0.0149518
698.140	0.0148637
698.218	0.0147517
698.296	0.0146208
698.374	0.0146130
698.453	0.0144023
698.531	0.0143763
698.609	0.0143647
698.687	0.0142922
698.765	0.0139548
698.843	0.0138801
698.921	0.0136350
698.999	0.0134532
699.078	0.0132917
699.156	0.0131789
699.234	0.0129610
699.312	0.0128528
699.390	0.0127724
699.468	0.0125346
699.546	0.0124908
699.624	0.0123950
699.703	0.0124030
699.781	0.0124596
699.859	0.0124580
699.937	0.0124798
700.015	0.0124559
700.093	0.0127145
700.171	0.0125697
700.249	0.0127184
700.328	0.0128915
700.406	0.0130342
700.484	0.0132263
700.562	0.0132899
700.640	0.0134898
700.718	0.0136119
700.796	0.0137625
700.874	0.0139463
700.953	0.0140771
701.031	0.0143200
701.109	0.0142832
701.187	0.0142737
701.265	0.0144254
701.343	0.0145058
701.421	0.0145065
701.499	0.0147971
701.578	0.0147400
701.656	0.0147662
701.734	0.0146671
701.812	0.0148801
701.890	0.0149026
701.968	0.0148387
702.046	0.0149210
702.124	0.0149081
702.203	0.0148928
702.281	0.0148786
702.359	0.0147594
702.437	0.0147474
702.515	0.0147214
702.593	0.0146985
702.671	0.0145987
702.749	0.0144878
702.828	0.0143527
702.906	0.0142522
702.984	0.0140684
703.062	0.0141039
703.140	0.0139476
703.218	0.0136476
703.296	0.0134904
703.374	0.0135724
703.453	0.0132289
703.531	0.0130859
703.609	0.0130545
703.687	0.0131472
703.765	0.0129552
703.843	0.0128873
703.921	0.0127483
703.999	0.0129768
704.078	0.0130254
704.156	0.0129839
704.234	0.0130626
704.312	0.0131152
704.390	0.0131876
704.468	0.0133379
704.546	0.0132633
704.624	0.0133778
704.703	0.0137840
704.781	0.0136332
704.859	0.0135931
704.937	0.0137912
705.015	0.0137125
705.093	0.0138372
705.171	0.0137767
705.249	0.0139095
705.328	0.0140027
705.406	0.0139476
705.484	0.0140161
705.562	0.0141524
705.640	0.0141485
705.718	0.0141521
705.796	0.0141202
705.874	0.0141522
705.953	0.0142667
706.031	0.0142977
706.109	0.0143213
706.187	0.0145137
706.265	0.0144611
706.343	0.0145319
706.421	0.0145462
706.499	0.0144208
706.578	0.0144952
706.656	0.0144676
706.734	0.0145107
706.812	0.0144990
706.890	0.0143540
706.968	0.0143132
707.046	0.0142238
707.124	0.0141934
707.203	0.0141480
707.281	0.0140083
707.359	0.0138873
707.437	0.0138728
707.515	0.0137213
707.593	0.0135767
707.671	0.0135559
707.749	0.0134107
707.828	0.0134344
707.906	0.0133361
707.984	0.0132931
708.062	0.0131647
708.140	0.0131710
708.218	0.0131358
708.296	0.0131238
708.374	0.0131153
708.453	0.0131581
708.531	0.0131600
708.609	0.0132054
708.687	0.0132787
708.765	0.0132966
708.843	0.0133780
708.921	0.0134261
708.999	0.0135606
709.078	0.0135328
709.156	0.0138141
709.234	0.0140187
709.312	0.0140274
709.390	0.0142782
709.468	0.0143299
709.546	0.0144978
709.624	0.0145535
709.703	0.0145345
709.781	0.0147999
709.859	0.0148240
709.937	0.0147016
710.015	0.0146174
710.093	0.0145457
710.171	0.0145531
710.249	0.0145721
710.328	0.0146108
710.406	0.0143584
710.484	0.0145291
710.562	0.0143718
710.640	0.0143835
710.718	0.0144244
710.796	0.0142616
710.874	0.0141336
710.953	0.0141251
711.031	0.0141611
711.109	0.0140698
711.187	0.0141633
711.265	0.0137737
711.343	0.0138567
711.421	0.0137854
711.499	0.0137222
711.578	0.0136416
711.656	0.0137018
711.734	0.0137749
711.812	0.0137766
711.890	0.0139495
711.968	0.0138816
712.046	0.0138432
712.124	0.0139044
712.203	0.0138219
712.281	0.0139575
712.359	0.0139780
712.437	0.0138783
712.515	0.0140869
712.593	0.0139794
712.671	0.0139725
712.749	0.0140768
712.828	0.0140340
712.906	0.0140356
712.984	0.0139827
713.062	0.0139716
713.140	0.0141418
713.218	0.0141106
713.296	0.0141621
713.374	0.0142046
713.453	0.0142394
713.531	0.0141090
713.609	0.0143422
713.687	0.0142428
713.765	0.0140968
713.843	0.0140942
713.921	0.0139264
713.999	0.0139651
714.078	0.0139478
714.156	0.0138708
714.234	0.0139297
714.312	0.0137679
714.390	0.0138117
714.468	0.0138201
714.546	0.0137400
714.624	0.0137243
714.703	0.0137677
714.781	0.0137554
714.859	0.0137215
714.937	0.0136758
715.015	0.0136002
715.093	0.0136893
715.171	0.0136272
715.249	0.0136674
715.328	0.0137241
715.406	0.0136880
715.484	0.0136732
715.562	0.0136569
715.640	0.0137717
715.718	0.0139156
715.796	0.0138771
715.874	0.0140917
715.953	0.0140760
716.031	0.0142384
716.109	0.0142835
716.187	0.0144707
716.265	0.0143161
716.343	0.0145940
716.421	0.0145773
716.499	0.0147172
716.578	0.0147474
716.656	0.0146930
716.734	0.0146201
716.812	0.0145774
716.890	0.0146213
716.968	0.0147191
717.046	0.0145124
717.124	0.0147015
717.203	0.0144637
717.281	0.0143835
717.359	0.0143750
717.437	0.0143645
717.515	0.0143139
717.593	0.0141868
717.671	0.0143169
717.749	0.0140098
717.828	0.0138648
717.906	0.0140326
717.984	0.0140486
718.062	0.0137514
718.140	0.0137414
718.218	0.0137885
718.296	0.0136770
718.374	0.0136629
718.453	0.0135960
718.531	0.0135522
718.609	0.0137453
718.687	0.0135646
718.765	0.0135252
718.843	0.0134297
718.921	0.0133740
718.999	0.0134589
719.078	0.0135860
719.156	0.0134379
719.234	0.0134560
719.312	0.0136063
719.390	0.0135825
719.468	0.0136039
719.546	0.0136069
719.624	0.0137492
719.703	0.0137435
719.781	0.0137920
719.859	0.0138219
719.937	0.0138211
720.015	0.0139360
720.093	0.0139433
720.171	0.0139213
720.249	0.0138345
720.328	0.0138905
720.406	0.0138696
720.484	0.0137389
720.562	0.0137959
720.640	0.0137324
720.718	0.0137967
720.796	0.0136195
720.874	0.0136952
720.953	0.0136012
721.031	0.0136576
721.109	0.0136488
721.187	0.0136247
721.265	0.0136561
721.343	0.0137661
721.421	0.0138180
721.499	0.0138216
721.578	0.0139474
721.656	0.0139632
721.734	0.0139303
721.812	0.0140181
721.890	0.0140052
721.968	0.0139874
722.046	0.0141673
722.124	0.0142185
722.203	0.0141821
722.281	0.0140268
722.359	0.0141399
722.437	0.0141689
722.515	0.0140801
722.593	0.0142363
722.671	0.0142980
722.749	0.0141890
722.828	0.0142894
722.906	0.0142124
722.984	0.0141566
723.062	0.0142856
723.140	0.0142490
723.218	0.0141157
723.296	0.0142903
723.374	0.0142729
723.453	0.0141504
723.531	0.0141853
723.609	0.0141527
723.687	0.0142540
723.765	0.0140692
723.843	0.0142118
723.921	0.0140837
723.999	0.0139361
724.078	0.0141007
724.156	0.0140389
724.234	0.0139116
724.312	0.0138832
724.390	0.0139102
724.468	0.0137248
724.546	0.0138165
724.624	0.0137256
724.703	0.0137468
724.781	0.0137756
724.859	0.0137231
724.937	0.0136797
725.015	0.0137208
725.093	0.0136056
725.171	0.0134752
725.249	0.0137397
725.328	0.0136339
725.406	0.0136514
725.484	0.0136353
725.562	0.0135705
725.640	0.0136346
725.718	0.0136495
725.796	0.0134807
725.874	0.0135862
725.953	0.0135198
726.031	0.0133757
726.109	0.0133932
726.187	0.0133260
726.265	0.0136008
726.343	0.0135975
726.421	0.0137798
726.499	0.0136060
726.578	0.0135581
726.656	0.0137922
726.734	0.0139602
726.812	0.0140810
726.890	0.0140637
726.968	0.0141392
727.046	0.0140919
727.124	0.0142142
727.203	0.0141776
727.281	0.0141314
727.359	0.0141366
727.437	0.0141850
727.515	0.0141824
727.593	0.0139316
727.671	0.0139944
727.749	0.0139821
727.828	0.0137772
727.906	0.0139266
727.984	0.0139697
728.062	0.0138639
728.140	0.0138316
728.218	0.0138668
728.296	0.0138811
728.374	0.0140060
728.453	0.0139935
728.531	0.0138988
728.609	0.0139068
728.687	0.0139474
728.765	0.0139746
728.843	0.0139877
728.921	0.0139014
728.999	0.0140745
729.078	0.0140137
729.156	0.0140134
729.234	0.0140690
729.312	0.0140446
729.390	0.0140108
729.468	0.0140783
729.546	0.0139231
729.624	0.0140694
729.703	0.0142176
729.781	0.0140739
729.859	0.0140893
729.937	0.0141926
730.015	0.0141321
730.093	0.0141577
730.171	0.0139819
730.249	0.0139832
730.328	0.0141220
730.406	0.0141270
730.484	0.0141848
730.562	0.0142979
730.640	0.0141228
730.718	0.0141306
730.796	0.0141543
730.874	0.0140294
730.953	0.0140373
731.031	0.0139641
731.109	0.0139138
731.187	0.0141132
731.265	0.0140241
731.343	0.0140445
731.421	0.0139751
731.499	0.0141344
731.578	0.0140184
731.656	0.0140226
731.734	0.0139600
731.812	0.0140119
731.890	0.0140905
731.968	0.0139025
732.046	0.0138490
732.124	0.0139646
732.203	0.0138643
732.281	0.0138853
732.359	0.0138829
732.437	0.0138258
732.515	0.0137040
732.593	0.0136591
732.671	0.0137675
732.749	0.0136151
732.828	0.0134611
732.906	0.0135307
732.984	0.0134653
733.062	0.0135765
733.140	0.0135298
733.218	0.0135625
733.296	0.0134133
733.374	0.0135229
733.453	0.0134332
733.531	0.0135812
733.609	0.0134543
733.687	0.0136040
733.765	0.0136198
733.843	0.0136305
733.921	0.0137042
733.999	0.0137122
734.078	0.0139002
734.156	0.0138889
734.234	0.0138973
734.312	0.0137486
734.390	0.0139420
734.468	0.0140811
734.546	0.0140253
734.624	0.0141139
734.703	0.0141850
734.781	0.0142235
734.859	0.0142687
734.937	0.0143123
735.015	0.0143277
735.093	0.0144077
735.171	0.0145256
735.249	0.0144878
735.328	0.0143414
735.406	0.0144570
735.484	0.0145642
735.562	0.0144344
735.640	0.0143640
735.718	0.0142252
735.796	0.0142058
735.874	0.0144472
735.953	0.0142434
736.031	0.0141965
736.109	0.0143221
736.187	0.0142566
736.265	0.0142200
736.343	0.0141776
736.421	0.0142966
736.499	0.0140512
736.578	0.0138802
736.656	0.0140068
736.734	0.0139371
736.812	0.0138067
736.890	0.0137470
736.968	0.0137981
737.046	0.0136964
737.124	0.0137235
737.203	0.0135935
737.281	0.0137633
737.359	0.0137968
737.437	0.0137011
737.515	0.0137971
737.593	0.0137025
737.671	0.0137008
737.749	0.0135429
737.828	0.0137370
737.906	0.0137677
737.984	0.0137625
738.062	0.0137747
738.140	0.0138065
738.218	0.0137624
738.296	0.0137974
738.374	0.0138447
738.453	0.0138078
738.531	0.0138042
738.609	0.0140596
738.687	0.0138988
738.765	0.0140281
738.843	0.0141061
738.921	0.0139163
738.999	0.0139594
739.078	0.0140129
739.156	0.0138707
739.234	0.0139299
739.312	0.0136887
739.390	0.0138846
739.468	0.0137994
739.546	0.0137708
739.624	0.0138882
739.703	0.0139809
739.781	0.0138014
739.859	0.0138942
739.937	0.0139895
740.015	0.0139126
740.093	0.0138932
740.171	0.0138754
740.249	0.0140257
740.328	0.0140154
740.406	0.0140279
740.484	0.0140218
740.562	0.0138290
740.640	0.0139959
740.718	0.0140703
740.796	0.0138226
740.874	0.0138799
740.953	0.0138393
741.031	0.0139127
741.109	0.0137638
741.187	0.0139193
741.265	0.0138541
741.343	0.0137643
741.421	0.0138420
741.499	0.0138100
741.578	0.0140234
741.656	0.0138818
741.734	0.0139221
741.812	0.0139700
741.890	0.0140430
741.968	0.0139564
742.046	0.0140240
742.124	0.0141061
742.203	0.0141729
742.281	0.0140826
742.359	0.0141396
742.437	0.0142847
742.515	0.0140903
742.593	0.0140807
742.671	0.0141996
742.749	0.0140985
742.828	0.0140572
742.906	0.0140630
742.984	0.0139819
743.062	0.0139099
743.140	0.0138970
743.218	0.0138871
743.296	0.0139803
743.374	0.0138533
743.453	0.0138367
743.531	0.0137088
743.609	0.0137907
743.687	0.0138662
743.765	0.0136936
743.843	0.0137394
743.921	0.0138609
743.999	0.0138153
744.078	0.0137021
744.156	0.0137727
744.234	0.0138579
744.312	0.0137421
744.390	0.0136630
744.468	0.0136748
744.546	0.0136562
744.624	0.0138261
744.703	0.0138427
744.781	0.0137485
744.859	0.0137937
744.937	0.0138026
745.015	0.0137175
745.093	0.0136797
745.171	0.0137767
745.249	0.0136407
745.328	0.0137074
745.406	0.0137413
745.484	0.0135680
745.562	0.0135628
745.640	0.0135780
745.718	0.0135504
745.796	0.0135223
745.874	0.0134464
745.953	0.0134283
746.031	0.0134263
746.109	0.0134676
746.187	0.0136081
746.265	0.0135587
746.343	0.0135841
746.421	0.0136488
746.499	0.0136487
746.578	0.0138226
746.656	0.0138289
746.734	0.0137746
746.812	0.0138123
746.890	0.0139030
746.968	0.0139789
747.046	0.0141010
747.124	0.0140784
747.203	0.0142683
747.281	0.0142109
747.359	0.0142140
747.437	0.0141275
747.515	0.0141985
747.593	0.0142264
747.671	0.0143425
747.749	0.0143268
747.828	0.0142881
747.906	0.0142608
747.984	0.0143796
748.062	0.0142796
748.140	0.0143472
748.218	0.0143040
748.296	0.0142543
748.374	0.0141323
748.453	0.0141248
748.531	0.0140757
748.609	0.0139410
748.687	0.0139268
748.765	0.0139601
748.843	0.0140137
748.921	0.0137452
748.999	0.0137383
749.078	0.0136164
749.156	0.0136842
749.234	0.0136495
749.312	0.0135332
749.390	0.0136430
749.468	0.0136587
749.546	0.0134215
749.624	0.0135271
749.703	0.0137275
749.781	0.0137688
749.859	0.0137370
749.937	0.0137462
750.015	0.0138006
750.093	0.0139103
750.171	0.0136402
750.249	0.0138707
750.328	0.0138206
750.406	0.0139666
750.484	0.0140851
750.562	0.0139473
750.640	0.0138945
750.718	0.0140082
750.796	0.0140194
750.874	0.0140229
750.953	0.0140044
751.031	0.0141009
751.109	0.0140247
751.187	0.0139687
751.265	0.0139793
751.343	0.0140380
751.421	0.0139415
751.499	0.0138985
751.578	0.0139777
751.656	0.0139355
751.734	0.0139214
751.812	0.0137980
751.890	0.0138905
751.968	0.0136739
752.046	0.0138087
752.124	0.0139469
752.203	0.0138432
752.281	0.0138925
752.359	0.0139406
752.437	0.0137732
752.515	0.0137407
752.593	0.0139666
752.671	0.0138856
752.749	0.0138620
752.828	0.0139915
752.906	0.0139349
752.984	0.0139326
753.062	0.0140010
753.140	0.0139664
753.218	0.0138761
753.296	0.0141252
753.374	0.0141595
753.453	0.0140818
753.531	0.0140732
753.609	0.0141517
753.687	0.0141409
753.765	0.0141462
753.843	0.0142000
753.921	0.0142816
753.999	0.0142270
754.078	0.0141737
754.156	0.0141499
754.234	0.0142706
754.312	0.0142719
754.390	0.0140006
754.468	0.0140289
754.546	0.0141253
754.624	0.0141476
754.703	0.0141121
754.781	0.0140695
754.859	0.0140479
754.937	0.0138902
755.015	0.0137917
755.093	0.0138026
755.171	0.0137703
755.249	0.0139269
755.328	0.0138338
755.406	0.0138110
755.484	0.0138298
755.562	0.0138122
755.640	0.0136234
755.718	0.0137698
755.796	0.0139536
755.874	0.0139571
755.953	0.0140469
756.031	0.0140241
756.109	0.0138226
756.187	0.0140311
756.265	0.0140571
756.343	0.0141170
756.421	0.0140742
756.499	0.0140995
756.578	0.0139875
756.656	0.0141051
756.734	0.0140419
756.812	0.0139849
756.890	0.0140509
756.968	0.0140620
757.046	0.0140636
757.124	0.0141043
757.203	0.0140483
757.281	0.0139101
757.359	0.0139918
757.437	0.0140660
757.515	0.0140509
757.593	0.0141230
757.671	0.0140536
757.749	0.0139272
757.828	0.0140213
757.906	0.0140816
757.984	0.0140913
758.062	0.0139101
758.140	0.0138799
758.218	0.0139476
758.296	0.0138126
758.374	0.0139692
758.453	0.0137788
758.531	0.0138034
758.609	0.0138763
758.687	0.0138479
758.765	0.0139481
758.843	0.0137018
758.921	0.0137061
758.999	0.0138433
759.078	0.0138850
759.156	0.0138673
759.234	0.0138878
759.312	0.0139542
759.390	0.0139693
759.468	0.0139020
759.546	0.0137724
759.624	0.0137539
759.703	0.0139026
759.781	0.0140201
759.859	0.0137426
759.937	0.0138079
760.015	0.0138631
760.093	0.0137496
760.171	0.0138251
760.249	0.0138640
760.328	0.0137483
760.406	0.0138715
760.484	0.0139454
760.562	0.0140044
760.640	0.0139093
760.718	0.0139407
760.796	0.0139420
760.874	0.0140150
760.953	0.0138733
761.031	0.0138820
761.109	0.0140656
761.187	0.0141551
761.265	0.0140997
761.343	0.0139165
761.421	0.0139452
761.499	0.0142182
761.578	0.0141621
761.656	0.0141650
761.734	0.0139803
761.812	0.0141266
761.890	0.0140154
761.968	0.0140450
762.046	0.0140030
762.124	0.0139633
762.203	0.0141014
762.281	0.0139033
762.359	0.0139153
762.437	0.0138898
762.515	0.0137814
762.593	0.0137565
762.671	0.0136874
762.749	0.0136589
762.828	0.0136256
762.906	0.0136588
762.984	0.0135746
763.062	0.0134686
763.140	0.0134784
763.218	0.0133511
763.296	0.0134220
763.374	0.0135345
763.453	0.0135464
763.531	0.0135854
763.609	0.0135098
763.687	0.0137249
763.765	0.0137914
763.843	0.0136179
763.921	0.0137482
763.999	0.0136558
764.078	0.0137111
764.156	0.0137522
764.234	0.0138979
764.312	0.0139288
764.390	0.0138899
764.468	0.0137985
764.546	0.0138174
764.624	0.0139717
764.703	0.0141223
764.781	0.0139632
764.859	0.0140777
764.937	0.0140160
765.015	0.0140578
765.093	0.0141170
765.171	0.0141180
765.249	0.0140774
765.328	0.0141768
765.406	0.0139686
765.484	0.0139045
765.562	0.0139742
765.640	0.0141639
765.718	0.0140866
765.796	0.0141040
765.874	0.0140892
765.953	0.0142236
766.031	0.0142501
766.109	0.0140177
766.187	0.0140963
766.265	0.0141071
766.343	0.0141619
766.421	0.0140633
766.499	0.0139376
766.578	0.0139349
766.656	0.0139875
766.734	0.0139848
766.812	0.0139779
766.890	0.0141176
766.968	0.0138254
767.046	0.0140759
767.124	0.0139933
767.203	0.0139824
767.281	0.0140330
767.359	0.0139596
767.437	0.0139307
767.515	0.0138940
767.593	0.0140087
767.671	0.0140283
767.749	0.0140420
767.828	0.0140192
767.906	0.0140617
767.984	0.0139283
768.062	0.0138048
768.140	0.0140171
768.218	0.0138958
768.296	0.0137425
768.374	0.0139098
768.453	0.0138427
768.531	0.0140222
768.609	0.0138954
768.687	0.0138062
768.765	0.0139383
768.843	0.0138659
768.921	0.0138271
768.999	0.0139168
769.078	0.0138124
769.156	0.0138620
769.234	0.0138850
769.312	0.0139742
769.390	0.0139323
769.468	0.0138967
769.546	0.0138650
769.624	0.0138285
769.703	0.0140376
769.781	0.0139931
769.859	0.0138539
769.937	0.0138356
770.015	0.0138953
770.093	0.0139935
770.171	0.0138881
770.249	0.0138617
770.328	0.0140257
770.406	0.0139190
770.484	0.0138433
770.562	0.0138856
770.640	0.0140561
770.718	0.0140737
770.796	0.0139921
770.874	0.0140086
770.953	0.0140591
771.031	0.0141486
771.109	0.0139830
771.187	0.0141441
771.265	0.0141302
771.343	0.0140245
771.421	0.0141487
771.499	0.0142081
771.578	0.0141081
771.656	0.0142037
771.734	0.0141125
771.812	0.0141060
771.890	0.0142677
771.968	0.0141902
772.046	0.0144267
772.124	0.0142902
772.203	0.0142063
772.281	0.0143002
772.359	0.0142738
772.437	0.0141878
772.515	0.0142678
772.593	0.0140532
772.671	0.0140376
772.749	0.0141656
772.828	0.0140643
772.906	0.0140427
772.984	0.0140068
773.062	0.0140321
773.140	0.0139514
773.218	0.0139719
773.296	0.0139710
773.374	0.0138657
773.453	0.0139322
773.531	0.0137563
773.609	0.0138535
773.687	0.0138241
773.765	0.0136674
773.843	0.0137226
773.921	0.0136733
773.999	0.0137138
774.078	0.0137084
774.156	0.0136525
774.234	0.0137643
774.312	0.0137454
774.390	0.0137283
774.468	0.0135591
774.546	0.0136472
774.624	0.0136771
774.703	0.0137135
774.781	0.0138078
774.859	0.0137706
774.937	0.0137983
775.015	0.0137699
775.093	0.0138542
775.171	0.0139645
775.249	0.0139291
775.328	0.0139491
775.406	0.0139920
775.484	0.0140593
775.562	0.0141406
775.640	0.0141537
775.718	0.0142327
775.796	0.0141427
775.874	0.0140609
775.953	0.0141145
776.031	0.0143778
776.109	0.0143719
776.187	0.0143376
776.265	0.0141706
776.343	0.0143251
776.421	0.0142238
776.499	0.0142370
776.578	0.0142533
776.656	0.0141886
776.734	0.0140616
776.812	0.0141087
776.890	0.0141507
776.968	0.0139211
777.046	0.0139748
777.124	0.0139357
777.203	0.0138584
777.281	0.0139863
777.359	0.0138948
777.437	0.0138160
777.515	0.0139526
777.593	0.0139301
777.671	0.0138445
777.749	0.0139415
777.828	0.0138328
777.906	0.0138174
777.984	0.0141631
778.062	0.0139722
778.140	0.0139791
778.218	0.0139762
778.296	0.0138525
778.374	0.0138348
778.453	0.0138645
778.531	0.0138541
778.609	0.0139826
778.687	0.0137559
778.765	0.0136625
778.843	0.0136222
778.921	0.0135857
778.999	0.0135881
779.078	0.0136878
779.156	0.0137178
779.234	0.0137040
779.312	0.0135793
779.390	0.0136989
779.468	0.0136192
779.546	0.0137830
779.624	0.0139964
779.703	0.0137376
779.781	0.0139808
779.859	0.0141131
779.937	0.0140356
780.015	0.0140170
780.093	0.0139098
780.171	0.0138787
780.249	0.0139615
780.328	0.0139012
780.406	0.0140247
780.484	0.0140025
780.562	0.0140024
780.640	0.0139090
780.718	0.0140630
780.796	0.0140646
780.874	0.0140966
780.953	0.0140691
781.031	0.0141647
781.109	0.0141832
781.187	0.0142160
781.265	0.0142113
781.343	0.0142396
781.421	0.0143473
781.499	0.0143367
781.578	0.0142238
781.656	0.0141294
781.734	0.0142609
781.812	0.0142188
781.890	0.0142246
781.968	0.0140189
782.046	0.0140709
782.124	0.0139230
782.203	0.0139781
782.281	0.0139066
782.359	0.0138601
782.437	0.0138150
782.515	0.0140672
782.593	0.0140314
782.671	0.0140853
782.749	0.0139990
782.828	0.0141112
782.906	0.0141444
782.984	0.0141906
783.062	0.0142665
783.140	0.0141382
783.218	0.0141844
783.296	0.0140944
783.374	0.0141777
783.453	0.0141817
783.531	0.0142905
783.609	0.0141749
783.687	0.0141103
783.765	0.0140311
783.843	0.0140377
783.921	0.0139056
783.999	0.0139207
784.078	0.0138687
784.156	0.0137437
784.234	0.0138191
784.312	0.0138532
784.390	0.0137427
784.468	0.0138288
784.546	0.0138001
784.624	0.0136781
784.703	0.0137978
784.781	0.0139031
784.859	0.0138344
784.937	0.0138156
785.015	0.0139204
785.093	0.0137860
785.171	0.0137705
785.249	0.0138162
785.328	0.0138964
785.406	0.0137685
785.484	0.0137061
785.562	0.0135963
785.640	0.0136737
785.718	0.0136713
785.796	0.0137554
785.874	0.0137525
785.953	0.0137725
786.031	0.0138938
786.109	0.0139040
786.187	0.0140401
786.265	0.0140985
786.343	0.0141407
786.421	0.0142033
786.499	0.0140786
786.578	0.0141170
786.656	0.0141698
786.734	0.0139255
786.812	0.0141798
786.890	0.0140362
786.968	0.0138383
787.046	0.0139082
787.124	0.0137405
787.203	0.0138005
787.281	0.0137073
787.359	0.0136799
787.437	0.0137532
787.515	0.0137833
787.593	0.0137850
787.671	0.0137463
787.749	0.0139180
787.828	0.0139896
787.906	0.0140288
787.984	0.0140188
788.062	0.0139442
788.140	0.0140044
788.218	0.0140416
788.296	0.0140794
788.374	0.0141412
788.453	0.0140760
788.531	0.0140696
788.609	0.0139169
788.687	0.0141158
788.765	0.0140666
788.843	0.0139711
788.921	0.0139020
788.999	0.0139157
789.078	0.0139145
789.156	0.0137545
789.234	0.0136512
789.312	0.0137968
789.390	0.0137677
789.468	0.0135754
789.546	0.0136285
789.624	0.0137345
789.703	0.0139595
789.781	0.0137566
789.859	0.0136378
789.937	0.0136613
790.015	0.0137733
790.093	0.0138809
790.171	0.0138090
790.249	0.0137344
790.328	0.0138174
790.406	0.0137212
790.484	0.0138326
790.562	0.0137335
790.640	0.0137778
790.718	0.0138144
790.796	0.0137447
790.874	0.0138439
790.953	0.0138234
791.031	0.0138387
791.109	0.0137801
791.187	0.0139559
791.265	0.0138358
791.343	0.0137859
791.421	0.0139143
791.499	0.0137711
791.578	0.0138044
791.656	0.0137217
791.734	0.0137786
791.812	0.0136469
791.890	0.0135229
791.968	0.0136593
792.046	0.0138502
792.124	0.0137592
792.203	0.0137159
792.281	0.0136664
792.359	0.0138439
792.437	0.0137798
792.515	0.0138211
792.593	0.0138731
792.671	0.0140497
792.749	0.0141274
792.828	0.0138492
792.906	0.0139813
792.984	0.0139444
793.062	0.0139014
793.140	0.0139788
793.218	0.0140477
793.296	0.0139644
793.374	0.0140131
793.453	0.0142643
793.531	0.0143254
793.609	0.0142931
793.687	0.0144111
793.765	0.0144321
793.843	0.0144095
793.921	0.0145075
793.999	0.0144199
794.078	0.0144998
794.156	0.0145956
794.234	0.0145550
794.312	0.0143922
794.390	0.0144782
794.468	0.0144088
794.546	0.0143645
794.624	0.0142111
794.703	0.0140854
794.781	0.0142367
794.859	0.0141631
794.937	0.0141535
795.015	0.0140008
795.093	0.0142081
795.171	0.0140198
795.249	0.0139845
795.328	0.0140134
795.406	0.0140951
795.484	0.0141362
795.562	0.0141913
795.640	0.0140240
795.718	0.0140613
795.796	0.0139789
795.874	0.0139394
795.953	0.0139915
796.031	0.0140928
796.109	0.0141054
796.187	0.0140155
796.265	0.0141564
796.343	0.0140596
796.421	0.0139895
796.499	0.0140975
796.578	0.0140429
796.656	0.0139155
796.734	0.0140062
796.812	0.0139709
796.890	0.0139219
796.968	0.0139608
797.046	0.0140012
797.124	0.0140308
797.203	0.0139112
797.281	0.0138800
797.359	0.0141056
797.437	0.0140089
797.515	0.0137835
797.593	0.0137161
797.671	0.0139543
797.749	0.0139691
797.828	0.0137177
797.906	0.0138229
797.984	0.0137812
798.062	0.0137679
798.140	0.0138374
798.218	0.0139088
798.296	0.0138908
798.374	0.0139362
798.453	0.0138918
798.531	0.0140227
798.609	0.0140771
798.687	0.0140354
798.765	0.0140855
798.843	0.0141106
798.921	0.0140298
798.999	0.0142234
799.078	0.0141457
799.156	0.0143324
799.234	0.0141015
799.312	0.0142947
799.390	0.0142889
799.468	0.0143992
799.546	0.0142917
799.624	0.0144088
799.703	0.0141279
799.781	0.0141981
799.859	0.0141078
799.937	0.0141525
800.015	0.0141053
800.093	0.0141106
800.171	0.0140618
800.249	0.0139780
800.328	0.0139726
800.406	0.0138267
800.484	0.0137788
800.562	0.0138808
800.640	0.0139288
800.718	0.0137038
800.796	0.0136452
800.874	0.0138309
800.953	0.0137075
801.031	0.0138013
801.109	0.0135817
801.187	0.0137965
801.265	0.0138428
801.343	0.0138162
801.421	0.0139425
801.499	0.0140049
801.578	0.0140791
801.656	0.0139890
801.734	0.0141580
801.812	0.0140456
801.890	0.0140243
801.968	0.0142442
802.046	0.0141845
802.124	0.0141579
802.203	0.0141951
802.281	0.0140469
802.359	0.0141878
802.437	0.0142208
802.515	0.0139385
802.593	0.0138398
802.671	0.0138395
802.749	0.0139114
802.828	0.0138622
802.906	0.0138197
802.984	0.0137819
803.062	0.0138631
803.140	0.0138639
803.218	0.0137758
803.296	0.0135606
803.374	0.0136461
803.453	0.0138225
803.531	0.0135899
803.609	0.0136218
803.687	0.0136571
803.765	0.0135573
803.843	0.0136771
803.921	0.0135708
803.999	0.0135923
804.078	0.0135277
804.156	0.0137175
804.234	0.0137418
804.312	0.0136139
804.390	0.0136716
804.468	0.0135604
804.546	0.0136224
804.624	0.0137307
804.703	0.0135863
804.781	0.0135265
804.859	0.0137010
804.937	0.0138422
805.015	0.0138338
805.093	0.0138107
805.171	0.0139796
805.249	0.0140954
805.328	0.0141151
805.406	0.0140962
805.484	0.0139661
805.562	0.0141522
805.640	0.0141528
805.718	0.0142619
805.796	0.0142168
805.874	0.0141247
805.953	0.0141068
806.031	0.0141591
806.109	0.0141634
806.187	0.0140586
806.265	0.0138625
806.343	0.0139792
806.421	0.0140168
806.499	0.0139343
806.578	0.0140264
806.656	0.0139568
806.734	0.0138781
806.812	0.0138748
806.890	0.0139976
806.968	0.0140240
807.046	0.0139680
807.124	0.0140788
807.203	0.0139367
807.281	0.0140534
807.359	0.0138654
807.437	0.0139657
807.515	0.0138989
807.593	0.0137977
807.671	0.0138669
807.749	0.0140154
807.828	0.0138718
807.906	0.0136944
807.984	0.0137667
808.062	0.0138076
808.140	0.0138475
808.218	0.0138239
808.296	0.0137537
808.374	0.0138971
808.453	0.0135881
808.531	0.0136452
808.609	0.0137678
808.687	0.0138574
808.765	0.0136918
808.843	0.0137447
808.921	0.0137408
808.999	0.0138934
809.078	0.0137557
809.156	0.0137137
809.234	0.0136639
809.312	0.0137298
809.390	0.0137837
809.468	0.0136675
809.546	0.0137289
809.624	0.0139351
809.703	0.0137856
809.781	0.0136356
809.859	0.0136881
809.937	0.0137024
810.015	0.0137561
810.093	0.0137517
810.171	0.0138702
810.249	0.0137605
810.328	0.0139350
810.406	0.0139200
810.484	0.0139770
810.562	0.0138676
810.640	0.0139241
810.718	0.0139902
810.796	0.0139661
810.874	0.0139690
810.953	0.0139793
811.031	0.0139791
811.109	0.0140804
811.187	0.0139829
811.265	0.0138550
811.343	0.0139854
811.421	0.0138405
811.499	0.0138808
811.578	0.0138887
811.656	0.0136829
811.734	0.0137556
811.812	0.0137833
811.890	0.0138307
811.968	0.0137931
812.046	0.0137811
812.124	0.0138123
812.203	0.0138059
812.281	0.0138088
812.359	0.0139246
812.437	0.0140919
812.515	0.0141427
812.593	0.0142215
812.671	0.0141372
812.749	0.0141843
812.828	0.0143397
812.906	0.0142255
812.984	0.0143688
813.062	0.0145113
813.140	0.0144032
813.218	0.0143648
813.296	0.0145248
813.374	0.0142840
813.453	0.0143421
813.531	0.0143801
813.609	0.0142216
813.687	0.0143493
813.765	0.0143418
813.843	0.0140668
813.921	0.0142029
813.999	0.0142281
814.078	0.0142418
814.156	0.0141380
814.234	0.0141261
814.312	0.0141103
814.390	0.0140853
814.468	0.0139178
814.546	0.0138929
814.624	0.0141039
814.703	0.0140866
814.781	0.0138557
814.859	0.0137300
814.937	0.0136253
815.015	0.0136189
815.093	0.0136874
815.171	0.0138326
815.249	0.0134544
815.328	0.0135173
815.406	0.0136622
815.484	0.0135276
815.562	0.0135040
815.640	0.0134247
815.718	0.0135780
815.796	0.0136591
815.874	0.0137109
815.953	0.0136446
816.031	0.0137543
816.109	0.0138187
816.187	0.0137984
816.265	0.0139362
816.343	0.0137926
816.421	0.0140326
816.499	0.0140598
816.578	0.0140923
816.656	0.0142339
816.734	0.0140991
816.812	0.0140513
816.890	0.0143533
816.968	0.0143085
817.046	0.0142274
817.124	0.0142525
817.203	0.0142990
817.281	0.0142062
817.359	0.0141893
817.437	0.0141373
817.515	0.0141149
817.593	0.0140672
817.671	0.0140070
817.749	0.0140001
817.828	0.0140630
817.906	0.0140011
817.984	0.0140213
818.062	0.0138969
818.140	0.0139049
818.218	0.0138982
818.296	0.0139140
818.374	0.0139372
818.453	0.0139680
818.531	0.0139236
818.609	0.0140492
818.687	0.0138153
818.765	0.0138367
818.843	0.0138637
818.921	0.0138483
818.999	0.0138406
819.078	0.0137624
819.156	0.0138559
819.234	0.0139919
819.312	0.0139946
819.390	0.0139235
819.468	0.0138654
819.546	0.0139709
819.624	0.0140255
819.703	0.0139140
819.781	0.0140283
819.859	0.0139174
819.937	0.0138437
820.015	0.0137988
820.093	0.0138703
820.171	0.0138928
820.249	0.0139104
820.328	0.0138974
820.406	0.0138802
820.484	0.0138551
820.562	0.0139603
820.640	0.0138746
820.718	0.0139655
820.796	0.0139813
820.874	0.0139258
820.953	0.0138132
821.031	0.0139392
821.109	0.0139989
821.187	0.0139588
821.265	0.0140813
821.343	0.0139785
821.421	0.0139702
821.499	0.0140612
821.578	0.0141923
821.656	0.0140543
821.734	0.0141945
821.812	0.0140279
821.890	0.0140767
821.968	0.0141743
822.046	0.0141277
822.124	0.0139429
822.203	0.0139998
822.281	0.0139259
822.359	0.0138622
822.437	0.0138757
822.515	0.0138461
822.593	0.0137493
822.671	0.0137395
822.749	0.0138364
822.828	0.0137315
822.906	0.0138131
822.984	0.0139449
823.062	0.0140180
823.140	0.0140083
823.218	0.0140649
823.296	0.0140265
823.374	0.0141917
823.453	0.0140072
823.531	0.0140195
823.609	0.0142449
823.687	0.0140569
823.765	0.0141508
823.843	0.0140979
823.921	0.0141338
823.999	0.0141830
824.078	0.0140989
824.156	0.0141593
824.234	0.0141326
824.312	0.0141428
824.390	0.0141135
824.468	0.0141402
824.546	0.0140926
824.624	0.0142033
824.703	0.0142419
824.781	0.0140906
824.859	0.0140209
824.937	0.0139124
825.015	0.0139396
825.093	0.0140283
825.171	0.0139284
825.249	0.0138488
825.328	0.0137769
825.406	0.0138888
825.484	0.0138277
825.562	0.0138042
825.640	0.0137121
825.718	0.0137958
825.796	0.0138441
825.874	0.0139397
825.953	0.0139560
826.031	0.0138963
826.109	0.0139456
826.187	0.0140434
826.265	0.0139770
826.343	0.0140627
826.421	0.0140347
826.499	0.0141027
826.578	0.0141085
826.656	0.0141451
826.734	0.0140918
826.812	0.0141299
826.890	0.0141528
826.968	0.0140369
827.046	0.0141354
827.124	0.0141468
827.203	0.0139530
827.281	0.0139555
827.359	0.0139434
827.437	0.0140166
827.515	0.0138639
827.593	0.0139661
827.671	0.0139301
827.749	0.0138922
827.828	0.0139045
827.906	0.0138773
827.984	0.0136864
828.062	0.0138358
828.140	0.0137554
828.218	0.0137973
828.296	0.0137565
828.374	0.0137380
828.453	0.0137048
828.531	0.0137597
828.609	0.0134719
828.687	0.0135790
828.765	0.0136951
828.843	0.0135765
828.921	0.0135845
828.999	0.0136755
829.078	0.0136131
829.156	0.0135394
829.234	0.0135818
829.312	0.0136083
829.390	0.0136472
829.468	0.0139448
829.546	0.0138174
829.624	0.0138895
829.703	0.0138846
829.781	0.0139539
829.859	0.0140442
829.937	0.0139958
830.015	0.0140858
830.093	0.0140813
830.171	0.0139909
830.249	0.0142060
830.328	0.0140326
830.406	0.0139751
830.484	0.0140979
830.562	0.0139803
830.640	0.0138866
830.718	0.0139217
830.796	0.0137774
830.874	0.0136657
830.953	0.0138276
831.031	0.0139171
831.109	0.0138821
831.187	0.0137937
831.265	0.0137413
831.343	0.0138808
831.421	0.0137677
831.499	0.0138616
831.578	0.0140138
831.656	0.0139324
831.734	0.0140457
831.812	0.0140237
831.890	0.0140627
831.968	0.0141778
832.046	0.0141936
832.124	0.0141444
832.203	0.0142131
832.281	0.0141319
832.359	0.0140997
832.437	0.0142365
832.515	0.0142096
832.593	0.0142300
832.671	0.0143060
832.749	0.0143206
832.828	0.0140752
832.906	0.0140744
832.984	0.0141138
833.062	0.0140967
833.140	0.0139965
833.218	0.0140228
833.296	0.0139896
833.374	0.0139471
833.453	0.0138644
833.531	0.0137468
833.609	0.0138088
833.687	0.0138184
833.765	0.0137726
833.843	0.0137366
833.921	0.0137871
833.999	0.0138126
834.078	0.0138198
834.156	0.0138950
834.234	0.0139571
834.312	0.0139034
834.390	0.0140412
834.468	0.0140876
834.546	0.0139817
834.624	0.0141275
834.703	0.0139556
834.781	0.0140117
834.859	0.0139172
834.937	0.0140473
835.015	0.0140725
835.093	0.0140292
835.171	0.0140019
835.249	0.0141351
835.328	0.0141428
835.406	0.0140836
835.484	0.0141009
835.562	0.0140756
835.640	0.0142601
835.718	0.0142579
835.796	0.0141724
835.874	0.0141721
835.953	0.0142176
836.031	0.0142434
836.109	0.0141158
836.187	0.0141435
836.265	0.0142010
836.343	0.0141308
836.421	0.0141783
836.499	0.0143028
836.578	0.0142317
836.656	0.0141859
836.734	0.0140658
836.812	0.0140639
836.890	0.0140693
836.968	0.0141091
837.046	0.0140833
837.124	0.0140647
837.203	0.0141956
837.281	0.0140598
837.359	0.0139057
837.437	0.0139602
837.515	0.0141576
837.593	0.0140936
837.671	0.0140228
837.749	0.0140046
837.828	0.0139860
837.906	0.0139731
837.984	0.0137907
838.062	0.0138865
838.140	0.0139469
838.218	0.0139964
838.296	0.0139839
838.374	0.0140915
838.453	0.0138640
838.531	0.0138823
838.609	0.0140350
838.687	0.0141100
838.765	0.0141695
838.843	0.0139819
838.921	0.0139209
838.999	0.0142880
839.078	0.0140980
839.156	0.0140567
839.234	0.0140491
839.312	0.0141859
839.390	0.0141217
839.468	0.0140744
839.546	0.0140223
839.624	0.0141390
839.703	0.0139924
839.781	0.0141096
839.859	0.0139306
839.937	0.0139996
840.015	0.0140371
840.093	0.0140614
840.171	0.0139952
840.249	0.0139342
840.328	0.0138464
840.406	0.0137750
840.484	0.0137729
840.562	0.0137473
840.640	0.0138261
840.718	0.0137862
840.796	0.0137210
840.874	0.0136546
840.953	0.0136721
841.031	0.0135905
841.109	0.0135182
841.187	0.0134725
841.265	0.0135896
841.343	0.0134801
841.421	0.0133570
841.499	0.0135078
841.578	0.0135520
841.656	0.0136324
841.734	0.0136626
841.812	0.0135649
841.890	0.0138043
841.968	0.0137454
842.046	0.0137778
842.124	0.0138570
842.203	0.0137184
842.281	0.0137286
842.359	0.0139935
842.437	0.0139133
842.515	0.0139740
842.593	0.0139041
842.671	0.0139211
842.749	0.0138282
842.828	0.0139861
842.906	0.0138803
842.984	0.0138209
843.062	0.0138290
843.140	0.0138439
843.218	0.0139126
843.296	0.0138091
843.374	0.0137949
843.453	0.0138383
843.531	0.0137313
843.609	0.0135877
843.687	0.0137807
843.765	0.0137386
843.843	0.0136799
843.921	0.0137699
843.999	0.0137819
844.078	0.0137459
844.156	0.0137008
844.234	0.0137793
844.312	0.0139078
844.390	0.0137841
844.468	0.0137253
844.546	0.0137395
844.624	0.0138934
844.703	0.0139366
844.781	0.0139435
844.859	0.0139139
844.937	0.0138895
845.015	0.0139175
845.093	0.0140815
845.171	0.0139649
845.249	0.0139188
845.328	0.0141120
845.406	0.0140249
845.484	0.0140130
845.562	0.0140421
845.640	0.0140875
845.718	0.0141172
845.796	0.0141811
845.874	0.0140172
845.953	0.0139806
846.031	0.0140170
846.109	0.0140389
846.187	0.0140539
846.265	0.0138475
846.343	0.0139725
846.421	0.0139175
846.499	0.0139162
846.578	0.0140184
846.656	0.0139923
846.734	0.0138223
846.812	0.0137968
846.890	0.0139766
846.968	0.0139748
847.046	0.0138224
847.124	0.0138673
847.203	0.0138682
847.281	0.0139279
847.359	0.0137435
847.437	0.0138636
847.515	0.0138728
847.593	0.0139178
847.671	0.0139163
847.749	0.0137008
847.828	0.0138449
847.906	0.0138724
847.984	0.0136664
848.062	0.0138850
848.140	0.0137177
848.218	0.0137053
848.296	0.0137768
848.374	0.0139083
848.453	0.0138560
848.531	0.0139069
848.609	0.0138617
848.687	0.0139455
848.765	0.0139257
848.843	0.0139526
848.921	0.0139832
848.999	0.0139682
849.078	0.0139657
849.156	0.0140349
849.234	0.0138968
849.312	0.0138586
849.390	0.0137988
849.468	0.0138004
849.546	0.0138017
849.624	0.0137994
849.703	0.0137572
849.781	0.0137896
849.859	0.0136983
849.937	0.0138924
850.015	0.0137512
850.093	0.0138595
850.171	0.0140402
850.249	0.0138760
850.328	0.0139861
850.406	0.0140182
850.484	0.0140616
850.562	0.0140384
850.640	0.0141550
850.718	0.0141405
850.796	0.0141927
850.874	0.0141650
850.953	0.0141855
851.031	0.0141923
851.109	0.0141557
851.187	0.0142893
851.265	0.0142548
851.343	0.0141238
851.421	0.0142311
851.499	0.0142065
851.578	0.0142488
851.656	0.0140973
851.734	0.0140306
851.812	0.0141064
851.890	0.0142238
851.968	0.0141699
852.046	0.0138697
852.124	0.0139172
852.203	0.0139236
852.281	0.0139614
852.359	0.0137962
852.437	0.0138098
852.515	0.0137701
852.593	0.0138178
852.671	0.0138777
852.749	0.0137697
852.828	0.0137765
852.906	0.0137843
852.984	0.0137385
853.062	0.0137693
853.140	0.0138000
853.218	0.0138157
853.296	0.0137280
853.374	0.0138295
853.453	0.0136171
853.531	0.0137186
853.609	0.0137395
853.687	0.0136031
853.765	0.0137423
853.843	0.0136105
853.921	0.0137481
853.999	0.0137289
854.078	0.0137560
854.156	0.0139103
854.234	0.0138589
854.312	0.0137528
854.390	0.0137564
854.468	0.0139050
854.546	0.0139984
854.624	0.0140036
854.703	0.0140602
854.781	0.0139041
854.859	0.0140273
854.937	0.0139320
855.015	0.0139816
855.093	0.0140321
855.171	0.0140840
855.249	0.0141721
855.328	0.0141362
855.406	0.0140807
855.484	0.0141481
855.562	0.0142347
855.640	0.0143610
855.718	0.0142784
855.796	0.0143313
855.874	0.0142883
855.953	0.0141576
856.031	0.0142032
856.109	0.0142950
856.187	0.0144044
856.265	0.0142972
856.343	0.0143665
856.421	0.0142776
856.499	0.0142644
856.578	0.0143121
856.656	0.0142901
856.734	0.0141431
856.812	0.0141895
856.890	0.0142203
856.968	0.0142400
857.046	0.0141553
857.124	0.0141217
857.203	0.0140274
857.281	0.0139877
857.359	0.0140338
857.437	0.0139008
857.515	0.0139346
857.593	0.0138873
857.671	0.0139138
857.749	0.0138439
857.828	0.0138264
857.906	0.0138064
857.984	0.0138972
858.062	0.0138390
858.140	0.0139829
858.218	0.0139223
858.296	0.0138843
858.374	0.0139063
858.453	0.0139051
858.531	0.0138771
858.609	0.0138522
858.687	0.0139123
858.765	0.0139444
858.843	0.0139651
858.921	0.0139606
858.999	0.0138580
859.078	0.0139142
859.156	0.0137816
859.234	0.0137186
859.312	0.0139215
859.390	0.0138023
859.468	0.0138489
859.546	0.0138628
859.624	0.0138601
859.703	0.0138338
859.781	0.0137362
859.859	0.0138824
859.937	0.0138705
860.015	0.0138084
860.093	0.0139355
860.171	0.0140479
860.249	0.0139301
860.328	0.0138807
860.406	0.0139469
860.484	0.0139707
860.562	0.0139176
860.640	0.0139052
860.718	0.0139336
860.796	0.0141158
860.874	0.0140683
860.953	0.0140823
861.031	0.0141946
861.109	0.0140866
861.187	0.0140590
861.265	0.0140130
861.343	0.0140469
861.421	0.0139661
861.499	0.0140775
861.578	0.0141585
861.656	0.0140404
861.734	0.0140051
861.812	0.0139719
861.890	0.0139030
861.968	0.0139790
862.046	0.0140645
862.124	0.0139439
862.203	0.0138604
862.281	0.0139223
862.359	0.0140463
862.437	0.0138766
862.515	0.0138493
862.593	0.0137540
862.671	0.0140244
862.749	0.0140107
862.828	0.0137214
862.906	0.0139402
862.984	0.0138501
863.062	0.0139325
863.140	0.0139384
863.218	0.0138587
863.296	0.0138913
863.374	0.0139554
863.453	0.0139187
863.531	0.0138277
863.609	0.0140028
863.687	0.0139353
863.765	0.0139983
863.843	0.0138550
863.921	0.0139653
863.999	0.0142107
864.078	0.0140359
864.156	0.0140494
864.234	0.0141335
864.312	0.0140134
864.390	0.0141283
864.468	0.0139234
864.546	0.0139544
864.624	0.0140053
864.703	0.0140556
864.781	0.0140606
864.859	0.0139011
864.937	0.0139447
865.015	0.0138647
865.093	0.0138724
865.171	0.0138578
865.249	0.0138667
865.328	0.0138048
865.406	0.0137629
865.484	0.0137144
865.562	0.0137770
865.640	0.0136929
865.718	0.0137653
865.796	0.0136958
865.874	0.0136761
865.953	0.0137486
866.031	0.0136786
866.109	0.0136109
866.187	0.0137041
866.265	0.0135821
866.343	0.0135971
866.421	0.0135398
866.499	0.0136919
866.578	0.0136648
866.656	0.0137843
866.734	0.0136654
866.812	0.0137971
866.890	0.0137842
866.968	0.0137055
867.046	0.0137456
867.124	0.0137261
867.203	0.0137482
867.281	0.0136195
867.359	0.0137562
867.437	0.0137233
867.515	0.0137621
867.593	0.0136743
867.671	0.0138094
867.749	0.0138866
867.828	0.0138649
867.906	0.0138498
867.984	0.0138503
868.062	0.0137160
868.140	0.0136810
868.218	0.0137899
868.296	0.0139574
868.374	0.0138655
868.453	0.0137720
868.531	0.0138041
868.609	0.0138136
868.687	0.0139133
868.765	0.0137950
868.843	0.0138542
868.921	0.0139093
868.999	0.0138103
869.078	0.0137663
869.156	0.0138990
869.234	0.0139207
869.312	0.0139754
869.390	0.0140350
869.468	0.0139712
869.546	0.0139672
869.624	0.0139834
869.703	0.0140965
869.781	0.0141067
869.859	0.0140296
869.937	0.0139523
870.015	0.0139233
870.093	0.0138563
870.171	0.0139346
870.249	0.0139044
870.328	0.0139622
870.406	0.0139532
870.484	0.0139242
870.562	0.0138641
870.640	0.0139089
870.718	0.0138770
870.796	0.0138320
870.874	0.0139832
870.953	0.0139140
871.031	0.0140073
871.109	0.0140025
871.187	0.0140074
871.265	0.0140808
871.343	0.0141053
871.421	0.0140823
871.499	0.0140724
871.578	0.0141730
871.656	0.0142262
871.734	0.0141200
871.812	0.0140987
871.890	0.0141488
871.968	0.0139973
872.046	0.0141145
872.124	0.0140531
872.203	0.0140442
872.281	0.0140823
872.359	0.0140318
872.437	0.0139912
872.515	0.0140704
872.593	0.0139641
872.671	0.0139890
872.749	0.0140637
872.828	0.0141364
872.906	0.0140347
872.984	0.0140556
873.062	0.0139844
873.140	0.0138969
873.218	0.0137978
873.296	0.0139887
873.374	0.0139074
873.453	0.0137951
873.531	0.0139550
873.609	0.0138904
873.687	0.0138065
873.765	0.0140050
873.843	0.0138361
873.921	0.0137591
873.999	0.0138382
874.078	0.0137489
874.156	0.0138154
874.234	0.0138337
874.312	0.0138657
874.390	0.0138313
874.468	0.0138745
874.546	0.0138792
874.624	0.0138049
874.703	0.0138676
874.781	0.0140256
874.859	0.0137785
874.937	0.0139281
875.015	0.0139385
875.093	0.0139952
875.171	0.0141036
875.249	0.0138613
875.328	0.0140588
875.406	0.0140606
875.484	0.0141934
875.562	0.0141241
875.640	0.0141136
875.718	0.0141084
875.796	0.0142233
875.874	0.0140677
875.953	0.0140686
876.031	0.0142035
876.109	0.0140257
876.187	0.0141050
876.265	0.0141275
876.343	0.0141312
876.421	0.0141275
876.499	0.0141062
876.578	0.0141158
876.656	0.0140889
876.734	0.0141006
876.812	0.0139942
876.890	0.0140414
876.968	0.0141161
877.046	0.0139552
877.124	0.0139339
877.203	0.0139990
877.281	0.0140498
877.359	0.0140913
877.437	0.0139311
877.515	0.0138883
877.593	0.0139613
877.671	0.0140183
877.749	0.0139419
877.828	0.0138747
877.906	0.0137646
877.984	0.0139630
878.062	0.0139360
878.140	0.0138865
878.218	0.0139669
878.296	0.0138119
878.374	0.0140126
878.453	0.0139796
878.531	0.0139814
878.609	0.0139242
878.687	0.0138814
878.765	0.0140287
878.843	0.0140733
878.921	0.0139579
878.999	0.0138530
879.078	0.0138296
879.156	0.0140427
879.234	0.0140440
879.312	0.0139258
879.390	0.0139846
879.468	0.0140442
879.546	0.0140263
879.624	0.0140486
879.703	0.0140833
879.781	0.0140954
879.859	0.0140359
879.937	0.0139491
880.015	0.0140649
880.093	0.0141458
880.171	0.0142590
880.249	0.0143248
880.328	0.0141064
880.406	0.0141939
880.484	0.0141541
880.562	0.0141296
880.640	0.0142359
880.718	0.0141334
880.796	0.0141113
880.874	0.0141695
880.953	0.0140385
881.031	0.0140025
881.109	0.0140313
881.187	0.0140205
881.265	0.0139584
881.343	0.0140807
881.421	0.0140845
881.499	0.0140829
881.578	0.0139841
881.656	0.0139492
881.734	0.0142023
881.812	0.0140462
881.890	0.0140769
881.968	0.0140247
882.046	0.0139703
882.124	0.0140063
882.203	0.0141477
882.281	0.0141257
882.359	0.0140543
882.437	0.0141153
882.515	0.0142268
882.593	0.0140318
882.671	0.0140536
882.749	0.0141165
882.828	0.0140613
882.906	0.0142287
882.984	0.0140467
883.062	0.0140754
883.140	0.0139886
883.218	0.0139475
883.296	0.0141233
883.374	0.0140678
883.453	0.0139619
883.531	0.0140405
883.609	0.0139514
883.687	0.0139764
883.765	0.0139082
883.843	0.0140220
883.921	0.0138837
883.999	0.0141224
884.078	0.0139896
884.156	0.0138457
884.234	0.0138629
884.312	0.0138799
884.390	0.0139949
884.468	0.0139543
884.546	0.0137926
884.624	0.0138748
884.703	0.0138350
884.781	0.0138776
884.859	0.0138995
884.937	0.0137510
885.015	0.0139072
885.093	0.0138357
885.171	0.0139944
885.249	0.0139407
885.328	0.0138339
885.406	0.0139450
885.484	0.0138497
885.562	0.0137736
885.640	0.0141103
885.718	0.0139559
885.796	0.0139196
885.874	0.0138572
885.953	0.0139153
886.031	0.0140141
886.109	0.0139372
886.187	0.0139492
886.265	0.0141547
886.343	0.0139291
886.421	0.0140054
886.499	0.0140669
886.578	0.0140024
886.656	0.0140912
886.734	0.0140727
886.812	0.0141261
886.890	0.0140174
886.968	0.0141232
887.046	0.0140424
887.124	0.0139851
887.203	0.0139764
887.281	0.0140065
887.359	0.0139936
887.437	0.0139682
887.515	0.0140182
887.593	0.0140507
887.671	0.0139508
887.749	0.0139223
887.828	0.0139439
887.906	0.0141303
887.984	0.0140235
888.062	0.0140295
888.140	0.0141657
888.218	0.0139997
888.296	0.0140969
888.374	0.0142671
888.453	0.0141399
888.531	0.0141705
888.609	0.0140933
888.687	0.0141814
888.765	0.0141888
888.843	0.0141953
888.921	0.0141877
888.999	0.0141156
889.078	0.0140432
889.156	0.0141317
889.234	0.0141789
889.312	0.0141112
889.390	0.0140228
889.468	0.0140631
889.546	0.0141925
889.624	0.0141943
889.703	0.0141148
889.781	0.0141661
889.859	0.0141337
889.937	0.0140630
890.015	0.0141447
890.093	0.0140915
890.171	0.0140353
890.249	0.0139388
890.328	0.0138892
890.406	0.0140604
890.484	0.0139018
890.562	0.0139985
890.640	0.0139535
890.718	0.0138760
890.796	0.0137908
890.874	0.0139763
890.953	0.0138915
891.031	0.0137894
891.109	0.0137263
891.187	0.0138275
891.265	0.0136905
891.343	0.0137713
891.421	0.0137254
891.499	0.0138233
891.578	0.0138452
891.656	0.0138355
891.734	0.0138261
891.812	0.0137730
891.890	0.0138191
891.968	0.0138391
892.046	0.0137515
892.124	0.0138631
892.203	0.0138853
892.281	0.0137838
892.359	0.0139014
892.437	0.0138798
892.515	0.0137448
892.593	0.0139027
892.671	0.0140865
892.749	0.0138252
892.828	0.0139462
892.906	0.0140685
892.984	0.0139843
893.062	0.0138242
893.140	0.0138145
893.218	0.0140245
893.296	0.0139844
893.374	0.0139799
893.453	0.0138542
893.531	0.0141152
893.609	0.0139311
893.687	0.0139934
893.765	0.0140925
893.843	0.0139943
893.921	0.0141898
893.999	0.0140580
894.078	0.0141073
894.156	0.0140318
894.234	0.0140362
894.312	0.0141434
894.390	0.0140623
894.468	0.0140783
894.546	0.0140542
894.624	0.0139251
894.703	0.0141169
894.781	0.0140398
894.859	0.0139673
894.937	0.0140321
895.015	0.0139152
895.093	0.0140144
895.171	0.0139980
895.249	0.0139967
895.328	0.0139876
895.406	0.0139120
895.484	0.0138473
895.562	0.0139135
895.640	0.0139237
895.718	0.0138763
895.796	0.0139388
895.874	0.0138783
895.953	0.0139738
896.031	0.0138257
896.109	0.0139084
896.187	0.0140128
896.265	0.0137770
896.343	0.0137811
896.421	0.0138541
896.499	0.0137506
896.578	0.0137397
896.656	0.0138842
896.734	0.0137863
896.812	0.0137917
896.890	0.0138073
896.968	0.0139711
897.046	0.0138420
897.124	0.0137709
897.203	0.0138103
897.281	0.0137287
897.359	0.0138534
897.437	0.0138921
897.515	0.0138172
897.593	0.0138203
897.671	0.0140295
897.749	0.0139761
897.828	0.0138472
897.906	0.0138382
897.984	0.0140943
898.062	0.0141003
898.140	0.0141478
898.218	0.0139604
898.296	0.0142010
898.374	0.0141104
898.453	0.0141690
898.531	0.0142287
898.609	0.0140230
898.687	0.0140369
898.765	0.0141386
898.843	0.0141081
898.921	0.0141791
898.999	0.0140398
899.078	0.0141142
899.156	0.0141695
899.234	0.0140629
899.312	0.0141291
899.390	0.0141013
899.468	0.0139823
899.546	0.0140157
899.624	0.0140401
899.703	0.0139986
899.781	0.0139572
899.859	0.0138994
899.937	0.0139737
900.015	0.0138589
900.093	0.0137658
900.171	0.0137894
900.249	0.0138170
900.328	0.0138302
900.406	0.0137828
900.484	0.0138042
900.562	0.0137698
900.640	0.0138109
900.718	0.0138470
900.796	0.0138962
900.874	0.0137768
900.953	0.0136711
901.031	0.0138353
901.109	0.0138239
901.187	0.0138122
901.265	0.0137199
901.343	0.0137136
901.421	0.0138017
901.499	0.0137849
901.578	0.0137096
901.656	0.0140115
901.734	0.0138214
901.812	0.0138493
901.890	0.0137615
901.968	0.0137605
902.046	0.0137414
902.124	0.0136955
902.203	0.0138850
902.281	0.0137492
902.359	0.0138284
902.437	0.0138273
902.515	0.0137571
902.593	0.0138687
902.671	0.0137427
902.749	0.0138766
902.828	0.0139487
902.906	0.0138794
902.984	0.0138622
903.062	0.0139495
903.140	0.0138065
903.218	0.0140115
903.296	0.0140870
903.374	0.0140170
903.453	0.0140428
903.531	0.0141193
903.609	0.0140211
903.687	0.0140156
903.765	0.0140504
903.843	0.0140254
903.921	0.0141192
903.999	0.0141137
904.078	0.0142197
904.156	0.0141248
904.234	0.0141552
904.312	0.0140409
904.390	0.0141975
904.468	0.0141099
904.546	0.0141736
904.624	0.0139893
904.703	0.0140657
904.781	0.0142094
904.859	0.0141568
904.937	0.0142138
905.015	0.0139919
905.093	0.0140523
905.171	0.0140264
905.249	0.0139720
905.328	0.0140404
905.406	0.0140414
905.484	0.0141188
905.562	0.0138988
905.640	0.0139795
905.718	0.0140076
905.796	0.0139867
905.874	0.0140255
905.953	0.0140894
906.031	0.0139148
906.109	0.0139555
906.187	0.0139643
906.265	0.0141514
906.343	0.0140237
906.421	0.0140411
906.499	0.0139114
906.578	0.0139938
906.656	0.0140442
906.734	0.0141145
906.812	0.0141135
906.890	0.0140489
906.968	0.0139730
907.046	0.0139033
907.124	0.0139886
907.203	0.0140087
907.281	0.0140878
907.359	0.0141744
907.437	0.0140831
907.515	0.0141086
907.593	0.0141479
907.671	0.0141621
907.749	0.0141682
907.828	0.0139877
907.906	0.0141504
907.984	0.0141061
908.062	0.0142162
908.140	0.0140379
908.218	0.0142136
908.296	0.0140611
908.374	0.0142442
908.453	0.0143118
908.531	0.0142761
908.609	0.0142961
908.687	0.0142209
908.765	0.0142603
908.843	0.0142409
908.921	0.0142090
908.999	0.0141491
909.078	0.0142130
909.156	0.0143212
909.234	0.0141482
909.312	0.0141344
909.390	0.0142451
909.468	0.0142088
909.546	0.0141389
909.624	0.0140479
909.703	0.0140868
909.781	0.0141231
909.859	0.0142373
909.937	0.0141092
910.015	0.0139685
910.093	0.0141260
910.171	0.0140822
910.249	0.0139174
910.328	0.0137856
910.406	0.0138932
910.484	0.0139101
910.562	0.0138465
910.640	0.0137672
910.718	0.0138339
910.796	0.0137516
910.874	0.0137741
910.953	0.0138631
911.031	0.0138779
911.109	0.0138886
911.187	0.0139055
911.265	0.0138249
911.343	0.0139700
911.421	0.0138562
911.499	0.0139503
911.578	0.0139877
911.656	0.0139877
911.734	0.0140935
911.812	0.0140165
911.890	0.0140060
911.968	0.0139764
912.046	0.0140103
912.124	0.0140552
912.203	0.0140125
912.281	0.0140063
912.359	0.0140777
912.437	0.0140672
912.515	0.0141549
912.593	0.0140886
912.671	0.0141545
912.749	0.0140509
912.828	0.0141579
912.906	0.0140492
912.984	0.0140496
913.062	0.0140125
913.140	0.0141475
913.218	0.0142180
913.296	0.0141669
913.374	0.0140409
913.453	0.0140668
913.531	0.0141547
913.609	0.0140012
913.687	0.0141759
913.765	0.0141543
913.843	0.0140695
913.921	0.0141381
913.999	0.0140600
914.078	0.0140891
914.156	0.0140636
914.234	0.0140674
914.312	0.0139666
914.390	0.0140167
914.468	0.0140622
914.546	0.0140041
914.624	0.0140607
914.703	0.0140687
914.781	0.0140359
914.859	0.0139708
914.937	0.0140586
915.015	0.0139359
915.093	0.0139992
915.171	0.0139989
915.249	0.0140090
915.328	0.0139067
915.406	0.0138757
915.484	0.0138905
915.562	0.0139675
915.640	0.0138838
915.718	0.0138483
915.796	0.0138128
915.874	0.0138883
915.953	0.0138839
916.031	0.0138101
916.109	0.0138229
916.187	0.0137975
916.265	0.0138138
916.343	0.0137805
916.421	0.0137878
916.499	0.0138734
916.578	0.0139079
916.656	0.0138895
916.734	0.0139336
916.812	0.0139075
916.890	0.0138012
916.968	0.0140893
917.046	0.0140424
917.124	0.0140641
917.203	0.0141216
917.281	0.0140675
917.359	0.0139600
917.437	0.0140475
917.515	0.0141408
917.593	0.0140696
917.671	0.0140076
917.749	0.0140959
917.828	0.0140875
917.906	0.0141039
917.984	0.0140874
918.062	0.0140779
918.140	0.0140827
918.218	0.0140204
918.296	0.0141894
918.374	0.0140165
918.453	0.0139870
918.531	0.0140411
918.609	0.0140612
918.687	0.0140338
918.765	0.0139916
918.843	0.0139256
918.921	0.0138229
918.999	0.0139423
919.078	0.0140211
919.156	0.0139865
919.234	0.0139119
919.312	0.0139012
919.390	0.0139465
919.468	0.0138947
919.546	0.0139149
919.624	0.0137576
919.703	0.0137365
919.781	0.0137788
919.859	0.0137135
919.937	0.0138732
