05/08/2022	20:16:37	Ver.	4.1	UNKNOWN
Optical Delay	600.015094	Delta X		0.078125	Sweeps	1	Scan Rate	0/0
Coordinates	Axis 1	NaN	Axis 2	NaN	Axis 3	NaN	Axis 4	NaN	Axis 5	NaN	Axis 6	0.000000
TX Power	0.000000	RX Power	0.000000

600.015	0.0137325
600.093	0.0139005
600.171	0.0138268
600.249	0.0137342
600.328	0.0137408
600.406	0.0138048
600.484	0.0138581
600.562	0.0137262
600.640	0.0136760
600.718	0.0136808
600.796	0.0136983
600.874	0.0136592
600.953	0.0137201
601.031	0.0138198
601.109	0.0136156
601.187	0.0137159
601.265	0.0137932
601.343	0.0136926
601.421	0.0137834
601.499	0.0136419
601.578	0.0136625
601.656	0.0135959
601.734	0.0136178
601.812	0.0137108
601.890	0.0137676
601.968	0.0136075
602.046	0.0137923
602.124	0.0138113
602.203	0.0136485
602.281	0.0137293
602.359	0.0136086
602.437	0.0137145
602.515	0.0138258
602.593	0.0136224
602.671	0.0137190
602.749	0.0137881
602.828	0.0137743
602.906	0.0137621
602.984	0.0137641
603.062	0.0135863
603.140	0.0137191
603.218	0.0136842
603.296	0.0138519
603.374	0.0139409
603.453	0.0137408
603.531	0.0137018
603.609	0.0136304
603.687	0.0136398
603.765	0.0137735
603.843	0.0139005
603.921	0.0137669
603.999	0.0137106
604.078	0.0137405
604.156	0.0137454
604.234	0.0139159
604.312	0.0138134
604.390	0.0137134
604.468	0.0137526
604.546	0.0138114
604.624	0.0137455
604.703	0.0137772
604.781	0.0137348
604.859	0.0138416
604.937	0.0137142
605.015	0.0138185
605.093	0.0138602
605.171	0.0137153
605.249	0.0138641
605.328	0.0136919
605.406	0.0136687
605.484	0.0137804
605.562	0.0137303
605.640	0.0138283
605.718	0.0138052
605.796	0.0137917
605.874	0.0136987
605.953	0.0138802
606.031	0.0138456
606.109	0.0137949
606.187	0.0137905
606.265	0.0138495
606.343	0.0137463
606.421	0.0138624
606.499	0.0137337
606.578	0.0137742
606.656	0.0139066
606.734	0.0139238
606.812	0.0138604
606.890	0.0138084
606.968	0.0138663
607.046	0.0138687
607.124	0.0138396
607.203	0.0138545
607.281	0.0137862
607.359	0.0136683
607.437	0.0138668
607.515	0.0139667
607.593	0.0138604
607.671	0.0138193
607.749	0.0137966
607.828	0.0138635
607.906	0.0139350
607.984	0.0138332
608.062	0.0138815
608.140	0.0137757
608.218	0.0138728
608.296	0.0137458
608.374	0.0138510
608.453	0.0140290
608.531	0.0139613
608.609	0.0138757
608.687	0.0139085
608.765	0.0140857
608.843	0.0138606
608.921	0.0140234
608.999	0.0139507
609.078	0.0139608
609.156	0.0140470
609.234	0.0139896
609.312	0.0139175
609.390	0.0139386
609.468	0.0139568
609.546	0.0139635
609.624	0.0139677
609.703	0.0139612
609.781	0.0140842
609.859	0.0140824
609.937	0.0139869
610.015	0.0139927
610.093	0.0139682
610.171	0.0139979
610.249	0.0139738
610.328	0.0140945
610.406	0.0140228
610.484	0.0139272
610.562	0.0139983
610.640	0.0140923
610.718	0.0140220
610.796	0.0138658
610.874	0.0139724
610.953	0.0139376
611.031	0.0139652
611.109	0.0140353
611.187	0.0139298
611.265	0.0139103
611.343	0.0137178
611.421	0.0137505
611.499	0.0138637
611.578	0.0140507
611.656	0.0139612
611.734	0.0139233
611.812	0.0140086
611.890	0.0138692
611.968	0.0138602
612.046	0.0139525
612.124	0.0138889
612.203	0.0140327
612.281	0.0139236
612.359	0.0139875
612.437	0.0139169
612.515	0.0137940
612.593	0.0140031
612.671	0.0139108
612.749	0.0139250
612.828	0.0137237
612.906	0.0139336
612.984	0.0139184
613.062	0.0138985
613.140	0.0139458
613.218	0.0139380
613.296	0.0139342
613.374	0.0138784
613.453	0.0140692
613.531	0.0139891
613.609	0.0140589
613.687	0.0139439
613.765	0.0139713
613.843	0.0139540
613.921	0.0139221
613.999	0.0140360
614.078	0.0139486
614.156	0.0139883
614.234	0.0138220
614.312	0.0139530
614.390	0.0140163
614.468	0.0139292
614.546	0.0138403
614.624	0.0139982
614.703	0.0137668
614.781	0.0137720
614.859	0.0138238
614.937	0.0139079
615.015	0.0139275
615.093	0.0138399
615.171	0.0137762
615.249	0.0138894
615.328	0.0138490
615.406	0.0138325
615.484	0.0137266
615.562	0.0138566
615.640	0.0137559
615.718	0.0138179
615.796	0.0136740
615.874	0.0138124
615.953	0.0138300
616.031	0.0138136
616.109	0.0138199
616.187	0.0137341
616.265	0.0137070
616.343	0.0137813
616.421	0.0136771
616.499	0.0137077
616.578	0.0136446
616.656	0.0137268
616.734	0.0137054
616.812	0.0136522
616.890	0.0138194
616.968	0.0137224
617.046	0.0136686
617.124	0.0136614
617.203	0.0136546
617.281	0.0137907
617.359	0.0136799
617.437	0.0137521
617.515	0.0136013
617.593	0.0136423
617.671	0.0137527
617.749	0.0136919
617.828	0.0138253
617.906	0.0138849
617.984	0.0138396
618.062	0.0138033
618.140	0.0137207
618.218	0.0136670
618.296	0.0136468
618.374	0.0135995
618.453	0.0137215
618.531	0.0137589
618.609	0.0137978
618.687	0.0136713
618.765	0.0136563
618.843	0.0136972
618.921	0.0135699
618.999	0.0136785
619.078	0.0137348
619.156	0.0137806
619.234	0.0138092
619.312	0.0136935
619.390	0.0136400
619.468	0.0136847
619.546	0.0137257
619.624	0.0136784
619.703	0.0137961
619.781	0.0138297
619.859	0.0137177
619.937	0.0137501
620.015	0.0136929
620.093	0.0137183
620.171	0.0137752
620.249	0.0138340
620.328	0.0137020
620.406	0.0136877
620.484	0.0137756
620.562	0.0136813
620.640	0.0137707
620.718	0.0138074
620.796	0.0137428
620.874	0.0138226
620.953	0.0138238
621.031	0.0136823
621.109	0.0137368
621.187	0.0138493
621.265	0.0137980
621.343	0.0136965
621.421	0.0136820
621.499	0.0138183
621.578	0.0136761
621.656	0.0138598
621.734	0.0138506
621.812	0.0136908
621.890	0.0137321
621.968	0.0137659
622.046	0.0136444
622.124	0.0137451
622.203	0.0137302
622.281	0.0137524
622.359	0.0137639
622.437	0.0137683
622.515	0.0136323
622.593	0.0138553
622.671	0.0137284
622.749	0.0137462
622.828	0.0137106
622.906	0.0138054
622.984	0.0136959
623.062	0.0136790
623.140	0.0138467
623.218	0.0138847
623.296	0.0137313
623.374	0.0135944
623.453	0.0136342
623.531	0.0138314
623.609	0.0136198
623.687	0.0138241
623.765	0.0137392
623.843	0.0137540
623.921	0.0137369
623.999	0.0137896
624.078	0.0137426
624.156	0.0136571
624.234	0.0137453
624.312	0.0137820
624.390	0.0137118
624.468	0.0137823
624.546	0.0138020
624.624	0.0137181
624.703	0.0136395
624.781	0.0136508
624.859	0.0139185
624.937	0.0136499
625.015	0.0137636
625.093	0.0137217
625.171	0.0138144
625.249	0.0137254
625.328	0.0137190
625.406	0.0137123
625.484	0.0135315
625.562	0.0137708
625.640	0.0136935
625.718	0.0136784
625.796	0.0137335
625.874	0.0136427
625.953	0.0136824
626.031	0.0139124
626.109	0.0138239
626.187	0.0136543
626.265	0.0135416
626.343	0.0137147
626.421	0.0137400
626.499	0.0137183
626.578	0.0136787
626.656	0.0137875
626.734	0.0137639
626.812	0.0137745
626.890	0.0135542
626.968	0.0135760
627.046	0.0138109
627.124	0.0137926
627.203	0.0136890
627.281	0.0136150
627.359	0.0137633
627.437	0.0136530
627.515	0.0136257
627.593	0.0136736
627.671	0.0137337
627.749	0.0137740
627.828	0.0137812
627.906	0.0138815
627.984	0.0137173
628.062	0.0138023
628.140	0.0137666
628.218	0.0138901
628.296	0.0139558
628.374	0.0137974
628.453	0.0136948
628.531	0.0139780
628.609	0.0138349
628.687	0.0137960
628.765	0.0138615
628.843	0.0138855
628.921	0.0140086
628.999	0.0138712
629.078	0.0139104
629.156	0.0140370
629.234	0.0140477
629.312	0.0137678
629.390	0.0140798
629.468	0.0138664
629.546	0.0139470
629.624	0.0140995
629.703	0.0139822
629.781	0.0139534
629.859	0.0140361
629.937	0.0140286
630.015	0.0139566
630.093	0.0139452
630.171	0.0140039
630.249	0.0139271
630.328	0.0139526
630.406	0.0140690
630.484	0.0140923
630.562	0.0140179
630.640	0.0138985
630.718	0.0140128
630.796	0.0140653
630.874	0.0140268
630.953	0.0140588
631.031	0.0139624
631.109	0.0141098
631.187	0.0140832
631.265	0.0140739
631.343	0.0138844
631.421	0.0140078
631.499	0.0140937
631.578	0.0141602
631.656	0.0140069
631.734	0.0140057
631.812	0.0140746
631.890	0.0141792
631.968	0.0141646
632.046	0.0139741
632.124	0.0140265
632.203	0.0139565
632.281	0.0139167
632.359	0.0139251
632.437	0.0139351
632.515	0.0139560
632.593	0.0141262
632.671	0.0139119
632.749	0.0138187
632.828	0.0140514
632.906	0.0140160
632.984	0.0140264
633.062	0.0140854
633.140	0.0140170
633.218	0.0139957
633.296	0.0139250
633.374	0.0140502
633.453	0.0137887
633.531	0.0139804
633.609	0.0141468
633.687	0.0139375
633.765	0.0139216
633.843	0.0139268
633.921	0.0138771
633.999	0.0137719
634.078	0.0138451
634.156	0.0138599
634.234	0.0140376
634.312	0.0138895
634.390	0.0138556
634.468	0.0138654
634.546	0.0137967
634.624	0.0137669
634.703	0.0138091
634.781	0.0137657
634.859	0.0137105
634.937	0.0138607
635.015	0.0139774
635.093	0.0138558
635.171	0.0139639
635.249	0.0137685
635.328	0.0138235
635.406	0.0140322
635.484	0.0140073
635.562	0.0140163
635.640	0.0139350
635.718	0.0140044
635.796	0.0139611
635.874	0.0138877
635.953	0.0139729
636.031	0.0139928
636.109	0.0138788
636.187	0.0139158
636.265	0.0140341
636.343	0.0140101
636.421	0.0138480
636.499	0.0139830
636.578	0.0139379
636.656	0.0139485
636.734	0.0139635
636.812	0.0139293
636.890	0.0137566
636.968	0.0138627
637.046	0.0137253
637.124	0.0137660
637.203	0.0138511
637.281	0.0136299
637.359	0.0137389
637.437	0.0136799
637.515	0.0136810
637.593	0.0137560
637.671	0.0136669
637.749	0.0138248
637.828	0.0138482
637.906	0.0140092
637.984	0.0138270
638.062	0.0141693
638.140	0.0140673
638.218	0.0138126
638.296	0.0140112
638.374	0.0141578
638.453	0.0141045
638.531	0.0140254
638.609	0.0138983
638.687	0.0138892
638.765	0.0138007
638.843	0.0137445
638.921	0.0138416
638.999	0.0139261
639.078	0.0137690
639.156	0.0138416
639.234	0.0137894
639.312	0.0138456
639.390	0.0137783
639.468	0.0138625
639.546	0.0139329
639.624	0.0139594
639.703	0.0138455
639.781	0.0138653
639.859	0.0140085
639.937	0.0139494
640.015	0.0138546
640.093	0.0138483
640.171	0.0137602
640.249	0.0136806
640.328	0.0136920
640.406	0.0135734
640.484	0.0136063
640.562	0.0136044
640.640	0.0136114
640.718	0.0136832
640.796	0.0135426
640.874	0.0136451
640.953	0.0136879
641.031	0.0137167
641.109	0.0139729
641.187	0.0137888
641.265	0.0139400
641.343	0.0142042
641.421	0.0143069
641.499	0.0142297
641.578	0.0142751
641.656	0.0143474
641.734	0.0142606
641.812	0.0143589
641.890	0.0142208
641.968	0.0143121
642.046	0.0143176
642.124	0.0143124
642.203	0.0142741
642.281	0.0142471
642.359	0.0142365
642.437	0.0143514
642.515	0.0142014
642.593	0.0139857
642.671	0.0140215
642.749	0.0142202
642.828	0.0139013
642.906	0.0136466
642.984	0.0137300
643.062	0.0135271
643.140	0.0134740
643.218	0.0134605
643.296	0.0134233
643.374	0.0132198
643.453	0.0132260
643.531	0.0134587
643.609	0.0132415
643.687	0.0134107
643.765	0.0134709
643.843	0.0135062
643.921	0.0135600
643.999	0.0137952
644.078	0.0140704
644.156	0.0141431
644.234	0.0140582
644.312	0.0140057
644.390	0.0142538
644.468	0.0141505
644.546	0.0143128
644.624	0.0144474
644.703	0.0143570
644.781	0.0144253
644.859	0.0142693
644.937	0.0142685
645.015	0.0144879
645.093	0.0143083
645.171	0.0143284
645.249	0.0141245
645.328	0.0141743
645.406	0.0141098
645.484	0.0139799
645.562	0.0138573
645.640	0.0137086
645.718	0.0135548
645.796	0.0135368
645.874	0.0133794
645.953	0.0131470
646.031	0.0129906
646.109	0.0129196
646.187	0.0127898
646.265	0.0127449
646.343	0.0129085
646.421	0.0127129
646.499	0.0129636
646.578	0.0130656
646.656	0.0131984
646.734	0.0133266
646.812	0.0133928
646.890	0.0136005
646.968	0.0137801
647.046	0.0138762
647.124	0.0139871
647.203	0.0142954
647.281	0.0144173
647.359	0.0146372
647.437	0.0148255
647.515	0.0148640
647.593	0.0149741
647.671	0.0149502
647.749	0.0148818
647.828	0.0149755
647.906	0.0150540
647.984	0.0148071
648.062	0.0146255
648.140	0.0145390
648.218	0.0143745
648.296	0.0141995
648.374	0.0139278
648.453	0.0136922
648.531	0.0137302
648.609	0.0134219
648.687	0.0133518
648.765	0.0131364
648.843	0.0128418
648.921	0.0125980
648.999	0.0124282
649.078	0.0123638
649.156	0.0123087
649.234	0.0123216
649.312	0.0124028
649.390	0.0122763
649.468	0.0121847
649.546	0.0122638
649.624	0.0124132
649.703	0.0127116
649.781	0.0128429
649.859	0.0131200
649.937	0.0134910
650.015	0.0136238
650.093	0.0138954
650.171	0.0141279
650.249	0.0145041
650.328	0.0148009
650.406	0.0149046
650.484	0.0151384
650.562	0.0151512
650.640	0.0151729
650.718	0.0151183
650.796	0.0153284
650.874	0.0153476
650.953	0.0153317
651.031	0.0151260
651.109	0.0148793
651.187	0.0148421
651.265	0.0147013
651.343	0.0144170
651.421	0.0142835
651.499	0.0140603
651.578	0.0137693
651.656	0.0134654
651.734	0.0134237
651.812	0.0131551
651.890	0.0130159
651.968	0.0127354
652.046	0.0126438
652.124	0.0124391
652.203	0.0124392
652.281	0.0123073
652.359	0.0123309
652.437	0.0124328
652.515	0.0123648
652.593	0.0124218
652.671	0.0124782
652.749	0.0125150
652.828	0.0127207
652.906	0.0128403
652.984	0.0130392
653.062	0.0131315
653.140	0.0133077
653.218	0.0134667
653.296	0.0136817
653.374	0.0139294
653.453	0.0139912
653.531	0.0141608
653.609	0.0143556
653.687	0.0145503
653.765	0.0145251
653.843	0.0146180
653.921	0.0148549
653.999	0.0147348
654.078	0.0147032
654.156	0.0146535
654.234	0.0146976
654.312	0.0146292
654.390	0.0145110
654.468	0.0144873
654.546	0.0143338
654.624	0.0141422
654.703	0.0141290
654.781	0.0139645
654.859	0.0138129
654.937	0.0134289
655.015	0.0134152
655.093	0.0133195
655.171	0.0132450
655.249	0.0131552
655.328	0.0131788
655.406	0.0130383
655.484	0.0130730
655.562	0.0131033
655.640	0.0132056
655.718	0.0133359
655.796	0.0134282
655.874	0.0135445
655.953	0.0137373
656.031	0.0138520
656.109	0.0139844
656.187	0.0141806
656.265	0.0142647
656.343	0.0144358
656.421	0.0145300
656.499	0.0144868
656.578	0.0145466
656.656	0.0148009
656.734	0.0147527
656.812	0.0145715
656.890	0.0145070
656.968	0.0145192
657.046	0.0143040
657.124	0.0140440
657.203	0.0139445
657.281	0.0137569
657.359	0.0134639
657.437	0.0133022
657.515	0.0129150
657.593	0.0126853
657.671	0.0123753
657.749	0.0123825
657.828	0.0121967
657.906	0.0120914
657.984	0.0121211
658.062	0.0118796
658.140	0.0121107
658.218	0.0122129
658.296	0.0123663
658.374	0.0126487
658.453	0.0126594
658.531	0.0129675
658.609	0.0134032
658.687	0.0135736
658.765	0.0137833
658.843	0.0140417
658.921	0.0143539
658.999	0.0147234
659.078	0.0148462
659.156	0.0149412
659.234	0.0153521
659.312	0.0155225
659.390	0.0158100
659.468	0.0157055
659.546	0.0158508
659.624	0.0160765
659.703	0.0161649
659.781	0.0160133
659.859	0.0158622
659.937	0.0158517
660.015	0.0155016
660.093	0.0153381
660.171	0.0150806
660.249	0.0148366
660.328	0.0144415
660.406	0.0143221
660.484	0.0138744
660.562	0.0137158
660.640	0.0133781
660.718	0.0131577
660.796	0.0130888
660.874	0.0128784
660.953	0.0128856
661.031	0.0127923
661.109	0.0127379
661.187	0.0127048
661.265	0.0127888
661.343	0.0126517
661.421	0.0126568
661.499	0.0128130
661.578	0.0130417
661.656	0.0130005
661.734	0.0130729
661.812	0.0131212
661.890	0.0131964
661.968	0.0130756
662.046	0.0132393
662.124	0.0134627
662.203	0.0132947
662.281	0.0132569
662.359	0.0135863
662.437	0.0134885
662.515	0.0132838
662.593	0.0134428
662.671	0.0135072
662.749	0.0135277
662.828	0.0134442
662.906	0.0134289
662.984	0.0134470
663.062	0.0135238
663.140	0.0135133
663.218	0.0135250
663.296	0.0136865
663.374	0.0136642
663.453	0.0135822
663.531	0.0137010
663.609	0.0139246
663.687	0.0141115
663.765	0.0143336
663.843	0.0145266
663.921	0.0145885
663.999	0.0148752
664.078	0.0151389
664.156	0.0152547
664.234	0.0153900
664.312	0.0157212
664.390	0.0157413
664.468	0.0159193
664.546	0.0158519
664.624	0.0160350
664.703	0.0161741
664.781	0.0161648
664.859	0.0161544
664.937	0.0159175
665.015	0.0159565
665.093	0.0156373
665.171	0.0156864
665.249	0.0153341
665.328	0.0152016
665.406	0.0148801
665.484	0.0145332
665.562	0.0142405
665.640	0.0138910
665.718	0.0136607
665.796	0.0131407
665.874	0.0128931
665.953	0.0126607
666.031	0.0123543
666.109	0.0121962
666.187	0.0120100
666.265	0.0118976
666.343	0.0117113
666.421	0.0117130
666.499	0.0117050
666.578	0.0115791
666.656	0.0117770
666.734	0.0117739
666.812	0.0118460
666.890	0.0118388
666.968	0.0121304
667.046	0.0121719
667.124	0.0122791
667.203	0.0123625
667.281	0.0125574
667.359	0.0126818
667.437	0.0128602
667.515	0.0132224
667.593	0.0133066
667.671	0.0136003
667.749	0.0138321
667.828	0.0140704
667.906	0.0142241
667.984	0.0144330
668.062	0.0147806
668.140	0.0147621
668.218	0.0148594
668.296	0.0149539
668.374	0.0148988
668.453	0.0150874
668.531	0.0151601
668.609	0.0150735
668.687	0.0151575
668.765	0.0151831
668.843	0.0153091
668.921	0.0152099
668.999	0.0152178
669.078	0.0152591
669.156	0.0152041
669.234	0.0153566
669.312	0.0152988
669.390	0.0152464
669.468	0.0154057
669.546	0.0151766
669.624	0.0151977
669.703	0.0151550
669.781	0.0151038
669.859	0.0150517
669.937	0.0149530
670.015	0.0149961
670.093	0.0147736
670.171	0.0146123
670.249	0.0144464
670.328	0.0143155
670.406	0.0143274
670.484	0.0142706
670.562	0.0140843
670.640	0.0137928
670.718	0.0136153
670.796	0.0134340
670.874	0.0132874
670.953	0.0130753
671.031	0.0127258
671.109	0.0125574
671.187	0.0124748
671.265	0.0119728
671.343	0.0118678
671.421	0.0116578
671.499	0.0115446
671.578	0.0114140
671.656	0.0112465
671.734	0.0111566
671.812	0.0112511
671.890	0.0112855
671.968	0.0114291
672.046	0.0116689
672.124	0.0117663
672.203	0.0118537
672.281	0.0124234
672.359	0.0124966
672.437	0.0127925
672.515	0.0130290
672.593	0.0132363
672.671	0.0134068
672.749	0.0135616
672.828	0.0137304
672.906	0.0139520
672.984	0.0139986
673.062	0.0141931
673.140	0.0143216
673.218	0.0143109
673.296	0.0143128
673.374	0.0144656
673.453	0.0145742
673.531	0.0145703
673.609	0.0147363
673.687	0.0146978
673.765	0.0147711
673.843	0.0149248
673.921	0.0148525
673.999	0.0147436
674.078	0.0149199
674.156	0.0150234
674.234	0.0150584
674.312	0.0152200
674.390	0.0152199
674.468	0.0151714
674.546	0.0150340
674.624	0.0151258
674.703	0.0152216
674.781	0.0152279
674.859	0.0152548
674.937	0.0152622
675.015	0.0153216
675.093	0.0151635
675.171	0.0150763
675.249	0.0151210
675.328	0.0150442
675.406	0.0148943
675.484	0.0148125
675.562	0.0147491
675.640	0.0145587
675.718	0.0143597
675.796	0.0142362
675.874	0.0142754
675.953	0.0139029
676.031	0.0137233
676.109	0.0135168
676.187	0.0133515
676.265	0.0130737
676.343	0.0128629
676.421	0.0126949
676.499	0.0124848
676.578	0.0122885
676.656	0.0120242
676.734	0.0118512
676.812	0.0116447
676.890	0.0115487
676.968	0.0112140
677.046	0.0110841
677.124	0.0112408
677.203	0.0111535
677.281	0.0113442
677.359	0.0112141
677.437	0.0111549
677.515	0.0112545
677.593	0.0113927
677.671	0.0115601
677.749	0.0115130
677.828	0.0117079
677.906	0.0119102
677.984	0.0121899
678.062	0.0124018
678.140	0.0125967
678.218	0.0128833
678.296	0.0131710
678.374	0.0134443
678.453	0.0136261
678.531	0.0140199
678.609	0.0144096
678.687	0.0146017
678.765	0.0148499
678.843	0.0152672
678.921	0.0154855
678.999	0.0156119
679.078	0.0159473
679.156	0.0162536
679.234	0.0162340
679.312	0.0164236
679.390	0.0164981
679.468	0.0165868
679.546	0.0165343
679.624	0.0165878
679.703	0.0165247
679.781	0.0162785
679.859	0.0161713
679.937	0.0160806
680.015	0.0160347
680.093	0.0159058
680.171	0.0154601
680.249	0.0152442
680.328	0.0151004
680.406	0.0150160
680.484	0.0145496
680.562	0.0144769
680.640	0.0142949
680.718	0.0139354
680.796	0.0138850
680.874	0.0137234
680.953	0.0134295
681.031	0.0131935
681.109	0.0130283
681.187	0.0129527
681.265	0.0126777
681.343	0.0125584
681.421	0.0124432
681.499	0.0122834
681.578	0.0120554
681.656	0.0118932
681.734	0.0115411
681.812	0.0114259
681.890	0.0114846
681.968	0.0113494
682.046	0.0110345
682.124	0.0112468
682.203	0.0111787
682.281	0.0111177
682.359	0.0111792
682.437	0.0112114
682.515	0.0114454
682.593	0.0115277
682.671	0.0117768
682.749	0.0120672
682.828	0.0121023
682.906	0.0123387
682.984	0.0125519
683.062	0.0128499
683.140	0.0129937
683.218	0.0131841
683.296	0.0134444
683.374	0.0135352
683.453	0.0137395
683.531	0.0143000
683.609	0.0143968
683.687	0.0146244
683.765	0.0150186
683.843	0.0150790
683.921	0.0151989
683.999	0.0153738
684.078	0.0155234
684.156	0.0155867
684.234	0.0156907
684.312	0.0159353
684.390	0.0157359
684.468	0.0157266
684.546	0.0158615
684.624	0.0157024
684.703	0.0157052
684.781	0.0159608
684.859	0.0158817
684.937	0.0158038
685.015	0.0157746
685.093	0.0156680
685.171	0.0156498
685.249	0.0154738
685.328	0.0153761
685.406	0.0152027
685.484	0.0150919
685.562	0.0148120
685.640	0.0145979
685.718	0.0144501
685.796	0.0144170
685.874	0.0141288
685.953	0.0139745
686.031	0.0138544
686.109	0.0139402
686.187	0.0137849
686.265	0.0136091
686.343	0.0134941
686.421	0.0135066
686.499	0.0134954
686.578	0.0134373
686.656	0.0133938
686.734	0.0134810
686.812	0.0132243
686.890	0.0132696
686.968	0.0133512
687.046	0.0131374
687.124	0.0132298
687.203	0.0131710
687.281	0.0131115
687.359	0.0130349
687.437	0.0129627
687.515	0.0129900
687.593	0.0128751
687.671	0.0129796
687.749	0.0129456
687.828	0.0127572
687.906	0.0128241
687.984	0.0128912
688.062	0.0130932
688.140	0.0130982
688.218	0.0130600
688.296	0.0132162
688.374	0.0132335
688.453	0.0133356
688.531	0.0135201
688.609	0.0135215
688.687	0.0136246
688.765	0.0138575
688.843	0.0138649
688.921	0.0140279
688.999	0.0140503
689.078	0.0140580
689.156	0.0141754
689.234	0.0141897
689.312	0.0143684
689.390	0.0144244
689.468	0.0144810
689.546	0.0144457
689.624	0.0145884
689.703	0.0145922
689.781	0.0147498
689.859	0.0147749
689.937	0.0146403
690.015	0.0146704
690.093	0.0147036
690.171	0.0146927
690.249	0.0146906
690.328	0.0144869
690.406	0.0145238
690.484	0.0144630
690.562	0.0145422
690.640	0.0144891
690.718	0.0144819
690.796	0.0145978
690.874	0.0145869
690.953	0.0144984
691.031	0.0146043
691.109	0.0145586
691.187	0.0144843
691.265	0.0145900
691.343	0.0144763
691.421	0.0143683
691.499	0.0142219
691.578	0.0142844
691.656	0.0140358
691.734	0.0140407
691.812	0.0140132
691.890	0.0140079
691.968	0.0139414
692.046	0.0137448
692.124	0.0137685
692.203	0.0138653
692.281	0.0138560
692.359	0.0137231
692.437	0.0137599
692.515	0.0136153
692.593	0.0136004
692.671	0.0135150
692.749	0.0135395
692.828	0.0133257
692.906	0.0133230
692.984	0.0133612
693.062	0.0132819
693.140	0.0132378
693.218	0.0133080
693.296	0.0132358
693.374	0.0131994
693.453	0.0132420
693.531	0.0132391
693.609	0.0133459
693.687	0.0132778
693.765	0.0134093
693.843	0.0135055
693.921	0.0134731
693.999	0.0134473
694.078	0.0135262
694.156	0.0136555
694.234	0.0135173
694.312	0.0137748
694.390	0.0135439
694.468	0.0136662
694.546	0.0137369
694.624	0.0138560
694.703	0.0137741
694.781	0.0137908
694.859	0.0136446
694.937	0.0137025
695.015	0.0137428
695.093	0.0137177
695.171	0.0137911
695.249	0.0138335
695.328	0.0137585
695.406	0.0138206
695.484	0.0138855
695.562	0.0138525
695.640	0.0138118
695.718	0.0138201
695.796	0.0137838
695.874	0.0137782
695.953	0.0137317
696.031	0.0137765
696.109	0.0139362
696.187	0.0140436
696.265	0.0138615
696.343	0.0139245
696.421	0.0139143
696.499	0.0140237
696.578	0.0138951
696.656	0.0142459
696.734	0.0142223
696.812	0.0140935
696.890	0.0141671
696.968	0.0142595
697.046	0.0142709
697.124	0.0143092
697.203	0.0143837
697.281	0.0144463
697.359	0.0145319
697.437	0.0145915
697.515	0.0145806
697.593	0.0145714
697.671	0.0146792
697.749	0.0146016
697.828	0.0144936
697.906	0.0145410
697.984	0.0144985
698.062	0.0144910
698.140	0.0145251
698.218	0.0144942
698.296	0.0145258
698.374	0.0141601
698.453	0.0141942
698.531	0.0141537
698.609	0.0140857
698.687	0.0139732
698.765	0.0137511
698.843	0.0136156
698.921	0.0135818
698.999	0.0135422
699.078	0.0131938
699.156	0.0130805
699.234	0.0131785
699.312	0.0129044
699.390	0.0126488
699.468	0.0124892
699.546	0.0124680
699.624	0.0124086
699.703	0.0122638
699.781	0.0122489
699.859	0.0120981
699.937	0.0121493
700.015	0.0121255
700.093	0.0121930
700.171	0.0124586
700.249	0.0123616
700.328	0.0125021
700.406	0.0125351
700.484	0.0127706
700.562	0.0128444
700.640	0.0130739
700.718	0.0130575
700.796	0.0134178
700.874	0.0135258
700.953	0.0135837
701.031	0.0137668
701.109	0.0139038
701.187	0.0139493
701.265	0.0139615
701.343	0.0142577
701.421	0.0144370
701.499	0.0144600
701.578	0.0146796
701.656	0.0147551
701.734	0.0146384
701.812	0.0147314
701.890	0.0148402
701.968	0.0149225
702.046	0.0150591
702.124	0.0149763
702.203	0.0150535
702.281	0.0149232
702.359	0.0148241
702.437	0.0148591
702.515	0.0147570
702.593	0.0147584
702.671	0.0146875
702.749	0.0146774
702.828	0.0146136
702.906	0.0143813
702.984	0.0142560
703.062	0.0141789
703.140	0.0141348
703.218	0.0140573
703.296	0.0139226
703.374	0.0138435
703.453	0.0137123
703.531	0.0134600
703.609	0.0134821
703.687	0.0134041
703.765	0.0130643
703.843	0.0131223
703.921	0.0130602
703.999	0.0128794
704.078	0.0128909
704.156	0.0129743
704.234	0.0129372
704.312	0.0129605
704.390	0.0129597
704.468	0.0130495
704.546	0.0130296
704.624	0.0130871
704.703	0.0131945
704.781	0.0132066
704.859	0.0133510
704.937	0.0133524
705.015	0.0133904
705.093	0.0134016
705.171	0.0134963
705.249	0.0133802
705.328	0.0135972
705.406	0.0136551
705.484	0.0134402
705.562	0.0135363
705.640	0.0135536
705.718	0.0137678
705.796	0.0137875
705.874	0.0138206
705.953	0.0137317
706.031	0.0138338
706.109	0.0139311
706.187	0.0139942
706.265	0.0140629
706.343	0.0141454
706.421	0.0143629
706.499	0.0143918
706.578	0.0144917
706.656	0.0145428
706.734	0.0146641
706.812	0.0147128
706.890	0.0145351
706.968	0.0147115
707.046	0.0146700
707.124	0.0145145
707.203	0.0143708
707.281	0.0143410
707.359	0.0143117
707.437	0.0141348
707.515	0.0140472
707.593	0.0139770
707.671	0.0138690
707.749	0.0138219
707.828	0.0138243
707.906	0.0135750
707.984	0.0134938
708.062	0.0134592
708.140	0.0134756
708.218	0.0134354
708.296	0.0135519
708.374	0.0133422
708.453	0.0132257
708.531	0.0132868
708.609	0.0132947
708.687	0.0133971
708.765	0.0133700
708.843	0.0133301
708.921	0.0132710
708.999	0.0134810
709.078	0.0135974
709.156	0.0133923
709.234	0.0134595
709.312	0.0135222
709.390	0.0137278
709.468	0.0139074
709.546	0.0140176
709.624	0.0139634
709.703	0.0141515
709.781	0.0142151
709.859	0.0143223
709.937	0.0143909
710.015	0.0143037
710.093	0.0143812
710.171	0.0142818
710.249	0.0143445
710.328	0.0143405
710.406	0.0144108
710.484	0.0142413
710.562	0.0142081
710.640	0.0140444
710.718	0.0141333
710.796	0.0140123
710.874	0.0140321
710.953	0.0138647
711.031	0.0138625
711.109	0.0138522
711.187	0.0138162
711.265	0.0137302
711.343	0.0137382
711.421	0.0137559
711.499	0.0136021
711.578	0.0138017
711.656	0.0137793
711.734	0.0137232
711.812	0.0135107
711.890	0.0137560
711.968	0.0137610
712.046	0.0136815
712.124	0.0137043
712.203	0.0137461
712.281	0.0137963
712.359	0.0138377
712.437	0.0137640
712.515	0.0139756
712.593	0.0139242
712.671	0.0140726
712.749	0.0140357
712.828	0.0139703
712.906	0.0141725
712.984	0.0141146
713.062	0.0142228
713.140	0.0140251
713.218	0.0140263
713.296	0.0140932
713.374	0.0140895
713.453	0.0141301
713.531	0.0140732
713.609	0.0139124
713.687	0.0139035
713.765	0.0138502
713.843	0.0138580
713.921	0.0137583
713.999	0.0138319
714.078	0.0136739
714.156	0.0136826
714.234	0.0136833
714.312	0.0134862
714.390	0.0135605
714.468	0.0135218
714.546	0.0134057
714.624	0.0134874
714.703	0.0134634
714.781	0.0134636
714.859	0.0133787
714.937	0.0134466
715.015	0.0134945
715.093	0.0133598
715.171	0.0135591
715.249	0.0134454
715.328	0.0133230
715.406	0.0134879
715.484	0.0135574
715.562	0.0134250
715.640	0.0135892
715.718	0.0135806
715.796	0.0135665
715.874	0.0135710
715.953	0.0136657
716.031	0.0137955
716.109	0.0139201
716.187	0.0138708
716.265	0.0140005
716.343	0.0141141
716.421	0.0141882
716.499	0.0141428
716.578	0.0143802
716.656	0.0143888
716.734	0.0144038
716.812	0.0144535
716.890	0.0143972
716.968	0.0144617
717.046	0.0143239
717.124	0.0142458
717.203	0.0143269
717.281	0.0142690
717.359	0.0142578
717.437	0.0142156
717.515	0.0140936
717.593	0.0140520
717.671	0.0140835
717.749	0.0140145
717.828	0.0140604
717.906	0.0140254
717.984	0.0138915
718.062	0.0139631
718.140	0.0137712
718.218	0.0137596
718.296	0.0137362
718.374	0.0135674
718.453	0.0135841
718.531	0.0136388
718.609	0.0134287
718.687	0.0135130
718.765	0.0132720
718.843	0.0133389
718.921	0.0134415
718.999	0.0136069
719.078	0.0133530
719.156	0.0132649
719.234	0.0134252
719.312	0.0135151
719.390	0.0134368
719.468	0.0135363
719.546	0.0136211
719.624	0.0134515
719.703	0.0135746
719.781	0.0137545
719.859	0.0135766
719.937	0.0137991
720.015	0.0137318
720.093	0.0137291
720.171	0.0136881
720.249	0.0137880
720.328	0.0137035
720.406	0.0137077
720.484	0.0136709
720.562	0.0136362
720.640	0.0136279
720.718	0.0135761
720.796	0.0134922
720.874	0.0135848
720.953	0.0134142
721.031	0.0135396
721.109	0.0135007
721.187	0.0135677
721.265	0.0134415
721.343	0.0135712
721.421	0.0136088
721.499	0.0135140
721.578	0.0135838
721.656	0.0135065
721.734	0.0136244
721.812	0.0137761
721.890	0.0137383
721.968	0.0138988
722.046	0.0139667
722.124	0.0139202
722.203	0.0140283
722.281	0.0140256
722.359	0.0139777
722.437	0.0140593
722.515	0.0140386
722.593	0.0140879
722.671	0.0140217
722.749	0.0141286
722.828	0.0142506
722.906	0.0139678
722.984	0.0140009
723.062	0.0141639
723.140	0.0141937
723.218	0.0141180
723.296	0.0140638
723.374	0.0140582
723.453	0.0140788
723.531	0.0141744
723.609	0.0141743
723.687	0.0141357
723.765	0.0142691
723.843	0.0139340
723.921	0.0140770
723.999	0.0140846
724.078	0.0139400
724.156	0.0141186
724.234	0.0140374
724.312	0.0139218
724.390	0.0138760
724.468	0.0138333
724.546	0.0137404
724.624	0.0137827
724.703	0.0137811
724.781	0.0135702
724.859	0.0135351
724.937	0.0138445
725.015	0.0134553
725.093	0.0134583
725.171	0.0135680
725.249	0.0136057
725.328	0.0135726
725.406	0.0135402
725.484	0.0135197
725.562	0.0135604
725.640	0.0136687
725.718	0.0134789
725.796	0.0134840
725.874	0.0136549
725.953	0.0135896
726.031	0.0136008
726.109	0.0136147
726.187	0.0135877
726.265	0.0136108
726.343	0.0134563
726.421	0.0133928
726.499	0.0135901
726.578	0.0136648
726.656	0.0137359
726.734	0.0137346
726.812	0.0137317
726.890	0.0137441
726.968	0.0139737
727.046	0.0138960
727.124	0.0140493
727.203	0.0140228
727.281	0.0141369
727.359	0.0140887
727.437	0.0139561
727.515	0.0138541
727.593	0.0139318
727.671	0.0139709
727.749	0.0139173
727.828	0.0137246
727.906	0.0137589
727.984	0.0136858
728.062	0.0135699
728.140	0.0136787
728.218	0.0136575
728.296	0.0136958
728.374	0.0138258
728.453	0.0136663
728.531	0.0137511
728.609	0.0136439
728.687	0.0137498
728.765	0.0138440
728.843	0.0139210
728.921	0.0139238
728.999	0.0140095
729.078	0.0139458
729.156	0.0138396
729.234	0.0138122
729.312	0.0140851
729.390	0.0138792
729.468	0.0140322
729.546	0.0140490
729.624	0.0140104
729.703	0.0140295
729.781	0.0141628
729.859	0.0141608
729.937	0.0140144
730.015	0.0139269
730.093	0.0140820
730.171	0.0140322
730.249	0.0140430
730.328	0.0141595
730.406	0.0139392
730.484	0.0140578
730.562	0.0140101
730.640	0.0140163
730.718	0.0140788
730.796	0.0139569
730.874	0.0137862
730.953	0.0139420
731.031	0.0138805
731.109	0.0138932
731.187	0.0139995
731.265	0.0139445
731.343	0.0139295
731.421	0.0138084
731.499	0.0138842
731.578	0.0139146
731.656	0.0138187
731.734	0.0137712
731.812	0.0137406
731.890	0.0138051
731.968	0.0138517
732.046	0.0138197
732.124	0.0136255
732.203	0.0138590
732.281	0.0136845
732.359	0.0136948
732.437	0.0136952
732.515	0.0135909
732.593	0.0136517
732.671	0.0136919
732.749	0.0136672
732.828	0.0134897
732.906	0.0135583
732.984	0.0136311
733.062	0.0135676
733.140	0.0135300
733.218	0.0135292
733.296	0.0137075
733.374	0.0135207
733.453	0.0136055
733.531	0.0136037
733.609	0.0135939
733.687	0.0135699
733.765	0.0135376
733.843	0.0135377
733.921	0.0135940
733.999	0.0135497
734.078	0.0134859
734.156	0.0135737
734.234	0.0135860
734.312	0.0134940
734.390	0.0137663
734.468	0.0136393
734.546	0.0137955
734.624	0.0140342
734.703	0.0138491
734.781	0.0138012
734.859	0.0140781
734.937	0.0139996
735.015	0.0140922
735.093	0.0141074
735.171	0.0142107
735.249	0.0141287
735.328	0.0143238
735.406	0.0143798
735.484	0.0142533
735.562	0.0142011
735.640	0.0142102
735.718	0.0143245
735.796	0.0144105
735.874	0.0142618
735.953	0.0142061
736.031	0.0142289
736.109	0.0143044
736.187	0.0142661
736.265	0.0140852
736.343	0.0139713
736.421	0.0140303
736.499	0.0140423
736.578	0.0139157
736.656	0.0138310
736.734	0.0139582
736.812	0.0138520
736.890	0.0138136
736.968	0.0136906
737.046	0.0137357
737.124	0.0138222
737.203	0.0137582
737.281	0.0136409
737.359	0.0138284
737.437	0.0136308
737.515	0.0136673
737.593	0.0136490
737.671	0.0136153
737.749	0.0134216
737.828	0.0136052
737.906	0.0135634
737.984	0.0136404
738.062	0.0135689
738.140	0.0136389
738.218	0.0135641
738.296	0.0135411
738.374	0.0136561
738.453	0.0136539
738.531	0.0136797
738.609	0.0138174
738.687	0.0136337
738.765	0.0138203
738.843	0.0139651
738.921	0.0136112
738.999	0.0137751
739.078	0.0136991
739.156	0.0137466
739.234	0.0137892
739.312	0.0136518
739.390	0.0136143
739.468	0.0135554
739.546	0.0137727
739.624	0.0136819
739.703	0.0136806
739.781	0.0137058
739.859	0.0134920
739.937	0.0135744
740.015	0.0135628
740.093	0.0135921
740.171	0.0135384
740.249	0.0136967
740.328	0.0136474
740.406	0.0136664
740.484	0.0137554
740.562	0.0139338
740.640	0.0137945
740.718	0.0136205
740.796	0.0138369
740.874	0.0137395
740.953	0.0137761
741.031	0.0136916
741.109	0.0137643
741.187	0.0137275
741.265	0.0138668
741.343	0.0137554
741.421	0.0137904
741.499	0.0137930
741.578	0.0138143
741.656	0.0138659
741.734	0.0139082
741.812	0.0139870
741.890	0.0138915
741.968	0.0139867
742.046	0.0140757
742.124	0.0142055
742.203	0.0141772
742.281	0.0141953
742.359	0.0140380
742.437	0.0140635
742.515	0.0142083
742.593	0.0141821
742.671	0.0141680
742.749	0.0141376
742.828	0.0140237
742.906	0.0139208
742.984	0.0138949
743.062	0.0139776
743.140	0.0139858
743.218	0.0138585
743.296	0.0138982
743.374	0.0138213
743.453	0.0137357
743.531	0.0139245
743.609	0.0138705
743.687	0.0137143
743.765	0.0136487
743.843	0.0137841
743.921	0.0139409
743.999	0.0138087
744.078	0.0138608
744.156	0.0137575
744.234	0.0137434
744.312	0.0136868
744.390	0.0137861
744.468	0.0137231
744.546	0.0137093
744.624	0.0137438
744.703	0.0137811
744.781	0.0136523
744.859	0.0139149
744.937	0.0138515
745.015	0.0137554
745.093	0.0139146
745.171	0.0138919
745.249	0.0137907
745.328	0.0137518
745.406	0.0137751
745.484	0.0136067
745.562	0.0136735
745.640	0.0136911
745.718	0.0136073
745.796	0.0135439
745.874	0.0135082
745.953	0.0135043
746.031	0.0134263
746.109	0.0133989
746.187	0.0135909
746.265	0.0135052
746.343	0.0135194
746.421	0.0135722
746.499	0.0135369
746.578	0.0136343
746.656	0.0138409
746.734	0.0138068
746.812	0.0137459
746.890	0.0137758
746.968	0.0138411
747.046	0.0139648
747.124	0.0140411
747.203	0.0140348
747.281	0.0140879
747.359	0.0141228
747.437	0.0141010
747.515	0.0141827
747.593	0.0141144
747.671	0.0141286
747.749	0.0143784
747.828	0.0141351
747.906	0.0142079
747.984	0.0142392
748.062	0.0141179
748.140	0.0142487
748.218	0.0140572
748.296	0.0137830
748.374	0.0140810
748.453	0.0140194
748.531	0.0139045
748.609	0.0138544
748.687	0.0139206
748.765	0.0138506
748.843	0.0137735
748.921	0.0137750
748.999	0.0136576
749.078	0.0135226
749.156	0.0135318
749.234	0.0136627
749.312	0.0135339
749.390	0.0134177
749.468	0.0134005
749.546	0.0135042
749.624	0.0135336
749.703	0.0135094
749.781	0.0135266
749.859	0.0136080
749.937	0.0136896
750.015	0.0138208
750.093	0.0139918
750.171	0.0137158
750.249	0.0138875
750.328	0.0138887
750.406	0.0138252
750.484	0.0137593
750.562	0.0138077
750.640	0.0138557
750.718	0.0138607
750.796	0.0137899
750.874	0.0138030
750.953	0.0138599
751.031	0.0138407
751.109	0.0138214
751.187	0.0137286
751.265	0.0138634
751.343	0.0138363
751.421	0.0136523
751.499	0.0138157
751.578	0.0139251
751.656	0.0138519
751.734	0.0138832
751.812	0.0137877
751.890	0.0136898
751.968	0.0136074
752.046	0.0138869
752.124	0.0138408
752.203	0.0136733
752.281	0.0136903
752.359	0.0137164
752.437	0.0138539
752.515	0.0138086
752.593	0.0137643
752.671	0.0138841
752.749	0.0137852
752.828	0.0138932
752.906	0.0139471
752.984	0.0140153
753.062	0.0140082
753.140	0.0139161
753.218	0.0141234
753.296	0.0140823
753.374	0.0140260
753.453	0.0140146
753.531	0.0141158
753.609	0.0141062
753.687	0.0140134
753.765	0.0141619
753.843	0.0139972
753.921	0.0141603
753.999	0.0141005
754.078	0.0139013
754.156	0.0140468
754.234	0.0139630
754.312	0.0140969
754.390	0.0140440
754.468	0.0139134
754.546	0.0137742
754.624	0.0138000
754.703	0.0138775
754.781	0.0138734
754.859	0.0137655
754.937	0.0136441
755.015	0.0136490
755.093	0.0137016
755.171	0.0136768
755.249	0.0135717
755.328	0.0138580
755.406	0.0136977
755.484	0.0136448
755.562	0.0136307
755.640	0.0137305
755.718	0.0139452
755.796	0.0137897
755.874	0.0137934
755.953	0.0138928
756.031	0.0138633
756.109	0.0139042
756.187	0.0137543
756.265	0.0139691
756.343	0.0139647
756.421	0.0139843
756.499	0.0139191
756.578	0.0139355
756.656	0.0138570
756.734	0.0140131
756.812	0.0138943
756.890	0.0139901
756.968	0.0140178
757.046	0.0138882
757.124	0.0138424
757.203	0.0138278
757.281	0.0138579
757.359	0.0139061
757.437	0.0138212
757.515	0.0139677
757.593	0.0139022
757.671	0.0137703
757.749	0.0137638
757.828	0.0138606
757.906	0.0137185
757.984	0.0137647
758.062	0.0137750
758.140	0.0138541
758.218	0.0137966
758.296	0.0140048
758.374	0.0138377
758.453	0.0137310
758.531	0.0138076
758.609	0.0138042
758.687	0.0137167
758.765	0.0135792
758.843	0.0136943
758.921	0.0136926
758.999	0.0138111
759.078	0.0137429
759.156	0.0137918
759.234	0.0137410
759.312	0.0136288
759.390	0.0138966
759.468	0.0137642
759.546	0.0137997
759.624	0.0138999
759.703	0.0137212
759.781	0.0138221
759.859	0.0138492
759.937	0.0137415
760.015	0.0136494
760.093	0.0137474
760.171	0.0138338
760.249	0.0136823
760.328	0.0137841
760.406	0.0138019
760.484	0.0136838
760.562	0.0137609
760.640	0.0137174
760.718	0.0138784
760.796	0.0137482
760.874	0.0137504
760.953	0.0137860
761.031	0.0138436
761.109	0.0138524
761.187	0.0140140
761.265	0.0140960
761.343	0.0139422
761.421	0.0139626
761.499	0.0139806
761.578	0.0140393
761.656	0.0141038
761.734	0.0140530
761.812	0.0141187
761.890	0.0140294
761.968	0.0140192
762.046	0.0140360
762.124	0.0139179
762.203	0.0139355
762.281	0.0139568
762.359	0.0139207
762.437	0.0138013
762.515	0.0137374
762.593	0.0137474
762.671	0.0137697
762.749	0.0136634
762.828	0.0136885
762.906	0.0135997
762.984	0.0136390
763.062	0.0136776
763.140	0.0137673
763.218	0.0135555
763.296	0.0135893
763.374	0.0136919
763.453	0.0136270
763.531	0.0137321
763.609	0.0134946
763.687	0.0135087
763.765	0.0136266
763.843	0.0136105
763.921	0.0135585
763.999	0.0136305
764.078	0.0135828
764.156	0.0136324
764.234	0.0136550
764.312	0.0137134
764.390	0.0137366
764.468	0.0137654
764.546	0.0138454
764.624	0.0138017
764.703	0.0139246
764.781	0.0139096
764.859	0.0139752
764.937	0.0138919
765.015	0.0139958
765.093	0.0140673
765.171	0.0140913
765.249	0.0140283
765.328	0.0140939
765.406	0.0141041
765.484	0.0142410
765.562	0.0142437
765.640	0.0141743
765.718	0.0141479
765.796	0.0143974
765.874	0.0142497
765.953	0.0141311
766.031	0.0140868
766.109	0.0140340
766.187	0.0140923
766.265	0.0141952
766.343	0.0140629
766.421	0.0139925
766.499	0.0139758
766.578	0.0139474
766.656	0.0139697
766.734	0.0140465
766.812	0.0138612
766.890	0.0138205
766.968	0.0139319
767.046	0.0137866
767.124	0.0138486
767.203	0.0139869
767.281	0.0138335
767.359	0.0137898
767.437	0.0138609
767.515	0.0138599
767.593	0.0137777
767.671	0.0139745
767.749	0.0138900
767.828	0.0138089
767.906	0.0139616
767.984	0.0140370
768.062	0.0138294
768.140	0.0137910
768.218	0.0139124
768.296	0.0138499
768.374	0.0138451
768.453	0.0137598
768.531	0.0137566
768.609	0.0138196
768.687	0.0136835
768.765	0.0137804
768.843	0.0136504
768.921	0.0136674
768.999	0.0137813
769.078	0.0137215
769.156	0.0136825
769.234	0.0137109
769.312	0.0137564
769.390	0.0137048
769.468	0.0136652
769.546	0.0136339
769.624	0.0136925
769.703	0.0137256
769.781	0.0136829
769.859	0.0138004
769.937	0.0137794
770.015	0.0137083
770.093	0.0138990
770.171	0.0137633
770.249	0.0137788
770.328	0.0136626
770.406	0.0137341
770.484	0.0136456
770.562	0.0137484
770.640	0.0137185
770.718	0.0136732
770.796	0.0138464
770.874	0.0137923
770.953	0.0137236
771.031	0.0139420
771.109	0.0139784
771.187	0.0139709
771.265	0.0140098
771.343	0.0139687
771.421	0.0140257
771.499	0.0141837
771.578	0.0139901
771.656	0.0140959
771.734	0.0140975
771.812	0.0141351
771.890	0.0140593
771.968	0.0142233
772.046	0.0141901
772.124	0.0141867
772.203	0.0141405
772.281	0.0139993
772.359	0.0140849
772.437	0.0140361
772.515	0.0139501
772.593	0.0141497
772.671	0.0140874
772.749	0.0140046
772.828	0.0139733
772.906	0.0138924
772.984	0.0140578
773.062	0.0138585
773.140	0.0140247
773.218	0.0139785
773.296	0.0138235
773.374	0.0139149
773.453	0.0139143
773.531	0.0137420
773.609	0.0138054
773.687	0.0136576
773.765	0.0137770
773.843	0.0136935
773.921	0.0135773
773.999	0.0135999
774.078	0.0136775
774.156	0.0135732
774.234	0.0134444
774.312	0.0134857
774.390	0.0135793
774.468	0.0134156
774.546	0.0135979
774.624	0.0135830
774.703	0.0135161
774.781	0.0135262
774.859	0.0134942
774.937	0.0135732
775.015	0.0135619
775.093	0.0135702
775.171	0.0136753
775.249	0.0136116
775.328	0.0139315
775.406	0.0136759
775.484	0.0138058
775.562	0.0137689
775.640	0.0138186
775.718	0.0138376
775.796	0.0136995
775.874	0.0139473
775.953	0.0139500
776.031	0.0138168
776.109	0.0139603
776.187	0.0140093
776.265	0.0140472
776.343	0.0140304
776.421	0.0140118
776.499	0.0140166
776.578	0.0140067
776.656	0.0140103
776.734	0.0140205
776.812	0.0139004
776.890	0.0140689
776.968	0.0141742
777.046	0.0140292
777.124	0.0139895
777.203	0.0142004
777.281	0.0139951
777.359	0.0139756
777.437	0.0140743
777.515	0.0140391
777.593	0.0141782
777.671	0.0141251
777.749	0.0140853
777.828	0.0140270
777.906	0.0141730
777.984	0.0140745
778.062	0.0142254
778.140	0.0142430
778.218	0.0141021
778.296	0.0140798
778.374	0.0141907
778.453	0.0141458
778.531	0.0140096
778.609	0.0138600
778.687	0.0138810
778.765	0.0139062
778.843	0.0139021
778.921	0.0136693
778.999	0.0136454
779.078	0.0135437
779.156	0.0136147
779.234	0.0135371
779.312	0.0135485
779.390	0.0135582
779.468	0.0135719
779.546	0.0136459
779.624	0.0135685
779.703	0.0137112
779.781	0.0137166
779.859	0.0137594
779.937	0.0137422
780.015	0.0138522
780.093	0.0138631
780.171	0.0140508
780.249	0.0140116
780.328	0.0139576
780.406	0.0140495
780.484	0.0141441
780.562	0.0138995
780.640	0.0139006
780.718	0.0138136
780.796	0.0137670
780.874	0.0138824
780.953	0.0137383
781.031	0.0138325
781.109	0.0138074
781.187	0.0139243
781.265	0.0139839
781.343	0.0139397
781.421	0.0139743
781.499	0.0139244
781.578	0.0139919
781.656	0.0140927
781.734	0.0141257
781.812	0.0140341
781.890	0.0139841
781.968	0.0141395
782.046	0.0140632
782.124	0.0139684
782.203	0.0138952
782.281	0.0139727
782.359	0.0139954
782.437	0.0138593
782.515	0.0137724
782.593	0.0139740
782.671	0.0138605
782.749	0.0139555
782.828	0.0139226
782.906	0.0139582
782.984	0.0139810
783.062	0.0139097
783.140	0.0140261
783.218	0.0139358
783.296	0.0138661
783.374	0.0138896
783.453	0.0140237
783.531	0.0138934
783.609	0.0139321
783.687	0.0139421
783.765	0.0137563
783.843	0.0139205
783.921	0.0137757
783.999	0.0137990
784.078	0.0138422
784.156	0.0136556
784.234	0.0135941
784.312	0.0135713
784.390	0.0134773
784.468	0.0134195
784.546	0.0133702
784.624	0.0134634
784.703	0.0133033
784.781	0.0133306
784.859	0.0134710
784.937	0.0134270
785.015	0.0134641
785.093	0.0134955
785.171	0.0134259
785.249	0.0134010
785.328	0.0133846
785.406	0.0134661
785.484	0.0134603
785.562	0.0135040
785.640	0.0134837
785.718	0.0134035
785.796	0.0135416
785.874	0.0135977
785.953	0.0135522
786.031	0.0135049
786.109	0.0135101
786.187	0.0137578
786.265	0.0136737
786.343	0.0138482
786.421	0.0136977
786.499	0.0138081
786.578	0.0140168
786.656	0.0139692
786.734	0.0138824
786.812	0.0138560
786.890	0.0139359
786.968	0.0140434
787.046	0.0138362
787.124	0.0136989
787.203	0.0137756
787.281	0.0137489
787.359	0.0136929
787.437	0.0137170
787.515	0.0138046
787.593	0.0136650
787.671	0.0136813
787.749	0.0137054
787.828	0.0137431
787.906	0.0139002
787.984	0.0138912
788.062	0.0139095
788.140	0.0139529
788.218	0.0138936
788.296	0.0139545
788.374	0.0139862
788.453	0.0139836
788.531	0.0139641
788.609	0.0140015
788.687	0.0140359
788.765	0.0138863
788.843	0.0139691
788.921	0.0139809
788.999	0.0138953
789.078	0.0139636
789.156	0.0139520
789.234	0.0138239
789.312	0.0137965
789.390	0.0138046
789.468	0.0136498
789.546	0.0136824
789.624	0.0138172
789.703	0.0137447
789.781	0.0137428
789.859	0.0138332
789.937	0.0136921
790.015	0.0137954
790.093	0.0136529
790.171	0.0136308
790.249	0.0136440
790.328	0.0136989
790.406	0.0138281
790.484	0.0138267
790.562	0.0137163
790.640	0.0137627
790.718	0.0139395
790.796	0.0137516
790.874	0.0138411
790.953	0.0139677
791.031	0.0137936
791.109	0.0140459
791.187	0.0140831
791.265	0.0139933
791.343	0.0141124
791.421	0.0140313
791.499	0.0139730
791.578	0.0139091
791.656	0.0140379
791.734	0.0140010
791.812	0.0140414
791.890	0.0139986
791.968	0.0139227
792.046	0.0138113
792.124	0.0138551
792.203	0.0137847
792.281	0.0139781
792.359	0.0138544
792.437	0.0138027
792.515	0.0138831
792.593	0.0138519
792.671	0.0137945
792.749	0.0138877
792.828	0.0137868
792.906	0.0140604
792.984	0.0140251
793.062	0.0140805
793.140	0.0140056
793.218	0.0140440
793.296	0.0140082
793.374	0.0140116
793.453	0.0142162
793.531	0.0141675
793.609	0.0141217
793.687	0.0141689
793.765	0.0141618
793.843	0.0141910
793.921	0.0142558
793.999	0.0143037
794.078	0.0143018
794.156	0.0143336
794.234	0.0142759
794.312	0.0141550
794.390	0.0141821
794.468	0.0141173
794.546	0.0140251
794.624	0.0141090
794.703	0.0138969
794.781	0.0139128
794.859	0.0139846
794.937	0.0139215
795.015	0.0138850
795.093	0.0137620
795.171	0.0137514
795.249	0.0138498
795.328	0.0138044
795.406	0.0137756
795.484	0.0137987
795.562	0.0137302
795.640	0.0137907
795.718	0.0138668
795.796	0.0138477
795.874	0.0137611
795.953	0.0138102
796.031	0.0138282
796.109	0.0138352
796.187	0.0138155
796.265	0.0137886
796.343	0.0136831
796.421	0.0138467
796.499	0.0137627
796.578	0.0136506
796.656	0.0138375
796.734	0.0136352
796.812	0.0138062
796.890	0.0137878
796.968	0.0136517
797.046	0.0138197
797.124	0.0139168
797.203	0.0137701
797.281	0.0137683
797.359	0.0138898
797.437	0.0137954
797.515	0.0136595
797.593	0.0137186
797.671	0.0137048
797.749	0.0137606
797.828	0.0137309
797.906	0.0137350
797.984	0.0134653
798.062	0.0137012
798.140	0.0137650
798.218	0.0137155
798.296	0.0136246
798.374	0.0138123
798.453	0.0140066
798.531	0.0138004
798.609	0.0137907
798.687	0.0139047
798.765	0.0138708
798.843	0.0140818
798.921	0.0139011
798.999	0.0140851
799.078	0.0139781
799.156	0.0140369
799.234	0.0139577
799.312	0.0141617
799.390	0.0141128
799.468	0.0140581
799.546	0.0141949
799.624	0.0141115
799.703	0.0141061
799.781	0.0141734
799.859	0.0140971
799.937	0.0140690
800.015	0.0140725
800.093	0.0141165
800.171	0.0140424
800.249	0.0140350
800.328	0.0140880
800.406	0.0139389
800.484	0.0137195
800.562	0.0138606
800.640	0.0137643
800.718	0.0135757
800.796	0.0136182
800.874	0.0135995
800.953	0.0134929
801.031	0.0134800
801.109	0.0135222
801.187	0.0135455
801.265	0.0134695
801.343	0.0135619
801.421	0.0136203
801.499	0.0134706
801.578	0.0136018
801.656	0.0136163
801.734	0.0137711
801.812	0.0137724
801.890	0.0140003
801.968	0.0140578
802.046	0.0141011
802.124	0.0140351
802.203	0.0138595
802.281	0.0140448
802.359	0.0141181
802.437	0.0139889
802.515	0.0138990
802.593	0.0138550
802.671	0.0139399
802.749	0.0139267
802.828	0.0137320
802.906	0.0136176
802.984	0.0136098
803.062	0.0135763
803.140	0.0135908
803.218	0.0136627
803.296	0.0135782
803.374	0.0134893
803.453	0.0134817
803.531	0.0135741
803.609	0.0135870
803.687	0.0135056
803.765	0.0136281
803.843	0.0136612
803.921	0.0135180
803.999	0.0135480
804.078	0.0134992
804.156	0.0135242
804.234	0.0134506
804.312	0.0135870
804.390	0.0136210
804.468	0.0135492
804.546	0.0134481
804.624	0.0135302
804.703	0.0136906
804.781	0.0136404
804.859	0.0136430
804.937	0.0136518
805.015	0.0137737
805.093	0.0138710
805.171	0.0139690
805.249	0.0137852
805.328	0.0138367
805.406	0.0139822
805.484	0.0140226
805.562	0.0140654
805.640	0.0139790
805.718	0.0141033
805.796	0.0141133
805.874	0.0140765
805.953	0.0141933
806.031	0.0141119
806.109	0.0139986
806.187	0.0140733
806.265	0.0138696
806.343	0.0138578
806.421	0.0138454
806.499	0.0136556
806.578	0.0137923
806.656	0.0137555
806.734	0.0137800
806.812	0.0138260
806.890	0.0137925
806.968	0.0137350
807.046	0.0136288
807.124	0.0136818
807.203	0.0138038
807.281	0.0139032
807.359	0.0138232
807.437	0.0138969
807.515	0.0137449
807.593	0.0136942
807.671	0.0137399
807.749	0.0136744
807.828	0.0136480
807.906	0.0136322
807.984	0.0138523
808.062	0.0136845
808.140	0.0136072
808.218	0.0134589
808.296	0.0135632
808.374	0.0135679
808.453	0.0137083
808.531	0.0136728
808.609	0.0136111
808.687	0.0137193
808.765	0.0137020
808.843	0.0137294
808.921	0.0136965
808.999	0.0137259
809.078	0.0137949
809.156	0.0137572
809.234	0.0137543
809.312	0.0137479
809.390	0.0137859
809.468	0.0138034
809.546	0.0138080
809.624	0.0136898
809.703	0.0138639
809.781	0.0138697
809.859	0.0138916
809.937	0.0139852
810.015	0.0138354
810.093	0.0139948
810.171	0.0140954
810.249	0.0139406
810.328	0.0139566
810.406	0.0139943
810.484	0.0140237
810.562	0.0140137
810.640	0.0140527
810.718	0.0139977
810.796	0.0141251
810.874	0.0140134
810.953	0.0140012
811.031	0.0139501
811.109	0.0139507
811.187	0.0139951
811.265	0.0139165
811.343	0.0139812
811.421	0.0139771
811.499	0.0138995
811.578	0.0138880
811.656	0.0136418
811.734	0.0135374
811.812	0.0135923
811.890	0.0136007
811.968	0.0135937
812.046	0.0136250
812.124	0.0135847
812.203	0.0135142
812.281	0.0135960
812.359	0.0136674
812.437	0.0137713
812.515	0.0136550
812.593	0.0138705
812.671	0.0137950
812.749	0.0139275
812.828	0.0139612
812.906	0.0139463
812.984	0.0139018
813.062	0.0140813
813.140	0.0142603
813.218	0.0141288
813.296	0.0140778
813.374	0.0141953
813.453	0.0140884
813.531	0.0141615
813.609	0.0138834
813.687	0.0139368
813.765	0.0140195
813.843	0.0139181
813.921	0.0138590
813.999	0.0138893
814.078	0.0138155
814.156	0.0138208
814.234	0.0136246
814.312	0.0136970
814.390	0.0134956
814.468	0.0134895
814.546	0.0135865
814.624	0.0135686
814.703	0.0136247
814.781	0.0134333
814.859	0.0135204
814.937	0.0135201
815.015	0.0135431
815.093	0.0135117
815.171	0.0135871
815.249	0.0134584
815.328	0.0134713
815.406	0.0134346
815.484	0.0134188
815.562	0.0134880
815.640	0.0135654
815.718	0.0136810
815.796	0.0135491
815.874	0.0136200
815.953	0.0135381
816.031	0.0136385
816.109	0.0136566
816.187	0.0137995
816.265	0.0139051
816.343	0.0138454
816.421	0.0138766
816.499	0.0138589
816.578	0.0141367
816.656	0.0141256
816.734	0.0140448
816.812	0.0140256
816.890	0.0140782
816.968	0.0140079
817.046	0.0141846
817.124	0.0141895
817.203	0.0141589
817.281	0.0140415
817.359	0.0140647
817.437	0.0141212
817.515	0.0140273
817.593	0.0139155
817.671	0.0138692
817.749	0.0139885
817.828	0.0139952
817.906	0.0138482
817.984	0.0137830
818.062	0.0139988
818.140	0.0139256
818.218	0.0138963
818.296	0.0137920
818.374	0.0138245
818.453	0.0138813
818.531	0.0137646
818.609	0.0139356
818.687	0.0138904
818.765	0.0137474
818.843	0.0137214
818.921	0.0137742
818.999	0.0138042
819.078	0.0138741
819.156	0.0137956
819.234	0.0137786
819.312	0.0139500
819.390	0.0138976
819.468	0.0138921
819.546	0.0139738
819.624	0.0139518
819.703	0.0139655
819.781	0.0140186
819.859	0.0139170
819.937	0.0138362
820.015	0.0139849
820.093	0.0141225
820.171	0.0138642
820.249	0.0138728
820.328	0.0137836
820.406	0.0139236
820.484	0.0139702
820.562	0.0138966
820.640	0.0138885
820.718	0.0137184
820.796	0.0138890
820.874	0.0139216
820.953	0.0138826
821.031	0.0138699
821.109	0.0138923
821.187	0.0138867
821.265	0.0138980
821.343	0.0139403
821.421	0.0139816
821.499	0.0140129
821.578	0.0139388
821.656	0.0139845
821.734	0.0139378
821.812	0.0139481
821.890	0.0139412
821.968	0.0139007
822.046	0.0138087
822.124	0.0138338
822.203	0.0139477
822.281	0.0137496
822.359	0.0137722
822.437	0.0135936
822.515	0.0136584
822.593	0.0137576
822.671	0.0136732
822.749	0.0136292
822.828	0.0136533
822.906	0.0136383
822.984	0.0136477
823.062	0.0137975
823.140	0.0137337
823.218	0.0137871
823.296	0.0138342
823.374	0.0138041
823.453	0.0137325
823.531	0.0137796
823.609	0.0138779
823.687	0.0138577
823.765	0.0138042
823.843	0.0138035
823.921	0.0138419
823.999	0.0139257
824.078	0.0138141
824.156	0.0137998
824.234	0.0137316
824.312	0.0138581
824.390	0.0138670
824.468	0.0138854
824.546	0.0137676
824.624	0.0136858
824.703	0.0140992
824.781	0.0138495
824.859	0.0138055
824.937	0.0137255
825.015	0.0136996
825.093	0.0137241
825.171	0.0136501
825.249	0.0136932
825.328	0.0137006
825.406	0.0136399
825.484	0.0136575
825.562	0.0135211
825.640	0.0135088
825.718	0.0135970
825.796	0.0137260
825.874	0.0136923
825.953	0.0136339
826.031	0.0136583
826.109	0.0136094
826.187	0.0138995
826.265	0.0138428
826.343	0.0137141
826.421	0.0138569
826.499	0.0139600
826.578	0.0138042
826.656	0.0138975
826.734	0.0138609
826.812	0.0141031
826.890	0.0138643
826.968	0.0139169
827.046	0.0137822
827.124	0.0138902
827.203	0.0137527
827.281	0.0137965
827.359	0.0138559
827.437	0.0139664
827.515	0.0138577
827.593	0.0137099
827.671	0.0135573
827.749	0.0136845
827.828	0.0139857
827.906	0.0138090
827.984	0.0138381
828.062	0.0136023
828.140	0.0137791
828.218	0.0136306
828.296	0.0136723
828.374	0.0136823
828.453	0.0138136
828.531	0.0136618
828.609	0.0135754
828.687	0.0136958
828.765	0.0136767
828.843	0.0136211
828.921	0.0136602
828.999	0.0138364
829.078	0.0136494
829.156	0.0138462
829.234	0.0137135
829.312	0.0136065
829.390	0.0137028
829.468	0.0139125
829.546	0.0137647
829.624	0.0136640
829.703	0.0137035
829.781	0.0137334
829.859	0.0138358
829.937	0.0137978
830.015	0.0137960
830.093	0.0139285
830.171	0.0138535
830.249	0.0138921
830.328	0.0138992
830.406	0.0137867
830.484	0.0139494
830.562	0.0139004
830.640	0.0137944
830.718	0.0137569
830.796	0.0138331
830.874	0.0138552
830.953	0.0137270
831.031	0.0138550
831.109	0.0138980
831.187	0.0138148
831.265	0.0138049
831.343	0.0138171
831.421	0.0137991
831.499	0.0138599
831.578	0.0139233
831.656	0.0139542
831.734	0.0139024
831.812	0.0139787
831.890	0.0140493
831.968	0.0139420
832.046	0.0138613
832.124	0.0139957
832.203	0.0140634
832.281	0.0141632
832.359	0.0138912
832.437	0.0140417
832.515	0.0141225
832.593	0.0139534
832.671	0.0140675
832.749	0.0141786
832.828	0.0140997
832.906	0.0142332
832.984	0.0139331
833.062	0.0140582
833.140	0.0140587
833.218	0.0140383
833.296	0.0138996
833.374	0.0139575
833.453	0.0140097
833.531	0.0138816
833.609	0.0139816
833.687	0.0138473
833.765	0.0139365
833.843	0.0138352
833.921	0.0137924
833.999	0.0137116
834.078	0.0139172
834.156	0.0140107
834.234	0.0138575
834.312	0.0137399
834.390	0.0138621
834.468	0.0138643
834.546	0.0137785
834.624	0.0138670
834.703	0.0138187
834.781	0.0138046
834.859	0.0137102
834.937	0.0136929
835.015	0.0138747
835.093	0.0139297
835.171	0.0138353
835.249	0.0138880
835.328	0.0139727
835.406	0.0138396
835.484	0.0139494
835.562	0.0140031
835.640	0.0139165
835.718	0.0139273
835.796	0.0140024
835.874	0.0137955
835.953	0.0140027
836.031	0.0138516
836.109	0.0138307
836.187	0.0137939
836.265	0.0137782
836.343	0.0138593
836.421	0.0136970
836.499	0.0137508
836.578	0.0136845
836.656	0.0136670
836.734	0.0137379
836.812	0.0137283
836.890	0.0136781
836.968	0.0138174
837.046	0.0136308
837.124	0.0137012
837.203	0.0137935
837.281	0.0137296
837.359	0.0136700
837.437	0.0137935
837.515	0.0136243
837.593	0.0136821
837.671	0.0136713
837.749	0.0136440
837.828	0.0135976
837.906	0.0137527
837.984	0.0136594
838.062	0.0134967
838.140	0.0135709
838.218	0.0135466
838.296	0.0134687
838.374	0.0134413
838.453	0.0135103
838.531	0.0136288
838.609	0.0135573
838.687	0.0135420
838.765	0.0136266
838.843	0.0136195
838.921	0.0137215
838.999	0.0136761
839.078	0.0138184
839.156	0.0138149
839.234	0.0137331
839.312	0.0138042
839.390	0.0137867
839.468	0.0139119
839.546	0.0139648
839.624	0.0138338
839.703	0.0139362
839.781	0.0138510
839.859	0.0138646
839.937	0.0139506
840.015	0.0139340
840.093	0.0137872
840.171	0.0137262
840.249	0.0136992
840.328	0.0137291
840.406	0.0137693
840.484	0.0137608
840.562	0.0137284
840.640	0.0137072
840.718	0.0135310
840.796	0.0136717
840.874	0.0136189
840.953	0.0133677
841.031	0.0135702
841.109	0.0135420
841.187	0.0135406
841.265	0.0136323
841.343	0.0135799
841.421	0.0135772
841.499	0.0135059
841.578	0.0135960
841.656	0.0137428
841.734	0.0136765
841.812	0.0136810
841.890	0.0138045
841.968	0.0137658
842.046	0.0137108
842.124	0.0138564
842.203	0.0137660
842.281	0.0139974
842.359	0.0137305
842.437	0.0138962
842.515	0.0138903
842.593	0.0139339
842.671	0.0139091
842.749	0.0139060
842.828	0.0137285
842.906	0.0138327
842.984	0.0139082
843.062	0.0137169
843.140	0.0136823
843.218	0.0138292
843.296	0.0136064
843.374	0.0136461
843.453	0.0137519
843.531	0.0137051
843.609	0.0137004
843.687	0.0137006
843.765	0.0138379
843.843	0.0137209
843.921	0.0137211
843.999	0.0137167
844.078	0.0135230
844.156	0.0136734
844.234	0.0137032
844.312	0.0137083
844.390	0.0138158
844.468	0.0137913
844.546	0.0136753
844.624	0.0138314
844.703	0.0137452
844.781	0.0139736
844.859	0.0140710
844.937	0.0139575
845.015	0.0140031
845.093	0.0140242
845.171	0.0141787
845.249	0.0139436
845.328	0.0139677
845.406	0.0141396
845.484	0.0140420
845.562	0.0139008
845.640	0.0139441
845.718	0.0139697
845.796	0.0140357
845.874	0.0139165
845.953	0.0138638
846.031	0.0139462
846.109	0.0137677
846.187	0.0138546
846.265	0.0138539
846.343	0.0138132
846.421	0.0139161
846.499	0.0139055
846.578	0.0138076
846.656	0.0139587
846.734	0.0136963
846.812	0.0138605
846.890	0.0137495
846.968	0.0137945
847.046	0.0138641
847.124	0.0137460
847.203	0.0137595
847.281	0.0136236
847.359	0.0135995
847.437	0.0136604
847.515	0.0137344
847.593	0.0137597
847.671	0.0137165
847.749	0.0136260
847.828	0.0137715
847.906	0.0136779
847.984	0.0136755
848.062	0.0137967
848.140	0.0136832
848.218	0.0137284
848.296	0.0136883
848.374	0.0136734
848.453	0.0136704
848.531	0.0136340
848.609	0.0137453
848.687	0.0137376
848.765	0.0137046
848.843	0.0138931
848.921	0.0136467
848.999	0.0135771
849.078	0.0137187
849.156	0.0137068
849.234	0.0138461
849.312	0.0137890
849.390	0.0135136
849.468	0.0135391
849.546	0.0136769
849.624	0.0137580
849.703	0.0136586
849.781	0.0136788
849.859	0.0137020
849.937	0.0136593
850.015	0.0137733
850.093	0.0137649
850.171	0.0138329
850.249	0.0137946
850.328	0.0139433
850.406	0.0140277
850.484	0.0139689
850.562	0.0140158
850.640	0.0141022
850.718	0.0140842
850.796	0.0141666
850.874	0.0140571
850.953	0.0141326
851.031	0.0141872
851.109	0.0141045
851.187	0.0140631
851.265	0.0141984
851.343	0.0141618
851.421	0.0142086
851.499	0.0141186
851.578	0.0141237
851.656	0.0140705
851.734	0.0139540
851.812	0.0139092
851.890	0.0139431
851.968	0.0138499
852.046	0.0138200
852.124	0.0137186
852.203	0.0138280
852.281	0.0137781
852.359	0.0137679
852.437	0.0136580
852.515	0.0137193
852.593	0.0137127
852.671	0.0136619
852.749	0.0137501
852.828	0.0136369
852.906	0.0136777
852.984	0.0136713
853.062	0.0137083
853.140	0.0136548
853.218	0.0135835
853.296	0.0136436
853.374	0.0137447
853.453	0.0137724
853.531	0.0134788
853.609	0.0135881
853.687	0.0137099
853.765	0.0136674
853.843	0.0135369
853.921	0.0136231
853.999	0.0138259
854.078	0.0137270
854.156	0.0136620
854.234	0.0138406
854.312	0.0137955
854.390	0.0136616
854.468	0.0138094
854.546	0.0139346
854.624	0.0139870
854.703	0.0138822
854.781	0.0138750
854.859	0.0138082
854.937	0.0139173
855.015	0.0139262
855.093	0.0139054
855.171	0.0139478
855.249	0.0140157
855.328	0.0139816
855.406	0.0140186
855.484	0.0139698
855.562	0.0140372
855.640	0.0141140
855.718	0.0141348
855.796	0.0140173
855.874	0.0141225
855.953	0.0141185
856.031	0.0140409
856.109	0.0141185
856.187	0.0141402
856.265	0.0141272
856.343	0.0140020
856.421	0.0140153
856.499	0.0141032
856.578	0.0139180
856.656	0.0139589
856.734	0.0141350
856.812	0.0139407
856.890	0.0139375
856.968	0.0137698
857.046	0.0137675
857.124	0.0137875
857.203	0.0138676
857.281	0.0137347
857.359	0.0137074
857.437	0.0138046
857.515	0.0137497
857.593	0.0137209
857.671	0.0136461
857.749	0.0136496
857.828	0.0137695
857.906	0.0135665
857.984	0.0137409
858.062	0.0137032
858.140	0.0136230
858.218	0.0136316
858.296	0.0137447
858.374	0.0138210
858.453	0.0136848
858.531	0.0137355
858.609	0.0138171
858.687	0.0137078
858.765	0.0137024
858.843	0.0137793
858.921	0.0137883
858.999	0.0138349
859.078	0.0137865
859.156	0.0138586
859.234	0.0138095
859.312	0.0138222
859.390	0.0138035
859.468	0.0137687
859.546	0.0138026
859.624	0.0138833
859.703	0.0138793
859.781	0.0138711
859.859	0.0139193
859.937	0.0138455
860.015	0.0137760
860.093	0.0138297
860.171	0.0139062
860.249	0.0138906
860.328	0.0137308
860.406	0.0138988
860.484	0.0139538
860.562	0.0139479
860.640	0.0139045
860.718	0.0138445
860.796	0.0139886
860.874	0.0139825
860.953	0.0139310
861.031	0.0140667
861.109	0.0140598
861.187	0.0139581
861.265	0.0139664
861.343	0.0139231
861.421	0.0140104
861.499	0.0139056
861.578	0.0139386
861.656	0.0140242
861.734	0.0138750
861.812	0.0138958
861.890	0.0139359
861.968	0.0139011
862.046	0.0137978
862.124	0.0138020
862.203	0.0137464
862.281	0.0136932
862.359	0.0138200
862.437	0.0137624
862.515	0.0137022
862.593	0.0136878
862.671	0.0137499
862.749	0.0135695
862.828	0.0135991
862.906	0.0137283
862.984	0.0136735
863.062	0.0136967
863.140	0.0136994
863.218	0.0137309
863.296	0.0136430
863.374	0.0136125
863.453	0.0136226
863.531	0.0135616
863.609	0.0137451
863.687	0.0135645
863.765	0.0137450
863.843	0.0137466
863.921	0.0138956
863.999	0.0137880
864.078	0.0137720
864.156	0.0137513
864.234	0.0137889
864.312	0.0137585
864.390	0.0139046
864.468	0.0137741
864.546	0.0136983
864.624	0.0137186
864.703	0.0137531
864.781	0.0136401
864.859	0.0138037
864.937	0.0138035
865.015	0.0135860
865.093	0.0134846
865.171	0.0135072
865.249	0.0136140
865.328	0.0138134
865.406	0.0137641
865.484	0.0137047
865.562	0.0136558
865.640	0.0137980
865.718	0.0137418
865.796	0.0136462
865.874	0.0137984
865.953	0.0138237
866.031	0.0137653
866.109	0.0136669
866.187	0.0137329
866.265	0.0137401
866.343	0.0138210
866.421	0.0137120
866.499	0.0138183
866.578	0.0138396
866.656	0.0137147
866.734	0.0138094
866.812	0.0137431
866.890	0.0137799
866.968	0.0138908
867.046	0.0138692
867.124	0.0138445
867.203	0.0137944
867.281	0.0138049
867.359	0.0137148
867.437	0.0138811
867.515	0.0138830
867.593	0.0137910
867.671	0.0137821
867.749	0.0137751
867.828	0.0138406
867.906	0.0139799
867.984	0.0137911
868.062	0.0135682
868.140	0.0137258
868.218	0.0138409
868.296	0.0137864
868.374	0.0136697
868.453	0.0138282
868.531	0.0138412
868.609	0.0139391
868.687	0.0138543
868.765	0.0138540
868.843	0.0138820
868.921	0.0138525
868.999	0.0139592
869.078	0.0138506
869.156	0.0139613
869.234	0.0140845
869.312	0.0139153
869.390	0.0140421
869.468	0.0140125
869.546	0.0139434
869.624	0.0139043
869.703	0.0138837
869.781	0.0140100
869.859	0.0140322
869.937	0.0137971
870.015	0.0138358
870.093	0.0139075
870.171	0.0140462
870.249	0.0139107
870.328	0.0138181
870.406	0.0138177
870.484	0.0138113
870.562	0.0138586
870.640	0.0140712
870.718	0.0138419
870.796	0.0138145
870.874	0.0139846
870.953	0.0139745
871.031	0.0140411
871.109	0.0140638
871.187	0.0140493
871.265	0.0139481
871.343	0.0140794
871.421	0.0140363
871.499	0.0140489
871.578	0.0140142
871.656	0.0139102
871.734	0.0139213
871.812	0.0139006
871.890	0.0138212
871.968	0.0137674
872.046	0.0137981
872.124	0.0136272
872.203	0.0137486
872.281	0.0139082
872.359	0.0138108
872.437	0.0137365
872.515	0.0137357
872.593	0.0137073
872.671	0.0136906
872.749	0.0136054
872.828	0.0136871
872.906	0.0138138
872.984	0.0138003
873.062	0.0137184
873.140	0.0138671
873.218	0.0137800
873.296	0.0138264
873.374	0.0138895
873.453	0.0137486
873.531	0.0136881
873.609	0.0138366
873.687	0.0138130
873.765	0.0135777
873.843	0.0135854
873.921	0.0137542
873.999	0.0138866
874.078	0.0136641
874.156	0.0138455
874.234	0.0140273
874.312	0.0137762
874.390	0.0137756
874.468	0.0138210
874.546	0.0138983
874.624	0.0139548
874.703	0.0140699
874.781	0.0139706
874.859	0.0140109
874.937	0.0138416
875.015	0.0139809
875.093	0.0140989
875.171	0.0140047
875.249	0.0140181
875.328	0.0139645
875.406	0.0141168
875.484	0.0140101
875.562	0.0141402
875.640	0.0141139
875.718	0.0140993
875.796	0.0141306
875.874	0.0142400
875.953	0.0140871
876.031	0.0141200
876.109	0.0141287
876.187	0.0141276
876.265	0.0140067
876.343	0.0140896
876.421	0.0142006
876.499	0.0142128
876.578	0.0141044
876.656	0.0140102
876.734	0.0139942
876.812	0.0139549
876.890	0.0138418
876.968	0.0139156
877.046	0.0139372
877.124	0.0139103
877.203	0.0140518
877.281	0.0138483
877.359	0.0137798
877.437	0.0139017
877.515	0.0137846
877.593	0.0138596
877.671	0.0137811
877.749	0.0138277
877.828	0.0137738
877.906	0.0139022
877.984	0.0137170
878.062	0.0138082
878.140	0.0138262
878.218	0.0137143
878.296	0.0136897
878.374	0.0137691
878.453	0.0137374
878.531	0.0138770
878.609	0.0139098
878.687	0.0137572
878.765	0.0137347
878.843	0.0138713
878.921	0.0138715
878.999	0.0137198
879.078	0.0138156
879.156	0.0138213
879.234	0.0138223
879.312	0.0137370
879.390	0.0137918
879.468	0.0139185
879.546	0.0138705
879.624	0.0139280
879.703	0.0138510
879.781	0.0139714
879.859	0.0138710
879.937	0.0139527
880.015	0.0139308
880.093	0.0138880
880.171	0.0139059
880.249	0.0140528
880.328	0.0140378
880.406	0.0140488
880.484	0.0140230
880.562	0.0139231
880.640	0.0139188
880.718	0.0141137
880.796	0.0140525
880.874	0.0139047
880.953	0.0139427
881.031	0.0140517
881.109	0.0138853
881.187	0.0139184
881.265	0.0139077
881.343	0.0137508
881.421	0.0136979
881.499	0.0137174
881.578	0.0138453
881.656	0.0138906
881.734	0.0138169
881.812	0.0139011
881.890	0.0137741
881.968	0.0139131
882.046	0.0137080
882.124	0.0139575
882.203	0.0138923
882.281	0.0138725
882.359	0.0137946
882.437	0.0138068
882.515	0.0138582
882.593	0.0138432
882.671	0.0137620
882.749	0.0138021
882.828	0.0140856
882.906	0.0140430
882.984	0.0139021
883.062	0.0139566
883.140	0.0138554
883.218	0.0138502
883.296	0.0139519
883.374	0.0140343
883.453	0.0139748
883.531	0.0140419
883.609	0.0139130
883.687	0.0137701
883.765	0.0139485
883.843	0.0140430
883.921	0.0139690
883.999	0.0140993
884.078	0.0138663
884.156	0.0138374
884.234	0.0138439
884.312	0.0139395
884.390	0.0138822
884.468	0.0138999
884.546	0.0137166
884.624	0.0138428
884.703	0.0138431
884.781	0.0139705
884.859	0.0137316
884.937	0.0137456
885.015	0.0137631
885.093	0.0137908
885.171	0.0137341
885.249	0.0136820
885.328	0.0137798
885.406	0.0138850
885.484	0.0138152
885.562	0.0138551
885.640	0.0138589
885.718	0.0137878
885.796	0.0137300
885.874	0.0139060
885.953	0.0139685
886.031	0.0139296
886.109	0.0138229
886.187	0.0139555
886.265	0.0138483
886.343	0.0139301
886.421	0.0138739
886.499	0.0139397
886.578	0.0139454
886.656	0.0138322
886.734	0.0138669
886.812	0.0138155
886.890	0.0138454
886.968	0.0138261
887.046	0.0137827
887.124	0.0138903
887.203	0.0138153
887.281	0.0136248
887.359	0.0137252
887.437	0.0138714
887.515	0.0137881
887.593	0.0137711
887.671	0.0138251
887.749	0.0136747
887.828	0.0136826
887.906	0.0137221
887.984	0.0137444
888.062	0.0138012
888.140	0.0137393
888.218	0.0137079
888.296	0.0138097
888.374	0.0137698
888.453	0.0139036
888.531	0.0138887
888.609	0.0135821
888.687	0.0138602
888.765	0.0139826
888.843	0.0139339
888.921	0.0139211
888.999	0.0139429
889.078	0.0140077
889.156	0.0139957
889.234	0.0139491
889.312	0.0139151
889.390	0.0139381
889.468	0.0139420
889.546	0.0138785
889.624	0.0138770
889.703	0.0139712
889.781	0.0139939
889.859	0.0138722
889.937	0.0140573
890.015	0.0138997
890.093	0.0139083
890.171	0.0139729
890.249	0.0138634
890.328	0.0139349
890.406	0.0138565
890.484	0.0139327
890.562	0.0140227
890.640	0.0140482
890.718	0.0138372
890.796	0.0137720
890.874	0.0137428
890.953	0.0138023
891.031	0.0137749
891.109	0.0136823
891.187	0.0136606
891.265	0.0135209
891.343	0.0136279
891.421	0.0136817
891.499	0.0135918
891.578	0.0137164
891.656	0.0136348
891.734	0.0135648
891.812	0.0137868
891.890	0.0135580
891.968	0.0138118
892.046	0.0136320
892.124	0.0137745
892.203	0.0138369
892.281	0.0139217
892.359	0.0139016
892.437	0.0136671
892.515	0.0137468
892.593	0.0139377
892.671	0.0138264
892.749	0.0138148
892.828	0.0138931
892.906	0.0138448
892.984	0.0138554
893.062	0.0137984
893.140	0.0138422
893.218	0.0138398
893.296	0.0138950
893.374	0.0139278
893.453	0.0139690
893.531	0.0139160
893.609	0.0138118
893.687	0.0140407
893.765	0.0140733
893.843	0.0139633
893.921	0.0139769
893.999	0.0140215
894.078	0.0140072
894.156	0.0139640
894.234	0.0139661
894.312	0.0139926
894.390	0.0140407
894.468	0.0139652
894.546	0.0140276
894.624	0.0140795
894.703	0.0140304
894.781	0.0138986
894.859	0.0138917
894.937	0.0140306
895.015	0.0140384
895.093	0.0140075
895.171	0.0140279
895.249	0.0138833
895.328	0.0139587
895.406	0.0138650
895.484	0.0136702
895.562	0.0137860
895.640	0.0137886
895.718	0.0136923
895.796	0.0137845
895.874	0.0137765
895.953	0.0137102
896.031	0.0137061
896.109	0.0137850
896.187	0.0136854
896.265	0.0135387
896.343	0.0136939
896.421	0.0135989
896.499	0.0136308
896.578	0.0136201
896.656	0.0135545
896.734	0.0135371
896.812	0.0137045
896.890	0.0137241
896.968	0.0136772
897.046	0.0136218
897.124	0.0136676
897.203	0.0137134
897.281	0.0136285
897.359	0.0136163
897.437	0.0136237
897.515	0.0138429
897.593	0.0136694
897.671	0.0136558
897.749	0.0138064
897.828	0.0138080
897.906	0.0137669
897.984	0.0138359
898.062	0.0138864
898.140	0.0138422
898.218	0.0139762
898.296	0.0139774
898.374	0.0138518
898.453	0.0138540
898.531	0.0140499
898.609	0.0139477
898.687	0.0140334
898.765	0.0138956
898.843	0.0138782
898.921	0.0139636
898.999	0.0139215
899.078	0.0139233
899.156	0.0139169
899.234	0.0138648
899.312	0.0137878
899.390	0.0138948
899.468	0.0139040
899.546	0.0137373
899.624	0.0138196
899.703	0.0138641
899.781	0.0137585
899.859	0.0138479
899.937	0.0138367
900.015	0.0137463
900.093	0.0137193
900.171	0.0138209
900.249	0.0137924
900.328	0.0138644
900.406	0.0137977
900.484	0.0136527
900.562	0.0136742
900.640	0.0136601
900.718	0.0136610
900.796	0.0137680
900.874	0.0137636
900.953	0.0138446
901.031	0.0137543
901.109	0.0137444
901.187	0.0136786
901.265	0.0137386
901.343	0.0137051
901.421	0.0138136
901.499	0.0137746
901.578	0.0137181
901.656	0.0138100
901.734	0.0138628
901.812	0.0137782
901.890	0.0139531
901.968	0.0138525
902.046	0.0137860
902.124	0.0137853
902.203	0.0137637
902.281	0.0137791
902.359	0.0139660
902.437	0.0139790
902.515	0.0138062
902.593	0.0138480
902.671	0.0139272
902.749	0.0139910
902.828	0.0139554
902.906	0.0141113
902.984	0.0140025
903.062	0.0140211
903.140	0.0140152
903.218	0.0140559
903.296	0.0140363
903.374	0.0141234
903.453	0.0141824
903.531	0.0141455
903.609	0.0140571
903.687	0.0141935
903.765	0.0141629
903.843	0.0139534
903.921	0.0140727
903.999	0.0141061
904.078	0.0141456
904.156	0.0140520
904.234	0.0139088
904.312	0.0141446
904.390	0.0140627
904.468	0.0140858
904.546	0.0141061
904.624	0.0141030
904.703	0.0141660
904.781	0.0140141
904.859	0.0141036
904.937	0.0140249
905.015	0.0140084
905.093	0.0139546
905.171	0.0140349
905.249	0.0139917
905.328	0.0139107
905.406	0.0139880
905.484	0.0138908
905.562	0.0139236
905.640	0.0138749
905.718	0.0138734
905.796	0.0139202
905.874	0.0140247
905.953	0.0139605
906.031	0.0139629
906.109	0.0137804
906.187	0.0138492
906.265	0.0137634
906.343	0.0138589
906.421	0.0138905
906.499	0.0138878
906.578	0.0138216
906.656	0.0139525
906.734	0.0138221
906.812	0.0136662
906.890	0.0137442
906.968	0.0138042
907.046	0.0137999
907.124	0.0138297
907.203	0.0138889
907.281	0.0138081
907.359	0.0141367
907.437	0.0138805
907.515	0.0138109
907.593	0.0139687
907.671	0.0138509
907.749	0.0139166
907.828	0.0139044
907.906	0.0140253
907.984	0.0139523
908.062	0.0138537
908.140	0.0138936
908.218	0.0139745
908.296	0.0140383
908.374	0.0139994
908.453	0.0140281
908.531	0.0139719
908.609	0.0139828
908.687	0.0140300
908.765	0.0139639
908.843	0.0140758
908.921	0.0139540
908.999	0.0140726
909.078	0.0140443
909.156	0.0140513
909.234	0.0141076
909.312	0.0140194
909.390	0.0141014
909.468	0.0140916
909.546	0.0140516
909.624	0.0141218
909.703	0.0140600
909.781	0.0140886
909.859	0.0140104
909.937	0.0138980
910.015	0.0140260
910.093	0.0139296
910.171	0.0139178
910.249	0.0137547
910.328	0.0139075
910.406	0.0137672
910.484	0.0137491
910.562	0.0137695
910.640	0.0138472
910.718	0.0137531
910.796	0.0138185
910.874	0.0138466
910.953	0.0137382
911.031	0.0138850
911.109	0.0137811
911.187	0.0138210
911.265	0.0138190
911.343	0.0139194
911.421	0.0137237
911.499	0.0137667
911.578	0.0137744
911.656	0.0137939
911.734	0.0137395
911.812	0.0137894
911.890	0.0138718
911.968	0.0138586
912.046	0.0137682
912.124	0.0137479
912.203	0.0138405
912.281	0.0138284
912.359	0.0139252
912.437	0.0139134
912.515	0.0138930
912.593	0.0137907
912.671	0.0138635
912.749	0.0138507
912.828	0.0138560
912.906	0.0138723
912.984	0.0138439
913.062	0.0139165
913.140	0.0138453
913.218	0.0139148
913.296	0.0139374
913.374	0.0139410
913.453	0.0139204
913.531	0.0139882
913.609	0.0139090
913.687	0.0140104
913.765	0.0139099
913.843	0.0139970
913.921	0.0140821
913.999	0.0139526
914.078	0.0141465
914.156	0.0139573
914.234	0.0139529
914.312	0.0138936
914.390	0.0140473
914.468	0.0138640
914.546	0.0138459
914.624	0.0139568
914.703	0.0138711
914.781	0.0139903
914.859	0.0138320
914.937	0.0137464
915.015	0.0139209
915.093	0.0137851
915.171	0.0138256
915.249	0.0137927
915.328	0.0136771
915.406	0.0135997
915.484	0.0136106
915.562	0.0135795
915.640	0.0136992
915.718	0.0136738
915.796	0.0136937
915.874	0.0136705
915.953	0.0137012
916.031	0.0136982
916.109	0.0137892
916.187	0.0136368
916.265	0.0136536
916.343	0.0136056
916.421	0.0136150
916.499	0.0136296
916.578	0.0136092
916.656	0.0137778
916.734	0.0136172
916.812	0.0136309
916.890	0.0136980
916.968	0.0137310
917.046	0.0137330
917.124	0.0137200
917.203	0.0136834
917.281	0.0137260
917.359	0.0137531
917.437	0.0138718
917.515	0.0138578
917.593	0.0138893
917.671	0.0139386
917.749	0.0138776
917.828	0.0139223
917.906	0.0139072
917.984	0.0137552
918.062	0.0139430
918.140	0.0139865
918.218	0.0138477
918.296	0.0138213
918.374	0.0138242
918.453	0.0139014
918.531	0.0141553
918.609	0.0138873
918.687	0.0139664
918.765	0.0139607
918.843	0.0139944
918.921	0.0140070
918.999	0.0139380
919.078	0.0139580
919.156	0.0138763
919.234	0.0138776
919.312	0.0138561
919.390	0.0138297
919.468	0.0139153
919.546	0.0137471
919.624	0.0138676
919.703	0.0137766
919.781	0.0138392
919.859	0.0136913
919.937	0.0137241
