05/08/2022	19:33:59	Ver.	4.1	UNKNOWN
Optical Delay	649.989667	Delta X		0.078125	Sweeps	1	Scan Rate	0/0
Coordinates	Axis 1	NaN	Axis 2	NaN	Axis 3	NaN	Axis 4	NaN	Axis 5	NaN	Axis 6	0.000000
TX Power	0.000000	RX Power	0.000000

649.990	0.0134927
650.068	0.0135055
650.146	0.0134178
650.224	0.0135162
650.302	0.0136153
650.380	0.0136340
650.458	0.0134483
650.537	0.0135198
650.615	0.0135414
650.693	0.0133593
650.771	0.0134039
650.849	0.0135423
650.927	0.0135222
651.005	0.0133839
651.083	0.0134950
651.162	0.0134443
651.240	0.0135749
651.318	0.0134229
651.396	0.0135723
651.474	0.0134899
651.552	0.0133443
651.630	0.0134981
651.708	0.0135032
651.787	0.0136043
651.865	0.0135541
651.943	0.0135858
652.021	0.0134612
652.099	0.0135382
652.177	0.0134672
652.255	0.0134729
652.333	0.0134435
652.412	0.0135652
652.490	0.0135641
652.568	0.0135146
652.646	0.0134384
652.724	0.0135335
652.802	0.0134435
652.880	0.0134197
652.958	0.0136953
653.037	0.0135418
653.115	0.0135725
653.193	0.0133583
653.271	0.0134814
653.349	0.0135463
653.427	0.0134753
653.505	0.0135334
653.583	0.0135017
653.662	0.0134406
653.740	0.0136098
653.818	0.0134389
653.896	0.0134973
653.974	0.0134418
654.052	0.0135429
654.130	0.0135221
654.208	0.0134905
654.287	0.0134783
654.365	0.0135046
654.443	0.0134747
654.521	0.0135751
654.599	0.0135181
654.677	0.0134599
654.755	0.0135444
654.833	0.0136378
654.912	0.0135107
654.990	0.0134858
655.068	0.0136433
655.146	0.0135430
655.224	0.0134776
655.302	0.0134995
655.380	0.0135542
655.458	0.0134218
655.537	0.0135463
655.615	0.0136272
655.693	0.0134753
655.771	0.0135195
655.849	0.0135303
655.927	0.0136390
656.005	0.0135897
656.083	0.0135945
656.162	0.0134842
656.240	0.0134394
656.318	0.0134761
656.396	0.0135815
656.474	0.0134952
656.552	0.0136102
656.630	0.0134306
656.708	0.0135516
656.787	0.0136108
656.865	0.0136233
656.943	0.0135297
657.021	0.0134708
657.099	0.0135278
657.177	0.0136251
657.255	0.0134392
657.333	0.0134778
657.412	0.0134995
657.490	0.0133871
657.568	0.0134911
657.646	0.0135240
657.724	0.0135190
657.802	0.0135664
657.880	0.0133760
657.958	0.0135345
658.037	0.0134743
658.115	0.0135413
658.193	0.0135410
658.271	0.0134453
658.349	0.0135345
658.427	0.0135954
658.505	0.0134349
658.583	0.0135407
658.662	0.0134215
658.740	0.0135254
658.818	0.0135271
658.896	0.0135825
658.974	0.0135047
659.052	0.0134919
659.130	0.0135655
659.208	0.0135899
659.287	0.0134631
659.365	0.0135423
659.443	0.0135604
659.521	0.0134382
659.599	0.0135119
659.677	0.0136812
659.755	0.0135226
659.833	0.0134760
659.912	0.0136082
659.990	0.0135824
660.068	0.0135497
660.146	0.0135540
660.224	0.0135857
660.302	0.0136406
660.380	0.0136344
660.458	0.0135732
660.537	0.0135618
660.615	0.0134124
660.693	0.0135674
660.771	0.0136428
660.849	0.0135030
660.927	0.0134218
661.005	0.0134908
661.083	0.0135634
661.162	0.0135868
661.240	0.0134500
661.318	0.0135099
661.396	0.0134544
661.474	0.0135293
661.552	0.0134845
661.630	0.0135568
661.708	0.0135057
661.787	0.0136270
661.865	0.0135014
661.943	0.0135437
662.021	0.0135708
662.099	0.0135092
662.177	0.0134686
662.255	0.0134718
662.333	0.0136169
662.412	0.0134154
662.490	0.0134009
662.568	0.0134534
662.646	0.0135364
662.724	0.0136275
662.802	0.0135221
662.880	0.0134488
662.958	0.0133379
663.037	0.0134743
663.115	0.0133908
663.193	0.0135738
663.271	0.0135239
663.349	0.0134673
663.427	0.0135892
663.505	0.0135266
663.583	0.0134081
663.662	0.0134975
663.740	0.0134252
663.818	0.0134723
663.896	0.0134528
663.974	0.0133920
664.052	0.0135677
664.130	0.0135924
664.208	0.0134664
664.287	0.0134858
664.365	0.0134329
664.443	0.0134735
664.521	0.0134513
664.599	0.0134868
664.677	0.0135332
664.755	0.0134061
664.833	0.0132775
664.912	0.0135603
664.990	0.0135796
665.068	0.0135046
665.146	0.0133881
665.224	0.0134803
665.302	0.0134083
665.380	0.0134796
665.458	0.0135462
665.537	0.0134648
665.615	0.0134000
665.693	0.0135357
665.771	0.0135899
665.849	0.0135246
665.927	0.0135703
666.005	0.0134106
666.083	0.0134462
666.162	0.0133779
666.240	0.0134232
666.318	0.0134786
666.396	0.0135707
666.474	0.0135128
666.552	0.0134753
666.630	0.0134450
666.708	0.0134221
666.787	0.0135120
666.865	0.0133487
666.943	0.0134777
667.021	0.0134451
667.099	0.0134615
667.177	0.0134269
667.255	0.0135239
667.333	0.0134566
667.412	0.0135365
667.490	0.0135503
667.568	0.0135426
667.646	0.0135882
667.724	0.0135217
667.802	0.0135588
667.880	0.0135187
667.958	0.0134969
668.037	0.0133191
668.115	0.0134828
668.193	0.0135071
668.271	0.0136100
668.349	0.0134498
668.427	0.0134447
668.505	0.0135658
668.583	0.0135416
668.662	0.0136160
668.740	0.0134827
668.818	0.0134134
668.896	0.0134283
668.974	0.0134888
669.052	0.0136261
669.130	0.0134811
669.208	0.0133787
669.287	0.0135735
669.365	0.0134702
669.443	0.0135372
669.521	0.0134538
669.599	0.0135061
669.677	0.0135341
669.755	0.0134521
669.833	0.0136292
669.912	0.0135155
669.990	0.0134219
670.068	0.0134841
670.146	0.0135977
670.224	0.0134498
670.302	0.0135567
670.380	0.0135205
670.458	0.0134264
670.537	0.0134634
670.615	0.0135726
670.693	0.0136212
670.771	0.0136272
670.849	0.0136797
670.927	0.0134908
671.005	0.0135036
671.083	0.0136843
671.162	0.0135824
671.240	0.0136266
671.318	0.0135410
671.396	0.0135185
671.474	0.0136154
671.552	0.0136590
671.630	0.0135415
671.708	0.0135971
671.787	0.0135459
671.865	0.0136239
671.943	0.0136360
672.021	0.0136819
672.099	0.0135168
672.177	0.0136302
672.255	0.0136950
672.333	0.0135078
672.412	0.0135283
672.490	0.0135497
672.568	0.0135489
672.646	0.0135377
672.724	0.0134688
672.802	0.0135878
672.880	0.0135093
672.958	0.0134751
673.037	0.0136288
673.115	0.0136996
673.193	0.0134442
673.271	0.0134527
673.349	0.0134747
673.427	0.0136129
673.505	0.0135937
673.583	0.0135101
673.662	0.0136613
673.740	0.0135015
673.818	0.0136190
673.896	0.0135545
673.974	0.0135583
674.052	0.0135495
674.130	0.0134559
674.208	0.0135185
674.287	0.0136123
674.365	0.0135232
674.443	0.0136362
674.521	0.0135048
674.599	0.0135582
674.677	0.0135130
674.755	0.0134116
674.833	0.0135038
674.912	0.0135546
674.990	0.0136652
675.068	0.0134293
675.146	0.0134080
675.224	0.0133838
675.302	0.0134843
675.380	0.0134641
675.458	0.0133483
675.537	0.0134971
675.615	0.0134330
675.693	0.0133980
675.771	0.0134374
675.849	0.0135072
675.927	0.0135311
676.005	0.0134227
676.083	0.0134556
676.162	0.0133039
676.240	0.0134233
676.318	0.0135155
676.396	0.0133195
676.474	0.0133881
676.552	0.0135310
676.630	0.0135970
676.708	0.0134293
676.787	0.0135200
676.865	0.0134877
676.943	0.0133924
677.021	0.0135136
677.099	0.0134323
677.177	0.0134400
677.255	0.0134232
677.333	0.0134386
677.412	0.0133965
677.490	0.0134278
677.568	0.0134863
677.646	0.0135546
677.724	0.0135181
677.802	0.0134994
677.880	0.0134656
677.958	0.0135152
678.037	0.0135483
678.115	0.0134624
678.193	0.0135117
678.271	0.0134710
678.349	0.0135670
678.427	0.0135159
678.505	0.0134381
678.583	0.0134376
678.662	0.0134289
678.740	0.0134997
678.818	0.0134753
678.896	0.0135618
678.974	0.0135020
679.052	0.0135919
679.130	0.0135939
679.208	0.0134803
679.287	0.0135679
679.365	0.0134934
679.443	0.0136010
679.521	0.0134849
679.599	0.0134342
679.677	0.0135841
679.755	0.0135119
679.833	0.0134998
679.912	0.0135087
679.990	0.0135183
680.068	0.0135498
680.146	0.0136289
680.224	0.0135379
680.302	0.0136520
680.380	0.0136127
680.458	0.0136500
680.537	0.0136227
680.615	0.0136015
680.693	0.0135937
680.771	0.0137426
680.849	0.0135028
680.927	0.0135597
681.005	0.0136881
681.083	0.0136302
681.162	0.0135245
681.240	0.0137066
681.318	0.0137352
681.396	0.0136565
681.474	0.0136875
681.552	0.0135926
681.630	0.0136550
681.708	0.0136819
681.787	0.0136330
681.865	0.0133869
681.943	0.0135507
682.021	0.0136398
682.099	0.0136748
682.177	0.0137507
682.255	0.0137458
682.333	0.0137141
682.412	0.0136264
682.490	0.0134571
682.568	0.0134469
682.646	0.0135724
682.724	0.0134798
682.802	0.0135150
682.880	0.0132584
682.958	0.0136143
683.037	0.0136767
683.115	0.0138443
683.193	0.0139700
683.271	0.0139819
683.349	0.0138016
683.427	0.0139752
683.505	0.0137430
683.583	0.0135448
683.662	0.0132051
683.740	0.0130661
683.818	0.0128538
683.896	0.0128258
683.974	0.0129110
684.052	0.0130748
684.130	0.0132478
684.208	0.0134488
684.287	0.0137891
684.365	0.0139365
684.443	0.0141962
684.521	0.0143700
684.599	0.0145353
684.677	0.0145770
684.755	0.0145100
684.833	0.0145208
684.912	0.0142903
684.990	0.0138225
685.068	0.0134380
685.146	0.0131850
685.224	0.0126427
685.302	0.0125611
685.380	0.0124710
685.458	0.0123830
685.537	0.0123925
685.615	0.0123778
685.693	0.0126204
685.771	0.0127380
685.849	0.0130924
685.927	0.0134219
686.005	0.0137895
686.083	0.0140475
686.162	0.0144930
686.240	0.0145699
686.318	0.0146500
686.396	0.0146296
686.474	0.0145666
686.552	0.0143813
686.630	0.0141155
686.708	0.0136578
686.787	0.0135075
686.865	0.0129587
686.943	0.0129424
687.021	0.0127898
687.099	0.0126089
687.177	0.0126749
687.255	0.0126910
687.333	0.0128101
687.412	0.0131248
687.490	0.0135178
687.568	0.0135035
687.646	0.0137982
687.724	0.0139413
687.802	0.0139561
687.880	0.0139719
687.958	0.0139880
688.037	0.0137688
688.115	0.0136582
688.193	0.0133499
688.271	0.0133190
688.349	0.0132763
688.427	0.0130581
688.505	0.0130048
688.583	0.0126644
688.662	0.0126318
688.740	0.0126807
688.818	0.0126334
688.896	0.0128587
688.974	0.0131881
689.052	0.0131164
689.130	0.0133515
689.208	0.0137179
689.287	0.0138941
689.365	0.0141476
689.443	0.0142575
689.521	0.0142611
689.599	0.0141045
689.677	0.0143452
689.755	0.0143193
689.833	0.0141570
689.912	0.0141472
689.990	0.0141060
690.068	0.0140159
690.146	0.0137936
690.224	0.0136638
690.302	0.0133366
690.380	0.0135008
690.458	0.0131958
690.537	0.0130463
690.615	0.0130746
690.693	0.0130780
690.771	0.0129890
690.849	0.0130511
690.927	0.0130750
691.005	0.0131781
691.083	0.0132211
691.162	0.0131931
691.240	0.0133069
691.318	0.0132894
691.396	0.0131789
691.474	0.0132218
691.552	0.0131611
691.630	0.0130619
691.708	0.0130295
691.787	0.0130100
691.865	0.0130675
691.943	0.0128439
692.021	0.0128851
692.099	0.0130682
692.177	0.0133135
692.255	0.0133690
692.333	0.0136409
692.412	0.0138466
692.490	0.0141386
692.568	0.0142908
692.646	0.0144980
692.724	0.0147484
692.802	0.0148396
692.880	0.0149043
692.958	0.0149300
693.037	0.0148022
693.115	0.0148174
693.193	0.0145864
693.271	0.0143126
693.349	0.0140414
693.427	0.0137045
693.505	0.0133349
693.583	0.0130769
693.662	0.0129768
693.740	0.0128040
693.818	0.0126548
693.896	0.0124965
693.974	0.0124619
694.052	0.0122250
694.130	0.0123902
694.208	0.0123842
694.287	0.0124319
694.365	0.0125320
694.443	0.0125346
694.521	0.0126426
694.599	0.0126891
694.677	0.0129773
694.755	0.0130907
694.833	0.0132770
694.912	0.0132223
694.990	0.0132693
695.068	0.0134898
695.146	0.0133457
695.224	0.0133211
695.302	0.0133292
695.380	0.0133348
695.458	0.0133118
695.537	0.0135072
695.615	0.0134133
695.693	0.0132485
695.771	0.0134121
695.849	0.0137090
695.927	0.0136471
696.005	0.0138831
696.083	0.0140029
696.162	0.0141527
696.240	0.0144070
696.318	0.0145972
696.396	0.0147334
696.474	0.0148282
696.552	0.0147465
696.630	0.0148180
696.708	0.0148173
696.787	0.0149342
696.865	0.0148428
696.943	0.0145099
697.021	0.0142934
697.099	0.0140643
697.177	0.0137037
697.255	0.0133679
697.333	0.0130984
697.412	0.0128351
697.490	0.0126796
697.568	0.0123355
697.646	0.0121964
697.724	0.0120528
697.802	0.0120032
697.880	0.0120944
697.958	0.0119187
698.037	0.0120138
698.115	0.0121651
698.193	0.0122220
698.271	0.0123988
698.349	0.0125862
698.427	0.0129097
698.505	0.0128716
698.583	0.0130008
698.662	0.0132381
698.740	0.0133646
698.818	0.0135595
698.896	0.0137228
698.974	0.0137785
699.052	0.0138511
699.130	0.0138436
699.208	0.0139265
699.287	0.0140880
699.365	0.0140662
699.443	0.0140211
699.521	0.0141283
699.599	0.0139424
699.677	0.0140727
699.755	0.0140237
699.833	0.0139867
699.912	0.0142700
699.990	0.0140572
700.068	0.0140829
700.146	0.0139684
700.224	0.0140680
700.302	0.0141540
700.380	0.0141975
700.458	0.0140565
700.537	0.0141736
700.615	0.0142394
700.693	0.0141769
700.771	0.0142497
700.849	0.0141981
700.927	0.0141483
701.005	0.0141347
701.083	0.0139954
701.162	0.0138467
701.240	0.0136252
701.318	0.0135284
701.396	0.0133387
701.474	0.0132001
701.552	0.0131419
701.630	0.0129687
701.708	0.0128799
701.787	0.0127131
701.865	0.0125264
701.943	0.0126579
702.021	0.0125303
702.099	0.0125515
702.177	0.0124733
702.255	0.0122456
702.333	0.0122786
702.412	0.0123083
702.490	0.0123430
702.568	0.0122151
702.646	0.0122694
702.724	0.0124233
702.802	0.0124706
702.880	0.0124149
702.958	0.0126959
703.037	0.0128561
703.115	0.0128158
703.193	0.0129826
703.271	0.0133192
703.349	0.0134155
703.427	0.0135493
703.505	0.0140228
703.583	0.0140300
703.662	0.0141367
703.740	0.0143513
703.818	0.0143947
703.896	0.0145028
703.974	0.0146569
704.052	0.0146954
704.130	0.0147694
704.208	0.0146345
704.287	0.0147972
704.365	0.0146672
704.443	0.0146217
704.521	0.0146291
704.599	0.0146507
704.677	0.0144230
704.755	0.0144463
704.833	0.0143547
704.912	0.0141380
704.990	0.0140813
705.068	0.0139403
705.146	0.0138060
705.224	0.0136674
705.302	0.0135919
705.380	0.0134697
705.458	0.0131506
705.537	0.0131318
705.615	0.0130408
705.693	0.0127924
705.771	0.0126429
705.849	0.0125681
705.927	0.0123421
706.005	0.0123586
706.083	0.0124685
706.162	0.0124213
706.240	0.0123634
706.318	0.0123590
706.396	0.0124573
706.474	0.0125500
706.552	0.0126811
706.630	0.0126784
706.708	0.0126931
706.787	0.0127583
706.865	0.0128797
706.943	0.0129690
707.021	0.0130475
707.099	0.0133105
707.177	0.0133266
707.255	0.0134668
707.333	0.0134733
707.412	0.0136534
707.490	0.0138316
707.568	0.0139590
707.646	0.0141203
707.724	0.0143486
707.802	0.0144466
707.880	0.0144067
707.958	0.0144943
708.037	0.0145666
708.115	0.0145238
708.193	0.0145763
708.271	0.0145811
708.349	0.0143459
708.427	0.0142480
708.505	0.0143011
708.583	0.0143945
708.662	0.0141657
708.740	0.0139876
708.818	0.0140182
708.896	0.0138831
708.974	0.0138725
709.052	0.0137734
709.130	0.0135812
709.208	0.0136162
709.287	0.0136421
709.365	0.0136604
709.443	0.0136160
709.521	0.0134663
709.599	0.0133725
709.677	0.0134692
709.755	0.0134694
709.833	0.0132855
709.912	0.0132861
709.990	0.0134063
710.068	0.0134681
710.146	0.0133631
710.224	0.0136245
710.302	0.0135384
710.380	0.0135992
710.458	0.0135736
710.537	0.0135030
710.615	0.0137241
710.693	0.0137425
710.771	0.0135712
710.849	0.0135586
710.927	0.0134575
711.005	0.0132753
711.083	0.0133936
711.162	0.0133886
711.240	0.0130884
711.318	0.0130834
711.396	0.0129044
711.474	0.0130693
711.552	0.0130134
711.630	0.0130490
711.708	0.0130096
711.787	0.0130547
711.865	0.0131588
711.943	0.0131524
712.021	0.0133778
712.099	0.0134719
712.177	0.0134554
712.255	0.0135993
712.333	0.0136870
712.412	0.0137702
712.490	0.0139278
712.568	0.0139322
712.646	0.0139515
712.724	0.0138067
712.802	0.0138310
712.880	0.0139484
712.958	0.0138795
713.037	0.0136910
713.115	0.0137287
713.193	0.0136436
713.271	0.0135466
713.349	0.0135365
713.427	0.0134911
713.505	0.0134217
713.583	0.0134075
713.662	0.0134353
713.740	0.0134282
713.818	0.0133372
713.896	0.0133647
713.974	0.0133696
714.052	0.0133549
714.130	0.0133762
714.208	0.0133409
714.287	0.0133379
714.365	0.0133455
714.443	0.0132317
714.521	0.0134145
714.599	0.0134182
714.677	0.0136070
714.755	0.0136073
714.833	0.0137177
714.912	0.0136844
714.990	0.0137501
715.068	0.0139134
715.146	0.0138912
715.224	0.0140670
715.302	0.0140186
715.380	0.0141959
715.458	0.0141162
715.537	0.0140816
715.615	0.0140936
715.693	0.0138408
715.771	0.0136830
715.849	0.0135403
715.927	0.0135787
716.005	0.0134679
716.083	0.0134247
716.162	0.0131909
716.240	0.0131570
716.318	0.0130212
716.396	0.0131129
716.474	0.0131610
716.552	0.0129082
716.630	0.0128739
716.708	0.0128973
716.787	0.0129877
716.865	0.0128857
716.943	0.0129188
717.021	0.0129588
717.099	0.0130270
717.177	0.0130429
717.255	0.0132136
717.333	0.0132365
717.412	0.0132693
717.490	0.0133957
717.568	0.0133644
717.646	0.0134267
717.724	0.0133788
717.802	0.0134636
717.880	0.0135495
717.958	0.0135572
718.037	0.0136554
718.115	0.0135751
718.193	0.0137556
718.271	0.0136479
718.349	0.0139197
718.427	0.0138543
718.505	0.0137820
718.583	0.0138258
718.662	0.0138433
718.740	0.0141156
718.818	0.0139329
718.896	0.0137562
718.974	0.0137648
719.052	0.0138473
719.130	0.0138728
719.208	0.0136524
719.287	0.0136573
719.365	0.0134990
719.443	0.0135143
719.521	0.0134989
719.599	0.0134513
719.677	0.0133445
719.755	0.0134171
719.833	0.0133402
719.912	0.0132835
719.990	0.0131910
720.068	0.0133014
720.146	0.0133348
720.224	0.0132906
720.302	0.0133116
720.380	0.0134741
720.458	0.0134052
720.537	0.0133688
720.615	0.0134557
720.693	0.0135477
720.771	0.0135250
720.849	0.0136404
720.927	0.0136687
721.005	0.0137758
721.083	0.0136340
721.162	0.0137289
721.240	0.0136673
721.318	0.0135472
721.396	0.0136152
721.474	0.0136504
721.552	0.0135078
721.630	0.0134046
721.708	0.0132851
721.787	0.0132648
721.865	0.0131893
721.943	0.0131671
722.021	0.0132782
722.099	0.0131141
722.177	0.0130152
722.255	0.0130766
722.333	0.0131766
722.412	0.0130363
722.490	0.0131314
722.568	0.0131676
722.646	0.0131940
722.724	0.0133507
722.802	0.0133218
722.880	0.0133154
722.958	0.0134997
723.037	0.0133630
723.115	0.0134579
723.193	0.0133881
723.271	0.0134590
723.349	0.0134695
723.427	0.0135070
723.505	0.0135185
723.583	0.0134602
723.662	0.0133251
723.740	0.0133315
723.818	0.0134511
723.896	0.0134966
723.974	0.0135201
724.052	0.0136884
724.130	0.0137358
724.208	0.0137271
724.287	0.0137572
724.365	0.0136771
724.443	0.0135552
724.521	0.0135574
724.599	0.0135771
724.677	0.0134696
724.755	0.0134756
724.833	0.0134373
724.912	0.0134136
724.990	0.0133645
725.068	0.0132404
725.146	0.0132928
725.224	0.0133359
725.302	0.0134154
725.380	0.0133237
725.458	0.0133687
725.537	0.0133363
725.615	0.0134718
725.693	0.0134871
725.771	0.0134749
725.849	0.0136778
725.927	0.0135904
726.005	0.0134782
726.083	0.0136201
726.162	0.0135559
726.240	0.0136300
726.318	0.0136954
726.396	0.0137180
726.474	0.0136609
726.552	0.0137200
726.630	0.0137615
726.708	0.0137993
726.787	0.0136912
726.865	0.0137347
726.943	0.0136305
727.021	0.0135168
727.099	0.0133987
727.177	0.0134509
727.255	0.0132827
727.333	0.0133027
727.412	0.0132816
727.490	0.0132626
727.568	0.0133428
727.646	0.0131718
727.724	0.0132778
727.802	0.0131731
727.880	0.0131319
727.958	0.0131628
728.037	0.0133366
728.115	0.0132571
728.193	0.0133253
728.271	0.0132792
728.349	0.0131521
728.427	0.0132645
728.505	0.0133308
728.583	0.0133965
728.662	0.0132276
728.740	0.0134726
728.818	0.0135139
728.896	0.0135645
728.974	0.0133999
729.052	0.0133146
729.130	0.0134382
729.208	0.0134090
729.287	0.0134454
729.365	0.0134016
729.443	0.0135204
729.521	0.0133905
729.599	0.0135244
729.677	0.0136065
729.755	0.0133976
729.833	0.0134573
729.912	0.0135349
729.990	0.0135748
730.068	0.0136532
730.146	0.0136057
730.224	0.0136986
730.302	0.0136613
730.380	0.0135643
730.458	0.0137404
730.537	0.0137670
730.615	0.0136516
730.693	0.0136245
730.771	0.0138103
730.849	0.0137578
730.927	0.0135573
731.005	0.0135421
731.083	0.0135128
731.162	0.0136690
731.240	0.0136232
731.318	0.0136255
731.396	0.0136158
731.474	0.0137720
731.552	0.0138308
731.630	0.0137124
731.708	0.0137312
731.787	0.0136667
731.865	0.0136462
731.943	0.0136916
732.021	0.0137071
732.099	0.0135252
732.177	0.0135316
732.255	0.0133439
732.333	0.0134599
732.412	0.0134612
732.490	0.0134708
732.568	0.0134232
732.646	0.0134376
732.724	0.0135063
732.802	0.0133810
732.880	0.0136205
732.958	0.0135818
733.037	0.0135939
733.115	0.0136308
733.193	0.0136688
733.271	0.0136742
733.349	0.0137251
733.427	0.0136768
733.505	0.0137192
733.583	0.0137189
733.662	0.0135799
733.740	0.0136046
733.818	0.0134582
733.896	0.0134392
733.974	0.0133913
734.052	0.0133321
734.130	0.0133601
734.208	0.0132725
734.287	0.0133038
734.365	0.0132465
734.443	0.0131681
734.521	0.0133217
734.599	0.0132665
734.677	0.0131085
734.755	0.0131965
734.833	0.0132161
734.912	0.0131169
734.990	0.0130761
735.068	0.0130598
735.146	0.0131638
735.224	0.0132230
735.302	0.0130818
735.380	0.0132076
735.458	0.0133440
735.537	0.0133674
735.615	0.0133619
735.693	0.0133405
735.771	0.0134754
735.849	0.0135367
735.927	0.0136746
736.005	0.0136563
736.083	0.0136972
736.162	0.0137823
736.240	0.0137682
736.318	0.0137997
736.396	0.0138686
736.474	0.0138943
736.552	0.0138615
736.630	0.0137778
736.708	0.0138229
736.787	0.0137466
736.865	0.0137935
736.943	0.0137533
737.021	0.0139275
737.099	0.0139240
737.177	0.0138784
737.255	0.0136681
737.333	0.0137529
737.412	0.0137590
737.490	0.0137103
737.568	0.0138260
737.646	0.0137418
737.724	0.0135555
737.802	0.0136989
737.880	0.0136475
737.958	0.0136698
738.037	0.0135741
738.115	0.0135410
738.193	0.0134053
738.271	0.0134307
738.349	0.0134178
738.427	0.0134090
738.505	0.0134902
738.583	0.0135106
738.662	0.0133600
738.740	0.0134063
738.818	0.0132957
738.896	0.0133111
738.974	0.0133512
739.052	0.0133656
739.130	0.0134289
739.208	0.0133041
739.287	0.0133163
739.365	0.0132059
739.443	0.0134051
739.521	0.0132900
739.599	0.0132303
739.677	0.0133759
739.755	0.0133417
739.833	0.0133269
739.912	0.0133528
739.990	0.0134106
740.068	0.0133740
740.146	0.0135074
740.224	0.0134798
740.302	0.0135415
740.380	0.0134573
740.458	0.0135661
740.537	0.0135377
740.615	0.0134952
740.693	0.0135588
740.771	0.0135406
740.849	0.0135985
740.927	0.0134830
741.005	0.0135845
741.083	0.0136411
741.162	0.0135346
741.240	0.0137319
741.318	0.0136182
741.396	0.0135886
741.474	0.0136442
741.552	0.0136285
741.630	0.0135567
741.708	0.0136749
741.787	0.0135758
741.865	0.0135742
741.943	0.0135369
742.021	0.0135046
742.099	0.0134819
742.177	0.0134772
742.255	0.0132908
742.333	0.0134547
742.412	0.0135020
742.490	0.0134071
742.568	0.0134737
742.646	0.0133974
742.724	0.0134649
742.802	0.0133534
742.880	0.0135342
742.958	0.0136316
743.037	0.0135885
743.115	0.0135558
743.193	0.0135954
743.271	0.0136557
743.349	0.0137328
743.427	0.0137462
743.505	0.0137933
743.583	0.0137563
743.662	0.0138982
743.740	0.0139713
743.818	0.0139306
743.896	0.0139841
743.974	0.0138862
744.052	0.0138480
744.130	0.0139809
744.208	0.0137999
744.287	0.0137044
744.365	0.0135129
744.443	0.0136828
744.521	0.0134926
744.599	0.0135762
744.677	0.0135098
744.755	0.0133842
744.833	0.0133967
744.912	0.0132555
744.990	0.0131658
745.068	0.0132423
745.146	0.0130875
745.224	0.0131196
745.302	0.0131803
745.380	0.0130998
745.458	0.0131447
745.537	0.0131440
745.615	0.0132905
745.693	0.0133308
745.771	0.0132947
745.849	0.0133268
745.927	0.0133049
746.005	0.0134256
746.083	0.0135168
746.162	0.0135208
746.240	0.0135902
746.318	0.0135886
746.396	0.0136288
746.474	0.0136423
746.552	0.0135473
746.630	0.0135924
746.708	0.0135258
746.787	0.0134286
746.865	0.0134179
746.943	0.0135128
747.021	0.0133977
747.099	0.0133247
747.177	0.0132815
747.255	0.0133116
747.333	0.0134303
747.412	0.0134337
747.490	0.0133471
747.568	0.0132977
747.646	0.0132990
747.724	0.0133041
747.802	0.0132928
747.880	0.0134637
747.958	0.0133962
748.037	0.0134338
748.115	0.0135460
748.193	0.0135907
748.271	0.0134770
748.349	0.0135622
748.427	0.0135149
748.505	0.0135350
748.583	0.0135462
748.662	0.0137265
748.740	0.0136401
748.818	0.0137601
748.896	0.0137139
748.974	0.0137836
749.052	0.0137546
749.130	0.0136877
749.208	0.0137057
749.287	0.0138023
749.365	0.0137583
749.443	0.0137448
749.521	0.0137209
749.599	0.0137485
749.677	0.0137979
749.755	0.0138049
749.833	0.0137126
749.912	0.0135051
749.990	0.0137124
750.068	0.0136724
750.146	0.0137241
750.224	0.0136127
750.302	0.0135749
750.380	0.0135088
750.458	0.0133679
750.537	0.0134520
750.615	0.0134058
750.693	0.0134629
750.771	0.0135480
750.849	0.0135394
750.927	0.0132922
751.005	0.0132275
751.083	0.0131950
751.162	0.0131117
751.240	0.0131425
751.318	0.0131574
751.396	0.0132594
751.474	0.0132011
751.552	0.0131202
751.630	0.0131860
751.708	0.0132503
751.787	0.0132671
751.865	0.0132761
751.943	0.0133069
752.021	0.0133181
752.099	0.0133195
752.177	0.0133435
752.255	0.0133766
752.333	0.0132265
752.412	0.0132310
752.490	0.0134258
752.568	0.0133792
752.646	0.0133389
752.724	0.0134044
752.802	0.0134597
752.880	0.0133720
752.958	0.0135613
753.037	0.0134261
753.115	0.0134593
753.193	0.0135684
753.271	0.0133912
753.349	0.0135823
753.427	0.0135504
753.505	0.0135381
753.583	0.0135291
753.662	0.0135944
753.740	0.0134887
753.818	0.0135554
753.896	0.0135673
753.974	0.0135609
754.052	0.0135616
754.130	0.0137138
754.208	0.0135937
754.287	0.0136098
754.365	0.0134982
754.443	0.0134528
754.521	0.0135579
754.599	0.0135743
754.677	0.0136620
754.755	0.0133524
754.833	0.0135345
754.912	0.0136343
754.990	0.0134583
755.068	0.0135418
755.146	0.0134735
755.224	0.0135348
755.302	0.0135062
755.380	0.0135163
755.458	0.0134527
755.537	0.0134005
755.615	0.0135043
755.693	0.0133876
755.771	0.0134539
755.849	0.0134315
755.927	0.0135983
756.005	0.0135666
756.083	0.0135375
756.162	0.0135844
756.240	0.0135681
756.318	0.0134325
756.396	0.0135397
756.474	0.0134725
756.552	0.0134840
756.630	0.0135474
756.708	0.0135460
756.787	0.0135115
756.865	0.0133514
756.943	0.0133958
757.021	0.0133716
757.099	0.0133929
757.177	0.0133739
757.255	0.0134497
757.333	0.0133764
757.412	0.0133472
757.490	0.0132566
757.568	0.0133479
757.646	0.0132823
757.724	0.0133279
757.802	0.0132368
757.880	0.0133614
757.958	0.0134372
758.037	0.0133517
758.115	0.0133868
758.193	0.0133752
758.271	0.0134319
758.349	0.0134786
758.427	0.0134492
758.505	0.0134819
758.583	0.0135162
758.662	0.0135340
758.740	0.0135346
758.818	0.0137518
758.896	0.0137002
758.974	0.0134813
759.052	0.0135066
759.130	0.0137157
759.208	0.0138364
759.287	0.0137872
759.365	0.0136821
759.443	0.0137188
759.521	0.0136864
759.599	0.0136853
759.677	0.0136707
759.755	0.0137126
759.833	0.0136651
759.912	0.0135519
759.990	0.0135035
760.068	0.0136079
760.146	0.0136886
760.224	0.0135802
760.302	0.0134622
760.380	0.0134143
760.458	0.0134309
760.537	0.0132430
760.615	0.0132957
760.693	0.0133670
760.771	0.0133311
760.849	0.0132742
760.927	0.0131746
761.005	0.0132640
761.083	0.0132195
761.162	0.0133076
761.240	0.0134274
761.318	0.0132974
761.396	0.0134161
761.474	0.0132938
761.552	0.0133513
761.630	0.0134032
761.708	0.0135593
761.787	0.0134640
761.865	0.0135284
761.943	0.0135792
762.021	0.0134795
762.099	0.0135232
762.177	0.0134132
762.255	0.0134813
762.333	0.0136043
762.412	0.0135866
762.490	0.0135954
762.568	0.0135499
762.646	0.0136005
762.724	0.0136600
762.802	0.0136818
762.880	0.0137705
762.958	0.0137916
763.037	0.0137518
763.115	0.0136380
763.193	0.0138025
763.271	0.0138097
763.349	0.0138792
763.427	0.0139288
763.505	0.0136568
763.583	0.0134873
763.662	0.0135612
763.740	0.0136208
763.818	0.0136743
763.896	0.0136357
763.974	0.0134910
764.052	0.0134064
764.130	0.0134235
764.208	0.0132809
764.287	0.0133411
764.365	0.0131879
764.443	0.0131198
764.521	0.0129904
764.599	0.0129523
764.677	0.0129044
764.755	0.0129257
764.833	0.0129039
764.912	0.0129277
764.990	0.0128592
765.068	0.0129785
765.146	0.0130947
765.224	0.0131435
765.302	0.0130983
765.380	0.0132270
765.458	0.0132169
765.537	0.0134030
765.615	0.0134025
765.693	0.0133890
765.771	0.0135994
765.849	0.0136000
765.927	0.0135066
766.005	0.0136423
766.083	0.0137113
766.162	0.0135901
766.240	0.0136543
766.318	0.0137091
766.396	0.0136729
766.474	0.0136021
766.552	0.0135521
766.630	0.0136363
766.708	0.0136911
766.787	0.0135703
766.865	0.0136788
766.943	0.0134907
767.021	0.0134895
767.099	0.0136762
767.177	0.0136017
767.255	0.0135019
767.333	0.0135371
767.412	0.0135774
767.490	0.0136585
767.568	0.0135892
767.646	0.0135897
767.724	0.0136356
767.802	0.0137670
767.880	0.0135358
767.958	0.0135407
768.037	0.0135506
768.115	0.0135606
768.193	0.0135599
768.271	0.0136667
768.349	0.0135126
768.427	0.0135880
768.505	0.0135100
768.583	0.0135284
768.662	0.0135041
768.740	0.0135873
768.818	0.0135242
768.896	0.0134138
768.974	0.0134751
769.052	0.0134579
769.130	0.0134623
769.208	0.0135352
769.287	0.0135677
769.365	0.0135338
769.443	0.0134247
769.521	0.0135123
769.599	0.0136308
769.677	0.0135733
769.755	0.0134738
769.833	0.0135078
769.912	0.0135756
769.990	0.0134574
770.068	0.0134263
770.146	0.0133076
770.224	0.0133653
770.302	0.0133581
770.380	0.0133887
770.458	0.0132099
770.537	0.0133105
770.615	0.0131633
770.693	0.0131867
770.771	0.0131815
770.849	0.0131487
770.927	0.0131676
771.005	0.0132600
771.083	0.0132432
771.162	0.0133178
771.240	0.0133102
771.318	0.0133996
771.396	0.0134148
771.474	0.0134846
771.552	0.0134364
771.630	0.0135738
771.708	0.0134877
771.787	0.0137009
771.865	0.0135535
771.943	0.0137181
772.021	0.0137041
772.099	0.0138021
772.177	0.0138337
772.255	0.0136027
772.333	0.0137209
772.412	0.0136346
772.490	0.0137508
772.568	0.0138148
772.646	0.0136414
772.724	0.0137186
772.802	0.0135889
772.880	0.0136493
772.958	0.0135342
773.037	0.0135294
773.115	0.0135574
773.193	0.0135594
773.271	0.0135130
773.349	0.0135475
773.427	0.0133676
773.505	0.0133221
773.583	0.0135039
773.662	0.0133477
773.740	0.0133653
773.818	0.0133909
773.896	0.0133009
773.974	0.0135473
774.052	0.0134972
774.130	0.0133871
774.208	0.0133784
774.287	0.0134637
774.365	0.0135809
774.443	0.0135536
774.521	0.0134753
774.599	0.0135133
774.677	0.0134478
774.755	0.0136226
774.833	0.0136636
774.912	0.0134530
774.990	0.0134723
775.068	0.0134489
775.146	0.0134855
775.224	0.0134498
775.302	0.0133752
775.380	0.0134357
775.458	0.0133080
775.537	0.0132447
775.615	0.0132843
775.693	0.0133044
775.771	0.0133690
775.849	0.0134868
775.927	0.0133161
776.005	0.0134044
776.083	0.0133498
776.162	0.0133157
776.240	0.0132796
776.318	0.0133835
776.396	0.0134466
776.474	0.0134540
776.552	0.0134571
776.630	0.0135452
776.708	0.0136344
776.787	0.0136485
776.865	0.0135773
776.943	0.0134424
777.021	0.0134937
777.099	0.0136112
777.177	0.0135741
777.255	0.0134735
777.333	0.0135613
777.412	0.0134933
777.490	0.0137160
777.568	0.0136510
777.646	0.0136263
777.724	0.0135997
777.802	0.0135764
777.880	0.0136314
777.958	0.0134875
778.037	0.0135300
778.115	0.0135387
778.193	0.0135757
778.271	0.0135162
778.349	0.0135607
778.427	0.0135567
778.505	0.0134889
778.583	0.0133455
778.662	0.0134559
778.740	0.0134669
778.818	0.0133907
778.896	0.0132341
778.974	0.0133743
779.052	0.0133723
779.130	0.0133855
779.208	0.0133932
779.287	0.0135635
779.365	0.0133469
779.443	0.0133205
779.521	0.0133929
779.599	0.0133921
779.677	0.0134399
779.755	0.0134135
779.833	0.0133578
779.912	0.0133543
779.990	0.0134389
780.068	0.0135486
780.146	0.0136993
780.224	0.0137431
780.302	0.0134440
780.380	0.0135932
780.458	0.0134859
780.537	0.0137229
780.615	0.0137669
780.693	0.0135980
780.771	0.0134940
780.849	0.0135182
780.927	0.0133582
781.005	0.0135500
781.083	0.0136345
781.162	0.0135744
781.240	0.0134805
781.318	0.0135309
781.396	0.0135880
781.474	0.0135500
781.552	0.0135390
781.630	0.0136543
781.708	0.0137099
781.787	0.0133702
781.865	0.0134630
781.943	0.0137120
782.021	0.0136164
782.099	0.0136108
782.177	0.0135480
782.255	0.0136515
782.333	0.0137040
782.412	0.0135317
782.490	0.0135632
782.568	0.0135805
782.646	0.0135175
782.724	0.0135254
782.802	0.0136398
782.880	0.0135323
782.958	0.0135043
783.037	0.0135733
783.115	0.0135602
783.193	0.0136986
783.271	0.0135001
783.349	0.0135761
783.427	0.0134849
783.505	0.0135984
783.583	0.0136803
783.662	0.0135866
783.740	0.0134534
783.818	0.0134554
783.896	0.0134625
783.974	0.0135495
784.052	0.0134171
784.130	0.0133421
784.208	0.0136227
784.287	0.0133318
784.365	0.0133355
784.443	0.0132205
784.521	0.0134684
784.599	0.0133310
784.677	0.0131955
784.755	0.0133538
784.833	0.0133221
784.912	0.0134463
784.990	0.0131980
785.068	0.0133435
785.146	0.0134108
785.224	0.0134513
785.302	0.0132711
785.380	0.0133942
785.458	0.0135081
785.537	0.0134492
785.615	0.0134922
785.693	0.0133724
785.771	0.0134248
785.849	0.0134454
785.927	0.0134780
786.005	0.0134985
786.083	0.0134818
786.162	0.0136671
786.240	0.0134137
786.318	0.0135188
786.396	0.0135500
786.474	0.0134827
786.552	0.0134727
786.630	0.0134211
786.708	0.0135970
786.787	0.0135046
786.865	0.0133250
786.943	0.0133974
787.021	0.0135607
787.099	0.0134017
787.177	0.0134146
787.255	0.0132750
787.333	0.0133458
787.412	0.0134557
787.490	0.0134554
787.568	0.0132979
787.646	0.0134779
787.724	0.0132172
787.802	0.0133154
787.880	0.0135401
787.958	0.0133983
788.037	0.0133784
788.115	0.0134940
788.193	0.0134741
788.271	0.0134969
788.349	0.0135617
788.427	0.0134530
788.505	0.0135777
788.583	0.0135724
788.662	0.0134718
788.740	0.0136016
788.818	0.0135531
788.896	0.0136499
788.974	0.0136121
789.052	0.0135618
789.130	0.0135098
789.208	0.0134653
789.287	0.0135413
789.365	0.0135715
789.443	0.0136228
789.521	0.0136789
789.599	0.0136678
789.677	0.0136697
789.755	0.0137385
789.833	0.0135744
789.912	0.0135646
789.990	0.0133612
790.068	0.0135936
790.146	0.0134413
790.224	0.0134930
790.302	0.0134571
790.380	0.0134084
790.458	0.0133535
790.537	0.0133066
790.615	0.0133376
790.693	0.0133399
790.771	0.0134254
790.849	0.0133969
790.927	0.0133521
791.005	0.0133484
791.083	0.0133474
791.162	0.0133878
791.240	0.0135126
791.318	0.0134364
791.396	0.0136697
791.474	0.0134001
791.552	0.0135019
791.630	0.0135387
791.708	0.0135036
791.787	0.0136677
791.865	0.0135975
791.943	0.0136230
792.021	0.0136408
792.099	0.0135783
792.177	0.0135824
792.255	0.0136353
792.333	0.0135699
792.412	0.0136146
792.490	0.0137228
792.568	0.0136652
792.646	0.0136846
792.724	0.0136020
792.802	0.0136855
792.880	0.0134834
792.958	0.0134698
793.037	0.0135387
793.115	0.0134624
793.193	0.0134179
793.271	0.0134707
793.349	0.0135110
793.427	0.0136118
793.505	0.0134388
793.583	0.0134812
793.662	0.0136546
793.740	0.0134311
793.818	0.0134688
793.896	0.0136432
793.974	0.0134974
794.052	0.0134030
794.130	0.0134802
794.208	0.0134228
794.287	0.0134359
794.365	0.0133508
794.443	0.0134093
794.521	0.0134755
794.599	0.0133655
794.677	0.0133832
794.755	0.0132970
794.833	0.0133183
794.912	0.0133492
794.990	0.0134801
795.068	0.0133980
795.146	0.0132262
795.224	0.0133476
795.302	0.0134490
795.380	0.0134436
795.458	0.0135857
795.537	0.0133945
795.615	0.0134117
795.693	0.0133006
795.771	0.0133881
795.849	0.0134767
795.927	0.0134430
796.005	0.0135324
796.083	0.0134886
796.162	0.0135017
796.240	0.0133572
796.318	0.0135007
796.396	0.0134377
796.474	0.0133470
796.552	0.0135813
796.630	0.0135045
796.708	0.0133395
796.787	0.0132935
796.865	0.0132629
796.943	0.0132209
797.021	0.0133137
797.099	0.0132198
797.177	0.0132330
797.255	0.0132366
797.333	0.0130987
797.412	0.0133238
797.490	0.0131944
797.568	0.0131989
797.646	0.0132055
797.724	0.0133323
797.802	0.0131813
797.880	0.0132253
797.958	0.0133254
798.037	0.0131826
798.115	0.0132268
798.193	0.0134135
798.271	0.0133906
798.349	0.0132816
798.427	0.0132465
798.505	0.0134525
798.583	0.0135404
798.662	0.0134551
798.740	0.0134959
798.818	0.0136815
798.896	0.0134684
798.974	0.0136369
799.052	0.0136763
799.130	0.0136638
799.208	0.0135661
799.287	0.0136230
799.365	0.0136687
799.443	0.0136341
799.521	0.0136072
799.599	0.0137122
799.677	0.0138020
799.755	0.0137186
799.833	0.0138494
799.912	0.0136707
799.990	0.0138017
800.068	0.0137167
800.146	0.0138360
800.224	0.0137818
800.302	0.0139262
800.380	0.0137380
800.458	0.0139355
800.537	0.0138235
800.615	0.0137171
800.693	0.0139574
800.771	0.0136996
800.849	0.0137639
800.927	0.0137994
801.005	0.0137574
801.083	0.0135529
801.162	0.0135880
801.240	0.0135903
801.318	0.0136665
801.396	0.0134646
801.474	0.0134708
801.552	0.0135052
801.630	0.0133739
801.708	0.0132683
801.787	0.0133097
801.865	0.0133660
801.943	0.0133557
802.021	0.0133303
802.099	0.0132568
802.177	0.0134810
802.255	0.0132437
802.333	0.0132216
802.412	0.0132887
802.490	0.0132938
802.568	0.0133125
802.646	0.0133154
802.724	0.0134224
802.802	0.0133546
802.880	0.0132494
802.958	0.0133665
803.037	0.0132700
803.115	0.0135302
803.193	0.0134869
803.271	0.0133858
803.349	0.0134224
803.427	0.0135789
803.505	0.0135123
803.583	0.0134081
803.662	0.0135405
803.740	0.0136593
803.818	0.0136293
803.896	0.0133734
803.974	0.0135068
804.052	0.0135409
804.130	0.0137002
804.208	0.0136340
804.287	0.0136100
804.365	0.0136179
804.443	0.0136301
804.521	0.0136873
804.599	0.0135756
804.677	0.0135429
804.755	0.0136014
804.833	0.0136075
804.912	0.0136549
804.990	0.0136127
805.068	0.0135484
805.146	0.0136275
805.224	0.0134739
805.302	0.0134627
805.380	0.0135817
805.458	0.0135317
805.537	0.0132675
805.615	0.0134258
805.693	0.0133970
805.771	0.0135109
805.849	0.0133816
805.927	0.0135399
806.005	0.0132494
806.083	0.0133599
806.162	0.0133492
806.240	0.0133323
806.318	0.0133380
806.396	0.0133671
806.474	0.0134812
806.552	0.0134832
806.630	0.0135626
806.708	0.0134777
806.787	0.0135055
806.865	0.0134943
806.943	0.0134265
807.021	0.0134706
807.099	0.0135838
807.177	0.0135857
807.255	0.0135047
807.333	0.0135251
807.412	0.0135379
807.490	0.0134871
807.568	0.0135113
807.646	0.0135885
807.724	0.0134286
807.802	0.0134033
807.880	0.0133905
807.958	0.0133881
808.037	0.0134494
808.115	0.0134956
808.193	0.0133840
808.271	0.0133041
808.349	0.0133983
808.427	0.0135043
808.505	0.0132953
808.583	0.0135011
808.662	0.0135574
808.740	0.0133468
808.818	0.0135305
808.896	0.0134693
808.974	0.0133321
809.052	0.0135057
809.130	0.0135605
809.208	0.0134036
809.287	0.0136248
809.365	0.0136930
809.443	0.0135865
809.521	0.0137306
809.599	0.0135357
809.677	0.0137412
809.755	0.0136359
809.833	0.0135168
809.912	0.0138542
809.990	0.0136954
810.068	0.0134902
810.146	0.0136332
810.224	0.0136024
810.302	0.0136086
810.380	0.0136629
810.458	0.0134939
810.537	0.0134510
810.615	0.0136152
810.693	0.0136803
810.771	0.0134666
810.849	0.0134531
810.927	0.0135075
811.005	0.0135012
811.083	0.0134882
811.162	0.0136000
811.240	0.0135201
811.318	0.0136319
811.396	0.0134343
811.474	0.0134612
811.552	0.0134779
811.630	0.0135702
811.708	0.0133945
811.787	0.0134092
811.865	0.0135976
811.943	0.0136021
812.021	0.0134987
812.099	0.0135032
812.177	0.0133768
812.255	0.0134183
812.333	0.0134149
812.412	0.0134184
812.490	0.0134373
812.568	0.0133644
812.646	0.0134135
812.724	0.0134018
812.802	0.0133362
812.880	0.0134794
812.958	0.0133885
813.037	0.0132762
813.115	0.0132457
813.193	0.0134155
813.271	0.0134328
813.349	0.0134406
813.427	0.0134039
813.505	0.0134305
813.583	0.0134543
813.662	0.0134681
813.740	0.0133870
813.818	0.0133383
813.896	0.0134226
813.974	0.0135172
814.052	0.0133187
814.130	0.0134554
814.208	0.0135103
814.287	0.0134382
814.365	0.0134701
814.443	0.0135647
814.521	0.0133898
814.599	0.0134755
814.677	0.0135634
814.755	0.0135387
814.833	0.0135704
814.912	0.0136671
814.990	0.0134837
815.068	0.0133035
815.146	0.0135670
815.224	0.0136787
815.302	0.0136026
815.380	0.0133890
815.458	0.0136494
815.537	0.0134048
815.615	0.0133721
815.693	0.0135055
815.771	0.0135498
815.849	0.0133195
815.927	0.0135287
816.005	0.0135104
816.083	0.0133926
816.162	0.0135416
816.240	0.0135260
816.318	0.0135981
816.396	0.0135109
816.474	0.0135056
816.552	0.0135045
816.630	0.0135713
816.708	0.0136183
816.787	0.0136257
816.865	0.0134918
816.943	0.0135750
817.021	0.0135125
817.099	0.0134886
817.177	0.0134735
817.255	0.0135707
817.333	0.0134118
817.412	0.0134758
817.490	0.0135220
817.568	0.0135587
817.646	0.0134721
817.724	0.0134628
817.802	0.0135460
817.880	0.0133925
817.958	0.0133668
818.037	0.0134235
818.115	0.0134687
818.193	0.0134638
818.271	0.0133379
818.349	0.0134999
818.427	0.0134146
818.505	0.0134882
818.583	0.0134687
818.662	0.0133907
818.740	0.0134566
818.818	0.0135796
818.896	0.0135355
818.974	0.0134082
819.052	0.0135012
819.130	0.0136033
819.208	0.0134042
819.287	0.0132248
819.365	0.0133527
819.443	0.0134703
819.521	0.0132775
819.599	0.0134132
819.677	0.0135807
819.755	0.0133081
819.833	0.0133215
819.912	0.0134246
819.990	0.0131822
820.068	0.0132478
820.146	0.0132769
820.224	0.0132682
820.302	0.0130622
820.380	0.0130887
820.458	0.0133155
820.537	0.0131838
820.615	0.0133292
820.693	0.0132117
820.771	0.0133170
820.849	0.0132787
820.927	0.0132144
821.005	0.0133562
821.083	0.0134034
821.162	0.0134133
821.240	0.0134812
821.318	0.0134857
821.396	0.0135186
821.474	0.0134741
821.552	0.0135783
821.630	0.0136307
821.708	0.0136389
821.787	0.0137196
821.865	0.0138033
821.943	0.0135397
822.021	0.0136362
822.099	0.0137405
822.177	0.0138152
822.255	0.0137418
822.333	0.0134989
822.412	0.0137613
822.490	0.0137356
822.568	0.0135400
822.646	0.0135531
822.724	0.0137009
822.802	0.0136658
822.880	0.0135279
822.958	0.0136546
823.037	0.0135466
823.115	0.0134240
823.193	0.0135637
823.271	0.0135385
823.349	0.0135787
823.427	0.0134077
823.505	0.0134895
823.583	0.0134840
823.662	0.0134064
823.740	0.0134385
823.818	0.0133115
823.896	0.0133174
823.974	0.0132290
824.052	0.0132651
824.130	0.0132368
824.208	0.0132403
824.287	0.0132821
824.365	0.0132494
824.443	0.0131817
824.521	0.0131406
824.599	0.0132916
824.677	0.0131293
824.755	0.0132777
824.833	0.0132211
824.912	0.0131406
824.990	0.0134228
825.068	0.0133431
825.146	0.0132565
825.224	0.0134696
825.302	0.0132993
825.380	0.0132828
825.458	0.0132121
825.537	0.0132760
825.615	0.0133549
825.693	0.0133661
825.771	0.0133660
825.849	0.0134140
825.927	0.0133331
826.005	0.0132972
826.083	0.0134294
826.162	0.0134749
826.240	0.0134480
826.318	0.0135562
826.396	0.0136851
826.474	0.0134941
826.552	0.0135169
826.630	0.0136186
826.708	0.0135591
826.787	0.0135201
826.865	0.0136729
826.943	0.0135050
827.021	0.0135453
827.099	0.0135284
827.177	0.0137638
827.255	0.0136105
827.333	0.0135386
827.412	0.0135072
827.490	0.0135246
827.568	0.0134003
827.646	0.0137635
827.724	0.0135941
827.802	0.0135615
827.880	0.0134821
827.958	0.0135876
828.037	0.0134959
828.115	0.0135307
828.193	0.0134254
828.271	0.0135189
828.349	0.0135432
828.427	0.0133491
828.505	0.0133710
828.583	0.0133914
828.662	0.0134917
828.740	0.0133901
828.818	0.0134032
828.896	0.0132401
828.974	0.0133154
829.052	0.0134285
829.130	0.0134250
829.208	0.0134374
829.287	0.0134482
829.365	0.0134493
829.443	0.0133569
829.521	0.0134579
829.599	0.0134578
829.677	0.0135531
829.755	0.0134801
829.833	0.0134595
829.912	0.0135807
829.990	0.0135180
830.068	0.0137254
830.146	0.0135996
830.224	0.0135439
830.302	0.0135103
830.380	0.0134898
830.458	0.0136214
830.537	0.0136693
830.615	0.0136429
830.693	0.0135590
830.771	0.0136309
830.849	0.0136835
830.927	0.0135527
831.005	0.0136221
831.083	0.0135227
831.162	0.0136289
831.240	0.0137128
831.318	0.0136604
831.396	0.0135652
831.474	0.0136040
831.552	0.0136601
831.630	0.0135886
831.708	0.0135637
831.787	0.0137076
831.865	0.0138036
831.943	0.0136650
832.021	0.0137198
832.099	0.0137125
832.177	0.0136980
832.255	0.0136478
832.333	0.0136737
832.412	0.0135857
832.490	0.0137212
832.568	0.0137212
832.646	0.0136002
832.724	0.0135163
832.802	0.0135685
832.880	0.0135574
832.958	0.0135965
833.037	0.0134545
833.115	0.0134748
833.193	0.0135466
833.271	0.0134170
833.349	0.0134704
833.427	0.0136110
833.505	0.0135074
833.583	0.0133428
833.662	0.0133665
833.740	0.0133964
833.818	0.0134508
833.896	0.0133372
833.974	0.0133803
834.052	0.0133846
834.130	0.0134692
834.208	0.0133282
834.287	0.0133221
834.365	0.0134081
834.443	0.0133172
834.521	0.0133337
834.599	0.0133818
834.677	0.0133045
834.755	0.0133254
834.833	0.0133840
834.912	0.0134119
834.990	0.0133739
835.068	0.0132110
835.146	0.0133395
835.224	0.0134127
835.302	0.0133469
835.380	0.0135743
835.458	0.0135062
835.537	0.0134428
835.615	0.0134106
835.693	0.0135854
835.771	0.0135236
835.849	0.0134611
835.927	0.0135438
836.005	0.0135242
836.083	0.0135556
836.162	0.0134501
836.240	0.0135305
836.318	0.0133334
836.396	0.0132861
836.474	0.0134455
836.552	0.0135668
836.630	0.0136114
836.708	0.0135248
836.787	0.0134209
836.865	0.0135251
836.943	0.0135653
837.021	0.0136662
837.099	0.0135482
837.177	0.0136310
837.255	0.0137349
837.333	0.0136591
837.412	0.0136394
837.490	0.0137427
837.568	0.0136649
837.646	0.0136132
837.724	0.0136434
837.802	0.0136362
837.880	0.0134750
837.958	0.0135487
838.037	0.0136360
838.115	0.0135912
838.193	0.0134986
838.271	0.0133860
838.349	0.0135101
838.427	0.0134547
838.505	0.0134003
838.583	0.0135362
838.662	0.0134482
838.740	0.0134389
838.818	0.0134724
838.896	0.0134617
838.974	0.0133530
839.052	0.0134644
839.130	0.0134792
839.208	0.0134856
839.287	0.0135037
839.365	0.0134992
839.443	0.0133074
839.521	0.0134657
839.599	0.0133899
839.677	0.0134196
839.755	0.0134725
839.833	0.0133102
839.912	0.0133942
839.990	0.0135701
840.068	0.0134865
840.146	0.0136059
840.224	0.0136097
840.302	0.0133720
840.380	0.0134414
840.458	0.0135868
840.537	0.0136505
840.615	0.0136819
840.693	0.0135667
840.771	0.0136230
840.849	0.0137157
840.927	0.0136522
841.005	0.0135274
841.083	0.0137232
841.162	0.0136102
841.240	0.0138017
841.318	0.0136862
841.396	0.0135247
841.474	0.0135961
841.552	0.0135493
841.630	0.0135510
841.708	0.0135890
841.787	0.0135686
841.865	0.0136063
841.943	0.0137275
842.021	0.0135697
842.099	0.0134401
842.177	0.0136942
842.255	0.0136996
842.333	0.0136063
842.412	0.0136131
842.490	0.0136075
842.568	0.0136912
842.646	0.0137675
842.724	0.0137009
842.802	0.0136165
842.880	0.0137963
842.958	0.0138113
843.037	0.0136376
843.115	0.0136053
843.193	0.0136173
843.271	0.0136245
843.349	0.0134671
843.427	0.0135244
843.505	0.0134375
843.583	0.0134682
843.662	0.0134511
843.740	0.0134187
843.818	0.0135667
843.896	0.0133781
843.974	0.0133859
844.052	0.0134518
844.130	0.0135316
844.208	0.0134579
844.287	0.0134027
844.365	0.0132841
844.443	0.0134232
844.521	0.0134258
844.599	0.0134081
844.677	0.0133882
844.755	0.0135143
844.833	0.0135426
844.912	0.0134377
844.990	0.0135483
845.068	0.0134879
845.146	0.0134744
845.224	0.0134935
845.302	0.0134715
845.380	0.0133875
845.458	0.0134416
845.537	0.0135686
845.615	0.0134300
845.693	0.0134343
845.771	0.0135274
845.849	0.0135445
845.927	0.0135579
846.005	0.0135170
846.083	0.0134714
846.162	0.0134117
846.240	0.0134880
846.318	0.0134760
846.396	0.0136448
846.474	0.0134562
846.552	0.0134764
846.630	0.0137039
846.708	0.0136571
846.787	0.0135385
846.865	0.0136804
846.943	0.0134792
847.021	0.0135860
847.099	0.0136200
847.177	0.0136948
847.255	0.0135976
847.333	0.0136196
847.412	0.0136607
847.490	0.0135724
847.568	0.0136804
847.646	0.0134874
847.724	0.0135610
847.802	0.0135869
847.880	0.0135225
847.958	0.0135847
848.037	0.0134515
848.115	0.0134962
848.193	0.0135560
848.271	0.0136343
848.349	0.0135522
848.427	0.0133504
848.505	0.0134279
848.583	0.0133578
848.662	0.0135458
848.740	0.0135108
848.818	0.0135247
848.896	0.0135146
848.974	0.0133973
849.052	0.0135042
849.130	0.0133624
849.208	0.0135069
849.287	0.0134182
849.365	0.0133807
849.443	0.0133817
849.521	0.0135148
849.599	0.0134132
849.677	0.0132770
849.755	0.0134267
849.833	0.0133685
849.912	0.0133913
849.990	0.0134371
850.068	0.0134586
850.146	0.0134017
850.224	0.0133595
850.302	0.0134606
850.380	0.0134120
850.458	0.0134475
850.537	0.0134789
850.615	0.0134187
850.693	0.0135258
850.771	0.0136844
850.849	0.0135957
850.927	0.0136150
851.005	0.0136292
851.083	0.0136674
851.162	0.0136584
851.240	0.0135887
851.318	0.0136385
851.396	0.0137563
851.474	0.0136974
851.552	0.0135947
851.630	0.0136334
851.708	0.0136732
851.787	0.0135035
851.865	0.0136189
851.943	0.0136110
852.021	0.0136291
852.099	0.0135874
852.177	0.0134940
852.255	0.0136594
852.333	0.0134594
852.412	0.0136002
852.490	0.0137140
852.568	0.0135929
852.646	0.0134441
852.724	0.0136154
852.802	0.0135189
852.880	0.0134658
852.958	0.0135030
853.037	0.0135234
853.115	0.0136733
853.193	0.0136738
853.271	0.0135305
853.349	0.0134817
853.427	0.0135250
853.505	0.0136662
853.583	0.0135897
853.662	0.0136894
853.740	0.0134917
853.818	0.0136250
853.896	0.0136986
853.974	0.0135519
854.052	0.0135394
854.130	0.0135675
854.208	0.0135303
854.287	0.0135308
854.365	0.0134125
854.443	0.0135014
854.521	0.0134025
854.599	0.0135899
854.677	0.0134333
854.755	0.0134291
854.833	0.0135181
854.912	0.0135513
854.990	0.0135972
855.068	0.0135027
855.146	0.0133537
855.224	0.0133532
855.302	0.0135403
855.380	0.0133894
855.458	0.0135836
855.537	0.0135046
855.615	0.0136402
855.693	0.0136151
855.771	0.0136423
855.849	0.0136456
855.927	0.0136384
856.005	0.0136291
856.083	0.0137408
856.162	0.0136925
856.240	0.0136913
856.318	0.0135992
856.396	0.0136012
856.474	0.0134808
856.552	0.0135284
856.630	0.0133525
856.708	0.0133439
856.787	0.0135080
856.865	0.0133932
856.943	0.0133427
857.021	0.0133226
857.099	0.0133530
857.177	0.0133459
857.255	0.0133824
857.333	0.0134738
857.412	0.0135265
857.490	0.0134738
857.568	0.0134897
857.646	0.0136446
857.724	0.0134631
857.802	0.0134109
857.880	0.0135052
857.958	0.0135104
858.037	0.0134869
858.115	0.0134170
858.193	0.0135844
858.271	0.0133766
858.349	0.0134320
858.427	0.0134528
858.505	0.0135135
858.583	0.0134393
858.662	0.0135529
858.740	0.0135175
858.818	0.0134610
858.896	0.0136259
858.974	0.0135622
859.052	0.0134676
859.130	0.0135733
859.208	0.0136076
859.287	0.0134705
859.365	0.0134405
859.443	0.0134583
859.521	0.0135362
859.599	0.0136215
859.677	0.0135870
859.755	0.0135860
859.833	0.0135981
859.912	0.0136928
859.990	0.0136221
860.068	0.0136549
860.146	0.0136339
860.224	0.0135021
860.302	0.0135698
860.380	0.0136823
860.458	0.0135665
860.537	0.0133798
860.615	0.0134241
860.693	0.0135361
860.771	0.0134455
860.849	0.0133751
860.927	0.0134632
861.005	0.0134782
861.083	0.0133223
861.162	0.0134390
861.240	0.0134822
861.318	0.0134239
861.396	0.0133022
861.474	0.0134843
861.552	0.0135403
861.630	0.0134986
861.708	0.0134930
861.787	0.0137057
861.865	0.0135098
861.943	0.0136084
862.021	0.0136040
862.099	0.0137746
862.177	0.0136317
862.255	0.0137214
862.333	0.0136012
862.412	0.0135735
862.490	0.0137699
862.568	0.0137108
862.646	0.0136980
862.724	0.0136645
862.802	0.0135206
862.880	0.0135461
862.958	0.0137109
863.037	0.0136925
863.115	0.0136241
863.193	0.0135417
863.271	0.0137871
863.349	0.0135631
863.427	0.0135390
863.505	0.0136427
863.583	0.0135950
863.662	0.0135253
863.740	0.0136276
863.818	0.0136474
863.896	0.0135604
863.974	0.0135913
864.052	0.0136016
864.130	0.0134329
864.208	0.0135875
864.287	0.0135207
864.365	0.0133889
864.443	0.0134676
864.521	0.0135416
864.599	0.0136319
864.677	0.0133754
864.755	0.0133900
864.833	0.0134261
864.912	0.0134270
864.990	0.0135983
865.068	0.0135879
865.146	0.0135741
865.224	0.0134189
865.302	0.0136430
865.380	0.0136012
865.458	0.0134444
865.537	0.0133895
865.615	0.0136009
865.693	0.0136729
865.771	0.0134502
865.849	0.0134448
865.927	0.0135397
866.005	0.0134425
866.083	0.0134701
866.162	0.0135597
866.240	0.0134927
866.318	0.0134066
866.396	0.0134284
866.474	0.0135372
866.552	0.0134813
866.630	0.0136454
866.708	0.0137273
866.787	0.0135711
866.865	0.0136571
866.943	0.0136665
867.021	0.0134930
867.099	0.0135176
867.177	0.0136160
867.255	0.0137090
867.333	0.0136330
867.412	0.0136248
867.490	0.0136301
867.568	0.0136213
867.646	0.0134988
867.724	0.0136596
867.802	0.0134635
867.880	0.0134902
867.958	0.0133971
868.037	0.0134084
868.115	0.0134795
868.193	0.0135300
868.271	0.0134692
868.349	0.0134469
868.427	0.0135273
868.505	0.0135446
868.583	0.0136581
868.662	0.0134994
868.740	0.0135355
868.818	0.0134588
868.896	0.0135957
868.974	0.0135695
869.052	0.0134822
869.130	0.0136212
869.208	0.0136253
869.287	0.0136810
869.365	0.0136482
869.443	0.0136233
869.521	0.0136029
869.599	0.0135810
869.677	0.0136411
869.755	0.0136100
869.833	0.0135312
869.912	0.0135656
869.990	0.0135315
870.068	0.0135352
870.146	0.0135775
870.224	0.0135816
870.302	0.0137023
870.380	0.0134574
870.458	0.0135024
870.537	0.0135960
870.615	0.0135564
870.693	0.0135288
870.771	0.0135622
870.849	0.0134574
870.927	0.0135412
871.005	0.0135200
871.083	0.0135933
871.162	0.0135152
871.240	0.0136530
871.318	0.0133535
871.396	0.0133334
871.474	0.0134701
871.552	0.0135583
871.630	0.0134531
871.708	0.0133942
871.787	0.0134155
871.865	0.0133620
871.943	0.0134958
872.021	0.0134107
872.099	0.0134254
872.177	0.0134066
872.255	0.0134649
872.333	0.0135130
872.412	0.0132180
872.490	0.0133969
872.568	0.0133140
872.646	0.0133582
872.724	0.0133765
872.802	0.0133643
872.880	0.0133151
872.958	0.0134379
873.037	0.0134021
873.115	0.0133224
873.193	0.0134554
873.271	0.0134702
873.349	0.0135497
873.427	0.0135667
873.505	0.0133495
873.583	0.0134297
873.662	0.0133831
873.740	0.0134221
873.818	0.0133877
873.896	0.0134238
873.974	0.0134721
874.052	0.0134558
874.130	0.0136218
874.208	0.0133525
874.287	0.0133681
874.365	0.0134858
874.443	0.0134522
874.521	0.0135822
874.599	0.0135670
874.677	0.0136378
874.755	0.0134803
874.833	0.0135825
874.912	0.0135831
874.990	0.0135493
875.068	0.0135386
875.146	0.0135118
875.224	0.0135271
875.302	0.0135606
875.380	0.0135528
875.458	0.0134530
875.537	0.0134003
875.615	0.0134202
875.693	0.0132941
875.771	0.0132811
875.849	0.0134327
875.927	0.0133467
876.005	0.0133780
876.083	0.0134897
876.162	0.0134127
876.240	0.0135365
876.318	0.0135692
876.396	0.0135035
876.474	0.0136036
876.552	0.0135099
876.630	0.0135378
876.708	0.0135016
876.787	0.0135123
876.865	0.0134992
876.943	0.0134776
877.021	0.0133296
877.099	0.0133629
877.177	0.0133662
877.255	0.0133105
877.333	0.0133109
877.412	0.0133372
877.490	0.0133804
877.568	0.0134115
877.646	0.0133701
877.724	0.0134843
877.802	0.0134466
877.880	0.0135509
877.958	0.0135481
878.037	0.0135171
878.115	0.0135590
878.193	0.0135264
878.271	0.0135516
878.349	0.0137019
878.427	0.0136714
878.505	0.0135516
878.583	0.0134524
878.662	0.0135234
878.740	0.0134897
878.818	0.0134544
878.896	0.0133801
878.974	0.0133089
879.052	0.0133983
879.130	0.0134581
879.208	0.0134261
879.287	0.0133766
879.365	0.0134966
879.443	0.0135714
879.521	0.0135678
879.599	0.0135446
879.677	0.0136285
879.755	0.0135660
879.833	0.0136658
879.912	0.0135658
879.990	0.0135072
880.068	0.0135895
880.146	0.0133041
880.224	0.0134705
880.302	0.0134695
880.380	0.0135797
880.458	0.0133694
880.537	0.0134743
880.615	0.0134443
880.693	0.0134799
880.771	0.0134345
880.849	0.0135300
880.927	0.0134452
881.005	0.0135127
881.083	0.0136536
881.162	0.0134293
881.240	0.0135234
881.318	0.0136739
881.396	0.0135616
881.474	0.0136704
881.552	0.0136620
881.630	0.0136764
881.708	0.0136801
881.787	0.0134674
881.865	0.0135809
881.943	0.0135561
882.021	0.0136116
882.099	0.0133935
882.177	0.0132392
882.255	0.0134821
882.333	0.0133630
882.412	0.0135027
882.490	0.0133438
882.568	0.0134108
882.646	0.0133974
882.724	0.0134667
882.802	0.0134065
882.880	0.0134499
882.958	0.0134341
883.037	0.0134796
883.115	0.0135552
883.193	0.0134908
883.271	0.0135503
883.349	0.0134756
883.427	0.0133321
883.505	0.0134481
883.583	0.0136930
883.662	0.0136351
883.740	0.0134643
883.818	0.0134380
883.896	0.0134174
883.974	0.0135275
884.052	0.0135121
884.130	0.0135889
884.208	0.0136356
884.287	0.0133759
884.365	0.0133733
884.443	0.0134647
884.521	0.0134444
884.599	0.0134209
884.677	0.0134057
884.755	0.0134190
884.833	0.0134624
884.912	0.0137025
884.990	0.0135223
885.068	0.0133915
885.146	0.0134290
885.224	0.0135284
885.302	0.0134105
885.380	0.0133872
885.458	0.0134634
885.537	0.0135320
885.615	0.0134035
885.693	0.0133697
885.771	0.0134506
885.849	0.0134123
885.927	0.0134750
886.005	0.0134525
886.083	0.0133244
886.162	0.0136394
886.240	0.0135518
886.318	0.0134412
886.396	0.0134863
886.474	0.0137375
886.552	0.0134447
886.630	0.0135476
886.708	0.0134666
886.787	0.0135072
886.865	0.0137284
886.943	0.0134651
887.021	0.0135464
887.099	0.0134949
887.177	0.0135025
887.255	0.0135110
887.333	0.0135746
887.412	0.0135796
887.490	0.0136234
887.568	0.0135316
887.646	0.0133709
887.724	0.0134801
887.802	0.0136335
887.880	0.0135333
887.958	0.0134802
888.037	0.0135091
888.115	0.0135361
888.193	0.0135905
888.271	0.0136829
888.349	0.0135726
888.427	0.0135395
888.505	0.0135550
888.583	0.0136823
888.662	0.0135565
888.740	0.0135353
888.818	0.0134951
888.896	0.0134829
888.974	0.0135609
889.052	0.0134003
889.130	0.0133582
889.208	0.0134075
889.287	0.0133494
889.365	0.0133813
889.443	0.0133252
889.521	0.0133290
889.599	0.0131379
889.677	0.0130370
889.755	0.0132547
889.833	0.0133002
889.912	0.0134229
889.990	0.0133119
890.068	0.0135023
890.146	0.0135333
890.224	0.0135622
890.302	0.0134538
890.380	0.0135498
890.458	0.0135771
890.537	0.0136171
890.615	0.0135340
890.693	0.0134747
890.771	0.0135986
890.849	0.0134749
890.927	0.0135818
891.005	0.0136377
891.083	0.0134871
891.162	0.0134534
891.240	0.0136419
891.318	0.0136452
891.396	0.0135214
891.474	0.0135715
891.552	0.0135776
891.630	0.0135509
891.708	0.0135113
891.787	0.0135089
891.865	0.0137162
891.943	0.0135235
892.021	0.0134938
892.099	0.0134838
892.177	0.0133941
892.255	0.0133724
892.333	0.0133962
892.412	0.0132700
892.490	0.0132957
892.568	0.0134344
892.646	0.0134669
892.724	0.0133972
892.802	0.0134341
892.880	0.0133564
892.958	0.0133958
893.037	0.0134463
893.115	0.0134832
893.193	0.0134774
893.271	0.0135394
893.349	0.0133231
893.427	0.0134365
893.505	0.0134819
893.583	0.0133094
893.662	0.0133999
893.740	0.0134995
893.818	0.0134241
893.896	0.0134805
893.974	0.0133205
894.052	0.0135245
894.130	0.0134714
894.208	0.0135374
894.287	0.0134907
894.365	0.0135620
894.443	0.0135152
894.521	0.0136131
894.599	0.0136156
894.677	0.0136361
894.755	0.0137868
894.833	0.0137390
894.912	0.0137688
894.990	0.0137360
895.068	0.0136786
895.146	0.0135087
895.224	0.0136597
895.302	0.0136946
895.380	0.0136523
895.458	0.0136458
895.537	0.0136082
895.615	0.0137511
895.693	0.0136116
895.771	0.0134263
895.849	0.0135571
895.927	0.0136720
896.005	0.0135558
896.083	0.0136623
896.162	0.0135890
896.240	0.0136279
896.318	0.0135731
896.396	0.0136349
896.474	0.0136619
896.552	0.0136509
896.630	0.0133999
896.708	0.0134817
896.787	0.0134373
896.865	0.0134763
896.943	0.0132360
897.021	0.0131229
897.099	0.0133223
897.177	0.0130729
897.255	0.0132047
897.333	0.0132041
897.412	0.0132002
897.490	0.0131223
897.568	0.0131907
897.646	0.0132200
897.724	0.0131557
897.802	0.0131895
897.880	0.0132362
897.958	0.0133791
898.037	0.0132841
898.115	0.0133366
898.193	0.0133156
898.271	0.0135031
898.349	0.0133416
898.427	0.0133609
898.505	0.0132085
898.583	0.0131618
898.662	0.0132640
898.740	0.0132603
898.818	0.0132760
898.896	0.0132764
898.974	0.0132249
899.052	0.0133383
899.130	0.0133376
899.208	0.0132447
899.287	0.0132066
899.365	0.0132198
899.443	0.0132174
899.521	0.0134023
899.599	0.0132867
899.677	0.0133593
899.755	0.0133247
899.833	0.0132908
899.912	0.0135229
899.990	0.0133716
900.068	0.0134422
900.146	0.0135081
900.224	0.0134538
900.302	0.0133680
900.380	0.0134989
900.458	0.0134602
900.537	0.0135258
900.615	0.0134930
900.693	0.0134505
900.771	0.0135156
900.849	0.0134728
900.927	0.0134123
901.005	0.0135551
901.083	0.0134829
901.162	0.0134542
901.240	0.0134636
901.318	0.0134081
901.396	0.0133835
901.474	0.0133537
901.552	0.0133530
901.630	0.0134885
901.708	0.0133456
901.787	0.0134078
901.865	0.0134518
901.943	0.0133875
902.021	0.0134309
902.099	0.0134633
902.177	0.0134810
902.255	0.0135419
902.333	0.0134244
902.412	0.0134155
902.490	0.0134675
902.568	0.0135430
902.646	0.0135827
902.724	0.0137188
902.802	0.0134938
902.880	0.0136118
902.958	0.0135663
903.037	0.0134830
903.115	0.0134782
903.193	0.0135350
903.271	0.0134491
903.349	0.0134769
903.427	0.0135540
903.505	0.0136551
903.583	0.0135512
903.662	0.0135074
903.740	0.0136117
903.818	0.0135818
903.896	0.0134021
903.974	0.0134757
904.052	0.0134063
904.130	0.0135645
904.208	0.0135620
904.287	0.0134153
904.365	0.0133996
904.443	0.0135246
904.521	0.0133084
904.599	0.0134666
904.677	0.0134222
904.755	0.0133999
904.833	0.0134641
904.912	0.0135044
904.990	0.0134760
905.068	0.0135001
905.146	0.0135007
905.224	0.0136019
905.302	0.0135973
905.380	0.0135246
905.458	0.0135182
905.537	0.0135653
905.615	0.0134967
905.693	0.0134999
905.771	0.0136569
905.849	0.0136498
905.927	0.0135514
906.005	0.0136400
906.083	0.0135303
906.162	0.0135171
906.240	0.0135080
906.318	0.0136100
906.396	0.0135841
906.474	0.0135372
906.552	0.0135300
906.630	0.0133903
906.708	0.0133933
906.787	0.0134821
906.865	0.0135084
906.943	0.0136265
907.021	0.0135289
907.099	0.0133321
907.177	0.0133846
907.255	0.0133505
907.333	0.0134965
907.412	0.0134384
907.490	0.0134801
907.568	0.0133492
907.646	0.0133282
907.724	0.0135407
907.802	0.0135038
907.880	0.0134118
907.958	0.0134005
908.037	0.0134725
908.115	0.0134892
908.193	0.0134113
908.271	0.0134997
908.349	0.0136281
908.427	0.0134689
908.505	0.0136136
908.583	0.0136472
908.662	0.0136741
908.740	0.0137645
908.818	0.0136320
908.896	0.0137148
908.974	0.0135690
909.052	0.0136676
909.130	0.0137662
909.208	0.0136038
909.287	0.0135960
909.365	0.0134443
909.443	0.0134422
909.521	0.0134734
909.599	0.0133739
909.677	0.0134714
909.755	0.0134185
909.833	0.0134053
909.912	0.0134318
909.990	0.0133752
910.068	0.0132838
910.146	0.0134914
910.224	0.0133936
910.302	0.0134503
910.380	0.0134742
910.458	0.0134585
910.537	0.0134063
910.615	0.0135281
910.693	0.0135616
910.771	0.0134618
910.849	0.0135526
910.927	0.0133772
911.005	0.0134629
911.083	0.0134715
911.162	0.0134612
911.240	0.0136526
911.318	0.0135941
911.396	0.0133977
911.474	0.0134505
911.552	0.0135419
911.630	0.0136076
911.708	0.0135165
911.787	0.0135351
911.865	0.0135883
911.943	0.0135592
912.021	0.0134924
912.099	0.0135149
912.177	0.0133813
912.255	0.0135880
912.333	0.0136234
912.412	0.0134766
912.490	0.0134399
912.568	0.0134923
912.646	0.0135163
912.724	0.0135313
912.802	0.0135374
912.880	0.0134481
912.958	0.0134481
913.037	0.0134939
913.115	0.0135983
913.193	0.0136317
913.271	0.0136160
913.349	0.0135849
913.427	0.0135271
913.505	0.0134688
913.583	0.0135801
913.662	0.0136362
913.740	0.0135141
913.818	0.0134986
913.896	0.0135806
913.974	0.0134873
914.052	0.0135903
914.130	0.0135962
914.208	0.0135302
914.287	0.0136128
914.365	0.0135435
914.443	0.0136124
914.521	0.0136903
914.599	0.0134340
914.677	0.0135715
914.755	0.0136108
914.833	0.0136674
914.912	0.0135404
914.990	0.0135612
915.068	0.0135281
915.146	0.0135690
915.224	0.0136097
915.302	0.0136617
915.380	0.0136726
915.458	0.0135426
915.537	0.0136440
915.615	0.0136934
915.693	0.0136400
915.771	0.0136436
915.849	0.0136253
915.927	0.0136334
916.005	0.0135135
916.083	0.0136485
916.162	0.0136854
916.240	0.0136631
916.318	0.0135508
916.396	0.0134936
916.474	0.0135526
916.552	0.0135326
916.630	0.0135971
916.708	0.0135429
916.787	0.0135638
916.865	0.0135372
916.943	0.0134347
917.021	0.0135945
917.099	0.0135784
917.177	0.0134657
917.255	0.0135767
917.333	0.0135180
917.412	0.0135420
917.490	0.0135658
917.568	0.0136703
917.646	0.0136398
917.724	0.0135114
917.802	0.0134375
917.880	0.0135245
917.958	0.0136040
918.037	0.0136711
918.115	0.0136669
918.193	0.0134875
918.271	0.0134215
918.349	0.0134879
918.427	0.0134570
918.505	0.0133772
918.583	0.0135320
918.662	0.0135406
918.740	0.0135545
918.818	0.0134168
918.896	0.0136171
918.974	0.0134377
919.052	0.0134834
919.130	0.0135687
919.208	0.0135501
919.287	0.0134194
919.365	0.0135436
919.443	0.0135207
919.521	0.0134749
919.599	0.0135325
919.677	0.0136469
919.755	0.0136597
919.833	0.0135196
919.912	0.0135258
919.990	0.0135425
920.068	0.0135699
920.146	0.0133616
920.224	0.0133828
920.302	0.0135080
920.380	0.0135187
920.458	0.0135627
920.537	0.0134427
920.615	0.0133798
920.693	0.0135520
920.771	0.0135172
920.849	0.0134884
920.927	0.0135556
921.005	0.0136784
921.083	0.0133947
921.162	0.0134328
921.240	0.0135851
921.318	0.0134892
921.396	0.0134966
921.474	0.0136314
921.552	0.0134828
921.630	0.0134808
921.708	0.0135210
921.787	0.0134917
921.865	0.0134460
921.943	0.0133867
922.021	0.0134817
922.099	0.0135300
922.177	0.0136112
922.255	0.0134305
922.333	0.0133331
922.412	0.0134431
922.490	0.0133734
922.568	0.0133951
922.646	0.0134896
922.724	0.0133720
922.802	0.0134774
922.880	0.0134476
922.958	0.0134714
923.037	0.0134844
923.115	0.0134847
923.193	0.0133145
923.271	0.0133929
923.349	0.0135065
923.427	0.0135449
923.505	0.0135134
923.583	0.0133844
923.662	0.0134814
923.740	0.0134433
923.818	0.0133763
923.896	0.0134457
923.974	0.0133518
924.052	0.0132374
924.130	0.0134706
924.208	0.0134767
924.287	0.0134795
924.365	0.0133160
924.443	0.0134707
924.521	0.0133801
924.599	0.0133817
924.677	0.0135455
924.755	0.0134976
924.833	0.0133884
924.912	0.0135302
924.990	0.0135257
925.068	0.0135705
925.146	0.0134129
925.224	0.0134727
925.302	0.0133926
925.380	0.0133556
925.458	0.0133817
925.537	0.0133063
925.615	0.0134336
925.693	0.0135181
925.771	0.0134441
925.849	0.0134009
925.927	0.0133778
926.005	0.0134852
926.083	0.0133846
926.162	0.0134007
926.240	0.0134666
926.318	0.0134308
926.396	0.0133013
926.474	0.0133456
926.552	0.0133466
926.630	0.0135013
926.708	0.0133546
926.787	0.0132758
926.865	0.0135743
926.943	0.0134658
927.021	0.0136006
927.099	0.0135815
927.177	0.0135873
927.255	0.0135267
927.333	0.0133325
927.412	0.0132773
927.490	0.0135614
927.568	0.0136685
927.646	0.0136013
927.724	0.0135573
927.802	0.0135155
927.880	0.0135567
927.958	0.0135420
928.037	0.0135152
928.115	0.0136031
928.193	0.0135830
928.271	0.0136126
928.349	0.0135405
928.427	0.0136262
928.505	0.0134784
928.583	0.0136649
928.662	0.0136721
928.740	0.0136470
928.818	0.0136625
928.896	0.0134376
928.974	0.0135235
929.052	0.0136059
929.130	0.0135445
929.208	0.0135319
929.287	0.0135645
929.365	0.0136263
929.443	0.0136867
929.521	0.0135505
929.599	0.0133654
929.677	0.0133817
929.755	0.0134547
929.833	0.0133992
929.912	0.0134052
929.990	0.0134821
930.068	0.0134709
930.146	0.0133904
930.224	0.0135207
930.302	0.0134895
930.380	0.0134553
930.458	0.0135015
930.537	0.0134272
930.615	0.0135664
930.693	0.0135899
930.771	0.0134521
930.849	0.0135545
930.927	0.0135605
931.005	0.0135709
931.083	0.0135682
931.162	0.0135167
931.240	0.0136991
931.318	0.0135023
931.396	0.0135415
931.474	0.0136288
931.552	0.0135750
931.630	0.0135750
931.708	0.0135503
931.787	0.0136032
931.865	0.0135605
931.943	0.0135125
932.021	0.0136028
932.099	0.0137171
932.177	0.0135642
932.255	0.0134789
932.333	0.0135484
932.412	0.0136856
932.490	0.0136997
932.568	0.0134929
932.646	0.0136009
932.724	0.0135104
932.802	0.0136691
932.880	0.0136104
932.958	0.0136460
933.037	0.0137220
933.115	0.0137467
933.193	0.0137264
933.271	0.0135748
933.349	0.0135951
933.427	0.0137357
933.505	0.0137189
933.583	0.0137044
933.662	0.0137035
933.740	0.0137264
933.818	0.0136391
933.896	0.0136860
933.974	0.0137373
934.052	0.0136001
934.130	0.0136613
934.208	0.0135241
934.287	0.0136079
934.365	0.0136297
934.443	0.0136095
934.521	0.0136945
934.599	0.0136014
934.677	0.0135094
934.755	0.0135538
934.833	0.0135920
934.912	0.0135291
934.990	0.0136071
935.068	0.0135189
935.146	0.0134872
935.224	0.0136645
935.302	0.0137427
935.380	0.0135312
935.458	0.0133400
935.537	0.0136264
935.615	0.0136919
935.693	0.0136418
935.771	0.0135456
935.849	0.0134341
935.927	0.0134395
936.005	0.0134937
936.083	0.0134402
936.162	0.0135461
936.240	0.0135774
936.318	0.0136188
936.396	0.0134640
936.474	0.0135065
936.552	0.0134605
936.630	0.0135093
936.708	0.0134229
936.787	0.0138027
936.865	0.0136373
936.943	0.0136080
937.021	0.0137334
937.099	0.0136706
937.177	0.0136340
937.255	0.0135548
937.333	0.0137688
937.412	0.0137233
937.490	0.0136051
937.568	0.0136768
937.646	0.0136085
937.724	0.0135748
937.802	0.0137029
937.880	0.0136543
937.958	0.0135378
938.037	0.0135429
938.115	0.0136223
938.193	0.0135149
938.271	0.0135735
938.349	0.0135587
938.427	0.0134949
938.505	0.0136132
938.583	0.0136188
938.662	0.0135043
938.740	0.0135827
938.818	0.0135007
938.896	0.0134686
938.974	0.0136982
939.052	0.0135329
939.130	0.0135644
939.208	0.0135712
939.287	0.0135645
939.365	0.0135712
939.443	0.0134068
939.521	0.0135670
939.599	0.0136137
939.677	0.0136274
939.755	0.0136340
939.833	0.0136069
939.912	0.0134170
939.990	0.0135354
940.068	0.0136029
940.146	0.0135057
940.224	0.0135419
940.302	0.0136028
940.380	0.0134775
940.458	0.0134322
940.537	0.0134817
940.615	0.0134161
940.693	0.0133873
940.771	0.0134364
940.849	0.0134710
940.927	0.0134591
941.005	0.0134106
941.083	0.0133859
941.162	0.0133710
941.240	0.0134691
941.318	0.0135469
941.396	0.0134144
941.474	0.0135129
941.552	0.0135579
941.630	0.0134925
941.708	0.0135419
941.787	0.0137117
941.865	0.0136431
941.943	0.0134995
942.021	0.0136269
942.099	0.0136298
942.177	0.0135456
942.255	0.0136887
942.333	0.0136697
942.412	0.0136407
942.490	0.0135901
942.568	0.0136129
942.646	0.0135493
942.724	0.0136509
942.802	0.0136742
942.880	0.0136477
942.958	0.0136244
943.037	0.0136391
943.115	0.0136136
943.193	0.0137125
943.271	0.0136631
943.349	0.0137323
943.427	0.0136383
943.505	0.0138038
943.583	0.0137306
943.662	0.0136884
943.740	0.0135367
943.818	0.0137822
943.896	0.0136795
943.974	0.0137200
944.052	0.0135706
944.130	0.0135333
944.208	0.0137222
944.287	0.0135599
944.365	0.0134897
944.443	0.0135676
944.521	0.0136531
944.599	0.0134691
944.677	0.0135484
944.755	0.0135761
944.833	0.0135856
944.912	0.0135042
944.990	0.0134734
945.068	0.0134450
945.146	0.0133971
945.224	0.0135103
945.302	0.0135722
945.380	0.0133424
945.458	0.0135089
945.537	0.0135830
945.615	0.0133808
945.693	0.0135091
945.771	0.0134789
945.849	0.0134669
945.927	0.0134825
946.005	0.0135341
946.083	0.0134561
946.162	0.0134190
946.240	0.0134009
946.318	0.0134528
946.396	0.0133612
946.474	0.0133885
946.552	0.0135712
946.630	0.0133719
946.708	0.0134959
946.787	0.0134680
946.865	0.0134186
946.943	0.0135679
947.021	0.0135014
947.099	0.0135179
947.177	0.0134249
947.255	0.0135715
947.333	0.0135513
947.412	0.0134651
947.490	0.0136826
947.568	0.0135748
947.646	0.0135234
947.724	0.0136046
947.802	0.0135528
947.880	0.0135052
947.958	0.0134361
948.037	0.0133923
948.115	0.0135005
948.193	0.0135271
948.271	0.0134951
948.349	0.0135405
948.427	0.0135333
948.505	0.0134738
948.583	0.0134323
948.662	0.0133374
948.740	0.0134904
948.818	0.0134781
948.896	0.0134280
948.974	0.0134954
949.052	0.0133286
949.130	0.0134766
949.208	0.0134519
949.287	0.0133710
949.365	0.0135106
949.443	0.0135812
949.521	0.0135838
949.599	0.0134640
949.677	0.0136076
949.755	0.0135313
949.833	0.0135363
949.912	0.0135560
949.990	0.0135049
950.068	0.0134823
950.146	0.0136384
950.224	0.0136038
950.302	0.0134736
950.380	0.0136335
950.458	0.0135625
950.537	0.0134887
950.615	0.0137347
950.693	0.0137075
950.771	0.0136063
950.849	0.0136378
950.927	0.0136581
951.005	0.0136512
951.083	0.0136682
951.162	0.0136546
951.240	0.0136166
951.318	0.0137029
951.396	0.0136510
951.474	0.0135697
951.552	0.0136708
951.630	0.0136958
951.708	0.0136218
951.787	0.0136364
951.865	0.0134030
951.943	0.0136187
952.021	0.0136972
952.099	0.0135215
952.177	0.0134903
952.255	0.0135646
952.333	0.0134866
952.412	0.0134732
952.490	0.0134955
952.568	0.0134528
952.646	0.0136353
952.724	0.0135130
952.802	0.0135213
952.880	0.0134575
952.958	0.0136568
953.037	0.0135033
953.115	0.0135992
953.193	0.0134643
953.271	0.0134728
953.349	0.0135398
953.427	0.0136758
953.505	0.0136369
953.583	0.0137291
953.662	0.0136500
953.740	0.0135461
953.818	0.0135734
953.896	0.0136067
953.974	0.0135220
954.052	0.0135399
954.130	0.0133599
954.208	0.0134844
954.287	0.0133733
954.365	0.0134993
954.443	0.0136693
954.521	0.0135413
954.599	0.0136102
954.677	0.0137695
954.755	0.0138628
954.833	0.0137479
954.912	0.0137953
954.990	0.0137337
955.068	0.0137978
955.146	0.0137399
955.224	0.0136769
955.302	0.0137223
955.380	0.0136897
955.458	0.0135271
955.537	0.0134303
955.615	0.0133711
955.693	0.0133074
955.771	0.0132520
955.849	0.0132542
955.927	0.0132813
956.005	0.0132037
956.083	0.0133785
956.162	0.0133629
956.240	0.0134676
956.318	0.0135798
956.396	0.0137545
956.474	0.0138567
956.552	0.0137299
956.630	0.0138255
956.708	0.0137804
956.787	0.0137690
956.865	0.0137350
956.943	0.0136876
957.021	0.0136047
957.099	0.0134834
957.177	0.0133816
957.255	0.0131766
957.333	0.0133023
957.412	0.0133572
957.490	0.0132011
957.568	0.0131046
957.646	0.0132253
957.724	0.0133875
957.802	0.0134145
957.880	0.0134181
957.958	0.0134196
958.037	0.0134330
958.115	0.0136230
958.193	0.0137352
958.271	0.0135503
958.349	0.0137517
958.427	0.0138040
958.505	0.0137945
958.583	0.0136876
958.662	0.0136298
958.740	0.0137209
958.818	0.0135632
958.896	0.0134344
958.974	0.0133904
959.052	0.0134129
959.130	0.0133524
959.208	0.0132414
959.287	0.0133589
959.365	0.0134521
959.443	0.0134161
959.521	0.0135181
959.599	0.0133977
959.677	0.0133850
959.755	0.0132243
959.833	0.0133212
959.912	0.0134579
959.990	0.0135076
960.068	0.0135297
960.146	0.0135104
960.224	0.0133807
960.302	0.0134088
960.380	0.0134842
960.458	0.0135407
960.537	0.0134993
960.615	0.0136532
960.693	0.0136417
960.771	0.0138043
960.849	0.0136456
960.927	0.0138195
961.005	0.0139030
961.083	0.0137629
961.162	0.0136083
961.240	0.0136639
961.318	0.0135991
961.396	0.0135088
961.474	0.0135352
961.552	0.0136005
961.630	0.0134703
961.708	0.0133142
961.787	0.0133248
961.865	0.0133407
961.943	0.0133196
962.021	0.0133926
962.099	0.0133878
962.177	0.0135352
962.255	0.0134697
962.333	0.0135277
962.412	0.0136195
962.490	0.0136105
962.568	0.0136457
962.646	0.0135985
962.724	0.0136516
962.802	0.0136352
962.880	0.0136488
962.958	0.0136262
963.037	0.0137038
963.115	0.0136503
963.193	0.0138580
963.271	0.0137586
963.349	0.0136252
963.427	0.0135365
963.505	0.0136950
963.583	0.0135831
963.662	0.0134720
963.740	0.0134953
963.818	0.0133923
963.896	0.0133836
963.974	0.0134405
964.052	0.0132491
964.130	0.0134066
964.208	0.0134490
964.287	0.0135661
964.365	0.0135240
964.443	0.0134065
964.521	0.0134164
964.599	0.0135323
964.677	0.0134841
964.755	0.0133613
964.833	0.0133673
964.912	0.0133059
964.990	0.0134496
965.068	0.0133204
965.146	0.0133616
965.224	0.0133444
965.302	0.0134378
965.380	0.0133432
965.458	0.0133810
965.537	0.0134406
965.615	0.0134311
965.693	0.0135443
965.771	0.0136079
965.849	0.0135575
965.927	0.0134447
966.005	0.0135632
966.083	0.0135911
966.162	0.0136051
966.240	0.0136029
966.318	0.0135676
966.396	0.0135342
966.474	0.0135165
966.552	0.0136501
966.630	0.0133633
966.708	0.0135245
966.787	0.0134746
966.865	0.0135151
966.943	0.0134599
967.021	0.0134428
967.099	0.0136274
967.177	0.0134295
967.255	0.0135135
967.333	0.0133677
967.412	0.0134002
967.490	0.0134225
967.568	0.0133958
967.646	0.0133914
967.724	0.0135063
967.802	0.0132676
967.880	0.0133378
967.958	0.0134739
968.037	0.0135346
968.115	0.0135381
968.193	0.0134370
968.271	0.0134330
968.349	0.0135931
968.427	0.0136219
968.505	0.0135186
968.583	0.0135532
968.662	0.0136568
968.740	0.0137303
968.818	0.0137929
968.896	0.0138067
968.974	0.0138812
969.052	0.0137888
969.130	0.0137879
969.208	0.0137523
969.287	0.0136485
969.365	0.0137426
969.443	0.0136573
969.521	0.0136189
969.599	0.0135746
969.677	0.0134640
969.755	0.0135037
969.833	0.0134399
969.912	0.0133977
