05/08/2022	20:17:32	Ver.	4.1	UNKNOWN
Optical Delay	600.015094	Delta X		0.078125	Sweeps	1	Scan Rate	0/0
Coordinates	Axis 1	NaN	Axis 2	NaN	Axis 3	NaN	Axis 4	NaN	Axis 5	NaN	Axis 6	0.000000
TX Power	0.000000	RX Power	0.000000

600.015	0.0136713
600.093	0.0138114
600.171	0.0137320
600.249	0.0137640
600.328	0.0136340
600.406	0.0137119
600.484	0.0137903
600.562	0.0137675
600.640	0.0138528
600.718	0.0137413
600.796	0.0138482
600.874	0.0137272
600.953	0.0138335
601.031	0.0139069
601.109	0.0137634
601.187	0.0138116
601.265	0.0136979
601.343	0.0137487
601.421	0.0136642
601.499	0.0137904
601.578	0.0137319
601.656	0.0137193
601.734	0.0138244
601.812	0.0136549
601.890	0.0136481
601.968	0.0137055
602.046	0.0137100
602.124	0.0136472
602.203	0.0137202
602.281	0.0137420
602.359	0.0137578
602.437	0.0137000
602.515	0.0138364
602.593	0.0137402
602.671	0.0139194
602.749	0.0138968
602.828	0.0136141
602.906	0.0137608
602.984	0.0138760
603.062	0.0137607
603.140	0.0137053
603.218	0.0138680
603.296	0.0138518
603.374	0.0138055
603.453	0.0138945
603.531	0.0137019
603.609	0.0137458
603.687	0.0137904
603.765	0.0137437
603.843	0.0137534
603.921	0.0138589
603.999	0.0138345
604.078	0.0137635
604.156	0.0138194
604.234	0.0137675
604.312	0.0138039
604.390	0.0138806
604.468	0.0138020
604.546	0.0137431
604.624	0.0137634
604.703	0.0137886
604.781	0.0137647
604.859	0.0137505
604.937	0.0136129
605.015	0.0137916
605.093	0.0137002
605.171	0.0136601
605.249	0.0136871
605.328	0.0136766
605.406	0.0137187
605.484	0.0136971
605.562	0.0135793
605.640	0.0136588
605.718	0.0136456
605.796	0.0136040
605.874	0.0137881
605.953	0.0136174
606.031	0.0136621
606.109	0.0135976
606.187	0.0134425
606.265	0.0134786
606.343	0.0133968
606.421	0.0135018
606.499	0.0136014
606.578	0.0135026
606.656	0.0134310
606.734	0.0134904
606.812	0.0135440
606.890	0.0135203
606.968	0.0133683
607.046	0.0134525
607.124	0.0134739
607.203	0.0135482
607.281	0.0134373
607.359	0.0134198
607.437	0.0133131
607.515	0.0133974
607.593	0.0134314
607.671	0.0133917
607.749	0.0135343
607.828	0.0133083
607.906	0.0134110
607.984	0.0132736
608.062	0.0132686
608.140	0.0133456
608.218	0.0135079
608.296	0.0134439
608.374	0.0133822
608.453	0.0134321
608.531	0.0132949
608.609	0.0135540
608.687	0.0135715
608.765	0.0134827
608.843	0.0134837
608.921	0.0134243
608.999	0.0136135
609.078	0.0133815
609.156	0.0134163
609.234	0.0135408
609.312	0.0135059
609.390	0.0134431
609.468	0.0134499
609.546	0.0134592
609.624	0.0135379
609.703	0.0135784
609.781	0.0136107
609.859	0.0134628
609.937	0.0135541
610.015	0.0136427
610.093	0.0136550
610.171	0.0136912
610.249	0.0134855
610.328	0.0135742
610.406	0.0137195
610.484	0.0136201
610.562	0.0136581
610.640	0.0135460
610.718	0.0136227
610.796	0.0135917
610.874	0.0134957
610.953	0.0136359
611.031	0.0134476
611.109	0.0134486
611.187	0.0136549
611.265	0.0136918
611.343	0.0134178
611.421	0.0136599
611.499	0.0136507
611.578	0.0136526
611.656	0.0136217
611.734	0.0134864
611.812	0.0136595
611.890	0.0137451
611.968	0.0136974
612.046	0.0136046
612.124	0.0136976
612.203	0.0137627
612.281	0.0136678
612.359	0.0136355
612.437	0.0135753
612.515	0.0135634
612.593	0.0136253
612.671	0.0135729
612.749	0.0134181
612.828	0.0134714
612.906	0.0136067
612.984	0.0135683
613.062	0.0136786
613.140	0.0134919
613.218	0.0134555
613.296	0.0135565
613.374	0.0134991
613.453	0.0135502
613.531	0.0136063
613.609	0.0136799
613.687	0.0135622
613.765	0.0135214
613.843	0.0135741
613.921	0.0136861
613.999	0.0135896
614.078	0.0135069
614.156	0.0133900
614.234	0.0135267
614.312	0.0133952
614.390	0.0134434
614.468	0.0134343
614.546	0.0134709
614.624	0.0135957
614.703	0.0134872
614.781	0.0135825
614.859	0.0135712
614.937	0.0134807
615.015	0.0133096
615.093	0.0136388
615.171	0.0136008
615.249	0.0135909
615.328	0.0134574
615.406	0.0134145
615.484	0.0135651
615.562	0.0134105
615.640	0.0133656
615.718	0.0135305
615.796	0.0135972
615.874	0.0135698
615.953	0.0136248
616.031	0.0134898
616.109	0.0135873
616.187	0.0136113
616.265	0.0135458
616.343	0.0134302
616.421	0.0136951
616.499	0.0136062
616.578	0.0135889
616.656	0.0135421
616.734	0.0135708
616.812	0.0135996
616.890	0.0135252
616.968	0.0135024
617.046	0.0133788
617.124	0.0136489
617.203	0.0135163
617.281	0.0135349
617.359	0.0135751
617.437	0.0135809
617.515	0.0134180
617.593	0.0135146
617.671	0.0135311
617.749	0.0135128
617.828	0.0134181
617.906	0.0135466
617.984	0.0136046
618.062	0.0136399
618.140	0.0135415
618.218	0.0135928
618.296	0.0135583
618.374	0.0135457
618.453	0.0135666
618.531	0.0135603
618.609	0.0135551
618.687	0.0134386
618.765	0.0134472
618.843	0.0134735
618.921	0.0136214
618.999	0.0137112
619.078	0.0134470
619.156	0.0134731
619.234	0.0137240
619.312	0.0135689
619.390	0.0136501
619.468	0.0136633
619.546	0.0135413
619.624	0.0136388
619.703	0.0136076
619.781	0.0136536
619.859	0.0136801
619.937	0.0137296
620.015	0.0135885
620.093	0.0135485
620.171	0.0136607
620.249	0.0137492
620.328	0.0136190
620.406	0.0136226
620.484	0.0136562
620.562	0.0137334
620.640	0.0136922
620.718	0.0137148
620.796	0.0137407
620.874	0.0137508
620.953	0.0137176
621.031	0.0135566
621.109	0.0137081
621.187	0.0137424
621.265	0.0136588
621.343	0.0136500
621.421	0.0137647
621.499	0.0136826
621.578	0.0137518
621.656	0.0138034
621.734	0.0136829
621.812	0.0138654
621.890	0.0138650
621.968	0.0137016
622.046	0.0137276
622.124	0.0136251
622.203	0.0138146
622.281	0.0137479
622.359	0.0138335
622.437	0.0138885
622.515	0.0137456
622.593	0.0139258
622.671	0.0137943
622.749	0.0138431
622.828	0.0136530
622.906	0.0137697
622.984	0.0137839
623.062	0.0138007
623.140	0.0135868
623.218	0.0137374
623.296	0.0137108
623.374	0.0137478
623.453	0.0137865
623.531	0.0136478
623.609	0.0136662
623.687	0.0134927
623.765	0.0136305
623.843	0.0136659
623.921	0.0136799
623.999	0.0136642
624.078	0.0136050
624.156	0.0135477
624.234	0.0135829
624.312	0.0135860
624.390	0.0134927
624.468	0.0136745
624.546	0.0136206
624.624	0.0135818
624.703	0.0135670
624.781	0.0136343
624.859	0.0136349
624.937	0.0136055
625.015	0.0137164
625.093	0.0136878
625.171	0.0137453
625.249	0.0138383
625.328	0.0137109
625.406	0.0137821
625.484	0.0137961
625.562	0.0136726
625.640	0.0136641
625.718	0.0137463
625.796	0.0137582
625.874	0.0136892
625.953	0.0137432
626.031	0.0136768
626.109	0.0137392
626.187	0.0136162
626.265	0.0136034
626.343	0.0135838
626.421	0.0136686
626.499	0.0134735
626.578	0.0134854
626.656	0.0135286
626.734	0.0134856
626.812	0.0136234
626.890	0.0136148
626.968	0.0136886
627.046	0.0138242
627.124	0.0138454
627.203	0.0137923
627.281	0.0138440
627.359	0.0139079
627.437	0.0138683
627.515	0.0138509
627.593	0.0138508
627.671	0.0139451
627.749	0.0140005
627.828	0.0139363
627.906	0.0138659
627.984	0.0138491
628.062	0.0137373
628.140	0.0138264
628.218	0.0135769
628.296	0.0136696
628.374	0.0136431
628.453	0.0135799
628.531	0.0135963
628.609	0.0134573
628.687	0.0135677
628.765	0.0133511
628.843	0.0134359
628.921	0.0134686
628.999	0.0134043
629.078	0.0135235
629.156	0.0134918
629.234	0.0135245
629.312	0.0135814
629.390	0.0135474
629.468	0.0135362
629.546	0.0135497
629.624	0.0137046
629.703	0.0136442
629.781	0.0136435
629.859	0.0136642
629.937	0.0136102
630.015	0.0136906
630.093	0.0136406
630.171	0.0137838
630.249	0.0137789
630.328	0.0137090
630.406	0.0137827
630.484	0.0137892
630.562	0.0137776
630.640	0.0137838
630.718	0.0137607
630.796	0.0137104
630.874	0.0137583
630.953	0.0137095
631.031	0.0137523
631.109	0.0138771
631.187	0.0138010
631.265	0.0137447
631.343	0.0140325
631.421	0.0138008
631.499	0.0138171
631.578	0.0138377
631.656	0.0138875
631.734	0.0138358
631.812	0.0137636
631.890	0.0138835
631.968	0.0138547
632.046	0.0139177
632.124	0.0137701
632.203	0.0138615
632.281	0.0139225
632.359	0.0137177
632.437	0.0138551
632.515	0.0138536
632.593	0.0138342
632.671	0.0139201
632.749	0.0137868
632.828	0.0138118
632.906	0.0138383
632.984	0.0139008
633.062	0.0137924
633.140	0.0137389
633.218	0.0138368
633.296	0.0137912
633.374	0.0137814
633.453	0.0136874
633.531	0.0136955
633.609	0.0137926
633.687	0.0137202
633.765	0.0135917
633.843	0.0136220
633.921	0.0135888
633.999	0.0135947
634.078	0.0136368
634.156	0.0135492
634.234	0.0134917
634.312	0.0135094
634.390	0.0137276
634.468	0.0135780
634.546	0.0134936
634.624	0.0136737
634.703	0.0134869
634.781	0.0134863
634.859	0.0135160
634.937	0.0135681
635.015	0.0135272
635.093	0.0134644
635.171	0.0136707
635.249	0.0136434
635.328	0.0135830
635.406	0.0136676
635.484	0.0137547
635.562	0.0136977
635.640	0.0135635
635.718	0.0138003
635.796	0.0138574
635.874	0.0136745
635.953	0.0137811
636.031	0.0136762
636.109	0.0136018
636.187	0.0136648
636.265	0.0137299
636.343	0.0135269
636.421	0.0134867
636.499	0.0135962
636.578	0.0135046
636.656	0.0134962
636.734	0.0135764
636.812	0.0135424
636.890	0.0134973
636.968	0.0133750
637.046	0.0134666
637.124	0.0135522
637.203	0.0136189
637.281	0.0135488
637.359	0.0135937
637.437	0.0135210
637.515	0.0136950
637.593	0.0135735
637.671	0.0134670
637.749	0.0137240
637.828	0.0136063
637.906	0.0135385
637.984	0.0135431
638.062	0.0136246
638.140	0.0135371
638.218	0.0135732
638.296	0.0135094
638.374	0.0134779
638.453	0.0137044
638.531	0.0136591
638.609	0.0136616
638.687	0.0135999
638.765	0.0136099
638.843	0.0136491
638.921	0.0136209
638.999	0.0136745
639.078	0.0135361
639.156	0.0134993
639.234	0.0135809
639.312	0.0133940
639.390	0.0134962
639.468	0.0134156
639.546	0.0134962
639.624	0.0133115
639.703	0.0132957
639.781	0.0132660
639.859	0.0132879
639.937	0.0133102
640.015	0.0133214
640.093	0.0133408
640.171	0.0132533
640.249	0.0134812
640.328	0.0134453
640.406	0.0136619
640.484	0.0136386
640.562	0.0137533
640.640	0.0135803
640.718	0.0138163
640.796	0.0137560
640.874	0.0136842
640.953	0.0138668
641.031	0.0138634
641.109	0.0138090
641.187	0.0138506
641.265	0.0137418
641.343	0.0138528
641.421	0.0137907
641.499	0.0137759
641.578	0.0136662
641.656	0.0136205
641.734	0.0138361
641.812	0.0137022
641.890	0.0136708
641.968	0.0135704
642.046	0.0134831
642.124	0.0133680
642.203	0.0132563
642.281	0.0130962
642.359	0.0130809
642.437	0.0128998
642.515	0.0127721
642.593	0.0129853
642.671	0.0129641
642.749	0.0127270
642.828	0.0127969
642.906	0.0129114
642.984	0.0129106
643.062	0.0130438
643.140	0.0132625
643.218	0.0131432
643.296	0.0134655
643.374	0.0134597
643.453	0.0136599
643.531	0.0137103
643.609	0.0138648
643.687	0.0140461
643.765	0.0139782
643.843	0.0141434
643.921	0.0141860
643.999	0.0142097
644.078	0.0141684
644.156	0.0142436
644.234	0.0141885
644.312	0.0139766
644.390	0.0139949
644.468	0.0139920
644.546	0.0139183
644.624	0.0137788
644.703	0.0136637
644.781	0.0134384
644.859	0.0134254
644.937	0.0134901
645.015	0.0131712
645.093	0.0130048
645.171	0.0130116
645.249	0.0127850
645.328	0.0127556
645.406	0.0127505
645.484	0.0126307
645.562	0.0125125
645.640	0.0126093
645.718	0.0126165
645.796	0.0126910
645.874	0.0127946
645.953	0.0130038
646.031	0.0130648
646.109	0.0132069
646.187	0.0133268
646.265	0.0133670
646.343	0.0136523
646.421	0.0138940
646.499	0.0141383
646.578	0.0142349
646.656	0.0142828
646.734	0.0145205
646.812	0.0147305
646.890	0.0147741
646.968	0.0147650
647.046	0.0146812
647.124	0.0147176
647.203	0.0145416
647.281	0.0146538
647.359	0.0143632
647.437	0.0143145
647.515	0.0142365
647.593	0.0139964
647.671	0.0139011
647.749	0.0136441
647.828	0.0135547
647.906	0.0134373
647.984	0.0133662
648.062	0.0131127
648.140	0.0129233
648.218	0.0128048
648.296	0.0125811
648.374	0.0125684
648.453	0.0125829
648.531	0.0124459
648.609	0.0122888
648.687	0.0122129
648.765	0.0123691
648.843	0.0124456
648.921	0.0123696
648.999	0.0124767
649.078	0.0126376
649.156	0.0127931
649.234	0.0129877
649.312	0.0133426
649.390	0.0136716
649.468	0.0139846
649.546	0.0141296
649.624	0.0142433
649.703	0.0146804
649.781	0.0147353
649.859	0.0150406
649.937	0.0151996
650.015	0.0152498
650.093	0.0154073
650.171	0.0151494
650.249	0.0151168
650.328	0.0150471
650.406	0.0149047
650.484	0.0149077
650.562	0.0146810
650.640	0.0145026
650.718	0.0145177
650.796	0.0142167
650.874	0.0142177
650.953	0.0140137
651.031	0.0137241
651.109	0.0136863
651.187	0.0135187
651.265	0.0132858
651.343	0.0130185
651.421	0.0130890
651.499	0.0129990
651.578	0.0127753
651.656	0.0127554
651.734	0.0126926
651.812	0.0126443
651.890	0.0127808
651.968	0.0126158
652.046	0.0129182
652.124	0.0127018
652.203	0.0127550
652.281	0.0130571
652.359	0.0130965
652.437	0.0131335
652.515	0.0135782
652.593	0.0136715
652.671	0.0135844
652.749	0.0138527
652.828	0.0140949
652.906	0.0140992
652.984	0.0143019
653.062	0.0144303
653.140	0.0143964
653.218	0.0145142
653.296	0.0146568
653.374	0.0147456
653.453	0.0147353
653.531	0.0147544
653.609	0.0146266
653.687	0.0145013
653.765	0.0145509
653.843	0.0145400
653.921	0.0144610
653.999	0.0142129
654.078	0.0142551
654.156	0.0141412
654.234	0.0139566
654.312	0.0138239
654.390	0.0136761
654.468	0.0136253
654.546	0.0136319
654.624	0.0134383
654.703	0.0133478
654.781	0.0133622
654.859	0.0132899
654.937	0.0135972
655.015	0.0133671
655.093	0.0136115
655.171	0.0136182
655.249	0.0137135
655.328	0.0139130
655.406	0.0140376
655.484	0.0140759
655.562	0.0141266
655.640	0.0141779
655.718	0.0142023
655.796	0.0143407
655.874	0.0143845
655.953	0.0142521
656.031	0.0143056
656.109	0.0144108
656.187	0.0143689
656.265	0.0140987
656.343	0.0140347
656.421	0.0140258
656.499	0.0138505
656.578	0.0135853
656.656	0.0134415
656.734	0.0134205
656.812	0.0130052
656.890	0.0128493
656.968	0.0126305
657.046	0.0124532
657.124	0.0121481
657.203	0.0121575
657.281	0.0120477
657.359	0.0120471
657.437	0.0120248
657.515	0.0120237
657.593	0.0121022
657.671	0.0124328
657.749	0.0125992
657.828	0.0129519
657.906	0.0132083
657.984	0.0134658
658.062	0.0135979
658.140	0.0138828
658.218	0.0140176
658.296	0.0143948
658.374	0.0146545
658.453	0.0146361
658.531	0.0147975
658.609	0.0150456
658.687	0.0150690
658.765	0.0151554
658.843	0.0154078
658.921	0.0153871
658.999	0.0153801
659.078	0.0153639
659.156	0.0153156
659.234	0.0153497
659.312	0.0153178
659.390	0.0151444
659.468	0.0149642
659.546	0.0148854
659.624	0.0145352
659.703	0.0142241
659.781	0.0140773
659.859	0.0139703
659.937	0.0135484
660.015	0.0132519
660.093	0.0131486
660.171	0.0128533
660.249	0.0126698
660.328	0.0126151
660.406	0.0123888
660.484	0.0123211
660.562	0.0123357
660.640	0.0124676
660.718	0.0124249
660.796	0.0124384
660.874	0.0124347
660.953	0.0122366
661.031	0.0123868
661.109	0.0126250
661.187	0.0127209
661.265	0.0126867
661.343	0.0127245
661.421	0.0129253
661.499	0.0129636
661.578	0.0128669
661.656	0.0131042
661.734	0.0131377
661.812	0.0131608
661.890	0.0133436
661.968	0.0132380
662.046	0.0134351
662.124	0.0134313
662.203	0.0133884
662.281	0.0136098
662.359	0.0135788
662.437	0.0135251
662.515	0.0134431
662.593	0.0135364
662.671	0.0138100
662.749	0.0136449
662.828	0.0137055
662.906	0.0138646
662.984	0.0139538
663.062	0.0141109
663.140	0.0141721
663.218	0.0142664
663.296	0.0144728
663.374	0.0143926
663.453	0.0145313
663.531	0.0146529
663.609	0.0147667
663.687	0.0147701
663.765	0.0148170
663.843	0.0148943
663.921	0.0149362
663.999	0.0149406
664.078	0.0148788
664.156	0.0150601
664.234	0.0146975
664.312	0.0148420
664.390	0.0147557
664.468	0.0146985
664.546	0.0146071
664.624	0.0143882
664.703	0.0142706
664.781	0.0140702
664.859	0.0138155
664.937	0.0137731
665.015	0.0134805
665.093	0.0132614
665.171	0.0131262
665.249	0.0129230
665.328	0.0126887
665.406	0.0123991
665.484	0.0122800
665.562	0.0122800
665.640	0.0119769
665.718	0.0117859
665.796	0.0118849
665.874	0.0118079
665.953	0.0117150
666.031	0.0117237
666.109	0.0119945
666.187	0.0118438
666.265	0.0119837
666.343	0.0120729
666.421	0.0120201
666.499	0.0121982
666.578	0.0121680
666.656	0.0122295
666.734	0.0124187
666.812	0.0124411
666.890	0.0126492
666.968	0.0127281
667.046	0.0129701
667.124	0.0129472
667.203	0.0130740
667.281	0.0131779
667.359	0.0133658
667.437	0.0136598
667.515	0.0137752
667.593	0.0138526
667.671	0.0141265
667.749	0.0142886
667.828	0.0145572
667.906	0.0145784
667.984	0.0148475
668.062	0.0149866
668.140	0.0151732
668.218	0.0151925
668.296	0.0152824
668.374	0.0153886
668.453	0.0153257
668.531	0.0153035
668.609	0.0153745
668.687	0.0154165
668.765	0.0153125
668.843	0.0150816
668.921	0.0151737
668.999	0.0150364
669.078	0.0149358
669.156	0.0148714
669.234	0.0146528
669.312	0.0144487
669.390	0.0143256
669.468	0.0140474
669.546	0.0140692
669.624	0.0140880
669.703	0.0138318
669.781	0.0135371
669.859	0.0133543
669.937	0.0133248
670.015	0.0132661
670.093	0.0130395
670.171	0.0129198
670.249	0.0125992
670.328	0.0124277
670.406	0.0122433
670.484	0.0120088
670.562	0.0118266
670.640	0.0117541
670.718	0.0116679
670.796	0.0114734
670.874	0.0114204
670.953	0.0116319
671.031	0.0113435
671.109	0.0115126
671.187	0.0115327
671.265	0.0115876
671.343	0.0116119
671.421	0.0117810
671.499	0.0121135
671.578	0.0122425
671.656	0.0124404
671.734	0.0124617
671.812	0.0125939
671.890	0.0127121
671.968	0.0130769
672.046	0.0131879
672.124	0.0132317
672.203	0.0133150
672.281	0.0134210
672.359	0.0136145
672.437	0.0137402
672.515	0.0138327
672.593	0.0138768
672.671	0.0139552
672.749	0.0140098
672.828	0.0140273
672.906	0.0141103
672.984	0.0142733
673.062	0.0144808
673.140	0.0145139
673.218	0.0146778
673.296	0.0146207
673.374	0.0148063
673.453	0.0150800
673.531	0.0150247
673.609	0.0150312
673.687	0.0152919
673.765	0.0152428
673.843	0.0152390
673.921	0.0153712
673.999	0.0153874
674.078	0.0152386
674.156	0.0152232
674.234	0.0152589
674.312	0.0152065
674.390	0.0151071
674.468	0.0149664
674.546	0.0149817
674.624	0.0147475
674.703	0.0148714
674.781	0.0146040
674.859	0.0145203
674.937	0.0143730
675.015	0.0141740
675.093	0.0138545
675.171	0.0137589
675.249	0.0135416
675.328	0.0133050
675.406	0.0131679
675.484	0.0129138
675.562	0.0126043
675.640	0.0124432
675.718	0.0124673
675.796	0.0119438
675.874	0.0119782
675.953	0.0119492
676.031	0.0119634
676.109	0.0119942
676.187	0.0118980
676.265	0.0120548
676.343	0.0122318
676.421	0.0123331
676.499	0.0122994
676.578	0.0123667
676.656	0.0124885
676.734	0.0127970
676.812	0.0128525
676.890	0.0128519
676.968	0.0130178
677.046	0.0129868
677.124	0.0132246
677.203	0.0131339
677.281	0.0130978
677.359	0.0132977
677.437	0.0132378
677.515	0.0132402
677.593	0.0132404
677.671	0.0134335
677.749	0.0135266
677.828	0.0134655
677.906	0.0135995
677.984	0.0136104
678.062	0.0138020
678.140	0.0139290
678.218	0.0140706
678.296	0.0141306
678.374	0.0142197
678.453	0.0144368
678.531	0.0145744
678.609	0.0147980
678.687	0.0150047
678.765	0.0152717
678.843	0.0153071
678.921	0.0156056
678.999	0.0158118
679.078	0.0158562
679.156	0.0161083
679.234	0.0161472
679.312	0.0162375
679.390	0.0163644
679.468	0.0165293
679.546	0.0164160
679.624	0.0163039
679.703	0.0163319
679.781	0.0161511
679.859	0.0160511
679.937	0.0158982
680.015	0.0157571
680.093	0.0153949
680.171	0.0151883
680.249	0.0148614
680.328	0.0146040
680.406	0.0141055
680.484	0.0137531
680.562	0.0133925
680.640	0.0129893
680.718	0.0126856
680.796	0.0122552
680.874	0.0118552
680.953	0.0115784
681.031	0.0111987
681.109	0.0110315
681.187	0.0108454
681.265	0.0107211
681.343	0.0106479
681.421	0.0106233
681.499	0.0106526
681.578	0.0107674
681.656	0.0107877
681.734	0.0108492
681.812	0.0110058
681.890	0.0113776
681.968	0.0115070
682.046	0.0117002
682.124	0.0119016
682.203	0.0121749
682.281	0.0124523
682.359	0.0125459
682.437	0.0127280
682.515	0.0129520
682.593	0.0131389
682.671	0.0133426
682.749	0.0134737
682.828	0.0136198
682.906	0.0139017
682.984	0.0140792
683.062	0.0143008
683.140	0.0143502
683.218	0.0146920
683.296	0.0147948
683.374	0.0148199
683.453	0.0151065
683.531	0.0149402
683.609	0.0150572
683.687	0.0151305
683.765	0.0151730
683.843	0.0151124
683.921	0.0151156
683.999	0.0151051
684.078	0.0151529
684.156	0.0152176
684.234	0.0150802
684.312	0.0152020
684.390	0.0152129
684.468	0.0152382
684.546	0.0153059
684.624	0.0152991
684.703	0.0153106
684.781	0.0154094
684.859	0.0153844
684.937	0.0152612
685.015	0.0152039
685.093	0.0152023
685.171	0.0149971
685.249	0.0147708
685.328	0.0149585
685.406	0.0145567
685.484	0.0144188
685.562	0.0143071
685.640	0.0140822
685.718	0.0138927
685.796	0.0138039
685.874	0.0137077
685.953	0.0134280
686.031	0.0131751
686.109	0.0130141
686.187	0.0127473
686.265	0.0126353
686.343	0.0123918
686.421	0.0122202
686.499	0.0121152
686.578	0.0120935
686.656	0.0118517
686.734	0.0117025
686.812	0.0118171
686.890	0.0117065
686.968	0.0116814
687.046	0.0115572
687.124	0.0116106
687.203	0.0117145
687.281	0.0116065
687.359	0.0117519
687.437	0.0117520
687.515	0.0116825
687.593	0.0117928
687.671	0.0118772
687.749	0.0120475
687.828	0.0121944
687.906	0.0123388
687.984	0.0124734
688.062	0.0126848
688.140	0.0129133
688.218	0.0131058
688.296	0.0133341
688.374	0.0135118
688.453	0.0136465
688.531	0.0137957
688.609	0.0139526
688.687	0.0142040
688.765	0.0143581
688.843	0.0145314
688.921	0.0147038
688.999	0.0148006
689.078	0.0149664
689.156	0.0149807
689.234	0.0149603
689.312	0.0150588
689.390	0.0151131
689.468	0.0150184
689.546	0.0150154
689.624	0.0149005
689.703	0.0148946
689.781	0.0148352
689.859	0.0147374
689.937	0.0147832
690.015	0.0147399
690.093	0.0145609
690.171	0.0143826
690.249	0.0143137
690.328	0.0144503
690.406	0.0143753
690.484	0.0142497
690.562	0.0140902
690.640	0.0140421
690.718	0.0139074
690.796	0.0136693
690.874	0.0137164
690.953	0.0136650
691.031	0.0135072
691.109	0.0133370
691.187	0.0132639
691.265	0.0131030
691.343	0.0129115
691.421	0.0128014
691.499	0.0127942
691.578	0.0126764
691.656	0.0126777
691.734	0.0125374
691.812	0.0123753
691.890	0.0124359
691.968	0.0125019
692.046	0.0125475
692.124	0.0123740
692.203	0.0123787
692.281	0.0125357
692.359	0.0123875
692.437	0.0126729
692.515	0.0126031
692.593	0.0126356
692.671	0.0125507
692.749	0.0127163
692.828	0.0128465
692.906	0.0128333
692.984	0.0129896
693.062	0.0132111
693.140	0.0133237
693.218	0.0134109
693.296	0.0132679
693.374	0.0134399
693.453	0.0136982
693.531	0.0136243
693.609	0.0137193
693.687	0.0140112
693.765	0.0140038
693.843	0.0138987
693.921	0.0139362
693.999	0.0139611
694.078	0.0140453
694.156	0.0141830
694.234	0.0140598
694.312	0.0139420
694.390	0.0139109
694.468	0.0139434
694.546	0.0139936
694.624	0.0139223
694.703	0.0138452
694.781	0.0137894
694.859	0.0137304
694.937	0.0137226
695.015	0.0136642
695.093	0.0136772
695.171	0.0136892
695.249	0.0135297
695.328	0.0134709
695.406	0.0135908
695.484	0.0133712
695.562	0.0133872
695.640	0.0134577
695.718	0.0134095
695.796	0.0134836
695.874	0.0134682
695.953	0.0135206
696.031	0.0134769
696.109	0.0134818
696.187	0.0137770
696.265	0.0135992
696.343	0.0137737
696.421	0.0137695
696.499	0.0138113
696.578	0.0137466
696.656	0.0139934
696.734	0.0140356
696.812	0.0139416
696.890	0.0139405
696.968	0.0140224
697.046	0.0141936
697.124	0.0141017
697.203	0.0139806
697.281	0.0140364
697.359	0.0141544
697.437	0.0141044
697.515	0.0141700
697.593	0.0140714
697.671	0.0141100
697.749	0.0141162
697.828	0.0139308
697.906	0.0139945
697.984	0.0138326
698.062	0.0138488
698.140	0.0139619
698.218	0.0137656
698.296	0.0138695
698.374	0.0138563
698.453	0.0137991
698.531	0.0137868
698.609	0.0137720
698.687	0.0135949
698.765	0.0135561
698.843	0.0135062
698.921	0.0133875
698.999	0.0133556
699.078	0.0132637
699.156	0.0131803
699.234	0.0130652
699.312	0.0129400
699.390	0.0128429
699.468	0.0129543
699.546	0.0129810
699.624	0.0129147
699.703	0.0128410
699.781	0.0127477
699.859	0.0127279
699.937	0.0126608
700.015	0.0128632
700.093	0.0128057
700.171	0.0126335
700.249	0.0127076
700.328	0.0126973
700.406	0.0127316
700.484	0.0128117
700.562	0.0128419
700.640	0.0130239
700.718	0.0131742
700.796	0.0131221
700.874	0.0133673
700.953	0.0134404
701.031	0.0135866
701.109	0.0139003
701.187	0.0140519
701.265	0.0140646
701.343	0.0142221
701.421	0.0144367
701.499	0.0144206
701.578	0.0145351
701.656	0.0146458
701.734	0.0147523
701.812	0.0148045
701.890	0.0148346
701.968	0.0148377
702.046	0.0148169
702.124	0.0150259
702.203	0.0148060
702.281	0.0147596
702.359	0.0145402
702.437	0.0144018
702.515	0.0144219
702.593	0.0142753
702.671	0.0142783
702.749	0.0140841
702.828	0.0141145
702.906	0.0140351
702.984	0.0137748
703.062	0.0138264
703.140	0.0137332
703.218	0.0135590
703.296	0.0135152
703.374	0.0136832
703.453	0.0134758
703.531	0.0134613
703.609	0.0135139
703.687	0.0135748
703.765	0.0135578
703.843	0.0135046
703.921	0.0134806
703.999	0.0134519
704.078	0.0135091
704.156	0.0136105
704.234	0.0134573
704.312	0.0133234
704.390	0.0133939
704.468	0.0133875
704.546	0.0132774
704.624	0.0133344
704.703	0.0131934
704.781	0.0130946
704.859	0.0129916
704.937	0.0130379
705.015	0.0130231
705.093	0.0129194
705.171	0.0128965
705.249	0.0127984
705.328	0.0128801
705.406	0.0127908
705.484	0.0127464
705.562	0.0127632
705.640	0.0129610
705.718	0.0128926
705.796	0.0128991
705.874	0.0129648
705.953	0.0129807
706.031	0.0132758
706.109	0.0133950
706.187	0.0135844
706.265	0.0135731
706.343	0.0136098
706.421	0.0138457
706.499	0.0141602
706.578	0.0141710
706.656	0.0143470
706.734	0.0143953
706.812	0.0144844
706.890	0.0145250
706.968	0.0145240
707.046	0.0145119
707.124	0.0145033
707.203	0.0144445
707.281	0.0142550
707.359	0.0142612
707.437	0.0143356
707.515	0.0143653
707.593	0.0142999
707.671	0.0142420
707.749	0.0143357
707.828	0.0142559
707.906	0.0143579
707.984	0.0143903
708.062	0.0140928
708.140	0.0142849
708.218	0.0139748
708.296	0.0139452
708.374	0.0139273
708.453	0.0138678
708.531	0.0136646
708.609	0.0136814
708.687	0.0135783
708.765	0.0134263
708.843	0.0135043
708.921	0.0135101
708.999	0.0134953
709.078	0.0134141
709.156	0.0132606
709.234	0.0132268
709.312	0.0131775
709.390	0.0132545
709.468	0.0131736
709.546	0.0132658
709.624	0.0132553
709.703	0.0134203
709.781	0.0133607
709.859	0.0132059
709.937	0.0133936
710.015	0.0133683
710.093	0.0135754
710.171	0.0133916
710.249	0.0132938
710.328	0.0134569
710.406	0.0135886
710.484	0.0134425
710.562	0.0134300
710.640	0.0134647
710.718	0.0134519
710.796	0.0133361
710.874	0.0135258
710.953	0.0135667
711.031	0.0133154
711.109	0.0133327
711.187	0.0132044
711.265	0.0132494
711.343	0.0131991
711.421	0.0134482
711.499	0.0134161
711.578	0.0132149
711.656	0.0133064
711.734	0.0132190
711.812	0.0132456
711.890	0.0134653
711.968	0.0135461
712.046	0.0136406
712.124	0.0137637
712.203	0.0137292
712.281	0.0137573
712.359	0.0138261
712.437	0.0139028
712.515	0.0139063
712.593	0.0138784
712.671	0.0140045
712.749	0.0141303
712.828	0.0139719
712.906	0.0141724
712.984	0.0141351
713.062	0.0140783
713.140	0.0141216
713.218	0.0140599
713.296	0.0140894
713.374	0.0138431
713.453	0.0139074
713.531	0.0139099
713.609	0.0137361
713.687	0.0136893
713.765	0.0135651
713.843	0.0133913
713.921	0.0134203
713.999	0.0132354
714.078	0.0132814
714.156	0.0132113
714.234	0.0132296
714.312	0.0131324
714.390	0.0130698
714.468	0.0131968
714.546	0.0130418
714.624	0.0131432
714.703	0.0130958
714.781	0.0131802
714.859	0.0130868
714.937	0.0129916
715.015	0.0130848
715.093	0.0130245
715.171	0.0129193
715.249	0.0131222
715.328	0.0130563
715.406	0.0131945
715.484	0.0131256
715.562	0.0133743
715.640	0.0133501
715.718	0.0133766
715.796	0.0133627
715.874	0.0134064
715.953	0.0133720
716.031	0.0135713
716.109	0.0136155
716.187	0.0135007
716.265	0.0136279
716.343	0.0136264
716.421	0.0137113
716.499	0.0136371
716.578	0.0136526
716.656	0.0136532
716.734	0.0137333
716.812	0.0137332
716.890	0.0137509
716.968	0.0137943
717.046	0.0138109
717.124	0.0139388
717.203	0.0138768
717.281	0.0139252
717.359	0.0140668
717.437	0.0140256
717.515	0.0139033
717.593	0.0139854
717.671	0.0139554
717.749	0.0138970
717.828	0.0140980
717.906	0.0139949
717.984	0.0138467
718.062	0.0137110
718.140	0.0137418
718.218	0.0136938
718.296	0.0137675
718.374	0.0137025
718.453	0.0136848
718.531	0.0135865
718.609	0.0136330
718.687	0.0133548
718.765	0.0133545
718.843	0.0136365
718.921	0.0135284
718.999	0.0134737
719.078	0.0134811
719.156	0.0135468
719.234	0.0134293
719.312	0.0135300
719.390	0.0134826
719.468	0.0134077
719.546	0.0134190
719.624	0.0134447
719.703	0.0135578
719.781	0.0134373
719.859	0.0134280
719.937	0.0134534
720.015	0.0133358
720.093	0.0132845
720.171	0.0132981
720.249	0.0132298
720.328	0.0132353
720.406	0.0133430
720.484	0.0132623
720.562	0.0133080
720.640	0.0133016
720.718	0.0132107
720.796	0.0132903
720.874	0.0133513
720.953	0.0132574
721.031	0.0135133
721.109	0.0134427
721.187	0.0136683
721.265	0.0135697
721.343	0.0135357
721.421	0.0135215
721.499	0.0136462
721.578	0.0137269
721.656	0.0136712
721.734	0.0136946
721.812	0.0136552
721.890	0.0137577
721.968	0.0139617
722.046	0.0138818
722.124	0.0139676
722.203	0.0140306
722.281	0.0139203
722.359	0.0139821
722.437	0.0142208
722.515	0.0140096
722.593	0.0140799
722.671	0.0140445
722.749	0.0138483
722.828	0.0140157
722.906	0.0138606
722.984	0.0138118
723.062	0.0138914
723.140	0.0138663
723.218	0.0138227
723.296	0.0137184
723.374	0.0137875
723.453	0.0137003
723.531	0.0138926
723.609	0.0136914
723.687	0.0137628
723.765	0.0138055
723.843	0.0138090
723.921	0.0138196
723.999	0.0137135
724.078	0.0137870
724.156	0.0137779
724.234	0.0137068
724.312	0.0136867
724.390	0.0137079
724.468	0.0135234
724.546	0.0135397
724.624	0.0136185
724.703	0.0134822
724.781	0.0135023
724.859	0.0134028
724.937	0.0133110
725.015	0.0131654
725.093	0.0132633
725.171	0.0132273
725.249	0.0133189
725.328	0.0132524
725.406	0.0132217
725.484	0.0134146
725.562	0.0134200
725.640	0.0135875
725.718	0.0136158
725.796	0.0136335
725.874	0.0136452
725.953	0.0138213
726.031	0.0138408
726.109	0.0138604
726.187	0.0138271
726.265	0.0139211
726.343	0.0137730
726.421	0.0138364
726.499	0.0138368
726.578	0.0138658
726.656	0.0138242
726.734	0.0137982
726.812	0.0136858
726.890	0.0138043
726.968	0.0136705
727.046	0.0136123
727.124	0.0135947
727.203	0.0136249
727.281	0.0136063
727.359	0.0136442
727.437	0.0136948
727.515	0.0135904
727.593	0.0137036
727.671	0.0135812
727.749	0.0134790
727.828	0.0134364
727.906	0.0135811
727.984	0.0135946
728.062	0.0135506
728.140	0.0134969
728.218	0.0134264
728.296	0.0132945
728.374	0.0135095
728.453	0.0134151
728.531	0.0133896
728.609	0.0134042
728.687	0.0135121
728.765	0.0136097
728.843	0.0136810
728.921	0.0138267
728.999	0.0138171
729.078	0.0137011
729.156	0.0137907
729.234	0.0137614
729.312	0.0139532
729.390	0.0139402
729.468	0.0139166
729.546	0.0140440
729.624	0.0140223
729.703	0.0139674
729.781	0.0140652
729.859	0.0140623
729.937	0.0138415
730.015	0.0139459
730.093	0.0138903
730.171	0.0138867
730.249	0.0137867
730.328	0.0138467
730.406	0.0138560
730.484	0.0137872
730.562	0.0139110
730.640	0.0138716
730.718	0.0139084
730.796	0.0137730
730.874	0.0136543
730.953	0.0136002
731.031	0.0136613
731.109	0.0136064
731.187	0.0135606
731.265	0.0135748
731.343	0.0135821
731.421	0.0134334
731.499	0.0135535
731.578	0.0134940
731.656	0.0134473
731.734	0.0134241
731.812	0.0134982
731.890	0.0134634
731.968	0.0134452
732.046	0.0137164
732.124	0.0135327
732.203	0.0136929
732.281	0.0135188
732.359	0.0135359
732.437	0.0137130
732.515	0.0136816
732.593	0.0135455
732.671	0.0135330
732.749	0.0135959
732.828	0.0135091
732.906	0.0135217
732.984	0.0136172
733.062	0.0135968
733.140	0.0135018
733.218	0.0135444
733.296	0.0133855
733.374	0.0134245
733.453	0.0136298
733.531	0.0136633
733.609	0.0135467
733.687	0.0135316
733.765	0.0133942
733.843	0.0136163
733.921	0.0135698
733.999	0.0136140
734.078	0.0134674
734.156	0.0135840
734.234	0.0136924
734.312	0.0136633
734.390	0.0138210
734.468	0.0136121
734.546	0.0136536
734.624	0.0137981
734.703	0.0137212
734.781	0.0139066
734.859	0.0138427
734.937	0.0137548
735.015	0.0138407
735.093	0.0138892
735.171	0.0138412
735.249	0.0137366
735.328	0.0137227
735.406	0.0137374
735.484	0.0139070
735.562	0.0138493
735.640	0.0139693
735.718	0.0139367
735.796	0.0138188
735.874	0.0139028
735.953	0.0137599
736.031	0.0137786
736.109	0.0137533
736.187	0.0136107
736.265	0.0136913
736.343	0.0136002
736.421	0.0136210
736.499	0.0136417
736.578	0.0135480
736.656	0.0135111
736.734	0.0134676
736.812	0.0134911
736.890	0.0134061
736.968	0.0135083
737.046	0.0134695
737.124	0.0135060
737.203	0.0134964
737.281	0.0133981
737.359	0.0133698
737.437	0.0134441
737.515	0.0135127
737.593	0.0135593
737.671	0.0135610
737.749	0.0134866
737.828	0.0136749
737.906	0.0135212
737.984	0.0133868
738.062	0.0135654
738.140	0.0137012
738.218	0.0136330
738.296	0.0135791
738.374	0.0136913
738.453	0.0135928
738.531	0.0135268
738.609	0.0135126
738.687	0.0135659
738.765	0.0135662
738.843	0.0134335
738.921	0.0135373
738.999	0.0134942
739.078	0.0133214
739.156	0.0134090
739.234	0.0133788
739.312	0.0133176
739.390	0.0133080
739.468	0.0132413
739.546	0.0132792
739.624	0.0133143
739.703	0.0134037
739.781	0.0132129
739.859	0.0132193
739.937	0.0132176
740.015	0.0131303
740.093	0.0131793
740.171	0.0132832
740.249	0.0133311
740.328	0.0132681
740.406	0.0131079
740.484	0.0132226
740.562	0.0132822
740.640	0.0132207
740.718	0.0132853
740.796	0.0132905
740.874	0.0131071
740.953	0.0134441
741.031	0.0134484
741.109	0.0132370
741.187	0.0133060
741.265	0.0134187
741.343	0.0134898
741.421	0.0134214
741.499	0.0135302
741.578	0.0134977
741.656	0.0136926
741.734	0.0137965
741.812	0.0137203
741.890	0.0137684
741.968	0.0138108
742.046	0.0139722
742.124	0.0138953
742.203	0.0139874
742.281	0.0140229
742.359	0.0140154
742.437	0.0140858
742.515	0.0140470
742.593	0.0141001
742.671	0.0140953
742.749	0.0140251
742.828	0.0137675
742.906	0.0138789
742.984	0.0139663
743.062	0.0139841
743.140	0.0139750
743.218	0.0138019
743.296	0.0139214
743.374	0.0138337
743.453	0.0138954
743.531	0.0140588
743.609	0.0138251
743.687	0.0138854
743.765	0.0136441
743.843	0.0138065
743.921	0.0137538
743.999	0.0136490
744.078	0.0137523
744.156	0.0137652
744.234	0.0136441
744.312	0.0136903
744.390	0.0136554
744.468	0.0136518
744.546	0.0134917
744.624	0.0135899
744.703	0.0135547
744.781	0.0133991
744.859	0.0134401
744.937	0.0135323
745.015	0.0133413
745.093	0.0133349
745.171	0.0133429
745.249	0.0133020
745.328	0.0134449
745.406	0.0134054
745.484	0.0134398
745.562	0.0132955
745.640	0.0134158
745.718	0.0135382
745.796	0.0134660
745.874	0.0135198
745.953	0.0136918
746.031	0.0136437
746.109	0.0136154
746.187	0.0135419
746.265	0.0137375
746.343	0.0136546
746.421	0.0136320
746.499	0.0136672
746.578	0.0137892
746.656	0.0136407
746.734	0.0136879
746.812	0.0137029
746.890	0.0136668
746.968	0.0137141
747.046	0.0138243
747.124	0.0140072
747.203	0.0138409
747.281	0.0138293
747.359	0.0138855
747.437	0.0140807
747.515	0.0139307
747.593	0.0138618
747.671	0.0139033
747.749	0.0139013
747.828	0.0138105
747.906	0.0138770
747.984	0.0138749
748.062	0.0137400
748.140	0.0136610
748.218	0.0137224
748.296	0.0136938
748.374	0.0136250
748.453	0.0137086
748.531	0.0137128
748.609	0.0138741
748.687	0.0136692
748.765	0.0136063
748.843	0.0137447
748.921	0.0138862
748.999	0.0136924
749.078	0.0137122
749.156	0.0138042
749.234	0.0137975
749.312	0.0139031
749.390	0.0137387
749.468	0.0138354
749.546	0.0137142
749.624	0.0137751
749.703	0.0138261
749.781	0.0138285
749.859	0.0137404
749.937	0.0138818
750.015	0.0138190
750.093	0.0137930
750.171	0.0137742
750.249	0.0136305
750.328	0.0137089
750.406	0.0138686
750.484	0.0137321
750.562	0.0136898
750.640	0.0136369
750.718	0.0133830
750.796	0.0137056
750.874	0.0136388
750.953	0.0135108
751.031	0.0134281
751.109	0.0135224
751.187	0.0135337
751.265	0.0134803
751.343	0.0135051
751.421	0.0134800
751.499	0.0133337
751.578	0.0135400
751.656	0.0134439
751.734	0.0133842
751.812	0.0133556
751.890	0.0133614
751.968	0.0136053
752.046	0.0134778
752.124	0.0134464
752.203	0.0133718
752.281	0.0134447
752.359	0.0134521
752.437	0.0134420
752.515	0.0134438
752.593	0.0137502
752.671	0.0136483
752.749	0.0135921
752.828	0.0135964
752.906	0.0136154
752.984	0.0136966
753.062	0.0134949
753.140	0.0136107
753.218	0.0137667
753.296	0.0135765
753.374	0.0137168
753.453	0.0138424
753.531	0.0137431
753.609	0.0137463
753.687	0.0137589
753.765	0.0136785
753.843	0.0138043
753.921	0.0138272
753.999	0.0137164
754.078	0.0136237
754.156	0.0136105
754.234	0.0135120
754.312	0.0136682
754.390	0.0135726
754.468	0.0136012
754.546	0.0136162
754.624	0.0135175
754.703	0.0135255
754.781	0.0134998
754.859	0.0136234
754.937	0.0135247
755.015	0.0135471
755.093	0.0135473
755.171	0.0137350
755.249	0.0136410
755.328	0.0137781
755.406	0.0137638
755.484	0.0137286
755.562	0.0138226
755.640	0.0139082
755.718	0.0139491
755.796	0.0140476
755.874	0.0141122
755.953	0.0139787
756.031	0.0139944
756.109	0.0138947
756.187	0.0139957
756.265	0.0140035
756.343	0.0138723
756.421	0.0139686
756.499	0.0137679
756.578	0.0138743
756.656	0.0137572
756.734	0.0137325
756.812	0.0137794
756.890	0.0137758
756.968	0.0136584
757.046	0.0136021
757.124	0.0136658
757.203	0.0136050
757.281	0.0134162
757.359	0.0133717
757.437	0.0133185
757.515	0.0134560
757.593	0.0134132
757.671	0.0133226
757.749	0.0133250
757.828	0.0132488
757.906	0.0132684
757.984	0.0132743
758.062	0.0133842
758.140	0.0133372
758.218	0.0133166
758.296	0.0134642
758.374	0.0133970
758.453	0.0134353
758.531	0.0135046
758.609	0.0134680
758.687	0.0136222
758.765	0.0136017
758.843	0.0135359
758.921	0.0135836
758.999	0.0135789
759.078	0.0135197
759.156	0.0136807
759.234	0.0137448
759.312	0.0135452
759.390	0.0135727
759.468	0.0136581
759.546	0.0136099
759.624	0.0134973
759.703	0.0135556
759.781	0.0134821
759.859	0.0135479
759.937	0.0134483
760.015	0.0134037
760.093	0.0135154
760.171	0.0135058
760.249	0.0134045
760.328	0.0135757
760.406	0.0135362
760.484	0.0134565
760.562	0.0135666
760.640	0.0137670
760.718	0.0136752
760.796	0.0138157
760.874	0.0136193
760.953	0.0137188
761.031	0.0138387
761.109	0.0139038
761.187	0.0138346
761.265	0.0139171
761.343	0.0138158
761.421	0.0140015
761.499	0.0138051
761.578	0.0138889
761.656	0.0138889
761.734	0.0138990
761.812	0.0138863
761.890	0.0137432
761.968	0.0137483
762.046	0.0137688
762.124	0.0137533
762.203	0.0137157
762.281	0.0136577
762.359	0.0135683
762.437	0.0137459
762.515	0.0134962
762.593	0.0133949
762.671	0.0135483
762.749	0.0133826
762.828	0.0134415
762.906	0.0134875
762.984	0.0134690
763.062	0.0131909
763.140	0.0133807
763.218	0.0134319
763.296	0.0132906
763.374	0.0132909
763.453	0.0132393
763.531	0.0133601
763.609	0.0133926
763.687	0.0134642
763.765	0.0133920
763.843	0.0133734
763.921	0.0134626
763.999	0.0135549
764.078	0.0136923
764.156	0.0137186
764.234	0.0137072
764.312	0.0137595
764.390	0.0138248
764.468	0.0137830
764.546	0.0138764
764.624	0.0139508
764.703	0.0138976
764.781	0.0137897
764.859	0.0139113
764.937	0.0139227
765.015	0.0139213
765.093	0.0139114
765.171	0.0138918
765.249	0.0138268
765.328	0.0139299
765.406	0.0139447
765.484	0.0138181
765.562	0.0138057
765.640	0.0138612
765.718	0.0136600
765.796	0.0137344
765.874	0.0135653
765.953	0.0135217
766.031	0.0137850
766.109	0.0136776
766.187	0.0137440
766.265	0.0136423
766.343	0.0135753
766.421	0.0136726
766.499	0.0137683
766.578	0.0137484
766.656	0.0137514
766.734	0.0137218
766.812	0.0137165
766.890	0.0136353
766.968	0.0135429
767.046	0.0136953
767.124	0.0136042
767.203	0.0137119
767.281	0.0137526
767.359	0.0138342
767.437	0.0136981
767.515	0.0135865
767.593	0.0138039
767.671	0.0136749
767.749	0.0137035
767.828	0.0137636
767.906	0.0137064
767.984	0.0135585
768.062	0.0134999
768.140	0.0135329
768.218	0.0135818
768.296	0.0135549
768.374	0.0136230
768.453	0.0135711
768.531	0.0135368
768.609	0.0134577
768.687	0.0135526
768.765	0.0136271
768.843	0.0136494
768.921	0.0136338
768.999	0.0136932
769.078	0.0138026
769.156	0.0138108
769.234	0.0138083
769.312	0.0139255
769.390	0.0138125
769.468	0.0138728
769.546	0.0138882
769.624	0.0139819
769.703	0.0140234
769.781	0.0138814
769.859	0.0139125
769.937	0.0139672
770.015	0.0139745
770.093	0.0138579
770.171	0.0137295
770.249	0.0140547
770.328	0.0138766
770.406	0.0138047
770.484	0.0138678
770.562	0.0139200
770.640	0.0138416
770.718	0.0138624
770.796	0.0138707
770.874	0.0139139
770.953	0.0139294
771.031	0.0138068
771.109	0.0138176
771.187	0.0137301
771.265	0.0137717
771.343	0.0136980
771.421	0.0136382
771.499	0.0136116
771.578	0.0135525
771.656	0.0136241
771.734	0.0136303
771.812	0.0138158
771.890	0.0136324
771.968	0.0138099
772.046	0.0137191
772.124	0.0137080
772.203	0.0138625
772.281	0.0136573
772.359	0.0136204
772.437	0.0136507
772.515	0.0135728
772.593	0.0136107
772.671	0.0134632
772.749	0.0135905
772.828	0.0135773
772.906	0.0134421
772.984	0.0133933
773.062	0.0135495
773.140	0.0134997
773.218	0.0136125
773.296	0.0132994
773.374	0.0133946
773.453	0.0134900
773.531	0.0135052
773.609	0.0133096
773.687	0.0134226
773.765	0.0133202
773.843	0.0134157
773.921	0.0134509
773.999	0.0133601
774.078	0.0134131
774.156	0.0133953
774.234	0.0134583
774.312	0.0134215
774.390	0.0132505
774.468	0.0133279
774.546	0.0132954
774.624	0.0133046
774.703	0.0132632
774.781	0.0131901
774.859	0.0134439
774.937	0.0135012
775.015	0.0134885
775.093	0.0134386
775.171	0.0134442
775.249	0.0134589
775.328	0.0134750
775.406	0.0134999
775.484	0.0134294
775.562	0.0136362
775.640	0.0136483
775.718	0.0134475
775.796	0.0135202
775.874	0.0135754
775.953	0.0135075
776.031	0.0134637
776.109	0.0134518
776.187	0.0134723
776.265	0.0135616
776.343	0.0134757
776.421	0.0133444
776.499	0.0134933
776.578	0.0136617
776.656	0.0136526
776.734	0.0135910
776.812	0.0136710
776.890	0.0136981
776.968	0.0137552
777.046	0.0137299
777.124	0.0137682
777.203	0.0136570
777.281	0.0137673
777.359	0.0138017
777.437	0.0137189
777.515	0.0135423
777.593	0.0134571
777.671	0.0134748
777.749	0.0133588
777.828	0.0131914
777.906	0.0131757
777.984	0.0131871
778.062	0.0132042
778.140	0.0131673
778.218	0.0131875
778.296	0.0131371
778.374	0.0132477
778.453	0.0132959
778.531	0.0132536
778.609	0.0133113
778.687	0.0133971
778.765	0.0133120
778.843	0.0131358
778.921	0.0130444
778.999	0.0131965
779.078	0.0132173
779.156	0.0132877
779.234	0.0132706
779.312	0.0132548
779.390	0.0133149
779.468	0.0132783
779.546	0.0134249
779.624	0.0134702
779.703	0.0136317
779.781	0.0135929
779.859	0.0136111
779.937	0.0137488
780.015	0.0138550
780.093	0.0137965
780.171	0.0139658
780.249	0.0139269
780.328	0.0139037
780.406	0.0139326
780.484	0.0139861
780.562	0.0138587
780.640	0.0139300
780.718	0.0138699
780.796	0.0139312
780.874	0.0139159
780.953	0.0137845
781.031	0.0138345
781.109	0.0138628
781.187	0.0138256
781.265	0.0137262
781.343	0.0138589
781.421	0.0138276
781.499	0.0138169
781.578	0.0138299
781.656	0.0137892
781.734	0.0137550
781.812	0.0139573
781.890	0.0139083
781.968	0.0139093
782.046	0.0140250
782.124	0.0139554
782.203	0.0139709
782.281	0.0139256
782.359	0.0138494
782.437	0.0139074
782.515	0.0137856
782.593	0.0138366
782.671	0.0137865
782.749	0.0136725
782.828	0.0136643
782.906	0.0137746
782.984	0.0136852
783.062	0.0136747
783.140	0.0136912
783.218	0.0137638
783.296	0.0137755
783.374	0.0138708
783.453	0.0137125
783.531	0.0137144
783.609	0.0138048
783.687	0.0136469
783.765	0.0136176
783.843	0.0134240
783.921	0.0135154
783.999	0.0134657
784.078	0.0133469
784.156	0.0132706
784.234	0.0132886
784.312	0.0134163
784.390	0.0130962
784.468	0.0132671
784.546	0.0133820
784.624	0.0131460
784.703	0.0133782
784.781	0.0133617
784.859	0.0133535
784.937	0.0134618
785.015	0.0135275
785.093	0.0133675
785.171	0.0136330
785.249	0.0136870
785.328	0.0136700
785.406	0.0136922
785.484	0.0138599
785.562	0.0138356
785.640	0.0138364
785.718	0.0140167
785.796	0.0139642
785.874	0.0139510
785.953	0.0139389
786.031	0.0140034
786.109	0.0140327
786.187	0.0140769
786.265	0.0140311
786.343	0.0140253
786.421	0.0140557
786.499	0.0140028
786.578	0.0139230
786.656	0.0140430
786.734	0.0140041
786.812	0.0139127
786.890	0.0139678
786.968	0.0138411
787.046	0.0138059
787.124	0.0139200
787.203	0.0138005
787.281	0.0137688
787.359	0.0138274
787.437	0.0137704
787.515	0.0135934
787.593	0.0138192
787.671	0.0138714
787.749	0.0137348
787.828	0.0137846
787.906	0.0137774
787.984	0.0136855
788.062	0.0136499
788.140	0.0138504
788.218	0.0138646
788.296	0.0136268
788.374	0.0138499
788.453	0.0137753
788.531	0.0137185
788.609	0.0136842
788.687	0.0136272
788.765	0.0136513
788.843	0.0137029
788.921	0.0136129
788.999	0.0134978
789.078	0.0134406
789.156	0.0134590
789.234	0.0134147
789.312	0.0134267
789.390	0.0135896
789.468	0.0132973
789.546	0.0134195
789.624	0.0135330
789.703	0.0134261
789.781	0.0134661
789.859	0.0134515
789.937	0.0132817
790.015	0.0133369
790.093	0.0134808
790.171	0.0134528
790.249	0.0133425
790.328	0.0133825
790.406	0.0133218
790.484	0.0132101
790.562	0.0132932
790.640	0.0131873
790.718	0.0134245
790.796	0.0132831
790.874	0.0133241
790.953	0.0133645
791.031	0.0133282
791.109	0.0135913
791.187	0.0135374
791.265	0.0135886
791.343	0.0136903
791.421	0.0137945
791.499	0.0138465
791.578	0.0137315
791.656	0.0139606
791.734	0.0139248
791.812	0.0137682
791.890	0.0138159
791.968	0.0137170
792.046	0.0136880
792.124	0.0136712
792.203	0.0134998
792.281	0.0134814
792.359	0.0136022
792.437	0.0133727
792.515	0.0133122
792.593	0.0134870
792.671	0.0135310
792.749	0.0133996
792.828	0.0133907
792.906	0.0135839
792.984	0.0137705
793.062	0.0136909
793.140	0.0136776
793.218	0.0135928
793.296	0.0135953
793.374	0.0137204
793.453	0.0138383
793.531	0.0136265
793.609	0.0136570
793.687	0.0135950
793.765	0.0135086
793.843	0.0138089
793.921	0.0137350
793.999	0.0137409
794.078	0.0137537
794.156	0.0137957
794.234	0.0136817
794.312	0.0138124
794.390	0.0138591
794.468	0.0137917
794.546	0.0138072
794.624	0.0138114
794.703	0.0136995
794.781	0.0137051
794.859	0.0135948
794.937	0.0136183
795.015	0.0136500
795.093	0.0133132
795.171	0.0134031
795.249	0.0135375
795.328	0.0134508
795.406	0.0133586
795.484	0.0133525
795.562	0.0132861
795.640	0.0132698
795.718	0.0132605
795.796	0.0132185
795.874	0.0131904
795.953	0.0132445
796.031	0.0133315
796.109	0.0131425
796.187	0.0132780
796.265	0.0134549
796.343	0.0133456
796.421	0.0133302
796.499	0.0134980
796.578	0.0134016
796.656	0.0134909
796.734	0.0135419
796.812	0.0134817
796.890	0.0135516
796.968	0.0136741
797.046	0.0134653
797.124	0.0134455
797.203	0.0135424
797.281	0.0134585
797.359	0.0135014
797.437	0.0133834
797.515	0.0134035
797.593	0.0135261
797.671	0.0133477
797.749	0.0134168
797.828	0.0133479
797.906	0.0133933
797.984	0.0134098
798.062	0.0134145
798.140	0.0133630
798.218	0.0135281
798.296	0.0134287
798.374	0.0135306
798.453	0.0134189
798.531	0.0135415
798.609	0.0135442
798.687	0.0136568
798.765	0.0135725
798.843	0.0136944
798.921	0.0137180
798.999	0.0137542
799.078	0.0138049
799.156	0.0138652
799.234	0.0138745
799.312	0.0139887
799.390	0.0139140
799.468	0.0138823
799.546	0.0139365
799.624	0.0138376
799.703	0.0137936
799.781	0.0139314
799.859	0.0138068
799.937	0.0138271
800.015	0.0137817
800.093	0.0135583
800.171	0.0136957
800.249	0.0137136
800.328	0.0137034
800.406	0.0136149
800.484	0.0136368
800.562	0.0135286
800.640	0.0135220
800.718	0.0136086
800.796	0.0135386
800.874	0.0134172
800.953	0.0134315
801.031	0.0133945
801.109	0.0133776
801.187	0.0133992
801.265	0.0134105
801.343	0.0135397
801.421	0.0135232
801.499	0.0134054
801.578	0.0135696
801.656	0.0135371
801.734	0.0135786
801.812	0.0136221
801.890	0.0137435
801.968	0.0137965
802.046	0.0137260
802.124	0.0137244
802.203	0.0137329
802.281	0.0137524
802.359	0.0137862
802.437	0.0137708
802.515	0.0135326
802.593	0.0136103
802.671	0.0136150
802.749	0.0135328
802.828	0.0134740
802.906	0.0135664
802.984	0.0135744
803.062	0.0133219
803.140	0.0133805
803.218	0.0132733
803.296	0.0134142
803.374	0.0133895
803.453	0.0134885
803.531	0.0135936
803.609	0.0134800
803.687	0.0135041
803.765	0.0134688
803.843	0.0133780
803.921	0.0134415
803.999	0.0134734
804.078	0.0135134
804.156	0.0133712
804.234	0.0134834
804.312	0.0135263
804.390	0.0135154
804.468	0.0134888
804.546	0.0134637
804.624	0.0134220
804.703	0.0134425
804.781	0.0136295
804.859	0.0136843
804.937	0.0136557
805.015	0.0136893
805.093	0.0138434
805.171	0.0138187
805.249	0.0137501
805.328	0.0138477
805.406	0.0139717
805.484	0.0138787
805.562	0.0137412
805.640	0.0136925
805.718	0.0137632
805.796	0.0138317
805.874	0.0137012
805.953	0.0137643
806.031	0.0137238
806.109	0.0137369
806.187	0.0137391
806.265	0.0139149
806.343	0.0138956
806.421	0.0137416
806.499	0.0138731
806.578	0.0137447
806.656	0.0137102
806.734	0.0138631
806.812	0.0135489
806.890	0.0136302
806.968	0.0136066
807.046	0.0134752
807.124	0.0135181
807.203	0.0134947
807.281	0.0134804
807.359	0.0135217
807.437	0.0135995
807.515	0.0135521
807.593	0.0136480
807.671	0.0137064
807.749	0.0136022
807.828	0.0136453
807.906	0.0134948
807.984	0.0135396
808.062	0.0135486
808.140	0.0135268
808.218	0.0134354
808.296	0.0132608
808.374	0.0134519
808.453	0.0134291
808.531	0.0131030
808.609	0.0132304
808.687	0.0131900
808.765	0.0132177
808.843	0.0132651
808.921	0.0132438
808.999	0.0133739
809.078	0.0134015
809.156	0.0135239
809.234	0.0135094
809.312	0.0135482
809.390	0.0135671
809.468	0.0136572
809.546	0.0137587
809.624	0.0138444
809.703	0.0139969
809.781	0.0139850
809.859	0.0139065
809.937	0.0138863
810.015	0.0139881
810.093	0.0138061
810.171	0.0140326
810.249	0.0140321
810.328	0.0138424
810.406	0.0140263
810.484	0.0139286
810.562	0.0138708
810.640	0.0138466
810.718	0.0137672
810.796	0.0137561
810.874	0.0136584
810.953	0.0137826
811.031	0.0136166
811.109	0.0136862
811.187	0.0137090
811.265	0.0137327
811.343	0.0135254
811.421	0.0135468
811.499	0.0134280
811.578	0.0135612
811.656	0.0134683
811.734	0.0134735
811.812	0.0135102
811.890	0.0134958
811.968	0.0135105
812.046	0.0134889
812.124	0.0134586
812.203	0.0136494
812.281	0.0137106
812.359	0.0137103
812.437	0.0136559
812.515	0.0137202
812.593	0.0138106
812.671	0.0138694
812.749	0.0139064
812.828	0.0139943
812.906	0.0139182
812.984	0.0138780
813.062	0.0139692
813.140	0.0139220
813.218	0.0138548
813.296	0.0138773
813.374	0.0137868
813.453	0.0136380
813.531	0.0136359
813.609	0.0135996
813.687	0.0135302
813.765	0.0133820
813.843	0.0132555
813.921	0.0133914
813.999	0.0134161
814.078	0.0132527
814.156	0.0132779
814.234	0.0132777
814.312	0.0133104
814.390	0.0132993
814.468	0.0133401
814.546	0.0135056
814.624	0.0133269
814.703	0.0133176
814.781	0.0133815
814.859	0.0133766
814.937	0.0133540
815.015	0.0133290
815.093	0.0133673
815.171	0.0134700
815.249	0.0135371
815.328	0.0134178
815.406	0.0137704
815.484	0.0136776
815.562	0.0136363
815.640	0.0136385
815.718	0.0137923
815.796	0.0138064
815.874	0.0139354
815.953	0.0137164
816.031	0.0137942
816.109	0.0138277
816.187	0.0137929
816.265	0.0136871
816.343	0.0137605
816.421	0.0136818
816.499	0.0136644
816.578	0.0137135
816.656	0.0137015
816.734	0.0136615
816.812	0.0137133
816.890	0.0135469
816.968	0.0135122
817.046	0.0135875
817.124	0.0134770
817.203	0.0133060
817.281	0.0133386
817.359	0.0133051
817.437	0.0133353
817.515	0.0134071
817.593	0.0134120
817.671	0.0133785
817.749	0.0133989
817.828	0.0135472
817.906	0.0133145
817.984	0.0134191
818.062	0.0135433
818.140	0.0135923
818.218	0.0136427
818.296	0.0134850
818.374	0.0134602
818.453	0.0134235
818.531	0.0136311
818.609	0.0135075
818.687	0.0135009
818.765	0.0134983
818.843	0.0135049
818.921	0.0133959
818.999	0.0133731
819.078	0.0133543
819.156	0.0134662
819.234	0.0134815
819.312	0.0133734
819.390	0.0134161
819.468	0.0133620
819.546	0.0134309
819.624	0.0134228
819.703	0.0133940
819.781	0.0134099
819.859	0.0134727
819.937	0.0133787
820.015	0.0135873
820.093	0.0134738
820.171	0.0134698
820.249	0.0134515
820.328	0.0133553
820.406	0.0134612
820.484	0.0136143
820.562	0.0137669
820.640	0.0136783
820.718	0.0136314
820.796	0.0138449
820.874	0.0138818
820.953	0.0137571
821.031	0.0138383
821.109	0.0138954
821.187	0.0138231
821.265	0.0139198
821.343	0.0138448
821.421	0.0138831
821.499	0.0138194
821.578	0.0137514
821.656	0.0138055
821.734	0.0138618
821.812	0.0136522
821.890	0.0136333
821.968	0.0137521
822.046	0.0138332
822.124	0.0135352
822.203	0.0136407
822.281	0.0136481
822.359	0.0136961
822.437	0.0136272
822.515	0.0136077
822.593	0.0136313
822.671	0.0134682
822.749	0.0135867
822.828	0.0137272
822.906	0.0135882
822.984	0.0137135
823.062	0.0137761
823.140	0.0137745
823.218	0.0138340
823.296	0.0137618
823.374	0.0137947
823.453	0.0138409
823.531	0.0138741
823.609	0.0139391
823.687	0.0139265
823.765	0.0139994
823.843	0.0140102
823.921	0.0140443
823.999	0.0138989
824.078	0.0139132
824.156	0.0138963
824.234	0.0137505
824.312	0.0139655
824.390	0.0139003
824.468	0.0137270
824.546	0.0137411
824.624	0.0137253
824.703	0.0138029
824.781	0.0136877
824.859	0.0137035
824.937	0.0136606
825.015	0.0137415
825.093	0.0135568
825.171	0.0136942
825.249	0.0137536
825.328	0.0137015
825.406	0.0137390
825.484	0.0137325
825.562	0.0138286
825.640	0.0137716
825.718	0.0138167
825.796	0.0137621
825.874	0.0138509
825.953	0.0139095
826.031	0.0138683
826.109	0.0139869
826.187	0.0138461
826.265	0.0137771
826.343	0.0139146
826.421	0.0137729
826.499	0.0139173
826.578	0.0137929
826.656	0.0139083
826.734	0.0139140
826.812	0.0137856
826.890	0.0138277
826.968	0.0139229
827.046	0.0137366
827.124	0.0137388
827.203	0.0138256
827.281	0.0136336
827.359	0.0136714
827.437	0.0137239
827.515	0.0137056
827.593	0.0136225
827.671	0.0135186
827.749	0.0134628
827.828	0.0135927
827.906	0.0135294
827.984	0.0135188
828.062	0.0134311
828.140	0.0134974
828.218	0.0135172
828.296	0.0134210
828.374	0.0134590
828.453	0.0135455
828.531	0.0134399
828.609	0.0134332
828.687	0.0135139
828.765	0.0135718
828.843	0.0136058
828.921	0.0135556
828.999	0.0134330
829.078	0.0134868
829.156	0.0135739
829.234	0.0134095
829.312	0.0136563
829.390	0.0135406
829.468	0.0136000
829.546	0.0134417
829.624	0.0134844
829.703	0.0134397
829.781	0.0134074
829.859	0.0132135
829.937	0.0134123
830.015	0.0134562
830.093	0.0134772
830.171	0.0133102
830.249	0.0134710
830.328	0.0134360
830.406	0.0134542
830.484	0.0134442
830.562	0.0135027
830.640	0.0136123
830.718	0.0136416
830.796	0.0135224
830.874	0.0136839
830.953	0.0135680
831.031	0.0136954
831.109	0.0135594
831.187	0.0136006
831.265	0.0135833
831.343	0.0135455
831.421	0.0137379
831.499	0.0137057
831.578	0.0135787
831.656	0.0136693
831.734	0.0136612
831.812	0.0137479
831.890	0.0136398
831.968	0.0136935
832.046	0.0136269
832.124	0.0138236
832.203	0.0137228
832.281	0.0135484
832.359	0.0135306
832.437	0.0136391
832.515	0.0136610
832.593	0.0135180
832.671	0.0133818
832.749	0.0132859
832.828	0.0134238
832.906	0.0135067
832.984	0.0133878
833.062	0.0134556
833.140	0.0135744
833.218	0.0135219
833.296	0.0133566
833.374	0.0134590
833.453	0.0136064
833.531	0.0136620
833.609	0.0134853
833.687	0.0135453
833.765	0.0135736
833.843	0.0135637
833.921	0.0135148
833.999	0.0135165
834.078	0.0135407
834.156	0.0135383
834.234	0.0136720
834.312	0.0137090
834.390	0.0135564
834.468	0.0135705
834.546	0.0137212
834.624	0.0136070
834.703	0.0136536
834.781	0.0135245
834.859	0.0135596
834.937	0.0136772
835.015	0.0136320
835.093	0.0136875
835.171	0.0137672
835.249	0.0137379
835.328	0.0136345
835.406	0.0137362
835.484	0.0136875
835.562	0.0136894
835.640	0.0137531
835.718	0.0136721
835.796	0.0136703
835.874	0.0137393
835.953	0.0135196
836.031	0.0136048
836.109	0.0137405
836.187	0.0135511
836.265	0.0134982
836.343	0.0136335
836.421	0.0136535
836.499	0.0135288
836.578	0.0135059
836.656	0.0134579
836.734	0.0134344
836.812	0.0135612
836.890	0.0136135
836.968	0.0134774
837.046	0.0134610
837.124	0.0133646
837.203	0.0135581
837.281	0.0133747
837.359	0.0134077
837.437	0.0133975
837.515	0.0136356
837.593	0.0132995
837.671	0.0133844
837.749	0.0133950
837.828	0.0134058
837.906	0.0135764
837.984	0.0134479
838.062	0.0134673
838.140	0.0136403
838.218	0.0136514
838.296	0.0136237
838.374	0.0136591
838.453	0.0136913
838.531	0.0136903
838.609	0.0137858
838.687	0.0139194
838.765	0.0139069
838.843	0.0138853
838.921	0.0137065
838.999	0.0137024
839.078	0.0138268
839.156	0.0139653
839.234	0.0138616
839.312	0.0137095
839.390	0.0137421
839.468	0.0135737
839.546	0.0136810
839.624	0.0137381
839.703	0.0135311
839.781	0.0135605
839.859	0.0135574
839.937	0.0135568
840.015	0.0136252
840.093	0.0135771
840.171	0.0136259
840.249	0.0135488
840.328	0.0134644
840.406	0.0135410
840.484	0.0134797
840.562	0.0134839
840.640	0.0136831
840.718	0.0134789
840.796	0.0135110
840.874	0.0133791
840.953	0.0134503
841.031	0.0134873
841.109	0.0136745
841.187	0.0136230
841.265	0.0136088
841.343	0.0136834
841.421	0.0136418
841.499	0.0137241
841.578	0.0137827
841.656	0.0137829
841.734	0.0137474
841.812	0.0137238
841.890	0.0137278
841.968	0.0136414
842.046	0.0137119
842.124	0.0137092
842.203	0.0136578
842.281	0.0136338
842.359	0.0137103
842.437	0.0136693
842.515	0.0135192
842.593	0.0133848
842.671	0.0136432
842.749	0.0134882
842.828	0.0135940
842.906	0.0136646
842.984	0.0136918
843.062	0.0135294
843.140	0.0134113
843.218	0.0135982
843.296	0.0134344
843.374	0.0135065
843.453	0.0134708
843.531	0.0135683
843.609	0.0134731
843.687	0.0135458
843.765	0.0136509
843.843	0.0135667
843.921	0.0136358
843.999	0.0135131
844.078	0.0136751
844.156	0.0138029
844.234	0.0138918
844.312	0.0136984
844.390	0.0136672
844.468	0.0137849
844.546	0.0139455
844.624	0.0139463
844.703	0.0138008
844.781	0.0140105
844.859	0.0140904
844.937	0.0139975
845.015	0.0140292
845.093	0.0139944
845.171	0.0139493
845.249	0.0141044
845.328	0.0140207
845.406	0.0139780
845.484	0.0139738
845.562	0.0137992
845.640	0.0138932
845.718	0.0139391
845.796	0.0137988
845.874	0.0138176
845.953	0.0137578
846.031	0.0137218
846.109	0.0137328
846.187	0.0135975
846.265	0.0137820
846.343	0.0137359
846.421	0.0135646
846.499	0.0137605
846.578	0.0136464
846.656	0.0136588
846.734	0.0136166
846.812	0.0137797
846.890	0.0137650
846.968	0.0136255
847.046	0.0135007
847.124	0.0136987
847.203	0.0136143
847.281	0.0137344
847.359	0.0136657
847.437	0.0134969
847.515	0.0135168
847.593	0.0136423
847.671	0.0136366
847.749	0.0135625
847.828	0.0137045
847.906	0.0137885
847.984	0.0134881
848.062	0.0134600
848.140	0.0135539
848.218	0.0135817
848.296	0.0134238
848.374	0.0133700
848.453	0.0134158
848.531	0.0133495
848.609	0.0132851
848.687	0.0133203
848.765	0.0134619
848.843	0.0135878
848.921	0.0134225
848.999	0.0133990
849.078	0.0134168
849.156	0.0134090
849.234	0.0135413
849.312	0.0135368
849.390	0.0136844
849.468	0.0138560
849.546	0.0137257
849.624	0.0137984
849.703	0.0138399
849.781	0.0138586
849.859	0.0139178
849.937	0.0140549
850.015	0.0140276
850.093	0.0138333
850.171	0.0139965
850.249	0.0141240
850.328	0.0140883
850.406	0.0139561
850.484	0.0138667
850.562	0.0140701
850.640	0.0139971
850.718	0.0140630
850.796	0.0141046
850.874	0.0141466
850.953	0.0141085
851.031	0.0141705
851.109	0.0139827
851.187	0.0139258
851.265	0.0140791
851.343	0.0140671
851.421	0.0138992
851.499	0.0137409
851.578	0.0138998
851.656	0.0136703
851.734	0.0136763
851.812	0.0136060
851.890	0.0136509
851.968	0.0134670
852.046	0.0133775
852.124	0.0133919
852.203	0.0134027
852.281	0.0132870
852.359	0.0132674
852.437	0.0132636
852.515	0.0131749
852.593	0.0133815
852.671	0.0133979
852.749	0.0133098
852.828	0.0133475
852.906	0.0134140
852.984	0.0133153
853.062	0.0133018
853.140	0.0133635
853.218	0.0133529
853.296	0.0133530
853.374	0.0134046
853.453	0.0133523
853.531	0.0132133
853.609	0.0134125
853.687	0.0133165
853.765	0.0133026
853.843	0.0132867
853.921	0.0134193
853.999	0.0134172
854.078	0.0131776
854.156	0.0132633
854.234	0.0135865
854.312	0.0133121
854.390	0.0133252
854.468	0.0133799
854.546	0.0135870
854.624	0.0135335
854.703	0.0136172
854.781	0.0135460
854.859	0.0135563
854.937	0.0135704
855.015	0.0135748
855.093	0.0136845
855.171	0.0137377
855.249	0.0137794
855.328	0.0136817
855.406	0.0136335
855.484	0.0137688
855.562	0.0136361
855.640	0.0137135
855.718	0.0137431
855.796	0.0136515
855.874	0.0136671
855.953	0.0136237
856.031	0.0136696
856.109	0.0136449
856.187	0.0137294
856.265	0.0136165
856.343	0.0135659
856.421	0.0136036
856.499	0.0135577
856.578	0.0136166
856.656	0.0135230
856.734	0.0135387
856.812	0.0136059
856.890	0.0135714
856.968	0.0134005
857.046	0.0133105
857.124	0.0135130
857.203	0.0135622
857.281	0.0134555
857.359	0.0134470
857.437	0.0135191
857.515	0.0134227
857.593	0.0135570
857.671	0.0134048
857.749	0.0135480
857.828	0.0134686
857.906	0.0132859
857.984	0.0135155
858.062	0.0135767
858.140	0.0136187
858.218	0.0135214
858.296	0.0134989
858.374	0.0135814
858.453	0.0135062
858.531	0.0134430
858.609	0.0134777
858.687	0.0133447
858.765	0.0133678
858.843	0.0133345
858.921	0.0132797
858.999	0.0132748
859.078	0.0133717
859.156	0.0134132
859.234	0.0133675
859.312	0.0134510
859.390	0.0134171
859.468	0.0133662
859.546	0.0134312
859.624	0.0135919
859.703	0.0134398
859.781	0.0135223
859.859	0.0135374
859.937	0.0135054
860.015	0.0135681
860.093	0.0136288
860.171	0.0136643
860.249	0.0136362
860.328	0.0136604
860.406	0.0137531
860.484	0.0136323
860.562	0.0137561
860.640	0.0138241
860.718	0.0139280
860.796	0.0139268
860.874	0.0138689
860.953	0.0138403
861.031	0.0139723
861.109	0.0141020
861.187	0.0139197
861.265	0.0139531
861.343	0.0138701
861.421	0.0139303
861.499	0.0138424
861.578	0.0139368
861.656	0.0140745
861.734	0.0138746
861.812	0.0138398
861.890	0.0137513
861.968	0.0136774
862.046	0.0138614
862.124	0.0136751
862.203	0.0135786
862.281	0.0137184
862.359	0.0136038
862.437	0.0137332
862.515	0.0136987
862.593	0.0135657
862.671	0.0135699
862.749	0.0133566
862.828	0.0135419
862.906	0.0134000
862.984	0.0134307
863.062	0.0135134
863.140	0.0135860
863.218	0.0133916
863.296	0.0133535
863.374	0.0133990
863.453	0.0136378
863.531	0.0134303
863.609	0.0134867
863.687	0.0135378
863.765	0.0135543
863.843	0.0135948
863.921	0.0135628
863.999	0.0136086
864.078	0.0135870
864.156	0.0135668
864.234	0.0136617
864.312	0.0135911
864.390	0.0136339
864.468	0.0135671
864.546	0.0136747
864.624	0.0137176
864.703	0.0136610
864.781	0.0135373
864.859	0.0136135
864.937	0.0136053
865.015	0.0135944
865.093	0.0137436
865.171	0.0136548
865.249	0.0136145
865.328	0.0136686
865.406	0.0138929
865.484	0.0136958
865.562	0.0139349
865.640	0.0136737
865.718	0.0137209
865.796	0.0137592
865.874	0.0137445
865.953	0.0137526
866.031	0.0137659
866.109	0.0138853
866.187	0.0137232
866.265	0.0137440
866.343	0.0137579
866.421	0.0137571
866.499	0.0136479
866.578	0.0137991
866.656	0.0139122
866.734	0.0138723
866.812	0.0136884
866.890	0.0137303
866.968	0.0136705
867.046	0.0138299
867.124	0.0138023
867.203	0.0136583
867.281	0.0138241
867.359	0.0137491
867.437	0.0137724
867.515	0.0136732
867.593	0.0136813
867.671	0.0136096
867.749	0.0137679
867.828	0.0135894
867.906	0.0136403
867.984	0.0137256
868.062	0.0136873
868.140	0.0136823
868.218	0.0137298
868.296	0.0137218
868.374	0.0136327
868.453	0.0136983
868.531	0.0137055
868.609	0.0138445
868.687	0.0137060
868.765	0.0138117
868.843	0.0137357
868.921	0.0135558
868.999	0.0136423
869.078	0.0136855
869.156	0.0137531
869.234	0.0138117
869.312	0.0138253
869.390	0.0135558
869.468	0.0136356
869.546	0.0135558
869.624	0.0134888
869.703	0.0135812
869.781	0.0135735
869.859	0.0134956
869.937	0.0136642
870.015	0.0134489
870.093	0.0134700
870.171	0.0134219
870.249	0.0134891
870.328	0.0135952
870.406	0.0134272
870.484	0.0135700
870.562	0.0134679
870.640	0.0134901
870.718	0.0136456
870.796	0.0136427
870.874	0.0135729
870.953	0.0137242
871.031	0.0136133
871.109	0.0136584
871.187	0.0137714
871.265	0.0136450
871.343	0.0137147
871.421	0.0137958
871.499	0.0137431
871.578	0.0137305
871.656	0.0136059
871.734	0.0136923
871.812	0.0136279
871.890	0.0137337
871.968	0.0137402
872.046	0.0137251
872.124	0.0136373
872.203	0.0135327
872.281	0.0134953
872.359	0.0137065
872.437	0.0135423
872.515	0.0135698
872.593	0.0133833
872.671	0.0134398
872.749	0.0134470
872.828	0.0135605
872.906	0.0134635
872.984	0.0134327
873.062	0.0134891
873.140	0.0134810
873.218	0.0134969
873.296	0.0134694
873.374	0.0134698
873.453	0.0136412
873.531	0.0136183
873.609	0.0137048
873.687	0.0136526
873.765	0.0135410
873.843	0.0135493
873.921	0.0137376
873.999	0.0137715
874.078	0.0136299
874.156	0.0136470
874.234	0.0137167
874.312	0.0136696
874.390	0.0138954
874.468	0.0137198
874.546	0.0138340
874.624	0.0138519
874.703	0.0137917
874.781	0.0138055
874.859	0.0137911
874.937	0.0139551
875.015	0.0138845
875.093	0.0138443
875.171	0.0137297
875.249	0.0137704
875.328	0.0137676
875.406	0.0138086
875.484	0.0136432
875.562	0.0136557
875.640	0.0136742
875.718	0.0135580
875.796	0.0137977
875.874	0.0136642
875.953	0.0137753
876.031	0.0135912
876.109	0.0135139
876.187	0.0136292
876.265	0.0136021
876.343	0.0136695
876.421	0.0136428
876.499	0.0137136
876.578	0.0135540
876.656	0.0136417
876.734	0.0136435
876.812	0.0137655
876.890	0.0136875
876.968	0.0137550
877.046	0.0138120
877.124	0.0137174
877.203	0.0135796
877.281	0.0138258
877.359	0.0137708
877.437	0.0136840
877.515	0.0136450
877.593	0.0136420
877.671	0.0137120
877.749	0.0137112
877.828	0.0135287
877.906	0.0136266
877.984	0.0135588
878.062	0.0134873
878.140	0.0135308
878.218	0.0134544
878.296	0.0135465
878.374	0.0136800
878.453	0.0134594
878.531	0.0135027
878.609	0.0134334
878.687	0.0135027
878.765	0.0135776
878.843	0.0135708
878.921	0.0134902
878.999	0.0136279
879.078	0.0137062
879.156	0.0135825
879.234	0.0136051
879.312	0.0135718
879.390	0.0134853
879.468	0.0135090
879.546	0.0134461
879.624	0.0136073
879.703	0.0135352
879.781	0.0135810
879.859	0.0135110
879.937	0.0135430
880.015	0.0136889
880.093	0.0136155
880.171	0.0136471
880.249	0.0137277
880.328	0.0136759
880.406	0.0137102
880.484	0.0136424
880.562	0.0137729
880.640	0.0136539
880.718	0.0136069
880.796	0.0137455
880.874	0.0137386
880.953	0.0135987
881.031	0.0136638
881.109	0.0136818
881.187	0.0136947
881.265	0.0137261
881.343	0.0137143
881.421	0.0136043
881.499	0.0137472
881.578	0.0137165
881.656	0.0136755
881.734	0.0136825
881.812	0.0136122
881.890	0.0137141
881.968	0.0137412
882.046	0.0137076
882.124	0.0136536
882.203	0.0137537
882.281	0.0136203
882.359	0.0136668
882.437	0.0135622
882.515	0.0137477
882.593	0.0138361
882.671	0.0137702
882.749	0.0136180
882.828	0.0137238
882.906	0.0136560
882.984	0.0136547
883.062	0.0137685
883.140	0.0135969
883.218	0.0137958
883.296	0.0136652
883.374	0.0136826
883.453	0.0136427
883.531	0.0136467
883.609	0.0137346
883.687	0.0137237
883.765	0.0136211
883.843	0.0137379
883.921	0.0136914
883.999	0.0136002
884.078	0.0138017
884.156	0.0139381
884.234	0.0137466
884.312	0.0136098
884.390	0.0137108
884.468	0.0139020
884.546	0.0137375
884.624	0.0137275
884.703	0.0138457
884.781	0.0138369
884.859	0.0137424
884.937	0.0138432
885.015	0.0138431
885.093	0.0138516
885.171	0.0138920
885.249	0.0138123
885.328	0.0139183
885.406	0.0138474
885.484	0.0138823
885.562	0.0138065
885.640	0.0139243
885.718	0.0138368
885.796	0.0138452
885.874	0.0138476
885.953	0.0137027
886.031	0.0137589
886.109	0.0136482
886.187	0.0136782
886.265	0.0138123
886.343	0.0135200
886.421	0.0137089
886.499	0.0136295
886.578	0.0135983
886.656	0.0135421
886.734	0.0135542
886.812	0.0136100
886.890	0.0135813
886.968	0.0137502
887.046	0.0134999
887.124	0.0134753
887.203	0.0135806
887.281	0.0136247
887.359	0.0136535
887.437	0.0136877
887.515	0.0136963
887.593	0.0136276
887.671	0.0135033
887.749	0.0134425
887.828	0.0137481
887.906	0.0136934
887.984	0.0134621
888.062	0.0135551
888.140	0.0136108
888.218	0.0136753
888.296	0.0137092
888.374	0.0136102
888.453	0.0136559
888.531	0.0137285
888.609	0.0137778
888.687	0.0137561
888.765	0.0137054
888.843	0.0137258
888.921	0.0137370
888.999	0.0137415
889.078	0.0136499
889.156	0.0136584
889.234	0.0136008
889.312	0.0136182
889.390	0.0137536
889.468	0.0135911
889.546	0.0135062
889.624	0.0135921
889.703	0.0136534
889.781	0.0137334
889.859	0.0137236
889.937	0.0135675
890.015	0.0136443
890.093	0.0137273
890.171	0.0136931
890.249	0.0136060
890.328	0.0134975
890.406	0.0136816
890.484	0.0136735
890.562	0.0134215
890.640	0.0134765
890.718	0.0136253
890.796	0.0134864
890.874	0.0135831
890.953	0.0134466
891.031	0.0134200
891.109	0.0135532
891.187	0.0135578
891.265	0.0135164
891.343	0.0134935
891.421	0.0134742
891.499	0.0135387
891.578	0.0134711
891.656	0.0135349
891.734	0.0135851
891.812	0.0135538
891.890	0.0134778
891.968	0.0135203
892.046	0.0134995
892.124	0.0135445
892.203	0.0136189
892.281	0.0135906
892.359	0.0135056
892.437	0.0135674
892.515	0.0135294
892.593	0.0136436
892.671	0.0137282
892.749	0.0135431
892.828	0.0136422
892.906	0.0136865
892.984	0.0136846
893.062	0.0136741
893.140	0.0137982
893.218	0.0139091
893.296	0.0139169
893.374	0.0138317
893.453	0.0137587
893.531	0.0137556
893.609	0.0138649
893.687	0.0139304
893.765	0.0140067
893.843	0.0138795
893.921	0.0137608
893.999	0.0136826
894.078	0.0137878
894.156	0.0138972
894.234	0.0138165
894.312	0.0138001
894.390	0.0137020
894.468	0.0137878
894.546	0.0137890
894.624	0.0137337
894.703	0.0137068
894.781	0.0136954
894.859	0.0136257
894.937	0.0137663
895.015	0.0136427
895.093	0.0137380
895.171	0.0136668
895.249	0.0136203
895.328	0.0136470
895.406	0.0135642
895.484	0.0135897
895.562	0.0137520
895.640	0.0136938
895.718	0.0135413
895.796	0.0135635
895.874	0.0135539
895.953	0.0136311
896.031	0.0135323
896.109	0.0135047
896.187	0.0137835
896.265	0.0136638
896.343	0.0136204
896.421	0.0135610
896.499	0.0136503
896.578	0.0136842
896.656	0.0135619
896.734	0.0138007
896.812	0.0135783
896.890	0.0136959
896.968	0.0136421
897.046	0.0136452
897.124	0.0137231
897.203	0.0136402
897.281	0.0137674
897.359	0.0137831
897.437	0.0138123
897.515	0.0137148
897.593	0.0137284
897.671	0.0137223
897.749	0.0136240
897.828	0.0138069
897.906	0.0137878
897.984	0.0137846
898.062	0.0137791
898.140	0.0137655
898.218	0.0138154
898.296	0.0136645
898.374	0.0137402
898.453	0.0138161
898.531	0.0137220
898.609	0.0137473
898.687	0.0138363
898.765	0.0138377
898.843	0.0138145
898.921	0.0136340
898.999	0.0136532
899.078	0.0136992
899.156	0.0136712
899.234	0.0136028
899.312	0.0136247
899.390	0.0137469
899.468	0.0135727
899.546	0.0135992
899.624	0.0134808
899.703	0.0135416
899.781	0.0134380
899.859	0.0133252
899.937	0.0133737
900.015	0.0134158
900.093	0.0133704
900.171	0.0134066
900.249	0.0133739
900.328	0.0132677
900.406	0.0133106
900.484	0.0133688
900.562	0.0132232
900.640	0.0133109
900.718	0.0132841
900.796	0.0132610
900.874	0.0133994
900.953	0.0133554
901.031	0.0134283
901.109	0.0134618
901.187	0.0133570
901.265	0.0133472
901.343	0.0134242
901.421	0.0134155
901.499	0.0135325
901.578	0.0135437
901.656	0.0134908
901.734	0.0135927
901.812	0.0136284
901.890	0.0135631
901.968	0.0136565
902.046	0.0136629
902.124	0.0135426
902.203	0.0137172
902.281	0.0138011
902.359	0.0137567
902.437	0.0137712
902.515	0.0137398
902.593	0.0137884
902.671	0.0137284
902.749	0.0137476
902.828	0.0139624
902.906	0.0138400
902.984	0.0139466
903.062	0.0139133
903.140	0.0138602
903.218	0.0139220
903.296	0.0140420
903.374	0.0140739
903.453	0.0139420
903.531	0.0139031
903.609	0.0137922
903.687	0.0138252
903.765	0.0138271
903.843	0.0139423
903.921	0.0139173
903.999	0.0138735
904.078	0.0139194
904.156	0.0137191
904.234	0.0136248
904.312	0.0137488
904.390	0.0137185
904.468	0.0136066
904.546	0.0135941
904.624	0.0136659
904.703	0.0135947
904.781	0.0134386
904.859	0.0135751
904.937	0.0136628
905.015	0.0134863
905.093	0.0135192
905.171	0.0134537
905.249	0.0135933
905.328	0.0136310
905.406	0.0135162
905.484	0.0135249
905.562	0.0135469
905.640	0.0134619
905.718	0.0135086
905.796	0.0137790
905.874	0.0134958
905.953	0.0135055
906.031	0.0135459
906.109	0.0133262
906.187	0.0133741
906.265	0.0134713
906.343	0.0134106
906.421	0.0136107
906.499	0.0135503
906.578	0.0135442
906.656	0.0134247
906.734	0.0134548
906.812	0.0134845
906.890	0.0134902
906.968	0.0134477
907.046	0.0135358
907.124	0.0135233
907.203	0.0135339
907.281	0.0136324
907.359	0.0136443
907.437	0.0136086
907.515	0.0135272
907.593	0.0136272
907.671	0.0136191
907.749	0.0137603
907.828	0.0135836
907.906	0.0136376
907.984	0.0137416
908.062	0.0136704
908.140	0.0135880
908.218	0.0136398
908.296	0.0136990
908.374	0.0137830
908.453	0.0138940
908.531	0.0137074
908.609	0.0136527
908.687	0.0137626
908.765	0.0136697
908.843	0.0136086
908.921	0.0136412
908.999	0.0138607
909.078	0.0136473
909.156	0.0138285
909.234	0.0138297
909.312	0.0137308
909.390	0.0137152
909.468	0.0136954
909.546	0.0138431
909.624	0.0137644
909.703	0.0137364
909.781	0.0136611
909.859	0.0137579
909.937	0.0137820
910.015	0.0137354
910.093	0.0137736
910.171	0.0137000
910.249	0.0137410
910.328	0.0136795
910.406	0.0136410
910.484	0.0136427
910.562	0.0136522
910.640	0.0137234
910.718	0.0136540
910.796	0.0136771
910.874	0.0135321
910.953	0.0136250
911.031	0.0134371
911.109	0.0135113
911.187	0.0134958
911.265	0.0135802
911.343	0.0133833
911.421	0.0133676
911.499	0.0134426
911.578	0.0134106
911.656	0.0133521
911.734	0.0132184
911.812	0.0133483
911.890	0.0133694
911.968	0.0132310
912.046	0.0132584
912.124	0.0132949
912.203	0.0133294
912.281	0.0135146
912.359	0.0134051
912.437	0.0134057
912.515	0.0134377
912.593	0.0134620
912.671	0.0134029
912.749	0.0134837
912.828	0.0135246
912.906	0.0134557
912.984	0.0133909
913.062	0.0134779
913.140	0.0135189
913.218	0.0133677
913.296	0.0133156
913.374	0.0135902
913.453	0.0135072
913.531	0.0134116
913.609	0.0134275
913.687	0.0136162
913.765	0.0133871
913.843	0.0134151
913.921	0.0134891
913.999	0.0133586
914.078	0.0134174
914.156	0.0135094
914.234	0.0135211
914.312	0.0136020
914.390	0.0135094
914.468	0.0135468
914.546	0.0135149
914.624	0.0134923
914.703	0.0134521
914.781	0.0135354
914.859	0.0134993
914.937	0.0134838
915.015	0.0133464
915.093	0.0134647
915.171	0.0133768
915.249	0.0134731
915.328	0.0134244
915.406	0.0134122
915.484	0.0134744
915.562	0.0134800
915.640	0.0134485
915.718	0.0134092
915.796	0.0133972
915.874	0.0134581
915.953	0.0134627
916.031	0.0132631
916.109	0.0134721
916.187	0.0134670
916.265	0.0134558
916.343	0.0134494
916.421	0.0135607
916.499	0.0134158
916.578	0.0135648
916.656	0.0134511
916.734	0.0135417
916.812	0.0136004
916.890	0.0133894
916.968	0.0137086
917.046	0.0136452
917.124	0.0135114
917.203	0.0136893
917.281	0.0136586
917.359	0.0135693
917.437	0.0136285
917.515	0.0136203
917.593	0.0135326
917.671	0.0137415
917.749	0.0137830
917.828	0.0138454
917.906	0.0137075
917.984	0.0136960
918.062	0.0137307
918.140	0.0138718
918.218	0.0136082
918.296	0.0137711
918.374	0.0137064
918.453	0.0137013
918.531	0.0137206
918.609	0.0135646
918.687	0.0135861
918.765	0.0134331
918.843	0.0134786
918.921	0.0136473
918.999	0.0134537
919.078	0.0134836
919.156	0.0134921
919.234	0.0134556
919.312	0.0134531
919.390	0.0134972
919.468	0.0135817
919.546	0.0133817
919.624	0.0132738
919.703	0.0132609
919.781	0.0133439
919.859	0.0134827
919.937	0.0134429
