05/08/2022	20:18:47	Ver.	4.1	UNKNOWN
Optical Delay	600.015094	Delta X		0.078125	Sweeps	1	Scan Rate	0/0
Coordinates	Axis 1	NaN	Axis 2	NaN	Axis 3	NaN	Axis 4	NaN	Axis 5	NaN	Axis 6	0.000000
TX Power	0.000000	RX Power	0.000000

600.015	0.0133224
600.093	0.0133177
600.171	0.0134523
600.249	0.0132777
600.328	0.0131888
600.406	0.0133782
600.484	0.0133053
600.562	0.0132044
600.640	0.0132373
600.718	0.0132209
600.796	0.0133608
600.874	0.0133553
600.953	0.0132697
601.031	0.0132706
601.109	0.0133386
601.187	0.0133404
601.265	0.0133606
601.343	0.0134024
601.421	0.0134044
601.499	0.0133783
601.578	0.0133850
601.656	0.0135121
601.734	0.0134152
601.812	0.0133427
601.890	0.0134832
601.968	0.0133211
602.046	0.0134238
602.124	0.0134632
602.203	0.0134115
602.281	0.0135778
602.359	0.0134225
602.437	0.0134942
602.515	0.0134381
602.593	0.0133930
602.671	0.0135275
602.749	0.0134415
602.828	0.0134143
602.906	0.0133650
602.984	0.0135912
603.062	0.0135046
603.140	0.0134788
603.218	0.0135215
603.296	0.0132991
603.374	0.0133395
603.453	0.0132880
603.531	0.0133364
603.609	0.0134940
603.687	0.0134436
603.765	0.0133964
603.843	0.0133682
603.921	0.0134143
603.999	0.0134382
604.078	0.0134877
604.156	0.0134820
604.234	0.0134521
604.312	0.0135478
604.390	0.0133961
604.468	0.0134300
604.546	0.0134560
604.624	0.0134762
604.703	0.0136829
604.781	0.0135101
604.859	0.0134389
604.937	0.0135545
605.015	0.0135374
605.093	0.0134335
605.171	0.0134950
605.249	0.0134725
605.328	0.0136198
605.406	0.0135351
605.484	0.0134677
605.562	0.0136545
605.640	0.0134832
605.718	0.0134971
605.796	0.0134369
605.874	0.0134072
605.953	0.0136664
606.031	0.0135718
606.109	0.0134274
606.187	0.0134432
606.265	0.0134361
606.343	0.0134772
606.421	0.0134633
606.499	0.0134981
606.578	0.0135422
606.656	0.0134837
606.734	0.0134753
606.812	0.0134206
606.890	0.0134682
606.968	0.0133879
607.046	0.0133874
607.124	0.0134712
607.203	0.0134993
607.281	0.0134350
607.359	0.0134960
607.437	0.0133879
607.515	0.0134422
607.593	0.0135585
607.671	0.0134547
607.749	0.0134602
607.828	0.0133904
607.906	0.0134225
607.984	0.0133416
608.062	0.0132322
608.140	0.0135409
608.218	0.0135165
608.296	0.0134346
608.374	0.0133170
608.453	0.0134412
608.531	0.0134307
608.609	0.0135546
608.687	0.0132996
608.765	0.0132847
608.843	0.0133212
608.921	0.0134991
608.999	0.0133996
609.078	0.0134728
609.156	0.0135699
609.234	0.0134492
609.312	0.0134972
609.390	0.0133718
609.468	0.0134035
609.546	0.0135188
609.624	0.0136154
609.703	0.0134859
609.781	0.0134518
609.859	0.0135871
609.937	0.0135172
610.015	0.0135728
610.093	0.0135998
610.171	0.0135075
610.249	0.0135194
610.328	0.0135692
610.406	0.0134180
610.484	0.0135536
610.562	0.0134748
610.640	0.0134647
610.718	0.0135223
610.796	0.0134467
610.874	0.0134576
610.953	0.0134175
611.031	0.0135676
611.109	0.0134332
611.187	0.0134187
611.265	0.0134454
611.343	0.0136720
611.421	0.0135497
611.499	0.0134389
611.578	0.0134955
611.656	0.0134901
611.734	0.0134849
611.812	0.0135184
611.890	0.0136525
611.968	0.0134977
612.046	0.0134928
612.124	0.0136806
612.203	0.0136811
612.281	0.0134964
612.359	0.0136435
612.437	0.0136254
612.515	0.0135098
612.593	0.0135382
612.671	0.0134621
612.749	0.0135745
612.828	0.0135106
612.906	0.0133926
612.984	0.0134169
613.062	0.0135873
613.140	0.0134194
613.218	0.0133945
613.296	0.0133708
613.374	0.0133311
613.453	0.0132762
613.531	0.0132975
613.609	0.0134321
613.687	0.0134200
613.765	0.0133507
613.843	0.0134144
613.921	0.0134106
613.999	0.0134853
614.078	0.0134117
614.156	0.0134962
614.234	0.0134180
614.312	0.0133760
614.390	0.0135033
614.468	0.0135635
614.546	0.0134912
614.624	0.0133951
614.703	0.0134282
614.781	0.0134649
614.859	0.0134364
614.937	0.0134943
615.015	0.0134798
615.093	0.0134458
615.171	0.0134229
615.249	0.0135818
615.328	0.0134869
615.406	0.0136089
615.484	0.0134830
615.562	0.0135225
615.640	0.0134175
615.718	0.0134594
615.796	0.0135898
615.874	0.0135416
615.953	0.0135181
616.031	0.0134993
616.109	0.0136098
616.187	0.0136775
616.265	0.0135436
616.343	0.0134906
616.421	0.0135710
616.499	0.0136222
616.578	0.0136416
616.656	0.0134869
616.734	0.0135478
616.812	0.0136646
616.890	0.0136671
616.968	0.0135220
617.046	0.0134505
617.124	0.0136024
617.203	0.0135934
617.281	0.0135015
617.359	0.0134597
617.437	0.0134073
617.515	0.0136655
617.593	0.0135904
617.671	0.0135445
617.749	0.0135553
617.828	0.0134299
617.906	0.0134848
617.984	0.0134872
618.062	0.0134724
618.140	0.0135470
618.218	0.0134637
618.296	0.0133485
618.374	0.0135609
618.453	0.0135885
618.531	0.0134523
618.609	0.0134752
618.687	0.0135321
618.765	0.0135171
618.843	0.0135389
618.921	0.0136143
618.999	0.0134969
619.078	0.0135083
619.156	0.0134402
619.234	0.0134714
619.312	0.0134673
619.390	0.0135494
619.468	0.0136314
619.546	0.0136219
619.624	0.0135313
619.703	0.0134924
619.781	0.0136364
619.859	0.0135699
619.937	0.0135410
620.015	0.0135770
620.093	0.0135675
620.171	0.0134972
620.249	0.0136855
620.328	0.0135492
620.406	0.0136258
620.484	0.0136400
620.562	0.0135607
620.640	0.0135805
620.718	0.0135455
620.796	0.0136897
620.874	0.0135667
620.953	0.0135250
621.031	0.0136458
621.109	0.0136584
621.187	0.0135808
621.265	0.0135034
621.343	0.0136272
621.421	0.0136253
621.499	0.0135219
621.578	0.0136213
621.656	0.0134193
621.734	0.0135882
621.812	0.0135554
621.890	0.0134798
621.968	0.0135525
622.046	0.0136697
622.124	0.0135317
622.203	0.0135637
622.281	0.0134278
622.359	0.0135065
622.437	0.0134630
622.515	0.0135113
622.593	0.0135221
622.671	0.0135258
622.749	0.0135658
622.828	0.0133986
622.906	0.0133847
622.984	0.0135506
623.062	0.0135635
623.140	0.0133955
623.218	0.0135169
623.296	0.0134476
623.374	0.0134782
623.453	0.0134495
623.531	0.0134578
623.609	0.0135629
623.687	0.0133849
623.765	0.0135204
623.843	0.0135340
623.921	0.0134039
623.999	0.0134729
624.078	0.0135048
624.156	0.0134840
624.234	0.0133185
624.312	0.0133628
624.390	0.0134563
624.468	0.0135680
624.546	0.0135648
624.624	0.0134792
624.703	0.0134652
624.781	0.0134010
624.859	0.0134637
624.937	0.0134453
625.015	0.0134398
625.093	0.0133710
625.171	0.0133110
625.249	0.0135259
625.328	0.0134036
625.406	0.0132905
625.484	0.0134135
625.562	0.0133416
625.640	0.0134773
625.718	0.0134303
625.796	0.0133915
625.874	0.0133799
625.953	0.0134158
626.031	0.0134049
626.109	0.0134271
626.187	0.0132821
626.265	0.0133245
626.343	0.0134955
626.421	0.0132215
626.499	0.0134783
626.578	0.0133756
626.656	0.0133198
626.734	0.0132490
626.812	0.0134136
626.890	0.0133780
626.968	0.0132820
627.046	0.0134187
627.124	0.0132852
627.203	0.0132996
627.281	0.0132649
627.359	0.0133438
627.437	0.0132549
627.515	0.0133774
627.593	0.0133872
627.671	0.0133408
627.749	0.0133728
627.828	0.0133331
627.906	0.0133440
627.984	0.0132823
628.062	0.0133025
628.140	0.0132888
628.218	0.0133627
628.296	0.0133521
628.374	0.0133249
628.453	0.0134441
628.531	0.0134624
628.609	0.0133388
628.687	0.0132244
628.765	0.0133266
628.843	0.0132919
628.921	0.0132045
628.999	0.0132308
629.078	0.0134235
629.156	0.0133351
629.234	0.0133501
629.312	0.0132690
629.390	0.0132851
629.468	0.0132170
629.546	0.0132396
629.624	0.0130855
629.703	0.0133688
629.781	0.0133101
629.859	0.0132923
629.937	0.0133221
630.015	0.0134107
630.093	0.0133243
630.171	0.0132932
630.249	0.0133971
630.328	0.0133282
630.406	0.0131779
630.484	0.0132660
630.562	0.0133277
630.640	0.0133640
630.718	0.0133000
630.796	0.0131822
630.874	0.0133330
630.953	0.0133112
631.031	0.0132639
631.109	0.0132603
631.187	0.0133814
631.265	0.0134270
631.343	0.0132687
631.421	0.0132961
631.499	0.0132841
631.578	0.0132464
631.656	0.0132446
631.734	0.0132149
631.812	0.0132493
631.890	0.0134290
631.968	0.0131744
632.046	0.0134100
632.124	0.0133308
632.203	0.0132204
632.281	0.0131231
632.359	0.0133248
632.437	0.0135061
632.515	0.0132600
632.593	0.0132821
632.671	0.0132993
632.749	0.0133287
632.828	0.0133010
632.906	0.0134142
632.984	0.0132925
633.062	0.0132193
633.140	0.0132867
633.218	0.0133230
633.296	0.0132809
633.374	0.0133613
633.453	0.0133099
633.531	0.0132896
633.609	0.0133002
633.687	0.0133128
633.765	0.0133441
633.843	0.0134237
633.921	0.0134160
633.999	0.0134145
634.078	0.0133752
634.156	0.0134798
634.234	0.0134747
634.312	0.0133752
634.390	0.0135342
634.468	0.0134377
634.546	0.0136481
634.624	0.0136245
634.703	0.0135811
634.781	0.0136736
634.859	0.0135875
634.937	0.0137514
635.015	0.0137431
635.093	0.0138541
635.171	0.0136790
635.249	0.0136720
635.328	0.0138097
635.406	0.0137966
635.484	0.0138367
635.562	0.0138033
635.640	0.0137539
635.718	0.0137286
635.796	0.0137688
635.874	0.0135520
635.953	0.0136865
636.031	0.0136391
636.109	0.0136074
636.187	0.0136052
636.265	0.0134718
636.343	0.0136001
636.421	0.0135538
636.499	0.0134944
636.578	0.0133828
636.656	0.0133663
636.734	0.0135506
636.812	0.0136735
636.890	0.0135197
636.968	0.0134808
637.046	0.0136356
637.124	0.0134937
637.203	0.0135197
637.281	0.0137210
637.359	0.0135479
637.437	0.0136398
637.515	0.0134785
637.593	0.0135476
637.671	0.0134628
637.749	0.0135415
637.828	0.0136668
637.906	0.0136837
637.984	0.0136367
638.062	0.0135973
638.140	0.0135751
638.218	0.0136092
638.296	0.0135436
638.374	0.0137767
638.453	0.0136714
638.531	0.0136893
638.609	0.0137672
638.687	0.0136495
638.765	0.0137420
638.843	0.0135961
638.921	0.0136691
638.999	0.0136752
639.078	0.0136195
639.156	0.0134401
639.234	0.0134086
639.312	0.0135605
639.390	0.0133607
639.468	0.0133446
639.546	0.0133848
639.624	0.0132730
639.703	0.0132349
639.781	0.0132952
639.859	0.0132784
639.937	0.0134628
640.015	0.0135625
640.093	0.0136084
640.171	0.0135206
640.249	0.0135418
640.328	0.0135937
640.406	0.0137134
640.484	0.0137256
640.562	0.0138604
640.640	0.0138795
640.718	0.0138607
640.796	0.0138223
640.874	0.0139155
640.953	0.0139582
641.031	0.0140142
641.109	0.0138214
641.187	0.0139082
641.265	0.0139467
641.343	0.0139224
641.421	0.0138806
641.499	0.0138219
641.578	0.0138804
641.656	0.0138095
641.734	0.0138852
641.812	0.0137926
641.890	0.0138607
641.968	0.0136691
642.046	0.0135505
642.124	0.0135271
642.203	0.0134178
642.281	0.0132352
642.359	0.0131137
642.437	0.0130837
642.515	0.0130046
642.593	0.0129066
642.671	0.0131098
642.749	0.0130033
642.828	0.0131090
642.906	0.0131131
642.984	0.0130215
643.062	0.0133781
643.140	0.0134449
643.218	0.0135922
643.296	0.0136841
643.374	0.0137492
643.453	0.0139738
643.531	0.0140501
643.609	0.0140376
643.687	0.0141798
643.765	0.0143994
643.843	0.0143641
643.921	0.0142548
643.999	0.0141676
644.078	0.0141874
644.156	0.0141112
644.234	0.0141835
644.312	0.0140905
644.390	0.0139490
644.468	0.0138726
644.546	0.0138252
644.624	0.0137959
644.703	0.0135335
644.781	0.0133667
644.859	0.0133202
644.937	0.0132842
645.015	0.0130214
645.093	0.0128916
645.171	0.0129213
645.249	0.0127184
645.328	0.0127103
645.406	0.0126185
645.484	0.0127328
645.562	0.0126913
645.640	0.0125793
645.718	0.0127477
645.796	0.0128019
645.874	0.0128787
645.953	0.0129715
646.031	0.0130964
646.109	0.0131479
646.187	0.0133131
646.265	0.0134254
646.343	0.0135306
646.421	0.0136740
646.499	0.0137819
646.578	0.0138522
646.656	0.0139618
646.734	0.0141023
646.812	0.0141814
646.890	0.0141801
646.968	0.0142358
647.046	0.0144078
647.124	0.0143567
647.203	0.0144218
647.281	0.0142724
647.359	0.0141295
647.437	0.0141358
647.515	0.0139876
647.593	0.0138907
647.671	0.0137666
647.749	0.0136246
647.828	0.0135123
647.906	0.0132201
647.984	0.0130812
648.062	0.0130559
648.140	0.0129018
648.218	0.0128883
648.296	0.0126786
648.374	0.0126415
648.453	0.0126660
648.531	0.0124251
648.609	0.0124318
648.687	0.0124480
648.765	0.0123403
648.843	0.0124133
648.921	0.0125041
648.999	0.0124010
649.078	0.0123661
649.156	0.0124880
649.234	0.0126406
649.312	0.0127336
649.390	0.0127870
649.468	0.0130649
649.546	0.0132996
649.624	0.0134415
649.703	0.0137833
649.781	0.0139169
649.859	0.0140356
649.937	0.0141959
650.015	0.0142755
650.093	0.0143398
650.171	0.0145252
650.249	0.0144707
650.328	0.0144897
650.406	0.0143832
650.484	0.0143465
650.562	0.0140972
650.640	0.0139191
650.718	0.0140361
650.796	0.0139852
650.874	0.0138978
650.953	0.0136864
651.031	0.0135272
651.109	0.0137346
651.187	0.0135336
651.265	0.0134171
651.343	0.0134033
651.421	0.0132655
651.499	0.0131168
651.578	0.0132300
651.656	0.0129460
651.734	0.0127933
651.812	0.0126924
651.890	0.0125282
651.968	0.0125339
652.046	0.0125658
652.124	0.0124869
652.203	0.0123595
652.281	0.0123795
652.359	0.0125175
652.437	0.0124815
652.515	0.0124664
652.593	0.0126540
652.671	0.0127184
652.749	0.0129053
652.828	0.0128893
652.906	0.0131724
652.984	0.0131538
653.062	0.0133263
653.140	0.0133899
653.218	0.0136470
653.296	0.0137428
653.374	0.0138375
653.453	0.0137807
653.531	0.0140213
653.609	0.0140115
653.687	0.0141122
653.765	0.0142760
653.843	0.0142762
653.921	0.0140581
653.999	0.0141859
654.078	0.0140339
654.156	0.0140499
654.234	0.0140012
654.312	0.0138101
654.390	0.0138318
654.468	0.0137095
654.546	0.0134585
654.624	0.0134859
654.703	0.0135446
654.781	0.0135061
654.859	0.0135159
654.937	0.0133138
655.015	0.0133598
655.093	0.0133853
655.171	0.0133561
655.249	0.0133525
655.328	0.0131586
655.406	0.0132745
655.484	0.0134867
655.562	0.0134448
655.640	0.0131886
655.718	0.0131544
655.796	0.0134081
655.874	0.0133469
655.953	0.0133134
656.031	0.0132689
656.109	0.0132110
656.187	0.0131602
656.265	0.0130102
656.343	0.0130383
656.421	0.0129657
656.499	0.0129290
656.578	0.0128343
656.656	0.0126048
656.734	0.0124921
656.812	0.0123647
656.890	0.0124287
656.968	0.0123403
657.046	0.0122350
657.124	0.0122054
657.203	0.0122283
657.281	0.0123413
657.359	0.0123049
657.437	0.0125421
657.515	0.0125589
657.593	0.0125606
657.671	0.0128351
657.749	0.0131351
657.828	0.0133317
657.906	0.0136411
657.984	0.0138086
658.062	0.0140778
658.140	0.0142183
658.218	0.0143545
658.296	0.0144418
658.374	0.0145745
658.453	0.0145573
658.531	0.0147169
658.609	0.0147704
658.687	0.0148499
658.765	0.0147615
658.843	0.0148513
658.921	0.0147722
658.999	0.0147630
659.078	0.0146779
659.156	0.0146137
659.234	0.0146229
659.312	0.0143801
659.390	0.0142382
659.468	0.0142289
659.546	0.0140429
659.624	0.0137595
659.703	0.0135375
659.781	0.0134582
659.859	0.0133279
659.937	0.0129639
660.015	0.0128767
660.093	0.0126048
660.171	0.0125113
660.249	0.0124884
660.328	0.0124669
660.406	0.0123312
660.484	0.0124134
660.562	0.0123142
660.640	0.0123569
660.718	0.0123404
660.796	0.0123573
660.874	0.0123561
660.953	0.0124155
661.031	0.0123672
661.109	0.0125074
661.187	0.0124472
661.265	0.0125822
661.343	0.0126624
661.421	0.0128083
661.499	0.0127744
661.578	0.0127811
661.656	0.0129350
661.734	0.0129385
661.812	0.0130608
661.890	0.0131849
661.968	0.0132406
662.046	0.0134019
662.124	0.0134447
662.203	0.0134866
662.281	0.0134791
662.359	0.0136460
662.437	0.0138157
662.515	0.0138039
662.593	0.0138158
662.671	0.0139680
662.749	0.0140610
662.828	0.0142247
662.906	0.0142220
662.984	0.0143552
663.062	0.0142419
663.140	0.0142490
663.218	0.0142637
663.296	0.0144582
663.374	0.0143549
663.453	0.0143259
663.531	0.0143901
663.609	0.0143682
663.687	0.0144128
663.765	0.0144472
663.843	0.0143752
663.921	0.0145801
663.999	0.0145827
664.078	0.0145105
664.156	0.0144634
664.234	0.0143716
664.312	0.0142413
664.390	0.0139790
664.468	0.0138409
664.546	0.0136861
664.624	0.0136161
664.703	0.0132953
664.781	0.0132355
664.859	0.0131794
664.937	0.0129482
665.015	0.0128580
665.093	0.0126906
665.171	0.0125775
665.249	0.0127409
665.328	0.0126241
665.406	0.0125448
665.484	0.0126880
665.562	0.0127217
665.640	0.0125738
665.718	0.0128072
665.796	0.0129833
665.874	0.0131400
665.953	0.0131777
666.031	0.0131631
666.109	0.0133496
666.187	0.0132457
666.265	0.0133592
666.343	0.0133466
666.421	0.0132915
666.499	0.0133531
666.578	0.0132333
666.656	0.0132626
666.734	0.0132174
666.812	0.0131649
666.890	0.0130807
666.968	0.0129424
667.046	0.0129013
667.124	0.0129012
667.203	0.0128876
667.281	0.0127689
667.359	0.0129047
667.437	0.0128893
667.515	0.0128175
667.593	0.0129978
667.671	0.0129646
667.749	0.0130757
667.828	0.0131126
667.906	0.0132098
667.984	0.0134016
668.062	0.0133656
668.140	0.0136118
668.218	0.0138069
668.296	0.0139872
668.374	0.0142682
668.453	0.0144226
668.531	0.0145778
668.609	0.0147617
668.687	0.0149797
668.765	0.0151684
668.843	0.0152943
668.921	0.0153915
668.999	0.0154534
669.078	0.0155479
669.156	0.0156431
669.234	0.0155799
669.312	0.0155834
669.390	0.0156290
669.468	0.0155836
669.546	0.0153313
669.624	0.0152039
669.703	0.0149960
669.781	0.0145778
669.859	0.0144926
669.937	0.0142165
670.015	0.0138737
670.093	0.0133369
670.171	0.0130209
670.249	0.0129274
670.328	0.0124755
670.406	0.0121912
670.484	0.0119462
670.562	0.0116839
670.640	0.0115373
670.718	0.0113811
670.796	0.0113122
670.874	0.0112957
670.953	0.0112079
671.031	0.0112202
671.109	0.0110185
671.187	0.0110871
671.265	0.0112572
671.343	0.0113674
671.421	0.0114363
671.499	0.0116077
671.578	0.0118524
671.656	0.0119978
671.734	0.0120853
671.812	0.0121700
671.890	0.0124818
671.968	0.0127045
672.046	0.0128503
672.124	0.0132222
672.203	0.0133881
672.281	0.0136533
672.359	0.0137035
672.437	0.0138131
672.515	0.0139213
672.593	0.0139777
672.671	0.0141142
672.749	0.0141544
672.828	0.0140501
672.906	0.0140985
672.984	0.0141354
673.062	0.0141650
673.140	0.0142599
673.218	0.0144355
673.296	0.0144006
673.374	0.0145805
673.453	0.0146426
673.531	0.0148025
673.609	0.0148192
673.687	0.0149814
673.765	0.0151352
673.843	0.0151913
673.921	0.0151550
673.999	0.0151974
674.078	0.0151485
674.156	0.0152464
674.234	0.0152633
674.312	0.0151711
674.390	0.0150735
674.468	0.0149480
674.546	0.0149291
674.624	0.0149229
674.703	0.0147124
674.781	0.0145305
674.859	0.0144560
674.937	0.0141922
675.015	0.0139276
675.093	0.0136501
675.171	0.0134222
675.249	0.0130492
675.328	0.0128191
675.406	0.0124950
675.484	0.0122010
675.562	0.0120392
675.640	0.0116897
675.718	0.0113676
675.796	0.0112782
675.874	0.0111549
675.953	0.0109520
676.031	0.0108044
676.109	0.0108088
676.187	0.0108392
676.265	0.0107136
676.343	0.0106425
676.421	0.0107054
676.499	0.0107381
676.578	0.0107835
676.656	0.0107729
676.734	0.0110729
676.812	0.0113136
676.890	0.0113760
676.968	0.0116882
677.046	0.0120915
677.124	0.0124479
677.203	0.0125479
677.281	0.0129667
677.359	0.0132646
677.437	0.0136465
677.515	0.0140974
677.593	0.0142713
677.671	0.0144606
677.749	0.0147642
677.828	0.0150706
677.906	0.0151759
677.984	0.0151804
678.062	0.0153812
678.140	0.0154415
678.218	0.0152289
678.296	0.0152224
678.374	0.0150911
678.453	0.0150399
678.531	0.0147433
678.609	0.0146317
678.687	0.0143890
678.765	0.0143569
678.843	0.0142159
678.921	0.0140224
678.999	0.0139562
679.078	0.0139558
679.156	0.0137537
679.234	0.0138985
679.312	0.0139902
679.390	0.0139372
679.468	0.0138093
679.546	0.0138663
679.624	0.0139774
679.703	0.0138751
679.781	0.0140570
679.859	0.0140755
679.937	0.0138729
680.015	0.0139865
680.093	0.0141453
680.171	0.0141467
680.249	0.0140277
680.328	0.0140794
680.406	0.0140351
680.484	0.0140349
680.562	0.0140723
680.640	0.0138741
680.718	0.0137912
680.796	0.0136861
680.874	0.0135791
680.953	0.0133079
681.031	0.0130563
681.109	0.0129365
681.187	0.0126180
681.265	0.0125457
681.343	0.0123074
681.421	0.0120626
681.499	0.0117489
681.578	0.0118229
681.656	0.0116038
681.734	0.0115065
681.812	0.0113081
681.890	0.0113369
681.968	0.0113544
682.046	0.0113809
682.124	0.0114332
682.203	0.0114569
682.281	0.0115811
682.359	0.0118346
682.437	0.0120061
682.515	0.0120069
682.593	0.0122789
682.671	0.0126506
682.749	0.0127621
682.828	0.0130173
682.906	0.0133271
682.984	0.0135146
683.062	0.0136979
683.140	0.0138863
683.218	0.0140321
683.296	0.0140311
683.374	0.0141644
683.453	0.0143478
683.531	0.0145760
683.609	0.0144407
683.687	0.0144907
683.765	0.0146619
683.843	0.0147516
683.921	0.0148393
683.999	0.0148009
684.078	0.0148699
684.156	0.0149299
684.234	0.0149111
684.312	0.0150648
684.390	0.0150220
684.468	0.0149148
684.546	0.0149203
684.624	0.0147511
684.703	0.0146365
684.781	0.0144791
684.859	0.0144718
684.937	0.0143633
685.015	0.0142056
685.093	0.0141134
685.171	0.0140491
685.249	0.0139738
685.328	0.0138384
685.406	0.0138263
685.484	0.0138916
685.562	0.0137659
685.640	0.0136784
685.718	0.0137878
685.796	0.0136578
685.874	0.0136638
685.953	0.0137753
686.031	0.0135779
686.109	0.0135753
686.187	0.0135591
686.265	0.0134574
686.343	0.0133371
686.421	0.0132457
686.499	0.0131017
686.578	0.0130373
686.656	0.0128609
686.734	0.0127422
686.812	0.0128047
686.890	0.0126328
686.968	0.0123787
687.046	0.0123600
687.124	0.0124162
687.203	0.0123713
687.281	0.0121411
687.359	0.0122792
687.437	0.0121696
687.515	0.0120220
687.593	0.0119601
687.671	0.0119756
687.749	0.0118313
687.828	0.0119484
687.906	0.0117703
687.984	0.0120512
688.062	0.0120296
688.140	0.0120428
688.218	0.0121490
688.296	0.0119505
688.374	0.0121779
688.453	0.0122894
688.531	0.0124105
688.609	0.0125607
688.687	0.0125313
688.765	0.0128605
688.843	0.0131425
688.921	0.0132802
688.999	0.0133863
689.078	0.0137147
689.156	0.0138652
689.234	0.0140438
689.312	0.0142284
689.390	0.0143290
689.468	0.0145185
689.546	0.0145918
689.624	0.0147819
689.703	0.0148827
689.781	0.0149729
689.859	0.0149614
689.937	0.0150159
690.015	0.0149867
690.093	0.0151230
690.171	0.0151104
690.249	0.0150762
690.328	0.0151768
690.406	0.0150685
690.484	0.0150085
690.562	0.0149741
690.640	0.0148529
690.718	0.0147391
690.796	0.0147321
690.874	0.0147743
690.953	0.0145068
691.031	0.0144843
691.109	0.0144110
691.187	0.0143143
691.265	0.0141935
691.343	0.0141212
691.421	0.0139874
691.499	0.0138939
691.578	0.0137601
691.656	0.0134608
691.734	0.0133017
691.812	0.0131925
691.890	0.0130419
691.968	0.0129828
692.046	0.0127506
692.124	0.0125272
692.203	0.0123073
692.281	0.0120744
692.359	0.0119224
692.437	0.0118063
692.515	0.0117305
692.593	0.0114907
692.671	0.0114999
692.749	0.0115050
692.828	0.0113319
692.906	0.0113879
692.984	0.0114488
693.062	0.0115815
693.140	0.0115733
693.218	0.0116041
693.296	0.0117997
693.374	0.0120029
693.453	0.0122869
693.531	0.0125191
693.609	0.0125868
693.687	0.0127351
693.765	0.0129916
693.843	0.0133134
693.921	0.0134687
693.999	0.0136881
694.078	0.0137791
694.156	0.0140480
694.234	0.0141429
694.312	0.0143906
694.390	0.0145029
694.468	0.0145021
694.546	0.0146220
694.624	0.0147937
694.703	0.0146476
694.781	0.0146936
694.859	0.0146352
694.937	0.0149866
695.015	0.0148149
695.093	0.0148059
695.171	0.0148954
695.249	0.0148607
695.328	0.0147992
695.406	0.0147676
695.484	0.0146866
695.562	0.0147694
695.640	0.0144962
695.718	0.0143842
695.796	0.0142813
695.874	0.0140658
695.953	0.0139155
696.031	0.0138721
696.109	0.0136692
696.187	0.0135758
696.265	0.0132632
696.343	0.0132379
696.421	0.0134415
696.499	0.0132417
696.578	0.0130718
696.656	0.0130215
696.734	0.0128737
696.812	0.0128322
696.890	0.0129231
696.968	0.0128008
697.046	0.0127498
697.124	0.0126797
697.203	0.0125169
697.281	0.0128116
697.359	0.0127063
697.437	0.0128855
697.515	0.0127429
697.593	0.0128585
697.671	0.0129030
697.749	0.0129301
697.828	0.0128822
697.906	0.0129366
697.984	0.0131013
698.062	0.0130927
698.140	0.0131713
698.218	0.0132949
698.296	0.0134000
698.374	0.0135055
698.453	0.0136214
698.531	0.0135253
698.609	0.0136545
698.687	0.0135829
698.765	0.0135265
698.843	0.0135459
698.921	0.0135749
698.999	0.0134534
699.078	0.0134234
699.156	0.0133672
699.234	0.0133672
699.312	0.0134453
699.390	0.0133253
699.468	0.0134533
699.546	0.0135613
699.624	0.0135114
699.703	0.0136006
699.781	0.0134926
699.859	0.0137225
699.937	0.0136333
700.015	0.0134890
700.093	0.0135425
700.171	0.0134562
700.249	0.0133036
700.328	0.0134186
700.406	0.0132623
700.484	0.0132071
700.562	0.0131806
700.640	0.0130248
700.718	0.0131307
700.796	0.0128777
700.874	0.0127759
700.953	0.0129070
701.031	0.0127416
701.109	0.0127712
701.187	0.0128931
701.265	0.0129649
701.343	0.0131293
701.421	0.0130563
701.499	0.0131746
701.578	0.0132883
701.656	0.0134347
701.734	0.0133219
701.812	0.0134289
701.890	0.0136003
701.968	0.0135066
702.046	0.0135986
702.124	0.0135956
702.203	0.0137287
702.281	0.0137198
702.359	0.0137563
702.437	0.0136552
702.515	0.0137624
702.593	0.0137521
702.671	0.0136890
702.749	0.0136578
702.828	0.0135362
702.906	0.0135775
702.984	0.0135866
703.062	0.0136340
703.140	0.0135937
703.218	0.0133634
703.296	0.0134602
703.374	0.0136539
703.453	0.0135926
703.531	0.0134882
703.609	0.0136234
703.687	0.0135556
703.765	0.0136026
703.843	0.0137482
703.921	0.0137002
703.999	0.0135569
704.078	0.0136132
704.156	0.0137451
704.234	0.0136793
704.312	0.0136856
704.390	0.0136833
704.468	0.0137111
704.546	0.0135212
704.624	0.0136549
704.703	0.0136362
704.781	0.0136447
704.859	0.0136483
704.937	0.0136549
705.015	0.0135073
705.093	0.0135420
705.171	0.0136246
705.249	0.0136259
705.328	0.0134295
705.406	0.0133286
705.484	0.0132341
705.562	0.0131796
705.640	0.0130321
705.718	0.0128584
705.796	0.0129460
705.874	0.0128333
705.953	0.0127206
706.031	0.0126337
706.109	0.0125050
706.187	0.0124989
706.265	0.0126752
706.343	0.0126627
706.421	0.0126246
706.499	0.0125379
706.578	0.0126440
706.656	0.0126651
706.734	0.0127592
706.812	0.0127225
706.890	0.0127534
706.968	0.0128994
707.046	0.0130164
707.124	0.0132600
707.203	0.0132554
707.281	0.0134405
707.359	0.0135470
707.437	0.0135850
707.515	0.0138001
707.593	0.0140665
707.671	0.0139485
707.749	0.0140612
707.828	0.0142396
707.906	0.0143472
707.984	0.0142451
708.062	0.0141795
708.140	0.0143935
708.218	0.0143335
708.296	0.0143128
708.374	0.0143007
708.453	0.0142597
708.531	0.0141618
708.609	0.0141191
708.687	0.0140863
708.765	0.0142166
708.843	0.0140298
708.921	0.0142385
708.999	0.0141966
709.078	0.0140014
709.156	0.0140280
709.234	0.0139565
709.312	0.0139088
709.390	0.0137618
709.468	0.0136526
709.546	0.0136977
709.624	0.0134383
709.703	0.0134902
709.781	0.0134585
709.859	0.0133919
709.937	0.0133523
710.015	0.0133321
710.093	0.0132051
710.171	0.0131932
710.249	0.0133201
710.328	0.0133936
710.406	0.0133746
710.484	0.0133787
710.562	0.0132479
710.640	0.0133644
710.718	0.0134270
710.796	0.0132782
710.874	0.0134156
710.953	0.0133176
711.031	0.0132873
711.109	0.0132536
711.187	0.0132675
711.265	0.0132205
711.343	0.0132525
711.421	0.0132140
711.499	0.0132458
711.578	0.0129742
711.656	0.0129852
711.734	0.0129714
711.812	0.0128339
711.890	0.0128692
711.968	0.0129494
712.046	0.0127898
712.124	0.0128989
712.203	0.0128464
712.281	0.0128773
712.359	0.0127450
712.437	0.0128426
712.515	0.0129052
712.593	0.0128436
712.671	0.0129537
712.749	0.0129012
712.828	0.0129381
712.906	0.0129507
712.984	0.0131081
713.062	0.0130382
713.140	0.0132866
713.218	0.0133081
713.296	0.0133488
713.374	0.0134667
713.453	0.0136176
713.531	0.0135320
713.609	0.0137411
713.687	0.0138591
713.765	0.0137891
713.843	0.0139564
713.921	0.0140018
713.999	0.0140998
714.078	0.0141543
714.156	0.0142854
714.234	0.0142659
714.312	0.0141092
714.390	0.0143126
714.468	0.0145769
714.546	0.0143736
714.624	0.0144147
714.703	0.0143153
714.781	0.0144213
714.859	0.0142505
714.937	0.0142908
715.015	0.0142277
715.093	0.0141795
715.171	0.0141798
715.249	0.0139993
715.328	0.0140596
715.406	0.0138815
715.484	0.0138284
715.562	0.0137736
715.640	0.0137065
715.718	0.0136304
715.796	0.0135044
715.874	0.0134210
715.953	0.0132719
716.031	0.0131123
716.109	0.0129552
716.187	0.0130604
716.265	0.0126789
716.343	0.0127251
716.421	0.0126655
716.499	0.0124865
716.578	0.0124861
716.656	0.0125591
716.734	0.0124936
716.812	0.0125497
716.890	0.0126864
716.968	0.0125722
717.046	0.0127135
717.124	0.0127184
717.203	0.0127544
717.281	0.0128566
717.359	0.0128577
717.437	0.0128843
717.515	0.0128378
717.593	0.0129712
717.671	0.0131450
717.749	0.0131374
717.828	0.0133097
717.906	0.0133108
717.984	0.0132277
718.062	0.0134040
718.140	0.0134485
718.218	0.0135982
718.296	0.0136614
718.374	0.0138202
718.453	0.0138735
718.531	0.0139403
718.609	0.0139953
718.687	0.0140786
718.765	0.0141451
718.843	0.0141556
718.921	0.0140581
718.999	0.0141199
719.078	0.0142606
719.156	0.0141093
719.234	0.0141639
719.312	0.0140986
719.390	0.0141640
719.468	0.0142515
719.546	0.0141501
719.624	0.0140801
719.703	0.0139967
719.781	0.0139706
719.859	0.0140895
719.937	0.0138898
720.015	0.0139515
720.093	0.0139133
720.171	0.0137852
720.249	0.0136890
720.328	0.0135799
720.406	0.0135363
720.484	0.0136681
720.562	0.0135940
720.640	0.0134864
720.718	0.0132890
720.796	0.0132047
720.874	0.0132904
720.953	0.0132428
721.031	0.0131603
721.109	0.0131410
721.187	0.0131573
721.265	0.0130708
721.343	0.0129338
721.421	0.0128918
721.499	0.0130219
721.578	0.0129452
721.656	0.0128867
721.734	0.0129785
721.812	0.0129916
721.890	0.0129732
721.968	0.0130158
722.046	0.0131036
722.124	0.0130614
722.203	0.0129778
722.281	0.0130801
722.359	0.0131305
722.437	0.0132389
722.515	0.0132043
722.593	0.0134308
722.671	0.0133876
722.749	0.0134184
722.828	0.0133945
722.906	0.0134489
722.984	0.0136473
723.062	0.0136040
723.140	0.0137356
723.218	0.0135992
723.296	0.0138524
723.374	0.0139494
723.453	0.0138363
723.531	0.0138358
723.609	0.0138109
723.687	0.0140086
723.765	0.0141396
723.843	0.0140308
723.921	0.0140716
723.999	0.0141029
724.078	0.0138770
724.156	0.0139727
724.234	0.0139591
724.312	0.0138470
724.390	0.0135538
724.468	0.0136453
724.546	0.0135878
724.624	0.0133504
724.703	0.0132970
724.781	0.0131921
724.859	0.0132298
724.937	0.0132109
725.015	0.0129803
725.093	0.0129806
725.171	0.0130672
725.249	0.0128630
725.328	0.0129563
725.406	0.0128889
725.484	0.0130776
725.562	0.0129523
725.640	0.0129641
725.718	0.0130722
725.796	0.0131062
725.874	0.0132705
725.953	0.0131985
726.031	0.0132371
726.109	0.0133427
726.187	0.0132937
726.265	0.0133890
726.343	0.0134286
726.421	0.0134389
726.499	0.0133395
726.578	0.0134235
726.656	0.0135220
726.734	0.0135825
726.812	0.0134212
726.890	0.0136446
726.968	0.0135910
727.046	0.0135633
727.124	0.0134890
727.203	0.0135313
727.281	0.0134490
727.359	0.0135393
727.437	0.0133909
727.515	0.0135276
727.593	0.0134549
727.671	0.0135570
727.749	0.0135248
727.828	0.0135195
727.906	0.0133545
727.984	0.0132882
728.062	0.0133645
728.140	0.0134325
728.218	0.0134794
728.296	0.0134131
728.374	0.0133750
728.453	0.0133723
728.531	0.0134039
728.609	0.0134955
728.687	0.0134163
728.765	0.0134555
728.843	0.0133109
728.921	0.0134267
728.999	0.0133112
729.078	0.0134949
729.156	0.0134512
729.234	0.0135977
729.312	0.0135545
729.390	0.0134158
729.468	0.0136250
729.546	0.0135313
729.624	0.0136169
729.703	0.0134424
729.781	0.0136158
729.859	0.0134373
729.937	0.0134739
730.015	0.0136800
730.093	0.0136537
730.171	0.0136128
730.249	0.0133884
730.328	0.0136597
730.406	0.0137029
730.484	0.0136670
730.562	0.0135518
730.640	0.0136040
730.718	0.0136851
730.796	0.0138212
730.874	0.0138009
730.953	0.0136626
731.031	0.0137754
731.109	0.0137949
731.187	0.0137485
731.265	0.0137725
731.343	0.0136800
731.421	0.0136201
731.499	0.0136523
731.578	0.0135152
731.656	0.0134512
731.734	0.0134934
731.812	0.0134335
731.890	0.0133775
731.968	0.0133205
732.046	0.0133537
732.124	0.0133804
732.203	0.0132345
732.281	0.0132841
732.359	0.0132428
732.437	0.0131319
732.515	0.0130939
732.593	0.0132423
732.671	0.0132099
732.749	0.0131567
732.828	0.0131602
732.906	0.0132711
732.984	0.0131298
733.062	0.0131660
733.140	0.0131767
733.218	0.0131453
733.296	0.0132464
733.374	0.0131605
733.453	0.0132019
733.531	0.0132472
733.609	0.0132870
733.687	0.0132119
733.765	0.0132579
733.843	0.0133105
733.921	0.0133710
733.999	0.0133647
734.078	0.0134747
734.156	0.0133688
734.234	0.0131096
734.312	0.0133465
734.390	0.0134218
734.468	0.0134943
734.546	0.0135471
734.624	0.0136653
734.703	0.0135909
734.781	0.0135273
734.859	0.0137563
734.937	0.0138038
735.015	0.0138893
735.093	0.0137756
735.171	0.0137917
735.249	0.0138139
735.328	0.0138952
735.406	0.0137889
735.484	0.0139012
735.562	0.0140989
735.640	0.0138467
735.718	0.0138098
735.796	0.0138668
735.874	0.0136864
735.953	0.0136715
736.031	0.0137786
736.109	0.0134653
736.187	0.0135378
736.265	0.0134418
736.343	0.0133646
736.421	0.0134437
736.499	0.0133727
736.578	0.0133222
736.656	0.0132755
736.734	0.0134331
736.812	0.0134489
736.890	0.0134876
736.968	0.0134215
737.046	0.0135073
737.124	0.0136855
737.203	0.0136798
737.281	0.0136327
737.359	0.0136189
737.437	0.0137142
737.515	0.0137856
737.593	0.0136703
737.671	0.0137222
737.749	0.0139007
737.828	0.0138255
737.906	0.0138361
737.984	0.0138124
738.062	0.0138194
738.140	0.0135919
738.218	0.0136316
738.296	0.0137579
738.374	0.0138714
738.453	0.0137190
738.531	0.0136444
738.609	0.0137029
738.687	0.0137735
738.765	0.0136317
738.843	0.0136839
738.921	0.0133961
738.999	0.0135344
739.078	0.0136094
739.156	0.0133363
739.234	0.0134549
739.312	0.0133652
739.390	0.0133272
739.468	0.0132742
739.546	0.0133115
739.624	0.0133203
739.703	0.0133295
739.781	0.0132468
739.859	0.0131655
739.937	0.0132400
740.015	0.0132851
740.093	0.0133460
740.171	0.0131821
740.249	0.0132404
740.328	0.0134448
740.406	0.0133943
740.484	0.0133685
740.562	0.0132754
740.640	0.0133566
740.718	0.0133656
740.796	0.0133681
740.874	0.0131805
740.953	0.0132757
741.031	0.0132623
741.109	0.0131547
741.187	0.0133075
741.265	0.0133645
741.343	0.0132624
741.421	0.0132297
741.499	0.0134035
741.578	0.0133205
741.656	0.0133752
741.734	0.0133010
741.812	0.0133857
741.890	0.0134846
741.968	0.0135334
742.046	0.0137073
742.124	0.0136106
742.203	0.0136876
742.281	0.0135308
742.359	0.0136556
742.437	0.0136884
742.515	0.0136350
742.593	0.0137901
742.671	0.0137209
742.749	0.0136414
742.828	0.0134931
742.906	0.0135887
742.984	0.0135931
743.062	0.0136183
743.140	0.0135767
743.218	0.0135912
743.296	0.0134951
743.374	0.0134519
743.453	0.0136420
743.531	0.0134737
743.609	0.0134142
743.687	0.0135013
743.765	0.0135136
743.843	0.0134478
743.921	0.0134200
743.999	0.0134727
744.078	0.0134503
744.156	0.0135243
744.234	0.0132623
744.312	0.0133349
744.390	0.0134924
744.468	0.0134646
744.546	0.0133834
744.624	0.0133020
744.703	0.0132990
744.781	0.0132574
744.859	0.0133315
744.937	0.0133990
745.015	0.0132446
745.093	0.0132439
745.171	0.0132349
745.249	0.0130954
745.328	0.0131310
745.406	0.0130611
745.484	0.0131099
745.562	0.0129903
745.640	0.0129631
745.718	0.0131661
745.796	0.0133995
745.874	0.0131776
745.953	0.0131791
746.031	0.0131536
746.109	0.0134378
746.187	0.0134283
746.265	0.0135123
746.343	0.0135757
746.421	0.0135444
746.499	0.0135870
746.578	0.0136833
746.656	0.0137333
746.734	0.0136662
746.812	0.0137077
746.890	0.0138382
746.968	0.0137973
747.046	0.0137291
747.124	0.0137354
747.203	0.0135801
747.281	0.0137601
747.359	0.0137166
747.437	0.0135728
747.515	0.0136598
747.593	0.0136600
747.671	0.0134666
747.749	0.0135303
747.828	0.0134435
747.906	0.0133905
747.984	0.0134246
748.062	0.0132075
748.140	0.0131770
748.218	0.0134032
748.296	0.0133553
748.374	0.0132693
748.453	0.0132727
748.531	0.0133454
748.609	0.0132119
748.687	0.0133112
748.765	0.0132906
748.843	0.0132150
748.921	0.0131775
748.999	0.0132328
749.078	0.0132839
749.156	0.0132733
749.234	0.0132652
749.312	0.0133463
749.390	0.0134201
749.468	0.0134316
749.546	0.0135185
749.624	0.0135258
749.703	0.0135303
749.781	0.0137111
749.859	0.0136082
749.937	0.0136369
750.015	0.0137057
750.093	0.0138335
750.171	0.0137634
750.249	0.0137980
750.328	0.0138374
750.406	0.0138919
750.484	0.0138889
750.562	0.0138707
750.640	0.0139100
750.718	0.0137872
750.796	0.0138136
750.874	0.0139536
750.953	0.0138624
751.031	0.0138320
751.109	0.0138524
751.187	0.0138804
751.265	0.0137331
751.343	0.0137775
751.421	0.0137387
751.499	0.0136545
751.578	0.0136012
751.656	0.0135977
751.734	0.0135548
751.812	0.0136703
751.890	0.0134169
751.968	0.0134019
752.046	0.0135793
752.124	0.0134367
752.203	0.0133714
752.281	0.0134003
752.359	0.0133717
752.437	0.0133382
752.515	0.0133442
752.593	0.0133357
752.671	0.0134702
752.749	0.0134019
752.828	0.0133387
752.906	0.0133038
752.984	0.0134076
753.062	0.0135218
753.140	0.0134694
753.218	0.0136546
753.296	0.0136891
753.374	0.0136140
753.453	0.0135212
753.531	0.0135578
753.609	0.0136098
753.687	0.0134595
753.765	0.0134715
753.843	0.0134859
753.921	0.0136364
753.999	0.0134750
754.078	0.0134526
754.156	0.0135413
754.234	0.0133431
754.312	0.0133924
754.390	0.0132787
754.468	0.0133363
754.546	0.0133115
754.624	0.0133370
754.703	0.0132109
754.781	0.0133228
754.859	0.0133347
754.937	0.0133841
755.015	0.0133430
755.093	0.0133398
755.171	0.0133365
755.249	0.0134619
755.328	0.0135284
755.406	0.0134039
755.484	0.0134824
755.562	0.0135341
755.640	0.0135754
755.718	0.0137247
755.796	0.0136088
755.874	0.0136658
755.953	0.0135947
756.031	0.0137575
756.109	0.0136816
756.187	0.0136291
756.265	0.0136888
756.343	0.0136140
756.421	0.0137031
756.499	0.0135752
756.578	0.0136212
756.656	0.0135506
756.734	0.0134805
756.812	0.0135938
756.890	0.0134675
756.968	0.0135491
757.046	0.0134189
757.124	0.0136108
757.203	0.0136778
757.281	0.0135792
757.359	0.0135369
757.437	0.0135526
757.515	0.0135176
757.593	0.0137228
757.671	0.0135933
757.749	0.0137320
757.828	0.0136795
757.906	0.0135489
757.984	0.0135646
758.062	0.0135287
758.140	0.0136407
758.218	0.0134999
758.296	0.0135875
758.374	0.0136265
758.453	0.0135731
758.531	0.0135921
758.609	0.0134995
758.687	0.0134743
758.765	0.0134438
758.843	0.0135152
758.921	0.0135854
758.999	0.0136849
759.078	0.0133641
759.156	0.0135121
759.234	0.0135072
759.312	0.0135394
759.390	0.0136523
759.468	0.0134700
759.546	0.0135976
759.624	0.0135197
759.703	0.0136059
759.781	0.0134527
759.859	0.0133811
759.937	0.0133932
760.015	0.0133226
760.093	0.0133817
760.171	0.0132648
760.249	0.0132542
760.328	0.0132441
760.406	0.0132372
760.484	0.0133494
760.562	0.0132197
760.640	0.0133413
760.718	0.0133943
760.796	0.0132124
760.874	0.0132634
760.953	0.0132963
761.031	0.0133611
761.109	0.0133823
761.187	0.0133929
761.265	0.0133593
761.343	0.0132162
761.421	0.0133276
761.499	0.0132619
761.578	0.0131937
761.656	0.0132272
761.734	0.0133926
761.812	0.0132701
761.890	0.0133966
761.968	0.0133132
762.046	0.0133190
762.124	0.0133164
762.203	0.0132949
762.281	0.0134357
762.359	0.0134294
762.437	0.0134243
762.515	0.0134477
762.593	0.0134574
762.671	0.0135014
762.749	0.0133923
762.828	0.0133633
762.906	0.0134755
762.984	0.0135778
763.062	0.0135941
763.140	0.0135500
763.218	0.0133993
763.296	0.0135561
763.374	0.0136469
763.453	0.0136095
763.531	0.0135515
763.609	0.0134799
763.687	0.0134959
763.765	0.0135437
763.843	0.0135933
763.921	0.0134504
763.999	0.0133630
764.078	0.0133215
764.156	0.0133911
764.234	0.0133387
764.312	0.0133171
764.390	0.0131665
764.468	0.0131781
764.546	0.0132332
764.624	0.0132510
764.703	0.0130853
764.781	0.0131870
764.859	0.0131008
764.937	0.0132261
765.015	0.0132601
765.093	0.0132509
765.171	0.0134344
765.249	0.0133156
765.328	0.0133380
765.406	0.0134109
765.484	0.0135054
765.562	0.0135219
765.640	0.0135009
765.718	0.0135657
765.796	0.0135572
765.874	0.0135931
765.953	0.0135270
766.031	0.0135013
766.109	0.0135353
766.187	0.0136626
766.265	0.0136653
766.343	0.0134884
766.421	0.0134362
766.499	0.0135026
766.578	0.0135892
766.656	0.0135548
766.734	0.0135417
766.812	0.0134554
766.890	0.0136836
766.968	0.0134636
767.046	0.0134682
767.124	0.0134711
767.203	0.0134180
767.281	0.0134825
767.359	0.0134126
767.437	0.0134510
767.515	0.0131985
767.593	0.0135096
767.671	0.0133322
767.749	0.0133645
767.828	0.0133881
767.906	0.0132475
767.984	0.0131344
768.062	0.0131915
768.140	0.0131905
768.218	0.0131457
768.296	0.0131061
768.374	0.0131272
768.453	0.0131588
768.531	0.0132946
768.609	0.0133743
768.687	0.0132285
768.765	0.0133765
768.843	0.0134679
768.921	0.0135614
768.999	0.0135278
769.078	0.0135574
769.156	0.0134898
769.234	0.0134416
769.312	0.0133975
769.390	0.0134918
769.468	0.0133887
769.546	0.0134542
769.624	0.0132604
769.703	0.0134169
769.781	0.0134318
769.859	0.0135179
769.937	0.0136990
770.015	0.0136398
770.093	0.0136072
770.171	0.0136706
770.249	0.0137598
770.328	0.0137728
770.406	0.0138394
770.484	0.0138541
770.562	0.0137344
770.640	0.0137904
770.718	0.0138257
770.796	0.0138783
770.874	0.0138764
770.953	0.0138605
771.031	0.0138918
771.109	0.0139213
771.187	0.0138705
771.265	0.0138435
771.343	0.0138004
771.421	0.0138308
771.499	0.0139111
771.578	0.0137027
771.656	0.0138048
771.734	0.0136846
771.812	0.0137217
771.890	0.0136100
771.968	0.0136089
772.046	0.0134827
772.124	0.0134621
772.203	0.0132767
772.281	0.0132796
772.359	0.0131301
772.437	0.0131347
772.515	0.0130855
772.593	0.0130140
772.671	0.0130751
772.749	0.0130315
772.828	0.0130450
772.906	0.0130086
772.984	0.0131348
773.062	0.0132767
773.140	0.0131565
773.218	0.0132387
773.296	0.0132087
773.374	0.0132990
773.453	0.0134545
773.531	0.0135739
773.609	0.0133163
773.687	0.0133900
773.765	0.0134468
773.843	0.0134739
773.921	0.0135350
773.999	0.0135658
774.078	0.0135638
774.156	0.0134892
774.234	0.0135715
774.312	0.0136941
774.390	0.0135718
774.468	0.0136486
774.546	0.0137486
774.624	0.0134052
774.703	0.0136811
774.781	0.0136401
774.859	0.0135056
774.937	0.0133427
775.015	0.0134380
775.093	0.0135593
775.171	0.0134232
775.249	0.0134019
775.328	0.0134130
775.406	0.0133923
775.484	0.0132410
775.562	0.0134930
775.640	0.0134758
775.718	0.0133746
775.796	0.0134283
775.874	0.0135016
775.953	0.0133842
776.031	0.0134171
776.109	0.0135427
776.187	0.0134472
776.265	0.0134862
776.343	0.0134767
776.421	0.0136497
776.499	0.0135458
776.578	0.0135386
776.656	0.0135191
776.734	0.0137109
776.812	0.0139117
776.890	0.0136373
776.968	0.0136819
777.046	0.0136660
777.124	0.0137578
777.203	0.0137392
777.281	0.0136697
777.359	0.0136279
777.437	0.0135164
777.515	0.0134940
777.593	0.0133004
777.671	0.0133101
777.749	0.0133252
777.828	0.0133009
777.906	0.0132567
777.984	0.0132803
778.062	0.0132599
778.140	0.0132067
778.218	0.0132330
778.296	0.0130978
778.374	0.0131515
778.453	0.0129989
778.531	0.0131425
778.609	0.0132014
778.687	0.0129401
778.765	0.0131300
778.843	0.0130530
778.921	0.0128773
778.999	0.0129297
779.078	0.0129874
779.156	0.0131297
779.234	0.0129619
779.312	0.0130665
779.390	0.0131271
779.468	0.0131568
779.546	0.0130171
779.624	0.0130277
779.703	0.0131648
779.781	0.0130132
779.859	0.0130696
779.937	0.0131902
780.015	0.0133582
780.093	0.0132223
780.171	0.0132784
780.249	0.0133118
780.328	0.0134184
780.406	0.0132750
780.484	0.0133630
780.562	0.0133180
780.640	0.0134201
780.718	0.0133479
780.796	0.0133900
780.874	0.0132549
780.953	0.0133060
781.031	0.0133665
781.109	0.0133385
781.187	0.0132842
781.265	0.0132873
781.343	0.0133466
781.421	0.0133062
781.499	0.0132050
781.578	0.0134487
781.656	0.0135374
781.734	0.0135269
781.812	0.0135424
781.890	0.0136674
781.968	0.0136969
782.046	0.0136285
782.124	0.0136921
782.203	0.0137206
782.281	0.0136528
782.359	0.0135281
782.437	0.0135276
782.515	0.0134591
782.593	0.0134850
782.671	0.0135259
782.749	0.0133817
782.828	0.0134293
782.906	0.0134261
782.984	0.0135226
783.062	0.0134868
783.140	0.0135526
783.218	0.0135500
783.296	0.0136859
783.374	0.0136568
783.453	0.0135560
783.531	0.0137408
783.609	0.0136439
783.687	0.0134498
783.765	0.0134818
783.843	0.0134061
783.921	0.0134180
783.999	0.0133529
784.078	0.0133217
784.156	0.0132964
784.234	0.0134048
784.312	0.0134430
784.390	0.0134462
784.468	0.0133593
784.546	0.0132971
784.624	0.0132635
784.703	0.0132840
784.781	0.0132954
784.859	0.0132980
784.937	0.0133326
785.015	0.0132846
785.093	0.0131727
785.171	0.0131359
785.249	0.0133043
785.328	0.0132410
785.406	0.0133125
785.484	0.0134305
785.562	0.0134074
785.640	0.0134084
785.718	0.0135165
785.796	0.0135652
785.874	0.0136475
785.953	0.0135856
786.031	0.0135842
786.109	0.0136330
786.187	0.0136012
786.265	0.0134898
786.343	0.0135493
786.421	0.0135095
786.499	0.0136417
786.578	0.0136163
786.656	0.0135089
786.734	0.0134563
786.812	0.0134454
786.890	0.0134339
786.968	0.0135501
787.046	0.0136789
787.124	0.0137070
787.203	0.0137699
787.281	0.0137298
787.359	0.0138709
787.437	0.0140283
787.515	0.0139065
787.593	0.0138597
787.671	0.0137049
787.749	0.0139462
787.828	0.0137590
787.906	0.0137202
787.984	0.0136797
788.062	0.0135004
788.140	0.0134095
788.218	0.0134940
788.296	0.0134087
788.374	0.0133296
788.453	0.0133938
788.531	0.0133723
788.609	0.0133331
788.687	0.0134444
788.765	0.0135397
788.843	0.0135338
788.921	0.0134790
788.999	0.0133955
789.078	0.0136671
789.156	0.0135802
789.234	0.0135446
789.312	0.0134152
789.390	0.0133509
789.468	0.0133612
789.546	0.0134892
789.624	0.0132815
789.703	0.0134118
789.781	0.0133102
789.859	0.0133913
789.937	0.0132600
790.015	0.0133207
790.093	0.0134010
790.171	0.0134665
790.249	0.0134493
790.328	0.0134145
790.406	0.0131226
790.484	0.0132050
790.562	0.0131732
790.640	0.0131861
790.718	0.0131789
790.796	0.0131199
790.874	0.0131976
790.953	0.0130653
791.031	0.0131345
791.109	0.0131386
791.187	0.0132296
791.265	0.0131017
791.343	0.0131777
791.421	0.0133513
791.499	0.0134889
791.578	0.0134312
791.656	0.0134058
791.734	0.0135068
791.812	0.0135411
791.890	0.0135577
791.968	0.0134570
792.046	0.0135625
792.124	0.0135894
792.203	0.0135863
792.281	0.0135641
792.359	0.0135375
792.437	0.0134104
792.515	0.0134903
792.593	0.0132903
792.671	0.0134697
792.749	0.0133247
792.828	0.0133597
792.906	0.0134566
792.984	0.0134319
793.062	0.0134577
793.140	0.0134295
793.218	0.0133958
793.296	0.0134099
793.374	0.0134954
793.453	0.0135153
793.531	0.0134456
793.609	0.0133756
793.687	0.0134509
793.765	0.0136215
793.843	0.0134836
793.921	0.0134631
793.999	0.0134190
794.078	0.0134987
794.156	0.0135487
794.234	0.0135201
794.312	0.0133379
794.390	0.0133737
794.468	0.0134237
794.546	0.0135027
794.624	0.0134499
794.703	0.0134175
794.781	0.0134299
794.859	0.0134309
794.937	0.0133471
795.015	0.0134034
795.093	0.0135038
795.171	0.0134305
795.249	0.0135168
795.328	0.0135896
795.406	0.0133881
795.484	0.0135281
795.562	0.0133755
795.640	0.0133610
795.718	0.0132477
795.796	0.0131984
795.874	0.0132106
795.953	0.0131171
796.031	0.0130312
796.109	0.0130535
796.187	0.0131406
796.265	0.0130890
796.343	0.0131152
796.421	0.0131602
796.499	0.0131447
796.578	0.0131557
796.656	0.0133907
796.734	0.0134840
796.812	0.0134189
796.890	0.0134016
796.968	0.0134053
797.046	0.0132037
797.124	0.0133157
797.203	0.0133789
797.281	0.0134893
797.359	0.0134081
797.437	0.0135410
797.515	0.0134604
797.593	0.0135841
797.671	0.0135109
797.749	0.0134683
797.828	0.0137963
797.906	0.0136890
797.984	0.0138023
798.062	0.0136370
798.140	0.0137054
798.218	0.0137327
798.296	0.0136087
798.374	0.0136353
798.453	0.0136250
798.531	0.0136432
798.609	0.0134789
798.687	0.0132626
798.765	0.0133424
798.843	0.0133244
798.921	0.0134336
798.999	0.0131886
799.078	0.0131664
799.156	0.0133202
799.234	0.0131277
799.312	0.0131029
799.390	0.0132314
799.468	0.0131606
799.546	0.0133787
799.624	0.0133863
799.703	0.0133996
799.781	0.0134261
799.859	0.0134408
799.937	0.0136418
800.015	0.0137233
800.093	0.0136379
800.171	0.0137920
800.249	0.0137402
800.328	0.0137145
800.406	0.0137950
800.484	0.0136973
800.562	0.0138481
800.640	0.0136887
800.718	0.0136632
800.796	0.0137121
800.874	0.0137612
800.953	0.0138715
801.031	0.0136700
801.109	0.0135497
801.187	0.0135948
801.265	0.0136097
801.343	0.0135287
801.421	0.0134267
801.499	0.0133447
801.578	0.0133396
801.656	0.0134863
801.734	0.0133138
801.812	0.0132572
801.890	0.0133759
801.968	0.0132056
802.046	0.0133317
802.124	0.0132053
802.203	0.0131075
802.281	0.0131257
802.359	0.0130516
802.437	0.0132321
802.515	0.0132050
802.593	0.0131844
802.671	0.0131033
802.749	0.0129605
802.828	0.0132011
802.906	0.0132651
802.984	0.0132338
803.062	0.0132504
803.140	0.0132728
803.218	0.0133214
803.296	0.0133572
803.374	0.0133526
803.453	0.0134502
803.531	0.0134034
803.609	0.0134113
803.687	0.0135861
803.765	0.0134609
803.843	0.0132925
803.921	0.0134404
803.999	0.0134977
804.078	0.0134511
804.156	0.0134214
804.234	0.0135394
804.312	0.0135902
804.390	0.0136318
804.468	0.0136046
804.546	0.0135173
804.624	0.0135493
804.703	0.0136295
804.781	0.0137099
804.859	0.0136027
804.937	0.0135295
805.015	0.0135487
805.093	0.0135636
805.171	0.0135305
805.249	0.0134412
805.328	0.0135248
805.406	0.0132561
805.484	0.0131663
805.562	0.0133599
805.640	0.0132374
805.718	0.0132979
805.796	0.0132349
805.874	0.0131644
805.953	0.0132224
806.031	0.0134005
806.109	0.0133482
806.187	0.0134798
806.265	0.0135300
806.343	0.0136075
806.421	0.0135210
806.499	0.0136197
806.578	0.0136493
806.656	0.0136653
806.734	0.0136010
806.812	0.0136227
806.890	0.0136291
806.968	0.0136902
807.046	0.0135795
807.124	0.0135200
807.203	0.0136270
807.281	0.0136020
807.359	0.0134889
807.437	0.0135719
807.515	0.0136233
807.593	0.0135066
807.671	0.0134810
807.749	0.0135281
807.828	0.0134944
807.906	0.0134320
807.984	0.0134369
808.062	0.0134757
808.140	0.0133721
808.218	0.0133165
808.296	0.0133778
808.374	0.0133496
808.453	0.0131627
808.531	0.0131693
808.609	0.0131927
808.687	0.0130091
808.765	0.0131150
808.843	0.0132439
808.921	0.0131487
808.999	0.0131435
809.078	0.0132726
809.156	0.0133686
809.234	0.0134402
809.312	0.0135609
809.390	0.0135650
809.468	0.0136624
809.546	0.0136311
809.624	0.0136543
809.703	0.0136897
809.781	0.0136588
809.859	0.0137487
809.937	0.0137460
810.015	0.0137947
810.093	0.0136327
810.171	0.0137240
810.249	0.0137638
810.328	0.0136072
810.406	0.0136669
810.484	0.0137142
810.562	0.0136855
810.640	0.0135883
810.718	0.0134879
810.796	0.0135131
810.874	0.0136175
810.953	0.0134383
811.031	0.0135398
811.109	0.0135450
811.187	0.0133556
811.265	0.0133945
811.343	0.0135251
811.421	0.0132210
811.499	0.0132233
811.578	0.0135426
811.656	0.0135220
811.734	0.0134188
811.812	0.0135528
811.890	0.0135832
811.968	0.0133925
812.046	0.0137602
812.124	0.0137202
812.203	0.0137183
812.281	0.0137718
812.359	0.0138580
812.437	0.0138229
812.515	0.0139880
812.593	0.0140199
812.671	0.0138733
812.749	0.0139512
812.828	0.0139040
812.906	0.0138567
812.984	0.0136821
813.062	0.0137700
813.140	0.0136356
813.218	0.0135870
813.296	0.0135730
813.374	0.0133900
813.453	0.0134576
813.531	0.0133295
813.609	0.0132068
813.687	0.0132520
813.765	0.0132400
813.843	0.0132445
813.921	0.0131622
813.999	0.0131507
814.078	0.0132475
814.156	0.0133813
814.234	0.0132870
814.312	0.0131870
814.390	0.0132825
814.468	0.0131923
814.546	0.0132202
814.624	0.0131852
814.703	0.0131253
814.781	0.0133096
814.859	0.0132872
814.937	0.0132832
815.015	0.0132714
815.093	0.0132576
815.171	0.0133259
815.249	0.0133395
815.328	0.0133617
815.406	0.0135202
815.484	0.0135632
815.562	0.0134801
815.640	0.0137475
815.718	0.0136636
815.796	0.0137003
815.874	0.0138055
815.953	0.0137406
816.031	0.0137811
816.109	0.0138681
816.187	0.0135860
816.265	0.0136259
816.343	0.0137591
816.421	0.0136523
816.499	0.0136625
816.578	0.0136284
816.656	0.0136444
816.734	0.0135968
816.812	0.0134029
816.890	0.0134906
816.968	0.0135247
817.046	0.0134601
817.124	0.0135882
817.203	0.0133402
817.281	0.0134790
817.359	0.0134758
817.437	0.0133578
817.515	0.0133635
817.593	0.0134518
817.671	0.0133002
817.749	0.0133764
817.828	0.0133404
817.906	0.0134692
817.984	0.0133694
818.062	0.0132896
818.140	0.0133684
818.218	0.0133410
818.296	0.0133500
818.374	0.0134590
818.453	0.0134618
818.531	0.0132763
818.609	0.0133741
818.687	0.0133399
818.765	0.0133107
818.843	0.0132462
818.921	0.0133463
818.999	0.0133327
819.078	0.0134446
819.156	0.0132861
819.234	0.0133653
819.312	0.0133596
819.390	0.0132454
819.468	0.0131933
819.546	0.0132951
819.624	0.0133170
819.703	0.0131938
819.781	0.0133693
819.859	0.0130901
819.937	0.0131961
820.015	0.0131656
820.093	0.0132054
820.171	0.0130811
820.249	0.0130673
820.328	0.0132340
820.406	0.0132194
820.484	0.0132001
820.562	0.0131759
820.640	0.0131908
820.718	0.0131183
820.796	0.0133331
820.874	0.0133600
820.953	0.0132304
821.031	0.0132561
821.109	0.0134187
821.187	0.0133020
821.265	0.0132526
821.343	0.0131951
821.421	0.0134298
821.499	0.0132742
821.578	0.0132845
821.656	0.0134496
821.734	0.0133752
821.812	0.0134820
821.890	0.0133643
821.968	0.0134591
822.046	0.0135841
822.124	0.0134647
822.203	0.0134787
822.281	0.0134337
822.359	0.0134985
822.437	0.0135499
822.515	0.0135406
822.593	0.0133440
822.671	0.0134358
822.749	0.0134087
822.828	0.0132954
822.906	0.0132481
822.984	0.0134334
823.062	0.0133666
823.140	0.0134196
823.218	0.0133653
823.296	0.0133932
823.374	0.0134248
823.453	0.0134468
823.531	0.0134013
823.609	0.0134093
823.687	0.0133784
823.765	0.0133206
823.843	0.0133979
823.921	0.0133601
823.999	0.0133877
824.078	0.0134446
824.156	0.0134460
824.234	0.0134131
824.312	0.0133642
824.390	0.0134064
824.468	0.0132838
824.546	0.0131870
824.624	0.0132430
824.703	0.0132343
824.781	0.0133167
824.859	0.0132571
824.937	0.0131638
825.015	0.0132019
825.093	0.0134751
825.171	0.0133781
825.249	0.0134066
825.328	0.0134269
825.406	0.0133461
825.484	0.0134433
825.562	0.0135050
825.640	0.0134203
825.718	0.0135141
825.796	0.0134208
825.874	0.0132752
825.953	0.0133770
826.031	0.0134255
826.109	0.0134505
826.187	0.0136491
826.265	0.0135426
826.343	0.0135292
826.421	0.0134913
826.499	0.0134872
826.578	0.0135360
826.656	0.0136219
826.734	0.0136179
826.812	0.0135802
826.890	0.0135640
826.968	0.0136267
827.046	0.0136272
827.124	0.0137006
827.203	0.0135549
827.281	0.0136900
827.359	0.0136098
827.437	0.0135284
827.515	0.0135408
827.593	0.0135799
827.671	0.0135260
827.749	0.0134637
827.828	0.0135920
827.906	0.0134138
827.984	0.0135220
828.062	0.0136229
828.140	0.0134465
828.218	0.0133887
828.296	0.0135045
828.374	0.0135690
828.453	0.0135754
828.531	0.0134248
828.609	0.0134611
828.687	0.0135535
828.765	0.0135222
828.843	0.0134229
828.921	0.0133893
828.999	0.0134682
829.078	0.0134570
829.156	0.0134739
829.234	0.0135004
829.312	0.0133960
829.390	0.0135317
829.468	0.0135114
829.546	0.0135944
829.624	0.0134702
829.703	0.0134757
829.781	0.0134928
829.859	0.0135442
829.937	0.0135241
830.015	0.0134569
830.093	0.0134975
830.171	0.0135757
830.249	0.0134338
830.328	0.0133483
830.406	0.0134470
830.484	0.0135344
830.562	0.0134328
830.640	0.0133981
830.718	0.0134152
830.796	0.0135380
830.874	0.0135395
830.953	0.0134216
831.031	0.0135696
831.109	0.0136245
831.187	0.0136113
831.265	0.0136969
831.343	0.0135880
831.421	0.0137657
831.499	0.0136795
831.578	0.0134134
831.656	0.0135577
831.734	0.0136648
831.812	0.0136462
831.890	0.0135859
831.968	0.0135645
832.046	0.0136330
832.124	0.0135986
832.203	0.0136750
832.281	0.0136279
832.359	0.0135409
832.437	0.0134863
832.515	0.0136655
832.593	0.0135989
832.671	0.0135294
832.749	0.0134929
832.828	0.0134782
832.906	0.0133732
832.984	0.0134335
833.062	0.0133598
833.140	0.0134145
833.218	0.0133693
833.296	0.0133536
833.374	0.0133486
833.453	0.0134984
833.531	0.0135622
833.609	0.0133980
833.687	0.0134477
833.765	0.0136948
833.843	0.0135769
833.921	0.0136346
833.999	0.0135418
834.078	0.0135526
834.156	0.0136681
834.234	0.0137611
834.312	0.0134489
834.390	0.0135694
834.468	0.0136203
834.546	0.0136073
834.624	0.0136579
834.703	0.0135997
834.781	0.0136370
834.859	0.0136520
834.937	0.0135886
835.015	0.0136504
835.093	0.0134995
835.171	0.0134856
835.249	0.0135831
835.328	0.0135651
835.406	0.0136671
835.484	0.0136632
835.562	0.0136800
835.640	0.0137062
835.718	0.0135204
835.796	0.0135897
835.874	0.0136491
835.953	0.0138515
836.031	0.0136436
836.109	0.0137019
836.187	0.0136863
836.265	0.0136188
836.343	0.0136100
836.421	0.0136012
836.499	0.0135236
836.578	0.0135544
836.656	0.0135614
836.734	0.0133242
836.812	0.0133754
836.890	0.0135509
836.968	0.0133701
837.046	0.0134638
837.124	0.0135414
837.203	0.0133437
837.281	0.0132646
837.359	0.0132864
837.437	0.0133826
837.515	0.0133733
837.593	0.0134336
837.671	0.0132957
837.749	0.0134236
837.828	0.0134348
837.906	0.0135823
837.984	0.0134968
838.062	0.0134953
838.140	0.0134411
838.218	0.0135480
838.296	0.0136584
838.374	0.0135320
838.453	0.0136794
838.531	0.0135425
838.609	0.0135188
838.687	0.0135820
838.765	0.0134862
838.843	0.0135912
838.921	0.0137779
838.999	0.0135675
839.078	0.0135070
839.156	0.0134597
839.234	0.0135133
839.312	0.0135196
839.390	0.0134350
839.468	0.0135111
839.546	0.0134535
839.624	0.0134519
839.703	0.0133717
839.781	0.0133607
839.859	0.0133643
839.937	0.0135152
840.015	0.0133904
840.093	0.0132960
840.171	0.0134073
840.249	0.0133864
840.328	0.0134186
840.406	0.0131755
840.484	0.0131807
840.562	0.0133851
840.640	0.0133279
840.718	0.0133306
840.796	0.0131856
840.874	0.0131594
840.953	0.0132635
841.031	0.0133336
841.109	0.0132594
841.187	0.0133924
841.265	0.0133674
841.343	0.0134129
841.421	0.0134808
841.499	0.0134796
841.578	0.0135258
841.656	0.0134957
841.734	0.0136289
841.812	0.0135023
841.890	0.0136925
841.968	0.0136491
842.046	0.0136270
842.124	0.0135696
842.203	0.0133864
842.281	0.0134972
842.359	0.0135492
842.437	0.0134219
842.515	0.0134296
842.593	0.0134251
842.671	0.0135444
842.749	0.0134547
842.828	0.0134190
842.906	0.0132687
842.984	0.0132973
843.062	0.0133508
843.140	0.0132869
843.218	0.0133051
843.296	0.0133086
843.374	0.0133530
843.453	0.0131860
843.531	0.0131577
843.609	0.0131480
843.687	0.0131918
843.765	0.0131141
843.843	0.0131924
843.921	0.0132499
843.999	0.0132471
844.078	0.0132946
844.156	0.0133061
844.234	0.0131908
844.312	0.0133565
844.390	0.0132454
844.468	0.0132799
844.546	0.0133092
844.624	0.0132318
844.703	0.0131720
844.781	0.0132512
844.859	0.0132057
844.937	0.0133030
845.015	0.0132325
845.093	0.0132584
845.171	0.0133875
845.249	0.0133808
845.328	0.0134995
845.406	0.0134148
845.484	0.0134349
845.562	0.0134348
845.640	0.0133345
845.718	0.0134708
845.796	0.0135722
845.874	0.0135593
845.953	0.0134545
846.031	0.0135973
846.109	0.0135566
846.187	0.0134659
846.265	0.0135801
846.343	0.0133981
846.421	0.0135360
846.499	0.0134197
846.578	0.0133104
846.656	0.0133833
846.734	0.0133028
846.812	0.0132614
846.890	0.0132595
846.968	0.0133586
847.046	0.0132632
847.124	0.0133664
847.203	0.0131776
847.281	0.0131274
847.359	0.0133449
847.437	0.0132935
847.515	0.0134016
847.593	0.0133051
847.671	0.0132439
847.749	0.0132516
847.828	0.0132780
847.906	0.0133270
847.984	0.0133543
848.062	0.0133529
848.140	0.0132533
848.218	0.0132081
848.296	0.0132095
848.374	0.0130773
848.453	0.0132069
848.531	0.0132971
848.609	0.0132010
848.687	0.0132707
848.765	0.0132455
848.843	0.0132752
848.921	0.0133112
848.999	0.0133305
849.078	0.0133746
849.156	0.0134650
849.234	0.0134864
849.312	0.0134758
849.390	0.0135546
849.468	0.0136572
849.546	0.0138223
849.624	0.0137733
849.703	0.0138647
849.781	0.0138180
849.859	0.0138510
849.937	0.0139279
850.015	0.0139512
850.093	0.0139469
850.171	0.0140351
850.249	0.0140508
850.328	0.0139296
850.406	0.0138821
850.484	0.0138666
850.562	0.0138699
850.640	0.0140508
850.718	0.0139568
850.796	0.0139835
850.874	0.0137321
850.953	0.0137142
851.031	0.0137253
851.109	0.0137090
851.187	0.0136911
851.265	0.0136557
851.343	0.0135098
851.421	0.0134618
851.499	0.0133500
851.578	0.0133284
851.656	0.0133601
851.734	0.0132748
851.812	0.0132028
851.890	0.0130156
851.968	0.0131350
852.046	0.0130528
852.124	0.0133345
852.203	0.0131995
852.281	0.0131828
852.359	0.0132166
852.437	0.0131355
852.515	0.0131902
852.593	0.0131578
852.671	0.0132529
852.749	0.0132578
852.828	0.0132216
852.906	0.0132330
852.984	0.0131606
853.062	0.0132109
853.140	0.0132444
853.218	0.0132304
853.296	0.0131606
853.374	0.0132085
853.453	0.0131769
853.531	0.0133369
853.609	0.0132482
853.687	0.0132294
853.765	0.0134088
853.843	0.0133722
853.921	0.0133988
853.999	0.0133604
854.078	0.0133698
854.156	0.0134643
854.234	0.0135637
854.312	0.0134584
854.390	0.0135474
854.468	0.0136211
854.546	0.0134807
854.624	0.0135394
854.703	0.0134388
854.781	0.0135874
854.859	0.0135053
854.937	0.0136124
855.015	0.0136553
855.093	0.0136246
855.171	0.0135617
855.249	0.0136576
855.328	0.0136485
855.406	0.0136889
855.484	0.0137410
855.562	0.0137740
855.640	0.0135796
855.718	0.0135346
855.796	0.0136253
855.874	0.0137505
855.953	0.0136613
856.031	0.0137441
856.109	0.0137043
856.187	0.0137251
856.265	0.0137103
856.343	0.0136128
856.421	0.0136411
856.499	0.0135795
856.578	0.0136555
856.656	0.0133540
856.734	0.0135900
856.812	0.0136763
856.890	0.0135500
856.968	0.0136202
857.046	0.0133460
857.124	0.0135348
857.203	0.0136118
857.281	0.0134771
857.359	0.0134949
857.437	0.0133138
857.515	0.0134199
857.593	0.0134284
857.671	0.0134187
857.749	0.0134502
857.828	0.0133965
857.906	0.0134055
857.984	0.0134132
858.062	0.0132872
858.140	0.0134062
858.218	0.0134384
858.296	0.0133187
858.374	0.0133241
858.453	0.0134832
858.531	0.0134282
858.609	0.0134594
858.687	0.0134837
858.765	0.0133932
858.843	0.0133890
858.921	0.0133517
858.999	0.0133365
859.078	0.0133629
859.156	0.0135262
859.234	0.0132711
859.312	0.0133109
859.390	0.0132244
859.468	0.0133043
859.546	0.0133360
859.624	0.0132599
859.703	0.0133536
859.781	0.0134165
859.859	0.0131628
859.937	0.0133852
860.015	0.0134615
860.093	0.0133328
860.171	0.0134835
860.249	0.0135760
860.328	0.0135109
860.406	0.0133856
860.484	0.0135897
860.562	0.0135287
860.640	0.0135509
860.718	0.0135885
860.796	0.0136387
860.874	0.0136751
860.953	0.0136518
861.031	0.0136901
861.109	0.0137083
861.187	0.0136795
861.265	0.0135661
861.343	0.0137167
861.421	0.0136022
861.499	0.0136030
861.578	0.0136697
861.656	0.0136517
861.734	0.0136789
861.812	0.0135494
861.890	0.0134184
861.968	0.0134891
862.046	0.0135485
862.124	0.0134859
862.203	0.0132658
862.281	0.0133672
862.359	0.0133462
862.437	0.0133065
862.515	0.0134147
862.593	0.0133728
862.671	0.0132869
862.749	0.0132407
862.828	0.0132992
862.906	0.0133746
862.984	0.0133479
863.062	0.0132359
863.140	0.0132990
863.218	0.0133784
863.296	0.0134447
863.374	0.0133616
863.453	0.0135154
863.531	0.0134685
863.609	0.0134005
863.687	0.0134406
863.765	0.0135670
863.843	0.0133874
863.921	0.0132938
863.999	0.0134507
864.078	0.0134737
864.156	0.0135785
864.234	0.0132675
864.312	0.0134326
864.390	0.0133391
864.468	0.0133454
864.546	0.0132132
864.624	0.0132660
864.703	0.0133221
864.781	0.0134260
864.859	0.0133702
864.937	0.0134779
865.015	0.0134084
865.093	0.0132794
865.171	0.0133997
865.249	0.0134920
865.328	0.0135443
865.406	0.0134116
865.484	0.0133892
865.562	0.0133997
865.640	0.0135979
865.718	0.0134702
865.796	0.0133525
865.874	0.0135029
865.953	0.0134566
866.031	0.0135494
866.109	0.0134482
866.187	0.0135462
866.265	0.0135398
866.343	0.0135297
866.421	0.0134884
866.499	0.0134893
866.578	0.0134518
866.656	0.0134626
866.734	0.0134154
866.812	0.0133987
866.890	0.0134308
866.968	0.0133900
867.046	0.0134533
867.124	0.0134222
867.203	0.0133962
867.281	0.0133747
867.359	0.0133502
867.437	0.0132433
867.515	0.0134625
867.593	0.0133379
867.671	0.0132986
867.749	0.0132346
867.828	0.0133165
867.906	0.0132048
867.984	0.0132269
868.062	0.0132521
868.140	0.0131780
868.218	0.0132207
868.296	0.0133640
868.374	0.0132529
868.453	0.0132098
868.531	0.0131091
868.609	0.0132237
868.687	0.0133403
868.765	0.0133984
868.843	0.0133943
868.921	0.0134167
868.999	0.0134098
869.078	0.0135163
869.156	0.0135857
869.234	0.0134798
869.312	0.0133449
869.390	0.0135503
869.468	0.0134961
869.546	0.0134726
869.624	0.0136055
869.703	0.0135622
869.781	0.0135230
869.859	0.0135957
869.937	0.0134184
870.015	0.0133662
870.093	0.0134417
870.171	0.0135506
870.249	0.0134290
870.328	0.0133347
870.406	0.0133060
870.484	0.0133301
870.562	0.0133337
870.640	0.0135052
870.718	0.0133154
870.796	0.0133691
870.874	0.0133142
870.953	0.0132679
871.031	0.0132417
871.109	0.0132610
871.187	0.0133085
871.265	0.0132795
871.343	0.0132597
871.421	0.0133385
871.499	0.0133221
871.578	0.0133564
871.656	0.0131873
871.734	0.0131916
871.812	0.0133354
871.890	0.0132417
871.968	0.0132521
872.046	0.0133337
872.124	0.0133727
872.203	0.0133736
872.281	0.0132539
872.359	0.0133190
872.437	0.0133643
872.515	0.0133694
872.593	0.0134441
872.671	0.0134519
872.749	0.0133439
872.828	0.0133378
872.906	0.0133411
872.984	0.0135439
873.062	0.0134658
873.140	0.0132281
873.218	0.0133020
873.296	0.0132401
873.374	0.0132899
873.453	0.0133914
873.531	0.0134463
873.609	0.0131608
873.687	0.0134286
873.765	0.0133267
873.843	0.0134471
873.921	0.0134087
873.999	0.0134841
874.078	0.0134758
874.156	0.0133937
874.234	0.0133824
874.312	0.0134544
874.390	0.0136740
874.468	0.0135208
874.546	0.0135098
874.624	0.0135249
874.703	0.0134900
874.781	0.0135162
874.859	0.0134380
874.937	0.0133060
875.015	0.0133279
875.093	0.0133117
875.171	0.0132790
875.249	0.0133966
875.328	0.0133032
875.406	0.0132206
875.484	0.0133741
875.562	0.0133234
875.640	0.0132652
875.718	0.0133632
875.796	0.0135017
875.874	0.0134949
875.953	0.0133057
876.031	0.0134389
876.109	0.0133607
876.187	0.0134512
876.265	0.0134476
876.343	0.0135184
876.421	0.0134445
876.499	0.0133930
876.578	0.0133988
876.656	0.0134017
876.734	0.0133688
876.812	0.0133862
876.890	0.0133605
876.968	0.0133741
877.046	0.0131925
877.124	0.0133044
877.203	0.0133389
877.281	0.0134615
877.359	0.0133603
877.437	0.0134056
877.515	0.0132419
877.593	0.0133943
877.671	0.0133564
877.749	0.0133626
877.828	0.0132575
877.906	0.0133372
877.984	0.0133334
878.062	0.0133464
878.140	0.0133417
878.218	0.0134032
878.296	0.0134115
878.374	0.0134483
878.453	0.0133639
878.531	0.0132823
878.609	0.0134088
878.687	0.0134115
878.765	0.0134341
878.843	0.0132194
878.921	0.0133849
878.999	0.0133302
879.078	0.0134116
879.156	0.0133952
879.234	0.0133857
879.312	0.0133945
879.390	0.0134380
879.468	0.0134365
879.546	0.0135314
879.624	0.0134728
879.703	0.0134589
879.781	0.0135873
879.859	0.0135815
879.937	0.0136092
880.015	0.0136230
880.093	0.0136417
880.171	0.0136098
880.249	0.0136610
880.328	0.0137459
880.406	0.0135804
880.484	0.0135694
880.562	0.0136100
880.640	0.0136407
880.718	0.0136710
880.796	0.0135204
880.874	0.0134884
880.953	0.0135959
881.031	0.0135197
881.109	0.0136269
881.187	0.0137022
881.265	0.0135027
881.343	0.0136916
881.421	0.0135236
881.499	0.0136044
881.578	0.0136687
881.656	0.0136953
881.734	0.0138101
881.812	0.0137297
881.890	0.0136660
881.968	0.0135986
882.046	0.0136581
882.124	0.0138673
882.203	0.0137186
882.281	0.0137073
882.359	0.0137773
882.437	0.0137244
882.515	0.0136792
882.593	0.0135495
882.671	0.0137324
882.749	0.0135986
882.828	0.0136482
882.906	0.0135907
882.984	0.0135649
883.062	0.0136501
883.140	0.0135180
883.218	0.0135542
883.296	0.0134055
883.374	0.0134081
883.453	0.0135718
883.531	0.0134906
883.609	0.0134326
883.687	0.0134373
883.765	0.0133369
883.843	0.0133879
883.921	0.0133163
883.999	0.0132745
884.078	0.0133099
884.156	0.0132334
884.234	0.0133792
884.312	0.0133802
884.390	0.0133795
884.468	0.0133573
884.546	0.0133945
884.624	0.0133181
884.703	0.0134164
884.781	0.0134475
884.859	0.0135941
884.937	0.0134284
885.015	0.0134305
885.093	0.0135397
885.171	0.0134348
885.249	0.0135343
885.328	0.0135467
885.406	0.0134695
885.484	0.0135616
885.562	0.0136392
885.640	0.0134798
885.718	0.0134872
885.796	0.0137357
885.874	0.0136564
885.953	0.0136324
886.031	0.0135738
886.109	0.0135772
886.187	0.0134920
886.265	0.0135556
886.343	0.0135275
886.421	0.0134613
886.499	0.0135954
886.578	0.0135135
886.656	0.0136384
886.734	0.0134235
886.812	0.0134251
886.890	0.0135392
886.968	0.0133414
887.046	0.0133003
887.124	0.0134023
887.203	0.0134832
887.281	0.0133974
887.359	0.0134393
887.437	0.0133514
887.515	0.0133663
887.593	0.0131664
887.671	0.0133689
887.749	0.0133300
887.828	0.0132794
887.906	0.0133259
887.984	0.0133581
888.062	0.0132775
888.140	0.0132025
888.218	0.0134365
888.296	0.0133175
888.374	0.0132674
888.453	0.0134809
888.531	0.0133164
888.609	0.0133379
888.687	0.0132661
888.765	0.0132824
888.843	0.0132739
888.921	0.0133543
888.999	0.0133076
889.078	0.0132381
889.156	0.0134809
889.234	0.0133604
889.312	0.0133691
889.390	0.0134396
889.468	0.0133307
889.546	0.0134537
889.624	0.0135033
889.703	0.0134850
889.781	0.0133587
889.859	0.0133595
889.937	0.0133485
890.015	0.0135507
890.093	0.0135221
890.171	0.0134063
890.249	0.0135815
890.328	0.0135066
890.406	0.0134682
890.484	0.0134341
890.562	0.0134950
890.640	0.0135713
890.718	0.0135928
890.796	0.0134602
890.874	0.0135313
890.953	0.0135558
891.031	0.0135720
891.109	0.0136219
891.187	0.0135808
891.265	0.0135133
891.343	0.0136192
891.421	0.0134759
891.499	0.0135779
891.578	0.0135847
891.656	0.0136838
891.734	0.0136226
891.812	0.0135696
891.890	0.0136188
891.968	0.0134450
892.046	0.0135962
892.124	0.0135823
892.203	0.0135390
892.281	0.0135531
892.359	0.0134783
892.437	0.0135337
892.515	0.0136604
892.593	0.0135480
892.671	0.0135131
892.749	0.0133207
892.828	0.0133215
892.906	0.0134591
892.984	0.0133108
893.062	0.0134151
893.140	0.0133402
893.218	0.0133508
893.296	0.0134710
893.374	0.0133904
893.453	0.0133420
893.531	0.0132887
893.609	0.0133636
893.687	0.0134080
893.765	0.0133286
893.843	0.0133076
893.921	0.0131770
893.999	0.0131399
894.078	0.0134566
894.156	0.0134120
894.234	0.0135213
894.312	0.0134187
894.390	0.0131894
894.468	0.0132887
894.546	0.0133824
894.624	0.0131507
894.703	0.0132920
894.781	0.0134321
894.859	0.0131625
894.937	0.0131954
895.015	0.0133343
895.093	0.0133830
895.171	0.0132563
895.249	0.0133085
895.328	0.0131915
895.406	0.0132348
895.484	0.0131605
895.562	0.0132795
895.640	0.0133082
895.718	0.0132970
895.796	0.0131802
895.874	0.0131754
895.953	0.0132380
896.031	0.0130833
896.109	0.0131803
896.187	0.0133305
896.265	0.0131261
896.343	0.0131775
896.421	0.0131260
896.499	0.0132825
896.578	0.0133092
896.656	0.0134049
896.734	0.0133432
896.812	0.0134210
896.890	0.0134283
896.968	0.0133479
897.046	0.0133675
897.124	0.0134464
897.203	0.0134252
897.281	0.0134850
897.359	0.0132526
897.437	0.0133968
897.515	0.0135348
897.593	0.0134974
897.671	0.0133969
897.749	0.0134551
897.828	0.0135979
897.906	0.0134521
897.984	0.0135255
898.062	0.0136037
898.140	0.0136812
898.218	0.0135805
898.296	0.0135370
898.374	0.0135809
898.453	0.0136374
898.531	0.0135587
898.609	0.0136320
898.687	0.0136477
898.765	0.0134978
898.843	0.0134531
898.921	0.0134718
898.999	0.0134367
899.078	0.0134538
899.156	0.0135856
899.234	0.0134201
899.312	0.0135366
899.390	0.0134320
899.468	0.0134767
899.546	0.0132253
899.624	0.0134394
899.703	0.0134296
899.781	0.0133368
899.859	0.0132713
899.937	0.0132787
900.015	0.0132951
900.093	0.0133735
900.171	0.0134286
900.249	0.0133778
900.328	0.0132658
900.406	0.0131770
900.484	0.0131372
900.562	0.0131802
900.640	0.0131143
900.718	0.0130525
900.796	0.0130758
900.874	0.0132069
900.953	0.0130987
901.031	0.0132026
901.109	0.0131582
901.187	0.0131380
901.265	0.0130868
901.343	0.0131309
901.421	0.0130719
901.499	0.0131357
901.578	0.0131967
901.656	0.0131846
901.734	0.0132013
901.812	0.0131554
901.890	0.0131731
901.968	0.0131676
902.046	0.0131003
902.124	0.0132774
902.203	0.0131046
902.281	0.0132003
902.359	0.0133148
902.437	0.0132602
902.515	0.0132607
902.593	0.0133320
902.671	0.0132845
902.749	0.0134790
902.828	0.0133275
902.906	0.0132821
902.984	0.0134508
903.062	0.0134306
903.140	0.0134047
903.218	0.0132751
903.296	0.0135396
903.374	0.0134407
903.453	0.0133198
903.531	0.0134457
903.609	0.0134820
903.687	0.0133648
903.765	0.0134348
903.843	0.0133363
903.921	0.0133678
903.999	0.0133412
904.078	0.0134074
904.156	0.0133598
904.234	0.0134324
904.312	0.0134674
904.390	0.0133696
904.468	0.0133608
904.546	0.0131964
904.624	0.0131979
904.703	0.0133668
904.781	0.0132999
904.859	0.0133658
904.937	0.0133172
905.015	0.0134196
905.093	0.0133416
905.171	0.0133306
905.249	0.0134853
905.328	0.0134225
905.406	0.0134483
905.484	0.0135355
905.562	0.0134205
905.640	0.0133476
905.718	0.0134139
905.796	0.0135865
905.874	0.0135559
905.953	0.0134620
906.031	0.0134393
906.109	0.0136291
906.187	0.0136739
906.265	0.0136417
906.343	0.0136845
906.421	0.0136142
906.499	0.0136780
906.578	0.0136247
906.656	0.0136787
906.734	0.0137507
906.812	0.0137321
906.890	0.0136806
906.968	0.0135638
907.046	0.0137022
907.124	0.0136718
907.203	0.0137278
907.281	0.0137447
907.359	0.0136374
907.437	0.0135836
907.515	0.0136954
907.593	0.0135485
907.671	0.0136134
907.749	0.0134988
907.828	0.0135661
907.906	0.0136511
907.984	0.0135983
908.062	0.0134682
908.140	0.0135890
908.218	0.0134833
908.296	0.0134833
908.374	0.0134527
908.453	0.0133911
908.531	0.0135377
908.609	0.0134004
908.687	0.0134425
908.765	0.0134619
908.843	0.0135841
908.921	0.0135038
908.999	0.0136183
909.078	0.0135558
909.156	0.0134805
909.234	0.0136222
909.312	0.0135160
909.390	0.0134502
909.468	0.0135297
909.546	0.0135075
909.624	0.0135192
909.703	0.0135128
909.781	0.0135033
909.859	0.0135245
909.937	0.0135349
910.015	0.0135144
910.093	0.0134138
910.171	0.0135633
910.249	0.0135159
910.328	0.0135072
910.406	0.0134242
910.484	0.0133874
910.562	0.0135274
910.640	0.0133905
910.718	0.0134663
910.796	0.0134024
910.874	0.0134135
910.953	0.0134385
911.031	0.0134531
911.109	0.0134280
911.187	0.0133829
911.265	0.0134605
911.343	0.0133215
911.421	0.0133016
911.499	0.0133434
911.578	0.0133250
911.656	0.0133314
911.734	0.0133154
911.812	0.0131647
911.890	0.0133791
911.968	0.0131184
912.046	0.0131718
912.124	0.0133129
912.203	0.0133213
912.281	0.0133117
912.359	0.0132650
912.437	0.0132973
912.515	0.0132746
912.593	0.0131796
912.671	0.0131723
912.749	0.0132351
912.828	0.0133511
912.906	0.0132655
912.984	0.0133304
913.062	0.0132997
913.140	0.0133223
913.218	0.0133273
913.296	0.0135598
913.374	0.0133665
913.453	0.0133627
913.531	0.0135271
913.609	0.0134267
913.687	0.0133100
913.765	0.0134189
913.843	0.0133588
913.921	0.0134377
913.999	0.0133159
914.078	0.0131937
914.156	0.0133686
914.234	0.0133292
914.312	0.0134655
914.390	0.0134162
914.468	0.0133648
914.546	0.0132940
914.624	0.0133419
914.703	0.0133574
914.781	0.0134650
914.859	0.0134021
914.937	0.0133814
915.015	0.0135827
915.093	0.0135465
915.171	0.0134946
915.249	0.0134907
915.328	0.0135383
915.406	0.0134760
915.484	0.0134992
915.562	0.0135275
915.640	0.0134814
915.718	0.0134843
915.796	0.0135068
915.874	0.0134601
915.953	0.0133810
916.031	0.0134943
916.109	0.0134621
916.187	0.0134761
916.265	0.0134998
916.343	0.0133382
916.421	0.0134560
916.499	0.0134481
916.578	0.0133649
916.656	0.0133978
916.734	0.0134368
916.812	0.0134003
916.890	0.0134161
916.968	0.0134628
917.046	0.0133419
917.124	0.0134237
917.203	0.0133976
917.281	0.0134002
917.359	0.0134985
917.437	0.0133838
917.515	0.0135031
917.593	0.0134428
917.671	0.0135594
917.749	0.0134966
917.828	0.0135760
917.906	0.0134674
917.984	0.0134552
918.062	0.0134975
918.140	0.0135470
918.218	0.0135181
918.296	0.0136521
918.374	0.0135801
918.453	0.0134386
918.531	0.0135120
918.609	0.0134592
918.687	0.0134921
918.765	0.0135398
918.843	0.0134219
918.921	0.0133233
918.999	0.0135175
919.078	0.0133800
919.156	0.0134440
919.234	0.0133217
919.312	0.0133579
919.390	0.0133450
919.468	0.0133205
919.546	0.0134113
919.624	0.0133866
919.703	0.0132579
919.781	0.0132593
919.859	0.0133518
919.937	0.0133524
