05/08/2022	20:24:32	Ver.	4.1	UNKNOWN
Optical Delay	600.015094	Delta X		0.078125	Sweeps	1	Scan Rate	0/0
Coordinates	Axis 1	NaN	Axis 2	NaN	Axis 3	NaN	Axis 4	NaN	Axis 5	NaN	Axis 6	0.000000
TX Power	0.000000	RX Power	0.000000

600.015	0.0134596
600.093	0.0134077
600.171	0.0135612
600.249	0.0134047
600.328	0.0134167
600.406	0.0136155
600.484	0.0134476
600.562	0.0135271
600.640	0.0134710
600.718	0.0134409
600.796	0.0134814
600.874	0.0135048
600.953	0.0135515
601.031	0.0134876
601.109	0.0134367
601.187	0.0133646
601.265	0.0133243
601.343	0.0135074
601.421	0.0135394
601.499	0.0133713
601.578	0.0135454
601.656	0.0136062
601.734	0.0135213
601.812	0.0135390
601.890	0.0135909
601.968	0.0135352
602.046	0.0135611
602.124	0.0134490
602.203	0.0135049
602.281	0.0135920
602.359	0.0135175
602.437	0.0136289
602.515	0.0136425
602.593	0.0134949
602.671	0.0135892
602.749	0.0134653
602.828	0.0135650
602.906	0.0135706
602.984	0.0135590
603.062	0.0136256
603.140	0.0135452
603.218	0.0136131
603.296	0.0134441
603.374	0.0135537
603.453	0.0136629
603.531	0.0134312
603.609	0.0135688
603.687	0.0135976
603.765	0.0135059
603.843	0.0135341
603.921	0.0134280
603.999	0.0135229
604.078	0.0134609
604.156	0.0134736
604.234	0.0135327
604.312	0.0135687
604.390	0.0134215
604.468	0.0134512
604.546	0.0133960
604.624	0.0134612
604.703	0.0133446
604.781	0.0135703
604.859	0.0135882
604.937	0.0133712
605.015	0.0134451
605.093	0.0133938
605.171	0.0133427
605.249	0.0134695
605.328	0.0133949
605.406	0.0134867
605.484	0.0133335
605.562	0.0135021
605.640	0.0136249
605.718	0.0135460
605.796	0.0134988
605.874	0.0134713
605.953	0.0135158
606.031	0.0134108
606.109	0.0136011
606.187	0.0135916
606.265	0.0134856
606.343	0.0135735
606.421	0.0134520
606.499	0.0135937
606.578	0.0135592
606.656	0.0134386
606.734	0.0135264
606.812	0.0135126
606.890	0.0133882
606.968	0.0134311
607.046	0.0133312
607.124	0.0134860
607.203	0.0135525
607.281	0.0134160
607.359	0.0133868
607.437	0.0135165
607.515	0.0134753
607.593	0.0132954
607.671	0.0134704
607.749	0.0134938
607.828	0.0134152
607.906	0.0133575
607.984	0.0133701
608.062	0.0133167
608.140	0.0134637
608.218	0.0132333
608.296	0.0132838
608.374	0.0133488
608.453	0.0132021
608.531	0.0132475
608.609	0.0135246
608.687	0.0132840
608.765	0.0132362
608.843	0.0132243
608.921	0.0134007
608.999	0.0134757
609.078	0.0134712
609.156	0.0133765
609.234	0.0134380
609.312	0.0133920
609.390	0.0132851
609.468	0.0133949
609.546	0.0133282
609.624	0.0135682
609.703	0.0134023
609.781	0.0134954
609.859	0.0135845
609.937	0.0133629
610.015	0.0132336
610.093	0.0133149
610.171	0.0136025
610.249	0.0135385
610.328	0.0134828
610.406	0.0134270
610.484	0.0134283
610.562	0.0134066
610.640	0.0134321
610.718	0.0134283
610.796	0.0134782
610.874	0.0134171
610.953	0.0135242
611.031	0.0134886
611.109	0.0134792
611.187	0.0135590
611.265	0.0134883
611.343	0.0134107
611.421	0.0134887
611.499	0.0135922
611.578	0.0134927
611.656	0.0135232
611.734	0.0134199
611.812	0.0135901
611.890	0.0133919
611.968	0.0135689
612.046	0.0134680
612.124	0.0134695
612.203	0.0134179
612.281	0.0135291
612.359	0.0135940
612.437	0.0135641
612.515	0.0135689
612.593	0.0135789
612.671	0.0133924
612.749	0.0135384
612.828	0.0136234
612.906	0.0134982
612.984	0.0135471
613.062	0.0135563
613.140	0.0134761
613.218	0.0135881
613.296	0.0136562
613.374	0.0135728
613.453	0.0136552
613.531	0.0138024
613.609	0.0136087
613.687	0.0134523
613.765	0.0136687
613.843	0.0137013
613.921	0.0135709
613.999	0.0136308
614.078	0.0136098
614.156	0.0136257
614.234	0.0136923
614.312	0.0137476
614.390	0.0137126
614.468	0.0136274
614.546	0.0136845
614.624	0.0136894
614.703	0.0135059
614.781	0.0135698
614.859	0.0135937
614.937	0.0136199
615.015	0.0136874
615.093	0.0135869
615.171	0.0136519
615.249	0.0137540
615.328	0.0136445
615.406	0.0135912
615.484	0.0136369
615.562	0.0135925
615.640	0.0135995
615.718	0.0135666
615.796	0.0135818
615.874	0.0136572
615.953	0.0137151
616.031	0.0136323
616.109	0.0135822
616.187	0.0135479
616.265	0.0136938
616.343	0.0136909
616.421	0.0136483
616.499	0.0135190
616.578	0.0134695
616.656	0.0137264
616.734	0.0136774
616.812	0.0134834
616.890	0.0135485
616.968	0.0135725
617.046	0.0136116
617.124	0.0134453
617.203	0.0134820
617.281	0.0135214
617.359	0.0135134
617.437	0.0135122
617.515	0.0136073
617.593	0.0134615
617.671	0.0134169
617.749	0.0134033
617.828	0.0135458
617.906	0.0136909
617.984	0.0136115
618.062	0.0135072
618.140	0.0135005
618.218	0.0134643
618.296	0.0136156
618.374	0.0136077
618.453	0.0135102
618.531	0.0135464
618.609	0.0135974
618.687	0.0136259
618.765	0.0136755
618.843	0.0135394
618.921	0.0136098
618.999	0.0133916
619.078	0.0135143
619.156	0.0133930
619.234	0.0136243
619.312	0.0135889
619.390	0.0135868
619.468	0.0135129
619.546	0.0135078
619.624	0.0136050
619.703	0.0135533
619.781	0.0133949
619.859	0.0134882
619.937	0.0134904
620.015	0.0135879
620.093	0.0134158
620.171	0.0134789
620.249	0.0135519
620.328	0.0135308
620.406	0.0133730
620.484	0.0135917
620.562	0.0133783
620.640	0.0135788
620.718	0.0133673
620.796	0.0135146
620.874	0.0134717
620.953	0.0134728
621.031	0.0135083
621.109	0.0134660
621.187	0.0135713
621.265	0.0134888
621.343	0.0136951
621.421	0.0135809
621.499	0.0135259
621.578	0.0135847
621.656	0.0136270
621.734	0.0136195
621.812	0.0136745
621.890	0.0137347
621.968	0.0136916
622.046	0.0135513
622.124	0.0137495
622.203	0.0136178
622.281	0.0138137
622.359	0.0138018
622.437	0.0137603
622.515	0.0136745
622.593	0.0135661
622.671	0.0135700
622.749	0.0137297
622.828	0.0137284
622.906	0.0134260
622.984	0.0134822
623.062	0.0135007
623.140	0.0134397
623.218	0.0135680
623.296	0.0137011
623.374	0.0134927
623.453	0.0134393
623.531	0.0135005
623.609	0.0133765
623.687	0.0135120
623.765	0.0134746
623.843	0.0134051
623.921	0.0133765
623.999	0.0135710
624.078	0.0134451
624.156	0.0133745
624.234	0.0134253
624.312	0.0133388
624.390	0.0133046
624.468	0.0135165
624.546	0.0133685
624.624	0.0134097
624.703	0.0135093
624.781	0.0134373
624.859	0.0135126
624.937	0.0134362
625.015	0.0134941
625.093	0.0134571
625.171	0.0134841
625.249	0.0134328
625.328	0.0134780
625.406	0.0136575
625.484	0.0135527
625.562	0.0134904
625.640	0.0135887
625.718	0.0134811
625.796	0.0135753
625.874	0.0135038
625.953	0.0134566
626.031	0.0133909
626.109	0.0134980
626.187	0.0134257
626.265	0.0133675
626.343	0.0134502
626.421	0.0135164
626.499	0.0135159
626.578	0.0134988
626.656	0.0136136
626.734	0.0134521
626.812	0.0133789
626.890	0.0133534
626.968	0.0133909
627.046	0.0132692
627.124	0.0134195
627.203	0.0134465
627.281	0.0134489
627.359	0.0133544
627.437	0.0133924
627.515	0.0134643
627.593	0.0134346
627.671	0.0133118
627.749	0.0133384
627.828	0.0132900
627.906	0.0133643
627.984	0.0134316
628.062	0.0134324
628.140	0.0132906
628.218	0.0134012
628.296	0.0134293
628.374	0.0133378
628.453	0.0133499
628.531	0.0131703
628.609	0.0133654
628.687	0.0133008
628.765	0.0132381
628.843	0.0133512
628.921	0.0134431
628.999	0.0133820
629.078	0.0134418
629.156	0.0134706
629.234	0.0134863
629.312	0.0132971
629.390	0.0133935
629.468	0.0133104
629.546	0.0134905
629.624	0.0134892
629.703	0.0132732
629.781	0.0133949
629.859	0.0135672
629.937	0.0133366
630.015	0.0132565
630.093	0.0134140
630.171	0.0134568
630.249	0.0133395
630.328	0.0135242
630.406	0.0134358
630.484	0.0133694
630.562	0.0133852
630.640	0.0134365
630.718	0.0133006
630.796	0.0132599
630.874	0.0134692
630.953	0.0132512
631.031	0.0134418
631.109	0.0134138
631.187	0.0133106
631.265	0.0134290
631.343	0.0134604
631.421	0.0133714
631.499	0.0133969
631.578	0.0133591
631.656	0.0133170
631.734	0.0134290
631.812	0.0135094
631.890	0.0133815
631.968	0.0133466
632.046	0.0133077
632.124	0.0133736
632.203	0.0132460
632.281	0.0132587
632.359	0.0133347
632.437	0.0133013
632.515	0.0133587
632.593	0.0134283
632.671	0.0133218
632.749	0.0133141
632.828	0.0133371
632.906	0.0134547
632.984	0.0133251
633.062	0.0134012
633.140	0.0134687
633.218	0.0134976
633.296	0.0133324
633.374	0.0134176
633.453	0.0134856
633.531	0.0134922
633.609	0.0134331
633.687	0.0135336
633.765	0.0135162
633.843	0.0134534
633.921	0.0134363
633.999	0.0134011
634.078	0.0132948
634.156	0.0133858
634.234	0.0134725
634.312	0.0133824
634.390	0.0134973
634.468	0.0134850
634.546	0.0135078
634.624	0.0133820
634.703	0.0135719
634.781	0.0134761
634.859	0.0135857
634.937	0.0134531
635.015	0.0134570
635.093	0.0135587
635.171	0.0136103
635.249	0.0136617
635.328	0.0137223
635.406	0.0135696
635.484	0.0136523
635.562	0.0137154
635.640	0.0137708
635.718	0.0135238
635.796	0.0137706
635.874	0.0137835
635.953	0.0135704
636.031	0.0136555
636.109	0.0137624
636.187	0.0136239
636.265	0.0136615
636.343	0.0137417
636.421	0.0136898
636.499	0.0137063
636.578	0.0136568
636.656	0.0136945
636.734	0.0136121
636.812	0.0134865
636.890	0.0136294
636.968	0.0136430
637.046	0.0134982
637.124	0.0135697
637.203	0.0136963
637.281	0.0136515
637.359	0.0135370
637.437	0.0136752
637.515	0.0135690
637.593	0.0135139
637.671	0.0134425
637.749	0.0136404
637.828	0.0137626
637.906	0.0136559
637.984	0.0136183
638.062	0.0135935
638.140	0.0137314
638.218	0.0136977
638.296	0.0135835
638.374	0.0135898
638.453	0.0136665
638.531	0.0136031
638.609	0.0135595
638.687	0.0136192
638.765	0.0135588
638.843	0.0135451
638.921	0.0135186
638.999	0.0137401
639.078	0.0135207
639.156	0.0135516
639.234	0.0137724
639.312	0.0137013
639.390	0.0135471
639.468	0.0137668
639.546	0.0139050
639.624	0.0139111
639.703	0.0136488
639.781	0.0137571
639.859	0.0137421
639.937	0.0137730
640.015	0.0137122
640.093	0.0135960
640.171	0.0134078
640.249	0.0135374
640.328	0.0136784
640.406	0.0135120
640.484	0.0134991
640.562	0.0134444
640.640	0.0133780
640.718	0.0135068
640.796	0.0135246
640.874	0.0135029
640.953	0.0134573
641.031	0.0134957
641.109	0.0134048
641.187	0.0133421
641.265	0.0135072
641.343	0.0133461
641.421	0.0132716
641.499	0.0134894
641.578	0.0135083
641.656	0.0135223
641.734	0.0136530
641.812	0.0136986
641.890	0.0137123
641.968	0.0138374
642.046	0.0139292
642.124	0.0139756
642.203	0.0138886
642.281	0.0140292
642.359	0.0139779
642.437	0.0140308
642.515	0.0139117
642.593	0.0140266
642.671	0.0139313
642.749	0.0138428
642.828	0.0139359
642.906	0.0138721
642.984	0.0137389
643.062	0.0137863
643.140	0.0137909
643.218	0.0136938
643.296	0.0136063
643.374	0.0136160
643.453	0.0136139
643.531	0.0134728
643.609	0.0135074
643.687	0.0136928
643.765	0.0136152
643.843	0.0133765
643.921	0.0132863
643.999	0.0133190
644.078	0.0132156
644.156	0.0132334
644.234	0.0131526
644.312	0.0132275
644.390	0.0130426
644.468	0.0129562
644.546	0.0130788
644.624	0.0130997
644.703	0.0131257
644.781	0.0130550
644.859	0.0131322
644.937	0.0130044
645.015	0.0131723
645.093	0.0133356
645.171	0.0135257
645.249	0.0137161
645.328	0.0136430
645.406	0.0137057
645.484	0.0140811
645.562	0.0140996
645.640	0.0142373
645.718	0.0143478
645.796	0.0143635
645.874	0.0144026
645.953	0.0144908
646.031	0.0143713
646.109	0.0143961
646.187	0.0145049
646.265	0.0144265
646.343	0.0141897
646.421	0.0140372
646.499	0.0139207
646.578	0.0138603
646.656	0.0136600
646.734	0.0134216
646.812	0.0132603
646.890	0.0132239
646.968	0.0131767
647.046	0.0130104
647.124	0.0129237
647.203	0.0126913
647.281	0.0125910
647.359	0.0125605
647.437	0.0123779
647.515	0.0122804
647.593	0.0122150
647.671	0.0123603
647.749	0.0123718
647.828	0.0123529
647.906	0.0124702
647.984	0.0124405
648.062	0.0127234
648.140	0.0126654
648.218	0.0128100
648.296	0.0129730
648.374	0.0129989
648.453	0.0135249
648.531	0.0134149
648.609	0.0135706
648.687	0.0137317
648.765	0.0139696
648.843	0.0139839
648.921	0.0140841
648.999	0.0141608
649.078	0.0141809
649.156	0.0142897
649.234	0.0143647
649.312	0.0144076
649.390	0.0144597
649.468	0.0144175
649.546	0.0143481
649.624	0.0145395
649.703	0.0145488
649.781	0.0144861
649.859	0.0144182
649.937	0.0143699
650.015	0.0143951
650.093	0.0142427
650.171	0.0141422
650.249	0.0139828
650.328	0.0138689
650.406	0.0136709
650.484	0.0135881
650.562	0.0135316
650.640	0.0130783
650.718	0.0130576
650.796	0.0130175
650.874	0.0127443
650.953	0.0127592
651.031	0.0125179
651.109	0.0124097
651.187	0.0122623
651.265	0.0122551
651.343	0.0121314
651.421	0.0121985
651.499	0.0120142
651.578	0.0119927
651.656	0.0119827
651.734	0.0119943
651.812	0.0119233
651.890	0.0119818
651.968	0.0120956
652.046	0.0122741
652.124	0.0123701
652.203	0.0127356
652.281	0.0126171
652.359	0.0129996
652.437	0.0131613
652.515	0.0133332
652.593	0.0136732
652.671	0.0140086
652.749	0.0140773
652.828	0.0142564
652.906	0.0144810
652.984	0.0147536
653.062	0.0149555
653.140	0.0151367
653.218	0.0153283
653.296	0.0155975
653.374	0.0155705
653.453	0.0154759
653.531	0.0157990
653.609	0.0156079
653.687	0.0156986
653.765	0.0156218
653.843	0.0156380
653.921	0.0154025
653.999	0.0153212
654.078	0.0150655
654.156	0.0148064
654.234	0.0145556
654.312	0.0142606
654.390	0.0139707
654.468	0.0136941
654.546	0.0134616
654.624	0.0130669
654.703	0.0126727
654.781	0.0124112
654.859	0.0121876
654.937	0.0119881
655.015	0.0116582
655.093	0.0113021
655.171	0.0110943
655.249	0.0109825
655.328	0.0110522
655.406	0.0108533
655.484	0.0106590
655.562	0.0107545
655.640	0.0107701
655.718	0.0109483
655.796	0.0110625
655.874	0.0112368
655.953	0.0113769
656.031	0.0114802
656.109	0.0119074
656.187	0.0122006
656.265	0.0125241
656.343	0.0129809
656.421	0.0133501
656.499	0.0137627
656.578	0.0140556
656.656	0.0145435
656.734	0.0148403
656.812	0.0153441
656.890	0.0156039
656.968	0.0157388
657.046	0.0160020
657.124	0.0161326
657.203	0.0163628
657.281	0.0165116
657.359	0.0165639
657.437	0.0166831
657.515	0.0165672
657.593	0.0163062
657.671	0.0162604
657.749	0.0161958
657.828	0.0160224
657.906	0.0155930
657.984	0.0155858
658.062	0.0152073
658.140	0.0147742
658.218	0.0144771
658.296	0.0141568
658.374	0.0138184
658.453	0.0134679
658.531	0.0130815
658.609	0.0127037
658.687	0.0122619
658.765	0.0121936
658.843	0.0116686
658.921	0.0113778
658.999	0.0111539
659.078	0.0110660
659.156	0.0108226
659.234	0.0105971
659.312	0.0105887
659.390	0.0106456
659.468	0.0104640
659.546	0.0105854
659.624	0.0108492
659.703	0.0108881
659.781	0.0109756
659.859	0.0111347
659.937	0.0115932
660.015	0.0117565
660.093	0.0118212
660.171	0.0121499
660.249	0.0124309
660.328	0.0127113
660.406	0.0131210
660.484	0.0133624
660.562	0.0134897
660.640	0.0138832
660.718	0.0143289
660.796	0.0146025
660.874	0.0148243
660.953	0.0149144
661.031	0.0153031
661.109	0.0155245
661.187	0.0157059
661.265	0.0160343
661.343	0.0159944
661.421	0.0160345
661.499	0.0163876
661.578	0.0163701
661.656	0.0162875
661.734	0.0163349
661.812	0.0163046
661.890	0.0161739
661.968	0.0159502
662.046	0.0158668
662.124	0.0157523
662.203	0.0155111
662.281	0.0150320
662.359	0.0148104
662.437	0.0144108
662.515	0.0140501
662.593	0.0136731
662.671	0.0134827
662.749	0.0130647
662.828	0.0127084
662.906	0.0125294
662.984	0.0122251
663.062	0.0119577
663.140	0.0116351
663.218	0.0115056
663.296	0.0114325
663.374	0.0111102
663.453	0.0109121
663.531	0.0110899
663.609	0.0109590
663.687	0.0108576
663.765	0.0108883
663.843	0.0108109
663.921	0.0110234
663.999	0.0110480
664.078	0.0111722
664.156	0.0114967
664.234	0.0117694
664.312	0.0119088
664.390	0.0121800
664.468	0.0124756
664.546	0.0127109
664.624	0.0130238
664.703	0.0134444
664.781	0.0135633
664.859	0.0139712
664.937	0.0142394
665.015	0.0146560
665.093	0.0148772
665.171	0.0150124
665.249	0.0153483
665.328	0.0154977
665.406	0.0155441
665.484	0.0156737
665.562	0.0157575
665.640	0.0156564
665.718	0.0157056
665.796	0.0156579
665.874	0.0154224
665.953	0.0154253
666.031	0.0151257
666.109	0.0150565
666.187	0.0148934
666.265	0.0146524
666.343	0.0143252
666.421	0.0142892
666.499	0.0140495
666.578	0.0137031
666.656	0.0136492
666.734	0.0133600
666.812	0.0131506
666.890	0.0132580
666.968	0.0129521
667.046	0.0127869
667.124	0.0128799
667.203	0.0124994
667.281	0.0123997
667.359	0.0123251
667.437	0.0122125
667.515	0.0120477
667.593	0.0121378
667.671	0.0122218
667.749	0.0122755
667.828	0.0122012
667.906	0.0121918
667.984	0.0121999
668.062	0.0123025
668.140	0.0124914
668.218	0.0127286
668.296	0.0127077
668.374	0.0129424
668.453	0.0130646
668.531	0.0131302
668.609	0.0133622
668.687	0.0136401
668.765	0.0139351
668.843	0.0138445
668.921	0.0140520
668.999	0.0141084
669.078	0.0141909
669.156	0.0143520
669.234	0.0143559
669.312	0.0143345
669.390	0.0142722
669.468	0.0144781
669.546	0.0142854
669.624	0.0141689
669.703	0.0142114
669.781	0.0141164
669.859	0.0140849
669.937	0.0139972
670.015	0.0138757
670.093	0.0139476
670.171	0.0138820
670.249	0.0137550
670.328	0.0137677
670.406	0.0138313
670.484	0.0136597
670.562	0.0134498
670.640	0.0136587
670.718	0.0136736
670.796	0.0135500
670.874	0.0134393
670.953	0.0133775
671.031	0.0132429
671.109	0.0130765
671.187	0.0131036
671.265	0.0130644
671.343	0.0129953
671.421	0.0128016
671.499	0.0130837
671.578	0.0130681
671.656	0.0130882
671.734	0.0130564
671.812	0.0131016
671.890	0.0132732
671.968	0.0132075
672.046	0.0131432
672.124	0.0134751
672.203	0.0134853
672.281	0.0134595
672.359	0.0135874
672.437	0.0137466
672.515	0.0136282
672.593	0.0135828
672.671	0.0136153
672.749	0.0138687
672.828	0.0137019
672.906	0.0137892
672.984	0.0139305
673.062	0.0138693
673.140	0.0139226
673.218	0.0138988
673.296	0.0138166
673.374	0.0139904
673.453	0.0139268
673.531	0.0139481
673.609	0.0140179
673.687	0.0140371
673.765	0.0140781
673.843	0.0139554
673.921	0.0141803
673.999	0.0142652
674.078	0.0139846
674.156	0.0139498
674.234	0.0138888
674.312	0.0138649
674.390	0.0137249
674.468	0.0137962
674.546	0.0136679
674.624	0.0136893
674.703	0.0134639
674.781	0.0133723
674.859	0.0133810
674.937	0.0131767
675.015	0.0132243
675.093	0.0131388
675.171	0.0131383
675.249	0.0130210
675.328	0.0128532
675.406	0.0128207
675.484	0.0127880
675.562	0.0127188
675.640	0.0128342
675.718	0.0129168
675.796	0.0128513
675.874	0.0129231
675.953	0.0129284
676.031	0.0129674
676.109	0.0130322
676.187	0.0131666
676.265	0.0132169
676.343	0.0132206
676.421	0.0132132
676.499	0.0134544
676.578	0.0133271
676.656	0.0133311
676.734	0.0134057
676.812	0.0134290
676.890	0.0134929
676.968	0.0136835
677.046	0.0137234
677.124	0.0136414
677.203	0.0139838
677.281	0.0139999
677.359	0.0137968
677.437	0.0140019
677.515	0.0140923
677.593	0.0141080
677.671	0.0141235
677.749	0.0141016
677.828	0.0141257
677.906	0.0141305
677.984	0.0141196
678.062	0.0143751
678.140	0.0142397
678.218	0.0143060
678.296	0.0141081
678.374	0.0142816
678.453	0.0142620
678.531	0.0144907
678.609	0.0144153
678.687	0.0141951
678.765	0.0142953
678.843	0.0141458
678.921	0.0140633
678.999	0.0140926
679.078	0.0141324
679.156	0.0140257
679.234	0.0140351
679.312	0.0139001
679.390	0.0138502
679.468	0.0138242
679.546	0.0136793
679.624	0.0136216
679.703	0.0135143
679.781	0.0134732
679.859	0.0135085
679.937	0.0133328
680.015	0.0131022
680.093	0.0132103
680.171	0.0132797
680.249	0.0131458
680.328	0.0131585
680.406	0.0130773
680.484	0.0130040
680.562	0.0128833
680.640	0.0128691
680.718	0.0129176
680.796	0.0128413
680.874	0.0128107
680.953	0.0128069
681.031	0.0127251
681.109	0.0127024
681.187	0.0127506
681.265	0.0126688
681.343	0.0125627
681.421	0.0126551
681.499	0.0125600
681.578	0.0124745
681.656	0.0126826
681.734	0.0127190
681.812	0.0128217
681.890	0.0128179
681.968	0.0129153
682.046	0.0129111
682.124	0.0132394
682.203	0.0132802
682.281	0.0132835
682.359	0.0134510
682.437	0.0135925
682.515	0.0136395
682.593	0.0138859
682.671	0.0138693
682.749	0.0140032
682.828	0.0141772
682.906	0.0143678
682.984	0.0143415
683.062	0.0144744
683.140	0.0145400
683.218	0.0146233
683.296	0.0145353
683.374	0.0144902
683.453	0.0144288
683.531	0.0145029
683.609	0.0145562
683.687	0.0144000
683.765	0.0143915
683.843	0.0143156
683.921	0.0141744
683.999	0.0138649
684.078	0.0139391
684.156	0.0139212
684.234	0.0136940
684.312	0.0135398
684.390	0.0134023
684.468	0.0133232
684.546	0.0133565
684.624	0.0132849
684.703	0.0133257
684.781	0.0130923
684.859	0.0129939
684.937	0.0130883
685.015	0.0130386
685.093	0.0131794
685.171	0.0130695
685.249	0.0130111
685.328	0.0130199
685.406	0.0131808
685.484	0.0130619
685.562	0.0129964
685.640	0.0130887
685.718	0.0132527
685.796	0.0131228
685.874	0.0130893
685.953	0.0130875
686.031	0.0133469
686.109	0.0132308
686.187	0.0131017
686.265	0.0132628
686.343	0.0133058
686.421	0.0133022
686.499	0.0132487
686.578	0.0132917
686.656	0.0131994
686.734	0.0132294
686.812	0.0131328
686.890	0.0129616
686.968	0.0129842
687.046	0.0131084
687.124	0.0128957
687.203	0.0128703
687.281	0.0130379
687.359	0.0130843
687.437	0.0129266
687.515	0.0129138
687.593	0.0128642
687.671	0.0128499
687.749	0.0129801
687.828	0.0128808
687.906	0.0128034
687.984	0.0129207
688.062	0.0131244
688.140	0.0131425
688.218	0.0131695
688.296	0.0133086
688.374	0.0135781
688.453	0.0134914
688.531	0.0137688
688.609	0.0139221
688.687	0.0140152
688.765	0.0141044
688.843	0.0141884
688.921	0.0142937
688.999	0.0144255
689.078	0.0145547
689.156	0.0146148
689.234	0.0146441
689.312	0.0146140
689.390	0.0147816
689.468	0.0148355
689.546	0.0145600
689.624	0.0145872
689.703	0.0145898
689.781	0.0145793
689.859	0.0144410
689.937	0.0143953
690.015	0.0142591
690.093	0.0140289
690.171	0.0138320
690.249	0.0139874
690.328	0.0137767
690.406	0.0136610
690.484	0.0134460
690.562	0.0134230
690.640	0.0131528
690.718	0.0132167
690.796	0.0130066
690.874	0.0128858
690.953	0.0127744
691.031	0.0126151
691.109	0.0124633
691.187	0.0124261
691.265	0.0121781
691.343	0.0122387
691.421	0.0121897
691.499	0.0121028
691.578	0.0121727
691.656	0.0120857
691.734	0.0121761
691.812	0.0122804
691.890	0.0124055
691.968	0.0123618
692.046	0.0124409
692.124	0.0125233
692.203	0.0126671
692.281	0.0128053
692.359	0.0128857
692.437	0.0130739
692.515	0.0131193
692.593	0.0131546
692.671	0.0132308
692.749	0.0133300
692.828	0.0135459
692.906	0.0135528
692.984	0.0135308
693.062	0.0136791
693.140	0.0139123
693.218	0.0140331
693.296	0.0141737
693.374	0.0140186
693.453	0.0140933
693.531	0.0143519
693.609	0.0141424
693.687	0.0140234
693.765	0.0139553
693.843	0.0138593
693.921	0.0138866
693.999	0.0138530
694.078	0.0137641
694.156	0.0136884
694.234	0.0135011
694.312	0.0134434
694.390	0.0133492
694.468	0.0134335
694.546	0.0134523
694.624	0.0134663
694.703	0.0134270
694.781	0.0134447
694.859	0.0135101
694.937	0.0135664
695.015	0.0134325
695.093	0.0134893
695.171	0.0135950
695.249	0.0136304
695.328	0.0135670
695.406	0.0136392
695.484	0.0135738
695.562	0.0136517
695.640	0.0135428
695.718	0.0135736
695.796	0.0136307
695.874	0.0137372
695.953	0.0135143
696.031	0.0135271
696.109	0.0136046
696.187	0.0135713
696.265	0.0134737
696.343	0.0135777
696.421	0.0135840
696.499	0.0135950
696.578	0.0135679
696.656	0.0135967
696.734	0.0135426
696.812	0.0137519
696.890	0.0137040
696.968	0.0139616
697.046	0.0138153
697.124	0.0139006
697.203	0.0139375
697.281	0.0139267
697.359	0.0139984
697.437	0.0138219
697.515	0.0138455
697.593	0.0140483
697.671	0.0137432
697.749	0.0137706
697.828	0.0139384
697.906	0.0138703
697.984	0.0138142
698.062	0.0137954
698.140	0.0138615
698.218	0.0138329
698.296	0.0139628
698.374	0.0138862
698.453	0.0138562
698.531	0.0139798
698.609	0.0138297
698.687	0.0138915
698.765	0.0138796
698.843	0.0139444
698.921	0.0138098
698.999	0.0137109
699.078	0.0134671
699.156	0.0136125
699.234	0.0136063
699.312	0.0134155
699.390	0.0133817
699.468	0.0133671
699.546	0.0133220
699.624	0.0133133
699.703	0.0131860
699.781	0.0130804
699.859	0.0131496
699.937	0.0133006
700.015	0.0130626
700.093	0.0131677
700.171	0.0133812
700.249	0.0133150
700.328	0.0133394
700.406	0.0132272
700.484	0.0132033
700.562	0.0133548
700.640	0.0132791
700.718	0.0132804
700.796	0.0134978
700.874	0.0134427
700.953	0.0134794
701.031	0.0135275
701.109	0.0137326
701.187	0.0137138
701.265	0.0138905
701.343	0.0137417
701.421	0.0138284
701.499	0.0138647
701.578	0.0140162
701.656	0.0139515
701.734	0.0140312
701.812	0.0139960
701.890	0.0139925
701.968	0.0140037
702.046	0.0139196
702.124	0.0140437
702.203	0.0139967
702.281	0.0140246
702.359	0.0139320
702.437	0.0139618
702.515	0.0138583
702.593	0.0136789
702.671	0.0136569
702.749	0.0137724
702.828	0.0137948
702.906	0.0136965
702.984	0.0136095
703.062	0.0135914
703.140	0.0135024
703.218	0.0135380
703.296	0.0135413
703.374	0.0134370
703.453	0.0134432
703.531	0.0134138
703.609	0.0133866
703.687	0.0133947
703.765	0.0133446
703.843	0.0135338
703.921	0.0134525
703.999	0.0134937
704.078	0.0134541
704.156	0.0134769
704.234	0.0134373
704.312	0.0134892
704.390	0.0135375
704.468	0.0135716
704.546	0.0135792
704.624	0.0134843
704.703	0.0134322
704.781	0.0134638
704.859	0.0134607
704.937	0.0131942
705.015	0.0132906
705.093	0.0131977
705.171	0.0130239
705.249	0.0130389
705.328	0.0130400
705.406	0.0130439
705.484	0.0128768
705.562	0.0129292
705.640	0.0128474
705.718	0.0128690
705.796	0.0128902
705.874	0.0127910
705.953	0.0129067
706.031	0.0128741
706.109	0.0129326
706.187	0.0129845
706.265	0.0131561
706.343	0.0131013
706.421	0.0132075
706.499	0.0132147
706.578	0.0131921
706.656	0.0132405
706.734	0.0134109
706.812	0.0134675
706.890	0.0133228
706.968	0.0134820
707.046	0.0135554
707.124	0.0134698
707.203	0.0135793
707.281	0.0136884
707.359	0.0137263
707.437	0.0137431
707.515	0.0137720
707.593	0.0138763
707.671	0.0139147
707.749	0.0138487
707.828	0.0139854
707.906	0.0139783
707.984	0.0139622
708.062	0.0139597
708.140	0.0141346
708.218	0.0140550
708.296	0.0140402
708.374	0.0142275
708.453	0.0142425
708.531	0.0141795
708.609	0.0143053
708.687	0.0141494
708.765	0.0141851
708.843	0.0143315
708.921	0.0140703
708.999	0.0141612
709.078	0.0140985
709.156	0.0139980
709.234	0.0141197
709.312	0.0139523
709.390	0.0139819
709.468	0.0139096
709.546	0.0138768
709.624	0.0138947
709.703	0.0138356
709.781	0.0136929
709.859	0.0134816
709.937	0.0135471
710.015	0.0133836
710.093	0.0134951
710.171	0.0133366
710.249	0.0132763
710.328	0.0131449
710.406	0.0130671
710.484	0.0130112
710.562	0.0129956
710.640	0.0129656
710.718	0.0128138
710.796	0.0129276
710.874	0.0127792
710.953	0.0127695
711.031	0.0129324
711.109	0.0128545
711.187	0.0128999
711.265	0.0126821
711.343	0.0127847
711.421	0.0129058
711.499	0.0128300
711.578	0.0127921
711.656	0.0128026
711.734	0.0128619
711.812	0.0128994
711.890	0.0130361
711.968	0.0128813
712.046	0.0128442
712.124	0.0128826
712.203	0.0128736
712.281	0.0128255
712.359	0.0129965
712.437	0.0131374
712.515	0.0131833
712.593	0.0131002
712.671	0.0131010
712.749	0.0134687
712.828	0.0136182
712.906	0.0134409
712.984	0.0137266
713.062	0.0137836
713.140	0.0138604
713.218	0.0138358
713.296	0.0139247
713.374	0.0139709
713.453	0.0139098
713.531	0.0139236
713.609	0.0140408
713.687	0.0139527
713.765	0.0138913
713.843	0.0138244
713.921	0.0138103
713.999	0.0138400
714.078	0.0137963
714.156	0.0138060
714.234	0.0136655
714.312	0.0137624
714.390	0.0135204
714.468	0.0136048
714.546	0.0137492
714.624	0.0136897
714.703	0.0137477
714.781	0.0137932
714.859	0.0135935
714.937	0.0135265
715.015	0.0135998
715.093	0.0136549
715.171	0.0136645
715.249	0.0137365
715.328	0.0135127
715.406	0.0133775
715.484	0.0134196
715.562	0.0134620
715.640	0.0133636
715.718	0.0131907
715.796	0.0131820
715.874	0.0130992
715.953	0.0131436
716.031	0.0130654
716.109	0.0131017
716.187	0.0131449
716.265	0.0130467
716.343	0.0129939
716.421	0.0129136
716.499	0.0129469
716.578	0.0129998
716.656	0.0128552
716.734	0.0129337
716.812	0.0130346
716.890	0.0131702
716.968	0.0129436
717.046	0.0129697
717.124	0.0130855
717.203	0.0131287
717.281	0.0131306
717.359	0.0131286
717.437	0.0131562
717.515	0.0130971
717.593	0.0130897
717.671	0.0131498
717.749	0.0132604
717.828	0.0134491
717.906	0.0134608
717.984	0.0134778
718.062	0.0136893
718.140	0.0135781
718.218	0.0137422
718.296	0.0136893
718.374	0.0139325
718.453	0.0138475
718.531	0.0139262
718.609	0.0139874
718.687	0.0138041
718.765	0.0138293
718.843	0.0139159
718.921	0.0139640
718.999	0.0139153
719.078	0.0139487
719.156	0.0138401
719.234	0.0139727
719.312	0.0138239
719.390	0.0138773
719.468	0.0140022
719.546	0.0138257
719.624	0.0138077
719.703	0.0136969
719.781	0.0137836
719.859	0.0136942
719.937	0.0137108
720.015	0.0134639
720.093	0.0133650
720.171	0.0132996
720.249	0.0134107
720.328	0.0133993
720.406	0.0132169
720.484	0.0132771
720.562	0.0131638
720.640	0.0131385
720.718	0.0132794
720.796	0.0130392
720.874	0.0132265
720.953	0.0131567
721.031	0.0131821
721.109	0.0132895
721.187	0.0132116
721.265	0.0132571
721.343	0.0134274
721.421	0.0133052
721.499	0.0134318
721.578	0.0134307
721.656	0.0135346
721.734	0.0135038
721.812	0.0136125
721.890	0.0138070
721.968	0.0137045
722.046	0.0137305
722.124	0.0138366
722.203	0.0138397
722.281	0.0137959
722.359	0.0138476
722.437	0.0139331
722.515	0.0139108
722.593	0.0137705
722.671	0.0139927
722.749	0.0138481
722.828	0.0137952
722.906	0.0138300
722.984	0.0137160
723.062	0.0139549
723.140	0.0138976
723.218	0.0138040
723.296	0.0136748
723.374	0.0137750
723.453	0.0138190
723.531	0.0136625
723.609	0.0136628
723.687	0.0135557
723.765	0.0135053
723.843	0.0134737
723.921	0.0135040
723.999	0.0133160
724.078	0.0132206
724.156	0.0130750
724.234	0.0131355
724.312	0.0131514
724.390	0.0129436
724.468	0.0128928
724.546	0.0130205
724.624	0.0129861
724.703	0.0128387
724.781	0.0129749
724.859	0.0130428
724.937	0.0132218
725.015	0.0132858
725.093	0.0131297
725.171	0.0133198
725.249	0.0132493
725.328	0.0133565
725.406	0.0132742
725.484	0.0132016
725.562	0.0133050
725.640	0.0134666
725.718	0.0132371
725.796	0.0133733
725.874	0.0133502
725.953	0.0134904
726.031	0.0134335
726.109	0.0133734
726.187	0.0136427
726.265	0.0134724
726.343	0.0135246
726.421	0.0137512
726.499	0.0136785
726.578	0.0135433
726.656	0.0139227
726.734	0.0137447
726.812	0.0138202
726.890	0.0138139
726.968	0.0138586
727.046	0.0137678
727.124	0.0138348
727.203	0.0137225
727.281	0.0137837
727.359	0.0137791
727.437	0.0137544
727.515	0.0138352
727.593	0.0136286
727.671	0.0137364
727.749	0.0136284
727.828	0.0136624
727.906	0.0136024
727.984	0.0135578
728.062	0.0136523
728.140	0.0136071
728.218	0.0135427
728.296	0.0136383
728.374	0.0136270
728.453	0.0134447
728.531	0.0134914
728.609	0.0135121
728.687	0.0134389
728.765	0.0135382
728.843	0.0135520
728.921	0.0135431
728.999	0.0134950
729.078	0.0134173
729.156	0.0134970
729.234	0.0135644
729.312	0.0134431
729.390	0.0135534
729.468	0.0135109
729.546	0.0135590
729.624	0.0135779
729.703	0.0136324
729.781	0.0135633
729.859	0.0135154
729.937	0.0136421
730.015	0.0136466
730.093	0.0135949
730.171	0.0136386
730.249	0.0137139
730.328	0.0137611
730.406	0.0137829
730.484	0.0136282
730.562	0.0137431
730.640	0.0137550
730.718	0.0138206
730.796	0.0137796
730.874	0.0137241
730.953	0.0138036
731.031	0.0137657
731.109	0.0138415
731.187	0.0137545
731.265	0.0138772
731.343	0.0137154
731.421	0.0137580
731.499	0.0137518
731.578	0.0137621
731.656	0.0136957
731.734	0.0136649
731.812	0.0137859
731.890	0.0135781
731.968	0.0135397
732.046	0.0136120
732.124	0.0134935
732.203	0.0134723
732.281	0.0134485
732.359	0.0134514
732.437	0.0133759
732.515	0.0133391
732.593	0.0133936
732.671	0.0133783
732.749	0.0134202
732.828	0.0133241
732.906	0.0133739
732.984	0.0133067
733.062	0.0134448
733.140	0.0133973
733.218	0.0133179
733.296	0.0131693
733.374	0.0134160
733.453	0.0133204
733.531	0.0131921
733.609	0.0132997
733.687	0.0135217
733.765	0.0134349
733.843	0.0133292
733.921	0.0133998
733.999	0.0133418
734.078	0.0134466
734.156	0.0134554
734.234	0.0135556
734.312	0.0136043
734.390	0.0136190
734.468	0.0137264
734.546	0.0136367
734.624	0.0135793
734.703	0.0137718
734.781	0.0138732
734.859	0.0138685
734.937	0.0137762
735.015	0.0139192
735.093	0.0136916
735.171	0.0136875
735.249	0.0136850
735.328	0.0137643
735.406	0.0137215
735.484	0.0137975
735.562	0.0137020
735.640	0.0134979
735.718	0.0135677
735.796	0.0136345
735.874	0.0135545
735.953	0.0135503
736.031	0.0134885
736.109	0.0136056
736.187	0.0136335
736.265	0.0135475
736.343	0.0134665
736.421	0.0135120
736.499	0.0137631
736.578	0.0136044
736.656	0.0135799
736.734	0.0136163
736.812	0.0136763
736.890	0.0134789
736.968	0.0135405
737.046	0.0135558
737.124	0.0134113
737.203	0.0135196
737.281	0.0133917
737.359	0.0134545
737.437	0.0133757
737.515	0.0134463
737.593	0.0133176
737.671	0.0134418
737.749	0.0134734
737.828	0.0133687
737.906	0.0135001
737.984	0.0134694
738.062	0.0132286
738.140	0.0135723
738.218	0.0135545
738.296	0.0135288
738.374	0.0136203
738.453	0.0135864
738.531	0.0135531
738.609	0.0136246
738.687	0.0136684
738.765	0.0137003
738.843	0.0136667
738.921	0.0137598
738.999	0.0137497
739.078	0.0137688
739.156	0.0137844
739.234	0.0138152
739.312	0.0139777
739.390	0.0137982
739.468	0.0138725
739.546	0.0139365
739.624	0.0137890
739.703	0.0137827
739.781	0.0138950
739.859	0.0138879
739.937	0.0139097
740.015	0.0137550
740.093	0.0138165
740.171	0.0137492
740.249	0.0137570
740.328	0.0137399
740.406	0.0136183
740.484	0.0136504
740.562	0.0136024
740.640	0.0135606
740.718	0.0135358
740.796	0.0134536
740.874	0.0133595
740.953	0.0132507
741.031	0.0133252
741.109	0.0131357
741.187	0.0132007
741.265	0.0132574
741.343	0.0131757
741.421	0.0131274
741.499	0.0131496
741.578	0.0131466
741.656	0.0130861
741.734	0.0131287
741.812	0.0133260
741.890	0.0132040
741.968	0.0132185
742.046	0.0133640
742.124	0.0133442
742.203	0.0134754
742.281	0.0133454
742.359	0.0135291
742.437	0.0136551
742.515	0.0136919
742.593	0.0138058
742.671	0.0137243
742.749	0.0137665
742.828	0.0136308
742.906	0.0137568
742.984	0.0136760
743.062	0.0137460
743.140	0.0136753
743.218	0.0137634
743.296	0.0137617
743.374	0.0135574
743.453	0.0134838
743.531	0.0135257
743.609	0.0134222
743.687	0.0135145
743.765	0.0132419
743.843	0.0134094
743.921	0.0133432
743.999	0.0132039
744.078	0.0133121
744.156	0.0131581
744.234	0.0131266
744.312	0.0131357
744.390	0.0131417
744.468	0.0130125
744.546	0.0130151
744.624	0.0129825
744.703	0.0130148
744.781	0.0130356
744.859	0.0129702
744.937	0.0130111
745.015	0.0130653
745.093	0.0130690
745.171	0.0129932
745.249	0.0131080
745.328	0.0130700
745.406	0.0132747
745.484	0.0131954
745.562	0.0131410
745.640	0.0132658
745.718	0.0134540
745.796	0.0135078
745.874	0.0134788
745.953	0.0136924
746.031	0.0134995
746.109	0.0136008
746.187	0.0136681
746.265	0.0136816
746.343	0.0137754
746.421	0.0138741
746.499	0.0138133
746.578	0.0137332
746.656	0.0138640
746.734	0.0138956
746.812	0.0137521
746.890	0.0136958
746.968	0.0138023
747.046	0.0137110
747.124	0.0137234
747.203	0.0137678
747.281	0.0135618
747.359	0.0137237
747.437	0.0137288
747.515	0.0137130
747.593	0.0135070
747.671	0.0134267
747.749	0.0135184
747.828	0.0134964
747.906	0.0134645
747.984	0.0133578
748.062	0.0133411
748.140	0.0132424
748.218	0.0133526
748.296	0.0134586
748.374	0.0134897
748.453	0.0134472
748.531	0.0133573
748.609	0.0134619
748.687	0.0135275
748.765	0.0134596
748.843	0.0134919
748.921	0.0135480
748.999	0.0134446
749.078	0.0137379
749.156	0.0135647
749.234	0.0136526
749.312	0.0138380
749.390	0.0135262
749.468	0.0135962
749.546	0.0137907
749.624	0.0137139
749.703	0.0138115
749.781	0.0137534
749.859	0.0137711
749.937	0.0137328
750.015	0.0136551
750.093	0.0137488
750.171	0.0137257
750.249	0.0136645
750.328	0.0138007
750.406	0.0138134
750.484	0.0136568
750.562	0.0135898
750.640	0.0138263
750.718	0.0136491
750.796	0.0136681
750.874	0.0136853
750.953	0.0137740
751.031	0.0136594
751.109	0.0137717
751.187	0.0136703
751.265	0.0135464
751.343	0.0135886
751.421	0.0135021
751.499	0.0133718
751.578	0.0134663
751.656	0.0133222
751.734	0.0133427
751.812	0.0133182
751.890	0.0132615
751.968	0.0133850
752.046	0.0133481
752.124	0.0131612
752.203	0.0131248
752.281	0.0131758
752.359	0.0132105
752.437	0.0131837
752.515	0.0133614
752.593	0.0132497
752.671	0.0133336
752.749	0.0134319
752.828	0.0134274
752.906	0.0134492
752.984	0.0135243
753.062	0.0135054
753.140	0.0136247
753.218	0.0135701
753.296	0.0137922
753.374	0.0138039
753.453	0.0136695
753.531	0.0137515
753.609	0.0138963
753.687	0.0139996
753.765	0.0139311
753.843	0.0139134
753.921	0.0140945
753.999	0.0140607
754.078	0.0139597
754.156	0.0140043
754.234	0.0140894
754.312	0.0140867
754.390	0.0141467
754.468	0.0140231
754.546	0.0140006
754.624	0.0140636
754.703	0.0141164
754.781	0.0139012
754.859	0.0139400
754.937	0.0137678
755.015	0.0137962
755.093	0.0138668
755.171	0.0138791
755.249	0.0137458
755.328	0.0136744
755.406	0.0136835
755.484	0.0136444
755.562	0.0136278
755.640	0.0136121
755.718	0.0135596
755.796	0.0135365
755.874	0.0133897
755.953	0.0132993
756.031	0.0132305
756.109	0.0132920
756.187	0.0132995
756.265	0.0133055
756.343	0.0131416
756.421	0.0133283
756.499	0.0133756
756.578	0.0131870
756.656	0.0131853
756.734	0.0133196
756.812	0.0133065
756.890	0.0134287
756.968	0.0132072
757.046	0.0133746
757.124	0.0134478
757.203	0.0133998
757.281	0.0134879
757.359	0.0135269
757.437	0.0135461
757.515	0.0136140
757.593	0.0136655
757.671	0.0136032
757.749	0.0137309
757.828	0.0138074
757.906	0.0138838
757.984	0.0139699
758.062	0.0138773
758.140	0.0139554
758.218	0.0137733
758.296	0.0139059
758.374	0.0139706
758.453	0.0139467
758.531	0.0139191
758.609	0.0139185
758.687	0.0139291
758.765	0.0138379
758.843	0.0139143
758.921	0.0138400
758.999	0.0139427
759.078	0.0138427
759.156	0.0138448
759.234	0.0139205
759.312	0.0138561
759.390	0.0136317
759.468	0.0136376
759.546	0.0137592
759.624	0.0135182
759.703	0.0134023
759.781	0.0133642
759.859	0.0135000
759.937	0.0132815
760.015	0.0133234
760.093	0.0132679
760.171	0.0132967
760.249	0.0133223
760.328	0.0132924
760.406	0.0131232
760.484	0.0130544
760.562	0.0131223
760.640	0.0131013
760.718	0.0133315
760.796	0.0132633
760.874	0.0133335
760.953	0.0133220
761.031	0.0134171
761.109	0.0134113
761.187	0.0133658
761.265	0.0135355
761.343	0.0135368
761.421	0.0137044
761.499	0.0135651
761.578	0.0136810
761.656	0.0136311
761.734	0.0136510
761.812	0.0137229
761.890	0.0138240
761.968	0.0138650
762.046	0.0137426
762.124	0.0138966
762.203	0.0138490
762.281	0.0139809
762.359	0.0139616
762.437	0.0138992
762.515	0.0137763
762.593	0.0139455
762.671	0.0138083
762.749	0.0136801
762.828	0.0138596
762.906	0.0138064
762.984	0.0137071
763.062	0.0137325
763.140	0.0136594
763.218	0.0135789
763.296	0.0135460
763.374	0.0135983
763.453	0.0135468
763.531	0.0135242
763.609	0.0134665
763.687	0.0133507
763.765	0.0135361
763.843	0.0134312
763.921	0.0132722
763.999	0.0133010
764.078	0.0133215
764.156	0.0132851
764.234	0.0132718
764.312	0.0133299
764.390	0.0132334
764.468	0.0133205
764.546	0.0133817
764.624	0.0132816
764.703	0.0132488
764.781	0.0133238
764.859	0.0132399
764.937	0.0132027
765.015	0.0131939
765.093	0.0133974
765.171	0.0131782
765.249	0.0133056
765.328	0.0131715
765.406	0.0132552
765.484	0.0133186
765.562	0.0132065
765.640	0.0131962
765.718	0.0132990
765.796	0.0133225
765.874	0.0131918
765.953	0.0132179
766.031	0.0132848
766.109	0.0133263
766.187	0.0132520
766.265	0.0132761
766.343	0.0134602
766.421	0.0135197
766.499	0.0136342
766.578	0.0134233
766.656	0.0135760
766.734	0.0136900
766.812	0.0136071
766.890	0.0135738
766.968	0.0136095
767.046	0.0134837
767.124	0.0136333
767.203	0.0136429
767.281	0.0137310
767.359	0.0135669
767.437	0.0137399
767.515	0.0135696
767.593	0.0136703
767.671	0.0137331
767.749	0.0137031
767.828	0.0137190
767.906	0.0135723
767.984	0.0135487
768.062	0.0134946
768.140	0.0135729
768.218	0.0134142
768.296	0.0135602
768.374	0.0133760
768.453	0.0134486
768.531	0.0135188
768.609	0.0133917
768.687	0.0133208
768.765	0.0134292
768.843	0.0134787
768.921	0.0134489
768.999	0.0134370
769.078	0.0134695
769.156	0.0134484
769.234	0.0134917
769.312	0.0135535
769.390	0.0135709
769.468	0.0136000
769.546	0.0136027
769.624	0.0136337
769.703	0.0135352
769.781	0.0135933
769.859	0.0137199
769.937	0.0136459
770.015	0.0135576
770.093	0.0137190
770.171	0.0138623
770.249	0.0136613
770.328	0.0136945
770.406	0.0135919
770.484	0.0137083
770.562	0.0136629
770.640	0.0137371
770.718	0.0135172
770.796	0.0135635
770.874	0.0136603
770.953	0.0135313
771.031	0.0135078
771.109	0.0134465
771.187	0.0134471
771.265	0.0135432
771.343	0.0135607
771.421	0.0133689
771.499	0.0133807
771.578	0.0135179
771.656	0.0133968
771.734	0.0132831
771.812	0.0134861
771.890	0.0134282
771.968	0.0133691
772.046	0.0133867
772.124	0.0133171
772.203	0.0132955
772.281	0.0132188
772.359	0.0133920
772.437	0.0133807
772.515	0.0133315
772.593	0.0133850
772.671	0.0134574
772.749	0.0133865
772.828	0.0134422
772.906	0.0134534
772.984	0.0133683
773.062	0.0132301
773.140	0.0134237
773.218	0.0133808
773.296	0.0134328
773.374	0.0134911
773.453	0.0133677
773.531	0.0134761
773.609	0.0134834
773.687	0.0135532
773.765	0.0135970
773.843	0.0136506
773.921	0.0136106
773.999	0.0137609
774.078	0.0138060
774.156	0.0136089
774.234	0.0137635
774.312	0.0136948
774.390	0.0137955
774.468	0.0138197
774.546	0.0138276
774.624	0.0138457
774.703	0.0139632
774.781	0.0138986
774.859	0.0139088
774.937	0.0138364
775.015	0.0137462
775.093	0.0138481
775.171	0.0138012
775.249	0.0136600
775.328	0.0139494
775.406	0.0138276
775.484	0.0137430
775.562	0.0136942
775.640	0.0138496
775.718	0.0137530
775.796	0.0137665
775.874	0.0137141
775.953	0.0138256
776.031	0.0136570
776.109	0.0137458
776.187	0.0137611
776.265	0.0138404
776.343	0.0137019
776.421	0.0138174
776.499	0.0137480
776.578	0.0136816
776.656	0.0136493
776.734	0.0137451
776.812	0.0137975
776.890	0.0137437
776.968	0.0137086
777.046	0.0137732
777.124	0.0138863
777.203	0.0136845
777.281	0.0137153
777.359	0.0136800
777.437	0.0136783
777.515	0.0136594
777.593	0.0135711
777.671	0.0135636
777.749	0.0136143
777.828	0.0136278
777.906	0.0135332
777.984	0.0136407
778.062	0.0136236
778.140	0.0136016
778.218	0.0135520
778.296	0.0136092
778.374	0.0137118
778.453	0.0137466
778.531	0.0136874
778.609	0.0138734
778.687	0.0138377
778.765	0.0138068
778.843	0.0136925
778.921	0.0138270
778.999	0.0136241
779.078	0.0137263
779.156	0.0138367
779.234	0.0137613
779.312	0.0136118
779.390	0.0136356
779.468	0.0137443
779.546	0.0138776
779.624	0.0136755
779.703	0.0137079
779.781	0.0137212
779.859	0.0137613
779.937	0.0136487
780.015	0.0137312
780.093	0.0138001
780.171	0.0135935
780.249	0.0136855
780.328	0.0136736
780.406	0.0135567
780.484	0.0135093
780.562	0.0135682
780.640	0.0134915
780.718	0.0135971
780.796	0.0135388
780.874	0.0134403
780.953	0.0134467
781.031	0.0134342
781.109	0.0134509
781.187	0.0135007
781.265	0.0132555
781.343	0.0134037
781.421	0.0134632
781.499	0.0136006
781.578	0.0135893
781.656	0.0135250
781.734	0.0135142
781.812	0.0134639
781.890	0.0134668
781.968	0.0133308
782.046	0.0134477
782.124	0.0133494
782.203	0.0133757
782.281	0.0133405
782.359	0.0132653
782.437	0.0133453
782.515	0.0133630
782.593	0.0134277
782.671	0.0134435
782.749	0.0133696
782.828	0.0135052
782.906	0.0134574
782.984	0.0134117
783.062	0.0134490
783.140	0.0134454
783.218	0.0135690
783.296	0.0134801
783.374	0.0135165
783.453	0.0134144
783.531	0.0134120
783.609	0.0134491
783.687	0.0133892
783.765	0.0134441
783.843	0.0134213
783.921	0.0134737
783.999	0.0134354
784.078	0.0133597
784.156	0.0133427
784.234	0.0133588
784.312	0.0133942
784.390	0.0131640
784.468	0.0133077
784.546	0.0131809
784.624	0.0131918
784.703	0.0131990
784.781	0.0131146
784.859	0.0132743
784.937	0.0134084
785.015	0.0132810
785.093	0.0132500
785.171	0.0132901
785.249	0.0132996
785.328	0.0130984
785.406	0.0130891
785.484	0.0133095
785.562	0.0132640
785.640	0.0132960
785.718	0.0134363
785.796	0.0135004
785.874	0.0134612
785.953	0.0136719
786.031	0.0137239
786.109	0.0137708
786.187	0.0136512
786.265	0.0138033
786.343	0.0137382
786.421	0.0137854
786.499	0.0136514
786.578	0.0136160
786.656	0.0136524
786.734	0.0134361
786.812	0.0133891
786.890	0.0134638
786.968	0.0132753
787.046	0.0131898
787.124	0.0134139
787.203	0.0132800
787.281	0.0132259
787.359	0.0133305
787.437	0.0134059
787.515	0.0134885
787.593	0.0134773
787.671	0.0135605
787.749	0.0134299
787.828	0.0135592
787.906	0.0136422
787.984	0.0136543
788.062	0.0135335
788.140	0.0135606
788.218	0.0135655
788.296	0.0135782
788.374	0.0134867
788.453	0.0134708
788.531	0.0134834
788.609	0.0135763
788.687	0.0136447
788.765	0.0136185
788.843	0.0135533
788.921	0.0135263
788.999	0.0133202
789.078	0.0135403
789.156	0.0134936
789.234	0.0133807
789.312	0.0134167
789.390	0.0133078
789.468	0.0133539
789.546	0.0133817
789.624	0.0134508
789.703	0.0133430
789.781	0.0132983
789.859	0.0134225
789.937	0.0133675
790.015	0.0134944
790.093	0.0134863
790.171	0.0134912
790.249	0.0135464
790.328	0.0135825
790.406	0.0135970
790.484	0.0135342
790.562	0.0135733
790.640	0.0136094
790.718	0.0135455
790.796	0.0136217
790.874	0.0136033
790.953	0.0136292
791.031	0.0135376
791.109	0.0136118
791.187	0.0135618
791.265	0.0136453
791.343	0.0137040
791.421	0.0137528
791.499	0.0137925
791.578	0.0138582
791.656	0.0139214
791.734	0.0137877
791.812	0.0138322
791.890	0.0137952
791.968	0.0138619
792.046	0.0137411
792.124	0.0136847
792.203	0.0135957
792.281	0.0135834
792.359	0.0134803
792.437	0.0134830
792.515	0.0134402
792.593	0.0135551
792.671	0.0134129
792.749	0.0134431
792.828	0.0134245
792.906	0.0134152
792.984	0.0134114
793.062	0.0134853
793.140	0.0135217
793.218	0.0136214
793.296	0.0135793
793.374	0.0134687
793.453	0.0135361
793.531	0.0138448
793.609	0.0136208
793.687	0.0136043
793.765	0.0137101
793.843	0.0137234
793.921	0.0135980
793.999	0.0136948
794.078	0.0135999
794.156	0.0135496
794.234	0.0136156
794.312	0.0135596
794.390	0.0135519
794.468	0.0135313
794.546	0.0132749
794.624	0.0132803
794.703	0.0133631
794.781	0.0134238
794.859	0.0132648
794.937	0.0133492
795.015	0.0132742
795.093	0.0133080
795.171	0.0133728
795.249	0.0135992
795.328	0.0135735
795.406	0.0135141
795.484	0.0135895
795.562	0.0134852
795.640	0.0135279
795.718	0.0135843
795.796	0.0136787
795.874	0.0136144
795.953	0.0136874
796.031	0.0138181
796.109	0.0136867
796.187	0.0136027
796.265	0.0136864
796.343	0.0136203
796.421	0.0134569
796.499	0.0134817
796.578	0.0134931
796.656	0.0133928
796.734	0.0136791
796.812	0.0135591
796.890	0.0134923
796.968	0.0136003
797.046	0.0135782
797.124	0.0134405
797.203	0.0136062
797.281	0.0134980
797.359	0.0135675
797.437	0.0135063
797.515	0.0136157
797.593	0.0136285
797.671	0.0135213
797.749	0.0135703
797.828	0.0136504
797.906	0.0135968
797.984	0.0136295
798.062	0.0135990
798.140	0.0135013
798.218	0.0135292
798.296	0.0135923
798.374	0.0136515
798.453	0.0136328
798.531	0.0135400
798.609	0.0136127
798.687	0.0135135
798.765	0.0136034
798.843	0.0136201
798.921	0.0136275
798.999	0.0135266
799.078	0.0135905
799.156	0.0135269
799.234	0.0136938
799.312	0.0135007
799.390	0.0135838
799.468	0.0134361
799.546	0.0134209
799.624	0.0135910
799.703	0.0135297
799.781	0.0135236
799.859	0.0135662
799.937	0.0134457
800.015	0.0135124
800.093	0.0135903
800.171	0.0134457
800.249	0.0135587
800.328	0.0135549
800.406	0.0135126
800.484	0.0135961
800.562	0.0135691
800.640	0.0135861
800.718	0.0135777
800.796	0.0137161
800.874	0.0136682
800.953	0.0135825
801.031	0.0137280
801.109	0.0136546
801.187	0.0136226
801.265	0.0137435
801.343	0.0136782
801.421	0.0136438
801.499	0.0137325
801.578	0.0137373
801.656	0.0134611
801.734	0.0134964
801.812	0.0135445
801.890	0.0135616
801.968	0.0134988
802.046	0.0135854
802.124	0.0135538
802.203	0.0135962
802.281	0.0135601
802.359	0.0137109
802.437	0.0138273
802.515	0.0137064
802.593	0.0139245
802.671	0.0137029
802.749	0.0135789
802.828	0.0136632
802.906	0.0136224
802.984	0.0135559
803.062	0.0136177
803.140	0.0135622
803.218	0.0134958
803.296	0.0135404
803.374	0.0135884
803.453	0.0134312
803.531	0.0136554
803.609	0.0135556
803.687	0.0136300
803.765	0.0137269
803.843	0.0136047
803.921	0.0136947
803.999	0.0136851
804.078	0.0137105
804.156	0.0137769
804.234	0.0137639
804.312	0.0137628
804.390	0.0135818
804.468	0.0135700
804.546	0.0135014
804.624	0.0133807
804.703	0.0134119
804.781	0.0132921
804.859	0.0133556
804.937	0.0132557
805.015	0.0133826
805.093	0.0133189
805.171	0.0133793
805.249	0.0134469
805.328	0.0136396
805.406	0.0135658
805.484	0.0136777
805.562	0.0138172
805.640	0.0139039
805.718	0.0138517
805.796	0.0137869
805.874	0.0137556
805.953	0.0139016
806.031	0.0135595
806.109	0.0134455
806.187	0.0133755
806.265	0.0133556
806.343	0.0132441
806.421	0.0131788
806.499	0.0130466
806.578	0.0131333
806.656	0.0131977
806.734	0.0131793
806.812	0.0131955
806.890	0.0132799
806.968	0.0133502
807.046	0.0131409
807.124	0.0131170
807.203	0.0132439
807.281	0.0131490
807.359	0.0131790
807.437	0.0132639
807.515	0.0131760
807.593	0.0130440
807.671	0.0131347
807.749	0.0132888
807.828	0.0132265
807.906	0.0133331
807.984	0.0133656
808.062	0.0133959
808.140	0.0135118
808.218	0.0137241
808.296	0.0136479
808.374	0.0134023
808.453	0.0136404
808.531	0.0136560
808.609	0.0136460
808.687	0.0136659
808.765	0.0137007
808.843	0.0134783
808.921	0.0135954
808.999	0.0137035
809.078	0.0136697
809.156	0.0136214
809.234	0.0135738
809.312	0.0134899
809.390	0.0134088
809.468	0.0135250
809.546	0.0134113
809.624	0.0135825
809.703	0.0135192
809.781	0.0133600
809.859	0.0134096
809.937	0.0133784
810.015	0.0134272
810.093	0.0134616
810.171	0.0134216
810.249	0.0134334
810.328	0.0133488
810.406	0.0134610
810.484	0.0133736
810.562	0.0136549
810.640	0.0135352
810.718	0.0135475
810.796	0.0136188
810.874	0.0137138
810.953	0.0137991
811.031	0.0138268
811.109	0.0137858
811.187	0.0137393
811.265	0.0138447
811.343	0.0137893
811.421	0.0139008
811.499	0.0136346
811.578	0.0137087
811.656	0.0135186
811.734	0.0136562
811.812	0.0137331
811.890	0.0135570
811.968	0.0134405
812.046	0.0136273
812.124	0.0134879
812.203	0.0135452
812.281	0.0134428
812.359	0.0135516
812.437	0.0134941
812.515	0.0135834
812.593	0.0133590
812.671	0.0133296
812.749	0.0132646
812.828	0.0134014
812.906	0.0134612
812.984	0.0133434
813.062	0.0134466
813.140	0.0133239
813.218	0.0135027
813.296	0.0135777
813.374	0.0135395
813.453	0.0135835
813.531	0.0136022
813.609	0.0135930
813.687	0.0133640
813.765	0.0134207
813.843	0.0135354
813.921	0.0134985
813.999	0.0133423
814.078	0.0131998
814.156	0.0133372
814.234	0.0132365
814.312	0.0131940
814.390	0.0130432
814.468	0.0132578
814.546	0.0132159
814.624	0.0133575
814.703	0.0133720
814.781	0.0132925
814.859	0.0133406
814.937	0.0133230
815.015	0.0135903
815.093	0.0134003
815.171	0.0134066
815.249	0.0133664
815.328	0.0133245
815.406	0.0132527
815.484	0.0133392
815.562	0.0133012
815.640	0.0133306
815.718	0.0133793
815.796	0.0132156
815.874	0.0135182
815.953	0.0135069
816.031	0.0135113
816.109	0.0135213
816.187	0.0135501
816.265	0.0137109
816.343	0.0137489
816.421	0.0135896
816.499	0.0135666
816.578	0.0135798
816.656	0.0135451
816.734	0.0138412
816.812	0.0136163
816.890	0.0135521
816.968	0.0136573
817.046	0.0136265
817.124	0.0135254
817.203	0.0136909
817.281	0.0136037
817.359	0.0136586
817.437	0.0135629
817.515	0.0135497
817.593	0.0135797
817.671	0.0135265
817.749	0.0134704
817.828	0.0134943
817.906	0.0135006
817.984	0.0134229
818.062	0.0133577
818.140	0.0133222
818.218	0.0131942
818.296	0.0132661
818.374	0.0133273
818.453	0.0133693
818.531	0.0133326
818.609	0.0133154
818.687	0.0134412
818.765	0.0134511
818.843	0.0135592
818.921	0.0134562
818.999	0.0135663
819.078	0.0136133
819.156	0.0137196
819.234	0.0136092
819.312	0.0137500
819.390	0.0136228
819.468	0.0137988
819.546	0.0138319
819.624	0.0138181
819.703	0.0135620
819.781	0.0135527
819.859	0.0136262
819.937	0.0135903
820.015	0.0135930
820.093	0.0134061
820.171	0.0136201
820.249	0.0137164
820.328	0.0137664
820.406	0.0136806
820.484	0.0136897
820.562	0.0136855
820.640	0.0136493
820.718	0.0136557
820.796	0.0135022
820.874	0.0135336
820.953	0.0135278
821.031	0.0133877
821.109	0.0135119
821.187	0.0134617
821.265	0.0134212
821.343	0.0134424
821.421	0.0134054
821.499	0.0133997
821.578	0.0133687
821.656	0.0134323
821.734	0.0134512
821.812	0.0135020
821.890	0.0133213
821.968	0.0134154
822.046	0.0134483
822.124	0.0134468
822.203	0.0134109
822.281	0.0134434
822.359	0.0133896
822.437	0.0134289
822.515	0.0136526
822.593	0.0136346
822.671	0.0133330
822.749	0.0135091
822.828	0.0134817
822.906	0.0135184
822.984	0.0134594
823.062	0.0135342
823.140	0.0136522
823.218	0.0136742
823.296	0.0136114
823.374	0.0135239
823.453	0.0135049
823.531	0.0136610
823.609	0.0136489
823.687	0.0137630
823.765	0.0136115
823.843	0.0137789
823.921	0.0138318
823.999	0.0136609
824.078	0.0138284
824.156	0.0137142
824.234	0.0138185
824.312	0.0139000
824.390	0.0136860
824.468	0.0138535
824.546	0.0139926
824.624	0.0138367
824.703	0.0138948
824.781	0.0137860
824.859	0.0138789
824.937	0.0138998
825.015	0.0139239
825.093	0.0138592
825.171	0.0136038
825.249	0.0137653
825.328	0.0137412
825.406	0.0135190
825.484	0.0135459
825.562	0.0135305
825.640	0.0135072
825.718	0.0135441
825.796	0.0133318
825.874	0.0133904
825.953	0.0134443
826.031	0.0133550
826.109	0.0134298
826.187	0.0131822
826.265	0.0132423
826.343	0.0134270
826.421	0.0134039
826.499	0.0133571
826.578	0.0133968
826.656	0.0134653
826.734	0.0134696
826.812	0.0134550
826.890	0.0135799
826.968	0.0134931
827.046	0.0137503
827.124	0.0135796
827.203	0.0136154
827.281	0.0136671
827.359	0.0136372
827.437	0.0135886
827.515	0.0137264
827.593	0.0137128
827.671	0.0137886
827.749	0.0136427
827.828	0.0137025
827.906	0.0137652
827.984	0.0135887
828.062	0.0138514
828.140	0.0136958
828.218	0.0136636
828.296	0.0135867
828.374	0.0134196
828.453	0.0135188
828.531	0.0135287
828.609	0.0134912
828.687	0.0135861
828.765	0.0136761
828.843	0.0135619
828.921	0.0134824
828.999	0.0134362
829.078	0.0134141
829.156	0.0133721
829.234	0.0133022
829.312	0.0134612
829.390	0.0133829
829.468	0.0132444
829.546	0.0133373
829.624	0.0133190
829.703	0.0132891
829.781	0.0132859
829.859	0.0132832
829.937	0.0133482
830.015	0.0132488
830.093	0.0133011
830.171	0.0131448
830.249	0.0134225
830.328	0.0135249
830.406	0.0134060
830.484	0.0134989
830.562	0.0136347
830.640	0.0136275
830.718	0.0135406
830.796	0.0135387
830.874	0.0135773
830.953	0.0135966
831.031	0.0135889
831.109	0.0135537
831.187	0.0136472
831.265	0.0134760
831.343	0.0135487
831.421	0.0135232
831.499	0.0134472
831.578	0.0136441
831.656	0.0135912
831.734	0.0136881
831.812	0.0136863
831.890	0.0136364
831.968	0.0137410
832.046	0.0138088
832.124	0.0137781
832.203	0.0137836
832.281	0.0138032
832.359	0.0137873
832.437	0.0136311
832.515	0.0137572
832.593	0.0137782
832.671	0.0137325
832.749	0.0134737
832.828	0.0135830
832.906	0.0135549
832.984	0.0134355
833.062	0.0134750
833.140	0.0134626
833.218	0.0134557
833.296	0.0133447
833.374	0.0133433
833.453	0.0133392
833.531	0.0134525
833.609	0.0135004
833.687	0.0134264
833.765	0.0134247
833.843	0.0136708
833.921	0.0134965
833.999	0.0135381
834.078	0.0135231
834.156	0.0136107
834.234	0.0134099
834.312	0.0134695
834.390	0.0134833
834.468	0.0135373
834.546	0.0134338
834.624	0.0134737
834.703	0.0134267
834.781	0.0134176
834.859	0.0134290
834.937	0.0135320
835.015	0.0134531
835.093	0.0134566
835.171	0.0134420
835.249	0.0134261
835.328	0.0134354
835.406	0.0134098
835.484	0.0135692
835.562	0.0135530
835.640	0.0135189
835.718	0.0137222
835.796	0.0136380
835.874	0.0135498
835.953	0.0136774
836.031	0.0136092
836.109	0.0135224
836.187	0.0135713
836.265	0.0136080
836.343	0.0135825
836.421	0.0136105
836.499	0.0136913
836.578	0.0136137
836.656	0.0136132
836.734	0.0135740
836.812	0.0135957
836.890	0.0136241
836.968	0.0136378
837.046	0.0136063
837.124	0.0136246
837.203	0.0135783
837.281	0.0135386
837.359	0.0134985
837.437	0.0136320
837.515	0.0134827
837.593	0.0136285
837.671	0.0135394
837.749	0.0135349
837.828	0.0135177
837.906	0.0135481
837.984	0.0136089
838.062	0.0135461
838.140	0.0135036
838.218	0.0136926
838.296	0.0135699
838.374	0.0134044
838.453	0.0134045
838.531	0.0134919
838.609	0.0134928
838.687	0.0134801
838.765	0.0133674
838.843	0.0135148
838.921	0.0136072
838.999	0.0134019
839.078	0.0133356
839.156	0.0134049
839.234	0.0134277
839.312	0.0135009
839.390	0.0134422
839.468	0.0134463
839.546	0.0135184
839.624	0.0134715
839.703	0.0134342
839.781	0.0135745
839.859	0.0135725
839.937	0.0135120
840.015	0.0136611
840.093	0.0134492
840.171	0.0134177
840.249	0.0134504
840.328	0.0134100
840.406	0.0133663
840.484	0.0136127
840.562	0.0135812
840.640	0.0133305
840.718	0.0134547
840.796	0.0135497
840.874	0.0136604
840.953	0.0135946
841.031	0.0134671
841.109	0.0136500
841.187	0.0137019
841.265	0.0136401
841.343	0.0135352
841.421	0.0135046
841.499	0.0136028
841.578	0.0137221
841.656	0.0137759
841.734	0.0136024
841.812	0.0136058
841.890	0.0135722
841.968	0.0135883
842.046	0.0135815
842.124	0.0137144
842.203	0.0136019
842.281	0.0135551
842.359	0.0136089
842.437	0.0135207
842.515	0.0135074
842.593	0.0134637
842.671	0.0135368
842.749	0.0135647
842.828	0.0135052
842.906	0.0134557
842.984	0.0135287
843.062	0.0135260
843.140	0.0134483
843.218	0.0134998
843.296	0.0135000
843.374	0.0135631
843.453	0.0134750
843.531	0.0135047
843.609	0.0134571
843.687	0.0136068
843.765	0.0135090
843.843	0.0134408
843.921	0.0134158
843.999	0.0135334
844.078	0.0133813
844.156	0.0134479
844.234	0.0134451
844.312	0.0134293
844.390	0.0134859
844.468	0.0135094
844.546	0.0135074
844.624	0.0135609
844.703	0.0136246
844.781	0.0136378
844.859	0.0137331
844.937	0.0138020
845.015	0.0137093
845.093	0.0136615
845.171	0.0137833
845.249	0.0137779
845.328	0.0137544
845.406	0.0138245
845.484	0.0137862
845.562	0.0137438
845.640	0.0136872
845.718	0.0135461
845.796	0.0135660
845.874	0.0135517
845.953	0.0135049
846.031	0.0135802
846.109	0.0133934
846.187	0.0133794
846.265	0.0133758
846.343	0.0133136
846.421	0.0132030
846.499	0.0132256
846.578	0.0131718
846.656	0.0132454
846.734	0.0132957
846.812	0.0132661
846.890	0.0132470
846.968	0.0131209
847.046	0.0131472
847.124	0.0131618
847.203	0.0132338
847.281	0.0131544
847.359	0.0131422
847.437	0.0132525
847.515	0.0131439
847.593	0.0133071
847.671	0.0131933
847.749	0.0133052
847.828	0.0134126
847.906	0.0135460
847.984	0.0135601
848.062	0.0135502
848.140	0.0134768
848.218	0.0137579
848.296	0.0137752
848.374	0.0137606
848.453	0.0136856
848.531	0.0138299
848.609	0.0138325
848.687	0.0139232
848.765	0.0138569
848.843	0.0137714
848.921	0.0137592
848.999	0.0136762
849.078	0.0139450
849.156	0.0137309
849.234	0.0136983
849.312	0.0135559
849.390	0.0135574
849.468	0.0136447
849.546	0.0135233
849.624	0.0135790
849.703	0.0135480
849.781	0.0136657
849.859	0.0135853
849.937	0.0135744
850.015	0.0135393
850.093	0.0136146
850.171	0.0135939
850.249	0.0134724
850.328	0.0136822
850.406	0.0133915
850.484	0.0134870
850.562	0.0133798
850.640	0.0133247
850.718	0.0133643
850.796	0.0132919
850.874	0.0133135
850.953	0.0133524
851.031	0.0134538
851.109	0.0133610
851.187	0.0134032
851.265	0.0133740
851.343	0.0133532
851.421	0.0134212
851.499	0.0134084
851.578	0.0136333
851.656	0.0134507
851.734	0.0135117
851.812	0.0133940
851.890	0.0134351
851.968	0.0134052
852.046	0.0135291
852.124	0.0135225
852.203	0.0134142
852.281	0.0134252
852.359	0.0134866
852.437	0.0135586
852.515	0.0135574
852.593	0.0136391
852.671	0.0135485
852.749	0.0135555
852.828	0.0136467
852.906	0.0135558
852.984	0.0136303
853.062	0.0135856
853.140	0.0134742
853.218	0.0136519
853.296	0.0137086
853.374	0.0135486
853.453	0.0134840
853.531	0.0135095
853.609	0.0136621
853.687	0.0136736
853.765	0.0134698
853.843	0.0135613
853.921	0.0133835
853.999	0.0133521
854.078	0.0134647
854.156	0.0134386
854.234	0.0134013
854.312	0.0135742
854.390	0.0135230
854.468	0.0133189
854.546	0.0132817
854.624	0.0133547
854.703	0.0133389
854.781	0.0133311
854.859	0.0133511
854.937	0.0133974
855.015	0.0134276
855.093	0.0133318
855.171	0.0134286
855.249	0.0134334
855.328	0.0134835
855.406	0.0135398
855.484	0.0136975
855.562	0.0136937
855.640	0.0135767
855.718	0.0135648
855.796	0.0135786
855.874	0.0136812
855.953	0.0136172
856.031	0.0136575
856.109	0.0136855
856.187	0.0137930
856.265	0.0137483
856.343	0.0138586
856.421	0.0138031
856.499	0.0136433
856.578	0.0138618
856.656	0.0138332
856.734	0.0138784
856.812	0.0138036
856.890	0.0138095
856.968	0.0138114
857.046	0.0139243
857.124	0.0137736
857.203	0.0137840
857.281	0.0138326
857.359	0.0137115
857.437	0.0136600
857.515	0.0136164
857.593	0.0137211
857.671	0.0136035
857.749	0.0134804
857.828	0.0135146
857.906	0.0135760
857.984	0.0134428
858.062	0.0135399
858.140	0.0134425
858.218	0.0133801
858.296	0.0134850
858.374	0.0133035
858.453	0.0133800
858.531	0.0134749
858.609	0.0134624
858.687	0.0133733
858.765	0.0134203
858.843	0.0134073
858.921	0.0134061
858.999	0.0134619
859.078	0.0135097
859.156	0.0133543
859.234	0.0133089
859.312	0.0134442
859.390	0.0134208
859.468	0.0134229
859.546	0.0135578
859.624	0.0134830
859.703	0.0135893
859.781	0.0135715
859.859	0.0136588
859.937	0.0134022
860.015	0.0135081
860.093	0.0136375
860.171	0.0136035
860.249	0.0136886
860.328	0.0137972
860.406	0.0138409
860.484	0.0138126
860.562	0.0137109
860.640	0.0137350
860.718	0.0138335
860.796	0.0137724
860.874	0.0138373
860.953	0.0136351
861.031	0.0136102
861.109	0.0137873
861.187	0.0137400
861.265	0.0136779
861.343	0.0137266
861.421	0.0134817
861.499	0.0135930
861.578	0.0136650
861.656	0.0135873
861.734	0.0136899
861.812	0.0134725
861.890	0.0136623
861.968	0.0135823
862.046	0.0135699
862.124	0.0135443
862.203	0.0135609
862.281	0.0136170
862.359	0.0136742
862.437	0.0136825
862.515	0.0136163
862.593	0.0135360
862.671	0.0135381
862.749	0.0136340
862.828	0.0136787
862.906	0.0136559
862.984	0.0135477
863.062	0.0134064
863.140	0.0136959
863.218	0.0136465
863.296	0.0135997
863.374	0.0134810
863.453	0.0135456
863.531	0.0135100
863.609	0.0135082
863.687	0.0136220
863.765	0.0135566
863.843	0.0134905
863.921	0.0134647
863.999	0.0136577
864.078	0.0136441
864.156	0.0135107
864.234	0.0135547
864.312	0.0136396
864.390	0.0136677
864.468	0.0137301
864.546	0.0135995
864.624	0.0135910
864.703	0.0138415
864.781	0.0137768
864.859	0.0137560
864.937	0.0136504
865.015	0.0136449
865.093	0.0136439
865.171	0.0138065
865.249	0.0136716
865.328	0.0137801
865.406	0.0137653
865.484	0.0136288
865.562	0.0135867
865.640	0.0136954
865.718	0.0137495
865.796	0.0136009
865.874	0.0135383
865.953	0.0134901
866.031	0.0135903
866.109	0.0135699
866.187	0.0134433
866.265	0.0135353
866.343	0.0135052
866.421	0.0134296
866.499	0.0137202
866.578	0.0135069
866.656	0.0135136
866.734	0.0135958
866.812	0.0134609
866.890	0.0135925
866.968	0.0134408
867.046	0.0134371
867.124	0.0135970
867.203	0.0134265
867.281	0.0135531
867.359	0.0133893
867.437	0.0134308
867.515	0.0134471
867.593	0.0133752
867.671	0.0135146
867.749	0.0134349
867.828	0.0135490
867.906	0.0134650
867.984	0.0134796
868.062	0.0136035
868.140	0.0135744
868.218	0.0135786
868.296	0.0136147
868.374	0.0136047
868.453	0.0136463
868.531	0.0136859
868.609	0.0137310
868.687	0.0137793
868.765	0.0137444
868.843	0.0136936
868.921	0.0137650
868.999	0.0136510
869.078	0.0137585
869.156	0.0137295
869.234	0.0136814
869.312	0.0136237
869.390	0.0136733
869.468	0.0137004
869.546	0.0135274
869.624	0.0134402
869.703	0.0136311
869.781	0.0136313
869.859	0.0136183
869.937	0.0136600
870.015	0.0136479
870.093	0.0136476
870.171	0.0137208
870.249	0.0136367
870.328	0.0136682
870.406	0.0135578
870.484	0.0136575
870.562	0.0137815
870.640	0.0136356
870.718	0.0136876
870.796	0.0138274
870.874	0.0137534
870.953	0.0137329
871.031	0.0136940
871.109	0.0136065
871.187	0.0136874
871.265	0.0135716
871.343	0.0135478
871.421	0.0135463
871.499	0.0136099
871.578	0.0134817
871.656	0.0136110
871.734	0.0135685
871.812	0.0134172
871.890	0.0136354
871.968	0.0135134
872.046	0.0136079
872.124	0.0135233
872.203	0.0134435
872.281	0.0134356
872.359	0.0135495
872.437	0.0136359
872.515	0.0135614
872.593	0.0134506
872.671	0.0134308
872.749	0.0133936
872.828	0.0134621
872.906	0.0133820
872.984	0.0134028
873.062	0.0133432
873.140	0.0133590
873.218	0.0134339
873.296	0.0134015
873.374	0.0134274
873.453	0.0134113
873.531	0.0133581
873.609	0.0133566
873.687	0.0133578
873.765	0.0132549
873.843	0.0134039
873.921	0.0134464
873.999	0.0133830
874.078	0.0132782
874.156	0.0135029
874.234	0.0133513
874.312	0.0133386
874.390	0.0133887
874.468	0.0133809
874.546	0.0133652
874.624	0.0135229
874.703	0.0133685
874.781	0.0133608
874.859	0.0131895
874.937	0.0133564
875.015	0.0134052
875.093	0.0133661
875.171	0.0134141
875.249	0.0133906
875.328	0.0133248
875.406	0.0133887
875.484	0.0135100
875.562	0.0134287
875.640	0.0133148
875.718	0.0133176
875.796	0.0134442
875.874	0.0135202
875.953	0.0134275
876.031	0.0133996
876.109	0.0134486
876.187	0.0134668
876.265	0.0134009
876.343	0.0134161
876.421	0.0133987
876.499	0.0134065
876.578	0.0134313
876.656	0.0134911
876.734	0.0134792
876.812	0.0133794
876.890	0.0133942
876.968	0.0134113
877.046	0.0134973
877.124	0.0134851
877.203	0.0135229
877.281	0.0134904
877.359	0.0133582
877.437	0.0134921
877.515	0.0135487
877.593	0.0134955
877.671	0.0134425
877.749	0.0134372
877.828	0.0135179
877.906	0.0135155
877.984	0.0134458
878.062	0.0135362
878.140	0.0134384
878.218	0.0133910
878.296	0.0134621
878.374	0.0134062
878.453	0.0135300
878.531	0.0134050
878.609	0.0133979
878.687	0.0135868
878.765	0.0133525
878.843	0.0132657
878.921	0.0134214
878.999	0.0133408
879.078	0.0134959
879.156	0.0135023
879.234	0.0132294
879.312	0.0132534
879.390	0.0134283
879.468	0.0133817
879.546	0.0133811
879.624	0.0132905
879.703	0.0132603
879.781	0.0132659
879.859	0.0132637
879.937	0.0132795
880.015	0.0134410
880.093	0.0134029
880.171	0.0134074
880.249	0.0134358
880.328	0.0134329
880.406	0.0135187
880.484	0.0135116
880.562	0.0135510
880.640	0.0136083
880.718	0.0136558
880.796	0.0135296
880.874	0.0138504
880.953	0.0135961
881.031	0.0137458
881.109	0.0136729
881.187	0.0136989
881.265	0.0137928
881.343	0.0137880
881.421	0.0136338
881.499	0.0137988
881.578	0.0137805
881.656	0.0137339
881.734	0.0137315
881.812	0.0137412
881.890	0.0138735
881.968	0.0137790
882.046	0.0137035
882.124	0.0137482
882.203	0.0137718
882.281	0.0137454
882.359	0.0137663
882.437	0.0134895
882.515	0.0137479
882.593	0.0135899
882.671	0.0134628
882.749	0.0135712
882.828	0.0135146
882.906	0.0134271
882.984	0.0133696
883.062	0.0135513
883.140	0.0134624
883.218	0.0135586
883.296	0.0133906
883.374	0.0135244
883.453	0.0134557
883.531	0.0133128
883.609	0.0134323
883.687	0.0134725
883.765	0.0136539
883.843	0.0135525
883.921	0.0135002
883.999	0.0134172
884.078	0.0134837
884.156	0.0132986
884.234	0.0135133
884.312	0.0136130
884.390	0.0135925
884.468	0.0135566
884.546	0.0133935
884.624	0.0135945
884.703	0.0136054
884.781	0.0135460
884.859	0.0136526
884.937	0.0135845
885.015	0.0135857
885.093	0.0136300
885.171	0.0135807
885.249	0.0136504
885.328	0.0136480
885.406	0.0137756
885.484	0.0138075
885.562	0.0136883
885.640	0.0137577
885.718	0.0136659
885.796	0.0136104
885.874	0.0136466
885.953	0.0137410
886.031	0.0136015
886.109	0.0137885
886.187	0.0137888
886.265	0.0135966
886.343	0.0135844
886.421	0.0137178
886.499	0.0137547
886.578	0.0136269
886.656	0.0134697
886.734	0.0136127
886.812	0.0137154
886.890	0.0136061
886.968	0.0136062
887.046	0.0134694
887.124	0.0136094
887.203	0.0135483
887.281	0.0135423
887.359	0.0136076
887.437	0.0135224
887.515	0.0136130
887.593	0.0135642
887.671	0.0136037
887.749	0.0134769
887.828	0.0135681
887.906	0.0135889
887.984	0.0135861
888.062	0.0136243
888.140	0.0135704
888.218	0.0136274
888.296	0.0136850
888.374	0.0136309
888.453	0.0136307
888.531	0.0136280
888.609	0.0136464
888.687	0.0137286
888.765	0.0135411
888.843	0.0137717
888.921	0.0136361
888.999	0.0136668
889.078	0.0136658
889.156	0.0136416
889.234	0.0135667
889.312	0.0136227
889.390	0.0135372
889.468	0.0135946
889.546	0.0136380
889.624	0.0136170
889.703	0.0135588
889.781	0.0135019
889.859	0.0136343
889.937	0.0135693
890.015	0.0134946
890.093	0.0136205
890.171	0.0135412
890.249	0.0134656
890.328	0.0135630
890.406	0.0134364
890.484	0.0134755
890.562	0.0134752
890.640	0.0135992
890.718	0.0135430
890.796	0.0133865
890.874	0.0134721
890.953	0.0134562
891.031	0.0134771
891.109	0.0134821
891.187	0.0135692
891.265	0.0134192
891.343	0.0134705
891.421	0.0135915
891.499	0.0133418
891.578	0.0133858
891.656	0.0134629
891.734	0.0135272
891.812	0.0135422
891.890	0.0136370
891.968	0.0135507
892.046	0.0136051
892.124	0.0137070
892.203	0.0136434
892.281	0.0135121
892.359	0.0136216
892.437	0.0136927
892.515	0.0135434
892.593	0.0136072
892.671	0.0136844
892.749	0.0136887
892.828	0.0135132
892.906	0.0136247
892.984	0.0136472
893.062	0.0134989
893.140	0.0135435
893.218	0.0135467
893.296	0.0135870
893.374	0.0135703
893.453	0.0135270
893.531	0.0135383
893.609	0.0135280
893.687	0.0135513
893.765	0.0136622
893.843	0.0135679
893.921	0.0135271
893.999	0.0136801
894.078	0.0136199
894.156	0.0134756
894.234	0.0136507
894.312	0.0135690
894.390	0.0135503
894.468	0.0134372
894.546	0.0135326
894.624	0.0134641
894.703	0.0135941
894.781	0.0134108
894.859	0.0135667
894.937	0.0134422
895.015	0.0133722
895.093	0.0135178
895.171	0.0136108
895.249	0.0135089
895.328	0.0133955
895.406	0.0134628
895.484	0.0133471
895.562	0.0134370
895.640	0.0135128
895.718	0.0134126
895.796	0.0135378
895.874	0.0134641
895.953	0.0135022
896.031	0.0135552
896.109	0.0134930
896.187	0.0134856
896.265	0.0135600
896.343	0.0135377
896.421	0.0135892
896.499	0.0135083
896.578	0.0136259
896.656	0.0135072
896.734	0.0135143
896.812	0.0135797
896.890	0.0135639
896.968	0.0134660
897.046	0.0134958
897.124	0.0135704
897.203	0.0135732
897.281	0.0135053
897.359	0.0135100
897.437	0.0135091
897.515	0.0134290
897.593	0.0133372
897.671	0.0134791
897.749	0.0134532
897.828	0.0133790
897.906	0.0133990
897.984	0.0133781
898.062	0.0134729
898.140	0.0134445
898.218	0.0133603
898.296	0.0134169
898.374	0.0133718
898.453	0.0134053
898.531	0.0134011
898.609	0.0133404
898.687	0.0133934
898.765	0.0134338
898.843	0.0134523
898.921	0.0133359
898.999	0.0135062
899.078	0.0133015
899.156	0.0134228
899.234	0.0133997
899.312	0.0134266
899.390	0.0132247
899.468	0.0134086
899.546	0.0134260
899.624	0.0134945
899.703	0.0134981
899.781	0.0134430
899.859	0.0133653
899.937	0.0133723
900.015	0.0134866
900.093	0.0133344
900.171	0.0133569
900.249	0.0134142
900.328	0.0133813
900.406	0.0134647
900.484	0.0134622
900.562	0.0133789
900.640	0.0133507
900.718	0.0134635
900.796	0.0133580
900.874	0.0133852
900.953	0.0133411
901.031	0.0133241
901.109	0.0134164
901.187	0.0134992
901.265	0.0134048
901.343	0.0134236
901.421	0.0134248
901.499	0.0134210
901.578	0.0133081
901.656	0.0134527
901.734	0.0134362
901.812	0.0134483
901.890	0.0134382
901.968	0.0134716
902.046	0.0134266
902.124	0.0135387
902.203	0.0135795
902.281	0.0134620
902.359	0.0134101
902.437	0.0134721
902.515	0.0135487
902.593	0.0134869
902.671	0.0133337
902.749	0.0135516
902.828	0.0134718
902.906	0.0135530
902.984	0.0134605
903.062	0.0134245
903.140	0.0134160
903.218	0.0134848
903.296	0.0133335
903.374	0.0134478
903.453	0.0134550
903.531	0.0134209
903.609	0.0135036
903.687	0.0134624
903.765	0.0134581
903.843	0.0134653
903.921	0.0135585
903.999	0.0135124
904.078	0.0134320
904.156	0.0134198
904.234	0.0135329
904.312	0.0135332
904.390	0.0135328
904.468	0.0134775
904.546	0.0135041
904.624	0.0136726
904.703	0.0135264
904.781	0.0137222
904.859	0.0136579
904.937	0.0134800
905.015	0.0136441
905.093	0.0135516
905.171	0.0136508
905.249	0.0135076
905.328	0.0136364
905.406	0.0137134
905.484	0.0136279
905.562	0.0134845
905.640	0.0136061
905.718	0.0136926
905.796	0.0136434
905.874	0.0135377
905.953	0.0136881
906.031	0.0137265
906.109	0.0136482
906.187	0.0137802
906.265	0.0136284
906.343	0.0136951
906.421	0.0136397
906.499	0.0136960
906.578	0.0138105
906.656	0.0136872
906.734	0.0136704
906.812	0.0135886
906.890	0.0135857
906.968	0.0136242
907.046	0.0135773
907.124	0.0136156
907.203	0.0135133
907.281	0.0137289
907.359	0.0136536
907.437	0.0135487
907.515	0.0135014
907.593	0.0135260
907.671	0.0134357
907.749	0.0133969
907.828	0.0134145
907.906	0.0132907
907.984	0.0132779
908.062	0.0133508
908.140	0.0134458
908.218	0.0134240
908.296	0.0132570
908.374	0.0134713
908.453	0.0132793
908.531	0.0132807
908.609	0.0135130
908.687	0.0134741
908.765	0.0133706
908.843	0.0133954
908.921	0.0133788
908.999	0.0134647
909.078	0.0134961
909.156	0.0133466
909.234	0.0133562
909.312	0.0134580
909.390	0.0134034
909.468	0.0134885
909.546	0.0134369
909.624	0.0134605
909.703	0.0134897
909.781	0.0135138
909.859	0.0136575
909.937	0.0135485
910.015	0.0136712
910.093	0.0136777
910.171	0.0136468
910.249	0.0136385
910.328	0.0136180
910.406	0.0136548
910.484	0.0136343
910.562	0.0137453
910.640	0.0136513
910.718	0.0135985
910.796	0.0137237
910.874	0.0136321
910.953	0.0136029
911.031	0.0135663
911.109	0.0136451
911.187	0.0136012
911.265	0.0136035
911.343	0.0136078
911.421	0.0136547
911.499	0.0135082
911.578	0.0135479
911.656	0.0135981
911.734	0.0134970
911.812	0.0135635
911.890	0.0136106
911.968	0.0134875
912.046	0.0134180
912.124	0.0134512
912.203	0.0136406
912.281	0.0134880
912.359	0.0135294
912.437	0.0134636
912.515	0.0135123
912.593	0.0135638
912.671	0.0135009
912.749	0.0135832
912.828	0.0134292
912.906	0.0134171
912.984	0.0135078
913.062	0.0134029
913.140	0.0134583
913.218	0.0133896
913.296	0.0134496
913.374	0.0134992
913.453	0.0135701
913.531	0.0135067
913.609	0.0134171
913.687	0.0135966
913.765	0.0135297
913.843	0.0134917
913.921	0.0134467
913.999	0.0134842
914.078	0.0133987
914.156	0.0135296
914.234	0.0134597
914.312	0.0134773
914.390	0.0136089
914.468	0.0134534
914.546	0.0134772
914.624	0.0135112
914.703	0.0134220
914.781	0.0134535
914.859	0.0134753
914.937	0.0133932
915.015	0.0135254
915.093	0.0134766
915.171	0.0134414
915.249	0.0135781
915.328	0.0135192
915.406	0.0134975
915.484	0.0133997
915.562	0.0135430
915.640	0.0134733
915.718	0.0136134
915.796	0.0135324
915.874	0.0134538
915.953	0.0135562
916.031	0.0134466
916.109	0.0134562
916.187	0.0134875
916.265	0.0135233
916.343	0.0135602
916.421	0.0135221
916.499	0.0134664
916.578	0.0135693
916.656	0.0135771
916.734	0.0137102
916.812	0.0135800
916.890	0.0133960
916.968	0.0135451
917.046	0.0136092
917.124	0.0136430
917.203	0.0135700
917.281	0.0135994
917.359	0.0135947
917.437	0.0136674
917.515	0.0136239
917.593	0.0136409
917.671	0.0135033
917.749	0.0135792
917.828	0.0135506
917.906	0.0136192
917.984	0.0135949
918.062	0.0135647
918.140	0.0135747
918.218	0.0136841
918.296	0.0135120
918.374	0.0135252
918.453	0.0134566
918.531	0.0135729
918.609	0.0135498
918.687	0.0135297
918.765	0.0135300
918.843	0.0135619
918.921	0.0136494
918.999	0.0134574
919.078	0.0135464
919.156	0.0135364
919.234	0.0135008
919.312	0.0134301
919.390	0.0134824
919.468	0.0135534
919.546	0.0135137
919.624	0.0134391
919.703	0.0135514
919.781	0.0135107
919.859	0.0135178
919.937	0.0134537
