05/08/2022	20:25:07	Ver.	4.1	UNKNOWN
Optical Delay	600.015094	Delta X		0.078125	Sweeps	1	Scan Rate	0/0
Coordinates	Axis 1	NaN	Axis 2	NaN	Axis 3	NaN	Axis 4	NaN	Axis 5	NaN	Axis 6	0.000000
TX Power	0.000000	RX Power	0.000000

600.015	0.0135091
600.093	0.0133717
600.171	0.0134868
600.249	0.0133095
600.328	0.0135937
600.406	0.0134264
600.484	0.0135449
600.562	0.0136356
600.640	0.0134023
600.718	0.0134771
600.796	0.0136034
600.874	0.0136001
600.953	0.0135587
601.031	0.0135227
601.109	0.0135139
601.187	0.0135450
601.265	0.0135093
601.343	0.0134283
601.421	0.0134517
601.499	0.0134752
601.578	0.0134467
601.656	0.0134553
601.734	0.0133919
601.812	0.0134066
601.890	0.0133516
601.968	0.0133948
602.046	0.0132191
602.124	0.0133691
602.203	0.0135522
602.281	0.0134534
602.359	0.0133856
602.437	0.0131840
602.515	0.0133334
602.593	0.0134145
602.671	0.0134238
602.749	0.0133770
602.828	0.0133765
602.906	0.0133319
602.984	0.0133452
603.062	0.0133390
603.140	0.0134225
603.218	0.0132986
603.296	0.0133355
603.374	0.0134143
603.453	0.0133054
603.531	0.0133125
603.609	0.0134192
603.687	0.0133430
603.765	0.0134509
603.843	0.0134461
603.921	0.0135432
603.999	0.0134759
604.078	0.0133768
604.156	0.0133981
604.234	0.0135094
604.312	0.0133828
604.390	0.0133460
604.468	0.0133696
604.546	0.0134419
604.624	0.0134885
604.703	0.0134580
604.781	0.0133769
604.859	0.0134254
604.937	0.0134481
605.015	0.0135594
605.093	0.0133439
605.171	0.0135053
605.249	0.0135300
605.328	0.0135876
605.406	0.0135060
605.484	0.0135484
605.562	0.0134262
605.640	0.0134058
605.718	0.0136127
605.796	0.0135674
605.874	0.0134692
605.953	0.0135600
606.031	0.0136177
606.109	0.0136137
606.187	0.0136481
606.265	0.0135162
606.343	0.0136524
606.421	0.0136499
606.499	0.0136600
606.578	0.0135343
606.656	0.0135290
606.734	0.0136014
606.812	0.0135796
606.890	0.0134929
606.968	0.0135484
607.046	0.0136836
607.124	0.0136796
607.203	0.0135218
607.281	0.0135701
607.359	0.0135264
607.437	0.0137223
607.515	0.0136507
607.593	0.0134995
607.671	0.0136070
607.749	0.0136047
607.828	0.0136060
607.906	0.0135286
607.984	0.0136443
608.062	0.0136798
608.140	0.0135890
608.218	0.0136062
608.296	0.0136307
608.374	0.0136565
608.453	0.0136774
608.531	0.0136207
608.609	0.0135009
608.687	0.0136132
608.765	0.0135934
608.843	0.0136523
608.921	0.0135039
608.999	0.0135911
609.078	0.0135704
609.156	0.0135795
609.234	0.0135385
609.312	0.0136887
609.390	0.0136205
609.468	0.0135709
609.546	0.0136134
609.624	0.0137205
609.703	0.0136247
609.781	0.0136987
609.859	0.0136189
609.937	0.0135619
610.015	0.0135300
610.093	0.0136362
610.171	0.0135256
610.249	0.0134232
610.328	0.0136201
610.406	0.0134987
610.484	0.0135686
610.562	0.0135098
610.640	0.0135651
610.718	0.0135629
610.796	0.0136603
610.874	0.0134068
610.953	0.0134872
611.031	0.0135742
611.109	0.0135102
611.187	0.0135567
611.265	0.0134684
611.343	0.0135705
611.421	0.0134221
611.499	0.0135558
611.578	0.0135322
611.656	0.0134413
611.734	0.0136047
611.812	0.0134857
611.890	0.0135767
611.968	0.0135022
612.046	0.0135680
612.124	0.0135666
612.203	0.0135117
612.281	0.0135474
612.359	0.0135071
612.437	0.0134232
612.515	0.0135549
612.593	0.0134740
612.671	0.0137418
612.749	0.0136404
612.828	0.0136185
612.906	0.0136182
612.984	0.0135294
613.062	0.0135279
613.140	0.0136645
613.218	0.0135016
613.296	0.0134776
613.374	0.0136119
613.453	0.0136345
613.531	0.0135770
613.609	0.0134285
613.687	0.0134171
613.765	0.0135905
613.843	0.0135482
613.921	0.0135333
613.999	0.0136532
614.078	0.0136672
614.156	0.0135231
614.234	0.0133911
614.312	0.0135116
614.390	0.0134692
614.468	0.0134266
614.546	0.0133878
614.624	0.0135155
614.703	0.0133574
614.781	0.0135002
614.859	0.0134669
614.937	0.0134479
615.015	0.0134062
615.093	0.0133750
615.171	0.0134660
615.249	0.0134976
615.328	0.0133711
615.406	0.0134557
615.484	0.0133607
615.562	0.0135149
615.640	0.0135618
615.718	0.0135896
615.796	0.0134207
615.874	0.0134588
615.953	0.0134902
616.031	0.0135564
616.109	0.0135776
616.187	0.0136031
616.265	0.0135840
616.343	0.0135349
616.421	0.0136342
616.499	0.0135651
616.578	0.0136327
616.656	0.0136926
616.734	0.0136379
616.812	0.0136475
616.890	0.0137060
616.968	0.0136832
617.046	0.0135550
617.124	0.0136610
617.203	0.0136770
617.281	0.0136014
617.359	0.0135210
617.437	0.0136590
617.515	0.0135438
617.593	0.0136278
617.671	0.0134994
617.749	0.0135819
617.828	0.0135522
617.906	0.0136426
617.984	0.0135487
618.062	0.0136045
618.140	0.0135519
618.218	0.0135227
618.296	0.0134555
618.374	0.0135291
618.453	0.0134897
618.531	0.0134730
618.609	0.0134950
618.687	0.0134347
618.765	0.0134455
618.843	0.0136770
618.921	0.0135194
618.999	0.0135329
619.078	0.0134576
619.156	0.0135252
619.234	0.0135723
619.312	0.0134646
619.390	0.0135262
619.468	0.0134871
619.546	0.0132589
619.624	0.0134222
619.703	0.0134937
619.781	0.0134674
619.859	0.0133372
619.937	0.0133995
620.015	0.0134297
620.093	0.0134447
620.171	0.0134270
620.249	0.0133748
620.328	0.0133508
620.406	0.0133137
620.484	0.0133798
620.562	0.0134808
620.640	0.0134313
620.718	0.0134424
620.796	0.0134816
620.874	0.0134615
620.953	0.0135208
621.031	0.0133571
621.109	0.0133981
621.187	0.0134374
621.265	0.0133871
621.343	0.0134039
621.421	0.0133752
621.499	0.0134396
621.578	0.0134760
621.656	0.0133830
621.734	0.0135616
621.812	0.0136502
621.890	0.0135635
621.968	0.0134856
622.046	0.0134963
622.124	0.0135255
622.203	0.0134196
622.281	0.0133904
622.359	0.0134671
622.437	0.0134665
622.515	0.0135113
622.593	0.0133735
622.671	0.0134392
622.749	0.0134378
622.828	0.0136257
622.906	0.0133840
622.984	0.0134025
623.062	0.0134640
623.140	0.0134409
623.218	0.0134364
623.296	0.0133234
623.374	0.0134161
623.453	0.0134667
623.531	0.0133305
623.609	0.0133033
623.687	0.0133385
623.765	0.0134237
623.843	0.0132349
623.921	0.0133234
623.999	0.0133324
624.078	0.0133913
624.156	0.0135343
624.234	0.0132714
624.312	0.0131583
624.390	0.0132996
624.468	0.0134010
624.546	0.0133007
624.624	0.0134164
624.703	0.0132887
624.781	0.0131528
624.859	0.0133532
624.937	0.0133476
625.015	0.0134490
625.093	0.0133589
625.171	0.0132989
625.249	0.0133598
625.328	0.0132883
625.406	0.0132406
625.484	0.0134075
625.562	0.0133689
625.640	0.0133022
625.718	0.0132796
625.796	0.0133551
625.874	0.0134265
625.953	0.0133491
626.031	0.0135014
626.109	0.0134007
626.187	0.0133674
626.265	0.0134088
626.343	0.0134036
626.421	0.0133041
626.499	0.0134502
626.578	0.0135022
626.656	0.0134628
626.734	0.0135691
626.812	0.0134351
626.890	0.0135178
626.968	0.0136404
627.046	0.0134933
627.124	0.0135368
627.203	0.0134835
627.281	0.0135760
627.359	0.0135527
627.437	0.0134911
627.515	0.0135802
627.593	0.0136028
627.671	0.0136685
627.749	0.0136608
627.828	0.0137099
627.906	0.0135457
627.984	0.0134885
628.062	0.0135854
628.140	0.0136695
628.218	0.0137421
628.296	0.0136510
628.374	0.0136182
628.453	0.0136358
628.531	0.0137267
628.609	0.0136063
628.687	0.0136137
628.765	0.0135847
628.843	0.0136538
628.921	0.0138201
628.999	0.0136837
629.078	0.0137565
629.156	0.0137050
629.234	0.0135564
629.312	0.0136027
629.390	0.0137302
629.468	0.0137045
629.546	0.0136593
629.624	0.0137682
629.703	0.0137220
629.781	0.0136363
629.859	0.0137782
629.937	0.0138094
630.015	0.0136717
630.093	0.0136676
630.171	0.0136835
630.249	0.0137057
630.328	0.0135108
630.406	0.0135802
630.484	0.0134971
630.562	0.0136756
630.640	0.0137104
630.718	0.0137157
630.796	0.0136977
630.874	0.0135894
630.953	0.0136514
631.031	0.0135502
631.109	0.0134843
631.187	0.0134592
631.265	0.0136514
631.343	0.0135928
631.421	0.0136087
631.499	0.0136136
631.578	0.0136886
631.656	0.0134420
631.734	0.0135480
631.812	0.0136600
631.890	0.0136498
631.968	0.0136493
632.046	0.0135310
632.124	0.0134911
632.203	0.0134684
632.281	0.0135191
632.359	0.0136092
632.437	0.0136491
632.515	0.0135007
632.593	0.0134189
632.671	0.0136339
632.749	0.0136388
632.828	0.0135610
632.906	0.0136144
632.984	0.0136877
633.062	0.0134692
633.140	0.0135558
633.218	0.0135777
633.296	0.0135398
633.374	0.0134634
633.453	0.0135042
633.531	0.0136059
633.609	0.0136165
633.687	0.0136190
633.765	0.0135423
633.843	0.0134052
633.921	0.0134858
633.999	0.0135870
634.078	0.0134513
634.156	0.0135132
634.234	0.0135612
634.312	0.0136694
634.390	0.0133422
634.468	0.0134418
634.546	0.0136581
634.624	0.0134877
634.703	0.0134887
634.781	0.0136543
634.859	0.0136125
634.937	0.0136060
635.015	0.0135035
635.093	0.0136008
635.171	0.0137251
635.249	0.0136856
635.328	0.0135652
635.406	0.0136521
635.484	0.0136724
635.562	0.0134943
635.640	0.0135093
635.718	0.0137858
635.796	0.0137751
635.874	0.0137408
635.953	0.0137161
636.031	0.0136285
636.109	0.0136707
636.187	0.0136622
636.265	0.0137682
636.343	0.0136900
636.421	0.0137456
636.499	0.0135867
636.578	0.0134237
636.656	0.0136063
636.734	0.0136412
636.812	0.0135966
636.890	0.0135890
636.968	0.0135326
637.046	0.0134868
637.124	0.0134000
637.203	0.0136118
637.281	0.0135886
637.359	0.0136655
637.437	0.0137695
637.515	0.0136859
637.593	0.0137373
637.671	0.0136612
637.749	0.0135619
637.828	0.0136179
637.906	0.0136773
637.984	0.0135820
638.062	0.0136865
638.140	0.0135136
638.218	0.0135521
638.296	0.0136071
638.374	0.0136289
638.453	0.0136250
638.531	0.0136018
638.609	0.0135194
638.687	0.0135226
638.765	0.0136060
638.843	0.0135725
638.921	0.0135385
638.999	0.0135893
639.078	0.0135775
639.156	0.0137621
639.234	0.0135697
639.312	0.0135651
639.390	0.0137334
639.468	0.0138008
639.546	0.0136871
639.624	0.0134806
639.703	0.0135410
639.781	0.0136030
639.859	0.0134369
639.937	0.0134204
640.015	0.0134254
640.093	0.0133198
640.171	0.0134335
640.249	0.0133829
640.328	0.0133905
640.406	0.0132692
640.484	0.0133916
640.562	0.0134498
640.640	0.0133196
640.718	0.0133511
640.796	0.0132742
640.874	0.0132238
640.953	0.0133292
641.031	0.0133825
641.109	0.0132604
641.187	0.0134134
641.265	0.0133035
641.343	0.0133868
641.421	0.0134069
641.499	0.0133649
641.578	0.0135692
641.656	0.0135332
641.734	0.0135741
641.812	0.0136449
641.890	0.0138270
641.968	0.0139338
642.046	0.0138147
642.124	0.0138029
642.203	0.0138029
642.281	0.0138087
642.359	0.0137161
642.437	0.0137856
642.515	0.0136649
642.593	0.0136699
642.671	0.0136509
642.749	0.0136275
642.828	0.0137113
642.906	0.0134455
642.984	0.0134308
643.062	0.0135817
643.140	0.0135903
643.218	0.0135512
643.296	0.0133009
643.374	0.0132919
643.453	0.0132737
643.531	0.0131858
643.609	0.0131487
643.687	0.0130722
643.765	0.0131232
643.843	0.0129578
643.921	0.0129381
643.999	0.0129120
644.078	0.0130026
644.156	0.0130589
644.234	0.0128889
644.312	0.0128442
644.390	0.0129114
644.468	0.0129754
644.546	0.0129433
644.624	0.0130278
644.703	0.0130064
644.781	0.0131612
644.859	0.0133103
644.937	0.0133391
645.015	0.0135442
645.093	0.0138036
645.171	0.0138165
645.249	0.0139572
645.328	0.0141349
645.406	0.0142378
645.484	0.0144724
645.562	0.0144808
645.640	0.0145106
645.718	0.0145299
645.796	0.0146055
645.874	0.0144657
645.953	0.0143720
646.031	0.0144970
646.109	0.0142055
646.187	0.0141442
646.265	0.0141266
646.343	0.0138997
646.421	0.0136250
646.499	0.0135004
646.578	0.0134483
646.656	0.0132190
646.734	0.0131087
646.812	0.0128625
646.890	0.0128161
646.968	0.0126743
647.046	0.0125040
647.124	0.0124254
647.203	0.0123196
647.281	0.0123775
647.359	0.0123923
647.437	0.0122814
647.515	0.0123797
647.593	0.0123747
647.671	0.0125595
647.749	0.0125860
647.828	0.0127177
647.906	0.0128149
647.984	0.0130187
648.062	0.0132338
648.140	0.0132315
648.218	0.0134409
648.296	0.0137930
648.374	0.0139033
648.453	0.0141396
648.531	0.0143591
648.609	0.0143200
648.687	0.0142894
648.765	0.0145195
648.843	0.0146837
648.921	0.0146593
648.999	0.0146596
649.078	0.0146728
649.156	0.0145605
649.234	0.0146386
649.312	0.0146284
649.390	0.0145210
649.468	0.0143725
649.546	0.0143687
649.624	0.0144478
649.703	0.0142866
649.781	0.0141528
649.859	0.0139225
649.937	0.0138296
650.015	0.0138750
650.093	0.0136671
650.171	0.0135966
650.249	0.0135532
650.328	0.0132343
650.406	0.0132131
650.484	0.0129910
650.562	0.0129335
650.640	0.0129243
650.718	0.0127957
650.796	0.0126770
650.874	0.0126250
650.953	0.0125292
651.031	0.0125596
651.109	0.0125105
651.187	0.0123968
651.265	0.0124604
651.343	0.0125338
651.421	0.0124236
651.499	0.0124406
651.578	0.0124544
651.656	0.0124977
651.734	0.0126430
651.812	0.0128514
651.890	0.0129018
651.968	0.0130116
652.046	0.0131486
652.124	0.0134117
652.203	0.0136146
652.281	0.0134892
652.359	0.0137704
652.437	0.0140676
652.515	0.0142984
652.593	0.0143616
652.671	0.0144320
652.749	0.0146999
652.828	0.0146349
652.906	0.0149812
652.984	0.0151961
653.062	0.0151751
653.140	0.0152596
653.218	0.0153661
653.296	0.0152732
653.374	0.0153450
653.453	0.0152740
653.531	0.0154150
653.609	0.0152611
653.687	0.0150440
653.765	0.0150311
653.843	0.0148581
653.921	0.0145787
653.999	0.0145179
654.078	0.0140930
654.156	0.0138175
654.234	0.0136783
654.312	0.0133616
654.390	0.0133206
654.468	0.0128298
654.546	0.0124815
654.624	0.0123093
654.703	0.0120781
654.781	0.0117961
654.859	0.0117551
654.937	0.0115613
655.015	0.0114129
655.093	0.0112323
655.171	0.0110432
655.249	0.0110320
655.328	0.0109009
655.406	0.0109753
655.484	0.0111459
655.562	0.0112627
655.640	0.0112995
655.718	0.0115128
655.796	0.0119281
655.874	0.0119890
655.953	0.0123700
656.031	0.0127236
656.109	0.0129769
656.187	0.0134391
656.265	0.0137400
656.343	0.0139918
656.421	0.0144864
656.499	0.0147711
656.578	0.0151928
656.656	0.0155228
656.734	0.0156152
656.812	0.0158544
656.890	0.0160784
656.968	0.0161923
657.046	0.0163371
657.124	0.0163931
657.203	0.0165823
657.281	0.0164019
657.359	0.0162688
657.437	0.0161495
657.515	0.0161500
657.593	0.0158524
657.671	0.0156765
657.749	0.0152765
657.828	0.0149416
657.906	0.0147395
657.984	0.0144202
658.062	0.0140081
658.140	0.0137215
658.218	0.0131797
658.296	0.0128932
658.374	0.0126218
658.453	0.0121851
658.531	0.0120764
658.609	0.0115462
658.687	0.0113559
658.765	0.0110376
658.843	0.0110355
658.921	0.0107642
658.999	0.0106631
659.078	0.0107982
659.156	0.0106202
659.234	0.0106336
659.312	0.0107553
659.390	0.0109877
659.468	0.0111113
659.546	0.0113783
659.624	0.0114085
659.703	0.0116702
659.781	0.0119188
659.859	0.0121427
659.937	0.0124041
660.015	0.0128397
660.093	0.0129584
660.171	0.0134185
660.249	0.0135693
660.328	0.0137676
660.406	0.0141908
660.484	0.0144006
660.562	0.0146785
660.640	0.0148223
660.718	0.0150838
660.796	0.0153855
660.874	0.0153960
660.953	0.0156428
661.031	0.0157053
661.109	0.0157961
661.187	0.0160104
661.265	0.0160213
661.343	0.0159715
661.421	0.0159867
661.499	0.0158840
661.578	0.0158204
661.656	0.0157680
661.734	0.0156974
661.812	0.0154831
661.890	0.0153106
661.968	0.0150129
662.046	0.0148473
662.124	0.0145026
662.203	0.0143431
662.281	0.0141060
662.359	0.0136146
662.437	0.0134181
662.515	0.0132274
662.593	0.0128427
662.671	0.0125364
662.749	0.0123026
662.828	0.0120032
662.906	0.0119170
662.984	0.0117713
663.062	0.0115878
663.140	0.0115430
663.218	0.0114175
663.296	0.0112684
663.374	0.0111919
663.453	0.0112938
663.531	0.0115511
663.609	0.0115885
663.687	0.0115875
663.765	0.0116931
663.843	0.0118210
663.921	0.0120631
663.999	0.0122788
664.078	0.0124240
664.156	0.0125579
664.234	0.0128828
664.312	0.0131298
664.390	0.0133096
664.468	0.0135793
664.546	0.0138298
664.624	0.0140518
664.703	0.0143855
664.781	0.0144532
664.859	0.0147523
664.937	0.0149827
665.015	0.0150305
665.093	0.0150735
665.171	0.0153744
665.249	0.0154087
665.328	0.0154974
665.406	0.0154145
665.484	0.0154155
665.562	0.0154450
665.640	0.0152677
665.718	0.0151447
665.796	0.0148995
665.874	0.0148558
665.953	0.0147135
666.031	0.0144842
666.109	0.0143812
666.187	0.0140526
666.265	0.0138250
666.343	0.0137218
666.421	0.0136073
666.499	0.0132977
666.578	0.0131274
666.656	0.0131631
666.734	0.0129184
666.812	0.0127444
666.890	0.0127791
666.968	0.0127200
667.046	0.0125654
667.124	0.0123786
667.203	0.0123806
667.281	0.0124516
667.359	0.0123073
667.437	0.0123016
667.515	0.0124207
667.593	0.0124869
667.671	0.0123960
667.749	0.0124052
667.828	0.0126047
667.906	0.0126755
667.984	0.0127206
668.062	0.0130502
668.140	0.0130398
668.218	0.0130074
668.296	0.0132632
668.374	0.0135717
668.453	0.0136064
668.531	0.0137630
668.609	0.0139770
668.687	0.0139629
668.765	0.0140659
668.843	0.0139396
668.921	0.0142478
668.999	0.0142216
669.078	0.0142902
669.156	0.0142893
669.234	0.0142927
669.312	0.0141795
669.390	0.0141029
669.468	0.0139715
669.546	0.0139011
669.624	0.0138882
669.703	0.0138733
669.781	0.0136849
669.859	0.0136909
669.937	0.0138188
670.015	0.0135735
670.093	0.0136083
670.171	0.0135494
670.249	0.0134866
670.328	0.0135786
670.406	0.0133407
670.484	0.0133606
670.562	0.0134040
670.640	0.0132986
670.718	0.0132721
670.796	0.0131905
670.874	0.0131085
670.953	0.0131310
671.031	0.0130532
671.109	0.0130827
671.187	0.0130231
671.265	0.0130088
671.343	0.0130572
671.421	0.0131053
671.499	0.0130179
671.578	0.0133016
671.656	0.0134850
671.734	0.0134200
671.812	0.0134149
671.890	0.0135323
671.968	0.0137312
672.046	0.0137205
672.124	0.0136913
672.203	0.0140298
672.281	0.0142002
672.359	0.0141424
672.437	0.0141465
672.515	0.0141890
672.593	0.0141845
672.671	0.0142709
672.749	0.0142272
672.828	0.0141714
672.906	0.0141817
672.984	0.0141449
673.062	0.0140356
673.140	0.0140975
673.218	0.0140742
673.296	0.0139423
673.374	0.0140775
673.453	0.0140715
673.531	0.0139787
673.609	0.0139043
673.687	0.0137907
673.765	0.0137350
673.843	0.0138045
673.921	0.0137191
673.999	0.0136101
674.078	0.0135126
674.156	0.0133217
674.234	0.0133327
674.312	0.0133508
674.390	0.0132698
674.468	0.0132222
674.546	0.0132172
674.624	0.0132144
674.703	0.0132516
674.781	0.0131392
674.859	0.0131093
674.937	0.0130447
675.015	0.0130437
675.093	0.0130561
675.171	0.0128809
675.249	0.0129372
675.328	0.0130214
675.406	0.0130814
675.484	0.0130580
675.562	0.0130908
675.640	0.0130212
675.718	0.0132711
675.796	0.0131399
675.874	0.0132178
675.953	0.0131077
676.031	0.0133183
676.109	0.0134071
676.187	0.0133988
676.265	0.0134696
676.343	0.0134716
676.421	0.0133742
676.499	0.0135353
676.578	0.0134103
676.656	0.0136237
676.734	0.0137823
676.812	0.0136687
676.890	0.0136750
676.968	0.0137765
677.046	0.0137956
677.124	0.0138331
677.203	0.0138969
677.281	0.0139175
677.359	0.0139194
677.437	0.0138718
677.515	0.0138919
677.593	0.0140331
677.671	0.0139246
677.749	0.0138966
677.828	0.0139373
677.906	0.0140429
677.984	0.0140070
678.062	0.0138847
678.140	0.0138767
678.218	0.0138613
678.296	0.0138250
678.374	0.0138223
678.453	0.0137720
678.531	0.0138285
678.609	0.0136864
678.687	0.0136153
678.765	0.0135852
678.843	0.0133872
678.921	0.0135744
678.999	0.0134293
679.078	0.0133569
679.156	0.0135030
679.234	0.0134068
679.312	0.0133564
679.390	0.0134011
679.468	0.0132068
679.546	0.0131529
679.624	0.0132588
679.703	0.0131821
679.781	0.0130875
679.859	0.0131451
679.937	0.0130415
680.015	0.0130084
680.093	0.0129984
680.171	0.0131059
680.249	0.0129988
680.328	0.0130114
680.406	0.0130509
680.484	0.0131593
680.562	0.0129442
680.640	0.0131821
680.718	0.0131595
680.796	0.0130316
680.874	0.0129043
680.953	0.0129839
681.031	0.0128283
681.109	0.0127880
681.187	0.0127883
681.265	0.0127979
681.343	0.0125385
681.421	0.0128014
681.499	0.0125900
681.578	0.0126537
681.656	0.0126212
681.734	0.0125533
681.812	0.0128152
681.890	0.0127708
681.968	0.0128909
682.046	0.0130599
682.124	0.0131975
682.203	0.0132673
682.281	0.0133281
682.359	0.0133817
682.437	0.0135026
682.515	0.0137343
682.593	0.0137799
682.671	0.0139650
682.749	0.0139857
682.828	0.0143043
682.906	0.0143608
682.984	0.0145039
683.062	0.0144137
683.140	0.0144833
683.218	0.0145718
683.296	0.0146130
683.374	0.0146555
683.453	0.0146416
683.531	0.0145428
683.609	0.0144862
683.687	0.0144559
683.765	0.0143728
683.843	0.0144190
683.921	0.0141029
683.999	0.0142058
684.078	0.0142266
684.156	0.0140953
684.234	0.0138120
684.312	0.0137280
684.390	0.0137547
684.468	0.0136422
684.546	0.0135371
684.624	0.0133051
684.703	0.0132012
684.781	0.0129594
684.859	0.0130428
684.937	0.0130975
685.015	0.0129917
685.093	0.0128074
685.171	0.0128003
685.249	0.0128529
685.328	0.0130169
685.406	0.0130086
685.484	0.0129335
685.562	0.0129675
685.640	0.0131573
685.718	0.0132595
685.796	0.0130339
685.874	0.0130139
685.953	0.0131255
686.031	0.0129701
686.109	0.0130678
686.187	0.0131483
686.265	0.0131564
686.343	0.0131999
686.421	0.0130888
686.499	0.0129889
686.578	0.0131587
686.656	0.0132517
686.734	0.0131409
686.812	0.0132072
686.890	0.0131064
686.968	0.0130395
687.046	0.0131168
687.124	0.0131332
687.203	0.0130736
687.281	0.0130766
687.359	0.0131214
687.437	0.0132294
687.515	0.0130344
687.593	0.0131646
687.671	0.0132401
687.749	0.0131780
687.828	0.0132592
687.906	0.0135064
687.984	0.0135249
688.062	0.0133896
688.140	0.0136640
688.218	0.0136913
688.296	0.0139111
688.374	0.0137496
688.453	0.0138506
688.531	0.0141100
688.609	0.0143597
688.687	0.0144698
688.765	0.0144718
688.843	0.0144770
688.921	0.0146369
688.999	0.0146925
689.078	0.0147627
689.156	0.0146507
689.234	0.0147378
689.312	0.0145729
689.390	0.0144099
689.468	0.0144111
689.546	0.0143297
689.624	0.0143105
689.703	0.0142597
689.781	0.0140929
689.859	0.0139797
689.937	0.0138592
690.015	0.0136874
690.093	0.0138419
690.171	0.0137625
690.249	0.0135955
690.328	0.0135920
690.406	0.0135856
690.484	0.0135229
690.562	0.0133743
690.640	0.0134116
690.718	0.0133875
690.796	0.0132623
690.874	0.0130869
690.953	0.0131264
691.031	0.0133064
691.109	0.0131737
691.187	0.0129520
691.265	0.0128493
691.343	0.0127275
691.421	0.0126923
691.499	0.0126367
691.578	0.0126353
691.656	0.0128613
691.734	0.0129542
691.812	0.0128662
691.890	0.0129369
691.968	0.0129008
692.046	0.0131853
692.124	0.0132018
692.203	0.0133627
692.281	0.0134428
692.359	0.0134027
692.437	0.0135600
692.515	0.0135754
692.593	0.0136961
692.671	0.0136891
692.749	0.0136944
692.828	0.0137070
692.906	0.0139235
692.984	0.0138213
693.062	0.0140137
693.140	0.0139812
693.218	0.0139013
693.296	0.0140054
693.374	0.0140116
693.453	0.0141341
693.531	0.0140939
693.609	0.0140416
693.687	0.0140910
693.765	0.0142165
693.843	0.0142092
693.921	0.0139780
693.999	0.0140300
694.078	0.0139825
694.156	0.0140015
694.234	0.0141616
694.312	0.0137957
694.390	0.0138850
694.468	0.0138626
694.546	0.0138110
694.624	0.0140239
694.703	0.0137403
694.781	0.0138266
694.859	0.0138219
694.937	0.0138591
695.015	0.0137309
695.093	0.0138606
695.171	0.0137231
695.249	0.0136626
695.328	0.0138631
695.406	0.0137783
695.484	0.0136358
695.562	0.0135051
695.640	0.0135155
695.718	0.0134885
695.796	0.0134822
695.874	0.0134919
695.953	0.0133961
696.031	0.0135494
696.109	0.0134871
696.187	0.0134685
696.265	0.0135062
696.343	0.0134309
696.421	0.0134644
696.499	0.0133777
696.578	0.0135667
696.656	0.0134655
696.734	0.0134959
696.812	0.0134758
696.890	0.0135230
696.968	0.0135131
697.046	0.0135328
697.124	0.0134747
697.203	0.0136691
697.281	0.0134961
697.359	0.0136739
697.437	0.0136171
697.515	0.0135376
697.593	0.0134027
697.671	0.0135807
697.749	0.0135914
697.828	0.0136514
697.906	0.0136803
697.984	0.0136310
698.062	0.0137228
698.140	0.0136156
698.218	0.0136771
698.296	0.0135986
698.374	0.0135806
698.453	0.0134696
698.531	0.0135851
698.609	0.0133406
698.687	0.0133514
698.765	0.0133727
698.843	0.0133707
698.921	0.0132699
698.999	0.0132337
699.078	0.0130856
699.156	0.0131741
699.234	0.0131551
699.312	0.0129488
699.390	0.0129276
699.468	0.0130495
699.546	0.0129657
699.624	0.0129181
699.703	0.0130056
699.781	0.0130726
699.859	0.0130695
699.937	0.0132175
700.015	0.0130613
700.093	0.0131210
700.171	0.0131951
700.249	0.0130181
700.328	0.0132698
700.406	0.0132623
700.484	0.0133143
700.562	0.0131427
700.640	0.0134204
700.718	0.0131744
700.796	0.0133504
700.874	0.0133293
700.953	0.0134731
701.031	0.0134779
701.109	0.0136303
701.187	0.0135368
701.265	0.0136595
701.343	0.0136619
701.421	0.0136973
701.499	0.0138000
701.578	0.0140012
701.656	0.0139236
701.734	0.0137545
701.812	0.0140526
701.890	0.0140218
701.968	0.0138689
702.046	0.0140883
702.124	0.0140192
702.203	0.0139283
702.281	0.0139203
702.359	0.0138500
702.437	0.0139899
702.515	0.0137296
702.593	0.0139279
702.671	0.0136948
702.749	0.0136098
702.828	0.0135922
702.906	0.0136421
702.984	0.0136478
703.062	0.0134846
703.140	0.0135369
703.218	0.0135702
703.296	0.0135163
703.374	0.0133993
703.453	0.0133589
703.531	0.0133167
703.609	0.0134069
703.687	0.0134149
703.765	0.0134478
703.843	0.0134052
703.921	0.0135098
703.999	0.0136326
704.078	0.0137061
704.156	0.0135958
704.234	0.0137770
704.312	0.0138365
704.390	0.0137981
704.468	0.0137557
704.546	0.0138579
704.624	0.0139442
704.703	0.0138100
704.781	0.0137167
704.859	0.0138014
704.937	0.0137821
705.015	0.0137471
705.093	0.0136274
705.171	0.0135468
705.249	0.0135143
705.328	0.0133362
705.406	0.0132249
705.484	0.0132181
705.562	0.0131213
705.640	0.0130944
705.718	0.0129707
705.796	0.0130511
705.874	0.0130764
705.953	0.0130132
706.031	0.0129610
706.109	0.0131241
706.187	0.0131445
706.265	0.0131532
706.343	0.0132035
706.421	0.0131617
706.499	0.0132972
706.578	0.0133608
706.656	0.0132809
706.734	0.0133923
706.812	0.0133173
706.890	0.0132272
706.968	0.0132353
707.046	0.0134296
707.124	0.0134114
707.203	0.0134010
707.281	0.0134851
707.359	0.0136411
707.437	0.0136217
707.515	0.0136268
707.593	0.0137863
707.671	0.0139060
707.749	0.0138728
707.828	0.0138509
707.906	0.0138560
707.984	0.0140615
708.062	0.0141006
708.140	0.0141976
708.218	0.0141815
708.296	0.0141563
708.374	0.0141457
708.453	0.0140965
708.531	0.0140756
708.609	0.0141621
708.687	0.0141376
708.765	0.0140057
708.843	0.0140773
708.921	0.0140408
708.999	0.0137957
709.078	0.0138054
709.156	0.0137637
709.234	0.0136967
709.312	0.0135411
709.390	0.0135663
709.468	0.0135389
709.546	0.0134295
709.624	0.0132856
709.703	0.0133018
709.781	0.0133292
709.859	0.0133430
709.937	0.0133009
710.015	0.0132423
710.093	0.0133054
710.171	0.0130247
710.249	0.0129215
710.328	0.0130809
710.406	0.0128790
710.484	0.0127969
710.562	0.0128265
710.640	0.0128532
710.718	0.0127953
710.796	0.0128735
710.874	0.0128495
710.953	0.0127599
711.031	0.0127853
711.109	0.0127512
711.187	0.0126987
711.265	0.0127206
711.343	0.0127992
711.421	0.0129408
711.499	0.0127970
711.578	0.0130183
711.656	0.0131868
711.734	0.0130862
711.812	0.0131630
711.890	0.0131451
711.968	0.0131207
712.046	0.0132292
712.124	0.0133858
712.203	0.0132154
712.281	0.0133500
712.359	0.0133975
712.437	0.0134771
712.515	0.0135741
712.593	0.0136676
712.671	0.0135521
712.749	0.0135593
712.828	0.0136800
712.906	0.0136677
712.984	0.0137291
713.062	0.0136845
713.140	0.0136215
713.218	0.0137677
713.296	0.0137535
713.374	0.0137567
713.453	0.0136948
713.531	0.0137724
713.609	0.0138608
713.687	0.0138313
713.765	0.0138531
713.843	0.0138928
713.921	0.0140639
713.999	0.0141075
714.078	0.0140424
714.156	0.0140981
714.234	0.0141062
714.312	0.0140794
714.390	0.0140620
714.468	0.0140522
714.546	0.0141713
714.624	0.0141279
714.703	0.0140970
714.781	0.0142019
714.859	0.0141266
714.937	0.0141389
715.015	0.0140423
715.093	0.0140611
715.171	0.0141055
715.249	0.0141135
715.328	0.0141308
715.406	0.0139986
715.484	0.0139918
715.562	0.0139846
715.640	0.0139766
715.718	0.0139539
715.796	0.0138310
715.874	0.0136526
715.953	0.0137083
716.031	0.0136004
716.109	0.0134796
716.187	0.0134054
716.265	0.0133450
716.343	0.0130608
716.421	0.0129573
716.499	0.0132016
716.578	0.0129568
716.656	0.0128519
716.734	0.0129478
716.812	0.0128272
716.890	0.0129041
716.968	0.0129398
717.046	0.0129660
717.124	0.0129427
717.203	0.0127901
717.281	0.0129458
717.359	0.0128860
717.437	0.0129181
717.515	0.0131544
717.593	0.0132204
717.671	0.0131528
717.749	0.0131946
717.828	0.0131544
717.906	0.0132862
717.984	0.0133813
718.062	0.0134399
718.140	0.0135044
718.218	0.0135455
718.296	0.0136116
718.374	0.0136871
718.453	0.0137907
718.531	0.0137858
718.609	0.0138263
718.687	0.0139326
718.765	0.0138297
718.843	0.0140000
718.921	0.0140307
718.999	0.0139132
719.078	0.0139878
719.156	0.0140704
719.234	0.0140594
719.312	0.0140932
719.390	0.0140840
719.468	0.0140663
719.546	0.0139189
719.624	0.0139446
719.703	0.0139664
719.781	0.0138415
719.859	0.0136970
719.937	0.0137660
720.015	0.0138010
720.093	0.0136092
720.171	0.0137339
720.249	0.0135477
720.328	0.0136070
720.406	0.0134342
720.484	0.0135058
720.562	0.0134133
720.640	0.0133619
720.718	0.0134285
720.796	0.0134312
720.874	0.0132378
720.953	0.0133741
721.031	0.0133673
721.109	0.0134573
721.187	0.0133836
721.265	0.0135024
721.343	0.0133806
721.421	0.0134213
721.499	0.0134772
721.578	0.0135130
721.656	0.0133984
721.734	0.0135542
721.812	0.0135186
721.890	0.0135496
721.968	0.0134765
722.046	0.0135862
722.124	0.0134887
722.203	0.0134924
722.281	0.0135792
722.359	0.0136186
722.437	0.0137307
722.515	0.0136768
722.593	0.0137781
722.671	0.0137704
722.749	0.0136389
722.828	0.0136753
722.906	0.0137133
722.984	0.0135532
723.062	0.0138435
723.140	0.0138391
723.218	0.0137931
723.296	0.0138594
723.374	0.0137943
723.453	0.0139946
723.531	0.0139287
723.609	0.0140456
723.687	0.0139117
723.765	0.0139021
723.843	0.0137304
723.921	0.0137756
723.999	0.0138040
724.078	0.0136857
724.156	0.0135242
724.234	0.0135946
724.312	0.0135710
724.390	0.0135116
724.468	0.0134871
724.546	0.0133974
724.624	0.0133318
724.703	0.0133420
724.781	0.0132482
724.859	0.0133258
724.937	0.0133447
725.015	0.0133179
725.093	0.0133729
725.171	0.0134077
725.249	0.0134949
725.328	0.0133391
725.406	0.0136208
725.484	0.0135600
725.562	0.0134936
725.640	0.0134972
725.718	0.0135194
725.796	0.0134861
725.874	0.0135046
725.953	0.0135081
726.031	0.0134861
726.109	0.0134818
726.187	0.0136150
726.265	0.0134402
726.343	0.0135380
726.421	0.0134626
726.499	0.0135559
726.578	0.0136094
726.656	0.0136594
726.734	0.0135938
726.812	0.0135270
726.890	0.0136488
726.968	0.0136873
727.046	0.0136397
727.124	0.0137461
727.203	0.0138023
727.281	0.0136777
727.359	0.0138486
727.437	0.0138103
727.515	0.0138386
727.593	0.0137374
727.671	0.0138275
727.749	0.0137957
727.828	0.0136533
727.906	0.0136642
727.984	0.0137560
728.062	0.0136452
728.140	0.0137453
728.218	0.0135903
728.296	0.0135184
728.374	0.0135989
728.453	0.0135989
728.531	0.0134705
728.609	0.0133992
728.687	0.0135633
728.765	0.0135760
728.843	0.0133748
728.921	0.0133720
728.999	0.0133864
729.078	0.0133806
729.156	0.0134173
729.234	0.0134424
729.312	0.0134315
729.390	0.0133433
729.468	0.0133833
729.546	0.0133678
729.624	0.0132994
729.703	0.0133361
729.781	0.0133656
729.859	0.0133277
729.937	0.0133566
730.015	0.0133766
730.093	0.0133823
730.171	0.0134705
730.249	0.0134072
730.328	0.0133515
730.406	0.0134911
730.484	0.0133849
730.562	0.0133656
730.640	0.0133702
730.718	0.0134869
730.796	0.0133971
730.874	0.0134962
730.953	0.0133929
731.031	0.0132849
731.109	0.0133344
731.187	0.0134115
731.265	0.0134636
731.343	0.0134760
731.421	0.0134223
731.499	0.0134039
731.578	0.0135957
731.656	0.0134834
731.734	0.0134464
731.812	0.0135278
731.890	0.0135908
731.968	0.0135001
732.046	0.0136224
732.124	0.0136753
732.203	0.0134628
732.281	0.0137578
732.359	0.0136826
732.437	0.0138657
732.515	0.0137712
732.593	0.0136127
732.671	0.0138300
732.749	0.0136984
732.828	0.0137974
732.906	0.0137080
732.984	0.0136404
733.062	0.0136613
733.140	0.0136477
733.218	0.0136253
733.296	0.0135684
733.374	0.0137392
733.453	0.0136304
733.531	0.0135399
733.609	0.0135861
733.687	0.0135686
733.765	0.0136017
733.843	0.0136072
733.921	0.0136027
733.999	0.0136913
734.078	0.0135339
734.156	0.0135924
734.234	0.0136704
734.312	0.0137358
734.390	0.0136872
734.468	0.0135505
734.546	0.0135519
734.624	0.0137709
734.703	0.0137027
734.781	0.0136366
734.859	0.0137359
734.937	0.0137040
735.015	0.0137881
735.093	0.0137401
735.171	0.0138085
735.249	0.0137333
735.328	0.0136657
735.406	0.0136919
735.484	0.0137005
735.562	0.0136263
735.640	0.0137064
735.718	0.0135780
735.796	0.0135973
735.874	0.0136093
735.953	0.0133430
736.031	0.0135214
736.109	0.0134133
736.187	0.0134301
736.265	0.0132389
736.343	0.0132625
736.421	0.0132750
736.499	0.0132359
736.578	0.0131729
736.656	0.0131583
736.734	0.0131784
736.812	0.0131342
736.890	0.0131895
736.968	0.0131792
737.046	0.0131752
737.124	0.0131316
737.203	0.0132255
737.281	0.0132748
737.359	0.0132679
737.437	0.0131252
737.515	0.0132233
737.593	0.0130879
737.671	0.0131529
737.749	0.0132004
737.828	0.0134109
737.906	0.0132407
737.984	0.0134002
738.062	0.0134053
738.140	0.0132771
738.218	0.0135154
738.296	0.0135048
738.374	0.0135068
738.453	0.0135519
738.531	0.0135493
738.609	0.0135308
738.687	0.0135983
738.765	0.0134889
738.843	0.0136963
738.921	0.0136658
738.999	0.0136343
739.078	0.0135373
739.156	0.0137303
739.234	0.0134560
739.312	0.0135977
739.390	0.0134695
739.468	0.0136160
739.546	0.0134142
739.624	0.0135037
739.703	0.0133221
739.781	0.0134210
739.859	0.0133157
739.937	0.0133913
740.015	0.0131537
740.093	0.0131620
740.171	0.0133258
740.249	0.0131873
740.328	0.0131695
740.406	0.0131652
740.484	0.0131850
740.562	0.0133418
740.640	0.0131562
740.718	0.0131536
740.796	0.0133502
740.874	0.0134045
740.953	0.0134272
741.031	0.0133948
741.109	0.0133910
741.187	0.0134625
741.265	0.0135020
741.343	0.0134798
741.421	0.0135718
741.499	0.0134680
741.578	0.0135217
741.656	0.0135776
741.734	0.0136779
741.812	0.0134017
741.890	0.0136198
741.968	0.0137131
742.046	0.0137125
742.124	0.0136277
742.203	0.0137247
742.281	0.0137620
742.359	0.0137123
742.437	0.0136748
742.515	0.0137859
742.593	0.0139746
742.671	0.0139516
742.749	0.0137796
742.828	0.0138943
742.906	0.0138925
742.984	0.0138347
743.062	0.0139165
743.140	0.0139076
743.218	0.0138191
743.296	0.0138245
743.374	0.0139056
743.453	0.0138013
743.531	0.0138177
743.609	0.0137057
743.687	0.0138094
743.765	0.0137589
743.843	0.0135071
743.921	0.0135702
743.999	0.0134681
744.078	0.0134343
744.156	0.0134739
744.234	0.0134902
744.312	0.0135090
744.390	0.0133694
744.468	0.0133834
744.546	0.0133847
744.624	0.0132466
744.703	0.0131184
744.781	0.0132470
744.859	0.0133027
744.937	0.0133033
745.015	0.0132135
745.093	0.0132122
745.171	0.0132709
745.249	0.0133642
745.328	0.0134091
745.406	0.0134399
745.484	0.0132915
745.562	0.0134286
745.640	0.0134085
745.718	0.0135107
745.796	0.0137173
745.874	0.0136258
745.953	0.0136500
746.031	0.0137979
746.109	0.0140071
746.187	0.0138475
746.265	0.0138924
746.343	0.0140527
746.421	0.0137794
746.499	0.0138840
746.578	0.0139573
746.656	0.0138507
746.734	0.0139281
746.812	0.0140127
746.890	0.0138651
746.968	0.0137550
747.046	0.0137151
747.124	0.0137791
747.203	0.0138213
747.281	0.0136609
747.359	0.0134562
747.437	0.0137032
747.515	0.0135897
747.593	0.0135069
747.671	0.0134842
747.749	0.0134798
747.828	0.0134337
747.906	0.0134212
747.984	0.0134452
748.062	0.0134275
748.140	0.0133954
748.218	0.0133813
748.296	0.0135821
748.374	0.0134857
748.453	0.0136005
748.531	0.0136166
748.609	0.0136182
748.687	0.0136752
748.765	0.0137883
748.843	0.0137704
748.921	0.0138262
748.999	0.0138046
749.078	0.0139415
749.156	0.0138770
749.234	0.0138129
749.312	0.0141037
749.390	0.0139327
749.468	0.0137997
749.546	0.0138174
749.624	0.0138066
749.703	0.0139627
749.781	0.0139970
749.859	0.0138947
749.937	0.0139327
750.015	0.0138675
750.093	0.0138019
750.171	0.0138145
750.249	0.0138754
750.328	0.0137380
750.406	0.0137480
750.484	0.0136626
750.562	0.0136327
750.640	0.0136205
750.718	0.0136136
750.796	0.0136990
750.874	0.0136148
750.953	0.0135999
751.031	0.0135202
751.109	0.0135732
751.187	0.0134035
751.265	0.0133944
751.343	0.0135306
751.421	0.0133655
751.499	0.0134027
751.578	0.0134446
751.656	0.0133649
751.734	0.0133310
751.812	0.0134704
751.890	0.0133877
751.968	0.0133795
752.046	0.0131573
752.124	0.0131306
752.203	0.0132794
752.281	0.0133279
752.359	0.0133165
752.437	0.0134072
752.515	0.0133524
752.593	0.0133377
752.671	0.0133915
752.749	0.0133260
752.828	0.0133693
752.906	0.0134412
752.984	0.0136179
753.062	0.0135156
753.140	0.0135154
753.218	0.0134810
753.296	0.0135729
753.374	0.0137479
753.453	0.0138471
753.531	0.0139344
753.609	0.0139996
753.687	0.0137794
753.765	0.0138833
753.843	0.0140375
753.921	0.0140024
753.999	0.0139104
754.078	0.0139307
754.156	0.0139948
754.234	0.0140820
754.312	0.0139272
754.390	0.0139847
754.468	0.0138158
754.546	0.0138136
754.624	0.0140012
754.703	0.0138004
754.781	0.0137978
754.859	0.0137894
754.937	0.0138072
755.015	0.0137100
755.093	0.0137695
755.171	0.0136864
755.249	0.0137651
755.328	0.0135683
755.406	0.0133661
755.484	0.0135467
755.562	0.0134826
755.640	0.0133763
755.718	0.0133116
755.796	0.0133382
755.874	0.0133490
755.953	0.0132905
756.031	0.0133457
756.109	0.0133035
756.187	0.0132157
756.265	0.0132349
756.343	0.0133079
756.421	0.0132114
756.499	0.0132545
756.578	0.0133618
756.656	0.0134164
756.734	0.0135470
756.812	0.0134340
756.890	0.0134196
756.968	0.0135974
757.046	0.0135382
757.124	0.0136506
757.203	0.0137247
757.281	0.0137932
757.359	0.0136429
757.437	0.0136374
757.515	0.0137931
757.593	0.0137026
757.671	0.0136527
757.749	0.0137433
757.828	0.0138663
757.906	0.0137931
757.984	0.0137083
758.062	0.0136797
758.140	0.0136946
758.218	0.0137264
758.296	0.0136745
758.374	0.0136160
758.453	0.0135662
758.531	0.0134820
758.609	0.0136588
758.687	0.0135650
758.765	0.0133681
758.843	0.0135632
758.921	0.0136452
758.999	0.0135053
759.078	0.0133427
759.156	0.0132672
759.234	0.0133730
759.312	0.0133012
759.390	0.0134534
759.468	0.0133282
759.546	0.0132076
759.624	0.0132761
759.703	0.0131704
759.781	0.0131772
759.859	0.0133313
759.937	0.0131798
760.015	0.0131841
760.093	0.0131667
760.171	0.0131616
760.249	0.0132254
760.328	0.0131750
760.406	0.0133458
760.484	0.0132222
760.562	0.0131322
760.640	0.0133102
760.718	0.0132766
760.796	0.0133079
760.874	0.0134724
760.953	0.0134575
761.031	0.0132891
761.109	0.0133705
761.187	0.0135799
761.265	0.0135928
761.343	0.0135147
761.421	0.0135529
761.499	0.0137184
761.578	0.0136617
761.656	0.0138036
761.734	0.0137232
761.812	0.0137735
761.890	0.0137479
761.968	0.0138544
762.046	0.0137666
762.124	0.0138757
762.203	0.0138429
762.281	0.0139027
762.359	0.0139387
762.437	0.0138361
762.515	0.0137541
762.593	0.0136716
762.671	0.0138129
762.749	0.0137472
762.828	0.0137480
762.906	0.0137395
762.984	0.0138483
763.062	0.0136717
763.140	0.0137566
763.218	0.0135921
763.296	0.0136389
763.374	0.0135593
763.453	0.0135728
763.531	0.0136942
763.609	0.0135152
763.687	0.0133984
763.765	0.0134177
763.843	0.0134093
763.921	0.0134132
763.999	0.0132105
764.078	0.0132975
764.156	0.0133821
764.234	0.0133836
764.312	0.0132267
764.390	0.0134046
764.468	0.0133754
764.546	0.0133453
764.624	0.0133089
764.703	0.0133540
764.781	0.0133781
764.859	0.0133836
764.937	0.0135690
765.015	0.0134218
765.093	0.0133717
765.171	0.0133451
765.249	0.0134105
765.328	0.0135580
765.406	0.0135576
765.484	0.0133608
765.562	0.0135541
765.640	0.0135159
765.718	0.0134724
765.796	0.0134901
765.874	0.0135902
765.953	0.0134834
766.031	0.0136198
766.109	0.0134419
766.187	0.0134162
766.265	0.0135402
766.343	0.0136509
766.421	0.0135876
766.499	0.0136054
766.578	0.0135250
766.656	0.0135252
766.734	0.0135657
766.812	0.0136096
766.890	0.0136153
766.968	0.0135687
767.046	0.0134907
767.124	0.0134798
767.203	0.0134992
767.281	0.0135654
767.359	0.0133977
767.437	0.0134927
767.515	0.0135143
767.593	0.0135435
767.671	0.0134956
767.749	0.0135596
767.828	0.0135946
767.906	0.0135282
767.984	0.0134743
768.062	0.0134614
768.140	0.0136644
768.218	0.0136089
768.296	0.0133817
768.374	0.0135088
768.453	0.0135992
768.531	0.0134359
768.609	0.0135868
768.687	0.0135065
768.765	0.0136360
768.843	0.0137312
768.921	0.0135896
768.999	0.0135593
769.078	0.0137024
769.156	0.0136419
769.234	0.0136845
769.312	0.0137482
769.390	0.0137807
769.468	0.0137625
769.546	0.0136968
769.624	0.0138022
769.703	0.0138388
769.781	0.0138148
769.859	0.0138882
769.937	0.0138728
770.015	0.0139120
770.093	0.0138135
770.171	0.0138682
770.249	0.0137959
770.328	0.0138058
770.406	0.0138297
770.484	0.0138515
770.562	0.0137055
770.640	0.0135334
770.718	0.0136758
770.796	0.0137024
770.874	0.0136585
770.953	0.0135432
771.031	0.0136007
771.109	0.0136191
771.187	0.0136161
771.265	0.0136066
771.343	0.0134922
771.421	0.0134814
771.499	0.0136531
771.578	0.0136097
771.656	0.0134823
771.734	0.0135443
771.812	0.0134676
771.890	0.0134070
771.968	0.0134485
772.046	0.0133320
772.124	0.0133572
772.203	0.0134096
772.281	0.0135372
772.359	0.0134657
772.437	0.0134613
772.515	0.0134206
772.593	0.0134911
772.671	0.0135109
772.749	0.0136320
772.828	0.0135314
772.906	0.0134361
772.984	0.0135992
773.062	0.0134987
773.140	0.0136678
773.218	0.0137030
773.296	0.0136992
773.374	0.0136517
773.453	0.0136869
773.531	0.0137583
773.609	0.0137887
773.687	0.0137861
773.765	0.0138087
773.843	0.0139322
773.921	0.0138448
773.999	0.0138221
774.078	0.0137971
774.156	0.0137782
774.234	0.0137170
774.312	0.0137602
774.390	0.0137914
774.468	0.0137432
774.546	0.0136398
774.624	0.0135580
774.703	0.0136604
774.781	0.0136497
774.859	0.0137054
774.937	0.0137078
775.015	0.0136378
775.093	0.0135090
775.171	0.0136129
775.249	0.0137926
775.328	0.0137404
775.406	0.0136813
775.484	0.0137185
775.562	0.0137057
775.640	0.0137355
775.718	0.0138231
775.796	0.0137513
775.874	0.0137760
775.953	0.0136509
776.031	0.0135822
776.109	0.0137543
776.187	0.0137896
776.265	0.0137010
776.343	0.0136028
776.421	0.0135883
776.499	0.0135817
776.578	0.0134896
776.656	0.0136221
776.734	0.0136035
776.812	0.0134989
776.890	0.0134987
776.968	0.0136405
777.046	0.0135197
777.124	0.0135448
777.203	0.0134194
777.281	0.0135534
777.359	0.0135693
777.437	0.0133947
777.515	0.0134711
777.593	0.0135125
777.671	0.0136478
777.749	0.0134475
777.828	0.0135342
777.906	0.0136076
777.984	0.0134034
778.062	0.0134914
778.140	0.0134034
778.218	0.0133884
778.296	0.0134290
778.374	0.0133341
778.453	0.0133630
778.531	0.0132681
778.609	0.0133936
778.687	0.0134959
778.765	0.0133064
778.843	0.0135154
778.921	0.0135103
778.999	0.0133804
779.078	0.0135165
779.156	0.0137732
779.234	0.0136715
779.312	0.0136781
779.390	0.0136179
779.468	0.0135788
779.546	0.0135977
779.624	0.0136097
779.703	0.0135163
779.781	0.0135960
779.859	0.0134084
779.937	0.0134299
780.015	0.0133472
780.093	0.0132353
780.171	0.0134026
780.249	0.0133916
780.328	0.0132789
780.406	0.0134326
780.484	0.0135403
780.562	0.0135230
780.640	0.0134283
780.718	0.0135120
780.796	0.0135432
780.874	0.0137244
780.953	0.0136863
781.031	0.0134293
781.109	0.0133274
781.187	0.0133531
781.265	0.0133094
781.343	0.0132317
781.421	0.0132264
781.499	0.0131374
781.578	0.0132726
781.656	0.0133399
781.734	0.0134574
781.812	0.0134891
781.890	0.0134277
781.968	0.0135480
782.046	0.0135741
782.124	0.0135146
782.203	0.0135573
782.281	0.0135925
782.359	0.0135654
782.437	0.0136363
782.515	0.0136272
782.593	0.0136361
782.671	0.0135884
782.749	0.0134117
782.828	0.0132344
782.906	0.0134939
782.984	0.0135271
783.062	0.0134248
783.140	0.0135201
783.218	0.0135250
783.296	0.0134102
783.374	0.0135438
783.453	0.0135601
783.531	0.0136015
783.609	0.0135905
783.687	0.0135455
783.765	0.0134050
783.843	0.0134353
783.921	0.0135362
783.999	0.0133020
784.078	0.0134582
784.156	0.0134755
784.234	0.0134581
784.312	0.0133744
784.390	0.0136510
784.468	0.0137717
784.546	0.0136880
784.624	0.0136953
784.703	0.0135594
784.781	0.0135554
784.859	0.0136163
784.937	0.0135770
785.015	0.0136359
785.093	0.0136807
785.171	0.0134642
785.249	0.0134636
785.328	0.0135300
785.406	0.0133728
785.484	0.0133846
785.562	0.0134131
785.640	0.0134597
785.718	0.0135895
785.796	0.0135217
785.874	0.0136472
785.953	0.0135506
786.031	0.0136632
786.109	0.0138653
786.187	0.0136528
786.265	0.0135993
786.343	0.0136728
786.421	0.0136536
786.499	0.0137576
786.578	0.0136902
786.656	0.0138208
786.734	0.0138635
786.812	0.0138351
786.890	0.0140148
786.968	0.0139425
787.046	0.0139944
787.124	0.0139127
787.203	0.0138157
787.281	0.0137222
787.359	0.0137027
787.437	0.0135856
787.515	0.0133370
787.593	0.0133836
787.671	0.0133217
787.749	0.0133303
787.828	0.0132319
787.906	0.0134550
787.984	0.0135374
788.062	0.0134737
788.140	0.0135356
788.218	0.0136467
788.296	0.0137446
788.374	0.0136669
788.453	0.0137629
788.531	0.0137806
788.609	0.0137673
788.687	0.0136098
788.765	0.0136204
788.843	0.0134972
788.921	0.0133543
788.999	0.0133513
789.078	0.0132722
789.156	0.0133002
789.234	0.0132877
789.312	0.0133228
789.390	0.0133858
789.468	0.0132608
789.546	0.0134599
789.624	0.0135402
789.703	0.0134711
789.781	0.0136264
789.859	0.0136932
789.937	0.0136983
790.015	0.0136148
790.093	0.0137733
790.171	0.0137390
790.249	0.0138228
790.328	0.0137212
790.406	0.0137321
790.484	0.0135090
790.562	0.0136578
790.640	0.0136134
790.718	0.0135454
790.796	0.0134669
790.874	0.0134090
790.953	0.0134742
791.031	0.0133870
791.109	0.0134700
791.187	0.0135216
791.265	0.0134950
791.343	0.0135239
791.421	0.0135352
791.499	0.0134571
791.578	0.0135564
791.656	0.0135220
791.734	0.0134706
791.812	0.0134109
791.890	0.0136485
791.968	0.0135003
792.046	0.0135653
792.124	0.0136702
792.203	0.0136803
792.281	0.0137378
792.359	0.0137415
792.437	0.0137567
792.515	0.0137714
792.593	0.0135616
792.671	0.0135044
792.749	0.0133106
792.828	0.0132422
792.906	0.0133318
792.984	0.0132868
793.062	0.0134663
793.140	0.0134068
793.218	0.0134892
793.296	0.0134981
793.374	0.0135010
793.453	0.0136560
793.531	0.0138265
793.609	0.0137032
793.687	0.0138471
793.765	0.0137026
793.843	0.0136796
793.921	0.0137067
793.999	0.0135813
794.078	0.0134824
794.156	0.0135198
794.234	0.0134233
794.312	0.0135027
794.390	0.0133999
794.468	0.0134785
794.546	0.0132996
794.624	0.0134496
794.703	0.0135675
794.781	0.0135069
794.859	0.0135950
794.937	0.0136460
795.015	0.0135016
795.093	0.0136022
795.171	0.0137331
795.249	0.0136664
795.328	0.0135648
795.406	0.0134575
795.484	0.0134387
795.562	0.0134730
795.640	0.0133511
795.718	0.0133461
795.796	0.0133615
795.874	0.0134182
795.953	0.0135057
796.031	0.0136023
796.109	0.0136689
796.187	0.0135947
796.265	0.0135417
796.343	0.0135542
796.421	0.0136271
796.499	0.0136613
796.578	0.0138143
796.656	0.0136462
796.734	0.0137243
796.812	0.0137540
796.890	0.0137081
796.968	0.0137497
797.046	0.0137227
797.124	0.0136916
797.203	0.0136056
797.281	0.0136511
797.359	0.0134521
797.437	0.0135502
797.515	0.0136784
797.593	0.0136504
797.671	0.0137152
797.749	0.0136894
797.828	0.0136954
797.906	0.0136939
797.984	0.0139085
798.062	0.0139527
798.140	0.0138181
798.218	0.0135885
798.296	0.0137036
798.374	0.0137830
798.453	0.0137641
798.531	0.0136372
798.609	0.0136175
798.687	0.0137951
798.765	0.0136895
798.843	0.0136131
798.921	0.0136583
798.999	0.0138026
799.078	0.0136000
799.156	0.0135278
799.234	0.0137186
799.312	0.0136810
799.390	0.0135933
799.468	0.0135302
799.546	0.0135003
799.624	0.0134319
799.703	0.0135570
799.781	0.0135300
799.859	0.0134402
799.937	0.0134515
800.015	0.0133424
800.093	0.0133177
800.171	0.0132968
800.249	0.0131944
800.328	0.0133960
800.406	0.0132635
800.484	0.0134039
800.562	0.0133040
800.640	0.0133836
800.718	0.0134389
800.796	0.0134446
800.874	0.0135664
800.953	0.0135321
801.031	0.0135391
801.109	0.0135043
801.187	0.0135418
801.265	0.0136884
801.343	0.0134703
801.421	0.0134686
801.499	0.0131763
801.578	0.0133575
801.656	0.0132369
801.734	0.0130808
801.812	0.0129987
801.890	0.0130599
801.968	0.0130775
802.046	0.0130942
802.124	0.0134010
802.203	0.0133054
802.281	0.0133578
802.359	0.0133385
802.437	0.0134551
802.515	0.0134884
802.593	0.0134355
802.671	0.0134445
802.749	0.0134911
802.828	0.0135636
802.906	0.0135161
802.984	0.0134035
803.062	0.0133032
803.140	0.0133463
803.218	0.0133792
803.296	0.0133144
803.374	0.0134444
803.453	0.0134836
803.531	0.0134826
803.609	0.0134275
803.687	0.0135814
803.765	0.0135624
803.843	0.0136008
803.921	0.0137881
803.999	0.0139470
804.078	0.0138158
804.156	0.0138341
804.234	0.0137034
804.312	0.0136676
804.390	0.0136050
804.468	0.0136105
804.546	0.0135830
804.624	0.0135172
804.703	0.0132522
804.781	0.0133337
804.859	0.0133025
804.937	0.0134032
805.015	0.0132871
805.093	0.0132303
805.171	0.0134757
805.249	0.0135199
805.328	0.0136143
805.406	0.0137220
805.484	0.0134985
805.562	0.0135263
805.640	0.0136036
805.718	0.0136972
805.796	0.0134949
805.874	0.0133867
805.953	0.0134626
806.031	0.0134318
806.109	0.0135049
806.187	0.0134176
806.265	0.0135252
806.343	0.0135545
806.421	0.0135064
806.499	0.0134552
806.578	0.0135437
806.656	0.0135920
806.734	0.0136535
806.812	0.0135584
806.890	0.0136845
806.968	0.0136501
807.046	0.0134523
807.124	0.0134526
807.203	0.0134698
807.281	0.0133134
807.359	0.0133071
807.437	0.0132877
807.515	0.0132655
807.593	0.0133012
807.671	0.0133899
807.749	0.0132230
807.828	0.0132874
807.906	0.0133257
807.984	0.0132825
808.062	0.0133010
808.140	0.0133825
808.218	0.0132839
808.296	0.0134848
808.374	0.0135423
808.453	0.0134061
808.531	0.0135176
808.609	0.0134412
808.687	0.0135220
808.765	0.0135825
808.843	0.0134605
808.921	0.0135320
808.999	0.0135044
809.078	0.0136839
809.156	0.0134767
809.234	0.0135654
809.312	0.0134366
809.390	0.0135876
809.468	0.0135014
809.546	0.0135154
809.624	0.0134484
809.703	0.0133456
809.781	0.0134910
809.859	0.0134725
809.937	0.0134946
810.015	0.0135735
810.093	0.0135593
810.171	0.0135683
810.249	0.0133919
810.328	0.0134737
810.406	0.0135158
810.484	0.0134146
810.562	0.0135496
810.640	0.0136290
810.718	0.0136172
810.796	0.0136123
810.874	0.0134896
810.953	0.0135323
811.031	0.0136948
811.109	0.0134653
811.187	0.0134737
811.265	0.0135217
811.343	0.0134087
811.421	0.0134846
811.499	0.0135247
811.578	0.0135213
811.656	0.0135784
811.734	0.0134842
811.812	0.0135854
811.890	0.0135088
811.968	0.0136365
812.046	0.0137682
812.124	0.0138162
812.203	0.0138516
812.281	0.0136537
812.359	0.0138515
812.437	0.0136708
812.515	0.0136549
812.593	0.0136492
812.671	0.0136702
812.749	0.0136806
812.828	0.0134197
812.906	0.0134670
812.984	0.0135015
813.062	0.0135892
813.140	0.0136655
813.218	0.0136649
813.296	0.0135413
813.374	0.0133812
813.453	0.0134224
813.531	0.0135059
813.609	0.0135136
813.687	0.0133606
813.765	0.0135472
813.843	0.0135938
813.921	0.0133849
813.999	0.0134454
814.078	0.0132852
814.156	0.0132417
814.234	0.0133720
814.312	0.0133546
814.390	0.0132587
814.468	0.0133054
814.546	0.0133606
814.624	0.0132531
814.703	0.0132466
814.781	0.0132427
814.859	0.0133583
814.937	0.0132602
815.015	0.0131979
815.093	0.0133663
815.171	0.0134721
815.249	0.0133488
815.328	0.0135233
815.406	0.0135229
815.484	0.0135518
815.562	0.0136413
815.640	0.0135517
815.718	0.0134187
815.796	0.0136117
815.874	0.0135802
815.953	0.0136003
816.031	0.0136441
816.109	0.0137149
816.187	0.0136323
816.265	0.0136642
816.343	0.0136238
816.421	0.0138446
816.499	0.0139053
816.578	0.0138423
816.656	0.0140461
816.734	0.0138907
816.812	0.0138761
816.890	0.0137601
816.968	0.0137775
817.046	0.0137920
817.124	0.0136072
817.203	0.0135841
817.281	0.0135258
817.359	0.0134402
817.437	0.0135064
817.515	0.0134420
817.593	0.0134097
817.671	0.0135103
817.749	0.0133409
817.828	0.0135017
817.906	0.0135596
817.984	0.0136890
818.062	0.0136332
818.140	0.0137034
818.218	0.0138903
818.296	0.0137489
818.374	0.0137524
818.453	0.0136777
818.531	0.0139554
818.609	0.0136774
818.687	0.0135876
818.765	0.0136391
818.843	0.0137432
818.921	0.0135970
818.999	0.0135333
819.078	0.0134398
819.156	0.0135129
819.234	0.0134534
819.312	0.0134441
819.390	0.0135287
819.468	0.0134721
819.546	0.0136015
819.624	0.0136475
819.703	0.0138979
819.781	0.0138041
819.859	0.0138119
819.937	0.0137762
820.015	0.0138677
820.093	0.0136886
820.171	0.0138161
820.249	0.0138702
820.328	0.0139462
820.406	0.0139076
820.484	0.0137943
820.562	0.0137579
820.640	0.0137751
820.718	0.0136340
820.796	0.0135892
820.874	0.0136946
820.953	0.0136280
821.031	0.0135621
821.109	0.0135720
821.187	0.0135846
821.265	0.0137352
821.343	0.0136891
821.421	0.0136747
821.499	0.0136678
821.578	0.0136340
821.656	0.0136507
821.734	0.0135494
821.812	0.0136024
821.890	0.0135884
821.968	0.0134750
822.046	0.0135506
822.124	0.0135080
822.203	0.0135190
822.281	0.0134420
822.359	0.0132475
822.437	0.0134099
822.515	0.0133883
822.593	0.0133539
822.671	0.0134240
822.749	0.0133453
822.828	0.0132830
822.906	0.0133448
822.984	0.0132597
823.062	0.0133958
823.140	0.0134615
823.218	0.0135018
823.296	0.0134277
823.374	0.0134847
823.453	0.0134853
823.531	0.0135552
823.609	0.0136447
823.687	0.0136150
823.765	0.0135931
823.843	0.0135566
823.921	0.0135183
823.999	0.0136356
824.078	0.0135653
824.156	0.0136124
824.234	0.0133723
824.312	0.0134224
824.390	0.0133337
824.468	0.0134940
824.546	0.0135855
824.624	0.0135433
824.703	0.0135532
824.781	0.0135578
824.859	0.0136079
824.937	0.0136472
825.015	0.0135413
825.093	0.0134972
825.171	0.0136361
825.249	0.0136993
825.328	0.0134844
825.406	0.0134174
825.484	0.0133970
825.562	0.0134393
825.640	0.0134077
825.718	0.0133134
825.796	0.0133771
825.874	0.0133739
825.953	0.0133530
826.031	0.0133865
826.109	0.0133538
826.187	0.0133622
826.265	0.0133501
826.343	0.0134576
826.421	0.0133209
826.499	0.0135139
826.578	0.0134908
826.656	0.0135576
826.734	0.0135374
826.812	0.0136182
826.890	0.0136258
826.968	0.0135669
827.046	0.0136777
827.124	0.0136773
827.203	0.0136636
827.281	0.0137652
827.359	0.0137270
827.437	0.0137221
827.515	0.0137007
827.593	0.0137325
827.671	0.0137725
827.749	0.0136571
827.828	0.0137349
827.906	0.0137289
827.984	0.0136720
828.062	0.0136515
828.140	0.0135899
828.218	0.0136034
828.296	0.0136125
828.374	0.0135487
828.453	0.0134573
828.531	0.0135049
828.609	0.0136014
828.687	0.0134720
828.765	0.0134754
828.843	0.0133970
828.921	0.0134161
828.999	0.0134335
829.078	0.0134551
829.156	0.0134599
829.234	0.0135503
829.312	0.0134552
829.390	0.0134555
829.468	0.0134755
829.546	0.0134192
829.624	0.0133012
829.703	0.0134142
829.781	0.0134039
829.859	0.0133833
829.937	0.0133259
830.015	0.0133800
830.093	0.0134394
830.171	0.0134470
830.249	0.0135535
830.328	0.0135720
830.406	0.0135529
830.484	0.0136318
830.562	0.0136430
830.640	0.0136959
830.718	0.0138149
830.796	0.0136787
830.874	0.0137698
830.953	0.0137479
831.031	0.0136609
831.109	0.0136356
831.187	0.0135963
831.265	0.0136411
831.343	0.0135993
831.421	0.0135400
831.499	0.0135841
831.578	0.0135915
831.656	0.0136127
831.734	0.0136168
831.812	0.0135207
831.890	0.0134934
831.968	0.0134160
832.046	0.0134740
832.124	0.0136160
832.203	0.0135866
832.281	0.0135645
832.359	0.0134393
832.437	0.0134418
832.515	0.0134757
832.593	0.0135008
832.671	0.0134365
832.749	0.0135076
832.828	0.0134489
832.906	0.0132088
832.984	0.0133028
833.062	0.0132769
833.140	0.0134559
833.218	0.0133701
833.296	0.0133300
833.374	0.0133698
833.453	0.0132233
833.531	0.0134695
833.609	0.0134019
833.687	0.0133047
833.765	0.0134931
833.843	0.0135118
833.921	0.0135321
833.999	0.0133975
834.078	0.0134377
834.156	0.0134608
834.234	0.0135067
834.312	0.0134160
834.390	0.0134959
834.468	0.0132928
834.546	0.0133154
834.624	0.0133887
834.703	0.0135221
834.781	0.0133530
834.859	0.0133685
834.937	0.0133002
835.015	0.0134468
835.093	0.0134170
835.171	0.0135087
835.249	0.0134627
835.328	0.0134327
835.406	0.0135054
835.484	0.0135024
835.562	0.0136118
835.640	0.0136813
835.718	0.0136320
835.796	0.0135338
835.874	0.0136195
835.953	0.0135545
836.031	0.0136809
836.109	0.0136618
836.187	0.0138150
836.265	0.0137260
836.343	0.0137133
836.421	0.0137846
836.499	0.0137675
836.578	0.0138509
836.656	0.0137601
836.734	0.0137849
836.812	0.0138011
836.890	0.0138158
836.968	0.0137791
837.046	0.0136689
837.124	0.0136153
837.203	0.0137473
837.281	0.0136632
837.359	0.0136080
837.437	0.0135400
837.515	0.0136314
837.593	0.0136851
837.671	0.0137595
837.749	0.0136272
837.828	0.0136982
837.906	0.0136491
837.984	0.0138290
838.062	0.0136756
838.140	0.0136071
838.218	0.0136368
838.296	0.0135754
838.374	0.0135789
838.453	0.0135581
838.531	0.0136526
838.609	0.0135445
838.687	0.0135618
838.765	0.0135149
838.843	0.0135605
838.921	0.0136223
838.999	0.0134802
839.078	0.0134304
839.156	0.0136362
839.234	0.0136150
839.312	0.0134842
839.390	0.0136582
839.468	0.0136130
839.546	0.0135733
839.624	0.0137715
839.703	0.0136278
839.781	0.0135886
839.859	0.0135857
839.937	0.0136024
840.015	0.0135895
840.093	0.0136175
840.171	0.0136993
840.249	0.0136468
840.328	0.0136154
840.406	0.0136484
840.484	0.0137276
840.562	0.0136172
840.640	0.0136238
840.718	0.0136269
840.796	0.0138102
840.874	0.0137057
840.953	0.0137386
841.031	0.0136166
841.109	0.0136578
841.187	0.0135653
841.265	0.0134792
841.343	0.0136171
841.421	0.0135016
841.499	0.0134454
841.578	0.0134872
841.656	0.0135696
841.734	0.0134615
841.812	0.0134064
841.890	0.0133097
841.968	0.0134705
842.046	0.0134481
842.124	0.0134161
842.203	0.0134011
842.281	0.0133539
842.359	0.0132747
842.437	0.0133825
842.515	0.0134906
842.593	0.0135366
842.671	0.0134712
842.749	0.0134241
842.828	0.0134773
842.906	0.0134758
842.984	0.0135925
843.062	0.0136140
843.140	0.0136883
843.218	0.0135749
843.296	0.0137320
843.374	0.0135705
843.453	0.0135542
843.531	0.0136798
843.609	0.0135835
843.687	0.0135699
843.765	0.0135342
843.843	0.0133031
843.921	0.0133812
843.999	0.0135164
844.078	0.0134927
844.156	0.0134244
844.234	0.0134713
844.312	0.0135809
844.390	0.0135770
844.468	0.0135593
844.546	0.0136568
844.624	0.0136620
844.703	0.0136536
844.781	0.0135176
844.859	0.0135779
844.937	0.0136493
845.015	0.0135164
845.093	0.0134996
845.171	0.0135572
845.249	0.0134702
845.328	0.0135342
845.406	0.0136472
845.484	0.0135197
845.562	0.0135142
845.640	0.0136562
845.718	0.0137290
845.796	0.0134200
845.874	0.0135323
845.953	0.0135413
846.031	0.0135387
846.109	0.0135156
846.187	0.0136459
846.265	0.0136565
846.343	0.0135129
846.421	0.0137411
846.499	0.0136701
846.578	0.0136340
846.656	0.0134409
846.734	0.0134711
846.812	0.0135215
846.890	0.0135309
846.968	0.0134366
847.046	0.0134106
847.124	0.0133648
847.203	0.0133373
847.281	0.0133780
847.359	0.0134172
847.437	0.0133768
847.515	0.0132543
847.593	0.0132844
847.671	0.0134347
847.749	0.0135626
847.828	0.0135856
847.906	0.0134829
847.984	0.0134245
848.062	0.0136298
848.140	0.0136659
848.218	0.0135538
848.296	0.0136329
848.374	0.0137397
848.453	0.0138583
848.531	0.0138986
848.609	0.0137302
848.687	0.0137820
848.765	0.0137817
848.843	0.0138316
848.921	0.0136620
848.999	0.0137858
849.078	0.0137146
849.156	0.0138091
849.234	0.0138581
849.312	0.0137086
849.390	0.0136665
849.468	0.0135738
849.546	0.0136053
849.624	0.0135404
849.703	0.0135002
849.781	0.0136300
849.859	0.0135332
849.937	0.0136774
850.015	0.0136210
850.093	0.0134192
850.171	0.0135497
850.249	0.0135530
850.328	0.0134631
850.406	0.0135542
850.484	0.0134977
850.562	0.0135274
850.640	0.0135151
850.718	0.0133946
850.796	0.0134261
850.874	0.0135477
850.953	0.0134748
851.031	0.0135053
851.109	0.0135445
851.187	0.0132955
851.265	0.0134216
851.343	0.0133919
851.421	0.0134343
851.499	0.0134471
851.578	0.0135107
851.656	0.0135017
851.734	0.0135141
851.812	0.0136921
851.890	0.0136618
851.968	0.0136289
852.046	0.0137775
852.124	0.0136836
852.203	0.0136566
852.281	0.0137880
852.359	0.0137028
852.437	0.0136375
852.515	0.0136698
852.593	0.0137640
852.671	0.0135924
852.749	0.0136197
852.828	0.0135407
852.906	0.0136218
852.984	0.0136290
853.062	0.0135248
853.140	0.0134973
853.218	0.0135014
853.296	0.0135989
853.374	0.0135339
853.453	0.0135030
853.531	0.0135509
853.609	0.0134999
853.687	0.0135336
853.765	0.0136739
853.843	0.0136674
853.921	0.0136582
853.999	0.0136668
854.078	0.0134716
854.156	0.0134406
854.234	0.0134628
854.312	0.0134181
854.390	0.0133681
854.468	0.0135207
854.546	0.0134763
854.624	0.0133729
854.703	0.0134000
854.781	0.0135188
854.859	0.0134622
854.937	0.0134128
855.015	0.0134531
855.093	0.0135368
855.171	0.0134220
855.249	0.0136207
855.328	0.0136009
855.406	0.0135190
855.484	0.0135988
855.562	0.0135481
855.640	0.0136068
855.718	0.0136616
855.796	0.0137086
855.874	0.0137408
855.953	0.0136697
856.031	0.0136572
856.109	0.0137030
856.187	0.0136248
856.265	0.0137301
856.343	0.0137547
856.421	0.0137360
856.499	0.0137317
856.578	0.0137514
856.656	0.0137317
856.734	0.0138805
856.812	0.0138409
856.890	0.0138510
856.968	0.0136855
857.046	0.0138193
857.124	0.0137786
857.203	0.0136810
857.281	0.0137888
857.359	0.0137442
857.437	0.0138373
857.515	0.0138510
857.593	0.0138708
857.671	0.0136835
857.749	0.0136279
857.828	0.0136869
857.906	0.0136826
857.984	0.0136584
858.062	0.0135911
858.140	0.0135672
858.218	0.0136557
858.296	0.0135856
858.374	0.0135583
858.453	0.0134993
858.531	0.0134541
858.609	0.0135178
858.687	0.0134850
858.765	0.0134344
858.843	0.0136865
858.921	0.0134934
858.999	0.0134773
859.078	0.0134352
859.156	0.0134443
859.234	0.0132099
859.312	0.0135387
859.390	0.0137304
859.468	0.0135175
859.546	0.0134810
859.624	0.0136542
859.703	0.0137199
859.781	0.0136340
859.859	0.0137102
859.937	0.0136785
860.015	0.0137109
860.093	0.0136930
860.171	0.0137859
860.249	0.0138835
860.328	0.0137119
860.406	0.0136938
860.484	0.0137560
860.562	0.0135023
860.640	0.0135249
860.718	0.0135443
860.796	0.0136304
860.874	0.0136265
860.953	0.0136204
861.031	0.0134458
861.109	0.0133647
861.187	0.0135029
861.265	0.0135377
861.343	0.0134251
861.421	0.0135361
861.499	0.0135163
861.578	0.0136149
861.656	0.0133848
861.734	0.0135258
861.812	0.0135500
861.890	0.0133418
861.968	0.0133897
862.046	0.0134406
862.124	0.0135374
862.203	0.0133729
862.281	0.0134692
862.359	0.0133797
862.437	0.0134602
862.515	0.0132321
862.593	0.0133956
862.671	0.0135119
862.749	0.0133892
862.828	0.0134346
862.906	0.0133343
862.984	0.0134583
863.062	0.0133360
863.140	0.0135220
863.218	0.0134523
863.296	0.0133701
863.374	0.0135806
863.453	0.0135574
863.531	0.0134170
863.609	0.0135435
863.687	0.0134604
863.765	0.0135168
863.843	0.0135918
863.921	0.0135931
863.999	0.0135193
864.078	0.0136732
864.156	0.0134886
864.234	0.0135757
864.312	0.0136948
864.390	0.0135486
864.468	0.0136169
864.546	0.0135149
864.624	0.0135255
864.703	0.0136488
864.781	0.0136948
864.859	0.0135539
864.937	0.0137069
865.015	0.0137170
865.093	0.0136987
865.171	0.0137785
865.249	0.0136732
865.328	0.0137895
865.406	0.0138264
865.484	0.0134933
865.562	0.0136752
865.640	0.0136500
865.718	0.0136073
865.796	0.0134709
865.874	0.0134574
865.953	0.0134788
866.031	0.0135616
866.109	0.0135280
866.187	0.0135447
866.265	0.0134531
866.343	0.0133820
866.421	0.0134587
866.499	0.0134113
866.578	0.0135333
866.656	0.0134551
866.734	0.0134350
866.812	0.0133840
866.890	0.0134174
866.968	0.0134974
867.046	0.0134061
867.124	0.0134068
867.203	0.0132968
867.281	0.0135376
867.359	0.0135160
867.437	0.0134487
867.515	0.0136681
867.593	0.0134983
867.671	0.0134572
867.749	0.0135764
867.828	0.0134992
867.906	0.0134756
867.984	0.0134987
868.062	0.0135455
868.140	0.0135389
868.218	0.0135265
868.296	0.0134724
868.374	0.0134565
868.453	0.0136026
868.531	0.0135450
868.609	0.0135620
868.687	0.0136276
868.765	0.0135892
868.843	0.0136340
868.921	0.0137431
868.999	0.0135651
869.078	0.0136946
869.156	0.0135295
869.234	0.0134450
869.312	0.0134689
869.390	0.0135981
869.468	0.0137249
869.546	0.0134975
869.624	0.0133358
869.703	0.0135450
869.781	0.0135583
869.859	0.0134750
869.937	0.0133994
870.015	0.0134090
870.093	0.0134633
870.171	0.0133889
870.249	0.0132415
870.328	0.0134375
870.406	0.0134768
870.484	0.0134619
870.562	0.0133694
870.640	0.0134362
870.718	0.0134621
870.796	0.0133588
870.874	0.0133956
870.953	0.0133214
871.031	0.0134846
871.109	0.0135751
871.187	0.0135156
871.265	0.0134780
871.343	0.0135608
871.421	0.0135117
871.499	0.0134859
871.578	0.0136490
871.656	0.0135397
871.734	0.0135414
871.812	0.0136123
871.890	0.0136187
871.968	0.0135376
872.046	0.0135436
872.124	0.0135432
872.203	0.0136362
872.281	0.0134444
872.359	0.0134967
872.437	0.0135238
872.515	0.0134888
872.593	0.0135250
872.671	0.0135480
872.749	0.0134482
872.828	0.0134973
872.906	0.0134615
872.984	0.0135596
873.062	0.0135257
873.140	0.0134995
873.218	0.0134373
873.296	0.0134628
873.374	0.0135530
873.453	0.0134720
873.531	0.0136687
873.609	0.0134382
873.687	0.0135633
873.765	0.0134861
873.843	0.0135632
873.921	0.0134652
873.999	0.0134521
874.078	0.0134451
874.156	0.0136051
874.234	0.0134629
874.312	0.0132721
874.390	0.0134132
874.468	0.0134448
874.546	0.0133967
874.624	0.0134062
874.703	0.0134908
874.781	0.0134096
874.859	0.0134398
874.937	0.0134419
875.015	0.0135123
875.093	0.0135839
875.171	0.0133807
875.249	0.0134081
875.328	0.0135350
875.406	0.0136217
875.484	0.0136201
875.562	0.0136002
875.640	0.0136124
875.718	0.0136138
875.796	0.0137501
875.874	0.0137177
875.953	0.0136718
876.031	0.0137801
876.109	0.0137846
876.187	0.0137947
876.265	0.0136369
876.343	0.0137479
876.421	0.0138113
876.499	0.0137438
876.578	0.0137163
876.656	0.0137487
876.734	0.0136527
876.812	0.0137796
876.890	0.0137568
876.968	0.0136575
877.046	0.0136234
877.124	0.0137560
877.203	0.0137583
877.281	0.0137175
877.359	0.0137225
877.437	0.0135538
877.515	0.0137424
877.593	0.0136416
877.671	0.0135831
877.749	0.0137897
877.828	0.0137034
877.906	0.0135578
877.984	0.0136976
878.062	0.0135396
878.140	0.0136073
878.218	0.0136589
878.296	0.0135384
878.374	0.0135993
878.453	0.0136810
878.531	0.0136755
878.609	0.0135338
878.687	0.0135718
878.765	0.0135048
878.843	0.0136044
878.921	0.0134994
878.999	0.0135088
879.078	0.0134562
879.156	0.0135297
879.234	0.0134711
879.312	0.0135027
879.390	0.0133943
879.468	0.0133067
879.546	0.0135457
879.624	0.0134766
879.703	0.0134615
879.781	0.0135516
879.859	0.0134476
879.937	0.0135172
880.015	0.0136781
880.093	0.0136221
880.171	0.0136739
880.249	0.0136047
880.328	0.0137237
880.406	0.0137403
880.484	0.0135764
880.562	0.0137582
880.640	0.0138591
880.718	0.0137807
880.796	0.0137766
880.874	0.0137181
880.953	0.0137244
881.031	0.0136314
881.109	0.0136447
881.187	0.0136873
881.265	0.0136797
881.343	0.0136807
881.421	0.0136164
881.499	0.0136925
881.578	0.0136429
881.656	0.0138078
881.734	0.0136667
881.812	0.0137077
881.890	0.0135435
881.968	0.0136351
882.046	0.0137234
882.124	0.0136523
882.203	0.0136352
882.281	0.0135365
882.359	0.0136656
882.437	0.0136147
882.515	0.0135110
882.593	0.0136515
882.671	0.0135285
882.749	0.0135801
882.828	0.0134825
882.906	0.0134843
882.984	0.0135168
883.062	0.0133751
883.140	0.0135362
883.218	0.0134023
883.296	0.0133753
883.374	0.0134273
883.453	0.0133121
883.531	0.0134251
883.609	0.0135280
883.687	0.0134248
883.765	0.0134473
883.843	0.0134429
883.921	0.0133344
883.999	0.0134375
884.078	0.0135485
884.156	0.0134734
884.234	0.0134930
884.312	0.0134112
884.390	0.0134533
884.468	0.0134522
884.546	0.0134844
884.624	0.0134988
884.703	0.0136223
884.781	0.0134557
884.859	0.0135515
884.937	0.0136050
885.015	0.0136640
885.093	0.0134717
885.171	0.0135854
885.249	0.0136616
885.328	0.0136196
885.406	0.0136123
885.484	0.0137406
885.562	0.0136816
885.640	0.0135412
885.718	0.0135448
885.796	0.0136353
885.874	0.0136839
885.953	0.0135580
886.031	0.0135128
886.109	0.0136282
886.187	0.0135979
886.265	0.0135699
886.343	0.0136488
886.421	0.0135099
886.499	0.0135282
886.578	0.0137079
886.656	0.0135551
886.734	0.0135912
886.812	0.0134746
886.890	0.0134277
886.968	0.0135316
887.046	0.0134778
887.124	0.0133714
887.203	0.0133834
887.281	0.0133933
887.359	0.0134695
887.437	0.0133194
887.515	0.0134969
887.593	0.0134623
887.671	0.0134650
887.749	0.0135031
887.828	0.0134600
887.906	0.0134300
887.984	0.0134657
888.062	0.0134928
888.140	0.0133463
888.218	0.0133326
888.296	0.0134188
888.374	0.0133875
888.453	0.0134120
888.531	0.0134081
888.609	0.0134259
888.687	0.0134740
888.765	0.0135448
888.843	0.0135030
888.921	0.0135365
888.999	0.0134441
889.078	0.0134428
889.156	0.0136206
889.234	0.0135081
889.312	0.0135197
889.390	0.0135164
889.468	0.0136102
889.546	0.0135745
889.624	0.0134289
889.703	0.0133347
889.781	0.0134618
889.859	0.0134846
889.937	0.0135973
890.015	0.0136535
890.093	0.0136488
890.171	0.0134756
890.249	0.0132984
890.328	0.0135834
890.406	0.0135926
890.484	0.0134694
890.562	0.0135711
890.640	0.0134847
890.718	0.0136153
890.796	0.0134185
890.874	0.0134247
890.953	0.0134218
891.031	0.0134317
891.109	0.0134042
891.187	0.0135018
891.265	0.0133376
891.343	0.0133769
891.421	0.0134222
891.499	0.0134777
891.578	0.0134059
891.656	0.0134795
891.734	0.0133700
891.812	0.0134876
891.890	0.0134605
891.968	0.0135727
892.046	0.0133771
892.124	0.0135596
892.203	0.0135793
892.281	0.0134248
892.359	0.0135188
892.437	0.0135608
892.515	0.0133887
892.593	0.0135365
892.671	0.0134905
892.749	0.0134323
892.828	0.0135277
892.906	0.0136107
892.984	0.0136127
893.062	0.0135751
893.140	0.0136022
893.218	0.0135252
893.296	0.0136206
893.374	0.0134274
893.453	0.0136522
893.531	0.0137087
893.609	0.0136735
893.687	0.0134852
893.765	0.0134899
893.843	0.0135185
893.921	0.0135116
893.999	0.0136218
894.078	0.0135732
894.156	0.0135548
894.234	0.0134797
894.312	0.0133740
894.390	0.0135700
894.468	0.0133966
894.546	0.0134423
894.624	0.0136364
894.703	0.0134254
894.781	0.0134266
894.859	0.0132827
894.937	0.0134599
895.015	0.0133794
895.093	0.0134909
895.171	0.0134286
895.249	0.0133424
895.328	0.0133220
895.406	0.0134679
895.484	0.0133654
895.562	0.0133167
895.640	0.0134031
895.718	0.0133113
895.796	0.0134546
895.874	0.0134549
895.953	0.0135265
896.031	0.0133403
896.109	0.0134739
896.187	0.0134721
896.265	0.0136847
896.343	0.0134058
896.421	0.0134583
896.499	0.0134959
896.578	0.0136263
896.656	0.0135402
896.734	0.0134673
896.812	0.0135513
896.890	0.0136069
896.968	0.0136841
897.046	0.0135440
897.124	0.0136254
897.203	0.0136595
897.281	0.0136021
897.359	0.0134914
897.437	0.0134721
897.515	0.0135526
897.593	0.0133803
897.671	0.0134605
897.749	0.0135716
897.828	0.0134229
897.906	0.0135860
897.984	0.0135609
898.062	0.0136415
898.140	0.0136284
898.218	0.0134755
898.296	0.0135478
898.374	0.0135466
898.453	0.0134584
898.531	0.0135424
898.609	0.0135392
898.687	0.0135592
898.765	0.0134857
898.843	0.0134653
898.921	0.0134370
898.999	0.0135104
899.078	0.0135011
899.156	0.0134126
899.234	0.0134995
899.312	0.0134914
899.390	0.0136072
899.468	0.0135713
899.546	0.0135032
899.624	0.0134160
899.703	0.0134884
899.781	0.0134726
899.859	0.0136225
899.937	0.0135412
900.015	0.0135823
900.093	0.0135026
900.171	0.0136709
900.249	0.0137383
900.328	0.0135130
900.406	0.0135246
900.484	0.0137753
900.562	0.0136536
900.640	0.0134803
900.718	0.0135503
900.796	0.0136658
900.874	0.0135069
900.953	0.0135905
901.031	0.0136498
901.109	0.0134545
901.187	0.0136188
901.265	0.0135491
901.343	0.0135821
901.421	0.0134878
901.499	0.0134879
901.578	0.0135642
901.656	0.0136133
901.734	0.0136047
901.812	0.0137646
901.890	0.0135720
901.968	0.0134430
902.046	0.0137175
902.124	0.0137064
902.203	0.0135523
902.281	0.0137069
902.359	0.0135423
902.437	0.0136069
902.515	0.0134293
902.593	0.0136058
902.671	0.0135129
902.749	0.0136533
902.828	0.0136383
902.906	0.0134850
902.984	0.0135983
903.062	0.0136890
903.140	0.0134281
903.218	0.0136407
903.296	0.0135900
903.374	0.0135708
903.453	0.0136206
903.531	0.0135947
903.609	0.0135303
903.687	0.0134932
903.765	0.0135569
903.843	0.0135820
903.921	0.0135210
903.999	0.0135426
904.078	0.0134286
904.156	0.0135123
904.234	0.0135351
904.312	0.0135321
904.390	0.0134561
904.468	0.0135441
904.546	0.0134995
904.624	0.0135442
904.703	0.0135455
904.781	0.0135269
904.859	0.0136356
904.937	0.0136289
905.015	0.0136265
905.093	0.0135761
905.171	0.0135464
905.249	0.0135199
905.328	0.0135755
905.406	0.0135909
905.484	0.0135687
905.562	0.0137510
905.640	0.0135731
905.718	0.0135610
905.796	0.0136212
905.874	0.0137305
905.953	0.0136277
906.031	0.0136423
906.109	0.0136803
906.187	0.0136816
906.265	0.0136528
906.343	0.0137848
906.421	0.0138000
906.499	0.0137524
906.578	0.0135664
906.656	0.0136539
906.734	0.0137254
906.812	0.0135509
906.890	0.0136082
906.968	0.0134871
907.046	0.0136381
907.124	0.0137106
907.203	0.0136320
907.281	0.0136188
907.359	0.0135933
907.437	0.0133576
907.515	0.0136086
907.593	0.0134968
907.671	0.0134836
907.749	0.0135750
907.828	0.0135329
907.906	0.0133559
907.984	0.0135895
908.062	0.0135737
908.140	0.0133654
908.218	0.0133692
908.296	0.0133713
908.374	0.0133027
908.453	0.0135356
908.531	0.0133904
908.609	0.0133597
908.687	0.0134272
908.765	0.0134354
908.843	0.0134115
908.921	0.0133508
908.999	0.0134413
909.078	0.0135100
909.156	0.0134264
909.234	0.0135284
909.312	0.0135645
909.390	0.0133297
909.468	0.0133738
909.546	0.0134798
909.624	0.0135934
909.703	0.0136255
909.781	0.0135457
909.859	0.0134962
909.937	0.0136237
910.015	0.0135999
910.093	0.0135181
910.171	0.0133686
910.249	0.0135645
910.328	0.0135027
910.406	0.0136877
910.484	0.0136407
910.562	0.0135593
910.640	0.0135145
910.718	0.0134525
910.796	0.0135503
910.874	0.0136383
910.953	0.0137029
911.031	0.0136888
911.109	0.0136784
911.187	0.0136367
911.265	0.0136362
911.343	0.0136512
911.421	0.0135356
911.499	0.0136124
911.578	0.0136356
911.656	0.0134576
911.734	0.0135098
911.812	0.0135873
911.890	0.0135611
911.968	0.0134903
912.046	0.0136229
912.124	0.0133430
912.203	0.0136544
912.281	0.0135168
912.359	0.0134707
912.437	0.0134567
912.515	0.0134364
912.593	0.0135665
912.671	0.0134186
912.749	0.0134617
912.828	0.0134814
912.906	0.0135247
912.984	0.0133976
913.062	0.0136512
913.140	0.0134782
913.218	0.0134656
913.296	0.0134050
913.374	0.0134068
913.453	0.0136038
913.531	0.0135661
913.609	0.0136100
913.687	0.0136674
913.765	0.0134798
913.843	0.0133665
913.921	0.0134371
913.999	0.0134991
914.078	0.0135357
914.156	0.0134477
914.234	0.0136759
914.312	0.0135114
914.390	0.0134476
914.468	0.0135776
914.546	0.0134348
914.624	0.0135279
914.703	0.0134808
914.781	0.0135974
914.859	0.0134094
914.937	0.0135456
915.015	0.0135752
915.093	0.0136065
915.171	0.0134737
915.249	0.0135606
915.328	0.0135223
915.406	0.0134857
915.484	0.0135301
915.562	0.0137170
915.640	0.0136592
915.718	0.0135495
915.796	0.0135361
915.874	0.0136716
915.953	0.0135777
916.031	0.0134184
916.109	0.0134769
916.187	0.0135607
916.265	0.0136461
916.343	0.0135879
916.421	0.0135069
916.499	0.0135618
916.578	0.0135861
916.656	0.0134681
916.734	0.0135621
916.812	0.0134547
916.890	0.0136205
916.968	0.0135614
917.046	0.0135300
917.124	0.0135526
917.203	0.0135026
917.281	0.0134775
917.359	0.0133872
917.437	0.0135987
917.515	0.0135250
917.593	0.0135168
917.671	0.0134267
917.749	0.0134024
917.828	0.0134150
917.906	0.0134909
917.984	0.0135789
918.062	0.0134639
918.140	0.0135153
918.218	0.0135414
918.296	0.0135702
918.374	0.0134245
918.453	0.0134474
918.531	0.0134990
918.609	0.0135564
918.687	0.0135171
918.765	0.0134616
918.843	0.0135802
918.921	0.0135419
918.999	0.0135525
919.078	0.0135848
919.156	0.0134861
919.234	0.0136664
919.312	0.0135302
919.390	0.0135117
919.468	0.0136156
919.546	0.0135316
919.624	0.0134458
919.703	0.0136767
919.781	0.0134360
919.859	0.0136028
919.937	0.0134733
