05/08/2022	20:25:27	Ver.	4.1	UNKNOWN
Optical Delay	600.015094	Delta X		0.078125	Sweeps	1	Scan Rate	0/0
Coordinates	Axis 1	NaN	Axis 2	NaN	Axis 3	NaN	Axis 4	NaN	Axis 5	NaN	Axis 6	0.000000
TX Power	0.000000	RX Power	0.000000

600.015	0.0133525
600.093	0.0133336
600.171	0.0132915
600.249	0.0133422
600.328	0.0133171
600.406	0.0133172
600.484	0.0131847
600.562	0.0131916
600.640	0.0134323
600.718	0.0132939
600.796	0.0131518
600.874	0.0130895
600.953	0.0132697
601.031	0.0133068
601.109	0.0133472
601.187	0.0131853
601.265	0.0132342
601.343	0.0132286
601.421	0.0133283
601.499	0.0133915
601.578	0.0134066
601.656	0.0133505
601.734	0.0134622
601.812	0.0133971
601.890	0.0134535
601.968	0.0133900
602.046	0.0133025
602.124	0.0133302
602.203	0.0134123
602.281	0.0134262
602.359	0.0134912
602.437	0.0135395
602.515	0.0134127
602.593	0.0133884
602.671	0.0133406
602.749	0.0134273
602.828	0.0134401
602.906	0.0132971
602.984	0.0133079
603.062	0.0132996
603.140	0.0131772
603.218	0.0132978
603.296	0.0134014
603.374	0.0133021
603.453	0.0133490
603.531	0.0134155
603.609	0.0134058
603.687	0.0134510
603.765	0.0134091
603.843	0.0134940
603.921	0.0135587
603.999	0.0134316
604.078	0.0135376
604.156	0.0134455
604.234	0.0133046
604.312	0.0134170
604.390	0.0133888
604.468	0.0134193
604.546	0.0134988
604.624	0.0134106
604.703	0.0135838
604.781	0.0135545
604.859	0.0134538
604.937	0.0134789
605.015	0.0134405
605.093	0.0135247
605.171	0.0134047
605.249	0.0134923
605.328	0.0134645
605.406	0.0134892
605.484	0.0134490
605.562	0.0134108
605.640	0.0135083
605.718	0.0134542
605.796	0.0135036
605.874	0.0135413
605.953	0.0134359
606.031	0.0135888
606.109	0.0134702
606.187	0.0134472
606.265	0.0134489
606.343	0.0134791
606.421	0.0134686
606.499	0.0135600
606.578	0.0135766
606.656	0.0134712
606.734	0.0135241
606.812	0.0135017
606.890	0.0135410
606.968	0.0134589
607.046	0.0135288
607.124	0.0136396
607.203	0.0135910
607.281	0.0135478
607.359	0.0134894
607.437	0.0136110
607.515	0.0135490
607.593	0.0135731
607.671	0.0135167
607.749	0.0135455
607.828	0.0135055
607.906	0.0135896
607.984	0.0135738
608.062	0.0134171
608.140	0.0133131
608.218	0.0134401
608.296	0.0134803
608.374	0.0134521
608.453	0.0134653
608.531	0.0133636
608.609	0.0134632
608.687	0.0135622
608.765	0.0135751
608.843	0.0134164
608.921	0.0135747
608.999	0.0135786
609.078	0.0135223
609.156	0.0135420
609.234	0.0133654
609.312	0.0134219
609.390	0.0135240
609.468	0.0134663
609.546	0.0136005
609.624	0.0133839
609.703	0.0133774
609.781	0.0134265
609.859	0.0134231
609.937	0.0134926
610.015	0.0135397
610.093	0.0135759
610.171	0.0133861
610.249	0.0134045
610.328	0.0133560
610.406	0.0135852
610.484	0.0135332
610.562	0.0133887
610.640	0.0133764
610.718	0.0133519
610.796	0.0134192
610.874	0.0134611
610.953	0.0132684
611.031	0.0133677
611.109	0.0135113
611.187	0.0133711
611.265	0.0134595
611.343	0.0134543
611.421	0.0135510
611.499	0.0134477
611.578	0.0133812
611.656	0.0134691
611.734	0.0133366
611.812	0.0134406
611.890	0.0133247
611.968	0.0133530
612.046	0.0133714
612.124	0.0134298
612.203	0.0133715
612.281	0.0134113
612.359	0.0133688
612.437	0.0132913
612.515	0.0134462
612.593	0.0133263
612.671	0.0134270
612.749	0.0133378
612.828	0.0133444
612.906	0.0134676
612.984	0.0133444
613.062	0.0132864
613.140	0.0133756
613.218	0.0134151
613.296	0.0133060
613.374	0.0135323
613.453	0.0133505
613.531	0.0133295
613.609	0.0133845
613.687	0.0135133
613.765	0.0134727
613.843	0.0135278
613.921	0.0134959
613.999	0.0133801
614.078	0.0134696
614.156	0.0135019
614.234	0.0133415
614.312	0.0134913
614.390	0.0134088
614.468	0.0134275
614.546	0.0134903
614.624	0.0135748
614.703	0.0135039
614.781	0.0136186
614.859	0.0135379
614.937	0.0135613
615.015	0.0135719
615.093	0.0135454
615.171	0.0135925
615.249	0.0135796
615.328	0.0135237
615.406	0.0135024
615.484	0.0136338
615.562	0.0134591
615.640	0.0134993
615.718	0.0135785
615.796	0.0133653
615.874	0.0133997
615.953	0.0135412
616.031	0.0133830
616.109	0.0136588
616.187	0.0135722
616.265	0.0134299
616.343	0.0133318
616.421	0.0134800
616.499	0.0135509
616.578	0.0135222
616.656	0.0134661
616.734	0.0132974
616.812	0.0134309
616.890	0.0135895
616.968	0.0134334
617.046	0.0133963
617.124	0.0135217
617.203	0.0134937
617.281	0.0133038
617.359	0.0135737
617.437	0.0134441
617.515	0.0135994
617.593	0.0134897
617.671	0.0135223
617.749	0.0133586
617.828	0.0135166
617.906	0.0134917
617.984	0.0133057
618.062	0.0133971
618.140	0.0134598
618.218	0.0135112
618.296	0.0133822
618.374	0.0134296
618.453	0.0134499
618.531	0.0132885
618.609	0.0134482
618.687	0.0134074
618.765	0.0134277
618.843	0.0135851
618.921	0.0134772
618.999	0.0134186
619.078	0.0132357
619.156	0.0133637
619.234	0.0133508
619.312	0.0133012
619.390	0.0133084
619.468	0.0133982
619.546	0.0133974
619.624	0.0134077
619.703	0.0133111
619.781	0.0133398
619.859	0.0134782
619.937	0.0133295
620.015	0.0133636
620.093	0.0133274
620.171	0.0134660
620.249	0.0136018
620.328	0.0135025
620.406	0.0134053
620.484	0.0134478
620.562	0.0134122
620.640	0.0133752
620.718	0.0133978
620.796	0.0134261
620.874	0.0133920
620.953	0.0133925
621.031	0.0133237
621.109	0.0131817
621.187	0.0132447
621.265	0.0132882
621.343	0.0132722
621.421	0.0133112
621.499	0.0132697
621.578	0.0132951
621.656	0.0131991
621.734	0.0134522
621.812	0.0133961
621.890	0.0131985
621.968	0.0131842
622.046	0.0132681
622.124	0.0132050
622.203	0.0133147
622.281	0.0132855
622.359	0.0132034
622.437	0.0132492
622.515	0.0132976
622.593	0.0133130
622.671	0.0132883
622.749	0.0133337
622.828	0.0131099
622.906	0.0130927
622.984	0.0133057
623.062	0.0132440
623.140	0.0133118
623.218	0.0132471
623.296	0.0132729
623.374	0.0131556
623.453	0.0133081
623.531	0.0132726
623.609	0.0133825
623.687	0.0134885
623.765	0.0133849
623.843	0.0133372
623.921	0.0133144
623.999	0.0133795
624.078	0.0133456
624.156	0.0134290
624.234	0.0134100
624.312	0.0135868
624.390	0.0134444
624.468	0.0133934
624.546	0.0133751
624.624	0.0133932
624.703	0.0135898
624.781	0.0135304
624.859	0.0134882
624.937	0.0135800
625.015	0.0135038
625.093	0.0135023
625.171	0.0135329
625.249	0.0135115
625.328	0.0136332
625.406	0.0134879
625.484	0.0135078
625.562	0.0135944
625.640	0.0137312
625.718	0.0136214
625.796	0.0136113
625.874	0.0136166
625.953	0.0136014
626.031	0.0136782
626.109	0.0137107
626.187	0.0136481
626.265	0.0136096
626.343	0.0136965
626.421	0.0137357
626.499	0.0136345
626.578	0.0136312
626.656	0.0137661
626.734	0.0136100
626.812	0.0135155
626.890	0.0136113
626.968	0.0135357
627.046	0.0136333
627.124	0.0136028
627.203	0.0135468
627.281	0.0135081
627.359	0.0134948
627.437	0.0135808
627.515	0.0135661
627.593	0.0135313
627.671	0.0134885
627.749	0.0134502
627.828	0.0135993
627.906	0.0136483
627.984	0.0136179
628.062	0.0134905
628.140	0.0134378
628.218	0.0135477
628.296	0.0135506
628.374	0.0134801
628.453	0.0136170
628.531	0.0134724
628.609	0.0135357
628.687	0.0135269
628.765	0.0135935
628.843	0.0134943
628.921	0.0136568
628.999	0.0135016
629.078	0.0135313
629.156	0.0136014
629.234	0.0135828
629.312	0.0134727
629.390	0.0135515
629.468	0.0133511
629.546	0.0135339
629.624	0.0134721
629.703	0.0133744
629.781	0.0134280
629.859	0.0133739
629.937	0.0135644
630.015	0.0134013
630.093	0.0133668
630.171	0.0132970
630.249	0.0133588
630.328	0.0134338
630.406	0.0133551
630.484	0.0134173
630.562	0.0133729
630.640	0.0133405
630.718	0.0133154
630.796	0.0134097
630.874	0.0133871
630.953	0.0134003
631.031	0.0134411
631.109	0.0134056
631.187	0.0133928
631.265	0.0134315
631.343	0.0134517
631.421	0.0134783
631.499	0.0132915
631.578	0.0134338
631.656	0.0133484
631.734	0.0134203
631.812	0.0133787
631.890	0.0134803
631.968	0.0133658
632.046	0.0134451
632.124	0.0134150
632.203	0.0133504
632.281	0.0134330
632.359	0.0134063
632.437	0.0135991
632.515	0.0135020
632.593	0.0134599
632.671	0.0134622
632.749	0.0134339
632.828	0.0135529
632.906	0.0135023
632.984	0.0134863
633.062	0.0136060
633.140	0.0135716
633.218	0.0135140
633.296	0.0134850
633.374	0.0135493
633.453	0.0134081
633.531	0.0133959
633.609	0.0135870
633.687	0.0135065
633.765	0.0134702
633.843	0.0133658
633.921	0.0135059
633.999	0.0134425
634.078	0.0134822
634.156	0.0135281
634.234	0.0134431
634.312	0.0137679
634.390	0.0134591
634.468	0.0134599
634.546	0.0136611
634.624	0.0135826
634.703	0.0135490
634.781	0.0135049
634.859	0.0134938
634.937	0.0135359
635.015	0.0135960
635.093	0.0136401
635.171	0.0135658
635.249	0.0136172
635.328	0.0135480
635.406	0.0135083
635.484	0.0135421
635.562	0.0135790
635.640	0.0135046
635.718	0.0135419
635.796	0.0134777
635.874	0.0135639
635.953	0.0135303
636.031	0.0135545
636.109	0.0134996
636.187	0.0134178
636.265	0.0135062
636.343	0.0132903
636.421	0.0134799
636.499	0.0134914
636.578	0.0133615
636.656	0.0133516
636.734	0.0133045
636.812	0.0133009
636.890	0.0133082
636.968	0.0133630
637.046	0.0135221
637.124	0.0134927
637.203	0.0134743
637.281	0.0135289
637.359	0.0134559
637.437	0.0134460
637.515	0.0135077
637.593	0.0135590
637.671	0.0135650
637.749	0.0134946
637.828	0.0135067
637.906	0.0134203
637.984	0.0134827
638.062	0.0134534
638.140	0.0135917
638.218	0.0134386
638.296	0.0133862
638.374	0.0134283
638.453	0.0134747
638.531	0.0133392
638.609	0.0133431
638.687	0.0133654
638.765	0.0134544
638.843	0.0135286
638.921	0.0133883
638.999	0.0134856
639.078	0.0135789
639.156	0.0134865
639.234	0.0134756
639.312	0.0134401
639.390	0.0134741
639.468	0.0135367
639.546	0.0135006
639.624	0.0133515
639.703	0.0134748
639.781	0.0135157
639.859	0.0134368
639.937	0.0133583
640.015	0.0133351
640.093	0.0133686
640.171	0.0133743
640.249	0.0134506
640.328	0.0132487
640.406	0.0132710
640.484	0.0132922
640.562	0.0134909
640.640	0.0132277
640.718	0.0133176
640.796	0.0133156
640.874	0.0133903
640.953	0.0131153
641.031	0.0130988
641.109	0.0131272
641.187	0.0132311
641.265	0.0131483
641.343	0.0133976
641.421	0.0133744
641.499	0.0133843
641.578	0.0134284
641.656	0.0134755
641.734	0.0134451
641.812	0.0136042
641.890	0.0136123
641.968	0.0136182
642.046	0.0137576
642.124	0.0136357
642.203	0.0135942
642.281	0.0136616
642.359	0.0136308
642.437	0.0136961
642.515	0.0135529
642.593	0.0134952
642.671	0.0136444
642.749	0.0136755
642.828	0.0135313
642.906	0.0135486
642.984	0.0134909
643.062	0.0134816
643.140	0.0134913
643.218	0.0135598
643.296	0.0135358
643.374	0.0132784
643.453	0.0132719
643.531	0.0132459
643.609	0.0131699
643.687	0.0131059
643.765	0.0131103
643.843	0.0131216
643.921	0.0129334
643.999	0.0130302
644.078	0.0128781
644.156	0.0129969
644.234	0.0129826
644.312	0.0130767
644.390	0.0130312
644.468	0.0130776
644.546	0.0131493
644.624	0.0131353
644.703	0.0134049
644.781	0.0134454
644.859	0.0135124
644.937	0.0136163
645.015	0.0139400
645.093	0.0139848
645.171	0.0140384
645.249	0.0141685
645.328	0.0143840
645.406	0.0144283
645.484	0.0145161
645.562	0.0145265
645.640	0.0145235
645.718	0.0146125
645.796	0.0145034
645.874	0.0143680
645.953	0.0143368
646.031	0.0141600
646.109	0.0140881
646.187	0.0139796
646.265	0.0137348
646.343	0.0135509
646.421	0.0134850
646.499	0.0132398
646.578	0.0130165
646.656	0.0128583
646.734	0.0127934
646.812	0.0126289
646.890	0.0124033
646.968	0.0123843
647.046	0.0123101
647.124	0.0122682
647.203	0.0123154
647.281	0.0122836
647.359	0.0123263
647.437	0.0122916
647.515	0.0125049
647.593	0.0125169
647.671	0.0126938
647.749	0.0126765
647.828	0.0128996
647.906	0.0130412
647.984	0.0132214
648.062	0.0134035
648.140	0.0135663
648.218	0.0137154
648.296	0.0139975
648.374	0.0139289
648.453	0.0141318
648.531	0.0143229
648.609	0.0145163
648.687	0.0144566
648.765	0.0144591
648.843	0.0146574
648.921	0.0146728
648.999	0.0146342
649.078	0.0145986
649.156	0.0145179
649.234	0.0145809
649.312	0.0144444
649.390	0.0142731
649.468	0.0142838
649.546	0.0142330
649.624	0.0140766
649.703	0.0140556
649.781	0.0138685
649.859	0.0137290
649.937	0.0136427
650.015	0.0136285
650.093	0.0133606
650.171	0.0131196
650.249	0.0132267
650.328	0.0130424
650.406	0.0128906
650.484	0.0128471
650.562	0.0128358
650.640	0.0127430
650.718	0.0126075
650.796	0.0125487
650.874	0.0124460
650.953	0.0124769
651.031	0.0123730
651.109	0.0122961
651.187	0.0122837
651.265	0.0124432
651.343	0.0123534
651.421	0.0121989
651.499	0.0124226
651.578	0.0123425
651.656	0.0125335
651.734	0.0125398
651.812	0.0126982
651.890	0.0127934
651.968	0.0129169
652.046	0.0131161
652.124	0.0134177
652.203	0.0133110
652.281	0.0135739
652.359	0.0135982
652.437	0.0136743
652.515	0.0140173
652.593	0.0142529
652.671	0.0143397
652.749	0.0144963
652.828	0.0146269
652.906	0.0148005
652.984	0.0149370
653.062	0.0150393
653.140	0.0151051
653.218	0.0150339
653.296	0.0150203
653.374	0.0150140
653.453	0.0151416
653.531	0.0151530
653.609	0.0151139
653.687	0.0148858
653.765	0.0147305
653.843	0.0144909
653.921	0.0144586
653.999	0.0140873
654.078	0.0139421
654.156	0.0137460
654.234	0.0133707
654.312	0.0131916
654.390	0.0127117
654.468	0.0124694
654.546	0.0123015
654.624	0.0123528
654.703	0.0119711
654.781	0.0114890
654.859	0.0114257
654.937	0.0113636
655.015	0.0110966
655.093	0.0111116
655.171	0.0109637
655.249	0.0108918
655.328	0.0108778
655.406	0.0110468
655.484	0.0110921
655.562	0.0113061
655.640	0.0114305
655.718	0.0116979
655.796	0.0119096
655.874	0.0121834
655.953	0.0125302
656.031	0.0129080
656.109	0.0131187
656.187	0.0135331
656.265	0.0140001
656.343	0.0140751
656.421	0.0145123
656.499	0.0148988
656.578	0.0152155
656.656	0.0154645
656.734	0.0158380
656.812	0.0158735
656.890	0.0160828
656.968	0.0161842
657.046	0.0163114
657.124	0.0162207
657.203	0.0162500
657.281	0.0161176
657.359	0.0161183
657.437	0.0161002
657.515	0.0158411
657.593	0.0154790
657.671	0.0152302
657.749	0.0149136
657.828	0.0146336
657.906	0.0142923
657.984	0.0140244
658.062	0.0136059
658.140	0.0133344
658.218	0.0130088
658.296	0.0125735
658.374	0.0121368
658.453	0.0118378
658.531	0.0115775
658.609	0.0113589
658.687	0.0110998
658.765	0.0109945
658.843	0.0109053
658.921	0.0107097
658.999	0.0107793
659.078	0.0107195
659.156	0.0107285
659.234	0.0108784
659.312	0.0110725
659.390	0.0111771
659.468	0.0114691
659.546	0.0115303
659.624	0.0117286
659.703	0.0120586
659.781	0.0122425
659.859	0.0125648
659.937	0.0127446
660.015	0.0129447
660.093	0.0132335
660.171	0.0134807
660.249	0.0136787
660.328	0.0140687
660.406	0.0143011
660.484	0.0145020
660.562	0.0147484
660.640	0.0151020
660.718	0.0152093
660.796	0.0152229
660.874	0.0155933
660.953	0.0156583
661.031	0.0155928
661.109	0.0157076
661.187	0.0158946
661.265	0.0159213
661.343	0.0158740
661.421	0.0158829
661.499	0.0158291
661.578	0.0157422
661.656	0.0154714
661.734	0.0153165
661.812	0.0150988
661.890	0.0151433
661.968	0.0148995
662.046	0.0144397
662.124	0.0142575
662.203	0.0141226
662.281	0.0138190
662.359	0.0134361
662.437	0.0131454
662.515	0.0127593
662.593	0.0125712
662.671	0.0123360
662.749	0.0122757
662.828	0.0118582
662.906	0.0115264
662.984	0.0114595
663.062	0.0113190
663.140	0.0112620
663.218	0.0112851
663.296	0.0111417
663.374	0.0111098
663.453	0.0112524
663.531	0.0112488
663.609	0.0113416
663.687	0.0114744
663.765	0.0117443
663.843	0.0118298
663.921	0.0118266
663.999	0.0121453
664.078	0.0123525
664.156	0.0126734
664.234	0.0127480
664.312	0.0129610
664.390	0.0135121
664.468	0.0134583
664.546	0.0137252
664.624	0.0138676
664.703	0.0141615
664.781	0.0143675
664.859	0.0145727
664.937	0.0147852
665.015	0.0148541
665.093	0.0149589
665.171	0.0151035
665.249	0.0152186
665.328	0.0152029
665.406	0.0152335
665.484	0.0152660
665.562	0.0151284
665.640	0.0151059
665.718	0.0149809
665.796	0.0148990
665.874	0.0147218
665.953	0.0145906
666.031	0.0144579
666.109	0.0141685
666.187	0.0139665
666.265	0.0137827
666.343	0.0136228
666.421	0.0135386
666.499	0.0133686
666.578	0.0132663
666.656	0.0129418
666.734	0.0129565
666.812	0.0127922
666.890	0.0126882
666.968	0.0125685
667.046	0.0125839
667.124	0.0125089
667.203	0.0125313
667.281	0.0124271
667.359	0.0123946
667.437	0.0124110
667.515	0.0123585
667.593	0.0124182
667.671	0.0126398
667.749	0.0126995
667.828	0.0127126
667.906	0.0127303
667.984	0.0127553
668.062	0.0128693
668.140	0.0130566
668.218	0.0131208
668.296	0.0132208
668.374	0.0133116
668.453	0.0135104
668.531	0.0134541
668.609	0.0137759
668.687	0.0137997
668.765	0.0138314
668.843	0.0138517
668.921	0.0138270
668.999	0.0138001
669.078	0.0139560
669.156	0.0139333
669.234	0.0138580
669.312	0.0137930
669.390	0.0138336
669.468	0.0137645
669.546	0.0137435
669.624	0.0136459
669.703	0.0137290
669.781	0.0137789
669.859	0.0136475
669.937	0.0136008
670.015	0.0135789
670.093	0.0135313
670.171	0.0134363
670.249	0.0134038
670.328	0.0134527
670.406	0.0134050
670.484	0.0131708
670.562	0.0132079
670.640	0.0131541
670.718	0.0130187
670.796	0.0130988
670.874	0.0130775
670.953	0.0130957
671.031	0.0130266
671.109	0.0131419
671.187	0.0130834
671.265	0.0130496
671.343	0.0131003
671.421	0.0130206
671.499	0.0131018
671.578	0.0132816
671.656	0.0133928
671.734	0.0134862
671.812	0.0136152
671.890	0.0138626
671.968	0.0138982
672.046	0.0138083
672.124	0.0140540
672.203	0.0139587
672.281	0.0140297
672.359	0.0141547
672.437	0.0142036
672.515	0.0142953
672.593	0.0141359
672.671	0.0141026
672.749	0.0141628
672.828	0.0140579
672.906	0.0139333
672.984	0.0139665
673.062	0.0138585
673.140	0.0139026
673.218	0.0138374
673.296	0.0138386
673.374	0.0137712
673.453	0.0136606
673.531	0.0135689
673.609	0.0134412
673.687	0.0134875
673.765	0.0133470
673.843	0.0131734
673.921	0.0132154
673.999	0.0130420
674.078	0.0130271
674.156	0.0129895
674.234	0.0128492
674.312	0.0129118
674.390	0.0128097
674.468	0.0126704
674.546	0.0128240
674.624	0.0129223
674.703	0.0127283
674.781	0.0127225
674.859	0.0128577
674.937	0.0128431
675.015	0.0127822
675.093	0.0129513
675.171	0.0130387
675.249	0.0129711
675.328	0.0130140
675.406	0.0130463
675.484	0.0130679
675.562	0.0131150
675.640	0.0131857
675.718	0.0131362
675.796	0.0132037
675.874	0.0132664
675.953	0.0132919
676.031	0.0134103
676.109	0.0132587
676.187	0.0132106
676.265	0.0133402
676.343	0.0132218
676.421	0.0134566
676.499	0.0134191
676.578	0.0134370
676.656	0.0134393
676.734	0.0135681
676.812	0.0136769
676.890	0.0137160
676.968	0.0138073
677.046	0.0137350
677.124	0.0137034
677.203	0.0137953
677.281	0.0137975
677.359	0.0138394
677.437	0.0137160
677.515	0.0138084
677.593	0.0137102
677.671	0.0136797
677.749	0.0137740
677.828	0.0137255
677.906	0.0137483
677.984	0.0136683
678.062	0.0137018
678.140	0.0137030
678.218	0.0136257
678.296	0.0135619
678.374	0.0135167
678.453	0.0135364
678.531	0.0133769
678.609	0.0134142
678.687	0.0134846
678.765	0.0133633
678.843	0.0132864
678.921	0.0132887
678.999	0.0132067
679.078	0.0132417
679.156	0.0132631
679.234	0.0133205
679.312	0.0130459
679.390	0.0130670
679.468	0.0129797
679.546	0.0130193
679.624	0.0130471
679.703	0.0131541
679.781	0.0130559
679.859	0.0131181
679.937	0.0131358
680.015	0.0130820
680.093	0.0131721
680.171	0.0133071
680.249	0.0131629
680.328	0.0130755
680.406	0.0131784
680.484	0.0132769
680.562	0.0132262
680.640	0.0130602
680.718	0.0132830
680.796	0.0131702
680.874	0.0132613
680.953	0.0130716
681.031	0.0130521
681.109	0.0129485
681.187	0.0129295
681.265	0.0129305
681.343	0.0127819
681.421	0.0127850
681.499	0.0128023
681.578	0.0126768
681.656	0.0126585
681.734	0.0128341
681.812	0.0127898
681.890	0.0127866
681.968	0.0129277
682.046	0.0128255
682.124	0.0130231
682.203	0.0131721
682.281	0.0133037
682.359	0.0133591
682.437	0.0134964
682.515	0.0135742
682.593	0.0138191
682.671	0.0138696
682.749	0.0141235
682.828	0.0142538
682.906	0.0142599
682.984	0.0142856
683.062	0.0143233
683.140	0.0145095
683.218	0.0145361
683.296	0.0145205
683.374	0.0144332
683.453	0.0146169
683.531	0.0144633
683.609	0.0142702
683.687	0.0143687
683.765	0.0143060
683.843	0.0140809
683.921	0.0141573
683.999	0.0140676
684.078	0.0138524
684.156	0.0137543
684.234	0.0137083
684.312	0.0136583
684.390	0.0135393
684.468	0.0134335
684.546	0.0133360
684.624	0.0131960
684.703	0.0132185
684.781	0.0132439
684.859	0.0131672
684.937	0.0129300
685.015	0.0129064
685.093	0.0128133
685.171	0.0128911
685.249	0.0128772
685.328	0.0129877
685.406	0.0129786
685.484	0.0129723
685.562	0.0130560
685.640	0.0130391
685.718	0.0130930
685.796	0.0131117
685.874	0.0129588
685.953	0.0131390
686.031	0.0132043
686.109	0.0130943
686.187	0.0131971
686.265	0.0132052
686.343	0.0131135
686.421	0.0130750
686.499	0.0132465
686.578	0.0133082
686.656	0.0132120
686.734	0.0131705
686.812	0.0133070
686.890	0.0133071
686.968	0.0130976
687.046	0.0130870
687.124	0.0132299
687.203	0.0131952
687.281	0.0131508
687.359	0.0132214
687.437	0.0132117
687.515	0.0132856
687.593	0.0133080
687.671	0.0135067
687.749	0.0135247
687.828	0.0134743
687.906	0.0134637
687.984	0.0134998
688.062	0.0137023
688.140	0.0137058
688.218	0.0139326
688.296	0.0139758
688.374	0.0139204
688.453	0.0141578
688.531	0.0142992
688.609	0.0142320
688.687	0.0143237
688.765	0.0144772
688.843	0.0145326
688.921	0.0144240
688.999	0.0144748
689.078	0.0146100
689.156	0.0144991
689.234	0.0144232
689.312	0.0143465
689.390	0.0143858
689.468	0.0142329
689.546	0.0141016
689.624	0.0140535
689.703	0.0137714
689.781	0.0137856
689.859	0.0137226
689.937	0.0136400
690.015	0.0135017
690.093	0.0134296
690.171	0.0133996
690.249	0.0135206
690.328	0.0133400
690.406	0.0132346
690.484	0.0132590
690.562	0.0134150
690.640	0.0134300
690.718	0.0131522
690.796	0.0131846
690.874	0.0131821
690.953	0.0131226
691.031	0.0130839
691.109	0.0132184
691.187	0.0130864
691.265	0.0128937
691.343	0.0128139
691.421	0.0129269
691.499	0.0128023
691.578	0.0129536
691.656	0.0129153
691.734	0.0128825
691.812	0.0127564
691.890	0.0129186
691.968	0.0129839
692.046	0.0130276
692.124	0.0130971
692.203	0.0131755
692.281	0.0132156
692.359	0.0131942
692.437	0.0133351
692.515	0.0134612
692.593	0.0132536
692.671	0.0134172
692.749	0.0135915
692.828	0.0135696
692.906	0.0135096
692.984	0.0136287
693.062	0.0137516
693.140	0.0134510
693.218	0.0135681
693.296	0.0136619
693.374	0.0138285
693.453	0.0137135
693.531	0.0136095
693.609	0.0137863
693.687	0.0138943
693.765	0.0139575
693.843	0.0138306
693.921	0.0140322
693.999	0.0140293
694.078	0.0139466
694.156	0.0139608
694.234	0.0138612
694.312	0.0138159
694.390	0.0137608
694.468	0.0138368
694.546	0.0136913
694.624	0.0138750
694.703	0.0137235
694.781	0.0137374
694.859	0.0137169
694.937	0.0136876
695.015	0.0136189
695.093	0.0135682
695.171	0.0134830
695.249	0.0135194
695.328	0.0134576
695.406	0.0134111
695.484	0.0133418
695.562	0.0133726
695.640	0.0133073
695.718	0.0132638
695.796	0.0131519
695.874	0.0132275
695.953	0.0133018
696.031	0.0131482
696.109	0.0131721
696.187	0.0132993
696.265	0.0132234
696.343	0.0132391
696.421	0.0132217
696.499	0.0132120
696.578	0.0133364
696.656	0.0131795
696.734	0.0133617
696.812	0.0132447
696.890	0.0132658
696.968	0.0132158
697.046	0.0131245
697.124	0.0131654
697.203	0.0131764
697.281	0.0132174
697.359	0.0133516
697.437	0.0133791
697.515	0.0131898
697.593	0.0132410
697.671	0.0132601
697.749	0.0133147
697.828	0.0134297
697.906	0.0133974
697.984	0.0133128
698.062	0.0132900
698.140	0.0134509
698.218	0.0134476
698.296	0.0133939
698.374	0.0133311
698.453	0.0133469
698.531	0.0135522
698.609	0.0133451
698.687	0.0132336
698.765	0.0133151
698.843	0.0131811
698.921	0.0132020
698.999	0.0131521
699.078	0.0129273
699.156	0.0131247
699.234	0.0130937
699.312	0.0130606
699.390	0.0131260
699.468	0.0131657
699.546	0.0129633
699.624	0.0131172
699.703	0.0131068
699.781	0.0130987
699.859	0.0131898
699.937	0.0131672
700.015	0.0132478
700.093	0.0131448
700.171	0.0132457
700.249	0.0132196
700.328	0.0132320
700.406	0.0133220
700.484	0.0134317
700.562	0.0134309
700.640	0.0134596
700.718	0.0135014
700.796	0.0133286
700.874	0.0135345
700.953	0.0136266
701.031	0.0139025
701.109	0.0136139
701.187	0.0136132
701.265	0.0137306
701.343	0.0139552
701.421	0.0138312
701.499	0.0139317
701.578	0.0138517
701.656	0.0139265
701.734	0.0140100
701.812	0.0141349
701.890	0.0140041
701.968	0.0139866
702.046	0.0139465
702.124	0.0141232
702.203	0.0139880
702.281	0.0138734
702.359	0.0139094
702.437	0.0138400
702.515	0.0137177
702.593	0.0135934
702.671	0.0137289
702.749	0.0134196
702.828	0.0132442
702.906	0.0131052
702.984	0.0132875
703.062	0.0131945
703.140	0.0131633
703.218	0.0129911
703.296	0.0129672
703.374	0.0130325
703.453	0.0129342
703.531	0.0129067
703.609	0.0130624
703.687	0.0130818
703.765	0.0128568
703.843	0.0130052
703.921	0.0129066
703.999	0.0132156
704.078	0.0133561
704.156	0.0134435
704.234	0.0133698
704.312	0.0134370
704.390	0.0134909
704.468	0.0136559
704.546	0.0136989
704.624	0.0138821
704.703	0.0137759
704.781	0.0138998
704.859	0.0138444
704.937	0.0136817
705.015	0.0137146
705.093	0.0136909
705.171	0.0134863
705.249	0.0133982
705.328	0.0134501
705.406	0.0133638
705.484	0.0132475
705.562	0.0130927
705.640	0.0131393
705.718	0.0129805
705.796	0.0129163
705.874	0.0129668
705.953	0.0128780
706.031	0.0128455
706.109	0.0128676
706.187	0.0128353
706.265	0.0128651
706.343	0.0128684
706.421	0.0128886
706.499	0.0127396
706.578	0.0128511
706.656	0.0127827
706.734	0.0127484
706.812	0.0129147
706.890	0.0129900
706.968	0.0128674
707.046	0.0129146
707.124	0.0130064
707.203	0.0130743
707.281	0.0132269
707.359	0.0131923
707.437	0.0133071
707.515	0.0136185
707.593	0.0135536
707.671	0.0135065
707.749	0.0136880
707.828	0.0137001
707.906	0.0137372
707.984	0.0138992
708.062	0.0139176
708.140	0.0138707
708.218	0.0139996
708.296	0.0139944
708.374	0.0141368
708.453	0.0140751
708.531	0.0140185
708.609	0.0140269
708.687	0.0139803
708.765	0.0138828
708.843	0.0138720
708.921	0.0138242
708.999	0.0137662
709.078	0.0138080
709.156	0.0136673
709.234	0.0136008
709.312	0.0135396
709.390	0.0136852
709.468	0.0135381
709.546	0.0134069
709.624	0.0135081
709.703	0.0135574
709.781	0.0134467
709.859	0.0133477
709.937	0.0133292
710.015	0.0132343
710.093	0.0132388
710.171	0.0133391
710.249	0.0131353
710.328	0.0130666
710.406	0.0131282
710.484	0.0130950
710.562	0.0130229
710.640	0.0129436
710.718	0.0130512
710.796	0.0128805
710.874	0.0127941
710.953	0.0128939
711.031	0.0128094
711.109	0.0127583
711.187	0.0127771
711.265	0.0128439
711.343	0.0127711
711.421	0.0129166
711.499	0.0128606
711.578	0.0128809
711.656	0.0128976
711.734	0.0130231
711.812	0.0130848
711.890	0.0131153
711.968	0.0131525
712.046	0.0133188
712.124	0.0133530
712.203	0.0133701
712.281	0.0134981
712.359	0.0134111
712.437	0.0134248
712.515	0.0135255
712.593	0.0135667
712.671	0.0138235
712.749	0.0136649
712.828	0.0136098
712.906	0.0136358
712.984	0.0137077
713.062	0.0136850
713.140	0.0136350
713.218	0.0136980
713.296	0.0136226
713.374	0.0137327
713.453	0.0136757
713.531	0.0137287
713.609	0.0138232
713.687	0.0138811
713.765	0.0138470
713.843	0.0137971
713.921	0.0138634
713.999	0.0137980
714.078	0.0137875
714.156	0.0137579
714.234	0.0138367
714.312	0.0139371
714.390	0.0139278
714.468	0.0138440
714.546	0.0139437
714.624	0.0138076
714.703	0.0138098
714.781	0.0138237
714.859	0.0138944
714.937	0.0138061
715.015	0.0138046
715.093	0.0137249
715.171	0.0140239
715.249	0.0138675
715.328	0.0138757
715.406	0.0138054
715.484	0.0139902
715.562	0.0138026
715.640	0.0137742
715.718	0.0138043
715.796	0.0138335
715.874	0.0135381
715.953	0.0135703
716.031	0.0136049
716.109	0.0133280
716.187	0.0132374
716.265	0.0132015
716.343	0.0130608
716.421	0.0130840
716.499	0.0127916
716.578	0.0129019
716.656	0.0127883
716.734	0.0127704
716.812	0.0127229
716.890	0.0127364
716.968	0.0125184
717.046	0.0127710
717.124	0.0127556
717.203	0.0126950
717.281	0.0127144
717.359	0.0127480
717.437	0.0128049
717.515	0.0129671
717.593	0.0130088
717.671	0.0131631
717.749	0.0130776
717.828	0.0131824
717.906	0.0133243
717.984	0.0133618
718.062	0.0134298
718.140	0.0133899
718.218	0.0135310
718.296	0.0136563
718.374	0.0136624
718.453	0.0137267
718.531	0.0138642
718.609	0.0139471
718.687	0.0138784
718.765	0.0139724
718.843	0.0139429
718.921	0.0140408
718.999	0.0140092
719.078	0.0140372
719.156	0.0139980
719.234	0.0140804
719.312	0.0140091
719.390	0.0140720
719.468	0.0140591
719.546	0.0139098
719.624	0.0138690
719.703	0.0139930
719.781	0.0138944
719.859	0.0138831
719.937	0.0137976
720.015	0.0137726
720.093	0.0137333
720.171	0.0136555
720.249	0.0137424
720.328	0.0135905
720.406	0.0135723
720.484	0.0135696
720.562	0.0134912
720.640	0.0136113
720.718	0.0134705
720.796	0.0133849
720.874	0.0134299
720.953	0.0131248
721.031	0.0133999
721.109	0.0134886
721.187	0.0135106
721.265	0.0134936
721.343	0.0134220
721.421	0.0131944
721.499	0.0133658
721.578	0.0134393
721.656	0.0133537
721.734	0.0133582
721.812	0.0132595
721.890	0.0133633
721.968	0.0132893
722.046	0.0132323
722.124	0.0132502
722.203	0.0132837
722.281	0.0131242
722.359	0.0131489
722.437	0.0132416
722.515	0.0131361
722.593	0.0131850
722.671	0.0133233
722.749	0.0132904
722.828	0.0133056
722.906	0.0131716
722.984	0.0131556
723.062	0.0131465
723.140	0.0134214
723.218	0.0133926
723.296	0.0134786
723.374	0.0135505
723.453	0.0135206
723.531	0.0134868
723.609	0.0136975
723.687	0.0137014
723.765	0.0136508
723.843	0.0135764
723.921	0.0136330
723.999	0.0136106
724.078	0.0136661
724.156	0.0134460
724.234	0.0135262
724.312	0.0134830
724.390	0.0132677
724.468	0.0133545
724.546	0.0133170
724.624	0.0130971
724.703	0.0132115
724.781	0.0132153
724.859	0.0132952
724.937	0.0132696
725.015	0.0132265
725.093	0.0132036
725.171	0.0131903
725.249	0.0131643
725.328	0.0131127
725.406	0.0133191
725.484	0.0133334
725.562	0.0133336
725.640	0.0132857
725.718	0.0132922
725.796	0.0132169
725.874	0.0131725
725.953	0.0133127
726.031	0.0133053
726.109	0.0132713
726.187	0.0132568
726.265	0.0133557
726.343	0.0134277
726.421	0.0132436
726.499	0.0132052
726.578	0.0132623
726.656	0.0132832
726.734	0.0133886
726.812	0.0133046
726.890	0.0132348
726.968	0.0134270
727.046	0.0133783
727.124	0.0134949
727.203	0.0134156
727.281	0.0135048
727.359	0.0135207
727.437	0.0135635
727.515	0.0134972
727.593	0.0135498
727.671	0.0136820
727.749	0.0137337
727.828	0.0136106
727.906	0.0136138
727.984	0.0137727
728.062	0.0137331
728.140	0.0136957
728.218	0.0137959
728.296	0.0137191
728.374	0.0135146
728.453	0.0135485
728.531	0.0135824
728.609	0.0134899
728.687	0.0134610
728.765	0.0135361
728.843	0.0135233
728.921	0.0134574
728.999	0.0134718
729.078	0.0134834
729.156	0.0132971
729.234	0.0133885
729.312	0.0135359
729.390	0.0135102
729.468	0.0134412
729.546	0.0133819
729.624	0.0133303
729.703	0.0132755
729.781	0.0133515
729.859	0.0133357
729.937	0.0132542
730.015	0.0133883
730.093	0.0132793
730.171	0.0135309
730.249	0.0134195
730.328	0.0133731
730.406	0.0133435
730.484	0.0132142
730.562	0.0133421
730.640	0.0133633
730.718	0.0133539
730.796	0.0133704
730.874	0.0133091
730.953	0.0134132
731.031	0.0134387
731.109	0.0133147
731.187	0.0133981
731.265	0.0133031
731.343	0.0132861
731.421	0.0133905
731.499	0.0134986
731.578	0.0134156
731.656	0.0135516
731.734	0.0135352
731.812	0.0135299
731.890	0.0135036
731.968	0.0135574
732.046	0.0136338
732.124	0.0136471
732.203	0.0136799
732.281	0.0136523
732.359	0.0137068
732.437	0.0137409
732.515	0.0136878
732.593	0.0138266
732.671	0.0137747
732.749	0.0136807
732.828	0.0136074
732.906	0.0135621
732.984	0.0135650
733.062	0.0134985
733.140	0.0134241
733.218	0.0135107
733.296	0.0134467
733.374	0.0134300
733.453	0.0133997
733.531	0.0133731
733.609	0.0133076
733.687	0.0132816
733.765	0.0133374
733.843	0.0132465
733.921	0.0131277
733.999	0.0131678
734.078	0.0133023
734.156	0.0132988
734.234	0.0132908
734.312	0.0133360
734.390	0.0133424
734.468	0.0132805
734.546	0.0132362
734.624	0.0132439
734.703	0.0131561
734.781	0.0132433
734.859	0.0132781
734.937	0.0131580
735.015	0.0131420
735.093	0.0133012
735.171	0.0133148
735.249	0.0133913
735.328	0.0132579
735.406	0.0133285
735.484	0.0134023
735.562	0.0133599
735.640	0.0132796
735.718	0.0132944
735.796	0.0133814
735.874	0.0134576
735.953	0.0133810
736.031	0.0133866
736.109	0.0134238
736.187	0.0133356
736.265	0.0133145
736.343	0.0134158
736.421	0.0133109
736.499	0.0132629
736.578	0.0132272
736.656	0.0131315
736.734	0.0132947
736.812	0.0132121
736.890	0.0131313
736.968	0.0129446
737.046	0.0130553
737.124	0.0130879
737.203	0.0131702
737.281	0.0131495
737.359	0.0130543
737.437	0.0130872
737.515	0.0130377
737.593	0.0131900
737.671	0.0132052
737.749	0.0132883
737.828	0.0132482
737.906	0.0132622
737.984	0.0133839
738.062	0.0133858
738.140	0.0132495
738.218	0.0133268
738.296	0.0133051
738.374	0.0132870
738.453	0.0135236
738.531	0.0134810
738.609	0.0134437
738.687	0.0133904
738.765	0.0134995
738.843	0.0134525
738.921	0.0135738
738.999	0.0135609
739.078	0.0135594
739.156	0.0135778
739.234	0.0137093
739.312	0.0136931
739.390	0.0135939
739.468	0.0135619
739.546	0.0136742
739.624	0.0135866
739.703	0.0136838
739.781	0.0135139
739.859	0.0134232
739.937	0.0134332
740.015	0.0134331
740.093	0.0135079
740.171	0.0132854
740.249	0.0133603
740.328	0.0133080
740.406	0.0133218
740.484	0.0134621
740.562	0.0133697
740.640	0.0131754
740.718	0.0132370
740.796	0.0132955
740.874	0.0134807
740.953	0.0134635
741.031	0.0134535
741.109	0.0132656
741.187	0.0135036
741.265	0.0135629
741.343	0.0135382
741.421	0.0134740
741.499	0.0136028
741.578	0.0134912
741.656	0.0135794
741.734	0.0136386
741.812	0.0136655
741.890	0.0138019
741.968	0.0138960
742.046	0.0136409
742.124	0.0136318
742.203	0.0137375
742.281	0.0136542
742.359	0.0136847
742.437	0.0136828
742.515	0.0134692
742.593	0.0137849
742.671	0.0137045
742.749	0.0135586
742.828	0.0136672
742.906	0.0137790
742.984	0.0137704
743.062	0.0138295
743.140	0.0137720
743.218	0.0136491
743.296	0.0136086
743.374	0.0137749
743.453	0.0135815
743.531	0.0135472
743.609	0.0136827
743.687	0.0135399
743.765	0.0135712
743.843	0.0134872
743.921	0.0135170
743.999	0.0133859
744.078	0.0134423
744.156	0.0133641
744.234	0.0133854
744.312	0.0133734
744.390	0.0132895
744.468	0.0132514
744.546	0.0132616
744.624	0.0132301
744.703	0.0132665
744.781	0.0134533
744.859	0.0132893
744.937	0.0132111
745.015	0.0134089
745.093	0.0132896
745.171	0.0133192
745.249	0.0134407
745.328	0.0132931
745.406	0.0135596
745.484	0.0135155
745.562	0.0133796
745.640	0.0134336
745.718	0.0136247
745.796	0.0135016
745.874	0.0135925
745.953	0.0135623
746.031	0.0135728
746.109	0.0135993
746.187	0.0135928
746.265	0.0135818
746.343	0.0135170
746.421	0.0136434
746.499	0.0137146
746.578	0.0135570
746.656	0.0135994
746.734	0.0135455
746.812	0.0134776
746.890	0.0136475
746.968	0.0135230
747.046	0.0134631
747.124	0.0134808
747.203	0.0135356
747.281	0.0135245
747.359	0.0134719
747.437	0.0133399
747.515	0.0132358
747.593	0.0134464
747.671	0.0133488
747.749	0.0133247
747.828	0.0132901
747.906	0.0133087
747.984	0.0132819
748.062	0.0131800
748.140	0.0132274
748.218	0.0131929
748.296	0.0132427
748.374	0.0133488
748.453	0.0133407
748.531	0.0132660
748.609	0.0132927
748.687	0.0135480
748.765	0.0135567
748.843	0.0136157
748.921	0.0135509
748.999	0.0136428
749.078	0.0135471
749.156	0.0137148
749.234	0.0137174
749.312	0.0137954
749.390	0.0137123
749.468	0.0137269
749.546	0.0136502
749.624	0.0136047
749.703	0.0136714
749.781	0.0136268
749.859	0.0137393
749.937	0.0136865
750.015	0.0136829
750.093	0.0136233
750.171	0.0136042
750.249	0.0135708
750.328	0.0134180
750.406	0.0135282
750.484	0.0135255
750.562	0.0135387
750.640	0.0134438
750.718	0.0135118
750.796	0.0132967
750.874	0.0132506
750.953	0.0133517
751.031	0.0133302
751.109	0.0134540
751.187	0.0132049
751.265	0.0134158
751.343	0.0133482
751.421	0.0132922
751.499	0.0133180
751.578	0.0132484
751.656	0.0134078
751.734	0.0132739
751.812	0.0132614
751.890	0.0133566
751.968	0.0132955
752.046	0.0134002
752.124	0.0132163
752.203	0.0131879
752.281	0.0132337
752.359	0.0133593
752.437	0.0133367
752.515	0.0134882
752.593	0.0134422
752.671	0.0133926
752.749	0.0132557
752.828	0.0133640
752.906	0.0134258
752.984	0.0134712
753.062	0.0135163
753.140	0.0135740
753.218	0.0137044
753.296	0.0134341
753.374	0.0134484
753.453	0.0136302
753.531	0.0136941
753.609	0.0136784
753.687	0.0135771
753.765	0.0137314
753.843	0.0136620
753.921	0.0136942
753.999	0.0136634
754.078	0.0137761
754.156	0.0137251
754.234	0.0137472
754.312	0.0137476
754.390	0.0136546
754.468	0.0136723
754.546	0.0134920
754.624	0.0135207
754.703	0.0135302
754.781	0.0134972
754.859	0.0134514
754.937	0.0134798
755.015	0.0134793
755.093	0.0134448
755.171	0.0133897
755.249	0.0132987
755.328	0.0134158
755.406	0.0133958
755.484	0.0132761
755.562	0.0133298
755.640	0.0132937
755.718	0.0132245
755.796	0.0132779
755.874	0.0132885
755.953	0.0131668
756.031	0.0132156
756.109	0.0131926
756.187	0.0132560
756.265	0.0132070
756.343	0.0133110
756.421	0.0132459
756.499	0.0131641
756.578	0.0132754
756.656	0.0134550
756.734	0.0134237
756.812	0.0132848
756.890	0.0133963
756.968	0.0135016
757.046	0.0135398
757.124	0.0134808
757.203	0.0135895
757.281	0.0134587
757.359	0.0137439
757.437	0.0137852
757.515	0.0136150
757.593	0.0136937
757.671	0.0135960
757.749	0.0136363
757.828	0.0135859
757.906	0.0136269
757.984	0.0136716
758.062	0.0135980
758.140	0.0135316
758.218	0.0136018
758.296	0.0134666
758.374	0.0134471
758.453	0.0135065
758.531	0.0134759
758.609	0.0134402
758.687	0.0133450
758.765	0.0133081
758.843	0.0133214
758.921	0.0133743
758.999	0.0133265
759.078	0.0132094
759.156	0.0131966
759.234	0.0131847
759.312	0.0133409
759.390	0.0132829
759.468	0.0132493
759.546	0.0131410
759.624	0.0132561
759.703	0.0131476
759.781	0.0131506
759.859	0.0132117
759.937	0.0131678
760.015	0.0131637
760.093	0.0133257
760.171	0.0132061
760.249	0.0133163
760.328	0.0132842
760.406	0.0132162
760.484	0.0134112
760.562	0.0134199
760.640	0.0134196
760.718	0.0133474
760.796	0.0134380
760.874	0.0132457
760.953	0.0134838
761.031	0.0134407
761.109	0.0134842
761.187	0.0135164
761.265	0.0136108
761.343	0.0136189
761.421	0.0134975
761.499	0.0136979
761.578	0.0135764
761.656	0.0135490
761.734	0.0136630
761.812	0.0137180
761.890	0.0135761
761.968	0.0135793
762.046	0.0134890
762.124	0.0136801
762.203	0.0137810
762.281	0.0136514
762.359	0.0136290
762.437	0.0135374
762.515	0.0136266
762.593	0.0136543
762.671	0.0136076
762.749	0.0134542
762.828	0.0135293
762.906	0.0134289
762.984	0.0133690
763.062	0.0133266
763.140	0.0134030
763.218	0.0133331
763.296	0.0133391
763.374	0.0133282
763.453	0.0132490
763.531	0.0131485
763.609	0.0132304
763.687	0.0133070
763.765	0.0131602
763.843	0.0131731
763.921	0.0131082
763.999	0.0130803
764.078	0.0130923
764.156	0.0131879
764.234	0.0130494
764.312	0.0129957
764.390	0.0132437
764.468	0.0131506
764.546	0.0130295
764.624	0.0131076
764.703	0.0131757
764.781	0.0131631
764.859	0.0132488
764.937	0.0133217
765.015	0.0131852
765.093	0.0131978
765.171	0.0132997
765.249	0.0132607
765.328	0.0133508
765.406	0.0132757
765.484	0.0133887
765.562	0.0134695
765.640	0.0132985
765.718	0.0133133
765.796	0.0134505
765.874	0.0134406
765.953	0.0133759
766.031	0.0134388
766.109	0.0135971
766.187	0.0135471
766.265	0.0135072
766.343	0.0134229
766.421	0.0134766
766.499	0.0134544
766.578	0.0134144
766.656	0.0135225
766.734	0.0135366
766.812	0.0134619
766.890	0.0136187
766.968	0.0135815
767.046	0.0134827
767.124	0.0136221
767.203	0.0136710
767.281	0.0135019
767.359	0.0134620
767.437	0.0136153
767.515	0.0135898
767.593	0.0134966
767.671	0.0135316
767.749	0.0135867
767.828	0.0134776
767.906	0.0134830
767.984	0.0133617
768.062	0.0134224
768.140	0.0134536
768.218	0.0133382
768.296	0.0134289
768.374	0.0134603
768.453	0.0134814
768.531	0.0134777
768.609	0.0134611
768.687	0.0134102
768.765	0.0135825
768.843	0.0134975
768.921	0.0136240
768.999	0.0136477
769.078	0.0135928
769.156	0.0136015
769.234	0.0135475
769.312	0.0137583
769.390	0.0137771
769.468	0.0137503
769.546	0.0136640
769.624	0.0137066
769.703	0.0136749
769.781	0.0136858
769.859	0.0137150
769.937	0.0135518
770.015	0.0135810
770.093	0.0135685
770.171	0.0136697
770.249	0.0136303
770.328	0.0136406
770.406	0.0135396
770.484	0.0136347
770.562	0.0134688
770.640	0.0135825
770.718	0.0136874
770.796	0.0136407
770.874	0.0135908
770.953	0.0135232
771.031	0.0135220
771.109	0.0136056
771.187	0.0134407
771.265	0.0135514
771.343	0.0134377
771.421	0.0133525
771.499	0.0134349
771.578	0.0133427
771.656	0.0133318
771.734	0.0134205
771.812	0.0133856
771.890	0.0133848
771.968	0.0133320
772.046	0.0133485
772.124	0.0133832
772.203	0.0134605
772.281	0.0133549
772.359	0.0133146
772.437	0.0133237
772.515	0.0134573
772.593	0.0135386
772.671	0.0134272
772.749	0.0136309
772.828	0.0136373
772.906	0.0135081
772.984	0.0135506
773.062	0.0135406
773.140	0.0135347
773.218	0.0137316
773.296	0.0135569
773.374	0.0136591
773.453	0.0135525
773.531	0.0134264
773.609	0.0136626
773.687	0.0136922
773.765	0.0134586
773.843	0.0136093
773.921	0.0136362
773.999	0.0137025
774.078	0.0137090
774.156	0.0136653
774.234	0.0136470
774.312	0.0137220
774.390	0.0137149
774.468	0.0137644
774.546	0.0136152
774.624	0.0136250
774.703	0.0135409
774.781	0.0135066
774.859	0.0136104
774.937	0.0135381
775.015	0.0135296
775.093	0.0136433
775.171	0.0135666
775.249	0.0135117
775.328	0.0134277
775.406	0.0135285
775.484	0.0136018
775.562	0.0135570
775.640	0.0135401
775.718	0.0134383
775.796	0.0134825
775.874	0.0134592
775.953	0.0134532
776.031	0.0136441
776.109	0.0135372
776.187	0.0135400
776.265	0.0136372
776.343	0.0134164
776.421	0.0134422
776.499	0.0133887
776.578	0.0132878
776.656	0.0132954
776.734	0.0133033
776.812	0.0132685
776.890	0.0131869
776.968	0.0132238
777.046	0.0132962
777.124	0.0133623
777.203	0.0132013
777.281	0.0130217
777.359	0.0132266
777.437	0.0132571
777.515	0.0131666
777.593	0.0132701
777.671	0.0132207
777.749	0.0132487
777.828	0.0131746
777.906	0.0130688
777.984	0.0130556
778.062	0.0132247
778.140	0.0133260
778.218	0.0131934
778.296	0.0132704
778.374	0.0132034
778.453	0.0131187
778.531	0.0133876
778.609	0.0134164
778.687	0.0132663
778.765	0.0131820
778.843	0.0131491
778.921	0.0132419
778.999	0.0133173
779.078	0.0132793
779.156	0.0130647
779.234	0.0134166
779.312	0.0132580
779.390	0.0132509
779.468	0.0132326
779.546	0.0133547
779.624	0.0135718
779.703	0.0134546
779.781	0.0135455
779.859	0.0134679
779.937	0.0135484
780.015	0.0135133
780.093	0.0134380
780.171	0.0133418
780.249	0.0131938
780.328	0.0133018
780.406	0.0133022
780.484	0.0132413
780.562	0.0131578
780.640	0.0132531
780.718	0.0132182
780.796	0.0132967
780.874	0.0133502
780.953	0.0134146
781.031	0.0136337
781.109	0.0134007
781.187	0.0135561
781.265	0.0133658
781.343	0.0134447
781.421	0.0133514
781.499	0.0132512
781.578	0.0133300
781.656	0.0132366
781.734	0.0131197
781.812	0.0133317
781.890	0.0133276
781.968	0.0132914
782.046	0.0132619
782.124	0.0132639
782.203	0.0134850
782.281	0.0134126
782.359	0.0134938
782.437	0.0134084
782.515	0.0135741
782.593	0.0135841
782.671	0.0135390
782.749	0.0134681
782.828	0.0135617
782.906	0.0135700
782.984	0.0134354
783.062	0.0134928
783.140	0.0134489
783.218	0.0133123
783.296	0.0134391
783.374	0.0135300
783.453	0.0133590
783.531	0.0135892
783.609	0.0135520
783.687	0.0133794
783.765	0.0134093
783.843	0.0135294
783.921	0.0133916
783.999	0.0134561
784.078	0.0133243
784.156	0.0133242
784.234	0.0133236
784.312	0.0134307
784.390	0.0132901
784.468	0.0134675
784.546	0.0134674
784.624	0.0134852
784.703	0.0135276
784.781	0.0135770
784.859	0.0135168
784.937	0.0135859
785.015	0.0136413
785.093	0.0136943
785.171	0.0135097
785.249	0.0135095
785.328	0.0135011
785.406	0.0133418
785.484	0.0133164
785.562	0.0131973
785.640	0.0133041
785.718	0.0132530
785.796	0.0132076
785.874	0.0131862
785.953	0.0133013
786.031	0.0133907
786.109	0.0133534
786.187	0.0132925
786.265	0.0134719
786.343	0.0133962
786.421	0.0134706
786.499	0.0136905
786.578	0.0136169
786.656	0.0137159
786.734	0.0137135
786.812	0.0135886
786.890	0.0136124
786.968	0.0137260
787.046	0.0136327
787.124	0.0135342
787.203	0.0136570
787.281	0.0136752
787.359	0.0135311
787.437	0.0134489
787.515	0.0133836
787.593	0.0134314
787.671	0.0133279
787.749	0.0132071
787.828	0.0131554
787.906	0.0130470
787.984	0.0132185
788.062	0.0130364
788.140	0.0131952
788.218	0.0131990
788.296	0.0133009
788.374	0.0133766
788.453	0.0133898
788.531	0.0134109
788.609	0.0134838
788.687	0.0136546
788.765	0.0134814
788.843	0.0134304
788.921	0.0133500
788.999	0.0132758
789.078	0.0135279
789.156	0.0133154
789.234	0.0129201
789.312	0.0130243
789.390	0.0128941
789.468	0.0129118
789.546	0.0130404
789.624	0.0130756
789.703	0.0132069
789.781	0.0133019
789.859	0.0133810
789.937	0.0134157
790.015	0.0134179
790.093	0.0135034
790.171	0.0136456
790.249	0.0137804
790.328	0.0138019
790.406	0.0137701
790.484	0.0138024
790.562	0.0135114
790.640	0.0135548
790.718	0.0135220
790.796	0.0132503
790.874	0.0134495
790.953	0.0134061
791.031	0.0131757
791.109	0.0132438
791.187	0.0133325
791.265	0.0132049
791.343	0.0132959
791.421	0.0132525
791.499	0.0133792
791.578	0.0135069
791.656	0.0134675
791.734	0.0134636
791.812	0.0134438
791.890	0.0135466
791.968	0.0135611
792.046	0.0135717
792.124	0.0134802
792.203	0.0135293
792.281	0.0135598
792.359	0.0134972
792.437	0.0135700
792.515	0.0133447
792.593	0.0133669
792.671	0.0133669
792.749	0.0131613
792.828	0.0133390
792.906	0.0132494
792.984	0.0131782
793.062	0.0132793
793.140	0.0131599
793.218	0.0132271
793.296	0.0133900
793.374	0.0135612
793.453	0.0136423
793.531	0.0136164
793.609	0.0136606
793.687	0.0137620
793.765	0.0138168
793.843	0.0137914
793.921	0.0137901
793.999	0.0136774
794.078	0.0134869
794.156	0.0133755
794.234	0.0135395
794.312	0.0133787
794.390	0.0132109
794.468	0.0132038
794.546	0.0131904
794.624	0.0132674
794.703	0.0132246
794.781	0.0134690
794.859	0.0134432
794.937	0.0135686
795.015	0.0136065
795.093	0.0134632
795.171	0.0137923
795.249	0.0137055
795.328	0.0136931
795.406	0.0136039
795.484	0.0137512
795.562	0.0136366
795.640	0.0134467
795.718	0.0134213
795.796	0.0133060
795.874	0.0131427
795.953	0.0131944
796.031	0.0132846
796.109	0.0132679
796.187	0.0132999
796.265	0.0133305
796.343	0.0133758
796.421	0.0133585
796.499	0.0135931
796.578	0.0135954
796.656	0.0134544
796.734	0.0136252
796.812	0.0133125
796.890	0.0132707
796.968	0.0134302
797.046	0.0133883
797.124	0.0133078
797.203	0.0130780
797.281	0.0131625
797.359	0.0133859
797.437	0.0133786
797.515	0.0134602
797.593	0.0136268
797.671	0.0135439
797.749	0.0136193
797.828	0.0136655
797.906	0.0136253
797.984	0.0137463
798.062	0.0137898
798.140	0.0138155
798.218	0.0138505
798.296	0.0137585
798.374	0.0137260
798.453	0.0137204
798.531	0.0135956
798.609	0.0134750
798.687	0.0134699
798.765	0.0133699
798.843	0.0134856
798.921	0.0132955
798.999	0.0131859
799.078	0.0132404
799.156	0.0133932
799.234	0.0133416
799.312	0.0134501
799.390	0.0134377
799.468	0.0135593
799.546	0.0136259
799.624	0.0135065
799.703	0.0134166
799.781	0.0134940
799.859	0.0134169
799.937	0.0132089
800.015	0.0132162
800.093	0.0130965
800.171	0.0130309
800.249	0.0130303
800.328	0.0129882
800.406	0.0129358
800.484	0.0131752
800.562	0.0130939
800.640	0.0131807
800.718	0.0131675
800.796	0.0131633
800.874	0.0133889
800.953	0.0133770
801.031	0.0133922
801.109	0.0134474
801.187	0.0135471
801.265	0.0136456
801.343	0.0136375
801.421	0.0135277
801.499	0.0134595
801.578	0.0134562
801.656	0.0132784
801.734	0.0131441
801.812	0.0132336
801.890	0.0131288
801.968	0.0131105
802.046	0.0131512
802.124	0.0131018
802.203	0.0130648
802.281	0.0131767
802.359	0.0131744
802.437	0.0132439
802.515	0.0132615
802.593	0.0134261
802.671	0.0134687
802.749	0.0133529
802.828	0.0134547
802.906	0.0133826
802.984	0.0134728
803.062	0.0135118
803.140	0.0134204
803.218	0.0133421
803.296	0.0134633
803.374	0.0134554
803.453	0.0133376
803.531	0.0134255
803.609	0.0133460
803.687	0.0133967
803.765	0.0135652
803.843	0.0135752
803.921	0.0135753
803.999	0.0136045
804.078	0.0136993
804.156	0.0136067
804.234	0.0135088
804.312	0.0136096
804.390	0.0135740
804.468	0.0134386
804.546	0.0134685
804.624	0.0133588
804.703	0.0133979
804.781	0.0133779
804.859	0.0133451
804.937	0.0132256
805.015	0.0132386
805.093	0.0131915
805.171	0.0133308
805.249	0.0135278
805.328	0.0134126
805.406	0.0133348
805.484	0.0136536
805.562	0.0136559
805.640	0.0136279
805.718	0.0134953
805.796	0.0134988
805.874	0.0135065
805.953	0.0134959
806.031	0.0135457
806.109	0.0134993
806.187	0.0134053
806.265	0.0134047
806.343	0.0134155
806.421	0.0135096
806.499	0.0134142
806.578	0.0135305
806.656	0.0134554
806.734	0.0133532
806.812	0.0133763
806.890	0.0132970
806.968	0.0133635
807.046	0.0132999
807.124	0.0133208
807.203	0.0131950
807.281	0.0131494
807.359	0.0132931
807.437	0.0131056
807.515	0.0131693
807.593	0.0131802
807.671	0.0132292
807.749	0.0131617
807.828	0.0130860
807.906	0.0131586
807.984	0.0131565
808.062	0.0129764
808.140	0.0131405
808.218	0.0131589
808.296	0.0131953
808.374	0.0131137
808.453	0.0132507
808.531	0.0132465
808.609	0.0132909
808.687	0.0132739
808.765	0.0134070
808.843	0.0135308
808.921	0.0135394
808.999	0.0137251
809.078	0.0136026
809.156	0.0137537
809.234	0.0136790
809.312	0.0136877
809.390	0.0136403
809.468	0.0136559
809.546	0.0133277
809.624	0.0133805
809.703	0.0132556
809.781	0.0134064
809.859	0.0131978
809.937	0.0132156
810.015	0.0132898
810.093	0.0132783
810.171	0.0133231
810.249	0.0133398
810.328	0.0135122
810.406	0.0134113
810.484	0.0134990
810.562	0.0134569
810.640	0.0134706
810.718	0.0136182
810.796	0.0135088
810.874	0.0132646
810.953	0.0132412
811.031	0.0132784
811.109	0.0132436
811.187	0.0132494
811.265	0.0132368
811.343	0.0131532
811.421	0.0131246
811.499	0.0132231
811.578	0.0131467
811.656	0.0133104
811.734	0.0133671
811.812	0.0133814
811.890	0.0134286
811.968	0.0136024
812.046	0.0136096
812.124	0.0136344
812.203	0.0137000
812.281	0.0134997
812.359	0.0134287
812.437	0.0135664
812.515	0.0135361
812.593	0.0134438
812.671	0.0134002
812.749	0.0136371
812.828	0.0135452
812.906	0.0134944
812.984	0.0133418
813.062	0.0134201
813.140	0.0135526
813.218	0.0134248
813.296	0.0133999
813.374	0.0135117
813.453	0.0131940
813.531	0.0131978
813.609	0.0133727
813.687	0.0132496
813.765	0.0132127
813.843	0.0132404
813.921	0.0131526
813.999	0.0130569
814.078	0.0132044
814.156	0.0131085
814.234	0.0131227
814.312	0.0129952
814.390	0.0130835
814.468	0.0132533
814.546	0.0131316
814.624	0.0132558
814.703	0.0131603
814.781	0.0132252
814.859	0.0133298
814.937	0.0134869
815.015	0.0133337
815.093	0.0133527
815.171	0.0135428
815.249	0.0136203
815.328	0.0134895
815.406	0.0135548
815.484	0.0136433
815.562	0.0135971
815.640	0.0135481
815.718	0.0136362
815.796	0.0136147
815.874	0.0136147
815.953	0.0136491
816.031	0.0134435
816.109	0.0136180
816.187	0.0136919
816.265	0.0137329
816.343	0.0137532
816.421	0.0136964
816.499	0.0136282
816.578	0.0138131
816.656	0.0139420
816.734	0.0137545
816.812	0.0137370
816.890	0.0138416
816.968	0.0139040
817.046	0.0137856
817.124	0.0138074
817.203	0.0136415
817.281	0.0138245
817.359	0.0134719
817.437	0.0135254
817.515	0.0134505
817.593	0.0133482
817.671	0.0134619
817.749	0.0134327
817.828	0.0135244
817.906	0.0133319
817.984	0.0134367
818.062	0.0134945
818.140	0.0134588
818.218	0.0136935
818.296	0.0136933
818.374	0.0136263
818.453	0.0135841
818.531	0.0136578
818.609	0.0136137
818.687	0.0135655
818.765	0.0134306
818.843	0.0134860
818.921	0.0134113
818.999	0.0134756
819.078	0.0133910
819.156	0.0134714
819.234	0.0134276
819.312	0.0134570
819.390	0.0133291
819.468	0.0134756
819.546	0.0134431
819.624	0.0133321
819.703	0.0133296
819.781	0.0134260
819.859	0.0133984
819.937	0.0135761
820.015	0.0133637
820.093	0.0134560
820.171	0.0134904
820.249	0.0133385
820.328	0.0133363
820.406	0.0133063
820.484	0.0133949
820.562	0.0134377
820.640	0.0133781
820.718	0.0133357
820.796	0.0134542
820.874	0.0134775
820.953	0.0133475
821.031	0.0133942
821.109	0.0134610
821.187	0.0132710
821.265	0.0131878
821.343	0.0131200
821.421	0.0133446
821.499	0.0134140
821.578	0.0132982
821.656	0.0131195
821.734	0.0131149
821.812	0.0132790
821.890	0.0133647
821.968	0.0131918
822.046	0.0131866
822.124	0.0131363
822.203	0.0132073
822.281	0.0132685
822.359	0.0133391
822.437	0.0132236
822.515	0.0132727
822.593	0.0133296
822.671	0.0131554
822.749	0.0132821
822.828	0.0132492
822.906	0.0131426
822.984	0.0133680
823.062	0.0133047
823.140	0.0132430
823.218	0.0133595
823.296	0.0131829
823.374	0.0133897
823.453	0.0134370
823.531	0.0133086
823.609	0.0133886
823.687	0.0134737
823.765	0.0135406
823.843	0.0135732
823.921	0.0135649
823.999	0.0136284
824.078	0.0135291
824.156	0.0135039
824.234	0.0135430
824.312	0.0135045
824.390	0.0135271
824.468	0.0134304
824.546	0.0133328
824.624	0.0133691
824.703	0.0134374
824.781	0.0134366
824.859	0.0134531
824.937	0.0134299
825.015	0.0134465
825.093	0.0133272
825.171	0.0134377
825.249	0.0134361
825.328	0.0134332
825.406	0.0133842
825.484	0.0133359
825.562	0.0131957
825.640	0.0132671
825.718	0.0132025
825.796	0.0131873
825.874	0.0130733
825.953	0.0131744
826.031	0.0132548
826.109	0.0131815
826.187	0.0132846
826.265	0.0133051
826.343	0.0131566
826.421	0.0132146
826.499	0.0131914
826.578	0.0132948
826.656	0.0133468
826.734	0.0134072
826.812	0.0134397
826.890	0.0135788
826.968	0.0136485
827.046	0.0137020
827.124	0.0137051
827.203	0.0135601
827.281	0.0136148
827.359	0.0135906
827.437	0.0136292
827.515	0.0136006
827.593	0.0135767
827.671	0.0135466
827.749	0.0135136
827.828	0.0134872
827.906	0.0135069
827.984	0.0134528
828.062	0.0135213
828.140	0.0134949
828.218	0.0133961
828.296	0.0134721
828.374	0.0134197
828.453	0.0133085
828.531	0.0132259
828.609	0.0133473
828.687	0.0134020
828.765	0.0133272
828.843	0.0133623
828.921	0.0132869
828.999	0.0133672
829.078	0.0132655
829.156	0.0133082
829.234	0.0133516
829.312	0.0133465
829.390	0.0133733
829.468	0.0130685
829.546	0.0131067
829.624	0.0132339
829.703	0.0132275
829.781	0.0133257
829.859	0.0131566
829.937	0.0129826
830.015	0.0131815
830.093	0.0131552
830.171	0.0132051
830.249	0.0131707
830.328	0.0132348
830.406	0.0132786
830.484	0.0133138
830.562	0.0133221
830.640	0.0133147
830.718	0.0132777
830.796	0.0134150
830.874	0.0134387
830.953	0.0134369
831.031	0.0133566
831.109	0.0132621
831.187	0.0133451
831.265	0.0133707
831.343	0.0133366
831.421	0.0133473
831.499	0.0135666
831.578	0.0133865
831.656	0.0133493
831.734	0.0134673
831.812	0.0134944
831.890	0.0136039
831.968	0.0133744
832.046	0.0134879
832.124	0.0135992
832.203	0.0135227
832.281	0.0134776
832.359	0.0135076
832.437	0.0134770
832.515	0.0133363
832.593	0.0133553
832.671	0.0133114
832.749	0.0132941
832.828	0.0132906
832.906	0.0132880
832.984	0.0133818
833.062	0.0133167
833.140	0.0133324
833.218	0.0134486
833.296	0.0133594
833.374	0.0133781
833.453	0.0134451
833.531	0.0134818
833.609	0.0134912
833.687	0.0135014
833.765	0.0136267
833.843	0.0135143
833.921	0.0135110
833.999	0.0135084
834.078	0.0135922
834.156	0.0135920
834.234	0.0135229
834.312	0.0134308
834.390	0.0134185
834.468	0.0135934
834.546	0.0134650
834.624	0.0134925
834.703	0.0135621
834.781	0.0134914
834.859	0.0134815
834.937	0.0134945
835.015	0.0134254
835.093	0.0134640
835.171	0.0134937
835.249	0.0132140
835.328	0.0134264
835.406	0.0133540
835.484	0.0133723
835.562	0.0133408
835.640	0.0134444
835.718	0.0135197
835.796	0.0134570
835.874	0.0136462
835.953	0.0136903
836.031	0.0135823
836.109	0.0136118
836.187	0.0136343
836.265	0.0136874
836.343	0.0138247
836.421	0.0137320
836.499	0.0137613
836.578	0.0136774
836.656	0.0135474
836.734	0.0135988
836.812	0.0137005
836.890	0.0136987
836.968	0.0137457
837.046	0.0135512
837.124	0.0134038
837.203	0.0134100
837.281	0.0135100
837.359	0.0134885
837.437	0.0134874
837.515	0.0133796
837.593	0.0133453
837.671	0.0133641
837.749	0.0133830
837.828	0.0133941
837.906	0.0134190
837.984	0.0134364
838.062	0.0132568
838.140	0.0135075
838.218	0.0133372
838.296	0.0134618
838.374	0.0134447
838.453	0.0132469
838.531	0.0133765
838.609	0.0134466
838.687	0.0134325
838.765	0.0135662
838.843	0.0134717
838.921	0.0133909
838.999	0.0133433
839.078	0.0134651
839.156	0.0134340
839.234	0.0133355
839.312	0.0132584
839.390	0.0133215
839.468	0.0131799
839.546	0.0132825
839.624	0.0132846
839.703	0.0132673
839.781	0.0133361
839.859	0.0131908
839.937	0.0132164
840.015	0.0131290
840.093	0.0131346
840.171	0.0132459
840.249	0.0132465
840.328	0.0132049
840.406	0.0133448
840.484	0.0134462
840.562	0.0134045
840.640	0.0133889
840.718	0.0132851
840.796	0.0133993
840.874	0.0134892
840.953	0.0136554
841.031	0.0135360
841.109	0.0134160
841.187	0.0134518
841.265	0.0134901
841.343	0.0134084
841.421	0.0134190
841.499	0.0134032
841.578	0.0134026
841.656	0.0135364
841.734	0.0135236
841.812	0.0134012
841.890	0.0133745
841.968	0.0134573
842.046	0.0135040
842.124	0.0133839
842.203	0.0133359
842.281	0.0133356
842.359	0.0134723
842.437	0.0133768
842.515	0.0133971
842.593	0.0134172
842.671	0.0133836
842.749	0.0133401
842.828	0.0133717
842.906	0.0133090
842.984	0.0134913
843.062	0.0135035
843.140	0.0135102
843.218	0.0134962
843.296	0.0135667
843.374	0.0135502
843.453	0.0136416
843.531	0.0135054
843.609	0.0136446
843.687	0.0134921
843.765	0.0136005
843.843	0.0135907
843.921	0.0135223
843.999	0.0134467
844.078	0.0135221
844.156	0.0135517
844.234	0.0133627
844.312	0.0134438
844.390	0.0134605
844.468	0.0133836
844.546	0.0133303
844.624	0.0134888
844.703	0.0135164
844.781	0.0134804
844.859	0.0135085
844.937	0.0134762
845.015	0.0134483
845.093	0.0134781
845.171	0.0136015
845.249	0.0135767
845.328	0.0134729
845.406	0.0133763
845.484	0.0134531
845.562	0.0135333
845.640	0.0136140
845.718	0.0133566
845.796	0.0134587
845.874	0.0133486
845.953	0.0133080
846.031	0.0134482
846.109	0.0133898
846.187	0.0133099
846.265	0.0133941
846.343	0.0134738
846.421	0.0134274
846.499	0.0134949
846.578	0.0133516
846.656	0.0132063
846.734	0.0132733
846.812	0.0133520
846.890	0.0133599
846.968	0.0134598
847.046	0.0135271
847.124	0.0132584
847.203	0.0133176
847.281	0.0135090
847.359	0.0132050
847.437	0.0133591
847.515	0.0132996
847.593	0.0134614
847.671	0.0135603
847.749	0.0134109
847.828	0.0133964
847.906	0.0134343
847.984	0.0133496
848.062	0.0135336
848.140	0.0135343
848.218	0.0135114
848.296	0.0134647
848.374	0.0136723
848.453	0.0137108
848.531	0.0136642
848.609	0.0135620
848.687	0.0136161
848.765	0.0136459
848.843	0.0136115
848.921	0.0136735
848.999	0.0136791
849.078	0.0136797
849.156	0.0135716
849.234	0.0134996
849.312	0.0134930
849.390	0.0134890
849.468	0.0134225
849.546	0.0134980
849.624	0.0134984
849.703	0.0133896
849.781	0.0133228
849.859	0.0133671
849.937	0.0132864
850.015	0.0132910
850.093	0.0131642
850.171	0.0130873
850.249	0.0133009
850.328	0.0130811
850.406	0.0131416
850.484	0.0132516
850.562	0.0131812
850.640	0.0130862
850.718	0.0130533
850.796	0.0132678
850.874	0.0133542
850.953	0.0131582
851.031	0.0132571
851.109	0.0132151
851.187	0.0131884
851.265	0.0131913
851.343	0.0132757
851.421	0.0132671
851.499	0.0134472
851.578	0.0132770
851.656	0.0132398
851.734	0.0134518
851.812	0.0133611
851.890	0.0133630
851.968	0.0134064
852.046	0.0135422
852.124	0.0134567
852.203	0.0136842
852.281	0.0134750
852.359	0.0135304
852.437	0.0136497
852.515	0.0137305
852.593	0.0137656
852.671	0.0137223
852.749	0.0137786
852.828	0.0137128
852.906	0.0135722
852.984	0.0135336
853.062	0.0135402
853.140	0.0135815
853.218	0.0135022
853.296	0.0135119
853.374	0.0135982
853.453	0.0134775
853.531	0.0134657
853.609	0.0134094
853.687	0.0135011
853.765	0.0135323
853.843	0.0135485
853.921	0.0134811
853.999	0.0134840
854.078	0.0135181
854.156	0.0134741
854.234	0.0134685
854.312	0.0133244
854.390	0.0134218
854.468	0.0135757
854.546	0.0134985
854.624	0.0134872
854.703	0.0134164
854.781	0.0135551
854.859	0.0135003
854.937	0.0134466
855.015	0.0135013
855.093	0.0134515
855.171	0.0134274
855.249	0.0133742
855.328	0.0134056
855.406	0.0133796
855.484	0.0134020
855.562	0.0134377
855.640	0.0135142
855.718	0.0134238
855.796	0.0135017
855.874	0.0134103
855.953	0.0135709
856.031	0.0135696
856.109	0.0136414
856.187	0.0135493
856.265	0.0135676
856.343	0.0137239
856.421	0.0136423
856.499	0.0137296
856.578	0.0137615
856.656	0.0135465
856.734	0.0135954
856.812	0.0136323
856.890	0.0136633
856.968	0.0136794
857.046	0.0136665
857.124	0.0135412
857.203	0.0135487
857.281	0.0136213
857.359	0.0135957
857.437	0.0134354
857.515	0.0135174
857.593	0.0135258
857.671	0.0134798
857.749	0.0134240
857.828	0.0133816
857.906	0.0134550
857.984	0.0135583
858.062	0.0135179
858.140	0.0135360
858.218	0.0134599
858.296	0.0134113
858.374	0.0135731
858.453	0.0134779
858.531	0.0134435
858.609	0.0135394
858.687	0.0134702
858.765	0.0134339
858.843	0.0133833
858.921	0.0133769
858.999	0.0133372
859.078	0.0131975
859.156	0.0131719
859.234	0.0132146
859.312	0.0132857
859.390	0.0134361
859.468	0.0133133
859.546	0.0133006
859.624	0.0132209
859.703	0.0132826
859.781	0.0134068
859.859	0.0133794
859.937	0.0133889
860.015	0.0134605
860.093	0.0133255
860.171	0.0135626
860.249	0.0135403
860.328	0.0132910
860.406	0.0135781
860.484	0.0134444
860.562	0.0135630
860.640	0.0135693
860.718	0.0134615
860.796	0.0135126
860.874	0.0134348
860.953	0.0135180
861.031	0.0134251
861.109	0.0134013
861.187	0.0135107
861.265	0.0135361
861.343	0.0133772
861.421	0.0134731
861.499	0.0133894
861.578	0.0134275
861.656	0.0134553
861.734	0.0134478
861.812	0.0136343
861.890	0.0133820
861.968	0.0134189
862.046	0.0133592
862.124	0.0134211
862.203	0.0134739
862.281	0.0133128
862.359	0.0134782
862.437	0.0133440
862.515	0.0133138
862.593	0.0134072
862.671	0.0134482
862.749	0.0134369
862.828	0.0132951
862.906	0.0134988
862.984	0.0135214
863.062	0.0132909
863.140	0.0133563
863.218	0.0134081
863.296	0.0134449
863.374	0.0132894
863.453	0.0133054
863.531	0.0135027
863.609	0.0134283
863.687	0.0132899
863.765	0.0134601
863.843	0.0134636
863.921	0.0134499
863.999	0.0135619
864.078	0.0134198
864.156	0.0133494
864.234	0.0134291
864.312	0.0135625
864.390	0.0135686
864.468	0.0135754
864.546	0.0135188
864.624	0.0133966
864.703	0.0135414
864.781	0.0135018
864.859	0.0134735
864.937	0.0135429
865.015	0.0134903
865.093	0.0134290
865.171	0.0134307
865.249	0.0135191
865.328	0.0134601
865.406	0.0134491
865.484	0.0133309
865.562	0.0132915
865.640	0.0133064
865.718	0.0132988
865.796	0.0134088
865.874	0.0133887
865.953	0.0132936
866.031	0.0132402
866.109	0.0133438
866.187	0.0131689
866.265	0.0130962
866.343	0.0132587
866.421	0.0133981
866.499	0.0131487
866.578	0.0132880
866.656	0.0134377
866.734	0.0132329
866.812	0.0131462
866.890	0.0132739
866.968	0.0133054
867.046	0.0132699
867.124	0.0132268
867.203	0.0133319
867.281	0.0133004
867.359	0.0132803
867.437	0.0132801
867.515	0.0134153
867.593	0.0134856
867.671	0.0134430
867.749	0.0135564
867.828	0.0134386
867.906	0.0134383
867.984	0.0135250
868.062	0.0134756
868.140	0.0134341
868.218	0.0135625
868.296	0.0135651
868.374	0.0135068
868.453	0.0135861
868.531	0.0135457
868.609	0.0135975
868.687	0.0135928
868.765	0.0135672
868.843	0.0136075
868.921	0.0135267
868.999	0.0134882
869.078	0.0135468
869.156	0.0136275
869.234	0.0135420
869.312	0.0134461
869.390	0.0134236
869.468	0.0135109
869.546	0.0135656
869.624	0.0134290
869.703	0.0133022
869.781	0.0132510
869.859	0.0133517
869.937	0.0133989
870.015	0.0135635
870.093	0.0134949
870.171	0.0133477
870.249	0.0133029
870.328	0.0134372
870.406	0.0134064
870.484	0.0132421
870.562	0.0133739
870.640	0.0133196
870.718	0.0134580
870.796	0.0133733
870.874	0.0133942
870.953	0.0133202
871.031	0.0133804
871.109	0.0133176
871.187	0.0132823
871.265	0.0133147
871.343	0.0133971
871.421	0.0133347
871.499	0.0133409
871.578	0.0132831
871.656	0.0133683
871.734	0.0133251
871.812	0.0134148
871.890	0.0134771
871.968	0.0134089
872.046	0.0136069
872.124	0.0135122
872.203	0.0134223
872.281	0.0135216
872.359	0.0136205
872.437	0.0134872
872.515	0.0134413
872.593	0.0133900
872.671	0.0133427
872.749	0.0135144
872.828	0.0134233
872.906	0.0133854
872.984	0.0133672
873.062	0.0133851
873.140	0.0134006
873.218	0.0135265
873.296	0.0136517
873.374	0.0135172
873.453	0.0134223
873.531	0.0135770
873.609	0.0134887
873.687	0.0135102
873.765	0.0134348
873.843	0.0135056
873.921	0.0136128
873.999	0.0134377
874.078	0.0134922
874.156	0.0134114
874.234	0.0135688
874.312	0.0135368
874.390	0.0136569
874.468	0.0136205
874.546	0.0135266
874.624	0.0135381
874.703	0.0135022
874.781	0.0134783
874.859	0.0133865
874.937	0.0135327
875.015	0.0134460
875.093	0.0135487
875.171	0.0135216
875.249	0.0134604
875.328	0.0135793
875.406	0.0136008
875.484	0.0134593
875.562	0.0134499
875.640	0.0136270
875.718	0.0135384
875.796	0.0134798
875.874	0.0135075
875.953	0.0136530
876.031	0.0135676
876.109	0.0136348
876.187	0.0135384
876.265	0.0136291
876.343	0.0134800
876.421	0.0136501
876.499	0.0135391
876.578	0.0135572
876.656	0.0135386
876.734	0.0134032
876.812	0.0133735
876.890	0.0133851
876.968	0.0134925
877.046	0.0133810
877.124	0.0132206
877.203	0.0134634
877.281	0.0134208
877.359	0.0133896
877.437	0.0135059
877.515	0.0134065
877.593	0.0133338
877.671	0.0133778
877.749	0.0131859
877.828	0.0133035
877.906	0.0133195
877.984	0.0133627
878.062	0.0133665
878.140	0.0134390
878.218	0.0132707
878.296	0.0133459
878.374	0.0133295
878.453	0.0134708
878.531	0.0134475
878.609	0.0134980
878.687	0.0134341
878.765	0.0134599
878.843	0.0134576
878.921	0.0134365
878.999	0.0135748
879.078	0.0135135
879.156	0.0134480
879.234	0.0134637
879.312	0.0133589
879.390	0.0133324
879.468	0.0135313
879.546	0.0135263
879.624	0.0133483
879.703	0.0133489
879.781	0.0133339
879.859	0.0134127
879.937	0.0134650
880.015	0.0134464
880.093	0.0134757
880.171	0.0135091
880.249	0.0135334
880.328	0.0136553
880.406	0.0136359
880.484	0.0135712
880.562	0.0135730
880.640	0.0136111
880.718	0.0135927
880.796	0.0134480
880.874	0.0134219
880.953	0.0135531
881.031	0.0134574
881.109	0.0135227
881.187	0.0134995
881.265	0.0135478
881.343	0.0136734
881.421	0.0134867
881.499	0.0134347
881.578	0.0134669
881.656	0.0136112
881.734	0.0135616
881.812	0.0133049
881.890	0.0134422
881.968	0.0133937
882.046	0.0134124
882.124	0.0134268
882.203	0.0135455
882.281	0.0133192
882.359	0.0133418
882.437	0.0134311
882.515	0.0133370
882.593	0.0133052
882.671	0.0133601
882.749	0.0133240
882.828	0.0133131
882.906	0.0132815
882.984	0.0133288
883.062	0.0132630
883.140	0.0133777
883.218	0.0132895
883.296	0.0133430
883.374	0.0133586
883.453	0.0132282
883.531	0.0131542
883.609	0.0131545
883.687	0.0132648
883.765	0.0132384
883.843	0.0133222
883.921	0.0133501
883.999	0.0133607
884.078	0.0133850
884.156	0.0134348
884.234	0.0135052
884.312	0.0133987
884.390	0.0134144
884.468	0.0134959
884.546	0.0133473
884.624	0.0134382
884.703	0.0134086
884.781	0.0133376
884.859	0.0131908
884.937	0.0136074
885.015	0.0136519
885.093	0.0134834
885.171	0.0134499
885.249	0.0133785
885.328	0.0132388
885.406	0.0134879
885.484	0.0135000
885.562	0.0134647
885.640	0.0134766
885.718	0.0135294
885.796	0.0134212
885.874	0.0133582
885.953	0.0135398
886.031	0.0134367
886.109	0.0134904
886.187	0.0135606
886.265	0.0135886
886.343	0.0135406
886.421	0.0135455
886.499	0.0135558
886.578	0.0135222
886.656	0.0134095
886.734	0.0134994
886.812	0.0134785
886.890	0.0134918
886.968	0.0133955
887.046	0.0134348
887.124	0.0132959
887.203	0.0132987
887.281	0.0133605
887.359	0.0133323
887.437	0.0133297
887.515	0.0135229
887.593	0.0131744
887.671	0.0132845
887.749	0.0133250
887.828	0.0132268
887.906	0.0132283
887.984	0.0133279
888.062	0.0133230
888.140	0.0132551
888.218	0.0132488
888.296	0.0131606
888.374	0.0132655
888.453	0.0132717
888.531	0.0133328
888.609	0.0133568
888.687	0.0133685
888.765	0.0133888
888.843	0.0132198
888.921	0.0133907
888.999	0.0133104
889.078	0.0133058
889.156	0.0132667
889.234	0.0133068
889.312	0.0134292
889.390	0.0132524
889.468	0.0132938
889.546	0.0134297
889.624	0.0133759
889.703	0.0133180
889.781	0.0133928
889.859	0.0134080
889.937	0.0135832
890.015	0.0134909
890.093	0.0134524
890.171	0.0135877
890.249	0.0135676
890.328	0.0134299
890.406	0.0135220
890.484	0.0135890
890.562	0.0134475
890.640	0.0134234
890.718	0.0134167
890.796	0.0136160
890.874	0.0134585
890.953	0.0133912
891.031	0.0133775
891.109	0.0134126
891.187	0.0134338
891.265	0.0134727
891.343	0.0135706
891.421	0.0133562
891.499	0.0134208
891.578	0.0133923
891.656	0.0134441
891.734	0.0133061
891.812	0.0134546
891.890	0.0134613
891.968	0.0136086
892.046	0.0134219
892.124	0.0134768
892.203	0.0132645
892.281	0.0132988
892.359	0.0133481
892.437	0.0132726
892.515	0.0132822
892.593	0.0134319
892.671	0.0134061
892.749	0.0133007
892.828	0.0133082
892.906	0.0133546
892.984	0.0132974
893.062	0.0133527
893.140	0.0133084
893.218	0.0132836
893.296	0.0132835
893.374	0.0132784
893.453	0.0132363
893.531	0.0132727
893.609	0.0133821
893.687	0.0132880
893.765	0.0132087
893.843	0.0133315
893.921	0.0132809
893.999	0.0132323
894.078	0.0133065
894.156	0.0133623
894.234	0.0131857
894.312	0.0132507
894.390	0.0132939
894.468	0.0132065
894.546	0.0132362
894.624	0.0132220
894.703	0.0133007
894.781	0.0132091
894.859	0.0133690
894.937	0.0132861
895.015	0.0132794
895.093	0.0132247
895.171	0.0132828
895.249	0.0132915
895.328	0.0132882
895.406	0.0133636
895.484	0.0133148
895.562	0.0133586
895.640	0.0134441
895.718	0.0133653
895.796	0.0134219
895.874	0.0135361
895.953	0.0135608
896.031	0.0134974
896.109	0.0136002
896.187	0.0135279
896.265	0.0137511
896.343	0.0136487
896.421	0.0136204
896.499	0.0136249
896.578	0.0137749
896.656	0.0136382
896.734	0.0137241
896.812	0.0136712
896.890	0.0137350
896.968	0.0136079
897.046	0.0136948
897.124	0.0136819
897.203	0.0135898
897.281	0.0136468
897.359	0.0136395
897.437	0.0136164
897.515	0.0136484
897.593	0.0136571
897.671	0.0134785
897.749	0.0135492
897.828	0.0136204
897.906	0.0135777
897.984	0.0135239
898.062	0.0135612
898.140	0.0136118
898.218	0.0134662
898.296	0.0134092
898.374	0.0135493
898.453	0.0135365
898.531	0.0134904
898.609	0.0134900
898.687	0.0134367
898.765	0.0134364
898.843	0.0135470
898.921	0.0135279
898.999	0.0134529
899.078	0.0134333
899.156	0.0134365
899.234	0.0134738
899.312	0.0134085
899.390	0.0134135
899.468	0.0135398
899.546	0.0134316
899.624	0.0133746
899.703	0.0133578
899.781	0.0135154
899.859	0.0135419
899.937	0.0134396
900.015	0.0135200
900.093	0.0135902
900.171	0.0135309
900.249	0.0134723
900.328	0.0134619
900.406	0.0135200
900.484	0.0135845
900.562	0.0134942
900.640	0.0134351
900.718	0.0135645
900.796	0.0135980
900.874	0.0135741
900.953	0.0135769
901.031	0.0134966
901.109	0.0135558
901.187	0.0134402
901.265	0.0134877
901.343	0.0134127
901.421	0.0134528
901.499	0.0134300
901.578	0.0136318
901.656	0.0133859
901.734	0.0134636
901.812	0.0133926
901.890	0.0135151
901.968	0.0134581
902.046	0.0133840
902.124	0.0133530
902.203	0.0134772
902.281	0.0135727
902.359	0.0134146
902.437	0.0134443
902.515	0.0134466
902.593	0.0134183
902.671	0.0134402
902.749	0.0135647
902.828	0.0134002
902.906	0.0133815
902.984	0.0133724
903.062	0.0133220
903.140	0.0134070
903.218	0.0134570
903.296	0.0134296
903.374	0.0133276
903.453	0.0135545
903.531	0.0135117
903.609	0.0134272
903.687	0.0134313
903.765	0.0134061
903.843	0.0134789
903.921	0.0135397
903.999	0.0135098
904.078	0.0134245
904.156	0.0133982
904.234	0.0136492
904.312	0.0134621
904.390	0.0133619
904.468	0.0135912
904.546	0.0135775
904.624	0.0135216
904.703	0.0134490
904.781	0.0134050
904.859	0.0133169
904.937	0.0133970
905.015	0.0135204
905.093	0.0134563
905.171	0.0133564
905.249	0.0133351
905.328	0.0134098
905.406	0.0133652
905.484	0.0133834
905.562	0.0134084
905.640	0.0133430
905.718	0.0133537
905.796	0.0133595
905.874	0.0133367
905.953	0.0135294
906.031	0.0133743
906.109	0.0132899
906.187	0.0133908
906.265	0.0135030
906.343	0.0134196
906.421	0.0134969
906.499	0.0134492
906.578	0.0133849
906.656	0.0134936
906.734	0.0135762
906.812	0.0134000
906.890	0.0134362
906.968	0.0134140
907.046	0.0133985
907.124	0.0133412
907.203	0.0134099
907.281	0.0135516
907.359	0.0134552
907.437	0.0134133
907.515	0.0133480
907.593	0.0133391
907.671	0.0134087
907.749	0.0134022
907.828	0.0133328
907.906	0.0134448
907.984	0.0134195
908.062	0.0133480
908.140	0.0134925
908.218	0.0134518
908.296	0.0134094
908.374	0.0132999
908.453	0.0132602
908.531	0.0134417
908.609	0.0134657
908.687	0.0133611
908.765	0.0134013
908.843	0.0133466
908.921	0.0133203
908.999	0.0134637
909.078	0.0134479
909.156	0.0133447
909.234	0.0135004
909.312	0.0134470
909.390	0.0133852
909.468	0.0133741
909.546	0.0133788
909.624	0.0134193
909.703	0.0133469
909.781	0.0134655
909.859	0.0134199
909.937	0.0134425
910.015	0.0134956
910.093	0.0135625
910.171	0.0134427
910.249	0.0134875
910.328	0.0134564
910.406	0.0133900
910.484	0.0133968
910.562	0.0135114
910.640	0.0134849
910.718	0.0135163
910.796	0.0135222
910.874	0.0133958
910.953	0.0133781
911.031	0.0134660
911.109	0.0134249
911.187	0.0135260
911.265	0.0134154
911.343	0.0135566
911.421	0.0133891
911.499	0.0133887
911.578	0.0134729
911.656	0.0135212
911.734	0.0135313
911.812	0.0134618
911.890	0.0133356
911.968	0.0134258
912.046	0.0133773
912.124	0.0135886
912.203	0.0133917
912.281	0.0131702
912.359	0.0133832
912.437	0.0134745
912.515	0.0134315
912.593	0.0134880
912.671	0.0133502
912.749	0.0133720
912.828	0.0135010
912.906	0.0132288
912.984	0.0132110
913.062	0.0133532
913.140	0.0135078
913.218	0.0133379
913.296	0.0133186
913.374	0.0132601
913.453	0.0132415
913.531	0.0132986
913.609	0.0132286
913.687	0.0133611
913.765	0.0134275
913.843	0.0134227
913.921	0.0133410
913.999	0.0132268
914.078	0.0133822
914.156	0.0133826
914.234	0.0134419
914.312	0.0134148
914.390	0.0134725
914.468	0.0134917
914.546	0.0132984
914.624	0.0135313
914.703	0.0134388
914.781	0.0135227
914.859	0.0134346
914.937	0.0134062
915.015	0.0134979
915.093	0.0134621
915.171	0.0135127
915.249	0.0135179
915.328	0.0134553
915.406	0.0135225
915.484	0.0134247
915.562	0.0134993
915.640	0.0134240
915.718	0.0134911
915.796	0.0135315
915.874	0.0134554
915.953	0.0134529
916.031	0.0135065
916.109	0.0135322
916.187	0.0134791
916.265	0.0134535
916.343	0.0134710
916.421	0.0134336
916.499	0.0135520
916.578	0.0136214
916.656	0.0134709
916.734	0.0134152
916.812	0.0134214
916.890	0.0134704
916.968	0.0134406
917.046	0.0133864
917.124	0.0134473
917.203	0.0135010
917.281	0.0133779
917.359	0.0134145
917.437	0.0132207
917.515	0.0133599
917.593	0.0133405
917.671	0.0134137
917.749	0.0135886
917.828	0.0133403
917.906	0.0134287
917.984	0.0134510
918.062	0.0133954
918.140	0.0132729
918.218	0.0134531
918.296	0.0133672
918.374	0.0133516
918.453	0.0134552
918.531	0.0135812
918.609	0.0135259
918.687	0.0135191
918.765	0.0135541
918.843	0.0133749
918.921	0.0133431
918.999	0.0134415
919.078	0.0133942
919.156	0.0134763
919.234	0.0135075
919.312	0.0133855
919.390	0.0133957
919.468	0.0133063
919.546	0.0133522
919.624	0.0135000
919.703	0.0133566
919.781	0.0132824
919.859	0.0133490
919.937	0.0133462
