05/08/2022	20:25:42	Ver.	4.1	UNKNOWN
Optical Delay	600.015094	Delta X		0.078125	Sweeps	1	Scan Rate	0/0
Coordinates	Axis 1	NaN	Axis 2	NaN	Axis 3	NaN	Axis 4	NaN	Axis 5	NaN	Axis 6	0.000000
TX Power	0.000000	RX Power	0.000000

600.015	0.0135621
600.093	0.0136539
600.171	0.0135631
600.249	0.0135318
600.328	0.0134972
600.406	0.0136399
600.484	0.0136932
600.562	0.0136094
600.640	0.0135309
600.718	0.0135828
600.796	0.0136468
600.874	0.0135353
600.953	0.0135708
601.031	0.0135387
601.109	0.0135095
601.187	0.0135855
601.265	0.0135017
601.343	0.0134289
601.421	0.0134488
601.499	0.0134926
601.578	0.0134719
601.656	0.0135414
601.734	0.0136749
601.812	0.0135551
601.890	0.0136325
601.968	0.0134175
602.046	0.0134814
602.124	0.0136415
602.203	0.0135014
602.281	0.0134650
602.359	0.0134909
602.437	0.0134332
602.515	0.0134304
602.593	0.0136576
602.671	0.0135556
602.749	0.0136049
602.828	0.0135791
602.906	0.0136663
602.984	0.0136346
603.062	0.0136523
603.140	0.0135465
603.218	0.0135816
603.296	0.0136494
603.374	0.0136297
603.453	0.0136338
603.531	0.0136681
603.609	0.0136145
603.687	0.0136975
603.765	0.0136400
603.843	0.0136922
603.921	0.0134429
603.999	0.0136118
604.078	0.0137234
604.156	0.0137556
604.234	0.0137878
604.312	0.0137158
604.390	0.0135535
604.468	0.0136479
604.546	0.0137590
604.624	0.0136343
604.703	0.0136513
604.781	0.0137232
604.859	0.0136790
604.937	0.0136747
605.015	0.0136842
605.093	0.0137676
605.171	0.0137598
605.249	0.0137687
605.328	0.0136274
605.406	0.0137168
605.484	0.0137789
605.562	0.0135178
605.640	0.0137128
605.718	0.0137726
605.796	0.0136343
605.874	0.0136001
605.953	0.0136220
606.031	0.0136765
606.109	0.0137157
606.187	0.0136182
606.265	0.0136295
606.343	0.0137586
606.421	0.0137298
606.499	0.0136686
606.578	0.0135983
606.656	0.0136224
606.734	0.0137004
606.812	0.0136540
606.890	0.0136672
606.968	0.0135799
607.046	0.0137476
607.124	0.0136708
607.203	0.0136179
607.281	0.0135184
607.359	0.0135619
607.437	0.0136396
607.515	0.0136610
607.593	0.0136670
607.671	0.0136850
607.749	0.0137689
607.828	0.0136826
607.906	0.0137030
607.984	0.0136120
608.062	0.0135249
608.140	0.0136343
608.218	0.0137971
608.296	0.0136430
608.374	0.0135861
608.453	0.0137593
608.531	0.0136449
608.609	0.0136621
608.687	0.0135772
608.765	0.0136073
608.843	0.0137154
608.921	0.0136685
608.999	0.0137832
609.078	0.0137389
609.156	0.0137061
609.234	0.0136630
609.312	0.0136787
609.390	0.0137386
609.468	0.0136362
609.546	0.0135365
609.624	0.0135893
609.703	0.0137103
609.781	0.0136180
609.859	0.0136299
609.937	0.0136581
610.015	0.0136218
610.093	0.0136462
610.171	0.0135767
610.249	0.0135748
610.328	0.0134886
610.406	0.0135706
610.484	0.0136028
610.562	0.0134497
610.640	0.0135002
610.718	0.0135317
610.796	0.0136164
610.874	0.0136459
610.953	0.0135413
611.031	0.0137262
611.109	0.0135879
611.187	0.0135813
611.265	0.0135545
611.343	0.0135893
611.421	0.0136310
611.499	0.0136797
611.578	0.0135819
611.656	0.0136171
611.734	0.0136121
611.812	0.0135039
611.890	0.0135970
611.968	0.0135400
612.046	0.0135687
612.124	0.0136250
612.203	0.0136961
612.281	0.0136542
612.359	0.0136244
612.437	0.0136277
612.515	0.0135397
612.593	0.0135648
612.671	0.0136678
612.749	0.0137119
612.828	0.0136391
612.906	0.0136383
612.984	0.0135867
613.062	0.0137035
613.140	0.0136209
613.218	0.0136366
613.296	0.0136357
613.374	0.0136113
613.453	0.0135663
613.531	0.0136126
613.609	0.0136221
613.687	0.0136587
613.765	0.0136308
613.843	0.0137181
613.921	0.0136487
613.999	0.0137633
614.078	0.0137786
614.156	0.0136134
614.234	0.0134927
614.312	0.0136948
614.390	0.0135540
614.468	0.0136554
614.546	0.0137744
614.624	0.0136598
614.703	0.0136815
614.781	0.0136603
614.859	0.0135966
614.937	0.0137488
615.015	0.0137056
615.093	0.0136063
615.171	0.0137079
615.249	0.0136430
615.328	0.0136829
615.406	0.0137228
615.484	0.0137301
615.562	0.0137105
615.640	0.0135435
615.718	0.0135077
615.796	0.0136773
615.874	0.0136600
615.953	0.0136260
616.031	0.0136443
616.109	0.0136157
616.187	0.0136335
616.265	0.0136888
616.343	0.0137173
616.421	0.0136322
616.499	0.0135854
616.578	0.0136133
616.656	0.0137161
616.734	0.0136293
616.812	0.0136219
616.890	0.0135368
616.968	0.0137143
617.046	0.0136072
617.124	0.0135668
617.203	0.0135650
617.281	0.0135592
617.359	0.0135127
617.437	0.0135879
617.515	0.0134818
617.593	0.0134161
617.671	0.0134548
617.749	0.0136424
617.828	0.0135020
617.906	0.0134552
617.984	0.0136152
618.062	0.0136343
618.140	0.0135555
618.218	0.0134762
618.296	0.0134324
618.374	0.0136724
618.453	0.0135443
618.531	0.0134069
618.609	0.0135355
618.687	0.0135530
618.765	0.0136714
618.843	0.0135780
618.921	0.0134853
618.999	0.0134253
619.078	0.0136210
619.156	0.0137070
619.234	0.0134355
619.312	0.0137094
619.390	0.0135248
619.468	0.0134435
619.546	0.0135309
619.624	0.0135381
619.703	0.0135604
619.781	0.0134879
619.859	0.0134750
619.937	0.0135393
620.015	0.0134204
620.093	0.0135437
620.171	0.0134786
620.249	0.0134274
620.328	0.0135217
620.406	0.0134904
620.484	0.0134602
620.562	0.0135640
620.640	0.0134579
620.718	0.0133967
620.796	0.0135522
620.874	0.0136237
620.953	0.0136268
621.031	0.0134502
621.109	0.0136756
621.187	0.0136227
621.265	0.0133740
621.343	0.0134184
621.421	0.0135542
621.499	0.0136266
621.578	0.0135365
621.656	0.0136777
621.734	0.0136284
621.812	0.0133652
621.890	0.0135856
621.968	0.0135257
622.046	0.0136168
622.124	0.0135168
622.203	0.0134621
622.281	0.0134531
622.359	0.0135788
622.437	0.0134980
622.515	0.0134263
622.593	0.0135500
622.671	0.0136025
622.749	0.0136186
622.828	0.0135870
622.906	0.0136160
622.984	0.0135809
623.062	0.0134808
623.140	0.0135303
623.218	0.0135440
623.296	0.0137186
623.374	0.0137054
623.453	0.0135334
623.531	0.0137352
623.609	0.0137170
623.687	0.0136752
623.765	0.0136427
623.843	0.0137745
623.921	0.0136955
623.999	0.0137757
624.078	0.0136652
624.156	0.0137637
624.234	0.0137202
624.312	0.0137836
624.390	0.0136678
624.468	0.0138043
624.546	0.0137936
624.624	0.0138831
624.703	0.0137064
624.781	0.0137643
624.859	0.0137110
624.937	0.0137630
625.015	0.0138728
625.093	0.0137187
625.171	0.0137199
625.249	0.0136700
625.328	0.0137376
625.406	0.0136443
625.484	0.0136974
625.562	0.0137461
625.640	0.0136543
625.718	0.0137013
625.796	0.0138860
625.874	0.0137621
625.953	0.0138273
626.031	0.0138400
626.109	0.0137737
626.187	0.0137504
626.265	0.0137821
626.343	0.0137837
626.421	0.0136594
626.499	0.0136389
626.578	0.0137823
626.656	0.0137003
626.734	0.0136875
626.812	0.0136769
626.890	0.0136420
626.968	0.0138728
627.046	0.0137847
627.124	0.0136703
627.203	0.0136016
627.281	0.0137507
627.359	0.0135407
627.437	0.0136578
627.515	0.0135766
627.593	0.0135205
627.671	0.0136341
627.749	0.0137907
627.828	0.0136961
627.906	0.0135711
627.984	0.0136497
628.062	0.0136237
628.140	0.0135591
628.218	0.0135524
628.296	0.0136168
628.374	0.0135357
628.453	0.0136008
628.531	0.0135355
628.609	0.0136797
628.687	0.0135299
628.765	0.0136024
628.843	0.0136429
628.921	0.0136305
628.999	0.0136276
629.078	0.0136409
629.156	0.0134665
629.234	0.0135870
629.312	0.0136842
629.390	0.0136140
629.468	0.0136715
629.546	0.0136197
629.624	0.0135317
629.703	0.0136478
629.781	0.0134530
629.859	0.0135847
629.937	0.0135902
630.015	0.0135052
630.093	0.0135733
630.171	0.0135980
630.249	0.0135020
630.328	0.0136819
630.406	0.0136249
630.484	0.0135644
630.562	0.0135044
630.640	0.0135298
630.718	0.0136239
630.796	0.0135493
630.874	0.0135323
630.953	0.0136233
631.031	0.0136165
631.109	0.0136653
631.187	0.0136334
631.265	0.0135385
631.343	0.0136612
631.421	0.0136520
631.499	0.0135678
631.578	0.0136878
631.656	0.0137351
631.734	0.0137135
631.812	0.0136942
631.890	0.0135921
631.968	0.0135109
632.046	0.0136449
632.124	0.0137636
632.203	0.0136540
632.281	0.0136032
632.359	0.0135384
632.437	0.0135945
632.515	0.0136372
632.593	0.0136462
632.671	0.0137151
632.749	0.0137206
632.828	0.0137517
632.906	0.0137164
632.984	0.0136237
633.062	0.0137061
633.140	0.0137675
633.218	0.0137257
633.296	0.0137765
633.374	0.0136399
633.453	0.0137364
633.531	0.0138203
633.609	0.0136617
633.687	0.0136197
633.765	0.0136469
633.843	0.0136270
633.921	0.0137364
633.999	0.0137608
634.078	0.0137069
634.156	0.0135661
634.234	0.0137193
634.312	0.0136553
634.390	0.0137244
634.468	0.0137836
634.546	0.0135873
634.624	0.0137271
634.703	0.0137482
634.781	0.0136671
634.859	0.0137402
634.937	0.0136702
635.015	0.0136604
635.093	0.0136745
635.171	0.0138187
635.249	0.0137121
635.328	0.0136736
635.406	0.0137482
635.484	0.0137660
635.562	0.0137930
635.640	0.0136900
635.718	0.0136457
635.796	0.0137087
635.874	0.0137246
635.953	0.0136697
636.031	0.0136511
636.109	0.0137321
636.187	0.0136651
636.265	0.0135348
636.343	0.0136625
636.421	0.0137559
636.499	0.0136465
636.578	0.0134416
636.656	0.0135735
636.734	0.0134869
636.812	0.0136199
636.890	0.0134312
636.968	0.0135696
637.046	0.0134930
637.124	0.0135925
637.203	0.0135821
637.281	0.0137093
637.359	0.0135656
637.437	0.0135220
637.515	0.0135609
637.593	0.0136456
637.671	0.0135563
637.749	0.0136007
637.828	0.0138098
637.906	0.0136036
637.984	0.0135027
638.062	0.0136511
638.140	0.0136243
638.218	0.0135143
638.296	0.0135529
638.374	0.0136640
638.453	0.0136308
638.531	0.0135235
638.609	0.0134609
638.687	0.0135918
638.765	0.0136171
638.843	0.0135998
638.921	0.0134515
638.999	0.0135068
639.078	0.0135744
639.156	0.0136784
639.234	0.0136249
639.312	0.0136138
639.390	0.0136586
639.468	0.0138477
639.546	0.0137099
639.624	0.0136302
639.703	0.0135793
639.781	0.0136504
639.859	0.0134370
639.937	0.0135406
640.015	0.0136385
640.093	0.0133397
640.171	0.0134350
640.249	0.0133488
640.328	0.0134154
640.406	0.0134245
640.484	0.0135358
640.562	0.0134171
640.640	0.0134435
640.718	0.0135126
640.796	0.0135314
640.874	0.0134047
640.953	0.0133994
641.031	0.0134760
641.109	0.0134813
641.187	0.0133705
641.265	0.0134518
641.343	0.0136127
641.421	0.0135899
641.499	0.0137000
641.578	0.0134836
641.656	0.0137406
641.734	0.0137054
641.812	0.0137971
641.890	0.0138341
641.968	0.0137862
642.046	0.0139823
642.124	0.0139030
642.203	0.0137181
642.281	0.0137746
642.359	0.0138058
642.437	0.0138534
642.515	0.0138523
642.593	0.0139439
642.671	0.0139413
642.749	0.0137748
642.828	0.0138090
642.906	0.0138558
642.984	0.0138772
643.062	0.0139248
643.140	0.0136475
643.218	0.0137045
643.296	0.0137852
643.374	0.0136656
643.453	0.0134440
643.531	0.0135083
643.609	0.0134055
643.687	0.0134368
643.765	0.0132351
643.843	0.0133734
643.921	0.0130882
643.999	0.0130853
644.078	0.0130827
644.156	0.0130773
644.234	0.0130466
644.312	0.0131196
644.390	0.0131165
644.468	0.0130544
644.546	0.0130573
644.624	0.0130417
644.703	0.0132862
644.781	0.0133904
644.859	0.0134070
644.937	0.0134921
645.015	0.0136456
645.093	0.0138113
645.171	0.0140497
645.249	0.0140342
645.328	0.0141762
645.406	0.0144260
645.484	0.0144627
645.562	0.0145202
645.640	0.0146883
645.718	0.0145922
645.796	0.0146071
645.874	0.0146208
645.953	0.0145862
646.031	0.0144692
646.109	0.0143359
646.187	0.0143340
646.265	0.0141847
646.343	0.0139263
646.421	0.0137286
646.499	0.0135867
646.578	0.0134824
646.656	0.0133528
646.734	0.0130901
646.812	0.0128446
646.890	0.0128065
646.968	0.0126780
647.046	0.0125064
647.124	0.0125663
647.203	0.0125283
647.281	0.0122813
647.359	0.0123732
647.437	0.0124281
647.515	0.0125386
647.593	0.0125274
647.671	0.0125695
647.749	0.0126597
647.828	0.0128044
647.906	0.0130647
647.984	0.0131149
648.062	0.0134462
648.140	0.0134318
648.218	0.0135701
648.296	0.0138361
648.374	0.0138512
648.453	0.0142690
648.531	0.0143547
648.609	0.0144792
648.687	0.0144479
648.765	0.0145723
648.843	0.0147129
648.921	0.0147049
648.999	0.0147184
649.078	0.0146395
649.156	0.0147571
649.234	0.0148135
649.312	0.0146107
649.390	0.0144801
649.468	0.0144682
649.546	0.0143895
649.624	0.0143935
649.703	0.0141265
649.781	0.0140711
649.859	0.0139780
649.937	0.0139382
650.015	0.0138042
650.093	0.0137061
650.171	0.0134596
650.249	0.0136476
650.328	0.0135388
650.406	0.0133276
650.484	0.0131773
650.562	0.0131198
650.640	0.0129200
650.718	0.0128265
650.796	0.0129780
650.874	0.0127141
650.953	0.0126393
651.031	0.0126952
651.109	0.0125137
651.187	0.0124941
651.265	0.0126572
651.343	0.0125139
651.421	0.0126109
651.499	0.0123034
651.578	0.0124937
651.656	0.0126871
651.734	0.0126382
651.812	0.0126038
651.890	0.0126973
651.968	0.0130208
652.046	0.0128890
652.124	0.0131707
652.203	0.0132568
652.281	0.0133952
652.359	0.0135517
652.437	0.0137228
652.515	0.0137746
652.593	0.0139745
652.671	0.0142167
652.749	0.0142850
652.828	0.0144953
652.906	0.0146010
652.984	0.0146413
653.062	0.0148663
653.140	0.0150700
653.218	0.0151364
653.296	0.0151402
653.374	0.0152863
653.453	0.0152937
653.531	0.0154172
653.609	0.0151238
653.687	0.0151314
653.765	0.0151624
653.843	0.0152524
653.921	0.0150333
653.999	0.0147434
654.078	0.0146024
654.156	0.0143478
654.234	0.0139651
654.312	0.0138659
654.390	0.0136949
654.468	0.0132791
654.546	0.0131805
654.624	0.0128188
654.703	0.0126270
654.781	0.0123921
654.859	0.0121192
654.937	0.0117582
655.015	0.0117440
655.093	0.0116417
655.171	0.0113004
655.249	0.0113023
655.328	0.0112080
655.406	0.0111192
655.484	0.0111583
655.562	0.0112391
655.640	0.0112650
655.718	0.0113019
655.796	0.0116687
655.874	0.0118330
655.953	0.0119774
656.031	0.0121848
656.109	0.0126986
656.187	0.0129940
656.265	0.0133313
656.343	0.0136166
656.421	0.0141386
656.499	0.0142899
656.578	0.0146597
656.656	0.0149704
656.734	0.0153606
656.812	0.0156838
656.890	0.0158878
656.968	0.0159579
657.046	0.0161403
657.124	0.0163435
657.203	0.0162943
657.281	0.0164589
657.359	0.0163432
657.437	0.0163686
657.515	0.0163200
657.593	0.0159717
657.671	0.0158897
657.749	0.0157150
657.828	0.0155191
657.906	0.0151746
657.984	0.0147468
658.062	0.0143775
658.140	0.0141636
658.218	0.0137473
658.296	0.0134510
658.374	0.0130555
658.453	0.0126297
658.531	0.0123944
658.609	0.0121502
658.687	0.0118568
658.765	0.0116342
658.843	0.0113657
658.921	0.0110500
658.999	0.0110040
659.078	0.0110243
659.156	0.0110069
659.234	0.0108992
659.312	0.0110576
659.390	0.0109650
659.468	0.0110155
659.546	0.0113772
659.624	0.0115203
659.703	0.0117885
659.781	0.0119179
659.859	0.0121075
659.937	0.0124532
660.015	0.0126517
660.093	0.0127477
660.171	0.0131356
660.249	0.0134374
660.328	0.0137035
660.406	0.0138338
660.484	0.0141306
660.562	0.0143657
660.640	0.0146725
660.718	0.0149028
660.796	0.0150362
660.874	0.0152273
660.953	0.0154729
661.031	0.0156401
661.109	0.0157211
661.187	0.0157335
661.265	0.0159898
661.343	0.0157957
661.421	0.0159121
661.499	0.0159118
661.578	0.0157861
661.656	0.0160617
661.734	0.0157870
661.812	0.0156450
661.890	0.0154607
661.968	0.0154699
662.046	0.0152290
662.124	0.0150089
662.203	0.0147073
662.281	0.0145675
662.359	0.0143173
662.437	0.0141414
662.515	0.0138555
662.593	0.0134341
662.671	0.0132269
662.749	0.0129873
662.828	0.0127007
662.906	0.0123441
662.984	0.0121826
663.062	0.0118800
663.140	0.0117299
663.218	0.0116566
663.296	0.0115332
663.374	0.0113856
663.453	0.0113163
663.531	0.0113300
663.609	0.0113334
663.687	0.0112670
663.765	0.0114359
663.843	0.0116602
663.921	0.0117728
663.999	0.0118572
664.078	0.0120587
664.156	0.0122559
664.234	0.0123391
664.312	0.0126691
664.390	0.0128777
664.468	0.0130614
664.546	0.0131640
664.624	0.0134779
664.703	0.0137282
664.781	0.0140163
664.859	0.0141702
664.937	0.0144180
665.015	0.0146603
665.093	0.0147214
665.171	0.0149078
665.249	0.0151440
665.328	0.0150640
665.406	0.0152773
665.484	0.0153333
665.562	0.0152557
665.640	0.0153024
665.718	0.0151113
665.796	0.0151136
665.874	0.0151800
665.953	0.0150171
666.031	0.0148521
666.109	0.0148369
666.187	0.0144682
666.265	0.0144370
666.343	0.0143798
666.421	0.0141983
666.499	0.0139591
666.578	0.0137194
666.656	0.0136352
666.734	0.0135645
666.812	0.0132603
666.890	0.0133104
666.968	0.0131163
667.046	0.0129212
667.124	0.0129569
667.203	0.0128832
667.281	0.0127771
667.359	0.0127415
667.437	0.0127407
667.515	0.0125998
667.593	0.0126569
667.671	0.0128192
667.749	0.0127425
667.828	0.0126412
667.906	0.0128119
667.984	0.0127190
668.062	0.0127436
668.140	0.0130298
668.218	0.0131395
668.296	0.0130587
668.374	0.0132279
668.453	0.0133584
668.531	0.0133776
668.609	0.0134750
668.687	0.0136034
668.765	0.0137539
668.843	0.0137554
668.921	0.0138954
668.999	0.0138022
669.078	0.0137523
669.156	0.0138622
669.234	0.0139066
669.312	0.0140026
669.390	0.0139468
669.468	0.0140187
669.546	0.0139861
669.624	0.0139277
669.703	0.0138665
669.781	0.0137942
669.859	0.0139362
669.937	0.0138844
670.015	0.0138346
670.093	0.0137757
670.171	0.0138421
670.249	0.0139213
670.328	0.0137698
670.406	0.0137231
670.484	0.0137412
670.562	0.0136142
670.640	0.0135081
670.718	0.0135783
670.796	0.0134903
670.874	0.0133717
670.953	0.0133376
671.031	0.0134551
671.109	0.0132394
671.187	0.0131213
671.265	0.0132185
671.343	0.0132417
671.421	0.0133331
671.499	0.0133432
671.578	0.0133686
671.656	0.0133553
671.734	0.0135143
671.812	0.0135983
671.890	0.0136549
671.968	0.0136870
672.046	0.0137014
672.124	0.0139220
672.203	0.0139499
672.281	0.0140025
672.359	0.0140171
672.437	0.0141775
672.515	0.0141944
672.593	0.0143092
672.671	0.0141889
672.749	0.0142909
672.828	0.0141039
672.906	0.0141708
672.984	0.0140756
673.062	0.0139874
673.140	0.0140512
673.218	0.0139643
673.296	0.0138735
673.374	0.0138882
673.453	0.0138510
673.531	0.0136124
673.609	0.0137897
673.687	0.0134653
673.765	0.0134930
673.843	0.0132362
673.921	0.0132503
673.999	0.0132337
674.078	0.0130696
674.156	0.0130863
674.234	0.0130083
674.312	0.0129408
674.390	0.0130016
674.468	0.0127966
674.546	0.0127951
674.624	0.0128052
674.703	0.0128312
674.781	0.0128234
674.859	0.0129602
674.937	0.0129743
675.015	0.0129631
675.093	0.0129179
675.171	0.0130446
675.249	0.0131590
675.328	0.0131567
675.406	0.0132602
675.484	0.0132365
675.562	0.0133601
675.640	0.0132849
675.718	0.0133583
675.796	0.0133774
675.874	0.0135229
675.953	0.0135256
676.031	0.0135471
676.109	0.0134280
676.187	0.0134957
676.265	0.0135001
676.343	0.0135397
676.421	0.0136788
676.499	0.0135124
676.578	0.0135568
676.656	0.0137011
676.734	0.0136296
676.812	0.0137319
676.890	0.0136455
676.968	0.0138769
677.046	0.0139887
677.124	0.0138421
677.203	0.0137745
677.281	0.0138931
677.359	0.0139610
677.437	0.0141077
677.515	0.0140059
677.593	0.0139436
677.671	0.0138907
677.749	0.0139623
677.828	0.0139742
677.906	0.0140176
677.984	0.0137704
678.062	0.0138328
678.140	0.0137919
678.218	0.0137863
678.296	0.0137583
678.374	0.0136145
678.453	0.0136760
678.531	0.0135528
678.609	0.0135645
678.687	0.0134676
678.765	0.0135297
678.843	0.0135289
678.921	0.0135499
678.999	0.0135200
679.078	0.0134879
679.156	0.0134044
679.234	0.0133729
679.312	0.0134457
679.390	0.0134836
679.468	0.0134078
679.546	0.0133175
679.624	0.0133438
679.703	0.0133546
679.781	0.0134634
679.859	0.0132743
679.937	0.0133924
680.015	0.0133172
680.093	0.0133524
680.171	0.0134209
680.249	0.0133831
680.328	0.0134988
680.406	0.0134983
680.484	0.0134139
680.562	0.0136280
680.640	0.0133633
680.718	0.0134450
680.796	0.0135238
680.874	0.0135364
680.953	0.0133279
681.031	0.0133849
681.109	0.0132564
681.187	0.0131831
681.265	0.0131715
681.343	0.0130345
681.421	0.0129998
681.499	0.0130641
681.578	0.0130299
681.656	0.0128982
681.734	0.0129646
681.812	0.0128921
681.890	0.0128541
681.968	0.0128179
682.046	0.0129681
682.124	0.0130717
682.203	0.0130406
682.281	0.0129768
682.359	0.0131807
682.437	0.0132959
682.515	0.0132743
682.593	0.0134801
682.671	0.0136734
682.749	0.0138137
682.828	0.0139521
682.906	0.0140599
682.984	0.0141416
683.062	0.0142134
683.140	0.0143163
683.218	0.0144115
683.296	0.0145782
683.374	0.0146454
683.453	0.0146358
683.531	0.0145936
683.609	0.0146897
683.687	0.0147197
683.765	0.0146766
683.843	0.0146697
683.921	0.0145068
683.999	0.0143749
684.078	0.0143542
684.156	0.0141721
684.234	0.0141302
684.312	0.0140392
684.390	0.0139992
684.468	0.0138514
684.546	0.0139278
684.624	0.0138432
684.703	0.0136254
684.781	0.0136214
684.859	0.0134739
684.937	0.0135199
685.015	0.0135980
685.093	0.0134153
685.171	0.0133907
685.249	0.0132954
685.328	0.0134198
685.406	0.0133289
685.484	0.0132161
685.562	0.0131004
685.640	0.0131860
685.718	0.0133190
685.796	0.0132349
685.874	0.0132582
685.953	0.0131973
686.031	0.0132341
686.109	0.0134416
686.187	0.0132317
686.265	0.0131236
686.343	0.0131780
686.421	0.0131912
686.499	0.0132036
686.578	0.0131989
686.656	0.0132482
686.734	0.0132401
686.812	0.0131078
686.890	0.0131308
686.968	0.0131639
687.046	0.0132195
687.124	0.0132137
687.203	0.0132903
687.281	0.0133397
687.359	0.0132800
687.437	0.0133301
687.515	0.0134622
687.593	0.0135496
687.671	0.0135397
687.749	0.0135952
687.828	0.0137700
687.906	0.0137139
687.984	0.0137082
688.062	0.0137449
688.140	0.0138108
688.218	0.0139230
688.296	0.0139502
688.374	0.0139356
688.453	0.0140482
688.531	0.0141247
688.609	0.0141351
688.687	0.0141904
688.765	0.0144308
688.843	0.0144712
688.921	0.0143982
688.999	0.0144429
689.078	0.0143724
689.156	0.0143618
689.234	0.0144485
689.312	0.0144545
689.390	0.0142441
689.468	0.0143721
689.546	0.0141778
689.624	0.0141939
689.703	0.0140059
689.781	0.0139344
689.859	0.0137991
689.937	0.0137214
690.015	0.0137090
690.093	0.0135194
690.171	0.0133549
690.249	0.0134164
690.328	0.0133714
690.406	0.0132910
690.484	0.0133494
690.562	0.0133176
690.640	0.0133054
690.718	0.0133046
690.796	0.0133085
690.874	0.0133268
690.953	0.0131829
691.031	0.0132214
691.109	0.0133353
691.187	0.0133373
691.265	0.0133437
691.343	0.0132339
691.421	0.0132897
691.499	0.0131390
691.578	0.0131332
691.656	0.0129688
691.734	0.0130850
691.812	0.0130116
691.890	0.0129252
691.968	0.0130569
692.046	0.0130333
692.124	0.0128382
692.203	0.0128333
692.281	0.0131352
692.359	0.0130257
692.437	0.0131608
692.515	0.0132854
692.593	0.0132716
692.671	0.0134382
692.749	0.0135002
692.828	0.0134537
692.906	0.0136518
692.984	0.0135296
693.062	0.0135403
693.140	0.0136172
693.218	0.0137876
693.296	0.0137376
693.374	0.0137073
693.453	0.0136365
693.531	0.0136476
693.609	0.0138188
693.687	0.0139919
693.765	0.0137351
693.843	0.0138678
693.921	0.0140018
693.999	0.0137937
694.078	0.0138800
694.156	0.0138398
694.234	0.0139162
694.312	0.0138416
694.390	0.0140159
694.468	0.0139796
694.546	0.0140383
694.624	0.0140234
694.703	0.0140423
694.781	0.0139238
694.859	0.0139118
694.937	0.0137867
695.015	0.0137078
695.093	0.0136086
695.171	0.0136895
695.249	0.0136440
695.328	0.0135602
695.406	0.0136755
695.484	0.0137558
695.562	0.0136004
695.640	0.0135483
695.718	0.0134672
695.796	0.0134277
695.874	0.0135027
695.953	0.0135284
696.031	0.0133702
696.109	0.0134053
696.187	0.0135104
696.265	0.0133926
696.343	0.0134548
696.421	0.0132712
696.499	0.0133475
696.578	0.0133594
696.656	0.0134055
696.734	0.0133418
696.812	0.0133960
696.890	0.0134123
696.968	0.0135238
697.046	0.0135166
697.124	0.0134287
697.203	0.0135330
697.281	0.0134253
697.359	0.0134831
697.437	0.0134064
697.515	0.0133747
697.593	0.0135563
697.671	0.0133408
697.749	0.0133134
697.828	0.0134005
697.906	0.0133838
697.984	0.0133738
698.062	0.0135087
698.140	0.0134464
698.218	0.0136485
698.296	0.0135271
698.374	0.0135917
698.453	0.0136551
698.531	0.0135820
698.609	0.0136472
698.687	0.0135335
698.765	0.0136010
698.843	0.0135973
698.921	0.0136755
698.999	0.0136587
699.078	0.0133458
699.156	0.0134428
699.234	0.0136989
699.312	0.0134321
699.390	0.0133215
699.468	0.0134203
699.546	0.0134501
699.624	0.0134752
699.703	0.0132536
699.781	0.0133690
699.859	0.0135674
699.937	0.0134921
700.015	0.0133051
700.093	0.0134559
700.171	0.0133250
700.249	0.0134084
700.328	0.0133753
700.406	0.0132923
700.484	0.0133506
700.562	0.0133004
700.640	0.0134453
700.718	0.0135428
700.796	0.0135851
700.874	0.0135575
700.953	0.0136021
701.031	0.0136414
701.109	0.0139329
701.187	0.0137910
701.265	0.0138318
701.343	0.0137718
701.421	0.0138657
701.499	0.0139143
701.578	0.0141142
701.656	0.0141013
701.734	0.0139842
701.812	0.0139889
701.890	0.0140569
701.968	0.0139890
702.046	0.0139987
702.124	0.0141410
702.203	0.0140446
702.281	0.0141320
702.359	0.0137968
702.437	0.0138707
702.515	0.0140419
702.593	0.0138208
702.671	0.0138385
702.749	0.0138810
702.828	0.0136078
702.906	0.0136096
702.984	0.0135697
703.062	0.0135818
703.140	0.0132718
703.218	0.0132916
703.296	0.0132095
703.374	0.0131760
703.453	0.0131622
703.531	0.0131306
703.609	0.0132229
703.687	0.0131879
703.765	0.0131556
703.843	0.0131553
703.921	0.0131213
703.999	0.0133053
704.078	0.0131516
704.156	0.0133351
704.234	0.0132564
704.312	0.0133155
704.390	0.0134315
704.468	0.0132840
704.546	0.0135868
704.624	0.0138682
704.703	0.0137296
704.781	0.0138988
704.859	0.0139844
704.937	0.0139574
705.015	0.0139669
705.093	0.0139164
705.171	0.0138997
705.249	0.0140150
705.328	0.0138872
705.406	0.0137746
705.484	0.0138593
705.562	0.0136897
705.640	0.0137693
705.718	0.0136002
705.796	0.0134550
705.874	0.0134189
705.953	0.0134087
706.031	0.0134250
706.109	0.0131098
706.187	0.0129526
706.265	0.0129337
706.343	0.0129806
706.421	0.0129877
706.499	0.0129562
706.578	0.0128457
706.656	0.0128226
706.734	0.0129258
706.812	0.0128024
706.890	0.0129124
706.968	0.0129163
707.046	0.0130283
707.124	0.0130430
707.203	0.0132650
707.281	0.0133107
707.359	0.0131812
707.437	0.0133326
707.515	0.0134742
707.593	0.0136377
707.671	0.0137094
707.749	0.0138244
707.828	0.0139714
707.906	0.0140043
707.984	0.0139267
708.062	0.0141502
708.140	0.0140977
708.218	0.0140528
708.296	0.0140912
708.374	0.0143751
708.453	0.0142834
708.531	0.0141576
708.609	0.0141656
708.687	0.0141454
708.765	0.0141349
708.843	0.0140166
708.921	0.0141207
708.999	0.0140128
709.078	0.0139717
709.156	0.0140444
709.234	0.0138697
709.312	0.0139972
709.390	0.0138528
709.468	0.0137554
709.546	0.0138088
709.624	0.0137310
709.703	0.0137369
709.781	0.0135927
709.859	0.0136372
709.937	0.0134887
710.015	0.0135542
710.093	0.0135931
710.171	0.0136687
710.249	0.0133784
710.328	0.0134570
710.406	0.0135487
710.484	0.0134052
710.562	0.0132853
710.640	0.0132825
710.718	0.0133549
710.796	0.0132416
710.874	0.0131511
710.953	0.0131573
711.031	0.0129763
711.109	0.0131814
711.187	0.0130454
711.265	0.0130341
711.343	0.0130888
711.421	0.0129662
711.499	0.0128838
711.578	0.0129554
711.656	0.0130552
711.734	0.0131524
711.812	0.0131217
711.890	0.0132224
711.968	0.0132516
712.046	0.0133567
712.124	0.0133844
712.203	0.0135168
712.281	0.0134313
712.359	0.0135110
712.437	0.0137181
712.515	0.0135483
712.593	0.0136951
712.671	0.0138145
712.749	0.0138640
712.828	0.0138864
712.906	0.0139108
712.984	0.0138633
713.062	0.0137945
713.140	0.0137888
713.218	0.0137610
713.296	0.0138806
713.374	0.0138599
713.453	0.0138596
713.531	0.0139671
713.609	0.0138371
713.687	0.0137751
713.765	0.0138478
713.843	0.0138744
713.921	0.0139419
713.999	0.0138750
714.078	0.0140611
714.156	0.0139442
714.234	0.0140713
714.312	0.0138635
714.390	0.0140031
714.468	0.0140873
714.546	0.0139851
714.624	0.0140488
714.703	0.0139050
714.781	0.0139478
714.859	0.0140172
714.937	0.0139846
715.015	0.0139790
715.093	0.0139232
715.171	0.0138893
715.249	0.0141904
715.328	0.0142584
715.406	0.0142554
715.484	0.0142626
715.562	0.0141921
715.640	0.0141605
715.718	0.0142250
715.796	0.0140108
715.874	0.0139646
715.953	0.0141322
716.031	0.0139293
716.109	0.0139165
716.187	0.0136775
716.265	0.0137410
716.343	0.0136961
716.421	0.0134663
716.499	0.0134981
716.578	0.0133936
716.656	0.0133031
716.734	0.0129389
716.812	0.0132098
716.890	0.0130672
716.968	0.0130609
717.046	0.0128862
717.124	0.0128516
717.203	0.0130292
717.281	0.0128690
717.359	0.0128758
717.437	0.0130391
717.515	0.0129948
717.593	0.0130565
717.671	0.0129987
717.749	0.0130549
717.828	0.0132442
717.906	0.0131896
717.984	0.0132437
718.062	0.0132913
718.140	0.0134277
718.218	0.0135625
718.296	0.0134510
718.374	0.0134854
718.453	0.0134216
718.531	0.0136887
718.609	0.0136779
718.687	0.0137524
718.765	0.0138090
718.843	0.0138567
718.921	0.0138091
718.999	0.0139516
719.078	0.0139381
719.156	0.0139897
719.234	0.0139559
719.312	0.0140605
719.390	0.0140307
719.468	0.0140329
719.546	0.0140196
719.624	0.0141077
719.703	0.0140873
719.781	0.0139684
719.859	0.0140330
719.937	0.0140366
720.015	0.0138605
720.093	0.0139273
720.171	0.0138370
720.249	0.0137845
720.328	0.0136739
720.406	0.0139075
720.484	0.0138190
720.562	0.0137084
720.640	0.0137138
720.718	0.0137305
720.796	0.0136842
720.874	0.0135678
720.953	0.0136298
721.031	0.0137354
721.109	0.0136102
721.187	0.0135190
721.265	0.0135830
721.343	0.0137230
721.421	0.0136642
721.499	0.0136324
721.578	0.0136297
721.656	0.0136509
721.734	0.0134924
721.812	0.0135870
721.890	0.0135984
721.968	0.0134724
722.046	0.0134632
722.124	0.0133858
722.203	0.0133675
722.281	0.0133642
722.359	0.0132718
722.437	0.0131709
722.515	0.0130992
722.593	0.0131346
722.671	0.0132161
722.749	0.0131135
722.828	0.0130786
722.906	0.0131073
722.984	0.0131067
723.062	0.0133436
723.140	0.0133567
723.218	0.0133449
723.296	0.0132985
723.374	0.0133414
723.453	0.0134196
723.531	0.0135394
723.609	0.0136871
723.687	0.0136409
723.765	0.0136887
723.843	0.0137525
723.921	0.0138651
723.999	0.0138401
724.078	0.0139106
724.156	0.0138235
724.234	0.0138512
724.312	0.0138803
724.390	0.0137108
724.468	0.0137965
724.546	0.0137390
724.624	0.0137573
724.703	0.0136670
724.781	0.0136179
724.859	0.0136436
724.937	0.0133983
725.015	0.0135238
725.093	0.0135473
725.171	0.0133544
725.249	0.0134435
725.328	0.0133371
725.406	0.0133382
725.484	0.0133782
725.562	0.0135502
725.640	0.0135782
725.718	0.0133354
725.796	0.0135552
725.874	0.0136121
725.953	0.0135052
726.031	0.0135989
726.109	0.0135029
726.187	0.0133775
726.265	0.0136388
726.343	0.0135836
726.421	0.0134763
726.499	0.0134886
726.578	0.0134453
726.656	0.0134274
726.734	0.0133728
726.812	0.0135585
726.890	0.0136217
726.968	0.0136565
727.046	0.0134549
727.124	0.0135798
727.203	0.0136511
727.281	0.0137511
727.359	0.0136883
727.437	0.0136964
727.515	0.0139190
727.593	0.0137643
727.671	0.0138731
727.749	0.0138416
727.828	0.0139071
727.906	0.0138361
727.984	0.0138277
728.062	0.0138531
728.140	0.0139101
728.218	0.0139390
728.296	0.0139751
728.374	0.0137405
728.453	0.0138210
728.531	0.0139790
728.609	0.0137564
728.687	0.0138025
728.765	0.0137457
728.843	0.0137769
728.921	0.0137046
728.999	0.0137306
729.078	0.0137988
729.156	0.0138020
729.234	0.0136642
729.312	0.0136856
729.390	0.0136214
729.468	0.0136640
729.546	0.0136896
729.624	0.0136747
729.703	0.0136649
729.781	0.0136320
729.859	0.0136500
729.937	0.0133530
730.015	0.0134372
730.093	0.0135646
730.171	0.0134657
730.249	0.0134184
730.328	0.0135145
730.406	0.0134866
730.484	0.0133405
730.562	0.0132753
730.640	0.0132896
730.718	0.0131994
730.796	0.0133903
730.874	0.0133378
730.953	0.0133905
731.031	0.0133479
731.109	0.0133111
731.187	0.0133413
731.265	0.0134216
731.343	0.0133571
731.421	0.0132787
731.499	0.0133346
731.578	0.0133907
731.656	0.0132541
731.734	0.0132857
731.812	0.0132938
731.890	0.0134459
731.968	0.0132908
732.046	0.0133913
732.124	0.0135915
732.203	0.0134086
732.281	0.0133649
732.359	0.0135459
732.437	0.0135908
732.515	0.0137230
732.593	0.0137725
732.671	0.0137077
732.749	0.0136641
732.828	0.0135397
732.906	0.0137128
732.984	0.0136907
733.062	0.0136405
733.140	0.0137121
733.218	0.0137222
733.296	0.0136739
733.374	0.0137629
733.453	0.0137056
733.531	0.0136488
733.609	0.0136700
733.687	0.0138556
733.765	0.0136587
733.843	0.0136297
733.921	0.0136228
733.999	0.0136514
734.078	0.0135892
734.156	0.0135732
734.234	0.0136366
734.312	0.0135688
734.390	0.0135454
734.468	0.0135192
734.546	0.0137241
734.624	0.0135774
734.703	0.0135851
734.781	0.0135439
734.859	0.0134731
734.937	0.0134581
735.015	0.0134086
735.093	0.0134474
735.171	0.0135027
735.249	0.0135468
735.328	0.0133742
735.406	0.0133887
735.484	0.0134193
735.562	0.0136602
735.640	0.0133284
735.718	0.0134732
735.796	0.0135726
735.874	0.0135484
735.953	0.0135258
736.031	0.0135878
736.109	0.0135727
736.187	0.0133947
736.265	0.0135270
736.343	0.0136904
736.421	0.0135188
736.499	0.0134127
736.578	0.0134981
736.656	0.0134887
736.734	0.0136026
736.812	0.0135445
736.890	0.0134005
736.968	0.0133875
737.046	0.0134770
737.124	0.0133927
737.203	0.0134776
737.281	0.0134663
737.359	0.0135115
737.437	0.0135384
737.515	0.0135052
737.593	0.0134372
737.671	0.0135091
737.749	0.0138013
737.828	0.0135748
737.906	0.0135954
737.984	0.0136086
738.062	0.0136786
738.140	0.0136600
738.218	0.0135828
738.296	0.0136932
738.374	0.0137838
738.453	0.0136457
738.531	0.0138216
738.609	0.0138258
738.687	0.0137448
738.765	0.0137770
738.843	0.0136739
738.921	0.0135657
738.999	0.0137083
739.078	0.0138530
739.156	0.0138087
739.234	0.0137593
739.312	0.0136732
739.390	0.0138898
739.468	0.0137990
739.546	0.0136919
739.624	0.0138568
739.703	0.0137661
739.781	0.0136684
739.859	0.0138198
739.937	0.0138360
740.015	0.0138373
740.093	0.0136998
740.171	0.0136636
740.249	0.0136866
740.328	0.0137599
740.406	0.0135568
740.484	0.0137585
740.562	0.0137637
740.640	0.0137155
740.718	0.0136226
740.796	0.0135619
740.874	0.0136316
740.953	0.0136720
741.031	0.0135771
741.109	0.0136770
741.187	0.0137033
741.265	0.0135620
741.343	0.0136209
741.421	0.0136401
741.499	0.0136070
741.578	0.0137544
741.656	0.0136792
741.734	0.0136488
741.812	0.0137837
741.890	0.0136650
741.968	0.0138701
742.046	0.0138776
742.124	0.0138963
742.203	0.0138191
742.281	0.0138184
742.359	0.0139304
742.437	0.0139359
742.515	0.0136781
742.593	0.0138625
742.671	0.0138937
742.749	0.0137698
742.828	0.0137724
742.906	0.0136881
742.984	0.0138225
743.062	0.0138326
743.140	0.0138391
743.218	0.0138039
743.296	0.0139494
743.374	0.0139404
743.453	0.0137002
743.531	0.0138056
743.609	0.0137511
743.687	0.0136578
743.765	0.0137168
743.843	0.0137017
743.921	0.0136473
743.999	0.0136701
744.078	0.0136002
744.156	0.0136558
744.234	0.0137169
744.312	0.0136342
744.390	0.0136502
744.468	0.0135091
744.546	0.0134787
744.624	0.0134734
744.703	0.0135409
744.781	0.0135080
744.859	0.0134219
744.937	0.0133604
745.015	0.0135259
745.093	0.0134431
745.171	0.0133939
745.249	0.0134657
745.328	0.0135907
745.406	0.0135976
745.484	0.0135941
745.562	0.0135751
745.640	0.0135775
745.718	0.0136603
745.796	0.0135696
745.874	0.0135978
745.953	0.0135462
746.031	0.0138296
746.109	0.0136439
746.187	0.0135913
746.265	0.0136893
746.343	0.0137194
746.421	0.0137018
746.499	0.0137635
746.578	0.0135792
746.656	0.0136057
746.734	0.0135347
746.812	0.0135810
746.890	0.0134914
746.968	0.0135567
747.046	0.0135158
747.124	0.0134088
747.203	0.0135020
747.281	0.0134250
747.359	0.0134962
747.437	0.0135802
747.515	0.0135562
747.593	0.0134718
747.671	0.0134421
747.749	0.0133639
747.828	0.0133775
747.906	0.0135103
747.984	0.0135432
748.062	0.0134377
748.140	0.0135108
748.218	0.0136094
748.296	0.0133874
748.374	0.0135594
748.453	0.0136360
748.531	0.0135974
748.609	0.0137202
748.687	0.0136906
748.765	0.0136639
748.843	0.0137879
748.921	0.0137229
748.999	0.0138216
749.078	0.0138892
749.156	0.0138955
749.234	0.0139611
749.312	0.0138512
749.390	0.0138921
749.468	0.0138933
749.546	0.0140462
749.624	0.0140651
749.703	0.0138321
749.781	0.0139347
749.859	0.0140339
749.937	0.0140997
750.015	0.0140409
750.093	0.0138290
750.171	0.0139515
750.249	0.0138509
750.328	0.0137677
750.406	0.0138468
750.484	0.0138752
750.562	0.0138137
750.640	0.0135948
750.718	0.0136359
750.796	0.0135410
750.874	0.0137058
750.953	0.0135968
751.031	0.0135767
751.109	0.0135899
751.187	0.0135356
751.265	0.0135836
751.343	0.0134779
751.421	0.0135529
751.499	0.0135374
751.578	0.0133863
751.656	0.0133283
751.734	0.0133447
751.812	0.0133328
751.890	0.0135036
751.968	0.0133329
752.046	0.0134089
752.124	0.0135539
752.203	0.0134032
752.281	0.0134137
752.359	0.0134952
752.437	0.0134406
752.515	0.0134268
752.593	0.0134165
752.671	0.0136086
752.749	0.0135330
752.828	0.0134942
752.906	0.0133339
752.984	0.0135020
753.062	0.0135119
753.140	0.0136312
753.218	0.0134896
753.296	0.0136479
753.374	0.0136528
753.453	0.0137810
753.531	0.0136889
753.609	0.0136639
753.687	0.0137219
753.765	0.0137815
753.843	0.0137466
753.921	0.0138934
753.999	0.0138792
754.078	0.0137283
754.156	0.0137962
754.234	0.0138522
754.312	0.0138753
754.390	0.0137855
754.468	0.0138768
754.546	0.0137983
754.624	0.0138148
754.703	0.0137831
754.781	0.0138477
754.859	0.0137880
754.937	0.0136332
755.015	0.0137106
755.093	0.0136447
755.171	0.0137883
755.249	0.0137987
755.328	0.0137321
755.406	0.0137545
755.484	0.0136703
755.562	0.0137647
755.640	0.0134794
755.718	0.0136549
755.796	0.0135351
755.874	0.0135613
755.953	0.0135263
756.031	0.0135223
756.109	0.0135229
756.187	0.0134631
756.265	0.0135246
756.343	0.0133321
756.421	0.0134067
756.499	0.0133822
756.578	0.0134731
756.656	0.0134451
756.734	0.0134322
756.812	0.0134462
756.890	0.0134870
756.968	0.0136680
757.046	0.0135165
757.124	0.0133944
757.203	0.0135480
757.281	0.0135925
757.359	0.0136510
757.437	0.0134989
757.515	0.0136945
757.593	0.0138017
757.671	0.0137951
757.749	0.0137115
757.828	0.0138125
757.906	0.0137119
757.984	0.0138141
758.062	0.0137532
758.140	0.0136504
758.218	0.0136285
758.296	0.0135464
758.374	0.0135439
758.453	0.0137154
758.531	0.0136359
758.609	0.0136623
758.687	0.0134678
758.765	0.0134980
758.843	0.0135167
758.921	0.0133499
758.999	0.0133041
759.078	0.0133053
759.156	0.0133557
759.234	0.0133158
759.312	0.0132883
759.390	0.0132348
759.468	0.0132365
759.546	0.0131275
759.624	0.0130913
759.703	0.0133244
759.781	0.0131506
759.859	0.0132506
759.937	0.0132362
760.015	0.0132124
760.093	0.0132162
760.171	0.0131962
760.249	0.0132050
760.328	0.0132517
760.406	0.0133508
760.484	0.0132414
760.562	0.0133173
760.640	0.0133065
760.718	0.0135139
760.796	0.0132617
760.874	0.0132751
760.953	0.0134953
761.031	0.0135192
761.109	0.0135278
761.187	0.0135509
761.265	0.0135669
761.343	0.0136424
761.421	0.0137321
761.499	0.0135907
761.578	0.0136053
761.656	0.0138130
761.734	0.0137561
761.812	0.0137274
761.890	0.0137611
761.968	0.0137717
762.046	0.0137011
762.124	0.0138361
762.203	0.0139719
762.281	0.0138754
762.359	0.0136989
762.437	0.0137995
762.515	0.0137428
762.593	0.0137342
762.671	0.0137272
762.749	0.0137469
762.828	0.0137411
762.906	0.0137990
762.984	0.0138496
763.062	0.0136263
763.140	0.0137349
763.218	0.0135938
763.296	0.0135798
763.374	0.0136014
763.453	0.0135835
763.531	0.0136481
763.609	0.0135625
763.687	0.0135015
763.765	0.0135384
763.843	0.0135764
763.921	0.0133523
763.999	0.0136824
764.078	0.0135675
764.156	0.0133982
764.234	0.0134014
764.312	0.0135222
764.390	0.0135523
764.468	0.0135542
764.546	0.0133886
764.624	0.0135504
764.703	0.0134039
764.781	0.0135966
764.859	0.0134147
764.937	0.0134982
765.015	0.0134096
765.093	0.0134427
765.171	0.0134332
765.249	0.0135131
765.328	0.0134485
765.406	0.0135374
765.484	0.0135085
765.562	0.0136005
765.640	0.0136032
765.718	0.0137096
765.796	0.0136779
765.874	0.0135396
765.953	0.0136987
766.031	0.0138216
766.109	0.0136612
766.187	0.0137812
766.265	0.0136864
766.343	0.0138408
766.421	0.0138290
766.499	0.0138463
766.578	0.0137402
766.656	0.0137694
766.734	0.0137597
766.812	0.0136517
766.890	0.0137807
766.968	0.0137896
767.046	0.0137959
767.124	0.0137552
767.203	0.0136787
767.281	0.0137734
767.359	0.0138752
767.437	0.0138406
767.515	0.0135338
767.593	0.0137592
767.671	0.0136211
767.749	0.0136369
767.828	0.0137458
767.906	0.0135305
767.984	0.0135466
768.062	0.0136707
768.140	0.0135632
768.218	0.0134142
768.296	0.0135448
768.374	0.0134942
768.453	0.0135870
768.531	0.0135209
768.609	0.0137634
768.687	0.0135769
768.765	0.0137156
768.843	0.0136744
768.921	0.0136777
768.999	0.0137387
769.078	0.0137402
769.156	0.0137281
769.234	0.0138235
769.312	0.0136218
769.390	0.0138062
769.468	0.0138009
769.546	0.0139326
769.624	0.0139011
769.703	0.0138087
769.781	0.0138200
769.859	0.0139632
769.937	0.0139889
770.015	0.0139820
770.093	0.0139204
770.171	0.0140213
770.249	0.0139227
770.328	0.0139298
770.406	0.0139251
770.484	0.0138305
770.562	0.0138297
770.640	0.0138548
770.718	0.0137935
770.796	0.0137444
770.874	0.0137594
770.953	0.0137258
771.031	0.0136115
771.109	0.0136617
771.187	0.0136489
771.265	0.0136236
771.343	0.0136286
771.421	0.0136157
771.499	0.0135327
771.578	0.0134684
771.656	0.0136105
771.734	0.0135045
771.812	0.0135288
771.890	0.0133989
771.968	0.0135645
772.046	0.0136254
772.124	0.0135986
772.203	0.0134869
772.281	0.0135583
772.359	0.0134902
772.437	0.0136227
772.515	0.0135400
772.593	0.0135275
772.671	0.0134695
772.749	0.0134234
772.828	0.0136639
772.906	0.0135044
772.984	0.0137109
773.062	0.0134917
773.140	0.0134235
773.218	0.0136472
773.296	0.0136024
773.374	0.0136677
773.453	0.0137210
773.531	0.0135732
773.609	0.0136308
773.687	0.0138751
773.765	0.0136610
773.843	0.0137220
773.921	0.0136511
773.999	0.0137220
774.078	0.0137725
774.156	0.0136667
774.234	0.0136064
774.312	0.0136174
774.390	0.0137448
774.468	0.0136521
774.546	0.0136953
774.624	0.0137476
774.703	0.0137238
774.781	0.0136735
774.859	0.0136787
774.937	0.0138285
775.015	0.0137327
775.093	0.0135781
775.171	0.0137473
775.249	0.0136641
775.328	0.0134623
775.406	0.0136978
775.484	0.0135899
775.562	0.0134927
775.640	0.0135812
775.718	0.0134993
775.796	0.0134909
775.874	0.0136047
775.953	0.0135335
776.031	0.0134592
776.109	0.0136237
776.187	0.0134732
776.265	0.0135784
776.343	0.0134108
776.421	0.0136308
776.499	0.0136992
776.578	0.0136240
776.656	0.0135870
776.734	0.0135595
776.812	0.0135062
776.890	0.0135485
776.968	0.0135990
777.046	0.0135063
777.124	0.0134623
777.203	0.0134732
777.281	0.0135154
777.359	0.0134904
777.437	0.0133826
777.515	0.0135062
777.593	0.0132143
777.671	0.0132758
777.749	0.0134026
777.828	0.0134216
777.906	0.0133641
777.984	0.0132935
778.062	0.0133402
778.140	0.0133562
778.218	0.0134758
778.296	0.0135007
778.374	0.0134365
778.453	0.0133607
778.531	0.0133721
778.609	0.0135988
778.687	0.0134246
778.765	0.0134830
778.843	0.0134061
778.921	0.0134104
778.999	0.0135631
779.078	0.0135220
779.156	0.0134361
779.234	0.0134393
779.312	0.0133620
779.390	0.0134343
779.468	0.0134067
779.546	0.0133156
779.624	0.0133878
779.703	0.0135258
779.781	0.0134317
779.859	0.0134286
779.937	0.0135521
780.015	0.0135780
780.093	0.0137060
780.171	0.0137541
780.249	0.0136942
780.328	0.0134819
780.406	0.0137382
780.484	0.0138754
780.562	0.0137302
780.640	0.0135627
780.718	0.0134768
780.796	0.0134984
780.874	0.0135086
780.953	0.0135470
781.031	0.0135894
781.109	0.0134776
781.187	0.0135751
781.265	0.0136282
781.343	0.0137827
781.421	0.0136996
781.499	0.0137610
781.578	0.0137558
781.656	0.0138625
781.734	0.0138255
781.812	0.0136306
781.890	0.0138239
781.968	0.0137662
782.046	0.0137386
782.124	0.0135683
782.203	0.0135548
782.281	0.0136286
782.359	0.0135923
782.437	0.0133559
782.515	0.0134393
782.593	0.0136749
782.671	0.0134758
782.749	0.0135172
782.828	0.0136474
782.906	0.0136771
782.984	0.0136129
783.062	0.0137486
783.140	0.0137139
783.218	0.0137513
783.296	0.0137083
783.374	0.0136734
783.453	0.0136820
783.531	0.0137221
783.609	0.0137000
783.687	0.0135807
783.765	0.0135726
783.843	0.0134811
783.921	0.0134581
783.999	0.0133611
784.078	0.0134925
784.156	0.0136076
784.234	0.0135136
784.312	0.0134987
784.390	0.0135367
784.468	0.0133649
784.546	0.0133311
784.624	0.0134248
784.703	0.0135045
784.781	0.0135526
784.859	0.0134650
784.937	0.0134435
785.015	0.0135100
785.093	0.0134538
785.171	0.0136259
785.249	0.0137035
785.328	0.0137545
785.406	0.0137184
785.484	0.0138316
785.562	0.0137906
785.640	0.0136475
785.718	0.0136246
785.796	0.0134853
785.874	0.0135659
785.953	0.0135543
786.031	0.0134699
786.109	0.0133919
786.187	0.0134478
786.265	0.0133327
786.343	0.0133102
786.421	0.0135120
786.499	0.0134450
786.578	0.0134299
786.656	0.0135915
786.734	0.0137424
786.812	0.0136828
786.890	0.0138052
786.968	0.0137555
787.046	0.0138299
787.124	0.0139112
787.203	0.0137448
787.281	0.0136903
787.359	0.0137130
787.437	0.0137927
787.515	0.0136920
787.593	0.0136845
787.671	0.0136231
787.749	0.0136111
787.828	0.0136219
787.906	0.0133551
787.984	0.0132594
788.062	0.0133373
788.140	0.0133649
788.218	0.0134706
788.296	0.0132567
788.374	0.0132288
788.453	0.0133734
788.531	0.0133141
788.609	0.0134594
788.687	0.0133828
788.765	0.0134143
788.843	0.0137570
788.921	0.0136925
788.999	0.0136187
789.078	0.0136215
789.156	0.0135947
789.234	0.0136512
789.312	0.0135767
789.390	0.0135929
789.468	0.0133902
789.546	0.0134460
789.624	0.0132146
789.703	0.0131892
789.781	0.0132956
789.859	0.0131090
789.937	0.0131464
790.015	0.0132628
790.093	0.0133624
790.171	0.0134119
790.249	0.0134894
790.328	0.0136196
790.406	0.0137226
790.484	0.0137708
790.562	0.0137697
790.640	0.0138210
790.718	0.0139094
790.796	0.0138340
790.874	0.0137615
790.953	0.0138114
791.031	0.0138259
791.109	0.0134582
791.187	0.0134470
791.265	0.0135227
791.343	0.0134501
791.421	0.0133274
791.499	0.0132903
791.578	0.0135507
791.656	0.0134212
791.734	0.0134997
791.812	0.0135522
791.890	0.0136767
791.968	0.0135986
792.046	0.0136876
792.124	0.0138361
792.203	0.0137444
792.281	0.0138445
792.359	0.0138667
792.437	0.0138023
792.515	0.0137168
792.593	0.0136495
792.671	0.0135728
792.749	0.0135014
792.828	0.0135346
792.906	0.0133560
792.984	0.0134184
793.062	0.0134521
793.140	0.0134132
793.218	0.0135083
793.296	0.0134156
793.374	0.0135149
793.453	0.0137743
793.531	0.0138506
793.609	0.0138960
793.687	0.0138588
793.765	0.0139008
793.843	0.0139487
793.921	0.0139792
793.999	0.0139438
794.078	0.0139552
794.156	0.0138754
794.234	0.0139326
794.312	0.0136115
794.390	0.0136479
794.468	0.0135548
794.546	0.0134041
794.624	0.0134274
794.703	0.0131428
794.781	0.0130904
794.859	0.0130846
794.937	0.0131725
795.015	0.0134013
795.093	0.0133267
795.171	0.0134081
795.249	0.0136263
795.328	0.0137910
795.406	0.0136771
795.484	0.0138515
795.562	0.0138842
795.640	0.0139262
795.718	0.0138442
795.796	0.0136797
795.874	0.0136697
795.953	0.0135710
796.031	0.0134444
796.109	0.0132571
796.187	0.0132458
796.265	0.0133737
796.343	0.0132568
796.421	0.0130225
796.499	0.0133253
796.578	0.0134483
796.656	0.0134565
796.734	0.0135170
796.812	0.0134917
796.890	0.0135925
796.968	0.0135809
797.046	0.0136880
797.124	0.0135705
797.203	0.0135061
797.281	0.0135069
797.359	0.0135039
797.437	0.0135548
797.515	0.0134465
797.593	0.0133282
797.671	0.0133020
797.749	0.0134029
797.828	0.0135329
797.906	0.0134241
797.984	0.0135658
798.062	0.0137132
798.140	0.0138523
798.218	0.0138209
798.296	0.0138206
798.374	0.0138754
798.453	0.0138821
798.531	0.0138047
798.609	0.0138145
798.687	0.0137525
798.765	0.0137023
798.843	0.0135710
798.921	0.0135636
798.999	0.0135793
799.078	0.0135204
799.156	0.0134431
799.234	0.0132861
799.312	0.0132843
799.390	0.0134403
799.468	0.0134460
799.546	0.0135052
799.624	0.0136461
799.703	0.0136147
799.781	0.0136023
799.859	0.0137392
799.937	0.0137871
800.015	0.0138556
800.093	0.0136797
800.171	0.0137659
800.249	0.0137666
800.328	0.0135240
800.406	0.0134654
800.484	0.0134654
800.562	0.0133345
800.640	0.0132848
800.718	0.0133485
800.796	0.0135097
800.874	0.0132484
800.953	0.0132397
801.031	0.0133734
801.109	0.0133808
801.187	0.0133426
801.265	0.0134594
801.343	0.0134621
801.421	0.0134827
801.499	0.0133931
801.578	0.0134660
801.656	0.0134655
801.734	0.0135481
801.812	0.0134834
801.890	0.0134419
801.968	0.0133542
802.046	0.0133562
802.124	0.0134760
802.203	0.0135344
802.281	0.0133673
802.359	0.0134287
802.437	0.0134661
802.515	0.0134528
802.593	0.0133409
802.671	0.0133782
802.749	0.0135651
802.828	0.0133588
802.906	0.0133846
802.984	0.0135768
803.062	0.0137177
803.140	0.0137152
803.218	0.0137454
803.296	0.0137009
803.374	0.0138460
803.453	0.0135800
803.531	0.0136802
803.609	0.0138384
803.687	0.0137472
803.765	0.0137176
803.843	0.0137047
803.921	0.0137759
803.999	0.0138680
804.078	0.0137694
804.156	0.0137212
804.234	0.0137420
804.312	0.0136893
804.390	0.0137862
804.468	0.0137175
804.546	0.0135792
804.624	0.0135909
804.703	0.0134624
804.781	0.0134178
804.859	0.0135423
804.937	0.0133717
805.015	0.0135574
805.093	0.0135921
805.171	0.0134045
805.249	0.0133775
805.328	0.0134493
805.406	0.0135104
805.484	0.0135133
805.562	0.0134439
805.640	0.0134952
805.718	0.0136534
805.796	0.0136442
805.874	0.0138001
805.953	0.0137231
806.031	0.0138435
806.109	0.0138452
806.187	0.0138519
806.265	0.0138952
806.343	0.0138464
806.421	0.0140096
806.499	0.0137719
806.578	0.0135881
806.656	0.0137656
806.734	0.0136238
806.812	0.0135484
806.890	0.0133738
806.968	0.0132999
807.046	0.0132359
807.124	0.0131572
807.203	0.0131292
807.281	0.0132473
807.359	0.0132465
807.437	0.0132626
807.515	0.0133682
807.593	0.0131815
807.671	0.0133032
807.749	0.0132426
807.828	0.0133613
807.906	0.0133652
807.984	0.0133344
808.062	0.0131811
808.140	0.0133083
808.218	0.0133460
808.296	0.0132178
808.374	0.0132838
808.453	0.0133054
808.531	0.0132826
808.609	0.0132542
808.687	0.0133115
808.765	0.0132790
808.843	0.0134859
808.921	0.0134203
808.999	0.0134760
809.078	0.0137360
809.156	0.0136289
809.234	0.0138012
809.312	0.0138806
809.390	0.0140018
809.468	0.0139977
809.546	0.0138618
809.624	0.0137363
809.703	0.0138257
809.781	0.0136676
809.859	0.0136189
809.937	0.0134203
810.015	0.0133733
810.093	0.0133750
810.171	0.0130964
810.249	0.0132241
810.328	0.0131457
810.406	0.0133000
810.484	0.0134862
810.562	0.0134393
810.640	0.0136253
810.718	0.0135580
810.796	0.0136595
810.874	0.0137249
810.953	0.0135563
811.031	0.0136246
811.109	0.0135207
811.187	0.0133876
811.265	0.0133235
811.343	0.0133930
811.421	0.0133503
811.499	0.0133480
811.578	0.0133540
811.656	0.0133716
811.734	0.0133450
811.812	0.0135805
811.890	0.0136567
811.968	0.0135019
812.046	0.0136815
812.124	0.0138586
812.203	0.0139107
812.281	0.0139508
812.359	0.0138914
812.437	0.0139374
812.515	0.0138432
812.593	0.0138303
812.671	0.0140146
812.749	0.0139193
812.828	0.0137033
812.906	0.0137003
812.984	0.0137635
813.062	0.0138287
813.140	0.0137429
813.218	0.0139120
813.296	0.0138699
813.374	0.0138477
813.453	0.0138585
813.531	0.0137865
813.609	0.0137103
813.687	0.0136403
813.765	0.0135786
813.843	0.0134768
813.921	0.0136500
813.999	0.0134857
814.078	0.0134812
814.156	0.0133581
814.234	0.0133485
814.312	0.0135014
814.390	0.0133510
814.468	0.0135210
814.546	0.0134464
814.624	0.0134009
814.703	0.0134328
814.781	0.0134855
814.859	0.0135854
814.937	0.0137323
815.015	0.0136231
815.093	0.0137060
815.171	0.0136262
815.249	0.0138624
815.328	0.0139347
815.406	0.0137859
815.484	0.0139243
815.562	0.0138817
815.640	0.0139139
815.718	0.0137575
815.796	0.0138560
815.874	0.0138947
815.953	0.0138640
816.031	0.0137424
816.109	0.0137091
816.187	0.0136496
816.265	0.0137326
816.343	0.0136568
816.421	0.0137252
816.499	0.0136365
816.578	0.0138036
816.656	0.0137350
816.734	0.0137853
816.812	0.0138594
816.890	0.0138876
816.968	0.0138383
817.046	0.0138257
817.124	0.0137431
817.203	0.0137364
817.281	0.0136827
817.359	0.0137428
817.437	0.0135732
817.515	0.0135247
817.593	0.0133669
817.671	0.0135043
817.749	0.0133459
817.828	0.0133137
817.906	0.0134676
817.984	0.0135236
818.062	0.0135065
818.140	0.0134482
818.218	0.0135575
818.296	0.0135542
818.374	0.0135718
818.453	0.0135273
818.531	0.0135823
818.609	0.0135862
818.687	0.0136399
818.765	0.0136132
818.843	0.0135114
818.921	0.0135625
818.999	0.0134915
819.078	0.0135020
819.156	0.0135846
819.234	0.0135020
819.312	0.0134588
819.390	0.0135218
819.468	0.0134805
819.546	0.0134598
819.624	0.0135790
819.703	0.0135778
819.781	0.0134109
819.859	0.0135193
819.937	0.0136090
820.015	0.0136179
820.093	0.0136040
820.171	0.0134588
820.249	0.0134407
820.328	0.0135699
820.406	0.0134838
820.484	0.0133749
820.562	0.0134363
820.640	0.0134552
820.718	0.0135278
820.796	0.0134161
820.874	0.0132915
820.953	0.0133144
821.031	0.0136234
821.109	0.0135024
821.187	0.0134372
821.265	0.0134901
821.343	0.0134557
821.421	0.0135130
821.499	0.0134537
821.578	0.0135597
821.656	0.0135230
821.734	0.0134467
821.812	0.0134798
821.890	0.0135153
821.968	0.0135767
822.046	0.0135023
822.124	0.0135230
822.203	0.0134598
822.281	0.0134435
822.359	0.0134209
822.437	0.0135777
822.515	0.0134776
822.593	0.0134755
822.671	0.0134561
822.749	0.0134722
822.828	0.0134236
822.906	0.0134927
822.984	0.0134462
823.062	0.0135036
823.140	0.0135944
823.218	0.0133575
823.296	0.0135730
823.374	0.0134826
823.453	0.0135192
823.531	0.0134717
823.609	0.0136098
823.687	0.0136462
823.765	0.0135057
823.843	0.0136247
823.921	0.0136716
823.999	0.0137881
824.078	0.0137172
824.156	0.0137881
824.234	0.0136924
824.312	0.0138262
824.390	0.0139133
824.468	0.0136874
824.546	0.0137408
824.624	0.0138550
824.703	0.0137692
824.781	0.0136079
824.859	0.0137055
824.937	0.0136700
825.015	0.0135905
825.093	0.0135115
825.171	0.0135623
825.249	0.0135563
825.328	0.0134698
825.406	0.0134267
825.484	0.0134438
825.562	0.0135599
825.640	0.0134667
825.718	0.0134431
825.796	0.0134969
825.874	0.0136044
825.953	0.0136408
826.031	0.0134155
826.109	0.0133728
826.187	0.0133443
826.265	0.0132127
826.343	0.0134236
826.421	0.0133714
826.499	0.0132510
826.578	0.0134434
826.656	0.0132890
826.734	0.0134138
826.812	0.0135472
826.890	0.0135480
826.968	0.0136870
827.046	0.0136560
827.124	0.0136035
827.203	0.0137203
827.281	0.0136625
827.359	0.0136062
827.437	0.0137396
827.515	0.0137901
827.593	0.0136034
827.671	0.0137629
827.749	0.0136920
827.828	0.0136543
827.906	0.0136598
827.984	0.0136250
828.062	0.0134849
828.140	0.0135115
828.218	0.0134465
828.296	0.0133878
828.374	0.0134566
828.453	0.0134093
828.531	0.0133893
828.609	0.0133858
828.687	0.0134424
828.765	0.0135251
828.843	0.0134898
828.921	0.0134175
828.999	0.0134145
829.078	0.0135264
829.156	0.0134313
829.234	0.0135996
829.312	0.0135218
829.390	0.0135021
829.468	0.0134845
829.546	0.0134209
829.624	0.0134131
829.703	0.0134148
829.781	0.0134252
829.859	0.0134111
829.937	0.0134303
830.015	0.0134139
830.093	0.0132948
830.171	0.0133567
830.249	0.0134848
830.328	0.0134721
830.406	0.0134818
830.484	0.0135815
830.562	0.0134929
830.640	0.0135216
830.718	0.0135867
830.796	0.0136668
830.874	0.0136261
830.953	0.0137250
831.031	0.0136875
831.109	0.0136694
831.187	0.0137365
831.265	0.0138318
831.343	0.0136832
831.421	0.0138710
831.499	0.0139069
831.578	0.0138074
831.656	0.0137840
831.734	0.0138231
831.812	0.0138822
831.890	0.0137505
831.968	0.0137752
832.046	0.0137948
832.124	0.0138151
832.203	0.0138165
832.281	0.0137100
832.359	0.0137708
832.437	0.0139003
832.515	0.0136929
832.593	0.0137416
832.671	0.0136301
832.749	0.0135912
832.828	0.0136910
832.906	0.0135906
832.984	0.0134724
833.062	0.0135179
833.140	0.0136945
833.218	0.0136353
833.296	0.0136226
833.374	0.0136874
833.453	0.0136546
833.531	0.0135957
833.609	0.0136797
833.687	0.0137394
833.765	0.0136792
833.843	0.0136900
833.921	0.0137734
833.999	0.0137328
834.078	0.0137512
834.156	0.0138126
834.234	0.0137424
834.312	0.0137466
834.390	0.0138299
834.468	0.0136584
834.546	0.0136104
834.624	0.0136024
834.703	0.0135698
834.781	0.0136574
834.859	0.0134641
834.937	0.0136016
835.015	0.0134991
835.093	0.0136552
835.171	0.0133482
835.249	0.0133913
835.328	0.0134513
835.406	0.0134675
835.484	0.0135206
835.562	0.0133803
835.640	0.0135095
835.718	0.0135186
835.796	0.0135960
835.874	0.0135787
835.953	0.0136163
836.031	0.0135974
836.109	0.0136525
836.187	0.0138190
836.265	0.0137559
836.343	0.0136945
836.421	0.0136308
836.499	0.0138191
836.578	0.0137820
836.656	0.0137146
836.734	0.0137761
836.812	0.0137489
836.890	0.0137678
836.968	0.0136763
837.046	0.0135446
837.124	0.0135000
837.203	0.0135120
837.281	0.0135600
837.359	0.0135743
837.437	0.0133951
837.515	0.0134034
837.593	0.0135381
837.671	0.0135846
837.749	0.0134916
837.828	0.0134457
837.906	0.0134811
837.984	0.0134671
838.062	0.0133762
838.140	0.0132055
838.218	0.0133897
838.296	0.0134714
838.374	0.0134674
838.453	0.0134679
838.531	0.0132756
838.609	0.0136028
838.687	0.0135283
838.765	0.0134102
838.843	0.0135503
838.921	0.0136054
838.999	0.0136343
839.078	0.0136245
839.156	0.0136596
839.234	0.0136506
839.312	0.0135104
839.390	0.0136710
839.468	0.0135789
839.546	0.0136090
839.624	0.0136622
839.703	0.0136710
839.781	0.0135248
839.859	0.0134801
839.937	0.0135262
840.015	0.0133862
840.093	0.0135010
840.171	0.0135197
840.249	0.0135273
840.328	0.0135258
840.406	0.0134874
840.484	0.0135159
840.562	0.0135802
840.640	0.0135647
840.718	0.0137141
840.796	0.0137574
840.874	0.0136655
840.953	0.0136594
841.031	0.0137516
841.109	0.0137399
841.187	0.0137469
841.265	0.0138071
841.343	0.0137553
841.421	0.0137395
841.499	0.0138440
841.578	0.0137116
841.656	0.0136319
841.734	0.0136234
841.812	0.0136961
841.890	0.0137108
841.968	0.0138314
842.046	0.0137354
842.124	0.0136725
842.203	0.0137968
842.281	0.0137697
842.359	0.0137217
842.437	0.0137061
842.515	0.0137624
842.593	0.0136640
842.671	0.0136980
842.749	0.0136757
842.828	0.0136889
842.906	0.0137351
842.984	0.0137369
843.062	0.0136351
843.140	0.0137057
843.218	0.0135967
843.296	0.0137588
843.374	0.0136654
843.453	0.0136122
843.531	0.0136407
843.609	0.0136703
843.687	0.0137251
843.765	0.0137047
843.843	0.0137169
843.921	0.0137860
843.999	0.0137241
844.078	0.0137179
844.156	0.0135907
844.234	0.0136827
844.312	0.0136931
844.390	0.0136318
844.468	0.0136381
844.546	0.0135567
844.624	0.0135946
844.703	0.0136665
844.781	0.0135488
844.859	0.0136915
844.937	0.0136255
845.015	0.0133936
845.093	0.0136309
845.171	0.0136618
845.249	0.0135910
845.328	0.0135921
845.406	0.0136314
845.484	0.0136264
845.562	0.0135287
845.640	0.0134960
845.718	0.0136889
845.796	0.0136549
845.874	0.0135043
845.953	0.0135874
846.031	0.0136282
846.109	0.0136921
846.187	0.0136012
846.265	0.0134724
846.343	0.0135801
846.421	0.0134435
846.499	0.0134234
846.578	0.0134857
846.656	0.0134811
846.734	0.0135340
846.812	0.0134502
846.890	0.0133478
846.968	0.0133357
847.046	0.0134148
847.124	0.0133209
847.203	0.0133839
847.281	0.0133122
847.359	0.0136400
847.437	0.0136116
847.515	0.0134660
847.593	0.0134391
847.671	0.0135793
847.749	0.0135805
847.828	0.0135242
847.906	0.0134389
847.984	0.0135468
848.062	0.0134913
848.140	0.0136015
848.218	0.0135315
848.296	0.0137729
848.374	0.0136499
848.453	0.0134925
848.531	0.0135596
848.609	0.0137008
848.687	0.0136501
848.765	0.0135426
848.843	0.0136746
848.921	0.0136720
848.999	0.0137936
849.078	0.0136993
849.156	0.0135736
849.234	0.0136549
849.312	0.0137667
849.390	0.0136569
849.468	0.0136232
849.546	0.0135713
849.624	0.0136995
849.703	0.0136623
849.781	0.0136977
849.859	0.0136538
849.937	0.0136221
850.015	0.0136115
850.093	0.0136125
850.171	0.0136328
850.249	0.0134977
850.328	0.0134050
850.406	0.0135309
850.484	0.0134659
850.562	0.0133827
850.640	0.0133412
850.718	0.0134450
850.796	0.0133661
850.874	0.0133751
850.953	0.0134409
851.031	0.0133939
851.109	0.0133685
851.187	0.0134774
851.265	0.0134452
851.343	0.0136910
851.421	0.0134789
851.499	0.0135299
851.578	0.0135762
851.656	0.0135075
851.734	0.0135758
851.812	0.0135178
851.890	0.0135113
851.968	0.0135791
852.046	0.0136052
852.124	0.0137028
852.203	0.0137468
852.281	0.0135918
852.359	0.0136201
852.437	0.0136909
852.515	0.0137544
852.593	0.0138750
852.671	0.0138550
852.749	0.0138953
852.828	0.0138564
852.906	0.0139401
852.984	0.0139677
853.062	0.0138127
853.140	0.0140151
853.218	0.0138177
853.296	0.0137341
853.374	0.0137759
853.453	0.0137337
853.531	0.0138088
853.609	0.0137756
853.687	0.0137562
853.765	0.0136533
853.843	0.0137518
853.921	0.0135953
853.999	0.0135155
854.078	0.0135207
854.156	0.0135335
854.234	0.0135828
854.312	0.0136967
854.390	0.0134906
854.468	0.0135075
854.546	0.0135611
854.624	0.0136231
854.703	0.0136533
854.781	0.0135871
854.859	0.0136883
854.937	0.0137275
855.015	0.0136788
855.093	0.0135706
855.171	0.0136510
855.249	0.0136463
855.328	0.0137564
855.406	0.0135811
855.484	0.0136334
855.562	0.0136064
855.640	0.0135648
855.718	0.0135339
855.796	0.0136805
855.874	0.0136967
855.953	0.0135571
856.031	0.0135670
856.109	0.0136373
856.187	0.0136848
856.265	0.0135435
856.343	0.0135911
856.421	0.0136153
856.499	0.0137917
856.578	0.0138452
856.656	0.0138243
856.734	0.0137431
856.812	0.0137926
856.890	0.0137923
856.968	0.0138719
857.046	0.0138419
857.124	0.0137393
857.203	0.0138335
857.281	0.0138683
857.359	0.0136730
857.437	0.0136772
857.515	0.0136007
857.593	0.0136034
857.671	0.0134844
857.749	0.0135973
857.828	0.0134643
857.906	0.0133999
857.984	0.0136369
858.062	0.0134314
858.140	0.0134577
858.218	0.0134646
858.296	0.0135030
858.374	0.0134583
858.453	0.0134612
858.531	0.0133448
858.609	0.0135169
858.687	0.0135218
858.765	0.0136339
858.843	0.0135056
858.921	0.0135448
858.999	0.0134832
859.078	0.0135182
859.156	0.0135519
859.234	0.0135788
859.312	0.0135037
859.390	0.0134723
859.468	0.0135923
859.546	0.0136681
859.624	0.0135908
859.703	0.0136385
859.781	0.0134834
859.859	0.0134210
859.937	0.0135580
860.015	0.0136183
860.093	0.0135574
860.171	0.0135052
860.249	0.0136772
860.328	0.0136522
860.406	0.0136138
860.484	0.0137204
860.562	0.0136684
860.640	0.0138052
860.718	0.0138152
860.796	0.0137353
860.874	0.0137413
860.953	0.0136600
861.031	0.0137708
861.109	0.0138766
861.187	0.0137604
861.265	0.0136136
861.343	0.0138394
861.421	0.0137492
861.499	0.0136134
861.578	0.0136542
861.656	0.0136987
861.734	0.0134822
861.812	0.0136025
861.890	0.0135692
861.968	0.0136579
862.046	0.0136311
862.124	0.0135817
862.203	0.0135502
862.281	0.0135848
862.359	0.0135659
862.437	0.0134992
862.515	0.0135102
862.593	0.0134836
862.671	0.0135706
862.749	0.0135252
862.828	0.0134956
862.906	0.0136658
862.984	0.0136611
863.062	0.0136756
863.140	0.0135606
863.218	0.0135976
863.296	0.0135354
863.374	0.0135262
863.453	0.0135583
863.531	0.0135384
863.609	0.0133540
863.687	0.0134267
863.765	0.0135371
863.843	0.0136011
863.921	0.0135622
863.999	0.0135233
864.078	0.0134805
864.156	0.0135907
864.234	0.0135218
864.312	0.0135493
864.390	0.0135648
864.468	0.0136684
864.546	0.0136076
864.624	0.0136955
864.703	0.0137854
864.781	0.0137798
864.859	0.0138486
864.937	0.0138490
865.015	0.0136866
865.093	0.0136382
865.171	0.0137896
865.249	0.0139213
865.328	0.0137736
865.406	0.0135974
865.484	0.0136411
865.562	0.0136321
865.640	0.0136022
865.718	0.0136692
865.796	0.0135701
865.874	0.0133772
865.953	0.0134502
866.031	0.0135881
866.109	0.0134386
866.187	0.0133523
866.265	0.0134612
866.343	0.0134607
866.421	0.0135370
866.499	0.0134545
866.578	0.0134190
866.656	0.0134861
866.734	0.0133925
866.812	0.0134615
866.890	0.0135191
866.968	0.0135966
867.046	0.0136332
867.124	0.0135902
867.203	0.0134245
867.281	0.0135038
867.359	0.0135696
867.437	0.0134845
867.515	0.0135756
867.593	0.0134457
867.671	0.0135536
867.749	0.0135196
867.828	0.0135329
867.906	0.0136800
867.984	0.0136562
868.062	0.0137272
868.140	0.0136795
868.218	0.0135560
868.296	0.0136649
868.374	0.0136473
868.453	0.0138146
868.531	0.0137489
868.609	0.0136858
868.687	0.0137512
868.765	0.0139641
868.843	0.0137665
868.921	0.0137028
868.999	0.0137453
869.078	0.0137838
869.156	0.0136775
869.234	0.0136298
869.312	0.0134687
869.390	0.0136708
869.468	0.0137191
869.546	0.0135811
869.624	0.0135500
869.703	0.0135255
869.781	0.0135715
869.859	0.0136773
869.937	0.0136921
870.015	0.0135655
870.093	0.0136168
870.171	0.0135615
870.249	0.0133742
870.328	0.0136205
870.406	0.0135984
870.484	0.0134801
870.562	0.0136175
870.640	0.0135035
870.718	0.0135046
870.796	0.0136286
870.874	0.0136569
870.953	0.0136827
871.031	0.0134681
871.109	0.0135609
871.187	0.0135244
871.265	0.0134687
871.343	0.0134376
871.421	0.0135480
871.499	0.0134635
871.578	0.0135468
871.656	0.0135903
871.734	0.0136056
871.812	0.0136148
871.890	0.0136915
871.968	0.0136117
872.046	0.0135819
872.124	0.0136986
872.203	0.0137293
872.281	0.0137286
872.359	0.0136523
872.437	0.0136620
872.515	0.0134896
872.593	0.0138552
872.671	0.0137772
872.749	0.0136373
872.828	0.0135970
872.906	0.0135802
872.984	0.0135703
873.062	0.0135807
873.140	0.0135504
873.218	0.0136546
873.296	0.0135983
873.374	0.0136517
873.453	0.0136849
873.531	0.0135228
873.609	0.0135857
873.687	0.0135800
873.765	0.0135262
873.843	0.0134581
873.921	0.0136157
873.999	0.0137814
874.078	0.0136153
874.156	0.0136311
874.234	0.0135361
874.312	0.0134949
874.390	0.0135709
874.468	0.0136123
874.546	0.0136897
874.624	0.0136497
874.703	0.0134731
874.781	0.0136602
874.859	0.0135268
874.937	0.0135350
875.015	0.0136221
875.093	0.0135765
875.171	0.0136732
875.249	0.0136437
875.328	0.0136000
875.406	0.0134404
875.484	0.0136726
875.562	0.0136098
875.640	0.0136909
875.718	0.0136133
875.796	0.0134555
875.874	0.0136465
875.953	0.0137350
876.031	0.0135781
876.109	0.0137827
876.187	0.0136792
876.265	0.0134990
876.343	0.0136111
876.421	0.0136833
876.499	0.0135365
876.578	0.0136423
876.656	0.0136118
876.734	0.0136584
876.812	0.0136469
876.890	0.0137610
876.968	0.0137669
877.046	0.0136691
877.124	0.0135446
877.203	0.0136804
877.281	0.0136745
877.359	0.0135636
877.437	0.0135405
877.515	0.0135706
877.593	0.0134534
877.671	0.0135448
877.749	0.0135587
877.828	0.0134518
877.906	0.0134315
877.984	0.0135712
878.062	0.0136076
878.140	0.0135056
878.218	0.0134239
878.296	0.0135435
878.374	0.0134143
878.453	0.0134863
878.531	0.0133600
878.609	0.0134509
878.687	0.0134943
878.765	0.0135039
878.843	0.0135767
878.921	0.0135139
878.999	0.0134710
879.078	0.0133706
879.156	0.0134666
879.234	0.0135809
879.312	0.0135224
879.390	0.0135857
879.468	0.0136581
879.546	0.0136470
879.624	0.0134803
879.703	0.0135549
879.781	0.0135237
879.859	0.0134953
879.937	0.0135309
880.015	0.0136956
880.093	0.0137650
880.171	0.0135181
880.249	0.0135722
880.328	0.0135856
880.406	0.0136077
880.484	0.0136017
880.562	0.0136501
880.640	0.0136526
880.718	0.0137166
880.796	0.0136948
880.874	0.0137627
880.953	0.0139249
881.031	0.0137234
881.109	0.0136655
881.187	0.0136819
881.265	0.0136468
881.343	0.0135954
881.421	0.0135969
881.499	0.0135905
881.578	0.0136308
881.656	0.0136594
881.734	0.0135542
881.812	0.0136033
881.890	0.0135314
881.968	0.0136687
882.046	0.0134341
882.124	0.0136012
882.203	0.0136348
882.281	0.0133875
882.359	0.0134914
882.437	0.0134159
882.515	0.0134086
882.593	0.0135049
882.671	0.0134872
882.749	0.0135316
882.828	0.0133534
882.906	0.0135593
882.984	0.0135056
883.062	0.0135181
883.140	0.0135478
883.218	0.0134263
883.296	0.0134389
883.374	0.0135410
883.453	0.0135258
883.531	0.0133904
883.609	0.0134427
883.687	0.0133539
883.765	0.0134632
883.843	0.0133192
883.921	0.0134041
883.999	0.0133955
884.078	0.0135329
884.156	0.0135078
884.234	0.0134429
884.312	0.0135291
884.390	0.0135410
884.468	0.0134367
884.546	0.0135977
884.624	0.0136514
884.703	0.0136433
884.781	0.0135824
884.859	0.0135347
884.937	0.0136583
885.015	0.0136123
885.093	0.0135770
885.171	0.0135452
885.249	0.0135049
885.328	0.0136407
885.406	0.0135392
885.484	0.0136127
885.562	0.0137136
885.640	0.0136472
885.718	0.0136722
885.796	0.0137639
885.874	0.0138284
885.953	0.0137360
886.031	0.0137647
886.109	0.0136622
886.187	0.0137188
886.265	0.0136923
886.343	0.0137337
886.421	0.0138785
886.499	0.0136745
886.578	0.0136305
886.656	0.0137543
886.734	0.0137356
886.812	0.0136832
886.890	0.0136110
886.968	0.0136610
887.046	0.0136417
887.124	0.0135276
887.203	0.0134390
887.281	0.0135909
887.359	0.0136066
887.437	0.0134915
887.515	0.0133858
887.593	0.0134739
887.671	0.0135680
887.749	0.0134446
887.828	0.0135063
887.906	0.0134361
887.984	0.0134391
888.062	0.0134010
888.140	0.0135638
888.218	0.0136486
888.296	0.0133969
888.374	0.0134933
888.453	0.0134229
888.531	0.0135562
888.609	0.0134171
888.687	0.0135825
888.765	0.0136507
888.843	0.0135994
888.921	0.0135670
888.999	0.0136074
889.078	0.0135941
889.156	0.0135456
889.234	0.0135677
889.312	0.0137302
889.390	0.0135558
889.468	0.0136219
889.546	0.0136131
889.624	0.0136162
889.703	0.0135573
889.781	0.0135809
889.859	0.0135517
889.937	0.0136400
890.015	0.0135925
890.093	0.0136644
890.171	0.0135931
890.249	0.0135868
890.328	0.0136757
890.406	0.0134869
890.484	0.0136020
890.562	0.0136498
890.640	0.0135583
890.718	0.0134762
890.796	0.0136211
890.874	0.0136023
890.953	0.0137776
891.031	0.0135331
891.109	0.0136072
891.187	0.0135783
891.265	0.0135487
891.343	0.0135463
891.421	0.0134663
891.499	0.0136111
891.578	0.0136076
891.656	0.0134211
891.734	0.0135139
891.812	0.0135889
891.890	0.0135280
891.968	0.0134971
892.046	0.0136150
892.124	0.0134725
892.203	0.0134193
892.281	0.0135594
892.359	0.0134441
892.437	0.0134974
892.515	0.0134814
892.593	0.0135678
892.671	0.0135258
892.749	0.0135473
892.828	0.0135676
892.906	0.0135924
892.984	0.0137350
893.062	0.0137479
893.140	0.0136326
893.218	0.0135335
893.296	0.0136182
893.374	0.0136103
893.453	0.0136660
893.531	0.0136451
893.609	0.0135521
893.687	0.0137255
893.765	0.0135847
893.843	0.0137457
893.921	0.0137291
893.999	0.0137246
894.078	0.0137501
894.156	0.0136921
894.234	0.0137585
894.312	0.0136008
894.390	0.0136977
894.468	0.0136517
894.546	0.0137777
894.624	0.0137777
894.703	0.0136346
894.781	0.0136422
894.859	0.0136027
894.937	0.0136798
895.015	0.0136810
895.093	0.0136745
895.171	0.0135838
895.249	0.0135806
895.328	0.0135878
895.406	0.0136201
895.484	0.0135995
895.562	0.0136909
895.640	0.0136095
895.718	0.0135841
895.796	0.0136236
895.874	0.0137569
895.953	0.0136679
896.031	0.0137106
896.109	0.0137730
896.187	0.0136884
896.265	0.0137725
896.343	0.0137848
896.421	0.0136117
896.499	0.0138158
896.578	0.0137416
896.656	0.0138074
896.734	0.0138014
896.812	0.0138474
896.890	0.0139046
896.968	0.0138998
897.046	0.0138010
897.124	0.0138073
897.203	0.0138144
897.281	0.0138216
897.359	0.0139571
897.437	0.0137476
897.515	0.0136977
897.593	0.0138902
897.671	0.0138023
897.749	0.0137210
897.828	0.0137739
897.906	0.0138865
897.984	0.0136462
898.062	0.0138742
898.140	0.0137101
898.218	0.0135599
898.296	0.0136841
898.374	0.0136582
898.453	0.0136913
898.531	0.0136226
898.609	0.0135184
898.687	0.0134353
898.765	0.0135473
898.843	0.0134628
898.921	0.0134389
898.999	0.0134830
899.078	0.0135699
899.156	0.0134476
899.234	0.0133924
899.312	0.0134761
899.390	0.0135529
899.468	0.0134803
899.546	0.0133600
899.624	0.0135476
899.703	0.0134234
899.781	0.0134848
899.859	0.0134844
899.937	0.0134721
900.015	0.0135974
900.093	0.0134559
900.171	0.0134592
900.249	0.0135199
900.328	0.0135776
900.406	0.0135403
900.484	0.0135790
900.562	0.0137375
900.640	0.0135036
900.718	0.0135427
900.796	0.0134666
900.874	0.0136137
900.953	0.0134980
901.031	0.0136089
901.109	0.0135430
901.187	0.0135270
901.265	0.0136829
901.343	0.0136248
901.421	0.0136338
901.499	0.0135402
901.578	0.0136584
901.656	0.0136167
901.734	0.0134849
901.812	0.0136722
901.890	0.0136283
901.968	0.0135726
902.046	0.0136841
902.124	0.0136460
902.203	0.0136566
902.281	0.0135326
902.359	0.0136580
902.437	0.0135972
902.515	0.0135885
902.593	0.0136261
902.671	0.0135765
902.749	0.0136980
902.828	0.0135937
902.906	0.0135412
902.984	0.0136584
903.062	0.0135442
903.140	0.0134772
903.218	0.0135401
903.296	0.0136168
903.374	0.0134089
903.453	0.0135380
903.531	0.0136599
903.609	0.0135876
903.687	0.0135879
903.765	0.0136134
903.843	0.0135376
903.921	0.0134863
903.999	0.0135468
904.078	0.0135765
904.156	0.0136249
904.234	0.0136422
904.312	0.0134667
904.390	0.0136398
904.468	0.0137386
904.546	0.0136369
904.624	0.0136008
904.703	0.0135397
904.781	0.0135959
904.859	0.0137329
904.937	0.0135136
905.015	0.0133260
905.093	0.0134008
905.171	0.0134524
905.249	0.0134811
905.328	0.0134502
905.406	0.0134581
905.484	0.0135051
905.562	0.0134447
905.640	0.0134966
905.718	0.0136401
905.796	0.0135035
905.874	0.0134068
905.953	0.0135650
906.031	0.0135181
906.109	0.0135901
906.187	0.0135235
906.265	0.0135513
906.343	0.0135239
906.421	0.0135822
906.499	0.0136026
906.578	0.0136447
906.656	0.0136347
906.734	0.0135975
906.812	0.0136159
906.890	0.0136162
906.968	0.0136238
907.046	0.0136487
907.124	0.0134958
907.203	0.0136901
907.281	0.0135583
907.359	0.0135882
907.437	0.0135742
907.515	0.0136384
907.593	0.0135763
907.671	0.0135289
907.749	0.0134199
907.828	0.0134956
907.906	0.0136324
907.984	0.0134904
908.062	0.0134889
908.140	0.0135157
908.218	0.0134519
908.296	0.0134496
908.374	0.0135490
908.453	0.0135879
908.531	0.0136522
908.609	0.0133971
908.687	0.0134077
908.765	0.0135314
908.843	0.0134980
908.921	0.0136413
908.999	0.0134880
909.078	0.0133418
909.156	0.0134404
909.234	0.0136463
909.312	0.0135167
909.390	0.0135398
909.468	0.0135349
909.546	0.0135905
909.624	0.0135802
909.703	0.0136208
909.781	0.0136287
909.859	0.0135964
909.937	0.0135688
910.015	0.0135287
910.093	0.0136309
910.171	0.0136089
910.249	0.0137112
910.328	0.0137064
910.406	0.0135204
910.484	0.0135098
910.562	0.0137407
910.640	0.0135631
910.718	0.0136151
910.796	0.0135873
910.874	0.0136887
910.953	0.0136085
911.031	0.0137051
911.109	0.0136356
911.187	0.0134637
911.265	0.0136169
911.343	0.0134965
911.421	0.0134476
911.499	0.0135736
911.578	0.0135658
911.656	0.0135850
911.734	0.0135296
911.812	0.0135619
911.890	0.0135500
911.968	0.0135940
912.046	0.0136660
912.124	0.0136088
912.203	0.0135291
912.281	0.0134830
912.359	0.0137000
912.437	0.0136290
912.515	0.0135384
912.593	0.0136261
912.671	0.0137074
912.749	0.0137444
912.828	0.0136201
912.906	0.0135478
912.984	0.0135596
913.062	0.0136263
913.140	0.0136017
913.218	0.0135608
913.296	0.0136237
913.374	0.0135101
913.453	0.0135635
913.531	0.0136211
913.609	0.0134592
913.687	0.0136126
913.765	0.0134313
913.843	0.0135184
913.921	0.0136247
913.999	0.0135386
914.078	0.0135099
914.156	0.0136633
914.234	0.0135984
914.312	0.0136272
914.390	0.0135407
914.468	0.0137143
914.546	0.0136249
914.624	0.0135565
914.703	0.0135561
914.781	0.0135529
914.859	0.0136835
914.937	0.0136425
915.015	0.0136031
915.093	0.0134458
915.171	0.0136304
915.249	0.0138075
915.328	0.0138832
915.406	0.0137384
915.484	0.0136272
915.562	0.0136324
915.640	0.0137463
915.718	0.0137457
915.796	0.0138045
915.874	0.0137724
915.953	0.0138273
916.031	0.0137814
916.109	0.0137601
916.187	0.0139128
916.265	0.0138760
916.343	0.0138412
916.421	0.0138523
916.499	0.0138052
916.578	0.0139151
916.656	0.0138002
916.734	0.0137302
916.812	0.0137781
916.890	0.0137099
916.968	0.0137796
917.046	0.0137885
917.124	0.0137762
917.203	0.0135672
917.281	0.0136723
917.359	0.0135762
917.437	0.0136415
917.515	0.0136168
917.593	0.0136258
917.671	0.0136819
917.749	0.0135390
917.828	0.0136078
917.906	0.0135197
917.984	0.0135340
918.062	0.0135806
918.140	0.0136312
918.218	0.0135436
918.296	0.0134559
918.374	0.0135139
918.453	0.0136287
918.531	0.0135426
918.609	0.0135792
918.687	0.0134850
918.765	0.0134161
918.843	0.0135712
918.921	0.0135641
918.999	0.0135664
919.078	0.0134350
919.156	0.0135896
919.234	0.0134979
919.312	0.0135602
919.390	0.0134712
919.468	0.0134349
919.546	0.0136420
919.624	0.0133426
919.703	0.0135674
919.781	0.0136185
919.859	0.0135345
919.937	0.0132920
