05/08/2022	20:25:57	Ver.	4.1	UNKNOWN
Optical Delay	600.015094	Delta X		0.078125	Sweeps	1	Scan Rate	0/0
Coordinates	Axis 1	NaN	Axis 2	NaN	Axis 3	NaN	Axis 4	NaN	Axis 5	NaN	Axis 6	0.000000
TX Power	0.000000	RX Power	0.000000

600.015	0.0135558
600.093	0.0136681
600.171	0.0136435
600.249	0.0136298
600.328	0.0135894
600.406	0.0136627
600.484	0.0135519
600.562	0.0136241
600.640	0.0135932
600.718	0.0133419
600.796	0.0134238
600.874	0.0136275
600.953	0.0137122
601.031	0.0135628
601.109	0.0135419
601.187	0.0134583
601.265	0.0135968
601.343	0.0135454
601.421	0.0136069
601.499	0.0136982
601.578	0.0136818
601.656	0.0137384
601.734	0.0138036
601.812	0.0136103
601.890	0.0134867
601.968	0.0135127
602.046	0.0136206
602.124	0.0136116
602.203	0.0136417
602.281	0.0135695
602.359	0.0135846
602.437	0.0136970
602.515	0.0136620
602.593	0.0136095
602.671	0.0135760
602.749	0.0136134
602.828	0.0134830
602.906	0.0137093
602.984	0.0136334
603.062	0.0135588
603.140	0.0136304
603.218	0.0137838
603.296	0.0136184
603.374	0.0136365
603.453	0.0136683
603.531	0.0135872
603.609	0.0136211
603.687	0.0136208
603.765	0.0135754
603.843	0.0136136
603.921	0.0135157
603.999	0.0136317
604.078	0.0135529
604.156	0.0136008
604.234	0.0134460
604.312	0.0136242
604.390	0.0137140
604.468	0.0135878
604.546	0.0135027
604.624	0.0136807
604.703	0.0135451
604.781	0.0136136
604.859	0.0136355
604.937	0.0135451
605.015	0.0136234
605.093	0.0135460
605.171	0.0135178
605.249	0.0135783
605.328	0.0135844
605.406	0.0137614
605.484	0.0135960
605.562	0.0135430
605.640	0.0137360
605.718	0.0137577
605.796	0.0135200
605.874	0.0136805
605.953	0.0135400
606.031	0.0135453
606.109	0.0136355
606.187	0.0136413
606.265	0.0135510
606.343	0.0135806
606.421	0.0135633
606.499	0.0134930
606.578	0.0137046
606.656	0.0134267
606.734	0.0135275
606.812	0.0137083
606.890	0.0135909
606.968	0.0136140
607.046	0.0135480
607.124	0.0136015
607.203	0.0136113
607.281	0.0135611
607.359	0.0135920
607.437	0.0136789
607.515	0.0136294
607.593	0.0136064
607.671	0.0135338
607.749	0.0135368
607.828	0.0135657
607.906	0.0135883
607.984	0.0136126
608.062	0.0136217
608.140	0.0136374
608.218	0.0135350
608.296	0.0135165
608.374	0.0135240
608.453	0.0136197
608.531	0.0135961
608.609	0.0135593
608.687	0.0136140
608.765	0.0135106
608.843	0.0135701
608.921	0.0136054
608.999	0.0136395
609.078	0.0135716
609.156	0.0136212
609.234	0.0134421
609.312	0.0136205
609.390	0.0135243
609.468	0.0135940
609.546	0.0137254
609.624	0.0136175
609.703	0.0136224
609.781	0.0135895
609.859	0.0135433
609.937	0.0135822
610.015	0.0135537
610.093	0.0136794
610.171	0.0136076
610.249	0.0136240
610.328	0.0135909
610.406	0.0135809
610.484	0.0135685
610.562	0.0136519
610.640	0.0137089
610.718	0.0136708
610.796	0.0137132
610.874	0.0135217
610.953	0.0137521
611.031	0.0135786
611.109	0.0135919
611.187	0.0136590
611.265	0.0136762
611.343	0.0136249
611.421	0.0135134
611.499	0.0135646
611.578	0.0134930
611.656	0.0135154
611.734	0.0136775
611.812	0.0138089
611.890	0.0137616
611.968	0.0136856
612.046	0.0135957
612.124	0.0136304
612.203	0.0137627
612.281	0.0137328
612.359	0.0135812
612.437	0.0135629
612.515	0.0137365
612.593	0.0137648
612.671	0.0135169
612.749	0.0135974
612.828	0.0136131
612.906	0.0136579
612.984	0.0136976
613.062	0.0137241
613.140	0.0135507
613.218	0.0136470
613.296	0.0136480
613.374	0.0136979
613.453	0.0134564
613.531	0.0135862
613.609	0.0137126
613.687	0.0136130
613.765	0.0135585
613.843	0.0136694
613.921	0.0136501
613.999	0.0136224
614.078	0.0136031
614.156	0.0135242
614.234	0.0135877
614.312	0.0135359
614.390	0.0135280
614.468	0.0136127
614.546	0.0137251
614.624	0.0135941
614.703	0.0135487
614.781	0.0136224
614.859	0.0136477
614.937	0.0135801
615.015	0.0134879
615.093	0.0134545
615.171	0.0135580
615.249	0.0136212
615.328	0.0135203
615.406	0.0135160
615.484	0.0133994
615.562	0.0135758
615.640	0.0134841
615.718	0.0135269
615.796	0.0134573
615.874	0.0135335
615.953	0.0135999
616.031	0.0134737
616.109	0.0134058
616.187	0.0134348
616.265	0.0135458
616.343	0.0136129
616.421	0.0134959
616.499	0.0135085
616.578	0.0134167
616.656	0.0135793
616.734	0.0136355
616.812	0.0136568
616.890	0.0135499
616.968	0.0135368
617.046	0.0135942
617.124	0.0135130
617.203	0.0134973
617.281	0.0135173
617.359	0.0135812
617.437	0.0134154
617.515	0.0134165
617.593	0.0134795
617.671	0.0135564
617.749	0.0135703
617.828	0.0136015
617.906	0.0135097
617.984	0.0134322
618.062	0.0137482
618.140	0.0134148
618.218	0.0134381
618.296	0.0135137
618.374	0.0135176
618.453	0.0134627
618.531	0.0134690
618.609	0.0135129
618.687	0.0136887
618.765	0.0134048
618.843	0.0133141
618.921	0.0134913
618.999	0.0135983
619.078	0.0134775
619.156	0.0133918
619.234	0.0134323
619.312	0.0135223
619.390	0.0134103
619.468	0.0134934
619.546	0.0134429
619.624	0.0135036
619.703	0.0134162
619.781	0.0134373
619.859	0.0134304
619.937	0.0134490
620.015	0.0134380
620.093	0.0135228
620.171	0.0134251
620.249	0.0135396
620.328	0.0135283
620.406	0.0134136
620.484	0.0135133
620.562	0.0135414
620.640	0.0134603
620.718	0.0135780
620.796	0.0135026
620.874	0.0134792
620.953	0.0136226
621.031	0.0135910
621.109	0.0136267
621.187	0.0136110
621.265	0.0136145
621.343	0.0134227
621.421	0.0134403
621.499	0.0135023
621.578	0.0137514
621.656	0.0136157
621.734	0.0134400
621.812	0.0135239
621.890	0.0135800
621.968	0.0135833
622.046	0.0136207
622.124	0.0135641
622.203	0.0135250
622.281	0.0136217
622.359	0.0136181
622.437	0.0134744
622.515	0.0135483
622.593	0.0136872
622.671	0.0136586
622.749	0.0137070
622.828	0.0136267
622.906	0.0136483
622.984	0.0136761
623.062	0.0136907
623.140	0.0136700
623.218	0.0136322
623.296	0.0136307
623.374	0.0137605
623.453	0.0136943
623.531	0.0137280
623.609	0.0136476
623.687	0.0136028
623.765	0.0137580
623.843	0.0136182
623.921	0.0136350
623.999	0.0135743
624.078	0.0137527
624.156	0.0136375
624.234	0.0136411
624.312	0.0137225
624.390	0.0136343
624.468	0.0135653
624.546	0.0136658
624.624	0.0135314
624.703	0.0136658
624.781	0.0136896
624.859	0.0136165
624.937	0.0135519
625.015	0.0136249
625.093	0.0135678
625.171	0.0136219
625.249	0.0135341
625.328	0.0135389
625.406	0.0135504
625.484	0.0134039
625.562	0.0135817
625.640	0.0136315
625.718	0.0135293
625.796	0.0134126
625.874	0.0134506
625.953	0.0135126
626.031	0.0134631
626.109	0.0136305
626.187	0.0134995
626.265	0.0133763
626.343	0.0135294
626.421	0.0135458
626.499	0.0135457
626.578	0.0135162
626.656	0.0134823
626.734	0.0133787
626.812	0.0135638
626.890	0.0135391
626.968	0.0135995
627.046	0.0135726
627.124	0.0133731
627.203	0.0135236
627.281	0.0135038
627.359	0.0134344
627.437	0.0136559
627.515	0.0135832
627.593	0.0135274
627.671	0.0135988
627.749	0.0135448
627.828	0.0136499
627.906	0.0135566
627.984	0.0134181
628.062	0.0135342
628.140	0.0135014
628.218	0.0135374
628.296	0.0135484
628.374	0.0135343
628.453	0.0136127
628.531	0.0135888
628.609	0.0136916
628.687	0.0136017
628.765	0.0135748
628.843	0.0136654
628.921	0.0135585
628.999	0.0135444
629.078	0.0136366
629.156	0.0136412
629.234	0.0135709
629.312	0.0134935
629.390	0.0136215
629.468	0.0134912
629.546	0.0136874
629.624	0.0136095
629.703	0.0134968
629.781	0.0136745
629.859	0.0135707
629.937	0.0137871
630.015	0.0135986
630.093	0.0136044
630.171	0.0136431
630.249	0.0136103
630.328	0.0135678
630.406	0.0136687
630.484	0.0136410
630.562	0.0134368
630.640	0.0137585
630.718	0.0138576
630.796	0.0136259
630.874	0.0136596
630.953	0.0135855
631.031	0.0137150
631.109	0.0135604
631.187	0.0136007
631.265	0.0137180
631.343	0.0136864
631.421	0.0138191
631.499	0.0136511
631.578	0.0135805
631.656	0.0137209
631.734	0.0136860
631.812	0.0136250
631.890	0.0137043
631.968	0.0137592
632.046	0.0135680
632.124	0.0137502
632.203	0.0136969
632.281	0.0136354
632.359	0.0137273
632.437	0.0137168
632.515	0.0135320
632.593	0.0137578
632.671	0.0135918
632.749	0.0136534
632.828	0.0135982
632.906	0.0136686
632.984	0.0137213
633.062	0.0136488
633.140	0.0136433
633.218	0.0135321
633.296	0.0136016
633.374	0.0135265
633.453	0.0135992
633.531	0.0136649
633.609	0.0135447
633.687	0.0135799
633.765	0.0136152
633.843	0.0137114
633.921	0.0136419
633.999	0.0135545
634.078	0.0137186
634.156	0.0135465
634.234	0.0137174
634.312	0.0136774
634.390	0.0135712
634.468	0.0136439
634.546	0.0137119
634.624	0.0137115
634.703	0.0137014
634.781	0.0137428
634.859	0.0135758
634.937	0.0137598
635.015	0.0136811
635.093	0.0136500
635.171	0.0137411
635.249	0.0136740
635.328	0.0137371
635.406	0.0136347
635.484	0.0137318
635.562	0.0136021
635.640	0.0136092
635.718	0.0136166
635.796	0.0134480
635.874	0.0134765
635.953	0.0135033
636.031	0.0135006
636.109	0.0134475
636.187	0.0134660
636.265	0.0134725
636.343	0.0134199
636.421	0.0134324
636.499	0.0135464
636.578	0.0136489
636.656	0.0136687
636.734	0.0135651
636.812	0.0136025
636.890	0.0135876
636.968	0.0136405
637.046	0.0135411
637.124	0.0136331
637.203	0.0136417
637.281	0.0134937
637.359	0.0136129
637.437	0.0136428
637.515	0.0134501
637.593	0.0135336
637.671	0.0134893
637.749	0.0136095
637.828	0.0136438
637.906	0.0135646
637.984	0.0134814
638.062	0.0135713
638.140	0.0135001
638.218	0.0135039
638.296	0.0136259
638.374	0.0134853
638.453	0.0136634
638.531	0.0136703
638.609	0.0136692
638.687	0.0137507
638.765	0.0137260
638.843	0.0136195
638.921	0.0137421
638.999	0.0136246
639.078	0.0136034
639.156	0.0134626
639.234	0.0135603
639.312	0.0135895
639.390	0.0135056
639.468	0.0136029
639.546	0.0136047
639.624	0.0136036
639.703	0.0136146
639.781	0.0135854
639.859	0.0135235
639.937	0.0135212
640.015	0.0135574
640.093	0.0135209
640.171	0.0135363
640.249	0.0134318
640.328	0.0134084
640.406	0.0135648
640.484	0.0135950
640.562	0.0134245
640.640	0.0134160
640.718	0.0136378
640.796	0.0134548
640.874	0.0135609
640.953	0.0136388
641.031	0.0138129
641.109	0.0137350
641.187	0.0136953
641.265	0.0137344
641.343	0.0137499
641.421	0.0137080
641.499	0.0136995
641.578	0.0138512
641.656	0.0137186
641.734	0.0138446
641.812	0.0137986
641.890	0.0137059
641.968	0.0136716
642.046	0.0136826
642.124	0.0136395
642.203	0.0135770
642.281	0.0136342
642.359	0.0136087
642.437	0.0136088
642.515	0.0136565
642.593	0.0135494
642.671	0.0134415
642.749	0.0133614
642.828	0.0134529
642.906	0.0133996
642.984	0.0132317
643.062	0.0131411
643.140	0.0132564
643.218	0.0131721
643.296	0.0131386
643.374	0.0130801
643.453	0.0128426
643.531	0.0131369
643.609	0.0131252
643.687	0.0130351
643.765	0.0129595
643.843	0.0131059
643.921	0.0131821
643.999	0.0132246
644.078	0.0132883
644.156	0.0133537
644.234	0.0134357
644.312	0.0135219
644.390	0.0137934
644.468	0.0138383
644.546	0.0139296
644.624	0.0143123
644.703	0.0142905
644.781	0.0144115
644.859	0.0144839
644.937	0.0146011
645.015	0.0146861
645.093	0.0145373
645.171	0.0145414
645.249	0.0146369
645.328	0.0145400
645.406	0.0143297
645.484	0.0141640
645.562	0.0141395
645.640	0.0140572
645.718	0.0138634
645.796	0.0136835
645.874	0.0134409
645.953	0.0133916
646.031	0.0131796
646.109	0.0130104
646.187	0.0128770
646.265	0.0128227
646.343	0.0126611
646.421	0.0126404
646.499	0.0125498
646.578	0.0123311
646.656	0.0123299
646.734	0.0123479
646.812	0.0125347
646.890	0.0125083
646.968	0.0125929
647.046	0.0127504
647.124	0.0126756
647.203	0.0129511
647.281	0.0129745
647.359	0.0129517
647.437	0.0132929
647.515	0.0135120
647.593	0.0136226
647.671	0.0138563
647.749	0.0139422
647.828	0.0141595
647.906	0.0142366
647.984	0.0143085
648.062	0.0143115
648.140	0.0144216
648.218	0.0147295
648.296	0.0145114
648.374	0.0145616
648.453	0.0147454
648.531	0.0146078
648.609	0.0146401
648.687	0.0144748
648.765	0.0144622
648.843	0.0145078
648.921	0.0141904
648.999	0.0142058
649.078	0.0140800
649.156	0.0139709
649.234	0.0138318
649.312	0.0139826
649.390	0.0137195
649.468	0.0136491
649.546	0.0134801
649.624	0.0134874
649.703	0.0132358
649.781	0.0131760
649.859	0.0130102
649.937	0.0129635
650.015	0.0129208
650.093	0.0126660
650.171	0.0127254
650.249	0.0126663
650.328	0.0126078
650.406	0.0126420
650.484	0.0125344
650.562	0.0123882
650.640	0.0124265
650.718	0.0125345
650.796	0.0124872
650.874	0.0125515
650.953	0.0125180
651.031	0.0125906
651.109	0.0126019
651.187	0.0127494
651.265	0.0127373
651.343	0.0128477
651.421	0.0130305
651.499	0.0132013
651.578	0.0133657
651.656	0.0135086
651.734	0.0135347
651.812	0.0137325
651.890	0.0139964
651.968	0.0140286
652.046	0.0141008
652.124	0.0142905
652.203	0.0144296
652.281	0.0145391
652.359	0.0147074
652.437	0.0148403
652.515	0.0149586
652.593	0.0151332
652.671	0.0152187
652.749	0.0152567
652.828	0.0152047
652.906	0.0152789
652.984	0.0152586
653.062	0.0151921
653.140	0.0149451
653.218	0.0149367
653.296	0.0147909
653.374	0.0145796
653.453	0.0144067
653.531	0.0142262
653.609	0.0138518
653.687	0.0137251
653.765	0.0134013
653.843	0.0130680
653.921	0.0128082
653.999	0.0127139
654.078	0.0124117
654.156	0.0120388
654.234	0.0117531
654.312	0.0116809
654.390	0.0114008
654.468	0.0112282
654.546	0.0110247
654.624	0.0110884
654.703	0.0109689
654.781	0.0109505
654.859	0.0109295
654.937	0.0110858
655.015	0.0110800
655.093	0.0112642
655.171	0.0115614
655.249	0.0118521
655.328	0.0121801
655.406	0.0122932
655.484	0.0126401
655.562	0.0131252
655.640	0.0133971
655.718	0.0139089
655.796	0.0143567
655.874	0.0146709
655.953	0.0148044
656.031	0.0151955
656.109	0.0155930
656.187	0.0158810
656.265	0.0159602
656.343	0.0161646
656.421	0.0162608
656.499	0.0164185
656.578	0.0166261
656.656	0.0164726
656.734	0.0164678
656.812	0.0165074
656.890	0.0165164
656.968	0.0162027
657.046	0.0157948
657.124	0.0156833
657.203	0.0154759
657.281	0.0152270
657.359	0.0147949
657.437	0.0145834
657.515	0.0140849
657.593	0.0137131
657.671	0.0133525
657.749	0.0127653
657.828	0.0126442
657.906	0.0125092
657.984	0.0121033
658.062	0.0118559
658.140	0.0115001
658.218	0.0112737
658.296	0.0112129
658.374	0.0111287
658.453	0.0110154
658.531	0.0108405
658.609	0.0108617
658.687	0.0110011
658.765	0.0110849
658.843	0.0111771
658.921	0.0114523
658.999	0.0115607
659.078	0.0117582
659.156	0.0120241
659.234	0.0121618
659.312	0.0124070
659.390	0.0126752
659.468	0.0128461
659.546	0.0131005
659.624	0.0132453
659.703	0.0136589
659.781	0.0137553
659.859	0.0140810
659.937	0.0143716
660.015	0.0145797
660.093	0.0148638
660.171	0.0149648
660.249	0.0151828
660.328	0.0153020
660.406	0.0156134
660.484	0.0157468
660.562	0.0158717
660.640	0.0159093
660.718	0.0159080
660.796	0.0159542
660.874	0.0159717
660.953	0.0158849
661.031	0.0159655
661.109	0.0158324
661.187	0.0157090
661.265	0.0152948
661.343	0.0152443
661.421	0.0151087
661.499	0.0150085
661.578	0.0147742
661.656	0.0144730
661.734	0.0141785
661.812	0.0139925
661.890	0.0137921
661.968	0.0133128
662.046	0.0130579
662.124	0.0128351
662.203	0.0125505
662.281	0.0122587
662.359	0.0119660
662.437	0.0117992
662.515	0.0117989
662.593	0.0113772
662.671	0.0113441
662.749	0.0111034
662.828	0.0110941
662.906	0.0111058
662.984	0.0113331
663.062	0.0111414
663.140	0.0111649
663.218	0.0113177
663.296	0.0116399
663.374	0.0115480
663.453	0.0119015
663.531	0.0120436
663.609	0.0123384
663.687	0.0125710
663.765	0.0127460
663.843	0.0129552
663.921	0.0132620
663.999	0.0135918
664.078	0.0138165
664.156	0.0140677
664.234	0.0142220
664.312	0.0144111
664.390	0.0143627
664.468	0.0147121
664.546	0.0149682
664.624	0.0151090
664.703	0.0151442
664.781	0.0152165
664.859	0.0151792
664.937	0.0153709
665.015	0.0153049
665.093	0.0152326
665.171	0.0153034
665.249	0.0152755
665.328	0.0151591
665.406	0.0150993
665.484	0.0148820
665.562	0.0147097
665.640	0.0145477
665.718	0.0145529
665.796	0.0143504
665.874	0.0141596
665.953	0.0138405
666.031	0.0138640
666.109	0.0137885
666.187	0.0134226
666.265	0.0133463
666.343	0.0131336
666.421	0.0130496
666.499	0.0129325
666.578	0.0129997
666.656	0.0128689
666.734	0.0125851
666.812	0.0125841
666.890	0.0125323
666.968	0.0126090
667.046	0.0125060
667.124	0.0125978
667.203	0.0124786
667.281	0.0125171
667.359	0.0126086
667.437	0.0126890
667.515	0.0126412
667.593	0.0125486
667.671	0.0128490
667.749	0.0128471
667.828	0.0129289
667.906	0.0129771
667.984	0.0128812
668.062	0.0131228
668.140	0.0131760
668.218	0.0133715
668.296	0.0134145
668.374	0.0134005
668.453	0.0134905
668.531	0.0135378
668.609	0.0134928
668.687	0.0136640
668.765	0.0137127
668.843	0.0139165
668.921	0.0138234
668.999	0.0138593
669.078	0.0137202
669.156	0.0137680
669.234	0.0139040
669.312	0.0139200
669.390	0.0139500
669.468	0.0141338
669.546	0.0139719
669.624	0.0138006
669.703	0.0139467
669.781	0.0137945
669.859	0.0138477
669.937	0.0138414
670.015	0.0136082
670.093	0.0136067
670.171	0.0135722
670.249	0.0134422
670.328	0.0132967
670.406	0.0131934
670.484	0.0133004
670.562	0.0133034
670.640	0.0131429
670.718	0.0132622
670.796	0.0131568
670.874	0.0132700
670.953	0.0132893
671.031	0.0132645
671.109	0.0134837
671.187	0.0134488
671.265	0.0134591
671.343	0.0137702
671.421	0.0138930
671.499	0.0139351
671.578	0.0139229
671.656	0.0140313
671.734	0.0140023
671.812	0.0140049
671.890	0.0141550
671.968	0.0141333
672.046	0.0141309
672.124	0.0140285
672.203	0.0140372
672.281	0.0137994
672.359	0.0140237
672.437	0.0138664
672.515	0.0137060
672.593	0.0136978
672.671	0.0136499
672.749	0.0134623
672.828	0.0134428
672.906	0.0133963
672.984	0.0133595
673.062	0.0132959
673.140	0.0131864
673.218	0.0131172
673.296	0.0129166
673.374	0.0130309
673.453	0.0128828
673.531	0.0127643
673.609	0.0129032
673.687	0.0128860
673.765	0.0127721
673.843	0.0126311
673.921	0.0126990
673.999	0.0126254
674.078	0.0126611
674.156	0.0127193
674.234	0.0126183
674.312	0.0128493
674.390	0.0129553
674.468	0.0129350
674.546	0.0129851
674.624	0.0130790
674.703	0.0133150
674.781	0.0133048
674.859	0.0132236
674.937	0.0134763
675.015	0.0135329
675.093	0.0136329
675.171	0.0137200
675.249	0.0135262
675.328	0.0137598
675.406	0.0137988
675.484	0.0137341
675.562	0.0137582
675.640	0.0135966
675.718	0.0137714
675.796	0.0137611
675.874	0.0137131
675.953	0.0137857
676.031	0.0138065
676.109	0.0138265
676.187	0.0138222
676.265	0.0139420
676.343	0.0138142
676.421	0.0138203
676.499	0.0139925
676.578	0.0140228
676.656	0.0139179
676.734	0.0139364
676.812	0.0140933
676.890	0.0138798
676.968	0.0139573
677.046	0.0139342
677.124	0.0139473
677.203	0.0139040
677.281	0.0138303
677.359	0.0138081
677.437	0.0137957
677.515	0.0136314
677.593	0.0136355
677.671	0.0136681
677.749	0.0135835
677.828	0.0134943
677.906	0.0134097
677.984	0.0134425
678.062	0.0132868
678.140	0.0133887
678.218	0.0133466
678.296	0.0132798
678.374	0.0133320
678.453	0.0133778
678.531	0.0131909
678.609	0.0132801
678.687	0.0133708
678.765	0.0134599
678.843	0.0133177
678.921	0.0133697
678.999	0.0133979
679.078	0.0133930
679.156	0.0133709
679.234	0.0133929
679.312	0.0134769
679.390	0.0134109
679.468	0.0133015
679.546	0.0133824
679.624	0.0134209
679.703	0.0135150
679.781	0.0136236
679.859	0.0136338
679.937	0.0135748
680.015	0.0137021
680.093	0.0137373
680.171	0.0136527
680.249	0.0136374
680.328	0.0136410
680.406	0.0135499
680.484	0.0134920
680.562	0.0133553
680.640	0.0134795
680.718	0.0133470
680.796	0.0134200
680.874	0.0133348
680.953	0.0132683
681.031	0.0132007
681.109	0.0132027
681.187	0.0134184
681.265	0.0132060
681.343	0.0132338
681.421	0.0131387
681.499	0.0131846
681.578	0.0130602
681.656	0.0133097
681.734	0.0133465
681.812	0.0134048
681.890	0.0135361
681.968	0.0135493
682.046	0.0135445
682.124	0.0136570
682.203	0.0137334
682.281	0.0138080
682.359	0.0139264
682.437	0.0140713
682.515	0.0140712
682.593	0.0142304
682.671	0.0143787
682.749	0.0145264
682.828	0.0146119
682.906	0.0145609
682.984	0.0146178
683.062	0.0146073
683.140	0.0146580
683.218	0.0144211
683.296	0.0144709
683.374	0.0144176
683.453	0.0143147
683.531	0.0143060
683.609	0.0141034
683.687	0.0141550
683.765	0.0141302
683.843	0.0139516
683.921	0.0137946
683.999	0.0138732
684.078	0.0137276
684.156	0.0135934
684.234	0.0136015
684.312	0.0134750
684.390	0.0135304
684.468	0.0135863
684.546	0.0134866
684.624	0.0133969
684.703	0.0134010
684.781	0.0133405
684.859	0.0134057
684.937	0.0133257
685.015	0.0130992
685.093	0.0130497
685.171	0.0131173
685.249	0.0128456
685.328	0.0130180
685.406	0.0129922
685.484	0.0128550
685.562	0.0128805
685.640	0.0129749
685.718	0.0128908
685.796	0.0129029
685.874	0.0129066
685.953	0.0128592
686.031	0.0130009
686.109	0.0129468
686.187	0.0129723
686.265	0.0129323
686.343	0.0129221
686.421	0.0130980
686.499	0.0129988
686.578	0.0130939
686.656	0.0130702
686.734	0.0132081
686.812	0.0131339
686.890	0.0132099
686.968	0.0133719
687.046	0.0133105
687.124	0.0134883
687.203	0.0134264
687.281	0.0136298
687.359	0.0137918
687.437	0.0137495
687.515	0.0136875
687.593	0.0138161
687.671	0.0139663
687.749	0.0141869
687.828	0.0140097
687.906	0.0139451
687.984	0.0141670
688.062	0.0142908
688.140	0.0143264
688.218	0.0142860
688.296	0.0143588
688.374	0.0143919
688.453	0.0142774
688.531	0.0143673
688.609	0.0144077
688.687	0.0141779
688.765	0.0142218
688.843	0.0142641
688.921	0.0140759
688.999	0.0140163
689.078	0.0139553
689.156	0.0139119
689.234	0.0136927
689.312	0.0136777
689.390	0.0136616
689.468	0.0135703
689.546	0.0135364
689.624	0.0134422
689.703	0.0134344
689.781	0.0132082
689.859	0.0133384
689.937	0.0133405
690.015	0.0131905
690.093	0.0132294
690.171	0.0133125
690.249	0.0133033
690.328	0.0133826
690.406	0.0133057
690.484	0.0133797
690.562	0.0134563
690.640	0.0135288
690.718	0.0134120
690.796	0.0134781
690.874	0.0134333
690.953	0.0132075
691.031	0.0132991
691.109	0.0133171
691.187	0.0131384
691.265	0.0131662
691.343	0.0131568
691.421	0.0132179
691.499	0.0130559
691.578	0.0130069
691.656	0.0131129
691.734	0.0130576
691.812	0.0131396
691.890	0.0131338
691.968	0.0133169
692.046	0.0131833
692.124	0.0133499
692.203	0.0134924
692.281	0.0134763
692.359	0.0135867
692.437	0.0133675
692.515	0.0135690
692.593	0.0135347
692.671	0.0135918
692.749	0.0135661
692.828	0.0134214
692.906	0.0136015
692.984	0.0135606
693.062	0.0135876
693.140	0.0136736
693.218	0.0136302
693.296	0.0135048
693.374	0.0136739
693.453	0.0137255
693.531	0.0136930
693.609	0.0136902
693.687	0.0137156
693.765	0.0139543
693.843	0.0139180
693.921	0.0139700
693.999	0.0140131
694.078	0.0138602
694.156	0.0138554
694.234	0.0140393
694.312	0.0138944
694.390	0.0137811
694.468	0.0137656
694.546	0.0138998
694.624	0.0136848
694.703	0.0135725
694.781	0.0136266
694.859	0.0135206
694.937	0.0136167
695.015	0.0135036
695.093	0.0135679
695.171	0.0136079
695.249	0.0137028
695.328	0.0136661
695.406	0.0134859
695.484	0.0135899
695.562	0.0135930
695.640	0.0135105
695.718	0.0135734
695.796	0.0134796
695.874	0.0133711
695.953	0.0132514
696.031	0.0133747
696.109	0.0135075
696.187	0.0134818
696.265	0.0134662
696.343	0.0135081
696.421	0.0134241
696.499	0.0134950
696.578	0.0135844
696.656	0.0135316
696.734	0.0134718
696.812	0.0135567
696.890	0.0134162
696.968	0.0134785
697.046	0.0134262
697.124	0.0134689
697.203	0.0134748
697.281	0.0133009
697.359	0.0133819
697.437	0.0133626
697.515	0.0132411
697.593	0.0133293
697.671	0.0134186
697.749	0.0133524
697.828	0.0134605
697.906	0.0135477
697.984	0.0134454
698.062	0.0134969
698.140	0.0134453
698.218	0.0133190
698.296	0.0135792
698.374	0.0136849
698.453	0.0135212
698.531	0.0132809
698.609	0.0134287
698.687	0.0134795
698.765	0.0136486
698.843	0.0135851
698.921	0.0133551
698.999	0.0133382
699.078	0.0134223
699.156	0.0135016
699.234	0.0136077
699.312	0.0135139
699.390	0.0135017
699.468	0.0134592
699.546	0.0134814
699.624	0.0133347
699.703	0.0134315
699.781	0.0134568
699.859	0.0134978
699.937	0.0133405
700.015	0.0134496
700.093	0.0135317
700.171	0.0134870
700.249	0.0137189
700.328	0.0136909
700.406	0.0136538
700.484	0.0136845
700.562	0.0138445
700.640	0.0140258
700.718	0.0141534
700.796	0.0141010
700.874	0.0142327
700.953	0.0142156
701.031	0.0140858
701.109	0.0141733
701.187	0.0141655
701.265	0.0140601
701.343	0.0141521
701.421	0.0141177
701.499	0.0141290
701.578	0.0139239
701.656	0.0138445
701.734	0.0139050
701.812	0.0137684
701.890	0.0138119
701.968	0.0137569
702.046	0.0136996
702.124	0.0134633
702.203	0.0135114
702.281	0.0134618
702.359	0.0134129
702.437	0.0133290
702.515	0.0132903
702.593	0.0132836
702.671	0.0131347
702.749	0.0130460
702.828	0.0130005
702.906	0.0131031
702.984	0.0130458
703.062	0.0130342
703.140	0.0130925
703.218	0.0129798
703.296	0.0130718
703.374	0.0129441
703.453	0.0131774
703.531	0.0130472
703.609	0.0130837
703.687	0.0132891
703.765	0.0134818
703.843	0.0134243
703.921	0.0135500
703.999	0.0136770
704.078	0.0137993
704.156	0.0138203
704.234	0.0139672
704.312	0.0139935
704.390	0.0139684
704.468	0.0141091
704.546	0.0140060
704.624	0.0139260
704.703	0.0138759
704.781	0.0139110
704.859	0.0137279
704.937	0.0138502
705.015	0.0138660
705.093	0.0137136
705.171	0.0135204
705.249	0.0136342
705.328	0.0134933
705.406	0.0133132
705.484	0.0133627
705.562	0.0132440
705.640	0.0131456
705.718	0.0131157
705.796	0.0128831
705.874	0.0128656
705.953	0.0130487
706.031	0.0128460
706.109	0.0129595
706.187	0.0128183
706.265	0.0129133
706.343	0.0129507
706.421	0.0128379
706.499	0.0130747
706.578	0.0129777
706.656	0.0131417
706.734	0.0132186
706.812	0.0133425
706.890	0.0134367
706.968	0.0136797
707.046	0.0135587
707.124	0.0137399
707.203	0.0137901
707.281	0.0139197
707.359	0.0141105
707.437	0.0143139
707.515	0.0143925
707.593	0.0143108
707.671	0.0144260
707.749	0.0144715
707.828	0.0143612
707.906	0.0142406
707.984	0.0142135
708.062	0.0141283
708.140	0.0141731
708.218	0.0142381
708.296	0.0142152
708.374	0.0142227
708.453	0.0141868
708.531	0.0141107
708.609	0.0140615
708.687	0.0141698
708.765	0.0140526
708.843	0.0139732
708.921	0.0139948
708.999	0.0141541
709.078	0.0139265
709.156	0.0139970
709.234	0.0139227
709.312	0.0138933
709.390	0.0138155
709.468	0.0137898
709.546	0.0136433
709.624	0.0136272
709.703	0.0136879
709.781	0.0135450
709.859	0.0134559
709.937	0.0134784
710.015	0.0135111
710.093	0.0135421
710.171	0.0133951
710.249	0.0134191
710.328	0.0132998
710.406	0.0131859
710.484	0.0133063
710.562	0.0133218
710.640	0.0131488
710.718	0.0131287
710.796	0.0131674
710.874	0.0130384
710.953	0.0129501
711.031	0.0129378
711.109	0.0130728
711.187	0.0130125
711.265	0.0132059
711.343	0.0132128
711.421	0.0132668
711.499	0.0131633
711.578	0.0133530
711.656	0.0135218
711.734	0.0135094
711.812	0.0135453
711.890	0.0137665
711.968	0.0138551
712.046	0.0137646
712.124	0.0138486
712.203	0.0139223
712.281	0.0139467
712.359	0.0140055
712.437	0.0139232
712.515	0.0139633
712.593	0.0138387
712.671	0.0138699
712.749	0.0139491
712.828	0.0137722
712.906	0.0139601
712.984	0.0138621
713.062	0.0138749
713.140	0.0137909
713.218	0.0137691
713.296	0.0138091
713.374	0.0138083
713.453	0.0138284
713.531	0.0139316
713.609	0.0139889
713.687	0.0139313
713.765	0.0138528
713.843	0.0138255
713.921	0.0140002
713.999	0.0137473
714.078	0.0139155
714.156	0.0140261
714.234	0.0140318
714.312	0.0139008
714.390	0.0138232
714.468	0.0139834
714.546	0.0139035
714.624	0.0140257
714.703	0.0139687
714.781	0.0141769
714.859	0.0140855
714.937	0.0139199
715.015	0.0139092
715.093	0.0140039
715.171	0.0140726
715.249	0.0138139
715.328	0.0138094
715.406	0.0139205
715.484	0.0137778
715.562	0.0134347
715.640	0.0136776
715.718	0.0135454
715.796	0.0134188
715.874	0.0134165
715.953	0.0135079
716.031	0.0133727
716.109	0.0131199
716.187	0.0130289
716.265	0.0130040
716.343	0.0130701
716.421	0.0129663
716.499	0.0129465
716.578	0.0129086
716.656	0.0127850
716.734	0.0127872
716.812	0.0129153
716.890	0.0127934
716.968	0.0129355
717.046	0.0128992
717.124	0.0130617
717.203	0.0131598
717.281	0.0131435
717.359	0.0130891
717.437	0.0132133
717.515	0.0132491
717.593	0.0133379
717.671	0.0133467
717.749	0.0133500
717.828	0.0133823
717.906	0.0134782
717.984	0.0136000
718.062	0.0135958
718.140	0.0136304
718.218	0.0136063
718.296	0.0136127
718.374	0.0137430
718.453	0.0135809
718.531	0.0137389
718.609	0.0136797
718.687	0.0137579
718.765	0.0138343
718.843	0.0138206
718.921	0.0138879
718.999	0.0138400
719.078	0.0139796
719.156	0.0139326
719.234	0.0139543
719.312	0.0138348
719.390	0.0138891
719.468	0.0139606
719.546	0.0138907
719.624	0.0139668
719.703	0.0139078
719.781	0.0139898
719.859	0.0138539
719.937	0.0139368
720.015	0.0139013
720.093	0.0138655
720.171	0.0139713
720.249	0.0139485
720.328	0.0138275
720.406	0.0138550
720.484	0.0139497
720.562	0.0139087
720.640	0.0138586
720.718	0.0137832
720.796	0.0138411
720.874	0.0138500
720.953	0.0139238
721.031	0.0137038
721.109	0.0137113
721.187	0.0136761
721.265	0.0138330
721.343	0.0135761
721.421	0.0135745
721.499	0.0134449
721.578	0.0133782
721.656	0.0132881
721.734	0.0133397
721.812	0.0132415
721.890	0.0130575
721.968	0.0130237
722.046	0.0130285
722.124	0.0131221
722.203	0.0129995
722.281	0.0128477
722.359	0.0130119
722.437	0.0130750
722.515	0.0131043
722.593	0.0131055
722.671	0.0131456
722.749	0.0132128
722.828	0.0133458
722.906	0.0133300
722.984	0.0133741
723.062	0.0135338
723.140	0.0135717
723.218	0.0135813
723.296	0.0136726
723.374	0.0136427
723.453	0.0137461
723.531	0.0138332
723.609	0.0139115
723.687	0.0138515
723.765	0.0138367
723.843	0.0140340
723.921	0.0139754
723.999	0.0138013
724.078	0.0139338
724.156	0.0139342
724.234	0.0138045
724.312	0.0137781
724.390	0.0137691
724.468	0.0137331
724.546	0.0136292
724.624	0.0135123
724.703	0.0134870
724.781	0.0134777
724.859	0.0135549
724.937	0.0134682
725.015	0.0134354
725.093	0.0135708
725.171	0.0134521
725.249	0.0134424
725.328	0.0135963
725.406	0.0135937
725.484	0.0135940
725.562	0.0136902
725.640	0.0136168
725.718	0.0134914
725.796	0.0134858
725.874	0.0135194
725.953	0.0135910
726.031	0.0135897
726.109	0.0135416
726.187	0.0134496
726.265	0.0134332
726.343	0.0134689
726.421	0.0136499
726.499	0.0135401
726.578	0.0135343
726.656	0.0134692
726.734	0.0135207
726.812	0.0136666
726.890	0.0136958
726.968	0.0136183
727.046	0.0137050
727.124	0.0137507
727.203	0.0136998
727.281	0.0138123
727.359	0.0136721
727.437	0.0137952
727.515	0.0137842
727.593	0.0138455
727.671	0.0138085
727.749	0.0138779
727.828	0.0138161
727.906	0.0138608
727.984	0.0138129
728.062	0.0138382
728.140	0.0137453
728.218	0.0138123
728.296	0.0137192
728.374	0.0136292
728.453	0.0135309
728.531	0.0135918
728.609	0.0136580
728.687	0.0135889
728.765	0.0135606
728.843	0.0136500
728.921	0.0136458
728.999	0.0135389
729.078	0.0135072
729.156	0.0135126
729.234	0.0134468
729.312	0.0135017
729.390	0.0133282
729.468	0.0132192
729.546	0.0132986
729.624	0.0130843
729.703	0.0130453
729.781	0.0131580
729.859	0.0131361
729.937	0.0131188
730.015	0.0131002
730.093	0.0131204
730.171	0.0131059
730.249	0.0131255
730.328	0.0129550
730.406	0.0131293
730.484	0.0130500
730.562	0.0131910
730.640	0.0133467
730.718	0.0131635
730.796	0.0132024
730.874	0.0133215
730.953	0.0132220
731.031	0.0132679
731.109	0.0134682
731.187	0.0134312
731.265	0.0134274
731.343	0.0135596
731.421	0.0133182
731.499	0.0134074
731.578	0.0134972
731.656	0.0135668
731.734	0.0136242
731.812	0.0137268
731.890	0.0137852
731.968	0.0138679
732.046	0.0136977
732.124	0.0137700
732.203	0.0137656
732.281	0.0138452
732.359	0.0139510
732.437	0.0138140
732.515	0.0137225
732.593	0.0138799
732.671	0.0138024
732.749	0.0137860
732.828	0.0140642
732.906	0.0139467
732.984	0.0139514
733.062	0.0138518
733.140	0.0138504
733.218	0.0138648
733.296	0.0136718
733.374	0.0136683
733.453	0.0137303
733.531	0.0138410
733.609	0.0137679
733.687	0.0136176
733.765	0.0137465
733.843	0.0137912
733.921	0.0136164
733.999	0.0137160
734.078	0.0136317
734.156	0.0137569
734.234	0.0136402
734.312	0.0135534
734.390	0.0135162
734.468	0.0134605
734.546	0.0135712
734.624	0.0135956
734.703	0.0136325
734.781	0.0135088
734.859	0.0134348
734.937	0.0135831
735.015	0.0136134
735.093	0.0136082
735.171	0.0135765
735.249	0.0134996
735.328	0.0136099
735.406	0.0135798
735.484	0.0133417
735.562	0.0134422
735.640	0.0135297
735.718	0.0134017
735.796	0.0134615
735.874	0.0134587
735.953	0.0135969
736.031	0.0135442
736.109	0.0135255
736.187	0.0134572
736.265	0.0134419
736.343	0.0134509
736.421	0.0134259
736.499	0.0135138
736.578	0.0134372
736.656	0.0135609
736.734	0.0134367
736.812	0.0134503
736.890	0.0134950
736.968	0.0134498
737.046	0.0134734
737.124	0.0135606
737.203	0.0135038
737.281	0.0135578
737.359	0.0136549
737.437	0.0135524
737.515	0.0135505
737.593	0.0136234
737.671	0.0134393
737.749	0.0136358
737.828	0.0137519
737.906	0.0137006
737.984	0.0137378
738.062	0.0136560
738.140	0.0136742
738.218	0.0137331
738.296	0.0136376
738.374	0.0136283
738.453	0.0138372
738.531	0.0137749
738.609	0.0137650
738.687	0.0137382
738.765	0.0135851
738.843	0.0136758
738.921	0.0135829
738.999	0.0136793
739.078	0.0137673
739.156	0.0138029
739.234	0.0136304
739.312	0.0136958
739.390	0.0135933
739.468	0.0136335
739.546	0.0138410
739.624	0.0137681
739.703	0.0137693
739.781	0.0136919
739.859	0.0136499
739.937	0.0136440
740.015	0.0136665
740.093	0.0137061
740.171	0.0136372
740.249	0.0138169
740.328	0.0137289
740.406	0.0136486
740.484	0.0136971
740.562	0.0136655
740.640	0.0134621
740.718	0.0136724
740.796	0.0135972
740.874	0.0136080
740.953	0.0136134
741.031	0.0136288
741.109	0.0135199
741.187	0.0135332
741.265	0.0135916
741.343	0.0137348
741.421	0.0136399
741.499	0.0135193
741.578	0.0136800
741.656	0.0136370
741.734	0.0136084
741.812	0.0135580
741.890	0.0135151
741.968	0.0136220
742.046	0.0136480
742.124	0.0135677
742.203	0.0136520
742.281	0.0135317
742.359	0.0136169
742.437	0.0136132
742.515	0.0135625
742.593	0.0135870
742.671	0.0136789
742.749	0.0135349
742.828	0.0135918
742.906	0.0138109
742.984	0.0136602
743.062	0.0136414
743.140	0.0135944
743.218	0.0136916
743.296	0.0134892
743.374	0.0135619
743.453	0.0134819
743.531	0.0134045
743.609	0.0134970
743.687	0.0134247
743.765	0.0133202
743.843	0.0133295
743.921	0.0132964
743.999	0.0132013
744.078	0.0131901
744.156	0.0133516
744.234	0.0132860
744.312	0.0132283
744.390	0.0132812
744.468	0.0133033
744.546	0.0132840
744.624	0.0133222
744.703	0.0133886
744.781	0.0134122
744.859	0.0135812
744.937	0.0134792
745.015	0.0135445
745.093	0.0137253
745.171	0.0136370
745.249	0.0136176
745.328	0.0138029
745.406	0.0136946
745.484	0.0138449
745.562	0.0138995
745.640	0.0137244
745.718	0.0137063
745.796	0.0136713
745.874	0.0136905
745.953	0.0137954
746.031	0.0136639
746.109	0.0138959
746.187	0.0136690
746.265	0.0136045
746.343	0.0136397
746.421	0.0137352
746.499	0.0136792
746.578	0.0135598
746.656	0.0133862
746.734	0.0135471
746.812	0.0135064
746.890	0.0134840
746.968	0.0136423
747.046	0.0134364
747.124	0.0133754
747.203	0.0134338
747.281	0.0134421
747.359	0.0134296
747.437	0.0134870
747.515	0.0135504
747.593	0.0134852
747.671	0.0134476
747.749	0.0135577
747.828	0.0136563
747.906	0.0136632
747.984	0.0136539
748.062	0.0136414
748.140	0.0135363
748.218	0.0136629
748.296	0.0137937
748.374	0.0136526
748.453	0.0137952
748.531	0.0137437
748.609	0.0139048
748.687	0.0138278
748.765	0.0137865
748.843	0.0139096
748.921	0.0139504
748.999	0.0140320
749.078	0.0139556
749.156	0.0140504
749.234	0.0139069
749.312	0.0139683
749.390	0.0139078
749.468	0.0138131
749.546	0.0139337
749.624	0.0140559
749.703	0.0138760
749.781	0.0138857
749.859	0.0137704
749.937	0.0137618
750.015	0.0137148
750.093	0.0137120
750.171	0.0136155
750.249	0.0137320
750.328	0.0135484
750.406	0.0136004
750.484	0.0135593
750.562	0.0134422
750.640	0.0135633
750.718	0.0135104
750.796	0.0135532
750.874	0.0135028
750.953	0.0134903
751.031	0.0135261
751.109	0.0134470
751.187	0.0134265
751.265	0.0134090
751.343	0.0134650
751.421	0.0133296
751.499	0.0134821
751.578	0.0134385
751.656	0.0133644
751.734	0.0133902
751.812	0.0134389
751.890	0.0134673
751.968	0.0134727
752.046	0.0134338
752.124	0.0134484
752.203	0.0134702
752.281	0.0135146
752.359	0.0135307
752.437	0.0134864
752.515	0.0134577
752.593	0.0136812
752.671	0.0135083
752.749	0.0136582
752.828	0.0135721
752.906	0.0135739
752.984	0.0136970
753.062	0.0135593
753.140	0.0136680
753.218	0.0136468
753.296	0.0136179
753.374	0.0137033
753.453	0.0137255
753.531	0.0136931
753.609	0.0136578
753.687	0.0136462
753.765	0.0138103
753.843	0.0136404
753.921	0.0135799
753.999	0.0137310
754.078	0.0136408
754.156	0.0135227
754.234	0.0134654
754.312	0.0136929
754.390	0.0135235
754.468	0.0133118
754.546	0.0134655
754.624	0.0135783
754.703	0.0134019
754.781	0.0134294
754.859	0.0135066
754.937	0.0132978
755.015	0.0133280
755.093	0.0133501
755.171	0.0133514
755.249	0.0133222
755.328	0.0133498
755.406	0.0134252
755.484	0.0132805
755.562	0.0132281
755.640	0.0132618
755.718	0.0131389
755.796	0.0133378
755.874	0.0135099
755.953	0.0133857
756.031	0.0132641
756.109	0.0133749
756.187	0.0134046
756.265	0.0134733
756.343	0.0135246
756.421	0.0133829
756.499	0.0134927
756.578	0.0135568
756.656	0.0135165
756.734	0.0135201
756.812	0.0134904
756.890	0.0136208
756.968	0.0135593
757.046	0.0135793
757.124	0.0135674
757.203	0.0136520
757.281	0.0135551
757.359	0.0136031
757.437	0.0136321
757.515	0.0134647
757.593	0.0135293
757.671	0.0135635
757.749	0.0135057
757.828	0.0135909
757.906	0.0134497
757.984	0.0134732
758.062	0.0135384
758.140	0.0134736
758.218	0.0134460
758.296	0.0134143
758.374	0.0135429
758.453	0.0134148
758.531	0.0133957
758.609	0.0133884
758.687	0.0133120
758.765	0.0133405
758.843	0.0132372
758.921	0.0132914
758.999	0.0132721
759.078	0.0131409
759.156	0.0132061
759.234	0.0131548
759.312	0.0132221
759.390	0.0131779
759.468	0.0131619
759.546	0.0132023
759.624	0.0132988
759.703	0.0132954
759.781	0.0132217
759.859	0.0132554
759.937	0.0134039
760.015	0.0134089
760.093	0.0131945
760.171	0.0133290
760.249	0.0133334
760.328	0.0133450
760.406	0.0134905
760.484	0.0135423
760.562	0.0133970
760.640	0.0136162
760.718	0.0136463
760.796	0.0136607
760.874	0.0136661
760.953	0.0136561
761.031	0.0135230
761.109	0.0136835
761.187	0.0137296
761.265	0.0137997
761.343	0.0138927
761.421	0.0138461
761.499	0.0136621
761.578	0.0138967
761.656	0.0138739
761.734	0.0138803
761.812	0.0138799
761.890	0.0139149
761.968	0.0137791
762.046	0.0138477
762.124	0.0138387
762.203	0.0136633
762.281	0.0138614
762.359	0.0137720
762.437	0.0137019
762.515	0.0137627
762.593	0.0137511
762.671	0.0137103
762.749	0.0137015
762.828	0.0136557
762.906	0.0136391
762.984	0.0135999
763.062	0.0135990
763.140	0.0134966
763.218	0.0135887
763.296	0.0136001
763.374	0.0134426
763.453	0.0135784
763.531	0.0134903
763.609	0.0134283
763.687	0.0134993
763.765	0.0135647
763.843	0.0134322
763.921	0.0134730
763.999	0.0135475
764.078	0.0136068
764.156	0.0135373
764.234	0.0134279
764.312	0.0135706
764.390	0.0136642
764.468	0.0136275
764.546	0.0135399
764.624	0.0135848
764.703	0.0137339
764.781	0.0134837
764.859	0.0134953
764.937	0.0135157
765.015	0.0135661
765.093	0.0135513
765.171	0.0134660
765.249	0.0134871
765.328	0.0134164
765.406	0.0135262
765.484	0.0136664
765.562	0.0136369
765.640	0.0135985
765.718	0.0137202
765.796	0.0137840
765.874	0.0138436
765.953	0.0138541
766.031	0.0137865
766.109	0.0137994
766.187	0.0138363
766.265	0.0138389
766.343	0.0139005
766.421	0.0137966
766.499	0.0138770
766.578	0.0137591
766.656	0.0137901
766.734	0.0138065
766.812	0.0137749
766.890	0.0137433
766.968	0.0137035
767.046	0.0137415
767.124	0.0136598
767.203	0.0136966
767.281	0.0136842
767.359	0.0137522
767.437	0.0136298
767.515	0.0136613
767.593	0.0135242
767.671	0.0136569
767.749	0.0135726
767.828	0.0135119
767.906	0.0136752
767.984	0.0136888
768.062	0.0135291
768.140	0.0135529
768.218	0.0136654
768.296	0.0136353
768.374	0.0136639
768.453	0.0136416
768.531	0.0137873
768.609	0.0137746
768.687	0.0136711
768.765	0.0138182
768.843	0.0138041
768.921	0.0137186
768.999	0.0137749
769.078	0.0137027
769.156	0.0137472
769.234	0.0138755
769.312	0.0137303
769.390	0.0137410
769.468	0.0136949
769.546	0.0137377
769.624	0.0137832
769.703	0.0137896
769.781	0.0137929
769.859	0.0137361
769.937	0.0137012
770.015	0.0136490
770.093	0.0136568
770.171	0.0137430
770.249	0.0137288
770.328	0.0136957
770.406	0.0136855
770.484	0.0136390
770.562	0.0136877
770.640	0.0136005
770.718	0.0133378
770.796	0.0136358
770.874	0.0136236
770.953	0.0134617
771.031	0.0133478
771.109	0.0134039
771.187	0.0134158
771.265	0.0133410
771.343	0.0133350
771.421	0.0133871
771.499	0.0131698
771.578	0.0132769
771.656	0.0132399
771.734	0.0133765
771.812	0.0134490
771.890	0.0135246
771.968	0.0134454
772.046	0.0134739
772.124	0.0135440
772.203	0.0135661
772.281	0.0135140
772.359	0.0134195
772.437	0.0135145
772.515	0.0133626
772.593	0.0133474
772.671	0.0134373
772.749	0.0134261
772.828	0.0133569
772.906	0.0135989
772.984	0.0134808
773.062	0.0136066
773.140	0.0135140
773.218	0.0135526
773.296	0.0135987
773.374	0.0136081
773.453	0.0136163
773.531	0.0135954
773.609	0.0136437
773.687	0.0136886
773.765	0.0135404
773.843	0.0135474
773.921	0.0136662
773.999	0.0135952
774.078	0.0136800
774.156	0.0135456
774.234	0.0135537
774.312	0.0136429
774.390	0.0134724
774.468	0.0135931
774.546	0.0135869
774.624	0.0134577
774.703	0.0135757
774.781	0.0135461
774.859	0.0134828
774.937	0.0136448
775.015	0.0136187
775.093	0.0134889
775.171	0.0135819
775.249	0.0135861
775.328	0.0135359
775.406	0.0134145
775.484	0.0135806
775.562	0.0136125
775.640	0.0136036
775.718	0.0133242
775.796	0.0133525
775.874	0.0133639
775.953	0.0134538
776.031	0.0134635
776.109	0.0132610
776.187	0.0134369
776.265	0.0134611
776.343	0.0134627
776.421	0.0133028
776.499	0.0134042
776.578	0.0133823
776.656	0.0133434
776.734	0.0133163
776.812	0.0132065
776.890	0.0133701
776.968	0.0132761
777.046	0.0134198
777.124	0.0132529
777.203	0.0131989
777.281	0.0132869
777.359	0.0132552
777.437	0.0133578
777.515	0.0132842
777.593	0.0132599
777.671	0.0132425
777.749	0.0133045
777.828	0.0134264
777.906	0.0134570
777.984	0.0131991
778.062	0.0133070
778.140	0.0133778
778.218	0.0135770
778.296	0.0135843
778.374	0.0135256
778.453	0.0136965
778.531	0.0136324
778.609	0.0135857
778.687	0.0135922
778.765	0.0137389
778.843	0.0137921
778.921	0.0137595
778.999	0.0137132
779.078	0.0134105
779.156	0.0136140
779.234	0.0135821
779.312	0.0134470
779.390	0.0135104
779.468	0.0135456
779.546	0.0136000
779.624	0.0135650
779.703	0.0137135
779.781	0.0135751
779.859	0.0136408
779.937	0.0136462
780.015	0.0137032
780.093	0.0137667
780.171	0.0137365
780.249	0.0135530
780.328	0.0136060
780.406	0.0134671
780.484	0.0135002
780.562	0.0135821
780.640	0.0135049
780.718	0.0135120
780.796	0.0134914
780.874	0.0133135
780.953	0.0135739
781.031	0.0136662
781.109	0.0136424
781.187	0.0137165
781.265	0.0136859
781.343	0.0137501
781.421	0.0136295
781.499	0.0137737
781.578	0.0136173
781.656	0.0136591
781.734	0.0136244
781.812	0.0134578
781.890	0.0134245
781.968	0.0135754
782.046	0.0133073
782.124	0.0135352
782.203	0.0135004
782.281	0.0134367
782.359	0.0134587
782.437	0.0135544
782.515	0.0133538
782.593	0.0134515
782.671	0.0134650
782.749	0.0135151
782.828	0.0134646
782.906	0.0135162
782.984	0.0136423
783.062	0.0136838
783.140	0.0135571
783.218	0.0135500
783.296	0.0136296
783.374	0.0134829
783.453	0.0134714
783.531	0.0134657
783.609	0.0135289
783.687	0.0134824
783.765	0.0134862
783.843	0.0133157
783.921	0.0134687
783.999	0.0132859
784.078	0.0132745
784.156	0.0133871
784.234	0.0133606
784.312	0.0132511
784.390	0.0132974
784.468	0.0134628
784.546	0.0133899
784.624	0.0133647
784.703	0.0135119
784.781	0.0135986
784.859	0.0134781
784.937	0.0135166
785.015	0.0135970
785.093	0.0137429
785.171	0.0137376
785.249	0.0136989
785.328	0.0137559
785.406	0.0138412
785.484	0.0135978
785.562	0.0134983
785.640	0.0134177
785.718	0.0134543
785.796	0.0133643
785.874	0.0133302
785.953	0.0131413
786.031	0.0132212
786.109	0.0133374
786.187	0.0133171
786.265	0.0134007
786.343	0.0136649
786.421	0.0135611
786.499	0.0137498
786.578	0.0137707
786.656	0.0137431
786.734	0.0138326
786.812	0.0139672
786.890	0.0137719
786.968	0.0137722
787.046	0.0135931
787.124	0.0137300
787.203	0.0135683
787.281	0.0135773
787.359	0.0135329
787.437	0.0134209
787.515	0.0134038
787.593	0.0133801
787.671	0.0133527
787.749	0.0133781
787.828	0.0133048
787.906	0.0133475
787.984	0.0134073
788.062	0.0135052
788.140	0.0134506
788.218	0.0137142
788.296	0.0136366
788.374	0.0136069
788.453	0.0136907
788.531	0.0137875
788.609	0.0137746
788.687	0.0136853
788.765	0.0137427
788.843	0.0136539
788.921	0.0135600
788.999	0.0134416
789.078	0.0134976
789.156	0.0134180
789.234	0.0133173
789.312	0.0132784
789.390	0.0131546
789.468	0.0130355
789.546	0.0133280
789.624	0.0132624
789.703	0.0133279
789.781	0.0135665
789.859	0.0136332
789.937	0.0136045
790.015	0.0136639
790.093	0.0137740
790.171	0.0138728
790.249	0.0139764
790.328	0.0138932
790.406	0.0136829
790.484	0.0136719
790.562	0.0136580
790.640	0.0135413
790.718	0.0134717
790.796	0.0133414
790.874	0.0134657
790.953	0.0135243
791.031	0.0134415
791.109	0.0135925
791.187	0.0136356
791.265	0.0138041
791.343	0.0136967
791.421	0.0135928
791.499	0.0138980
791.578	0.0139135
791.656	0.0138702
791.734	0.0138826
791.812	0.0136999
791.890	0.0137085
791.968	0.0136112
792.046	0.0136150
792.124	0.0134313
792.203	0.0133904
792.281	0.0134480
792.359	0.0133987
792.437	0.0133549
792.515	0.0134039
792.593	0.0134331
792.671	0.0133657
792.749	0.0134789
792.828	0.0136869
792.906	0.0136211
792.984	0.0137675
793.062	0.0137873
793.140	0.0139361
793.218	0.0138575
793.296	0.0138612
793.374	0.0138057
793.453	0.0138508
793.531	0.0137666
793.609	0.0136938
793.687	0.0136517
793.765	0.0135667
793.843	0.0135458
793.921	0.0134636
793.999	0.0134705
794.078	0.0134012
794.156	0.0134314
794.234	0.0133544
794.312	0.0134989
794.390	0.0134872
794.468	0.0135238
794.546	0.0135732
794.624	0.0137210
794.703	0.0135169
794.781	0.0136375
794.859	0.0137936
794.937	0.0136386
795.015	0.0137772
795.093	0.0136610
795.171	0.0134839
795.249	0.0135725
795.328	0.0136120
795.406	0.0136230
795.484	0.0133788
795.562	0.0134019
795.640	0.0134032
795.718	0.0131912
795.796	0.0131557
795.874	0.0131535
795.953	0.0131686
796.031	0.0132070
796.109	0.0133011
796.187	0.0135310
796.265	0.0134093
796.343	0.0135010
796.421	0.0135992
796.499	0.0136904
796.578	0.0137320
796.656	0.0138721
796.734	0.0137655
796.812	0.0137366
796.890	0.0137093
796.968	0.0135615
797.046	0.0136340
797.124	0.0136102
797.203	0.0136975
797.281	0.0133671
797.359	0.0135415
797.437	0.0136249
797.515	0.0136968
797.593	0.0136921
797.671	0.0137345
797.749	0.0138908
797.828	0.0138905
797.906	0.0138275
797.984	0.0138702
798.062	0.0138434
798.140	0.0137469
798.218	0.0137809
798.296	0.0137104
798.374	0.0136492
798.453	0.0133755
798.531	0.0135114
798.609	0.0134988
798.687	0.0135292
798.765	0.0135804
798.843	0.0134510
798.921	0.0134657
798.999	0.0136348
799.078	0.0137582
799.156	0.0136981
799.234	0.0137463
799.312	0.0137782
799.390	0.0138467
799.468	0.0137637
799.546	0.0136890
799.624	0.0136536
799.703	0.0135899
799.781	0.0135101
799.859	0.0135532
799.937	0.0133867
800.015	0.0133997
800.093	0.0135352
800.171	0.0135622
800.249	0.0133950
800.328	0.0136114
800.406	0.0136240
800.484	0.0135458
800.562	0.0135517
800.640	0.0135561
800.718	0.0135120
800.796	0.0133675
800.874	0.0132264
800.953	0.0132401
801.031	0.0133032
801.109	0.0131968
801.187	0.0131098
801.265	0.0133231
801.343	0.0132854
801.421	0.0133128
801.499	0.0134427
801.578	0.0136121
801.656	0.0137126
801.734	0.0137875
801.812	0.0136667
801.890	0.0136792
801.968	0.0137880
802.046	0.0137593
802.124	0.0137064
802.203	0.0136519
802.281	0.0135979
802.359	0.0135280
802.437	0.0136679
802.515	0.0135431
802.593	0.0136369
802.671	0.0135387
802.749	0.0137527
802.828	0.0137001
802.906	0.0136651
802.984	0.0137048
803.062	0.0137142
803.140	0.0136288
803.218	0.0135582
803.296	0.0135063
803.374	0.0137772
803.453	0.0137284
803.531	0.0135934
803.609	0.0134501
803.687	0.0134489
803.765	0.0135331
803.843	0.0134200
803.921	0.0134152
803.999	0.0133969
804.078	0.0134806
804.156	0.0133865
804.234	0.0133589
804.312	0.0135342
804.390	0.0135314
804.468	0.0133290
804.546	0.0134840
804.624	0.0135165
804.703	0.0136525
804.781	0.0136507
804.859	0.0135412
804.937	0.0135114
805.015	0.0135324
805.093	0.0135834
805.171	0.0136636
805.249	0.0135722
805.328	0.0135031
805.406	0.0135378
805.484	0.0134631
805.562	0.0138081
805.640	0.0136754
805.718	0.0134958
805.796	0.0136933
805.874	0.0136507
805.953	0.0135628
806.031	0.0136111
806.109	0.0135721
806.187	0.0133475
806.265	0.0133936
806.343	0.0132669
806.421	0.0132381
806.499	0.0129998
806.578	0.0131201
806.656	0.0129378
806.734	0.0129797
806.812	0.0130257
806.890	0.0130155
806.968	0.0130891
807.046	0.0132253
807.124	0.0132315
807.203	0.0133488
807.281	0.0133862
807.359	0.0134579
807.437	0.0135431
807.515	0.0135600
807.593	0.0136681
807.671	0.0135924
807.749	0.0137601
807.828	0.0135805
807.906	0.0136366
807.984	0.0135330
808.062	0.0134502
808.140	0.0134505
808.218	0.0135905
808.296	0.0135567
808.374	0.0134864
808.453	0.0136874
808.531	0.0137291
808.609	0.0136945
808.687	0.0138280
808.765	0.0138195
808.843	0.0137611
808.921	0.0136609
808.999	0.0136529
809.078	0.0137173
809.156	0.0137157
809.234	0.0137065
809.312	0.0135242
809.390	0.0137063
809.468	0.0136713
809.546	0.0135474
809.624	0.0135117
809.703	0.0135871
809.781	0.0136140
809.859	0.0135276
809.937	0.0136369
810.015	0.0137859
810.093	0.0136270
810.171	0.0136488
810.249	0.0136871
810.328	0.0137708
810.406	0.0138569
810.484	0.0137978
810.562	0.0137861
810.640	0.0138010
810.718	0.0137186
810.796	0.0135899
810.874	0.0135184
810.953	0.0135309
811.031	0.0135960
811.109	0.0137160
811.187	0.0135719
811.265	0.0135947
811.343	0.0136319
811.421	0.0138251
811.499	0.0137328
811.578	0.0137571
811.656	0.0137218
811.734	0.0137004
811.812	0.0136904
811.890	0.0137225
811.968	0.0135688
812.046	0.0135720
812.124	0.0136164
812.203	0.0136284
812.281	0.0137064
812.359	0.0136993
812.437	0.0137721
812.515	0.0136935
812.593	0.0136337
812.671	0.0137147
812.749	0.0137266
812.828	0.0138245
812.906	0.0137465
812.984	0.0136739
813.062	0.0137537
813.140	0.0136093
813.218	0.0137280
813.296	0.0137745
813.374	0.0134769
813.453	0.0134352
813.531	0.0134576
813.609	0.0132466
813.687	0.0133159
813.765	0.0133335
813.843	0.0131609
813.921	0.0132030
813.999	0.0132336
814.078	0.0131948
814.156	0.0132152
814.234	0.0132180
814.312	0.0133926
814.390	0.0135045
814.468	0.0134405
814.546	0.0136205
814.624	0.0134883
814.703	0.0136131
814.781	0.0137740
814.859	0.0136110
814.937	0.0135771
815.015	0.0136914
815.093	0.0136404
815.171	0.0136923
815.249	0.0136800
815.328	0.0135746
815.406	0.0135001
815.484	0.0134877
815.562	0.0135477
815.640	0.0137112
815.718	0.0136467
815.796	0.0136765
815.874	0.0135761
815.953	0.0136375
816.031	0.0136172
816.109	0.0137341
816.187	0.0137228
816.265	0.0137748
816.343	0.0138486
816.421	0.0136733
816.499	0.0136824
816.578	0.0138261
816.656	0.0136585
816.734	0.0134722
816.812	0.0134663
816.890	0.0135135
816.968	0.0134978
817.046	0.0135638
817.124	0.0134443
817.203	0.0134497
817.281	0.0134587
817.359	0.0135102
817.437	0.0133990
817.515	0.0135579
817.593	0.0134319
817.671	0.0135741
817.749	0.0136186
817.828	0.0134714
817.906	0.0136320
817.984	0.0135683
818.062	0.0136948
818.140	0.0135680
818.218	0.0134793
818.296	0.0135646
818.374	0.0135770
818.453	0.0136159
818.531	0.0136176
818.609	0.0134374
818.687	0.0135053
818.765	0.0136517
818.843	0.0135247
818.921	0.0136213
818.999	0.0135881
819.078	0.0136327
819.156	0.0136597
819.234	0.0136141
819.312	0.0137167
819.390	0.0136305
819.468	0.0136749
819.546	0.0137086
819.624	0.0135146
819.703	0.0135836
819.781	0.0135526
819.859	0.0136143
819.937	0.0133899
820.015	0.0133843
820.093	0.0135286
820.171	0.0132571
820.249	0.0132821
820.328	0.0133945
820.406	0.0132849
820.484	0.0133595
820.562	0.0133033
820.640	0.0133521
820.718	0.0133791
820.796	0.0134805
820.874	0.0133678
820.953	0.0134196
821.031	0.0135608
821.109	0.0136064
821.187	0.0134711
821.265	0.0133842
821.343	0.0135691
821.421	0.0134682
821.499	0.0134560
821.578	0.0134015
821.656	0.0134856
821.734	0.0134966
821.812	0.0135403
821.890	0.0135508
821.968	0.0134747
822.046	0.0135840
822.124	0.0134934
822.203	0.0133640
822.281	0.0136073
822.359	0.0136304
822.437	0.0135206
822.515	0.0135453
822.593	0.0135285
822.671	0.0134788
822.749	0.0135021
822.828	0.0135110
822.906	0.0135639
822.984	0.0135292
823.062	0.0135262
823.140	0.0136262
823.218	0.0136410
823.296	0.0137573
823.374	0.0136839
823.453	0.0138244
823.531	0.0136304
823.609	0.0137782
823.687	0.0138042
823.765	0.0138435
823.843	0.0138396
823.921	0.0136919
823.999	0.0138126
824.078	0.0138170
824.156	0.0137841
824.234	0.0136175
824.312	0.0135586
824.390	0.0135099
824.468	0.0135353
824.546	0.0133632
824.624	0.0133834
824.703	0.0134213
824.781	0.0135480
824.859	0.0133649
824.937	0.0133506
825.015	0.0133928
825.093	0.0133554
825.171	0.0135299
825.249	0.0134382
825.328	0.0134408
825.406	0.0134896
825.484	0.0134478
825.562	0.0135388
825.640	0.0134047
825.718	0.0134351
825.796	0.0134386
825.874	0.0134565
825.953	0.0133798
826.031	0.0134776
826.109	0.0133929
826.187	0.0133880
826.265	0.0135899
826.343	0.0136331
826.421	0.0135551
826.499	0.0136782
826.578	0.0137140
826.656	0.0137133
826.734	0.0137118
826.812	0.0139520
826.890	0.0138539
826.968	0.0139520
827.046	0.0137470
827.124	0.0137591
827.203	0.0137611
827.281	0.0137996
827.359	0.0135906
827.437	0.0136617
827.515	0.0135717
827.593	0.0135805
827.671	0.0134251
827.749	0.0135081
827.828	0.0135484
827.906	0.0134595
827.984	0.0135663
828.062	0.0135499
828.140	0.0135247
828.218	0.0135868
828.296	0.0135971
828.374	0.0134994
828.453	0.0136696
828.531	0.0136456
828.609	0.0135055
828.687	0.0137322
828.765	0.0136283
828.843	0.0136259
828.921	0.0136953
828.999	0.0136762
829.078	0.0135213
829.156	0.0135439
829.234	0.0136246
829.312	0.0135018
829.390	0.0135490
829.468	0.0136409
829.546	0.0135182
829.624	0.0134929
829.703	0.0135055
829.781	0.0136395
829.859	0.0136722
829.937	0.0135850
830.015	0.0135559
830.093	0.0137545
830.171	0.0136443
830.249	0.0135744
830.328	0.0135085
830.406	0.0136842
830.484	0.0137276
830.562	0.0136961
830.640	0.0137563
830.718	0.0137526
830.796	0.0137080
830.874	0.0138108
830.953	0.0137278
831.031	0.0137672
831.109	0.0138584
831.187	0.0137631
831.265	0.0138217
831.343	0.0138393
831.421	0.0138325
831.499	0.0136540
831.578	0.0137457
831.656	0.0138017
831.734	0.0136803
831.812	0.0137151
831.890	0.0137194
831.968	0.0137477
832.046	0.0137296
832.124	0.0136607
832.203	0.0133676
832.281	0.0135161
832.359	0.0135227
832.437	0.0136248
832.515	0.0135242
832.593	0.0135191
832.671	0.0134774
832.749	0.0134210
832.828	0.0135519
832.906	0.0134434
832.984	0.0136076
833.062	0.0136424
833.140	0.0136546
833.218	0.0135997
833.296	0.0136926
833.374	0.0136900
833.453	0.0136605
833.531	0.0136616
833.609	0.0137257
833.687	0.0137971
833.765	0.0136205
833.843	0.0135704
833.921	0.0135928
833.999	0.0135900
834.078	0.0135197
834.156	0.0136534
834.234	0.0134867
834.312	0.0134365
834.390	0.0134370
834.468	0.0134364
834.546	0.0133385
834.624	0.0133717
834.703	0.0133775
834.781	0.0134058
834.859	0.0133817
834.937	0.0132652
835.015	0.0133366
835.093	0.0134061
835.171	0.0134972
835.249	0.0135637
835.328	0.0134670
835.406	0.0134678
835.484	0.0135707
835.562	0.0137095
835.640	0.0136781
835.718	0.0136828
835.796	0.0137851
835.874	0.0138742
835.953	0.0136074
836.031	0.0137342
836.109	0.0137174
836.187	0.0137497
836.265	0.0136205
836.343	0.0137861
836.421	0.0138734
836.499	0.0137525
836.578	0.0134779
836.656	0.0136092
836.734	0.0136600
836.812	0.0137255
836.890	0.0135634
836.968	0.0136224
837.046	0.0136610
837.124	0.0135244
837.203	0.0136437
837.281	0.0135493
837.359	0.0135294
837.437	0.0135040
837.515	0.0134708
837.593	0.0135552
837.671	0.0135175
837.749	0.0134084
837.828	0.0133521
837.906	0.0133504
837.984	0.0134122
838.062	0.0134827
838.140	0.0134624
838.218	0.0134535
838.296	0.0134520
838.374	0.0134238
838.453	0.0134040
838.531	0.0135213
838.609	0.0137229
838.687	0.0136250
838.765	0.0136804
838.843	0.0136156
838.921	0.0136143
838.999	0.0135674
839.078	0.0136578
839.156	0.0134352
839.234	0.0135015
839.312	0.0135007
839.390	0.0134295
839.468	0.0135209
839.546	0.0134625
839.624	0.0133861
839.703	0.0132396
839.781	0.0135761
839.859	0.0134743
839.937	0.0135468
840.015	0.0135362
840.093	0.0136642
840.171	0.0136266
840.249	0.0134015
840.328	0.0136162
840.406	0.0137376
840.484	0.0136321
840.562	0.0135734
840.640	0.0136026
840.718	0.0135794
840.796	0.0136720
840.874	0.0136111
840.953	0.0135110
841.031	0.0136163
841.109	0.0135653
841.187	0.0134325
841.265	0.0136150
841.343	0.0135500
841.421	0.0135760
841.499	0.0136036
841.578	0.0134636
841.656	0.0133080
841.734	0.0135954
841.812	0.0135941
841.890	0.0136445
841.968	0.0134343
842.046	0.0135471
842.124	0.0135016
842.203	0.0135936
842.281	0.0136689
842.359	0.0137061
842.437	0.0136449
842.515	0.0136224
842.593	0.0136765
842.671	0.0136446
842.749	0.0137274
842.828	0.0135922
842.906	0.0135630
842.984	0.0135558
843.062	0.0136129
843.140	0.0135011
843.218	0.0134241
843.296	0.0134651
843.374	0.0135731
843.453	0.0135490
843.531	0.0135995
843.609	0.0135876
843.687	0.0136182
843.765	0.0135851
843.843	0.0135352
843.921	0.0136938
843.999	0.0135239
844.078	0.0135812
844.156	0.0135113
844.234	0.0135619
844.312	0.0135112
844.390	0.0135516
844.468	0.0135686
844.546	0.0135578
844.624	0.0134226
844.703	0.0136252
844.781	0.0135180
844.859	0.0134273
844.937	0.0135277
845.015	0.0135433
845.093	0.0134510
845.171	0.0135755
845.249	0.0136007
845.328	0.0135675
845.406	0.0135203
845.484	0.0135754
845.562	0.0134102
845.640	0.0135456
845.718	0.0135294
845.796	0.0135379
845.874	0.0134988
845.953	0.0135720
846.031	0.0135061
846.109	0.0134935
846.187	0.0134010
846.265	0.0134154
846.343	0.0133401
846.421	0.0135741
846.499	0.0136201
846.578	0.0134506
846.656	0.0133431
846.734	0.0134779
846.812	0.0135555
846.890	0.0135461
846.968	0.0133936
847.046	0.0134327
847.124	0.0136197
847.203	0.0137819
847.281	0.0137336
847.359	0.0136513
847.437	0.0138552
847.515	0.0138934
847.593	0.0137637
847.671	0.0139475
847.749	0.0137195
847.828	0.0137564
847.906	0.0137988
847.984	0.0137460
848.062	0.0137334
848.140	0.0138613
848.218	0.0136391
848.296	0.0136510
848.374	0.0135593
848.453	0.0135793
848.531	0.0135143
848.609	0.0134641
848.687	0.0137186
848.765	0.0137380
848.843	0.0135751
848.921	0.0136046
848.999	0.0134557
849.078	0.0135421
849.156	0.0138496
849.234	0.0135126
849.312	0.0135543
849.390	0.0136079
849.468	0.0134563
849.546	0.0136085
849.624	0.0134708
849.703	0.0135701
849.781	0.0135760
849.859	0.0135433
849.937	0.0134361
850.015	0.0135047
850.093	0.0134444
850.171	0.0134894
850.249	0.0133716
850.328	0.0133010
850.406	0.0133084
850.484	0.0133786
850.562	0.0133591
850.640	0.0133356
850.718	0.0134741
850.796	0.0133601
850.874	0.0134993
850.953	0.0135030
851.031	0.0134740
851.109	0.0135241
851.187	0.0135635
851.265	0.0136353
851.343	0.0136783
851.421	0.0136492
851.499	0.0136577
851.578	0.0136166
851.656	0.0137634
851.734	0.0138612
851.812	0.0136246
851.890	0.0136498
851.968	0.0137389
852.046	0.0137157
852.124	0.0138190
852.203	0.0138155
852.281	0.0137047
852.359	0.0137696
852.437	0.0138391
852.515	0.0137668
852.593	0.0138779
852.671	0.0138976
852.749	0.0137684
852.828	0.0138010
852.906	0.0138303
852.984	0.0137575
853.062	0.0136700
853.140	0.0137717
853.218	0.0136914
853.296	0.0137964
853.374	0.0137444
853.453	0.0136748
853.531	0.0135954
853.609	0.0136454
853.687	0.0135311
853.765	0.0135709
853.843	0.0135256
853.921	0.0134299
853.999	0.0135138
854.078	0.0136555
854.156	0.0135306
854.234	0.0135258
854.312	0.0134946
854.390	0.0134644
854.468	0.0134955
854.546	0.0135027
854.624	0.0135664
854.703	0.0135217
854.781	0.0135761
854.859	0.0135703
854.937	0.0134699
855.015	0.0134248
855.093	0.0135175
855.171	0.0133750
855.249	0.0135596
855.328	0.0134654
855.406	0.0135338
855.484	0.0135558
855.562	0.0135004
855.640	0.0135550
855.718	0.0135568
855.796	0.0135716
855.874	0.0134788
855.953	0.0136433
856.031	0.0136192
856.109	0.0136857
856.187	0.0136864
856.265	0.0136534
856.343	0.0137247
856.421	0.0135922
856.499	0.0135876
856.578	0.0135763
856.656	0.0135326
856.734	0.0135935
856.812	0.0136185
856.890	0.0136070
856.968	0.0136227
857.046	0.0136582
857.124	0.0135281
857.203	0.0136604
857.281	0.0135552
857.359	0.0134869
857.437	0.0135761
857.515	0.0134773
857.593	0.0134907
857.671	0.0134363
857.749	0.0134751
857.828	0.0134673
857.906	0.0135451
857.984	0.0134804
858.062	0.0133717
858.140	0.0134929
858.218	0.0133699
858.296	0.0134489
858.374	0.0134698
858.453	0.0133375
858.531	0.0134332
858.609	0.0135561
858.687	0.0135717
858.765	0.0134003
858.843	0.0136198
858.921	0.0136245
858.999	0.0136053
859.078	0.0133974
859.156	0.0136324
859.234	0.0137545
859.312	0.0136642
859.390	0.0135387
859.468	0.0136074
859.546	0.0136489
859.624	0.0136300
859.703	0.0136434
859.781	0.0136246
859.859	0.0135985
859.937	0.0137094
860.015	0.0134981
860.093	0.0136064
860.171	0.0135725
860.249	0.0136811
860.328	0.0136086
860.406	0.0136807
860.484	0.0137225
860.562	0.0137565
860.640	0.0137098
860.718	0.0136969
860.796	0.0138670
860.874	0.0136026
860.953	0.0137203
861.031	0.0137352
861.109	0.0136420
861.187	0.0136910
861.265	0.0137471
861.343	0.0135420
861.421	0.0135682
861.499	0.0135245
861.578	0.0133981
861.656	0.0134272
861.734	0.0135328
861.812	0.0135741
861.890	0.0134475
861.968	0.0133601
862.046	0.0134560
862.124	0.0134341
862.203	0.0134473
862.281	0.0133395
862.359	0.0133482
862.437	0.0135150
862.515	0.0133671
862.593	0.0134322
862.671	0.0133942
862.749	0.0134183
862.828	0.0133788
862.906	0.0134859
862.984	0.0135302
863.062	0.0135641
863.140	0.0135437
863.218	0.0134547
863.296	0.0136121
863.374	0.0135759
863.453	0.0135155
863.531	0.0134792
863.609	0.0135246
863.687	0.0135517
863.765	0.0136966
863.843	0.0136459
863.921	0.0136696
863.999	0.0135795
864.078	0.0135919
864.156	0.0136044
864.234	0.0137833
864.312	0.0137825
864.390	0.0137145
864.468	0.0137730
864.546	0.0138517
864.624	0.0137906
864.703	0.0137711
864.781	0.0137965
864.859	0.0135941
864.937	0.0135450
865.015	0.0137646
865.093	0.0137885
865.171	0.0136491
865.249	0.0136359
865.328	0.0136150
865.406	0.0135323
865.484	0.0135534
865.562	0.0134230
865.640	0.0134557
865.718	0.0134500
865.796	0.0136589
865.874	0.0135432
865.953	0.0135278
866.031	0.0134777
866.109	0.0134966
866.187	0.0134737
866.265	0.0137038
866.343	0.0135382
866.421	0.0134534
866.499	0.0135636
866.578	0.0136131
866.656	0.0135370
866.734	0.0135419
866.812	0.0135005
866.890	0.0135183
866.968	0.0135671
867.046	0.0134540
867.124	0.0135033
867.203	0.0136060
867.281	0.0136864
867.359	0.0135747
867.437	0.0136564
867.515	0.0136602
867.593	0.0136140
867.671	0.0137650
867.749	0.0136368
867.828	0.0137019
867.906	0.0137241
867.984	0.0136325
868.062	0.0137399
868.140	0.0137144
868.218	0.0137545
868.296	0.0136945
868.374	0.0135291
868.453	0.0135206
868.531	0.0137306
868.609	0.0136795
868.687	0.0134203
868.765	0.0136415
868.843	0.0134922
868.921	0.0136059
868.999	0.0134992
869.078	0.0135722
869.156	0.0137264
869.234	0.0135662
869.312	0.0135454
869.390	0.0135198
869.468	0.0135053
869.546	0.0134479
869.624	0.0135234
869.703	0.0135979
869.781	0.0135312
869.859	0.0135310
869.937	0.0135221
870.015	0.0135096
870.093	0.0135678
870.171	0.0135083
870.249	0.0134292
870.328	0.0136038
870.406	0.0136483
870.484	0.0136353
870.562	0.0135932
870.640	0.0135041
870.718	0.0135927
870.796	0.0134922
870.874	0.0135776
870.953	0.0133688
871.031	0.0136867
871.109	0.0136554
871.187	0.0134458
871.265	0.0133922
871.343	0.0135582
871.421	0.0133382
871.499	0.0134124
871.578	0.0136098
871.656	0.0135021
871.734	0.0134689
871.812	0.0134783
871.890	0.0134924
871.968	0.0134269
872.046	0.0134782
872.124	0.0134097
872.203	0.0133926
872.281	0.0134793
872.359	0.0135410
872.437	0.0134293
872.515	0.0135112
872.593	0.0134937
872.671	0.0135504
872.749	0.0135331
872.828	0.0134845
872.906	0.0134274
872.984	0.0135318
873.062	0.0135312
873.140	0.0134563
873.218	0.0135307
873.296	0.0135971
873.374	0.0133406
873.453	0.0134982
873.531	0.0134377
873.609	0.0135219
873.687	0.0135788
873.765	0.0135875
873.843	0.0135595
873.921	0.0134689
873.999	0.0134355
874.078	0.0135332
874.156	0.0135773
874.234	0.0135327
874.312	0.0135247
874.390	0.0135907
874.468	0.0134861
874.546	0.0133253
874.624	0.0134889
874.703	0.0134115
874.781	0.0134219
874.859	0.0135654
874.937	0.0136404
875.015	0.0134431
875.093	0.0135735
875.171	0.0136700
875.249	0.0135471
875.328	0.0135096
875.406	0.0135084
875.484	0.0135974
875.562	0.0135824
875.640	0.0135516
875.718	0.0136164
875.796	0.0135180
875.874	0.0137206
875.953	0.0136597
876.031	0.0135025
876.109	0.0136236
876.187	0.0136446
876.265	0.0136193
876.343	0.0135812
876.421	0.0135963
876.499	0.0136177
876.578	0.0135423
876.656	0.0135491
876.734	0.0135896
876.812	0.0134827
876.890	0.0135728
876.968	0.0136284
877.046	0.0135760
877.124	0.0133847
877.203	0.0134632
877.281	0.0134611
877.359	0.0134964
877.437	0.0134395
877.515	0.0134885
877.593	0.0135359
877.671	0.0134697
877.749	0.0133960
877.828	0.0133636
877.906	0.0133708
877.984	0.0135246
878.062	0.0134333
878.140	0.0133887
878.218	0.0134188
878.296	0.0135380
878.374	0.0135451
878.453	0.0135117
878.531	0.0135483
878.609	0.0134273
878.687	0.0135671
878.765	0.0135589
878.843	0.0135966
878.921	0.0134412
878.999	0.0135054
879.078	0.0135516
879.156	0.0134914
879.234	0.0135737
879.312	0.0134076
879.390	0.0135716
879.468	0.0136458
879.546	0.0135645
879.624	0.0135508
879.703	0.0135838
879.781	0.0136368
879.859	0.0135772
879.937	0.0135604
880.015	0.0135923
880.093	0.0136492
880.171	0.0137058
880.249	0.0136959
880.328	0.0136295
880.406	0.0135757
880.484	0.0136516
880.562	0.0137599
880.640	0.0136443
880.718	0.0136400
880.796	0.0136275
880.874	0.0135255
880.953	0.0136615
881.031	0.0136276
881.109	0.0136472
881.187	0.0136250
881.265	0.0135115
881.343	0.0135719
881.421	0.0136131
881.499	0.0135186
881.578	0.0136385
881.656	0.0135332
881.734	0.0134249
881.812	0.0134792
881.890	0.0134769
881.968	0.0134158
882.046	0.0134909
882.124	0.0133842
882.203	0.0135215
882.281	0.0136484
882.359	0.0135027
882.437	0.0135439
882.515	0.0135117
882.593	0.0134510
882.671	0.0134866
882.749	0.0135717
882.828	0.0134821
882.906	0.0133522
882.984	0.0134395
883.062	0.0133789
883.140	0.0134524
883.218	0.0135242
883.296	0.0134409
883.374	0.0135542
883.453	0.0135316
883.531	0.0133469
883.609	0.0134822
883.687	0.0134867
883.765	0.0134333
883.843	0.0135313
883.921	0.0135033
883.999	0.0136629
884.078	0.0135926
884.156	0.0136318
884.234	0.0135847
884.312	0.0136766
884.390	0.0136564
884.468	0.0136087
884.546	0.0136982
884.624	0.0138032
884.703	0.0138260
884.781	0.0136710
884.859	0.0136089
884.937	0.0135223
885.015	0.0135818
885.093	0.0136565
885.171	0.0137354
885.249	0.0138194
885.328	0.0138007
885.406	0.0137083
885.484	0.0136765
885.562	0.0137305
885.640	0.0137927
885.718	0.0137458
885.796	0.0136454
885.874	0.0137127
885.953	0.0137622
886.031	0.0136019
886.109	0.0136131
886.187	0.0136581
886.265	0.0136267
886.343	0.0135233
886.421	0.0136175
886.499	0.0134818
886.578	0.0136430
886.656	0.0135120
886.734	0.0135916
886.812	0.0135336
886.890	0.0135177
886.968	0.0136631
887.046	0.0134787
887.124	0.0133939
887.203	0.0133919
887.281	0.0133826
887.359	0.0133438
887.437	0.0134141
887.515	0.0134466
887.593	0.0133629
887.671	0.0134103
887.749	0.0135378
887.828	0.0135480
887.906	0.0132974
887.984	0.0133295
888.062	0.0133399
888.140	0.0134624
888.218	0.0134608
888.296	0.0133350
888.374	0.0133540
888.453	0.0134730
888.531	0.0134711
888.609	0.0135023
888.687	0.0134782
888.765	0.0134736
888.843	0.0133924
888.921	0.0135407
888.999	0.0135105
889.078	0.0135926
889.156	0.0136507
889.234	0.0134779
889.312	0.0136025
889.390	0.0135639
889.468	0.0135551
889.546	0.0136697
889.624	0.0135709
889.703	0.0135225
889.781	0.0136497
889.859	0.0136858
889.937	0.0135703
890.015	0.0135994
890.093	0.0137923
890.171	0.0137112
890.249	0.0134799
890.328	0.0136597
890.406	0.0136535
890.484	0.0137231
890.562	0.0136385
890.640	0.0137764
890.718	0.0136503
890.796	0.0135420
890.874	0.0136680
890.953	0.0137169
891.031	0.0136474
891.109	0.0137356
891.187	0.0136764
891.265	0.0136977
891.343	0.0136551
891.421	0.0137073
891.499	0.0135429
891.578	0.0136494
891.656	0.0137298
891.734	0.0138123
891.812	0.0137012
891.890	0.0137254
891.968	0.0137430
892.046	0.0136201
892.124	0.0137314
892.203	0.0138461
892.281	0.0137687
892.359	0.0138356
892.437	0.0137477
892.515	0.0137934
892.593	0.0137884
892.671	0.0137171
892.749	0.0137112
892.828	0.0136506
892.906	0.0136687
892.984	0.0137248
893.062	0.0137963
893.140	0.0136924
893.218	0.0136778
893.296	0.0137499
893.374	0.0136159
893.453	0.0136372
893.531	0.0136060
893.609	0.0137615
893.687	0.0135861
893.765	0.0135919
893.843	0.0137147
893.921	0.0137216
893.999	0.0137280
894.078	0.0135692
894.156	0.0136140
894.234	0.0136103
894.312	0.0135493
894.390	0.0135593
894.468	0.0136733
894.546	0.0135934
894.624	0.0134941
894.703	0.0135342
894.781	0.0135543
894.859	0.0134875
894.937	0.0135483
895.015	0.0134531
895.093	0.0134915
895.171	0.0135091
895.249	0.0134848
895.328	0.0134255
895.406	0.0136414
895.484	0.0135360
895.562	0.0135987
895.640	0.0135535
895.718	0.0135719
895.796	0.0135634
895.874	0.0134896
895.953	0.0135472
896.031	0.0135635
896.109	0.0136172
896.187	0.0135607
896.265	0.0135591
896.343	0.0135655
896.421	0.0134686
896.499	0.0136150
896.578	0.0136281
896.656	0.0135285
896.734	0.0135871
896.812	0.0136207
896.890	0.0136786
896.968	0.0135278
897.046	0.0136618
897.124	0.0136762
897.203	0.0135999
897.281	0.0136674
897.359	0.0136131
897.437	0.0135156
897.515	0.0136073
897.593	0.0135321
897.671	0.0134374
897.749	0.0137075
897.828	0.0134743
897.906	0.0134592
897.984	0.0135671
898.062	0.0134646
898.140	0.0133663
898.218	0.0134937
898.296	0.0132687
898.374	0.0134188
898.453	0.0134686
898.531	0.0133850
898.609	0.0134353
898.687	0.0135182
898.765	0.0133877
898.843	0.0133440
898.921	0.0133611
898.999	0.0134914
899.078	0.0135231
899.156	0.0133640
899.234	0.0132777
899.312	0.0136121
899.390	0.0134585
899.468	0.0134751
899.546	0.0135219
899.624	0.0135315
899.703	0.0135619
899.781	0.0134971
899.859	0.0134977
899.937	0.0135612
900.015	0.0135167
900.093	0.0136172
900.171	0.0135931
900.249	0.0136565
900.328	0.0135911
900.406	0.0135471
900.484	0.0136243
900.562	0.0135463
900.640	0.0136672
900.718	0.0136585
900.796	0.0135181
900.874	0.0134052
900.953	0.0136391
901.031	0.0137591
901.109	0.0135788
901.187	0.0135427
901.265	0.0134327
901.343	0.0135005
901.421	0.0136160
901.499	0.0135725
901.578	0.0136691
901.656	0.0136031
901.734	0.0134464
901.812	0.0135284
901.890	0.0134684
901.968	0.0134333
902.046	0.0135060
902.124	0.0134299
902.203	0.0135156
902.281	0.0136381
902.359	0.0135101
902.437	0.0134647
902.515	0.0134155
902.593	0.0134946
902.671	0.0133344
902.749	0.0135112
902.828	0.0135979
902.906	0.0133624
902.984	0.0133533
903.062	0.0134500
903.140	0.0135553
903.218	0.0135585
903.296	0.0134506
903.374	0.0134045
903.453	0.0134579
903.531	0.0134338
903.609	0.0134115
903.687	0.0134810
903.765	0.0135742
903.843	0.0135327
903.921	0.0134480
903.999	0.0134272
904.078	0.0133089
904.156	0.0134683
904.234	0.0134324
904.312	0.0135490
904.390	0.0135902
904.468	0.0135525
904.546	0.0136724
904.624	0.0135310
904.703	0.0135306
904.781	0.0134878
904.859	0.0135383
904.937	0.0134892
905.015	0.0135162
905.093	0.0134711
905.171	0.0134904
905.249	0.0135263
905.328	0.0135165
905.406	0.0137083
905.484	0.0135291
905.562	0.0134257
905.640	0.0134680
905.718	0.0135748
905.796	0.0134814
905.874	0.0135734
905.953	0.0136768
906.031	0.0135627
906.109	0.0136486
906.187	0.0136584
906.265	0.0136406
906.343	0.0135327
906.421	0.0135066
906.499	0.0136553
906.578	0.0135944
906.656	0.0136521
906.734	0.0134840
906.812	0.0135617
906.890	0.0137666
906.968	0.0135941
907.046	0.0136134
907.124	0.0135683
907.203	0.0135342
907.281	0.0135051
907.359	0.0135026
907.437	0.0136218
907.515	0.0137167
907.593	0.0136216
907.671	0.0135349
907.749	0.0135500
907.828	0.0135998
907.906	0.0136829
907.984	0.0136604
908.062	0.0136883
908.140	0.0136666
908.218	0.0136646
908.296	0.0135845
908.374	0.0136559
908.453	0.0138482
908.531	0.0136829
908.609	0.0136464
908.687	0.0137036
908.765	0.0137667
908.843	0.0136411
908.921	0.0138087
908.999	0.0135254
909.078	0.0136144
909.156	0.0136581
909.234	0.0137079
909.312	0.0137029
909.390	0.0135709
909.468	0.0136186
909.546	0.0136304
909.624	0.0136058
909.703	0.0136395
909.781	0.0135464
909.859	0.0136605
909.937	0.0135159
910.015	0.0136230
910.093	0.0136997
910.171	0.0135989
910.249	0.0135021
910.328	0.0136159
910.406	0.0135372
910.484	0.0136484
910.562	0.0135825
910.640	0.0137089
910.718	0.0135247
910.796	0.0135571
910.874	0.0135688
910.953	0.0136946
911.031	0.0136464
911.109	0.0135365
911.187	0.0136584
911.265	0.0136310
911.343	0.0135863
911.421	0.0136440
911.499	0.0135466
911.578	0.0135595
911.656	0.0135852
911.734	0.0136903
911.812	0.0136456
911.890	0.0135113
911.968	0.0136511
912.046	0.0137172
912.124	0.0135538
912.203	0.0136914
912.281	0.0137130
912.359	0.0137288
912.437	0.0136706
912.515	0.0136088
912.593	0.0135210
912.671	0.0134979
912.749	0.0134869
912.828	0.0137144
912.906	0.0135903
912.984	0.0135305
913.062	0.0136080
913.140	0.0135789
913.218	0.0135149
913.296	0.0134881
913.374	0.0135514
913.453	0.0135532
913.531	0.0134443
913.609	0.0135149
913.687	0.0135435
913.765	0.0134451
913.843	0.0135304
913.921	0.0136005
913.999	0.0133580
914.078	0.0134387
914.156	0.0135137
914.234	0.0134377
914.312	0.0134396
914.390	0.0134705
914.468	0.0135701
914.546	0.0136130
914.624	0.0135352
914.703	0.0135491
914.781	0.0134745
914.859	0.0136008
914.937	0.0135920
915.015	0.0136973
915.093	0.0135813
915.171	0.0136111
915.249	0.0136643
915.328	0.0136816
915.406	0.0136276
915.484	0.0136323
915.562	0.0137257
915.640	0.0136315
915.718	0.0138091
915.796	0.0138250
915.874	0.0138366
915.953	0.0136292
916.031	0.0136564
916.109	0.0137360
916.187	0.0137395
916.265	0.0137446
916.343	0.0136787
916.421	0.0136030
916.499	0.0135764
916.578	0.0136987
916.656	0.0136945
916.734	0.0137050
916.812	0.0135953
916.890	0.0136613
916.968	0.0135971
917.046	0.0135857
917.124	0.0135905
917.203	0.0136386
917.281	0.0135412
917.359	0.0135208
917.437	0.0135217
917.515	0.0135099
917.593	0.0134612
917.671	0.0133495
917.749	0.0133035
917.828	0.0134036
917.906	0.0134407
917.984	0.0133650
918.062	0.0134032
918.140	0.0133457
918.218	0.0133009
918.296	0.0134559
918.374	0.0134112
918.453	0.0134376
918.531	0.0134588
918.609	0.0136365
918.687	0.0133035
918.765	0.0134331
918.843	0.0134704
918.921	0.0134614
918.999	0.0134691
919.078	0.0135121
919.156	0.0135337
919.234	0.0135564
919.312	0.0134505
919.390	0.0135136
919.468	0.0135227
919.546	0.0135197
919.624	0.0134467
919.703	0.0133793
919.781	0.0135606
919.859	0.0135117
919.937	0.0133624
