05/08/2022	20:27:07	Ver.	4.1	UNKNOWN
Optical Delay	600.015094	Delta X		0.078125	Sweeps	1	Scan Rate	0/0
Coordinates	Axis 1	NaN	Axis 2	NaN	Axis 3	NaN	Axis 4	NaN	Axis 5	NaN	Axis 6	0.000000
TX Power	0.000000	RX Power	0.000000

600.015	0.0138323
600.093	0.0139270
600.171	0.0139787
600.249	0.0140012
600.328	0.0139948
600.406	0.0138363
600.484	0.0139402
600.562	0.0139705
600.640	0.0139572
600.718	0.0138593
600.796	0.0139699
600.874	0.0140717
600.953	0.0139028
601.031	0.0139693
601.109	0.0140500
601.187	0.0139964
601.265	0.0138898
601.343	0.0139622
601.421	0.0139236
601.499	0.0140878
601.578	0.0139978
601.656	0.0138433
601.734	0.0139509
601.812	0.0140646
601.890	0.0138982
601.968	0.0138783
602.046	0.0138831
602.124	0.0139201
602.203	0.0140004
602.281	0.0138297
602.359	0.0138999
602.437	0.0139751
602.515	0.0140133
602.593	0.0139729
602.671	0.0139020
602.749	0.0139925
602.828	0.0141866
602.906	0.0140554
602.984	0.0138863
603.062	0.0139008
603.140	0.0141296
603.218	0.0140640
603.296	0.0140128
603.374	0.0140218
603.453	0.0140004
603.531	0.0140067
603.609	0.0141685
603.687	0.0140091
603.765	0.0139195
603.843	0.0140826
603.921	0.0141324
603.999	0.0139775
604.078	0.0140719
604.156	0.0139689
604.234	0.0139024
604.312	0.0141304
604.390	0.0141387
604.468	0.0140579
604.546	0.0140762
604.624	0.0140034
604.703	0.0140275
604.781	0.0140637
604.859	0.0140128
604.937	0.0140316
605.015	0.0141402
605.093	0.0140562
605.171	0.0139827
605.249	0.0140221
605.328	0.0140722
605.406	0.0140131
605.484	0.0141177
605.562	0.0141253
605.640	0.0141707
605.718	0.0141037
605.796	0.0140926
605.874	0.0140781
605.953	0.0141047
606.031	0.0141205
606.109	0.0140354
606.187	0.0141178
606.265	0.0141402
606.343	0.0140686
606.421	0.0140405
606.499	0.0139819
606.578	0.0140877
606.656	0.0141453
606.734	0.0139850
606.812	0.0141499
606.890	0.0142471
606.968	0.0139989
607.046	0.0140305
607.124	0.0141398
607.203	0.0140585
607.281	0.0141116
607.359	0.0140804
607.437	0.0140436
607.515	0.0139405
607.593	0.0140162
607.671	0.0139746
607.749	0.0140373
607.828	0.0138538
607.906	0.0138808
607.984	0.0139094
608.062	0.0139758
608.140	0.0138905
608.218	0.0139342
608.296	0.0139667
608.374	0.0140837
608.453	0.0139961
608.531	0.0138807
608.609	0.0139245
608.687	0.0139641
608.765	0.0139922
608.843	0.0138680
608.921	0.0139528
608.999	0.0139780
609.078	0.0139169
609.156	0.0138507
609.234	0.0139668
609.312	0.0138371
609.390	0.0139144
609.468	0.0138827
609.546	0.0139412
609.624	0.0139902
609.703	0.0141249
609.781	0.0141260
609.859	0.0140213
609.937	0.0141113
610.015	0.0139629
610.093	0.0138958
610.171	0.0140598
610.249	0.0140904
610.328	0.0139559
610.406	0.0139996
610.484	0.0139576
610.562	0.0140034
610.640	0.0141087
610.718	0.0139707
610.796	0.0139532
610.874	0.0139754
610.953	0.0139922
611.031	0.0140051
611.109	0.0139645
611.187	0.0139684
611.265	0.0139231
611.343	0.0140058
611.421	0.0139675
611.499	0.0140076
611.578	0.0139090
611.656	0.0138498
611.734	0.0140168
611.812	0.0139142
611.890	0.0139230
611.968	0.0137970
612.046	0.0138448
612.124	0.0137513
612.203	0.0138480
612.281	0.0139879
612.359	0.0139536
612.437	0.0138596
612.515	0.0138648
612.593	0.0138844
612.671	0.0138660
612.749	0.0138985
612.828	0.0138453
612.906	0.0137496
612.984	0.0137955
613.062	0.0137159
613.140	0.0137737
613.218	0.0138757
613.296	0.0138686
613.374	0.0138168
613.453	0.0137259
613.531	0.0136474
613.609	0.0137439
613.687	0.0139207
613.765	0.0138365
613.843	0.0138617
613.921	0.0138020
613.999	0.0139296
614.078	0.0138439
614.156	0.0137666
614.234	0.0138813
614.312	0.0138065
614.390	0.0137079
614.468	0.0138557
614.546	0.0138147
614.624	0.0137431
614.703	0.0138287
614.781	0.0138726
614.859	0.0139317
614.937	0.0138046
615.015	0.0137622
615.093	0.0137440
615.171	0.0137741
615.249	0.0138982
615.328	0.0137576
615.406	0.0137951
615.484	0.0138198
615.562	0.0137393
615.640	0.0137537
615.718	0.0138461
615.796	0.0138152
615.874	0.0137009
615.953	0.0138210
616.031	0.0138689
616.109	0.0137655
616.187	0.0137487
616.265	0.0139363
616.343	0.0137315
616.421	0.0138033
616.499	0.0139484
616.578	0.0138576
616.656	0.0138661
616.734	0.0137310
616.812	0.0138417
616.890	0.0137981
616.968	0.0138036
617.046	0.0140228
617.124	0.0138779
617.203	0.0137959
617.281	0.0137078
617.359	0.0137829
617.437	0.0139384
617.515	0.0137312
617.593	0.0137159
617.671	0.0137830
617.749	0.0137715
617.828	0.0138310
617.906	0.0138287
617.984	0.0138460
618.062	0.0139132
618.140	0.0137112
618.218	0.0138271
618.296	0.0138581
618.374	0.0137973
618.453	0.0138402
618.531	0.0137203
618.609	0.0136847
618.687	0.0139689
618.765	0.0139110
618.843	0.0138773
618.921	0.0138408
618.999	0.0137994
619.078	0.0138979
619.156	0.0139584
619.234	0.0139256
619.312	0.0139387
619.390	0.0139371
619.468	0.0138235
619.546	0.0138701
619.624	0.0138570
619.703	0.0139059
619.781	0.0139336
619.859	0.0137148
619.937	0.0138823
620.015	0.0139576
620.093	0.0139841
620.171	0.0137891
620.249	0.0137412
620.328	0.0139335
620.406	0.0137808
620.484	0.0139214
620.562	0.0139508
620.640	0.0138869
620.718	0.0141200
620.796	0.0139717
620.874	0.0139022
620.953	0.0138779
621.031	0.0140191
621.109	0.0140024
621.187	0.0138450
621.265	0.0140575
621.343	0.0139807
621.421	0.0138278
621.499	0.0139900
621.578	0.0140234
621.656	0.0139671
621.734	0.0138913
621.812	0.0139262
621.890	0.0140176
621.968	0.0139113
622.046	0.0139623
622.124	0.0138654
622.203	0.0140994
622.281	0.0138831
622.359	0.0139607
622.437	0.0139822
622.515	0.0140598
622.593	0.0139816
622.671	0.0138624
622.749	0.0140863
622.828	0.0140697
622.906	0.0139710
622.984	0.0140234
623.062	0.0138396
623.140	0.0139504
623.218	0.0140868
623.296	0.0140861
623.374	0.0140565
623.453	0.0139450
623.531	0.0140480
623.609	0.0139511
623.687	0.0139936
623.765	0.0139597
623.843	0.0139055
623.921	0.0139118
623.999	0.0140612
624.078	0.0140114
624.156	0.0139722
624.234	0.0140284
624.312	0.0138018
624.390	0.0140301
624.468	0.0139359
624.546	0.0140447
624.624	0.0139636
624.703	0.0141064
624.781	0.0139341
624.859	0.0139104
624.937	0.0140974
625.015	0.0139449
625.093	0.0138355
625.171	0.0140394
625.249	0.0140202
625.328	0.0139572
625.406	0.0139584
625.484	0.0141151
625.562	0.0139419
625.640	0.0139741
625.718	0.0139774
625.796	0.0139802
625.874	0.0140118
625.953	0.0139700
626.031	0.0141856
626.109	0.0140508
626.187	0.0138979
626.265	0.0139921
626.343	0.0140605
626.421	0.0140355
626.499	0.0139879
626.578	0.0140044
626.656	0.0141944
626.734	0.0140094
626.812	0.0140060
626.890	0.0141278
626.968	0.0140591
627.046	0.0139099
627.124	0.0139318
627.203	0.0139815
627.281	0.0139986
627.359	0.0139561
627.437	0.0139989
627.515	0.0139541
627.593	0.0139202
627.671	0.0138628
627.749	0.0139503
627.828	0.0139161
627.906	0.0139204
627.984	0.0141044
628.062	0.0140222
628.140	0.0141216
628.218	0.0141033
628.296	0.0140141
628.374	0.0139919
628.453	0.0138513
628.531	0.0141235
628.609	0.0140103
628.687	0.0139172
628.765	0.0141528
628.843	0.0140297
628.921	0.0140047
628.999	0.0139723
629.078	0.0140296
629.156	0.0140376
629.234	0.0139662
629.312	0.0140169
629.390	0.0139608
629.468	0.0139980
629.546	0.0139027
629.624	0.0138707
629.703	0.0140032
629.781	0.0139604
629.859	0.0139736
629.937	0.0140412
630.015	0.0139481
630.093	0.0138805
630.171	0.0140137
630.249	0.0139274
630.328	0.0139487
630.406	0.0139021
630.484	0.0139776
630.562	0.0139185
630.640	0.0137808
630.718	0.0140130
630.796	0.0138741
630.874	0.0140535
630.953	0.0139513
631.031	0.0138747
631.109	0.0139398
631.187	0.0138225
631.265	0.0138152
631.343	0.0137024
631.421	0.0139938
631.499	0.0139104
631.578	0.0140361
631.656	0.0138415
631.734	0.0138389
631.812	0.0138079
631.890	0.0138176
631.968	0.0137678
632.046	0.0139437
632.124	0.0139275
632.203	0.0138837
632.281	0.0138770
632.359	0.0138643
632.437	0.0139050
632.515	0.0139234
632.593	0.0137260
632.671	0.0138079
632.749	0.0139979
632.828	0.0139130
632.906	0.0139706
632.984	0.0138999
633.062	0.0139101
633.140	0.0137334
633.218	0.0138649
633.296	0.0139110
633.374	0.0137843
633.453	0.0138149
633.531	0.0138525
633.609	0.0137500
633.687	0.0138476
633.765	0.0139600
633.843	0.0138499
633.921	0.0138464
633.999	0.0138473
634.078	0.0139433
634.156	0.0138922
634.234	0.0139503
634.312	0.0140265
634.390	0.0139136
634.468	0.0139943
634.546	0.0139842
634.624	0.0140047
634.703	0.0139780
634.781	0.0139346
634.859	0.0139669
634.937	0.0139447
635.015	0.0139469
635.093	0.0139797
635.171	0.0140379
635.249	0.0140593
635.328	0.0139684
635.406	0.0139466
635.484	0.0139556
635.562	0.0139959
635.640	0.0139542
635.718	0.0140156
635.796	0.0138880
635.874	0.0139185
635.953	0.0139382
636.031	0.0137231
636.109	0.0138701
636.187	0.0137888
636.265	0.0138313
636.343	0.0138811
636.421	0.0137495
636.499	0.0138943
636.578	0.0138789
636.656	0.0138701
636.734	0.0139775
636.812	0.0138453
636.890	0.0139136
636.968	0.0138665
637.046	0.0138692
637.124	0.0139261
637.203	0.0139389
637.281	0.0139902
637.359	0.0140991
637.437	0.0138384
637.515	0.0139326
637.593	0.0139893
637.671	0.0140388
637.749	0.0138466
637.828	0.0139184
637.906	0.0140100
637.984	0.0139094
638.062	0.0138680
638.140	0.0138941
638.218	0.0138578
638.296	0.0139205
638.374	0.0139647
638.453	0.0137997
638.531	0.0138701
638.609	0.0139262
638.687	0.0139074
638.765	0.0138826
638.843	0.0138879
638.921	0.0138232
638.999	0.0139542
639.078	0.0140070
639.156	0.0138519
639.234	0.0138849
639.312	0.0140444
639.390	0.0139603
639.468	0.0138919
639.546	0.0138997
639.624	0.0138551
639.703	0.0138680
639.781	0.0139488
639.859	0.0138572
639.937	0.0138104
640.015	0.0138684
640.093	0.0139510
640.171	0.0137788
640.249	0.0138171
640.328	0.0138506
640.406	0.0138342
640.484	0.0138716
640.562	0.0138757
640.640	0.0137758
640.718	0.0136988
640.796	0.0137888
640.874	0.0137386
640.953	0.0138493
641.031	0.0136282
641.109	0.0137475
641.187	0.0137900
641.265	0.0138716
641.343	0.0139545
641.421	0.0138569
641.499	0.0139045
641.578	0.0140747
641.656	0.0139279
641.734	0.0141798
641.812	0.0141757
641.890	0.0140632
641.968	0.0140486
642.046	0.0140326
642.124	0.0140121
642.203	0.0140907
642.281	0.0140675
642.359	0.0140145
642.437	0.0140142
642.515	0.0139452
642.593	0.0140179
642.671	0.0140437
642.749	0.0139019
642.828	0.0138611
642.906	0.0138905
642.984	0.0137199
643.062	0.0138191
643.140	0.0137152
643.218	0.0138044
643.296	0.0137874
643.374	0.0134849
643.453	0.0134871
643.531	0.0132237
643.609	0.0132497
643.687	0.0133092
643.765	0.0132449
643.843	0.0131933
643.921	0.0130258
643.999	0.0130704
644.078	0.0130698
644.156	0.0131827
644.234	0.0131471
644.312	0.0133165
644.390	0.0133789
644.468	0.0134418
644.546	0.0136118
644.624	0.0137638
644.703	0.0139047
644.781	0.0139883
644.859	0.0142676
644.937	0.0143719
645.015	0.0144132
645.093	0.0145733
645.171	0.0147749
645.249	0.0147854
645.328	0.0147264
645.406	0.0149939
645.484	0.0149022
645.562	0.0149483
645.640	0.0148592
645.718	0.0147514
645.796	0.0146233
645.874	0.0145496
645.953	0.0144116
646.031	0.0142571
646.109	0.0141488
646.187	0.0137354
646.265	0.0136186
646.343	0.0134761
646.421	0.0131830
646.499	0.0130885
646.578	0.0127293
646.656	0.0127479
646.734	0.0126238
646.812	0.0126910
646.890	0.0124876
646.968	0.0124986
647.046	0.0123277
647.124	0.0124386
647.203	0.0124236
647.281	0.0126574
647.359	0.0127950
647.437	0.0128059
647.515	0.0128686
647.593	0.0132775
647.671	0.0132844
647.749	0.0134875
647.828	0.0138879
647.906	0.0139857
647.984	0.0141296
648.062	0.0144481
648.140	0.0144318
648.218	0.0146512
648.296	0.0149242
648.374	0.0150202
648.453	0.0151872
648.531	0.0152588
648.609	0.0154275
648.687	0.0153156
648.765	0.0153356
648.843	0.0153761
648.921	0.0153147
648.999	0.0152060
649.078	0.0151723
649.156	0.0151306
649.234	0.0149831
649.312	0.0146844
649.390	0.0145266
649.468	0.0142650
649.546	0.0140694
649.624	0.0140322
649.703	0.0139108
649.781	0.0136650
649.859	0.0134776
649.937	0.0133984
650.015	0.0131838
650.093	0.0130401
650.171	0.0131064
650.249	0.0128439
650.328	0.0128415
650.406	0.0128509
650.484	0.0127013
650.562	0.0127579
650.640	0.0126569
650.718	0.0127506
650.796	0.0126498
650.874	0.0125502
650.953	0.0126740
651.031	0.0127206
651.109	0.0127780
651.187	0.0128461
651.265	0.0129556
651.343	0.0131663
651.421	0.0131553
651.499	0.0133254
651.578	0.0134393
651.656	0.0136658
651.734	0.0138586
651.812	0.0139848
651.890	0.0140652
651.968	0.0143061
652.046	0.0143357
652.124	0.0144425
652.203	0.0146243
652.281	0.0147260
652.359	0.0147227
652.437	0.0147975
652.515	0.0150024
652.593	0.0149688
652.671	0.0151698
652.749	0.0151263
652.828	0.0152864
652.906	0.0153716
652.984	0.0153882
653.062	0.0154031
653.140	0.0153722
653.218	0.0153905
653.296	0.0153453
653.374	0.0153620
653.453	0.0151998
653.531	0.0152135
653.609	0.0149492
653.687	0.0148668
653.765	0.0146225
653.843	0.0144241
653.921	0.0142110
653.999	0.0139827
654.078	0.0137890
654.156	0.0136140
654.234	0.0133997
654.312	0.0131454
654.390	0.0128148
654.468	0.0125350
654.546	0.0124882
654.624	0.0124605
654.703	0.0121640
654.781	0.0118836
654.859	0.0118485
654.937	0.0117979
655.015	0.0117924
655.093	0.0116029
655.171	0.0114920
655.249	0.0114971
655.328	0.0116878
655.406	0.0117837
655.484	0.0120161
655.562	0.0122016
655.640	0.0122710
655.718	0.0125092
655.796	0.0127671
655.874	0.0130886
655.953	0.0133963
656.031	0.0136115
656.109	0.0140882
656.187	0.0142683
656.265	0.0147337
656.343	0.0150973
656.421	0.0152229
656.499	0.0154926
656.578	0.0158526
656.656	0.0160364
656.734	0.0163147
656.812	0.0163970
656.890	0.0164835
656.968	0.0166216
657.046	0.0165766
657.124	0.0166714
657.203	0.0167921
657.281	0.0165405
657.359	0.0163744
657.437	0.0161982
657.515	0.0160477
657.593	0.0159356
657.671	0.0156191
657.749	0.0151875
657.828	0.0148300
657.906	0.0143850
657.984	0.0139448
658.062	0.0134724
658.140	0.0131835
658.218	0.0128291
658.296	0.0123908
658.374	0.0120882
658.453	0.0117154
658.531	0.0114185
658.609	0.0111389
658.687	0.0109243
658.765	0.0108584
658.843	0.0107183
658.921	0.0106297
658.999	0.0106237
659.078	0.0107159
659.156	0.0107416
659.234	0.0109268
659.312	0.0109615
659.390	0.0112383
659.468	0.0115106
659.546	0.0117069
659.624	0.0120561
659.703	0.0122708
659.781	0.0126838
659.859	0.0130457
659.937	0.0132546
660.015	0.0136746
660.093	0.0141980
660.171	0.0141517
660.249	0.0145584
660.328	0.0150011
660.406	0.0151443
660.484	0.0155865
660.562	0.0158121
660.640	0.0160395
660.718	0.0160406
660.796	0.0162748
660.874	0.0165245
660.953	0.0166982
661.031	0.0166421
661.109	0.0166496
661.187	0.0165952
661.265	0.0167195
661.343	0.0165643
661.421	0.0163937
661.499	0.0163755
661.578	0.0161057
661.656	0.0158749
661.734	0.0155390
661.812	0.0153249
661.890	0.0152497
661.968	0.0147856
662.046	0.0146056
662.124	0.0142292
662.203	0.0137138
662.281	0.0135867
662.359	0.0130420
662.437	0.0130237
662.515	0.0128809
662.593	0.0125330
662.671	0.0123245
662.749	0.0120931
662.828	0.0118322
662.906	0.0116232
662.984	0.0115326
663.062	0.0114954
663.140	0.0113876
663.218	0.0112280
663.296	0.0112267
663.374	0.0112652
663.453	0.0111565
663.531	0.0110378
663.609	0.0113207
663.687	0.0114246
663.765	0.0114989
663.843	0.0116538
663.921	0.0118318
663.999	0.0123801
664.078	0.0126608
664.156	0.0128471
664.234	0.0131537
664.312	0.0135957
664.390	0.0140356
664.468	0.0142955
664.546	0.0146133
664.624	0.0147802
664.703	0.0150652
664.781	0.0154229
664.859	0.0155521
664.937	0.0157559
665.015	0.0159303
665.093	0.0159378
665.171	0.0161519
665.249	0.0160954
665.328	0.0160769
665.406	0.0160463
665.484	0.0160178
665.562	0.0160617
665.640	0.0157727
665.718	0.0158041
665.796	0.0156242
665.874	0.0154671
665.953	0.0153727
666.031	0.0151642
666.109	0.0150011
666.187	0.0147269
666.265	0.0146842
666.343	0.0146114
666.421	0.0143947
666.499	0.0141106
666.578	0.0141720
666.656	0.0139970
666.734	0.0135223
666.812	0.0136007
666.890	0.0132988
666.968	0.0131404
667.046	0.0128321
667.124	0.0128160
667.203	0.0127225
667.281	0.0125842
667.359	0.0125462
667.437	0.0123402
667.515	0.0123521
667.593	0.0123161
667.671	0.0122819
667.749	0.0123633
667.828	0.0124419
667.906	0.0125024
667.984	0.0126627
668.062	0.0127302
668.140	0.0128296
668.218	0.0129317
668.296	0.0130693
668.374	0.0130839
668.453	0.0131006
668.531	0.0132770
668.609	0.0133971
668.687	0.0134805
668.765	0.0137172
668.843	0.0137712
668.921	0.0138158
668.999	0.0138332
669.078	0.0139569
669.156	0.0140400
669.234	0.0142264
669.312	0.0143026
669.390	0.0144060
669.468	0.0145950
669.546	0.0146319
669.624	0.0146317
669.703	0.0147872
669.781	0.0148009
669.859	0.0148239
669.937	0.0149551
670.015	0.0148083
670.093	0.0148553
670.171	0.0149409
670.249	0.0147412
670.328	0.0147883
670.406	0.0147147
670.484	0.0145600
670.562	0.0145090
670.640	0.0143932
670.718	0.0142006
670.796	0.0142002
670.874	0.0139364
670.953	0.0137557
671.031	0.0137763
671.109	0.0135258
671.187	0.0134792
671.265	0.0135241
671.343	0.0132684
671.421	0.0133535
671.499	0.0132527
671.578	0.0131782
671.656	0.0133212
671.734	0.0132674
671.812	0.0132189
671.890	0.0133606
671.968	0.0134010
672.046	0.0134019
672.124	0.0134735
672.203	0.0134337
672.281	0.0136773
672.359	0.0135887
672.437	0.0135683
672.515	0.0137343
672.593	0.0137285
672.671	0.0138121
672.749	0.0137082
672.828	0.0136106
672.906	0.0137972
672.984	0.0136626
673.062	0.0136555
673.140	0.0137818
673.218	0.0137290
673.296	0.0135664
673.374	0.0136137
673.453	0.0137225
673.531	0.0135877
673.609	0.0136958
673.687	0.0137740
673.765	0.0136198
673.843	0.0135880
673.921	0.0136129
673.999	0.0134232
674.078	0.0132846
674.156	0.0134164
674.234	0.0132740
674.312	0.0134760
674.390	0.0134880
674.468	0.0133418
674.546	0.0134003
674.624	0.0134471
674.703	0.0133620
674.781	0.0135074
674.859	0.0135094
674.937	0.0134749
675.015	0.0135916
675.093	0.0135245
675.171	0.0137188
675.249	0.0138248
675.328	0.0139112
675.406	0.0139239
675.484	0.0140518
675.562	0.0140167
675.640	0.0143731
675.718	0.0142979
675.796	0.0144473
675.874	0.0145554
675.953	0.0145361
676.031	0.0145293
676.109	0.0147562
676.187	0.0146442
676.265	0.0146905
676.343	0.0145882
676.421	0.0144882
676.499	0.0144518
676.578	0.0143908
676.656	0.0143545
676.734	0.0143566
676.812	0.0142858
676.890	0.0141950
676.968	0.0140100
677.046	0.0139668
677.124	0.0140934
677.203	0.0139690
677.281	0.0139498
677.359	0.0139718
677.437	0.0139801
677.515	0.0141195
677.593	0.0140711
677.671	0.0139143
677.749	0.0138487
677.828	0.0139041
677.906	0.0138550
677.984	0.0137170
678.062	0.0136684
678.140	0.0136724
678.218	0.0137103
678.296	0.0135999
678.374	0.0135037
678.453	0.0135696
678.531	0.0134737
678.609	0.0133846
678.687	0.0135189
678.765	0.0134708
678.843	0.0133957
678.921	0.0134132
678.999	0.0136608
679.078	0.0137390
679.156	0.0138480
679.234	0.0138680
679.312	0.0141489
679.390	0.0139556
679.468	0.0139830
679.546	0.0141888
679.624	0.0143436
679.703	0.0142493
679.781	0.0142258
679.859	0.0142288
679.937	0.0142285
680.015	0.0143166
680.093	0.0143229
680.171	0.0142208
680.249	0.0142596
680.328	0.0142284
680.406	0.0142677
680.484	0.0141652
680.562	0.0141379
680.640	0.0141510
680.718	0.0141158
680.796	0.0140854
680.874	0.0141685
680.953	0.0140913
681.031	0.0139977
681.109	0.0139973
681.187	0.0141226
681.265	0.0141826
681.343	0.0140124
681.421	0.0138451
681.499	0.0140891
681.578	0.0140228
681.656	0.0138881
681.734	0.0139434
681.812	0.0138898
681.890	0.0138144
681.968	0.0137243
682.046	0.0138947
682.124	0.0136247
682.203	0.0135690
682.281	0.0137097
682.359	0.0135904
682.437	0.0135499
682.515	0.0135931
682.593	0.0136926
682.671	0.0137611
682.749	0.0138111
682.828	0.0138216
682.906	0.0136378
682.984	0.0137547
683.062	0.0138478
683.140	0.0139062
683.218	0.0138496
683.296	0.0139278
683.374	0.0140251
683.453	0.0139466
683.531	0.0140124
683.609	0.0140356
683.687	0.0140715
683.765	0.0141570
683.843	0.0140002
683.921	0.0142966
683.999	0.0142866
684.078	0.0143707
684.156	0.0143295
684.234	0.0143093
684.312	0.0143325
684.390	0.0144936
684.468	0.0144840
684.546	0.0144372
684.624	0.0142477
684.703	0.0144662
684.781	0.0145074
684.859	0.0145216
684.937	0.0144552
685.015	0.0142996
685.093	0.0143935
685.171	0.0143779
685.249	0.0141424
685.328	0.0141566
685.406	0.0141920
685.484	0.0140212
685.562	0.0138930
685.640	0.0138737
685.718	0.0139519
685.796	0.0138554
685.874	0.0137931
685.953	0.0136514
686.031	0.0135158
686.109	0.0134862
686.187	0.0135591
686.265	0.0133360
686.343	0.0133607
686.421	0.0132217
686.499	0.0131313
686.578	0.0130667
686.656	0.0131069
686.734	0.0129556
686.812	0.0130099
686.890	0.0130372
686.968	0.0128880
687.046	0.0129330
687.124	0.0130560
687.203	0.0132507
687.281	0.0132401
687.359	0.0133223
687.437	0.0134290
687.515	0.0135229
687.593	0.0136451
687.671	0.0137260
687.749	0.0138467
687.828	0.0137997
687.906	0.0139192
687.984	0.0139623
688.062	0.0141120
688.140	0.0141272
688.218	0.0140614
688.296	0.0142894
688.374	0.0143647
688.453	0.0145651
688.531	0.0145651
688.609	0.0146510
688.687	0.0148191
688.765	0.0148451
688.843	0.0148361
688.921	0.0149118
688.999	0.0149023
689.078	0.0148885
689.156	0.0148399
689.234	0.0147417
689.312	0.0146880
689.390	0.0146719
689.468	0.0145996
689.546	0.0144975
689.624	0.0143726
689.703	0.0141785
689.781	0.0141193
689.859	0.0139940
689.937	0.0139546
690.015	0.0138376
690.093	0.0136921
690.171	0.0133878
690.249	0.0135912
690.328	0.0132346
690.406	0.0132715
690.484	0.0132693
690.562	0.0132261
690.640	0.0131921
690.718	0.0131593
690.796	0.0132681
690.874	0.0132615
690.953	0.0131940
691.031	0.0134631
691.109	0.0134737
691.187	0.0133833
691.265	0.0134977
691.343	0.0136263
691.421	0.0136110
691.499	0.0137358
691.578	0.0137099
691.656	0.0139159
691.734	0.0138085
691.812	0.0138428
691.890	0.0137569
691.968	0.0139229
692.046	0.0139978
692.124	0.0141774
692.203	0.0142996
692.281	0.0141142
692.359	0.0140762
692.437	0.0142876
692.515	0.0142625
692.593	0.0142816
692.671	0.0142979
692.749	0.0142426
692.828	0.0141106
692.906	0.0140322
692.984	0.0141659
693.062	0.0140109
693.140	0.0138318
693.218	0.0138617
693.296	0.0138367
693.374	0.0137885
693.453	0.0136368
693.531	0.0136398
693.609	0.0135792
693.687	0.0136256
693.765	0.0134966
693.843	0.0137797
693.921	0.0137097
693.999	0.0137153
694.078	0.0137593
694.156	0.0137219
694.234	0.0138238
694.312	0.0139429
694.390	0.0139160
694.468	0.0142122
694.546	0.0141373
694.624	0.0141925
694.703	0.0142076
694.781	0.0144479
694.859	0.0144069
694.937	0.0143633
695.015	0.0145599
695.093	0.0144032
695.171	0.0143742
695.249	0.0143905
695.328	0.0143668
695.406	0.0142495
695.484	0.0142435
695.562	0.0142339
695.640	0.0142767
695.718	0.0142368
695.796	0.0141036
695.874	0.0142346
695.953	0.0140661
696.031	0.0140809
696.109	0.0141778
696.187	0.0139256
696.265	0.0140091
696.343	0.0139985
696.421	0.0137719
696.499	0.0138634
696.578	0.0138134
696.656	0.0139008
696.734	0.0138585
696.812	0.0138590
696.890	0.0136190
696.968	0.0136509
697.046	0.0136623
697.124	0.0136945
697.203	0.0135849
697.281	0.0135278
697.359	0.0134798
697.437	0.0135297
697.515	0.0134099
697.593	0.0133049
697.671	0.0135116
697.749	0.0131899
697.828	0.0133835
697.906	0.0135627
697.984	0.0134793
698.062	0.0134973
698.140	0.0135629
698.218	0.0136042
698.296	0.0135255
698.374	0.0134734
698.453	0.0136825
698.531	0.0135887
698.609	0.0136520
698.687	0.0135995
698.765	0.0135488
698.843	0.0135876
698.921	0.0134345
698.999	0.0134473
699.078	0.0135656
699.156	0.0134743
699.234	0.0134666
699.312	0.0136088
699.390	0.0136755
699.468	0.0136482
699.546	0.0138406
699.624	0.0140393
699.703	0.0138788
699.781	0.0139788
699.859	0.0141226
699.937	0.0142452
700.015	0.0142387
700.093	0.0143768
700.171	0.0144383
700.249	0.0144205
700.328	0.0144457
700.406	0.0143192
700.484	0.0144673
700.562	0.0144518
700.640	0.0145262
700.718	0.0144757
700.796	0.0144234
700.874	0.0144820
700.953	0.0143406
701.031	0.0143380
701.109	0.0142576
701.187	0.0143100
701.265	0.0144044
701.343	0.0142115
701.421	0.0143044
701.499	0.0143591
701.578	0.0142091
701.656	0.0141576
701.734	0.0143010
701.812	0.0141364
701.890	0.0141986
701.968	0.0141803
702.046	0.0143774
702.124	0.0141670
702.203	0.0141353
702.281	0.0141920
702.359	0.0139045
702.437	0.0138670
702.515	0.0139170
702.593	0.0139583
702.671	0.0138635
702.749	0.0139212
702.828	0.0137330
702.906	0.0137273
702.984	0.0136384
703.062	0.0137236
703.140	0.0135809
703.218	0.0134538
703.296	0.0136023
703.374	0.0134676
703.453	0.0135426
703.531	0.0136104
703.609	0.0135865
703.687	0.0135210
703.765	0.0133976
703.843	0.0135020
703.921	0.0134499
703.999	0.0135943
704.078	0.0136392
704.156	0.0137582
704.234	0.0138335
704.312	0.0138182
704.390	0.0137249
704.468	0.0138325
704.546	0.0139703
704.624	0.0139311
704.703	0.0139645
704.781	0.0139938
704.859	0.0140186
704.937	0.0139282
705.015	0.0140166
705.093	0.0140015
705.171	0.0140000
705.249	0.0141122
705.328	0.0141047
705.406	0.0140906
705.484	0.0141084
705.562	0.0141342
705.640	0.0141572
705.718	0.0141625
705.796	0.0142400
705.874	0.0143657
705.953	0.0142606
706.031	0.0142747
706.109	0.0142621
706.187	0.0143548
706.265	0.0142454
706.343	0.0142691
706.421	0.0142348
706.499	0.0140615
706.578	0.0141923
706.656	0.0141338
706.734	0.0139896
706.812	0.0138432
706.890	0.0139598
706.968	0.0137444
707.046	0.0137554
707.124	0.0139205
707.203	0.0138419
707.281	0.0136942
707.359	0.0137611
707.437	0.0136124
707.515	0.0137765
707.593	0.0138539
707.671	0.0138301
707.749	0.0137475
707.828	0.0139421
707.906	0.0139539
707.984	0.0138473
708.062	0.0140372
708.140	0.0140063
708.218	0.0141347
708.296	0.0141045
708.374	0.0142386
708.453	0.0142812
708.531	0.0141459
708.609	0.0142135
708.687	0.0141348
708.765	0.0141665
708.843	0.0141650
708.921	0.0143227
708.999	0.0141758
709.078	0.0140807
709.156	0.0141462
709.234	0.0141937
709.312	0.0142265
709.390	0.0141400
709.468	0.0140443
709.546	0.0140987
709.624	0.0140111
709.703	0.0140485
709.781	0.0139293
709.859	0.0139132
709.937	0.0139352
710.015	0.0138843
710.093	0.0138480
710.171	0.0137486
710.249	0.0138676
710.328	0.0137445
710.406	0.0138144
710.484	0.0136359
710.562	0.0137963
710.640	0.0136023
710.718	0.0136160
710.796	0.0136016
710.874	0.0134829
710.953	0.0136414
711.031	0.0135741
711.109	0.0136205
711.187	0.0136114
711.265	0.0137368
711.343	0.0135941
711.421	0.0136256
711.499	0.0136360
711.578	0.0136109
711.656	0.0138364
711.734	0.0139030
711.812	0.0137840
711.890	0.0137842
711.968	0.0137290
712.046	0.0138213
712.124	0.0138142
712.203	0.0140042
712.281	0.0138242
712.359	0.0138046
712.437	0.0139640
712.515	0.0138628
712.593	0.0138744
712.671	0.0138531
712.749	0.0136820
712.828	0.0137104
712.906	0.0139037
712.984	0.0137976
713.062	0.0140165
713.140	0.0139777
713.218	0.0139290
713.296	0.0139713
713.374	0.0140357
713.453	0.0140037
713.531	0.0141801
713.609	0.0140875
713.687	0.0141479
713.765	0.0141203
713.843	0.0140298
713.921	0.0142533
713.999	0.0143063
714.078	0.0142126
714.156	0.0141351
714.234	0.0141022
714.312	0.0141888
714.390	0.0140878
714.468	0.0142032
714.546	0.0142950
714.624	0.0142014
714.703	0.0141628
714.781	0.0139650
714.859	0.0141316
714.937	0.0140865
715.015	0.0141811
715.093	0.0141755
715.171	0.0140980
715.249	0.0142628
715.328	0.0143111
715.406	0.0141496
715.484	0.0141006
715.562	0.0141445
715.640	0.0140897
715.718	0.0139668
715.796	0.0140884
715.874	0.0142200
715.953	0.0141573
716.031	0.0138847
716.109	0.0137092
716.187	0.0137782
716.265	0.0136887
716.343	0.0136766
716.421	0.0135496
716.499	0.0136066
716.578	0.0135778
716.656	0.0136225
716.734	0.0135725
716.812	0.0135808
716.890	0.0135911
716.968	0.0134931
717.046	0.0135750
717.124	0.0135925
717.203	0.0136851
717.281	0.0138706
717.359	0.0137911
717.437	0.0138061
717.515	0.0138817
717.593	0.0139465
717.671	0.0137503
717.749	0.0137656
717.828	0.0139378
717.906	0.0137850
717.984	0.0137606
718.062	0.0139604
718.140	0.0137863
718.218	0.0139404
718.296	0.0138972
718.374	0.0137851
718.453	0.0139005
718.531	0.0139413
718.609	0.0138242
718.687	0.0138272
718.765	0.0137966
718.843	0.0138740
718.921	0.0137978
718.999	0.0138004
719.078	0.0137353
719.156	0.0136380
719.234	0.0135130
719.312	0.0136749
719.390	0.0137019
719.468	0.0136972
719.546	0.0135113
719.624	0.0135941
719.703	0.0136665
719.781	0.0134715
719.859	0.0135777
719.937	0.0134795
720.015	0.0135532
720.093	0.0136211
720.171	0.0137064
720.249	0.0136577
720.328	0.0136961
720.406	0.0138625
720.484	0.0138773
720.562	0.0137649
720.640	0.0140945
720.718	0.0142159
720.796	0.0141182
720.874	0.0142278
720.953	0.0141771
721.031	0.0142537
721.109	0.0143185
721.187	0.0144281
721.265	0.0144244
721.343	0.0144994
721.421	0.0143858
721.499	0.0142960
721.578	0.0144943
721.656	0.0142586
721.734	0.0142011
721.812	0.0143439
721.890	0.0142514
721.968	0.0141072
722.046	0.0139436
722.124	0.0138326
722.203	0.0140844
722.281	0.0140585
722.359	0.0139520
722.437	0.0138017
722.515	0.0137147
722.593	0.0136460
722.671	0.0136275
722.749	0.0137375
722.828	0.0134029
722.906	0.0134964
722.984	0.0135625
723.062	0.0133582
723.140	0.0134254
723.218	0.0133617
723.296	0.0134268
723.374	0.0133055
723.453	0.0133273
723.531	0.0133109
723.609	0.0131673
723.687	0.0133365
723.765	0.0133174
723.843	0.0131690
723.921	0.0133775
723.999	0.0133213
724.078	0.0132234
724.156	0.0132455
724.234	0.0135075
724.312	0.0134199
724.390	0.0135331
724.468	0.0136776
724.546	0.0137533
724.624	0.0136680
724.703	0.0136476
724.781	0.0138947
724.859	0.0138843
724.937	0.0140353
725.015	0.0138485
725.093	0.0140445
725.171	0.0141998
725.249	0.0139497
725.328	0.0139263
725.406	0.0141217
725.484	0.0141962
725.562	0.0140008
725.640	0.0140708
725.718	0.0140826
725.796	0.0141679
725.874	0.0142083
725.953	0.0141497
726.031	0.0140659
726.109	0.0142841
726.187	0.0140897
726.265	0.0141022
726.343	0.0140048
726.421	0.0141183
726.499	0.0139951
726.578	0.0142445
726.656	0.0141869
726.734	0.0140704
726.812	0.0141227
726.890	0.0141454
726.968	0.0141632
727.046	0.0141025
727.124	0.0141666
727.203	0.0141467
727.281	0.0141328
727.359	0.0140964
727.437	0.0141828
727.515	0.0142156
727.593	0.0141359
727.671	0.0140773
727.749	0.0141326
727.828	0.0139671
727.906	0.0141196
727.984	0.0138615
728.062	0.0138575
728.140	0.0138986
728.218	0.0139096
728.296	0.0138927
728.374	0.0139849
728.453	0.0138947
728.531	0.0139187
728.609	0.0138706
728.687	0.0139370
728.765	0.0138191
728.843	0.0140093
728.921	0.0139525
728.999	0.0140379
729.078	0.0140868
729.156	0.0139462
729.234	0.0139130
729.312	0.0139146
729.390	0.0139556
729.468	0.0138786
729.546	0.0139983
729.624	0.0139008
729.703	0.0138619
729.781	0.0138196
729.859	0.0138943
729.937	0.0139641
730.015	0.0139644
730.093	0.0138612
730.171	0.0138502
730.249	0.0140318
730.328	0.0138828
730.406	0.0138881
730.484	0.0139880
730.562	0.0140267
730.640	0.0140180
730.718	0.0139999
730.796	0.0140811
730.874	0.0141033
730.953	0.0139323
731.031	0.0138876
731.109	0.0139312
731.187	0.0140209
731.265	0.0138757
731.343	0.0137120
731.421	0.0139090
731.499	0.0139635
731.578	0.0138016
731.656	0.0137247
731.734	0.0138152
731.812	0.0136884
731.890	0.0138177
731.968	0.0138695
732.046	0.0136839
732.124	0.0138248
732.203	0.0138752
732.281	0.0138256
732.359	0.0138772
732.437	0.0139114
732.515	0.0139285
732.593	0.0139481
732.671	0.0140055
732.749	0.0138625
732.828	0.0139483
732.906	0.0139542
732.984	0.0140029
733.062	0.0139305
733.140	0.0140615
733.218	0.0139359
733.296	0.0139727
733.374	0.0140157
733.453	0.0139659
733.531	0.0139725
733.609	0.0140849
733.687	0.0138863
733.765	0.0138659
733.843	0.0139678
733.921	0.0140971
733.999	0.0139632
734.078	0.0141017
734.156	0.0141329
734.234	0.0140446
734.312	0.0141429
734.390	0.0140798
734.468	0.0141370
734.546	0.0143163
734.624	0.0141650
734.703	0.0141680
734.781	0.0142479
734.859	0.0140496
734.937	0.0141472
735.015	0.0140694
735.093	0.0140143
735.171	0.0138502
735.249	0.0139143
735.328	0.0138955
735.406	0.0139198
735.484	0.0139195
735.562	0.0137808
735.640	0.0138180
735.718	0.0136978
735.796	0.0137827
735.874	0.0136642
735.953	0.0136314
736.031	0.0136136
736.109	0.0136217
736.187	0.0135025
736.265	0.0136012
736.343	0.0135957
736.421	0.0135513
736.499	0.0136377
736.578	0.0136501
736.656	0.0135965
736.734	0.0135421
736.812	0.0134875
736.890	0.0134044
736.968	0.0136342
737.046	0.0135310
737.124	0.0136131
737.203	0.0137695
737.281	0.0138241
737.359	0.0137000
737.437	0.0136130
737.515	0.0137658
737.593	0.0137574
737.671	0.0138850
737.749	0.0138771
737.828	0.0139690
737.906	0.0141206
737.984	0.0139936
738.062	0.0141982
738.140	0.0142595
738.218	0.0140992
738.296	0.0143589
738.374	0.0143682
738.453	0.0142420
738.531	0.0141814
738.609	0.0143401
738.687	0.0140842
738.765	0.0142409
738.843	0.0141827
738.921	0.0142052
738.999	0.0141343
739.078	0.0141747
739.156	0.0142243
739.234	0.0142258
739.312	0.0141573
739.390	0.0141661
739.468	0.0141547
739.546	0.0139626
739.624	0.0141138
739.703	0.0140822
739.781	0.0140807
739.859	0.0142121
739.937	0.0141486
740.015	0.0142201
740.093	0.0141714
740.171	0.0140828
740.249	0.0141757
740.328	0.0141334
740.406	0.0140659
740.484	0.0141300
740.562	0.0140200
740.640	0.0140215
740.718	0.0140073
740.796	0.0140032
740.874	0.0138105
740.953	0.0139777
741.031	0.0138619
741.109	0.0137312
741.187	0.0139548
741.265	0.0138173
741.343	0.0137659
741.421	0.0138811
741.499	0.0137582
741.578	0.0138647
741.656	0.0138277
741.734	0.0140341
741.812	0.0138819
741.890	0.0138614
741.968	0.0140253
742.046	0.0138931
742.124	0.0139302
742.203	0.0138883
742.281	0.0139302
742.359	0.0140770
742.437	0.0139901
742.515	0.0141506
742.593	0.0141273
742.671	0.0140375
742.749	0.0139629
742.828	0.0139742
742.906	0.0140132
742.984	0.0139458
743.062	0.0140045
743.140	0.0139448
743.218	0.0139690
743.296	0.0140359
743.374	0.0140142
743.453	0.0138058
743.531	0.0138541
743.609	0.0139709
743.687	0.0139172
743.765	0.0138623
743.843	0.0140372
743.921	0.0138648
743.999	0.0139275
744.078	0.0137833
744.156	0.0137971
744.234	0.0136438
744.312	0.0138244
744.390	0.0136878
744.468	0.0136654
744.546	0.0135150
744.624	0.0137041
744.703	0.0135360
744.781	0.0135855
744.859	0.0136731
744.937	0.0135782
745.015	0.0136805
745.093	0.0136243
745.171	0.0136749
745.249	0.0137728
745.328	0.0137189
745.406	0.0138158
745.484	0.0137907
745.562	0.0139198
745.640	0.0139853
745.718	0.0140629
745.796	0.0139848
745.874	0.0140057
745.953	0.0142028
746.031	0.0139960
746.109	0.0139638
746.187	0.0139963
746.265	0.0140147
746.343	0.0141850
746.421	0.0139176
746.499	0.0139166
746.578	0.0139603
746.656	0.0138007
746.734	0.0137889
746.812	0.0137030
746.890	0.0137554
746.968	0.0136711
747.046	0.0137476
747.124	0.0135520
747.203	0.0135030
747.281	0.0135871
747.359	0.0135825
747.437	0.0135407
747.515	0.0133977
747.593	0.0134464
747.671	0.0135538
747.749	0.0134950
747.828	0.0134104
747.906	0.0135336
747.984	0.0136243
748.062	0.0136713
748.140	0.0134438
748.218	0.0135455
748.296	0.0136524
748.374	0.0136410
748.453	0.0136516
748.531	0.0136196
748.609	0.0136692
748.687	0.0137677
748.765	0.0137133
748.843	0.0137624
748.921	0.0136810
748.999	0.0139423
749.078	0.0138871
749.156	0.0139465
749.234	0.0137752
749.312	0.0138754
749.390	0.0140638
749.468	0.0138889
749.546	0.0138701
749.624	0.0139645
749.703	0.0140553
749.781	0.0139437
749.859	0.0139397
749.937	0.0139490
750.015	0.0139742
750.093	0.0139911
750.171	0.0141221
750.249	0.0139406
750.328	0.0138364
750.406	0.0138580
750.484	0.0140236
750.562	0.0138506
750.640	0.0138580
750.718	0.0138903
750.796	0.0138926
750.874	0.0138387
750.953	0.0138023
751.031	0.0137890
751.109	0.0138866
751.187	0.0138371
751.265	0.0138696
751.343	0.0138895
751.421	0.0137450
751.499	0.0137924
751.578	0.0138580
751.656	0.0139288
751.734	0.0138596
751.812	0.0138362
751.890	0.0138575
751.968	0.0139803
752.046	0.0137964
752.124	0.0137756
752.203	0.0137858
752.281	0.0138166
752.359	0.0138096
752.437	0.0137794
752.515	0.0137614
752.593	0.0138775
752.671	0.0137247
752.749	0.0137643
752.828	0.0138292
752.906	0.0139269
752.984	0.0138649
753.062	0.0138354
753.140	0.0140364
753.218	0.0139159
753.296	0.0141027
753.374	0.0140500
753.453	0.0140408
753.531	0.0141307
753.609	0.0141038
753.687	0.0141562
753.765	0.0141320
753.843	0.0141575
753.921	0.0141165
753.999	0.0140935
754.078	0.0140610
754.156	0.0141959
754.234	0.0141230
754.312	0.0141460
754.390	0.0140467
754.468	0.0140880
754.546	0.0140565
754.624	0.0140363
754.703	0.0141002
754.781	0.0140644
754.859	0.0141335
754.937	0.0141565
755.015	0.0140563
755.093	0.0141315
755.171	0.0140421
755.249	0.0141691
755.328	0.0140670
755.406	0.0139316
755.484	0.0139696
755.562	0.0140945
755.640	0.0138253
755.718	0.0139347
755.796	0.0138261
755.874	0.0137447
755.953	0.0137424
756.031	0.0138309
756.109	0.0136826
756.187	0.0137376
756.265	0.0138417
756.343	0.0136245
756.421	0.0135549
756.499	0.0136862
756.578	0.0136794
756.656	0.0136165
756.734	0.0138615
756.812	0.0139288
756.890	0.0138925
756.968	0.0139754
757.046	0.0138252
757.124	0.0139400
757.203	0.0141733
757.281	0.0139656
757.359	0.0140623
757.437	0.0141276
757.515	0.0143235
757.593	0.0141124
757.671	0.0142335
757.749	0.0141467
757.828	0.0142307
757.906	0.0142256
757.984	0.0142390
758.062	0.0140931
758.140	0.0141653
758.218	0.0141898
758.296	0.0140867
758.374	0.0141758
758.453	0.0140327
758.531	0.0139845
758.609	0.0141273
758.687	0.0140712
758.765	0.0140196
758.843	0.0141496
758.921	0.0140681
758.999	0.0139992
759.078	0.0138152
759.156	0.0138764
759.234	0.0138494
759.312	0.0138096
759.390	0.0138645
759.468	0.0137314
759.546	0.0137980
759.624	0.0137327
759.703	0.0137912
759.781	0.0138318
759.859	0.0136190
759.937	0.0135132
760.015	0.0136047
760.093	0.0136041
760.171	0.0137840
760.249	0.0136869
760.328	0.0135844
760.406	0.0136353
760.484	0.0137418
760.562	0.0136678
760.640	0.0137048
760.718	0.0138368
760.796	0.0139465
760.874	0.0137362
760.953	0.0137418
761.031	0.0139492
761.109	0.0139653
761.187	0.0139605
761.265	0.0138492
761.343	0.0138969
761.421	0.0139219
761.499	0.0138962
761.578	0.0139624
761.656	0.0140235
761.734	0.0139229
761.812	0.0140067
761.890	0.0142693
761.968	0.0139655
762.046	0.0140276
762.124	0.0140564
762.203	0.0141261
762.281	0.0142365
762.359	0.0142635
762.437	0.0140810
762.515	0.0141251
762.593	0.0142696
762.671	0.0142154
762.749	0.0141509
762.828	0.0141334
762.906	0.0142826
762.984	0.0143291
763.062	0.0142030
763.140	0.0141142
763.218	0.0140839
763.296	0.0142200
763.374	0.0140350
763.453	0.0140085
763.531	0.0140495
763.609	0.0139548
763.687	0.0139201
763.765	0.0138662
763.843	0.0138831
763.921	0.0139117
763.999	0.0136008
764.078	0.0136885
764.156	0.0137929
764.234	0.0137842
764.312	0.0136163
764.390	0.0138140
764.468	0.0137495
764.546	0.0137272
764.624	0.0139082
764.703	0.0137434
764.781	0.0137554
764.859	0.0135901
764.937	0.0137535
765.015	0.0137968
765.093	0.0137040
765.171	0.0135565
765.249	0.0137293
765.328	0.0136686
765.406	0.0137226
765.484	0.0138350
765.562	0.0137402
765.640	0.0138947
765.718	0.0137203
765.796	0.0139452
765.874	0.0140527
765.953	0.0138428
766.031	0.0139084
766.109	0.0138823
766.187	0.0140244
766.265	0.0141595
766.343	0.0140274
766.421	0.0139172
766.499	0.0141019
766.578	0.0140760
766.656	0.0139674
766.734	0.0139668
766.812	0.0140395
766.890	0.0138719
766.968	0.0139727
767.046	0.0139834
767.124	0.0139160
767.203	0.0140855
767.281	0.0138802
767.359	0.0139346
767.437	0.0137126
767.515	0.0138190
767.593	0.0138721
767.671	0.0138267
767.749	0.0138035
767.828	0.0139076
767.906	0.0138221
767.984	0.0138942
768.062	0.0139261
768.140	0.0138331
768.218	0.0136390
768.296	0.0138281
768.374	0.0138741
768.453	0.0139589
768.531	0.0137693
768.609	0.0140095
768.687	0.0138351
768.765	0.0139812
768.843	0.0138790
768.921	0.0138206
768.999	0.0138223
769.078	0.0138339
769.156	0.0139014
769.234	0.0139048
769.312	0.0137517
769.390	0.0137882
769.468	0.0138966
769.546	0.0138394
769.624	0.0138761
769.703	0.0139938
769.781	0.0138923
769.859	0.0138248
769.937	0.0137815
770.015	0.0139336
770.093	0.0137917
770.171	0.0137952
770.249	0.0138092
770.328	0.0138772
770.406	0.0138691
770.484	0.0138538
770.562	0.0138843
770.640	0.0138133
770.718	0.0137778
770.796	0.0137479
770.874	0.0137303
770.953	0.0137514
771.031	0.0136320
771.109	0.0136267
771.187	0.0135911
771.265	0.0136988
771.343	0.0137037
771.421	0.0135410
771.499	0.0136020
771.578	0.0135133
771.656	0.0134204
771.734	0.0134805
771.812	0.0135247
771.890	0.0134972
771.968	0.0135545
772.046	0.0134913
772.124	0.0134869
772.203	0.0134489
772.281	0.0134659
772.359	0.0134846
772.437	0.0134306
772.515	0.0133828
772.593	0.0135571
772.671	0.0135516
772.749	0.0134248
772.828	0.0135205
772.906	0.0135268
772.984	0.0136153
773.062	0.0135542
773.140	0.0137231
773.218	0.0136897
773.296	0.0137948
773.374	0.0138167
773.453	0.0138372
773.531	0.0137999
773.609	0.0138187
773.687	0.0137865
773.765	0.0140111
773.843	0.0140207
773.921	0.0139356
773.999	0.0140479
774.078	0.0139869
774.156	0.0140067
774.234	0.0139170
774.312	0.0140733
774.390	0.0139850
774.468	0.0141025
774.546	0.0139155
774.624	0.0139171
774.703	0.0139477
774.781	0.0140379
774.859	0.0139461
774.937	0.0139030
775.015	0.0137850
775.093	0.0138416
775.171	0.0138415
775.249	0.0137826
775.328	0.0139451
775.406	0.0138321
775.484	0.0139096
775.562	0.0140441
775.640	0.0138425
775.718	0.0139554
775.796	0.0139199
775.874	0.0139645
775.953	0.0139077
776.031	0.0139590
776.109	0.0139661
776.187	0.0139366
776.265	0.0138725
776.343	0.0138064
776.421	0.0139615
776.499	0.0139854
776.578	0.0138148
776.656	0.0139599
776.734	0.0139012
776.812	0.0141025
776.890	0.0138770
776.968	0.0137601
777.046	0.0138802
777.124	0.0138364
777.203	0.0137789
777.281	0.0137475
777.359	0.0137351
777.437	0.0137925
777.515	0.0138226
777.593	0.0138364
777.671	0.0139218
777.749	0.0138210
777.828	0.0137196
777.906	0.0138223
777.984	0.0138348
778.062	0.0139517
778.140	0.0138940
778.218	0.0138605
778.296	0.0137855
778.374	0.0138989
778.453	0.0137899
778.531	0.0137920
778.609	0.0137714
778.687	0.0138048
778.765	0.0139007
778.843	0.0139020
778.921	0.0138671
778.999	0.0138656
779.078	0.0137753
779.156	0.0138715
779.234	0.0137782
779.312	0.0139127
779.390	0.0139816
779.468	0.0139936
779.546	0.0138721
779.624	0.0138847
779.703	0.0139026
779.781	0.0139942
779.859	0.0140266
779.937	0.0139960
780.015	0.0140018
780.093	0.0139787
780.171	0.0139988
780.249	0.0139194
780.328	0.0139162
780.406	0.0138463
780.484	0.0138097
780.562	0.0137240
780.640	0.0138567
780.718	0.0140250
780.796	0.0139014
780.874	0.0138214
780.953	0.0138390
781.031	0.0139070
781.109	0.0140347
781.187	0.0140766
781.265	0.0140130
781.343	0.0141072
781.421	0.0140636
781.499	0.0139359
781.578	0.0140422
781.656	0.0140865
781.734	0.0140509
781.812	0.0139825
781.890	0.0140245
781.968	0.0141824
782.046	0.0140355
782.124	0.0140171
782.203	0.0140475
782.281	0.0142082
782.359	0.0141618
782.437	0.0141048
782.515	0.0140734
782.593	0.0140559
782.671	0.0140295
782.749	0.0140518
782.828	0.0140907
782.906	0.0140836
782.984	0.0139732
783.062	0.0140988
783.140	0.0140984
783.218	0.0141633
783.296	0.0140707
783.374	0.0141333
783.453	0.0142046
783.531	0.0142127
783.609	0.0141261
783.687	0.0142159
783.765	0.0141614
783.843	0.0141872
783.921	0.0141024
783.999	0.0138413
784.078	0.0139816
784.156	0.0138869
784.234	0.0137796
784.312	0.0139394
784.390	0.0139501
784.468	0.0138304
784.546	0.0138678
784.624	0.0138150
784.703	0.0137765
784.781	0.0139483
784.859	0.0138135
784.937	0.0140140
785.015	0.0139062
785.093	0.0141277
785.171	0.0140536
785.249	0.0140492
785.328	0.0139986
785.406	0.0140276
785.484	0.0138638
785.562	0.0138642
785.640	0.0138074
785.718	0.0138956
785.796	0.0137630
785.874	0.0136986
785.953	0.0136002
786.031	0.0135176
786.109	0.0136850
786.187	0.0136301
786.265	0.0137916
786.343	0.0139512
786.421	0.0138746
786.499	0.0139883
786.578	0.0139359
786.656	0.0140263
786.734	0.0141097
786.812	0.0140225
786.890	0.0140128
786.968	0.0139021
787.046	0.0138586
787.124	0.0138892
787.203	0.0139587
787.281	0.0138086
787.359	0.0138250
787.437	0.0136880
787.515	0.0136287
787.593	0.0137601
787.671	0.0137726
787.749	0.0137221
787.828	0.0139371
787.906	0.0137289
787.984	0.0137739
788.062	0.0138572
788.140	0.0138119
788.218	0.0138825
788.296	0.0139132
788.374	0.0139212
788.453	0.0139259
788.531	0.0138818
788.609	0.0138573
788.687	0.0137483
788.765	0.0136092
788.843	0.0136541
788.921	0.0135542
788.999	0.0136057
789.078	0.0134775
789.156	0.0134453
789.234	0.0135085
789.312	0.0135027
789.390	0.0136169
789.468	0.0135896
789.546	0.0138549
789.624	0.0138897
789.703	0.0140552
789.781	0.0139722
789.859	0.0141565
789.937	0.0140240
790.015	0.0140116
790.093	0.0140270
790.171	0.0139671
790.249	0.0140279
790.328	0.0138621
790.406	0.0139063
790.484	0.0137915
790.562	0.0136758
790.640	0.0137929
790.718	0.0138570
790.796	0.0139528
790.874	0.0139775
790.953	0.0138262
791.031	0.0137624
791.109	0.0141192
791.187	0.0139820
791.265	0.0140853
791.343	0.0139888
791.421	0.0141332
791.499	0.0140244
791.578	0.0141607
791.656	0.0142258
791.734	0.0140501
791.812	0.0139742
791.890	0.0141515
791.968	0.0141116
792.046	0.0140096
792.124	0.0140417
792.203	0.0140019
792.281	0.0140270
792.359	0.0141320
792.437	0.0141621
792.515	0.0140608
792.593	0.0140134
792.671	0.0139760
792.749	0.0137835
792.828	0.0137906
792.906	0.0137070
792.984	0.0136002
793.062	0.0136942
793.140	0.0136861
793.218	0.0137589
793.296	0.0138324
793.374	0.0139740
793.453	0.0140412
793.531	0.0141316
793.609	0.0142348
793.687	0.0143506
793.765	0.0144107
793.843	0.0142752
793.921	0.0142396
793.999	0.0142142
794.078	0.0139399
794.156	0.0140236
794.234	0.0139381
794.312	0.0138244
794.390	0.0137067
794.468	0.0139855
794.546	0.0136963
794.624	0.0136047
794.703	0.0138564
794.781	0.0138258
794.859	0.0138374
794.937	0.0138244
795.015	0.0137737
795.093	0.0137845
795.171	0.0139153
795.249	0.0138883
795.328	0.0138983
795.406	0.0136918
795.484	0.0136448
795.562	0.0136440
795.640	0.0135204
795.718	0.0136730
795.796	0.0136256
795.874	0.0135072
795.953	0.0136069
796.031	0.0135035
796.109	0.0136099
796.187	0.0137039
796.265	0.0136307
796.343	0.0137949
796.421	0.0137307
796.499	0.0136947
796.578	0.0138359
796.656	0.0138105
796.734	0.0137017
796.812	0.0138638
796.890	0.0139262
796.968	0.0138006
797.046	0.0137594
797.124	0.0137842
797.203	0.0135592
797.281	0.0137053
797.359	0.0137403
797.437	0.0137659
797.515	0.0138437
797.593	0.0139339
797.671	0.0138868
797.749	0.0138164
797.828	0.0138255
797.906	0.0137813
797.984	0.0138940
798.062	0.0138959
798.140	0.0139451
798.218	0.0139039
798.296	0.0138502
798.374	0.0137770
798.453	0.0138056
798.531	0.0137312
798.609	0.0138042
798.687	0.0136242
798.765	0.0136352
798.843	0.0136591
798.921	0.0136912
798.999	0.0136715
799.078	0.0136801
799.156	0.0137919
799.234	0.0138969
799.312	0.0138329
799.390	0.0139169
799.468	0.0138173
799.546	0.0139634
799.624	0.0139899
799.703	0.0139018
799.781	0.0140240
799.859	0.0140244
799.937	0.0138985
800.015	0.0139255
800.093	0.0139075
800.171	0.0138600
800.249	0.0137858
800.328	0.0137424
800.406	0.0138436
800.484	0.0137547
800.562	0.0140401
800.640	0.0138727
800.718	0.0139238
800.796	0.0139887
800.874	0.0139671
800.953	0.0138284
801.031	0.0138204
801.109	0.0138438
801.187	0.0138297
801.265	0.0138229
801.343	0.0137059
801.421	0.0137534
801.499	0.0136716
801.578	0.0137280
801.656	0.0137403
801.734	0.0137389
801.812	0.0139639
801.890	0.0138924
801.968	0.0136430
802.046	0.0139716
802.124	0.0140028
802.203	0.0140427
802.281	0.0139088
802.359	0.0140565
802.437	0.0140604
802.515	0.0138988
802.593	0.0139626
802.671	0.0139075
802.749	0.0138596
802.828	0.0139420
802.906	0.0138103
802.984	0.0138125
803.062	0.0137374
803.140	0.0138251
803.218	0.0139255
803.296	0.0140723
803.374	0.0140486
803.453	0.0139930
803.531	0.0140982
803.609	0.0140491
803.687	0.0141511
803.765	0.0140295
803.843	0.0141425
803.921	0.0140888
803.999	0.0142152
804.078	0.0142334
804.156	0.0141894
804.234	0.0142059
804.312	0.0141633
804.390	0.0142535
804.468	0.0141819
804.546	0.0141333
804.624	0.0142434
804.703	0.0141563
804.781	0.0139227
804.859	0.0140376
804.937	0.0140279
805.015	0.0139558
805.093	0.0139059
805.171	0.0137775
805.249	0.0136972
805.328	0.0137569
805.406	0.0137964
805.484	0.0136996
805.562	0.0137004
805.640	0.0136376
805.718	0.0134590
805.796	0.0136272
805.874	0.0136216
805.953	0.0135191
806.031	0.0135117
806.109	0.0135401
806.187	0.0137542
806.265	0.0137630
806.343	0.0138126
806.421	0.0138488
806.499	0.0138575
806.578	0.0139663
806.656	0.0139193
806.734	0.0140550
806.812	0.0141215
806.890	0.0141180
806.968	0.0141939
807.046	0.0140949
807.124	0.0139941
807.203	0.0139745
807.281	0.0141386
807.359	0.0140655
807.437	0.0139498
807.515	0.0138258
807.593	0.0139552
807.671	0.0138935
807.749	0.0139167
807.828	0.0137659
807.906	0.0137087
807.984	0.0137249
808.062	0.0135886
808.140	0.0138097
808.218	0.0136945
808.296	0.0136196
808.374	0.0137850
808.453	0.0137743
808.531	0.0138589
808.609	0.0137531
808.687	0.0138508
808.765	0.0138233
808.843	0.0139269
808.921	0.0138989
808.999	0.0140043
809.078	0.0140240
809.156	0.0139978
809.234	0.0142395
809.312	0.0142572
809.390	0.0142004
809.468	0.0141626
809.546	0.0142519
809.624	0.0143253
809.703	0.0142580
809.781	0.0143055
809.859	0.0142238
809.937	0.0143404
810.015	0.0145284
810.093	0.0143811
810.171	0.0143626
810.249	0.0143848
810.328	0.0144816
810.406	0.0144663
810.484	0.0143832
810.562	0.0142406
810.640	0.0141817
810.718	0.0139719
810.796	0.0139194
810.874	0.0137037
810.953	0.0137094
811.031	0.0134909
811.109	0.0135227
811.187	0.0135543
811.265	0.0134116
811.343	0.0134206
811.421	0.0134692
811.499	0.0136289
811.578	0.0136826
811.656	0.0138879
811.734	0.0140363
811.812	0.0139365
811.890	0.0141560
811.968	0.0142602
812.046	0.0142886
812.124	0.0142369
812.203	0.0142464
812.281	0.0141940
812.359	0.0142569
812.437	0.0142310
812.515	0.0142449
812.593	0.0140825
812.671	0.0140237
812.749	0.0140482
812.828	0.0139597
812.906	0.0140659
812.984	0.0138940
813.062	0.0139330
813.140	0.0140910
813.218	0.0140816
813.296	0.0139497
813.374	0.0138879
813.453	0.0139802
813.531	0.0140614
813.609	0.0137914
813.687	0.0137237
813.765	0.0137880
813.843	0.0138164
813.921	0.0134822
813.999	0.0135995
814.078	0.0136048
814.156	0.0135802
814.234	0.0135982
814.312	0.0134385
814.390	0.0133718
814.468	0.0133904
814.546	0.0135758
814.624	0.0135295
814.703	0.0134516
814.781	0.0135928
814.859	0.0136803
814.937	0.0137997
815.015	0.0138275
815.093	0.0139627
815.171	0.0141283
815.249	0.0140860
815.328	0.0141099
815.406	0.0141691
815.484	0.0141379
815.562	0.0141508
815.640	0.0141985
815.718	0.0143002
815.796	0.0141228
815.874	0.0139800
815.953	0.0139333
816.031	0.0140234
816.109	0.0138219
816.187	0.0137733
816.265	0.0137045
816.343	0.0136269
816.421	0.0137621
816.499	0.0135722
816.578	0.0137156
816.656	0.0137663
816.734	0.0135570
816.812	0.0135674
816.890	0.0135403
816.968	0.0136599
817.046	0.0136133
817.124	0.0137222
817.203	0.0136431
817.281	0.0136682
817.359	0.0137009
817.437	0.0137297
817.515	0.0136780
817.593	0.0135992
817.671	0.0137311
817.749	0.0138213
817.828	0.0138168
817.906	0.0139122
817.984	0.0136655
818.062	0.0137556
818.140	0.0139023
818.218	0.0137059
818.296	0.0137063
818.374	0.0138522
818.453	0.0136611
818.531	0.0135736
818.609	0.0138085
818.687	0.0139359
818.765	0.0138464
818.843	0.0137813
818.921	0.0138360
818.999	0.0139105
819.078	0.0139704
819.156	0.0140588
819.234	0.0141093
819.312	0.0142051
819.390	0.0141386
819.468	0.0141237
819.546	0.0141020
819.624	0.0140630
819.703	0.0140962
819.781	0.0138403
819.859	0.0139165
819.937	0.0138541
820.015	0.0138075
820.093	0.0137860
820.171	0.0137491
820.249	0.0136756
820.328	0.0136977
820.406	0.0137079
820.484	0.0136710
820.562	0.0135471
820.640	0.0139137
820.718	0.0138576
820.796	0.0139462
820.874	0.0138342
820.953	0.0138854
821.031	0.0140118
821.109	0.0140803
821.187	0.0139494
821.265	0.0141396
821.343	0.0141469
821.421	0.0142287
821.499	0.0142914
821.578	0.0141805
821.656	0.0140562
821.734	0.0140437
821.812	0.0138549
821.890	0.0139211
821.968	0.0138210
822.046	0.0137109
822.124	0.0136441
822.203	0.0136980
822.281	0.0136994
822.359	0.0137186
822.437	0.0136986
822.515	0.0136812
822.593	0.0139302
822.671	0.0139062
822.749	0.0139303
822.828	0.0140482
822.906	0.0140398
822.984	0.0140070
823.062	0.0141451
823.140	0.0141397
823.218	0.0141599
823.296	0.0142895
823.374	0.0142941
823.453	0.0142367
823.531	0.0143061
823.609	0.0142968
823.687	0.0143046
823.765	0.0143246
823.843	0.0142585
823.921	0.0143317
823.999	0.0141337
824.078	0.0142347
824.156	0.0141950
824.234	0.0141524
824.312	0.0141077
824.390	0.0140713
824.468	0.0141032
824.546	0.0141231
824.624	0.0140671
824.703	0.0140095
824.781	0.0140458
824.859	0.0139573
824.937	0.0138493
825.015	0.0138631
825.093	0.0138931
825.171	0.0136898
825.249	0.0137309
825.328	0.0137543
825.406	0.0137032
825.484	0.0138168
825.562	0.0137299
825.640	0.0136488
825.718	0.0136523
825.796	0.0137386
825.874	0.0137563
825.953	0.0137980
826.031	0.0138186
826.109	0.0137565
826.187	0.0137861
826.265	0.0138860
826.343	0.0139356
826.421	0.0139193
826.499	0.0139124
826.578	0.0139175
826.656	0.0139177
826.734	0.0139841
826.812	0.0139581
826.890	0.0139811
826.968	0.0139059
827.046	0.0139602
827.124	0.0139470
827.203	0.0139482
827.281	0.0140662
827.359	0.0141637
827.437	0.0140358
827.515	0.0139172
827.593	0.0139548
827.671	0.0139980
827.749	0.0140151
827.828	0.0141259
827.906	0.0141629
827.984	0.0141299
828.062	0.0139565
828.140	0.0139938
828.218	0.0140160
828.296	0.0139709
828.374	0.0139816
828.453	0.0139725
828.531	0.0139332
828.609	0.0138612
828.687	0.0138911
828.765	0.0141165
828.843	0.0140551
828.921	0.0138836
828.999	0.0139297
829.078	0.0139251
829.156	0.0139033
829.234	0.0138670
829.312	0.0138992
829.390	0.0140095
829.468	0.0137379
829.546	0.0137937
829.624	0.0137721
829.703	0.0137065
829.781	0.0137121
829.859	0.0137535
829.937	0.0137428
830.015	0.0136771
830.093	0.0135580
830.171	0.0135085
830.249	0.0136932
830.328	0.0136458
830.406	0.0137184
830.484	0.0136848
830.562	0.0137835
830.640	0.0138357
830.718	0.0138094
830.796	0.0139496
830.874	0.0139005
830.953	0.0142005
831.031	0.0142148
831.109	0.0140459
831.187	0.0141399
831.265	0.0141898
831.343	0.0140987
831.421	0.0140288
831.499	0.0141510
831.578	0.0140369
831.656	0.0140420
831.734	0.0139780
831.812	0.0141135
831.890	0.0139721
831.968	0.0137690
832.046	0.0138380
832.124	0.0139081
832.203	0.0138094
832.281	0.0139849
832.359	0.0138922
832.437	0.0139246
832.515	0.0138521
832.593	0.0138678
832.671	0.0138930
832.749	0.0138517
832.828	0.0139510
832.906	0.0138049
832.984	0.0139101
833.062	0.0139808
833.140	0.0138317
833.218	0.0138512
833.296	0.0138208
833.374	0.0138934
833.453	0.0139292
833.531	0.0139294
833.609	0.0139812
833.687	0.0140050
833.765	0.0139560
833.843	0.0138577
833.921	0.0140398
833.999	0.0139826
834.078	0.0138348
834.156	0.0139193
834.234	0.0139832
834.312	0.0139787
834.390	0.0140594
834.468	0.0140405
834.546	0.0139531
834.624	0.0138842
834.703	0.0139072
834.781	0.0139114
834.859	0.0138860
834.937	0.0139507
835.015	0.0138319
835.093	0.0137806
835.171	0.0137642
835.249	0.0137233
835.328	0.0137917
835.406	0.0136540
835.484	0.0137304
835.562	0.0137833
835.640	0.0138313
835.718	0.0137715
835.796	0.0138228
835.874	0.0138934
835.953	0.0137921
836.031	0.0140418
836.109	0.0139639
836.187	0.0140968
836.265	0.0141450
836.343	0.0141670
836.421	0.0142600
836.499	0.0140628
836.578	0.0141001
836.656	0.0140914
836.734	0.0141301
836.812	0.0140987
836.890	0.0140663
836.968	0.0139655
837.046	0.0140664
837.124	0.0139240
837.203	0.0139980
837.281	0.0138823
837.359	0.0139177
837.437	0.0139285
837.515	0.0140369
837.593	0.0138712
837.671	0.0138921
837.749	0.0139137
837.828	0.0138838
837.906	0.0139454
837.984	0.0140043
838.062	0.0140695
838.140	0.0139318
838.218	0.0139406
838.296	0.0138282
838.374	0.0138619
838.453	0.0138423
838.531	0.0137734
838.609	0.0137830
838.687	0.0138804
838.765	0.0138757
838.843	0.0138438
838.921	0.0137928
838.999	0.0138665
839.078	0.0138223
839.156	0.0138113
839.234	0.0139005
839.312	0.0138403
839.390	0.0139587
839.468	0.0138088
839.546	0.0139040
839.624	0.0140101
839.703	0.0139967
839.781	0.0139712
839.859	0.0138212
839.937	0.0140090
840.015	0.0138333
840.093	0.0138097
840.171	0.0138932
840.249	0.0138747
840.328	0.0139604
840.406	0.0139496
840.484	0.0138612
840.562	0.0138214
840.640	0.0138157
840.718	0.0139030
840.796	0.0139265
840.874	0.0138495
840.953	0.0138641
841.031	0.0140250
841.109	0.0138564
841.187	0.0139274
841.265	0.0140614
841.343	0.0139935
841.421	0.0139896
841.499	0.0139838
841.578	0.0140002
841.656	0.0139933
841.734	0.0140750
841.812	0.0141105
841.890	0.0139837
841.968	0.0138839
842.046	0.0138611
842.124	0.0139838
842.203	0.0139068
842.281	0.0137875
842.359	0.0138048
842.437	0.0138802
842.515	0.0138698
842.593	0.0139586
842.671	0.0139476
842.749	0.0138848
842.828	0.0139938
842.906	0.0141461
842.984	0.0140508
843.062	0.0139990
843.140	0.0138841
843.218	0.0139742
843.296	0.0141319
843.374	0.0141442
843.453	0.0139722
843.531	0.0140387
843.609	0.0140445
843.687	0.0140145
843.765	0.0140254
843.843	0.0140097
843.921	0.0138591
843.999	0.0140724
844.078	0.0139923
844.156	0.0140982
844.234	0.0140813
844.312	0.0141664
844.390	0.0141372
844.468	0.0139583
844.546	0.0140231
844.624	0.0139593
844.703	0.0140701
844.781	0.0141178
844.859	0.0139931
844.937	0.0141078
845.015	0.0139265
845.093	0.0139307
845.171	0.0139164
845.249	0.0139104
845.328	0.0139380
845.406	0.0138256
845.484	0.0139017
845.562	0.0137825
845.640	0.0137714
845.718	0.0137305
845.796	0.0136553
845.874	0.0136008
845.953	0.0136797
846.031	0.0135928
846.109	0.0136790
846.187	0.0137213
846.265	0.0136787
846.343	0.0138192
846.421	0.0138361
846.499	0.0137124
846.578	0.0137229
846.656	0.0140605
846.734	0.0139481
846.812	0.0138972
846.890	0.0139356
846.968	0.0139270
847.046	0.0138979
847.124	0.0138643
847.203	0.0139847
847.281	0.0138602
847.359	0.0140232
847.437	0.0139140
847.515	0.0139292
847.593	0.0139119
847.671	0.0141109
847.749	0.0140871
847.828	0.0139958
847.906	0.0141527
847.984	0.0141055
848.062	0.0141570
848.140	0.0142000
848.218	0.0142436
848.296	0.0141825
848.374	0.0140911
848.453	0.0142032
848.531	0.0141407
848.609	0.0141544
848.687	0.0141434
848.765	0.0141336
848.843	0.0140756
848.921	0.0140720
848.999	0.0141199
849.078	0.0139973
849.156	0.0140845
849.234	0.0140906
849.312	0.0140285
849.390	0.0139111
849.468	0.0141267
849.546	0.0139383
849.624	0.0139168
849.703	0.0139294
849.781	0.0139755
849.859	0.0139424
849.937	0.0138498
850.015	0.0140483
850.093	0.0137759
850.171	0.0138069
850.249	0.0138398
850.328	0.0138943
850.406	0.0138185
850.484	0.0137206
850.562	0.0136453
850.640	0.0137322
850.718	0.0136586
850.796	0.0137480
850.874	0.0136796
850.953	0.0135898
851.031	0.0136334
851.109	0.0136578
851.187	0.0136835
851.265	0.0135674
851.343	0.0137247
851.421	0.0138538
851.499	0.0137417
851.578	0.0138142
851.656	0.0137730
851.734	0.0138615
851.812	0.0140485
851.890	0.0140929
851.968	0.0141776
852.046	0.0141638
852.124	0.0140849
852.203	0.0141107
852.281	0.0142255
852.359	0.0142039
852.437	0.0140466
852.515	0.0141096
852.593	0.0142453
852.671	0.0140511
852.749	0.0140079
852.828	0.0141673
852.906	0.0140236
852.984	0.0141038
853.062	0.0142499
853.140	0.0141161
853.218	0.0139713
853.296	0.0140327
853.374	0.0141203
853.453	0.0138486
853.531	0.0139442
853.609	0.0139395
853.687	0.0139960
853.765	0.0139291
853.843	0.0138596
853.921	0.0137538
853.999	0.0138840
854.078	0.0137933
854.156	0.0137282
854.234	0.0138628
854.312	0.0137814
854.390	0.0139111
854.468	0.0136716
854.546	0.0137057
854.624	0.0139221
854.703	0.0138519
854.781	0.0137593
854.859	0.0136593
854.937	0.0136788
855.015	0.0139618
855.093	0.0138136
855.171	0.0139159
855.249	0.0138495
855.328	0.0137658
855.406	0.0138148
855.484	0.0138388
855.562	0.0138864
855.640	0.0139550
855.718	0.0138554
855.796	0.0139304
855.874	0.0138500
855.953	0.0138142
856.031	0.0138046
856.109	0.0139950
856.187	0.0139925
856.265	0.0138135
856.343	0.0139119
856.421	0.0139696
856.499	0.0139684
856.578	0.0139359
856.656	0.0140496
856.734	0.0139868
856.812	0.0139501
856.890	0.0138779
856.968	0.0139555
857.046	0.0140337
857.124	0.0140365
857.203	0.0140021
857.281	0.0139088
857.359	0.0139267
857.437	0.0139452
857.515	0.0140738
857.593	0.0139784
857.671	0.0139265
857.749	0.0137775
857.828	0.0138185
857.906	0.0138802
857.984	0.0138895
858.062	0.0136311
858.140	0.0136362
858.218	0.0137472
858.296	0.0137959
858.374	0.0137845
858.453	0.0137166
858.531	0.0136252
858.609	0.0136483
858.687	0.0138264
858.765	0.0135845
858.843	0.0136865
858.921	0.0137349
858.999	0.0137418
859.078	0.0137270
859.156	0.0138246
859.234	0.0138666
859.312	0.0138778
859.390	0.0138646
859.468	0.0138325
859.546	0.0138153
859.624	0.0139842
859.703	0.0139950
859.781	0.0140419
859.859	0.0139887
859.937	0.0139020
860.015	0.0137717
860.093	0.0138960
860.171	0.0139262
860.249	0.0140094
860.328	0.0139706
860.406	0.0137408
860.484	0.0138751
860.562	0.0138790
860.640	0.0137702
860.718	0.0138263
860.796	0.0138979
860.874	0.0138708
860.953	0.0138913
861.031	0.0138613
861.109	0.0138758
861.187	0.0139635
861.265	0.0139583
861.343	0.0138750
861.421	0.0138763
861.499	0.0138497
861.578	0.0139616
861.656	0.0137725
861.734	0.0138472
861.812	0.0138454
861.890	0.0138152
861.968	0.0136629
862.046	0.0135332
862.124	0.0137010
862.203	0.0136221
862.281	0.0138202
862.359	0.0137073
862.437	0.0136530
862.515	0.0137330
862.593	0.0137050
862.671	0.0136306
862.749	0.0136199
862.828	0.0136481
862.906	0.0137920
862.984	0.0135828
863.062	0.0137067
863.140	0.0138350
863.218	0.0137639
863.296	0.0136716
863.374	0.0138326
863.453	0.0136182
863.531	0.0135877
863.609	0.0135488
863.687	0.0135719
863.765	0.0136396
863.843	0.0137260
863.921	0.0136377
863.999	0.0138857
864.078	0.0137045
864.156	0.0135188
864.234	0.0138299
864.312	0.0139188
864.390	0.0138696
864.468	0.0139337
864.546	0.0137204
864.624	0.0138940
864.703	0.0139473
864.781	0.0139267
864.859	0.0141241
864.937	0.0140174
865.015	0.0139056
865.093	0.0140611
865.171	0.0140997
865.249	0.0141084
865.328	0.0139691
865.406	0.0140287
865.484	0.0139288
865.562	0.0138702
865.640	0.0139237
865.718	0.0139890
865.796	0.0139344
865.874	0.0138523
865.953	0.0138364
866.031	0.0139255
866.109	0.0138609
866.187	0.0139003
866.265	0.0138317
866.343	0.0138699
866.421	0.0138857
866.499	0.0138885
866.578	0.0137801
866.656	0.0138862
866.734	0.0137872
866.812	0.0138680
866.890	0.0139480
866.968	0.0139577
867.046	0.0138853
867.124	0.0140482
867.203	0.0139732
867.281	0.0139460
867.359	0.0139886
867.437	0.0139116
867.515	0.0138659
867.593	0.0139789
867.671	0.0139430
867.749	0.0139777
867.828	0.0140041
867.906	0.0139133
867.984	0.0139832
868.062	0.0139832
868.140	0.0141018
868.218	0.0141064
868.296	0.0142048
868.374	0.0141957
868.453	0.0140885
868.531	0.0142255
868.609	0.0142498
868.687	0.0141437
868.765	0.0141848
868.843	0.0141299
868.921	0.0141050
868.999	0.0141203
869.078	0.0141622
869.156	0.0140618
869.234	0.0140672
869.312	0.0140456
869.390	0.0140684
869.468	0.0140219
869.546	0.0138658
869.624	0.0140118
869.703	0.0140238
869.781	0.0140465
869.859	0.0141171
869.937	0.0139036
870.015	0.0139886
870.093	0.0139663
870.171	0.0140637
870.249	0.0140717
870.328	0.0141628
870.406	0.0142071
870.484	0.0141569
870.562	0.0140257
870.640	0.0141805
870.718	0.0140614
870.796	0.0141694
870.874	0.0140762
870.953	0.0140759
871.031	0.0140449
871.109	0.0140284
871.187	0.0140984
871.265	0.0140229
871.343	0.0140489
871.421	0.0140720
871.499	0.0141891
871.578	0.0141618
871.656	0.0140907
871.734	0.0141808
871.812	0.0140778
871.890	0.0140736
871.968	0.0141707
872.046	0.0141337
872.124	0.0141587
872.203	0.0141483
872.281	0.0143491
872.359	0.0142642
872.437	0.0142114
872.515	0.0142384
872.593	0.0142512
872.671	0.0142600
872.749	0.0141348
872.828	0.0142622
872.906	0.0140598
872.984	0.0142013
873.062	0.0141578
873.140	0.0141975
873.218	0.0140913
873.296	0.0139498
873.374	0.0140332
873.453	0.0140230
873.531	0.0141654
873.609	0.0138731
873.687	0.0140914
873.765	0.0142112
873.843	0.0140324
873.921	0.0140768
873.999	0.0141309
874.078	0.0141822
874.156	0.0141463
874.234	0.0139937
874.312	0.0140583
874.390	0.0140007
874.468	0.0140929
874.546	0.0140299
874.624	0.0140247
874.703	0.0140404
874.781	0.0138994
874.859	0.0140598
874.937	0.0139772
875.015	0.0140101
875.093	0.0138480
875.171	0.0140207
875.249	0.0139889
875.328	0.0140429
875.406	0.0139106
875.484	0.0137102
875.562	0.0138391
875.640	0.0139673
875.718	0.0139332
875.796	0.0138688
875.874	0.0139510
875.953	0.0138396
876.031	0.0138818
876.109	0.0139162
876.187	0.0140255
876.265	0.0139216
876.343	0.0139791
876.421	0.0139348
876.499	0.0140521
876.578	0.0139738
876.656	0.0138565
876.734	0.0138979
876.812	0.0140227
876.890	0.0140591
876.968	0.0138075
877.046	0.0139195
877.124	0.0139990
877.203	0.0140086
877.281	0.0139692
877.359	0.0139240
877.437	0.0139956
877.515	0.0138421
877.593	0.0138652
877.671	0.0138802
877.749	0.0138374
877.828	0.0138708
877.906	0.0139707
877.984	0.0139306
878.062	0.0137933
878.140	0.0138551
878.218	0.0136980
878.296	0.0137167
878.374	0.0136858
878.453	0.0137178
878.531	0.0137228
878.609	0.0138127
878.687	0.0136954
878.765	0.0136853
878.843	0.0136760
878.921	0.0136509
878.999	0.0137353
879.078	0.0136263
879.156	0.0137563
879.234	0.0136384
879.312	0.0138572
879.390	0.0136816
879.468	0.0138061
879.546	0.0138135
879.624	0.0137411
879.703	0.0138239
879.781	0.0137845
879.859	0.0137572
879.937	0.0137372
880.015	0.0137309
880.093	0.0138982
880.171	0.0138485
880.249	0.0136488
880.328	0.0139978
880.406	0.0138303
880.484	0.0138044
880.562	0.0140394
880.640	0.0138737
880.718	0.0139468
880.796	0.0139101
880.874	0.0139257
880.953	0.0139577
881.031	0.0138912
881.109	0.0139640
881.187	0.0139039
881.265	0.0140658
881.343	0.0141169
881.421	0.0139218
881.499	0.0138557
881.578	0.0140377
881.656	0.0141464
881.734	0.0138145
881.812	0.0137798
881.890	0.0138848
881.968	0.0138992
882.046	0.0138507
882.124	0.0137993
882.203	0.0138524
882.281	0.0138284
882.359	0.0137476
882.437	0.0136514
882.515	0.0136256
882.593	0.0137673
882.671	0.0136346
882.749	0.0136634
882.828	0.0136585
882.906	0.0136323
882.984	0.0136938
883.062	0.0136701
883.140	0.0135830
883.218	0.0137574
883.296	0.0137183
883.374	0.0136218
883.453	0.0135937
883.531	0.0137302
883.609	0.0137474
883.687	0.0136897
883.765	0.0139141
883.843	0.0136883
883.921	0.0136147
883.999	0.0137209
884.078	0.0137794
884.156	0.0138372
884.234	0.0137494
884.312	0.0138087
884.390	0.0138866
884.468	0.0138721
884.546	0.0137784
884.624	0.0137538
884.703	0.0138409
884.781	0.0138391
884.859	0.0138699
884.937	0.0137848
885.015	0.0137939
885.093	0.0137736
885.171	0.0137637
885.249	0.0138962
885.328	0.0138294
885.406	0.0135983
885.484	0.0137475
885.562	0.0137820
885.640	0.0138195
885.718	0.0136969
885.796	0.0138570
885.874	0.0137200
885.953	0.0137599
886.031	0.0137714
886.109	0.0136978
886.187	0.0137343
886.265	0.0137732
886.343	0.0138319
886.421	0.0137474
886.499	0.0137823
886.578	0.0138419
886.656	0.0138411
886.734	0.0138909
886.812	0.0138322
886.890	0.0138126
886.968	0.0137531
887.046	0.0137617
887.124	0.0139158
887.203	0.0138953
887.281	0.0137954
887.359	0.0139703
887.437	0.0139486
887.515	0.0139079
887.593	0.0139221
887.671	0.0139760
887.749	0.0139704
887.828	0.0138696
887.906	0.0139914
887.984	0.0140366
888.062	0.0139880
888.140	0.0139510
888.218	0.0139394
888.296	0.0139146
888.374	0.0140887
888.453	0.0140537
888.531	0.0139422
888.609	0.0140857
888.687	0.0139314
888.765	0.0139351
888.843	0.0140893
888.921	0.0140671
888.999	0.0139810
889.078	0.0139084
889.156	0.0140411
889.234	0.0139680
889.312	0.0139114
889.390	0.0138979
889.468	0.0139911
889.546	0.0139693
889.624	0.0139668
889.703	0.0139704
889.781	0.0139437
889.859	0.0140323
889.937	0.0139765
890.015	0.0140229
890.093	0.0138911
890.171	0.0139445
890.249	0.0140009
890.328	0.0139675
890.406	0.0139833
890.484	0.0139018
890.562	0.0140366
890.640	0.0139243
890.718	0.0139870
890.796	0.0140347
890.874	0.0138628
890.953	0.0139857
891.031	0.0139974
891.109	0.0140064
891.187	0.0139205
891.265	0.0139484
891.343	0.0138615
891.421	0.0140159
891.499	0.0140855
891.578	0.0140701
891.656	0.0140422
891.734	0.0140035
891.812	0.0140071
891.890	0.0138529
891.968	0.0139262
892.046	0.0139812
892.124	0.0139499
892.203	0.0137996
892.281	0.0138467
892.359	0.0138686
892.437	0.0138925
892.515	0.0138785
892.593	0.0138553
892.671	0.0140194
892.749	0.0139593
892.828	0.0137963
892.906	0.0137521
892.984	0.0137622
893.062	0.0138857
893.140	0.0138018
893.218	0.0138347
893.296	0.0138744
893.374	0.0137484
893.453	0.0137534
893.531	0.0138229
893.609	0.0138863
893.687	0.0138222
893.765	0.0137228
893.843	0.0139066
893.921	0.0138412
893.999	0.0138673
894.078	0.0137361
894.156	0.0138999
894.234	0.0137947
894.312	0.0137833
894.390	0.0139308
894.468	0.0138981
894.546	0.0137457
894.624	0.0139290
894.703	0.0138714
894.781	0.0138352
894.859	0.0138512
894.937	0.0138632
895.015	0.0138527
895.093	0.0138708
895.171	0.0138309
895.249	0.0137838
895.328	0.0138454
895.406	0.0140005
895.484	0.0139271
895.562	0.0139709
895.640	0.0138738
895.718	0.0140484
895.796	0.0139922
895.874	0.0139687
895.953	0.0140963
896.031	0.0140198
896.109	0.0140497
896.187	0.0140276
896.265	0.0139864
896.343	0.0140767
896.421	0.0140594
896.499	0.0140564
896.578	0.0140059
896.656	0.0139038
896.734	0.0138840
896.812	0.0139178
896.890	0.0140198
896.968	0.0140102
897.046	0.0141249
897.124	0.0140192
897.203	0.0140428
897.281	0.0140891
897.359	0.0139880
897.437	0.0138786
897.515	0.0139900
897.593	0.0140089
897.671	0.0138768
897.749	0.0140299
897.828	0.0139871
897.906	0.0140328
897.984	0.0138964
898.062	0.0139832
898.140	0.0139200
898.218	0.0138747
898.296	0.0139314
898.374	0.0139497
898.453	0.0138163
898.531	0.0137810
898.609	0.0140318
898.687	0.0139252
898.765	0.0138544
898.843	0.0138700
898.921	0.0139453
898.999	0.0137793
899.078	0.0138853
899.156	0.0139847
899.234	0.0138046
899.312	0.0137862
899.390	0.0138658
899.468	0.0140388
899.546	0.0137656
899.624	0.0137300
899.703	0.0137266
899.781	0.0138041
899.859	0.0137395
899.937	0.0137952
900.015	0.0136949
900.093	0.0137835
900.171	0.0138282
900.249	0.0137060
900.328	0.0137401
900.406	0.0137464
900.484	0.0137217
900.562	0.0137424
900.640	0.0138194
900.718	0.0138191
900.796	0.0137685
900.874	0.0138633
900.953	0.0137794
901.031	0.0138589
901.109	0.0138523
901.187	0.0139291
901.265	0.0138749
901.343	0.0137838
901.421	0.0139161
901.499	0.0139476
901.578	0.0139104
901.656	0.0138071
901.734	0.0138848
901.812	0.0138763
901.890	0.0139105
901.968	0.0139954
902.046	0.0138402
902.124	0.0139317
902.203	0.0138853
902.281	0.0138636
902.359	0.0138983
902.437	0.0138954
902.515	0.0139633
902.593	0.0138250
902.671	0.0138814
902.749	0.0138747
902.828	0.0137922
902.906	0.0138311
902.984	0.0139613
903.062	0.0139623
903.140	0.0138357
903.218	0.0137653
903.296	0.0139666
903.374	0.0137273
903.453	0.0138114
903.531	0.0139703
903.609	0.0137833
903.687	0.0138458
903.765	0.0138902
903.843	0.0137717
903.921	0.0138785
903.999	0.0137533
904.078	0.0139297
904.156	0.0138750
904.234	0.0139068
904.312	0.0139358
904.390	0.0138347
904.468	0.0138734
904.546	0.0138665
904.624	0.0138381
904.703	0.0139313
904.781	0.0138402
904.859	0.0138103
904.937	0.0139590
905.015	0.0139778
905.093	0.0138849
905.171	0.0138769
905.249	0.0138123
905.328	0.0139384
905.406	0.0138347
905.484	0.0138994
905.562	0.0138911
905.640	0.0138579
905.718	0.0139455
905.796	0.0137993
905.874	0.0138100
905.953	0.0139487
906.031	0.0139371
906.109	0.0138702
906.187	0.0138822
906.265	0.0139479
906.343	0.0138537
906.421	0.0139297
906.499	0.0138218
906.578	0.0136507
906.656	0.0138617
906.734	0.0138432
906.812	0.0138203
906.890	0.0138667
906.968	0.0138784
907.046	0.0139110
907.124	0.0138676
907.203	0.0136575
907.281	0.0138501
907.359	0.0138356
907.437	0.0138512
907.515	0.0136755
907.593	0.0136452
907.671	0.0137139
907.749	0.0138359
907.828	0.0136488
907.906	0.0138031
907.984	0.0136233
908.062	0.0136780
908.140	0.0136828
908.218	0.0136517
908.296	0.0135881
908.374	0.0137146
908.453	0.0137640
908.531	0.0137550
908.609	0.0139293
908.687	0.0136351
908.765	0.0135464
908.843	0.0138230
908.921	0.0136845
908.999	0.0138467
909.078	0.0137360
909.156	0.0136932
909.234	0.0138080
909.312	0.0138453
909.390	0.0138673
909.468	0.0138925
909.546	0.0137534
909.624	0.0138590
909.703	0.0138675
909.781	0.0138940
909.859	0.0138316
909.937	0.0138584
910.015	0.0137210
910.093	0.0137080
910.171	0.0138014
910.249	0.0138596
910.328	0.0137382
910.406	0.0138039
910.484	0.0138150
910.562	0.0137254
910.640	0.0137419
910.718	0.0136393
910.796	0.0136446
910.874	0.0136806
910.953	0.0136884
911.031	0.0135754
911.109	0.0136950
911.187	0.0136460
911.265	0.0136865
911.343	0.0137552
911.421	0.0135916
911.499	0.0135789
911.578	0.0137145
911.656	0.0136920
911.734	0.0136622
911.812	0.0136852
911.890	0.0137747
911.968	0.0136342
912.046	0.0138155
912.124	0.0136169
912.203	0.0137176
912.281	0.0137517
912.359	0.0138286
912.437	0.0137849
912.515	0.0138805
912.593	0.0138563
912.671	0.0137354
912.749	0.0137772
912.828	0.0139223
912.906	0.0139194
912.984	0.0138597
913.062	0.0140337
913.140	0.0138834
913.218	0.0137042
913.296	0.0138525
913.374	0.0140003
913.453	0.0139545
913.531	0.0139668
913.609	0.0139482
913.687	0.0138896
913.765	0.0138886
913.843	0.0139405
913.921	0.0139857
913.999	0.0139150
914.078	0.0139233
914.156	0.0138366
914.234	0.0137936
914.312	0.0140492
914.390	0.0139359
914.468	0.0140703
914.546	0.0138165
914.624	0.0138056
914.703	0.0139227
914.781	0.0140041
914.859	0.0137659
914.937	0.0139454
915.015	0.0140634
915.093	0.0139600
915.171	0.0140165
915.249	0.0138494
915.328	0.0139558
915.406	0.0139706
915.484	0.0139816
915.562	0.0139246
915.640	0.0138531
915.718	0.0138129
915.796	0.0138810
915.874	0.0138400
915.953	0.0140223
916.031	0.0139087
916.109	0.0138715
916.187	0.0139264
916.265	0.0140166
916.343	0.0140287
916.421	0.0140578
916.499	0.0140121
916.578	0.0138721
916.656	0.0139612
916.734	0.0140205
916.812	0.0139657
916.890	0.0140366
916.968	0.0138692
917.046	0.0138284
917.124	0.0138505
917.203	0.0138742
917.281	0.0139029
917.359	0.0137069
917.437	0.0139175
917.515	0.0139580
917.593	0.0139218
917.671	0.0138800
917.749	0.0139596
917.828	0.0138361
917.906	0.0138612
917.984	0.0139619
918.062	0.0139473
918.140	0.0139237
918.218	0.0138380
918.296	0.0138197
918.374	0.0139163
918.453	0.0139233
918.531	0.0139111
918.609	0.0139777
918.687	0.0139709
918.765	0.0139484
918.843	0.0139056
918.921	0.0139799
918.999	0.0141250
919.078	0.0140230
919.156	0.0140269
919.234	0.0140804
919.312	0.0140432
919.390	0.0139260
919.468	0.0139460
919.546	0.0138905
919.624	0.0140222
919.703	0.0140413
919.781	0.0138990
919.859	0.0138786
919.937	0.0138582
