05/08/2022	20:27:52	Ver.	4.1	UNKNOWN
Optical Delay	600.015094	Delta X		0.078125	Sweeps	1	Scan Rate	0/0
Coordinates	Axis 1	NaN	Axis 2	NaN	Axis 3	NaN	Axis 4	NaN	Axis 5	NaN	Axis 6	0.000000
TX Power	0.000000	RX Power	0.000000

600.015	0.0137210
600.093	0.0139016
600.171	0.0138209
600.249	0.0135914
600.328	0.0137936
600.406	0.0137986
600.484	0.0136952
600.562	0.0138137
600.640	0.0137481
600.718	0.0137069
600.796	0.0136369
600.874	0.0135870
600.953	0.0137672
601.031	0.0138446
601.109	0.0137827
601.187	0.0138618
601.265	0.0139272
601.343	0.0137557
601.421	0.0137411
601.499	0.0139208
601.578	0.0139186
601.656	0.0137998
601.734	0.0138432
601.812	0.0138526
601.890	0.0137045
601.968	0.0139301
602.046	0.0140163
602.124	0.0140359
602.203	0.0139127
602.281	0.0137991
602.359	0.0138574
602.437	0.0138512
602.515	0.0137776
602.593	0.0138020
602.671	0.0138403
602.749	0.0138428
602.828	0.0139528
602.906	0.0138554
602.984	0.0138886
603.062	0.0138056
603.140	0.0138239
603.218	0.0137946
603.296	0.0136458
603.374	0.0137242
603.453	0.0137082
603.531	0.0137152
603.609	0.0137244
603.687	0.0136773
603.765	0.0137255
603.843	0.0137646
603.921	0.0137545
603.999	0.0136456
604.078	0.0135528
604.156	0.0135783
604.234	0.0137929
604.312	0.0136527
604.390	0.0134721
604.468	0.0136785
604.546	0.0136111
604.624	0.0135860
604.703	0.0135979
604.781	0.0134982
604.859	0.0135569
604.937	0.0136349
605.015	0.0136913
605.093	0.0137092
605.171	0.0137072
605.249	0.0136006
605.328	0.0136099
605.406	0.0136747
605.484	0.0135476
605.562	0.0136449
605.640	0.0137163
605.718	0.0137248
605.796	0.0138065
605.874	0.0136793
605.953	0.0136465
606.031	0.0136456
606.109	0.0136401
606.187	0.0137193
606.265	0.0137482
606.343	0.0136884
606.421	0.0137261
606.499	0.0136406
606.578	0.0135402
606.656	0.0136601
606.734	0.0136594
606.812	0.0135353
606.890	0.0134396
606.968	0.0135213
607.046	0.0135655
607.124	0.0134515
607.203	0.0134899
607.281	0.0135461
607.359	0.0134936
607.437	0.0133842
607.515	0.0135437
607.593	0.0135567
607.671	0.0135628
607.749	0.0133735
607.828	0.0136911
607.906	0.0133786
607.984	0.0134061
608.062	0.0135030
608.140	0.0135770
608.218	0.0134923
608.296	0.0134303
608.374	0.0136078
608.453	0.0135429
608.531	0.0135224
608.609	0.0134686
608.687	0.0134487
608.765	0.0133298
608.843	0.0135310
608.921	0.0134126
608.999	0.0133596
609.078	0.0134921
609.156	0.0134394
609.234	0.0134862
609.312	0.0134468
609.390	0.0133912
609.468	0.0134834
609.546	0.0133496
609.624	0.0134703
609.703	0.0135250
609.781	0.0135905
609.859	0.0134877
609.937	0.0135198
610.015	0.0135259
610.093	0.0134235
610.171	0.0136053
610.249	0.0136720
610.328	0.0134628
610.406	0.0137019
610.484	0.0137022
610.562	0.0136223
610.640	0.0135947
610.718	0.0135995
610.796	0.0136176
610.874	0.0134901
610.953	0.0135633
611.031	0.0136280
611.109	0.0137126
611.187	0.0137186
611.265	0.0135902
611.343	0.0136440
611.421	0.0137209
611.499	0.0135920
611.578	0.0136457
611.656	0.0136548
611.734	0.0136477
611.812	0.0138237
611.890	0.0138350
611.968	0.0137328
612.046	0.0137967
612.124	0.0137962
612.203	0.0135716
612.281	0.0137163
612.359	0.0136718
612.437	0.0137139
612.515	0.0138242
612.593	0.0137936
612.671	0.0136957
612.749	0.0137974
612.828	0.0136594
612.906	0.0137321
612.984	0.0137021
613.062	0.0136964
613.140	0.0135660
613.218	0.0137412
613.296	0.0136214
613.374	0.0135811
613.453	0.0135872
613.531	0.0135857
613.609	0.0135223
613.687	0.0136121
613.765	0.0135429
613.843	0.0134470
613.921	0.0134661
613.999	0.0134006
614.078	0.0134879
614.156	0.0135480
614.234	0.0135326
614.312	0.0136158
614.390	0.0135090
614.468	0.0133704
614.546	0.0134881
614.624	0.0135596
614.703	0.0134019
614.781	0.0136446
614.859	0.0136924
614.937	0.0134794
615.015	0.0134969
615.093	0.0135740
615.171	0.0136384
615.249	0.0136398
615.328	0.0135807
615.406	0.0136784
615.484	0.0136263
615.562	0.0136404
615.640	0.0136555
615.718	0.0137964
615.796	0.0135735
615.874	0.0135869
615.953	0.0136235
616.031	0.0137792
616.109	0.0137167
616.187	0.0136977
616.265	0.0137131
616.343	0.0137070
616.421	0.0136813
616.499	0.0137600
616.578	0.0138628
616.656	0.0138366
616.734	0.0139622
616.812	0.0138599
616.890	0.0136905
616.968	0.0139338
617.046	0.0139310
617.124	0.0138078
617.203	0.0138470
617.281	0.0139466
617.359	0.0138494
617.437	0.0138522
617.515	0.0139354
617.593	0.0137962
617.671	0.0138245
617.749	0.0138860
617.828	0.0138953
617.906	0.0139630
617.984	0.0139906
618.062	0.0138589
618.140	0.0139733
618.218	0.0138913
618.296	0.0138573
618.374	0.0139311
618.453	0.0139535
618.531	0.0138416
618.609	0.0139386
618.687	0.0139672
618.765	0.0139335
618.843	0.0137719
618.921	0.0138698
618.999	0.0139697
619.078	0.0138505
619.156	0.0138160
619.234	0.0137951
619.312	0.0138651
619.390	0.0137482
619.468	0.0138450
619.546	0.0138969
619.624	0.0137303
619.703	0.0138672
619.781	0.0138053
619.859	0.0136350
619.937	0.0137993
620.015	0.0138695
620.093	0.0139122
620.171	0.0138242
620.249	0.0137788
620.328	0.0137701
620.406	0.0137602
620.484	0.0136797
620.562	0.0138195
620.640	0.0136843
620.718	0.0136671
620.796	0.0137701
620.874	0.0135640
620.953	0.0135606
621.031	0.0136098
621.109	0.0135349
621.187	0.0135624
621.265	0.0135773
621.343	0.0135345
621.421	0.0136081
621.499	0.0136123
621.578	0.0135170
621.656	0.0135628
621.734	0.0136580
621.812	0.0137180
621.890	0.0136212
621.968	0.0136476
622.046	0.0135463
622.124	0.0134995
622.203	0.0134787
622.281	0.0135664
622.359	0.0135136
622.437	0.0136246
622.515	0.0136749
622.593	0.0135231
622.671	0.0136085
622.749	0.0134436
622.828	0.0135666
622.906	0.0135771
622.984	0.0136039
623.062	0.0136525
623.140	0.0135920
623.218	0.0135140
623.296	0.0136700
623.374	0.0134819
623.453	0.0134870
623.531	0.0134340
623.609	0.0135557
623.687	0.0135253
623.765	0.0134993
623.843	0.0136027
623.921	0.0135432
623.999	0.0136427
624.078	0.0136133
624.156	0.0135383
624.234	0.0135869
624.312	0.0136298
624.390	0.0135949
624.468	0.0136274
624.546	0.0134322
624.624	0.0135587
624.703	0.0136356
624.781	0.0138187
624.859	0.0136094
624.937	0.0136983
625.015	0.0135552
625.093	0.0134470
625.171	0.0136276
625.249	0.0136427
625.328	0.0136073
625.406	0.0136544
625.484	0.0136687
625.562	0.0136874
625.640	0.0136753
625.718	0.0137082
625.796	0.0136728
625.874	0.0136294
625.953	0.0135578
626.031	0.0136629
626.109	0.0138398
626.187	0.0136992
626.265	0.0138277
626.343	0.0137400
626.421	0.0137424
626.499	0.0135849
626.578	0.0138757
626.656	0.0137798
626.734	0.0138236
626.812	0.0137698
626.890	0.0137722
626.968	0.0136834
627.046	0.0137868
627.124	0.0138362
627.203	0.0136206
627.281	0.0138211
627.359	0.0137222
627.437	0.0137215
627.515	0.0137727
627.593	0.0136730
627.671	0.0136733
627.749	0.0136906
627.828	0.0136578
627.906	0.0138272
627.984	0.0136463
628.062	0.0136767
628.140	0.0137409
628.218	0.0137455
628.296	0.0138072
628.374	0.0137845
628.453	0.0136302
628.531	0.0137752
628.609	0.0136465
628.687	0.0137023
628.765	0.0137656
628.843	0.0137623
628.921	0.0135937
628.999	0.0136060
629.078	0.0136504
629.156	0.0136086
629.234	0.0136887
629.312	0.0136802
629.390	0.0136916
629.468	0.0135994
629.546	0.0136648
629.624	0.0138284
629.703	0.0136935
629.781	0.0136786
629.859	0.0136441
629.937	0.0137486
630.015	0.0137759
630.093	0.0135169
630.171	0.0136805
630.249	0.0138285
630.328	0.0136259
630.406	0.0136884
630.484	0.0136748
630.562	0.0136393
630.640	0.0136743
630.718	0.0137039
630.796	0.0137090
630.874	0.0139306
630.953	0.0138935
631.031	0.0139764
631.109	0.0138158
631.187	0.0138423
631.265	0.0137449
631.343	0.0138948
631.421	0.0137541
631.499	0.0136957
631.578	0.0136838
631.656	0.0136318
631.734	0.0137643
631.812	0.0137209
631.890	0.0136353
631.968	0.0137551
632.046	0.0136692
632.124	0.0136951
632.203	0.0136617
632.281	0.0136738
632.359	0.0137587
632.437	0.0136762
632.515	0.0136018
632.593	0.0135050
632.671	0.0136597
632.749	0.0135794
632.828	0.0136414
632.906	0.0136336
632.984	0.0137054
633.062	0.0135312
633.140	0.0134429
633.218	0.0135572
633.296	0.0135623
633.374	0.0135568
633.453	0.0136084
633.531	0.0136844
633.609	0.0136987
633.687	0.0135221
633.765	0.0135442
633.843	0.0136229
633.921	0.0136024
633.999	0.0137499
634.078	0.0137193
634.156	0.0135992
634.234	0.0136021
634.312	0.0137936
634.390	0.0136633
634.468	0.0136221
634.546	0.0136330
634.624	0.0137718
634.703	0.0136221
634.781	0.0138285
634.859	0.0136937
634.937	0.0136798
635.015	0.0136810
635.093	0.0137236
635.171	0.0137820
635.249	0.0136019
635.328	0.0136080
635.406	0.0137926
635.484	0.0136246
635.562	0.0136074
635.640	0.0136470
635.718	0.0136806
635.796	0.0135155
635.874	0.0134494
635.953	0.0135285
636.031	0.0134913
636.109	0.0135847
636.187	0.0136073
636.265	0.0136221
636.343	0.0136366
636.421	0.0135027
636.499	0.0133971
636.578	0.0134837
636.656	0.0135009
636.734	0.0135898
636.812	0.0134228
636.890	0.0134501
636.968	0.0135881
637.046	0.0134094
637.124	0.0133972
637.203	0.0135219
637.281	0.0135139
637.359	0.0134782
637.437	0.0135715
637.515	0.0134905
637.593	0.0135248
637.671	0.0134605
637.749	0.0134946
637.828	0.0135161
637.906	0.0136229
637.984	0.0136446
638.062	0.0133128
638.140	0.0133823
638.218	0.0134146
638.296	0.0135085
638.374	0.0134681
638.453	0.0133663
638.531	0.0134126
638.609	0.0133234
638.687	0.0132045
638.765	0.0131938
638.843	0.0133714
638.921	0.0132915
638.999	0.0135040
639.078	0.0134843
639.156	0.0133768
639.234	0.0134315
639.312	0.0134692
639.390	0.0133672
639.468	0.0135120
639.546	0.0134942
639.624	0.0133902
639.703	0.0134830
639.781	0.0136496
639.859	0.0134771
639.937	0.0132947
640.015	0.0132803
640.093	0.0134132
640.171	0.0135698
640.249	0.0134084
640.328	0.0133179
640.406	0.0135683
640.484	0.0134089
640.562	0.0134892
640.640	0.0133591
640.718	0.0134006
640.796	0.0133863
640.874	0.0134154
640.953	0.0132144
641.031	0.0133397
641.109	0.0134007
641.187	0.0133271
641.265	0.0133060
641.343	0.0133266
641.421	0.0133281
641.499	0.0135257
641.578	0.0134114
641.656	0.0133998
641.734	0.0135365
641.812	0.0135845
641.890	0.0136788
641.968	0.0135638
642.046	0.0136816
642.124	0.0136137
642.203	0.0136127
642.281	0.0136601
642.359	0.0138377
642.437	0.0137685
642.515	0.0137926
642.593	0.0137894
642.671	0.0138684
642.749	0.0137590
642.828	0.0137428
642.906	0.0138129
642.984	0.0136175
643.062	0.0136987
643.140	0.0137074
643.218	0.0135901
643.296	0.0136093
643.374	0.0136749
643.453	0.0134906
643.531	0.0134863
643.609	0.0134267
643.687	0.0132204
643.765	0.0132644
643.843	0.0133709
643.921	0.0131113
643.999	0.0129518
644.078	0.0130940
644.156	0.0131153
644.234	0.0130004
644.312	0.0131215
644.390	0.0131065
644.468	0.0132444
644.546	0.0132456
644.624	0.0132805
644.703	0.0132937
644.781	0.0134742
644.859	0.0136356
644.937	0.0136381
645.015	0.0139304
645.093	0.0140993
645.171	0.0141950
645.249	0.0142194
645.328	0.0143403
645.406	0.0144421
645.484	0.0147553
645.562	0.0146327
645.640	0.0146040
645.718	0.0146679
645.796	0.0145327
645.874	0.0145928
645.953	0.0145869
646.031	0.0144396
646.109	0.0142284
646.187	0.0141094
646.265	0.0138525
646.343	0.0135964
646.421	0.0136182
646.499	0.0134099
646.578	0.0131130
646.656	0.0128724
646.734	0.0128009
646.812	0.0126745
646.890	0.0125024
646.968	0.0123775
647.046	0.0123479
647.124	0.0122179
647.203	0.0122379
647.281	0.0121356
647.359	0.0121957
647.437	0.0123640
647.515	0.0123508
647.593	0.0125150
647.671	0.0126662
647.749	0.0127915
647.828	0.0129738
647.906	0.0131689
647.984	0.0134340
648.062	0.0136604
648.140	0.0138329
648.218	0.0142712
648.296	0.0143343
648.374	0.0142295
648.453	0.0147617
648.531	0.0149774
648.609	0.0149282
648.687	0.0151266
648.765	0.0152628
648.843	0.0151453
648.921	0.0151933
648.999	0.0151221
649.078	0.0152599
649.156	0.0151268
649.234	0.0151474
649.312	0.0150115
649.390	0.0148117
649.468	0.0144944
649.546	0.0145025
649.624	0.0142232
649.703	0.0139622
649.781	0.0138675
649.859	0.0136296
649.937	0.0133101
650.015	0.0132664
650.093	0.0130500
650.171	0.0128856
650.249	0.0126482
650.328	0.0127932
650.406	0.0124142
650.484	0.0125323
650.562	0.0125044
650.640	0.0123481
650.718	0.0124422
650.796	0.0122937
650.874	0.0123285
650.953	0.0123461
651.031	0.0123087
651.109	0.0125336
651.187	0.0125627
651.265	0.0126224
651.343	0.0127095
651.421	0.0127045
651.499	0.0130924
651.578	0.0131505
651.656	0.0133170
651.734	0.0133799
651.812	0.0134551
651.890	0.0136552
651.968	0.0138829
652.046	0.0140981
652.124	0.0141161
652.203	0.0142632
652.281	0.0142946
652.359	0.0144254
652.437	0.0147245
652.515	0.0146134
652.593	0.0147558
652.671	0.0147150
652.749	0.0148331
652.828	0.0148743
652.906	0.0147604
652.984	0.0148761
653.062	0.0149384
653.140	0.0146781
653.218	0.0149444
653.296	0.0149258
653.374	0.0146186
653.453	0.0145965
653.531	0.0147543
653.609	0.0146471
653.687	0.0145807
653.765	0.0143559
653.843	0.0142599
653.921	0.0142621
653.999	0.0140578
654.078	0.0139114
654.156	0.0136247
654.234	0.0135296
654.312	0.0133458
654.390	0.0132243
654.468	0.0129578
654.546	0.0127964
654.624	0.0126413
654.703	0.0123808
654.781	0.0122728
654.859	0.0120681
654.937	0.0119838
655.015	0.0118475
655.093	0.0117203
655.171	0.0116083
655.249	0.0115763
655.328	0.0117212
655.406	0.0114636
655.484	0.0114693
655.562	0.0115468
655.640	0.0114863
655.718	0.0115616
655.796	0.0118006
655.874	0.0119553
655.953	0.0120266
656.031	0.0123753
656.109	0.0126483
656.187	0.0129362
656.265	0.0132139
656.343	0.0135760
656.421	0.0138990
656.499	0.0141444
656.578	0.0144878
656.656	0.0148212
656.734	0.0151598
656.812	0.0152390
656.890	0.0155559
656.968	0.0156795
657.046	0.0160180
657.124	0.0162035
657.203	0.0162805
657.281	0.0163064
657.359	0.0162547
657.437	0.0161923
657.515	0.0162576
657.593	0.0161614
657.671	0.0159635
657.749	0.0156330
657.828	0.0153809
657.906	0.0152540
657.984	0.0147965
658.062	0.0144188
658.140	0.0142307
658.218	0.0137905
658.296	0.0133426
658.374	0.0127998
658.453	0.0125651
658.531	0.0122776
658.609	0.0117702
658.687	0.0115818
658.765	0.0113411
658.843	0.0110679
658.921	0.0107740
658.999	0.0106683
659.078	0.0105619
659.156	0.0105402
659.234	0.0104950
659.312	0.0103458
659.390	0.0104971
659.468	0.0105699
659.546	0.0108748
659.624	0.0110749
659.703	0.0110675
659.781	0.0113564
659.859	0.0116830
659.937	0.0120603
660.015	0.0125063
660.093	0.0127274
660.171	0.0131394
660.249	0.0134815
660.328	0.0137697
660.406	0.0140767
660.484	0.0143898
660.562	0.0146439
660.640	0.0149654
660.718	0.0150977
660.796	0.0153661
660.874	0.0155676
660.953	0.0157771
661.031	0.0160094
661.109	0.0161388
661.187	0.0162445
661.265	0.0162792
661.343	0.0162302
661.421	0.0162984
661.499	0.0162353
661.578	0.0161602
661.656	0.0160098
661.734	0.0159018
661.812	0.0156557
661.890	0.0153800
661.968	0.0151814
662.046	0.0151414
662.124	0.0146751
662.203	0.0143241
662.281	0.0141879
662.359	0.0139339
662.437	0.0135342
662.515	0.0132802
662.593	0.0129771
662.671	0.0128999
662.749	0.0124783
662.828	0.0122327
662.906	0.0119753
662.984	0.0117760
663.062	0.0117799
663.140	0.0114937
663.218	0.0113773
663.296	0.0112231
663.374	0.0112328
663.453	0.0111818
663.531	0.0111068
663.609	0.0109261
663.687	0.0109398
663.765	0.0111044
663.843	0.0111074
663.921	0.0111967
663.999	0.0113020
664.078	0.0114758
664.156	0.0116651
664.234	0.0118645
664.312	0.0122649
664.390	0.0124117
664.468	0.0126723
664.546	0.0129639
664.624	0.0134312
664.703	0.0136880
664.781	0.0140525
664.859	0.0143228
664.937	0.0146728
665.015	0.0150339
665.093	0.0150982
665.171	0.0154281
665.249	0.0156704
665.328	0.0158043
665.406	0.0158944
665.484	0.0160120
665.562	0.0161386
665.640	0.0160998
665.718	0.0159127
665.796	0.0157197
665.874	0.0158222
665.953	0.0156059
666.031	0.0155081
666.109	0.0153577
666.187	0.0152112
666.265	0.0149244
666.343	0.0145844
666.421	0.0143735
666.499	0.0143166
666.578	0.0141351
666.656	0.0137825
666.734	0.0136825
666.812	0.0136472
666.890	0.0134035
666.968	0.0131418
667.046	0.0129650
667.124	0.0130351
667.203	0.0127408
667.281	0.0126738
667.359	0.0124345
667.437	0.0124229
667.515	0.0124349
667.593	0.0123090
667.671	0.0121818
667.749	0.0121424
667.828	0.0120902
667.906	0.0120699
667.984	0.0120730
668.062	0.0121134
668.140	0.0121931
668.218	0.0123311
668.296	0.0123634
668.374	0.0123176
668.453	0.0125778
668.531	0.0126361
668.609	0.0126698
668.687	0.0127513
668.765	0.0130849
668.843	0.0131773
668.921	0.0132826
668.999	0.0131680
669.078	0.0132938
669.156	0.0134900
669.234	0.0137467
669.312	0.0137570
669.390	0.0138925
669.468	0.0139733
669.546	0.0141143
669.624	0.0142014
669.703	0.0143429
669.781	0.0143113
669.859	0.0144514
669.937	0.0147800
670.015	0.0149221
670.093	0.0148834
670.171	0.0149331
670.249	0.0150391
670.328	0.0151200
670.406	0.0151689
670.484	0.0150175
670.562	0.0150603
670.640	0.0152024
670.718	0.0149734
670.796	0.0150066
670.874	0.0148844
670.953	0.0147209
671.031	0.0144075
671.109	0.0142942
671.187	0.0143009
671.265	0.0141698
671.343	0.0140127
671.421	0.0138011
671.499	0.0135908
671.578	0.0135123
671.656	0.0134168
671.734	0.0134254
671.812	0.0131367
671.890	0.0131388
671.968	0.0131061
672.046	0.0129808
672.124	0.0129077
672.203	0.0129712
672.281	0.0130717
672.359	0.0129906
672.437	0.0130392
672.515	0.0130793
672.593	0.0129956
672.671	0.0130318
672.749	0.0132671
672.828	0.0132227
672.906	0.0132000
672.984	0.0133472
673.062	0.0133695
673.140	0.0134897
673.218	0.0134305
673.296	0.0134491
673.374	0.0135452
673.453	0.0135655
673.531	0.0136517
673.609	0.0136620
673.687	0.0137016
673.765	0.0138136
673.843	0.0136648
673.921	0.0137324
673.999	0.0135398
674.078	0.0137120
674.156	0.0138071
674.234	0.0137294
674.312	0.0137329
674.390	0.0135966
674.468	0.0134595
674.546	0.0134628
674.624	0.0135442
674.703	0.0135690
674.781	0.0134519
674.859	0.0133513
674.937	0.0135394
675.015	0.0136057
675.093	0.0135196
675.171	0.0134011
675.249	0.0135695
675.328	0.0135339
675.406	0.0135882
675.484	0.0135296
675.562	0.0135207
675.640	0.0137817
675.718	0.0137846
675.796	0.0139325
675.874	0.0139127
675.953	0.0137706
676.031	0.0137234
676.109	0.0140769
676.187	0.0139653
676.265	0.0139951
676.343	0.0141007
676.421	0.0140989
676.499	0.0138934
676.578	0.0140596
676.656	0.0141331
676.734	0.0140181
676.812	0.0140025
676.890	0.0136744
676.968	0.0137888
677.046	0.0138198
677.124	0.0137363
677.203	0.0135660
677.281	0.0136346
677.359	0.0135551
677.437	0.0133577
677.515	0.0133160
677.593	0.0132035
677.671	0.0133104
677.749	0.0133793
677.828	0.0132286
677.906	0.0132174
677.984	0.0133692
678.062	0.0134608
678.140	0.0132556
678.218	0.0134087
678.296	0.0134550
678.374	0.0134354
678.453	0.0133968
678.531	0.0133866
678.609	0.0132539
678.687	0.0133688
678.765	0.0132735
678.843	0.0133021
678.921	0.0132515
678.999	0.0131922
679.078	0.0132876
679.156	0.0133018
679.234	0.0133945
679.312	0.0132819
679.390	0.0133669
679.468	0.0134089
679.546	0.0135739
679.624	0.0135674
679.703	0.0137225
679.781	0.0139039
679.859	0.0138961
679.937	0.0138333
680.015	0.0139790
680.093	0.0141267
680.171	0.0141466
680.249	0.0142532
680.328	0.0142969
680.406	0.0142437
680.484	0.0144431
680.562	0.0144925
680.640	0.0143370
680.718	0.0143271
680.796	0.0143793
680.874	0.0143018
680.953	0.0143167
681.031	0.0141354
681.109	0.0141816
681.187	0.0140292
681.265	0.0140939
681.343	0.0141088
681.421	0.0137919
681.499	0.0136676
681.578	0.0137776
681.656	0.0137132
681.734	0.0136599
681.812	0.0137032
681.890	0.0135128
681.968	0.0135753
682.046	0.0137020
682.124	0.0135596
682.203	0.0134793
682.281	0.0135255
682.359	0.0135355
682.437	0.0134496
682.515	0.0133210
682.593	0.0133153
682.671	0.0133430
682.749	0.0133019
682.828	0.0132209
682.906	0.0131821
682.984	0.0130527
683.062	0.0131817
683.140	0.0132453
683.218	0.0131377
683.296	0.0132111
683.374	0.0132138
683.453	0.0132732
683.531	0.0132254
683.609	0.0133929
683.687	0.0134120
683.765	0.0132463
683.843	0.0134818
683.921	0.0135187
683.999	0.0134113
684.078	0.0135492
684.156	0.0136238
684.234	0.0136340
684.312	0.0136159
684.390	0.0137012
684.468	0.0136626
684.546	0.0136303
684.624	0.0138229
684.703	0.0137566
684.781	0.0137608
684.859	0.0139224
684.937	0.0139005
685.015	0.0140215
685.093	0.0141316
685.171	0.0141750
685.249	0.0142857
685.328	0.0143302
685.406	0.0143322
685.484	0.0143467
685.562	0.0142758
685.640	0.0143049
685.718	0.0143365
685.796	0.0141627
685.874	0.0141614
685.953	0.0141621
686.031	0.0140846
686.109	0.0138058
686.187	0.0136421
686.265	0.0136425
686.343	0.0134699
686.421	0.0132810
686.499	0.0131398
686.578	0.0132097
686.656	0.0132364
686.734	0.0130029
686.812	0.0129173
686.890	0.0129417
686.968	0.0128046
687.046	0.0128981
687.124	0.0129655
687.203	0.0130688
687.281	0.0129408
687.359	0.0129803
687.437	0.0130750
687.515	0.0129341
687.593	0.0131007
687.671	0.0130928
687.749	0.0130753
687.828	0.0131583
687.906	0.0132035
687.984	0.0132974
688.062	0.0133491
688.140	0.0134298
688.218	0.0134888
688.296	0.0136491
688.374	0.0136105
688.453	0.0137747
688.531	0.0140088
688.609	0.0139996
688.687	0.0138947
688.765	0.0140638
688.843	0.0141803
688.921	0.0141265
688.999	0.0144897
689.078	0.0144236
689.156	0.0142995
689.234	0.0144737
689.312	0.0146567
689.390	0.0147401
689.468	0.0145707
689.546	0.0145529
689.624	0.0146644
689.703	0.0144556
689.781	0.0144915
689.859	0.0143703
689.937	0.0143864
690.015	0.0144138
690.093	0.0143500
690.171	0.0143614
690.249	0.0140941
690.328	0.0140378
690.406	0.0139973
690.484	0.0139586
690.562	0.0138084
690.640	0.0135914
690.718	0.0136356
690.796	0.0134849
690.874	0.0132908
690.953	0.0132188
691.031	0.0132726
691.109	0.0130256
691.187	0.0131496
691.265	0.0130769
691.343	0.0131900
691.421	0.0131554
691.499	0.0132570
691.578	0.0131078
691.656	0.0132619
691.734	0.0132603
691.812	0.0131461
691.890	0.0132065
691.968	0.0133481
692.046	0.0134126
692.124	0.0134531
692.203	0.0133861
692.281	0.0135723
692.359	0.0134106
692.437	0.0134850
692.515	0.0136352
692.593	0.0135838
692.671	0.0136214
692.749	0.0137562
692.828	0.0137068
692.906	0.0137434
692.984	0.0136619
693.062	0.0138691
693.140	0.0138332
693.218	0.0138037
693.296	0.0138525
693.374	0.0138921
693.453	0.0140555
693.531	0.0136858
693.609	0.0137045
693.687	0.0137405
693.765	0.0137215
693.843	0.0136516
693.921	0.0133797
693.999	0.0135857
694.078	0.0137344
694.156	0.0136636
694.234	0.0135571
694.312	0.0135580
694.390	0.0135900
694.468	0.0136614
694.546	0.0135161
694.624	0.0136102
694.703	0.0136714
694.781	0.0137173
694.859	0.0138916
694.937	0.0137909
695.015	0.0137974
695.093	0.0137931
695.171	0.0138941
695.249	0.0138865
695.328	0.0138670
695.406	0.0139769
695.484	0.0140672
695.562	0.0139522
695.640	0.0139068
695.718	0.0141220
695.796	0.0141270
695.874	0.0139762
695.953	0.0141340
696.031	0.0139903
696.109	0.0140091
696.187	0.0140269
696.265	0.0139798
696.343	0.0139626
696.421	0.0139973
696.499	0.0138624
696.578	0.0139200
696.656	0.0139964
696.734	0.0139404
696.812	0.0140125
696.890	0.0139552
696.968	0.0138898
697.046	0.0140787
697.124	0.0139914
697.203	0.0139322
697.281	0.0138824
697.359	0.0136869
697.437	0.0136228
697.515	0.0136131
697.593	0.0135188
697.671	0.0135352
697.749	0.0134832
697.828	0.0135031
697.906	0.0133848
697.984	0.0133982
698.062	0.0133761
698.140	0.0132741
698.218	0.0132887
698.296	0.0131490
698.374	0.0130907
698.453	0.0132201
698.531	0.0131679
698.609	0.0132106
698.687	0.0132379
698.765	0.0133712
698.843	0.0131389
698.921	0.0132803
698.999	0.0134624
699.078	0.0135515
699.156	0.0133394
699.234	0.0135136
699.312	0.0135603
699.390	0.0136642
699.468	0.0136711
699.546	0.0136087
699.624	0.0138016
699.703	0.0137090
699.781	0.0137174
699.859	0.0137689
699.937	0.0137053
700.015	0.0137721
700.093	0.0137836
700.171	0.0136464
700.249	0.0136552
700.328	0.0138356
700.406	0.0138297
700.484	0.0137621
700.562	0.0138805
700.640	0.0139140
700.718	0.0138404
700.796	0.0139088
700.874	0.0138573
700.953	0.0141196
701.031	0.0138785
701.109	0.0140323
701.187	0.0140921
701.265	0.0141413
701.343	0.0140271
701.421	0.0141685
701.499	0.0140483
701.578	0.0140579
701.656	0.0140688
701.734	0.0140082
701.812	0.0140312
701.890	0.0139744
701.968	0.0138644
702.046	0.0138720
702.124	0.0138621
702.203	0.0139152
702.281	0.0137518
702.359	0.0136453
702.437	0.0136307
702.515	0.0136812
702.593	0.0137560
702.671	0.0137670
702.749	0.0136735
702.828	0.0137923
702.906	0.0138000
702.984	0.0136009
703.062	0.0137755
703.140	0.0136645
703.218	0.0136476
703.296	0.0135562
703.374	0.0135658
703.453	0.0136266
703.531	0.0135259
703.609	0.0136765
703.687	0.0136126
703.765	0.0134550
703.843	0.0134267
703.921	0.0134457
703.999	0.0133549
704.078	0.0134075
704.156	0.0134624
704.234	0.0133961
704.312	0.0133717
704.390	0.0134624
704.468	0.0135002
704.546	0.0134898
704.624	0.0136129
704.703	0.0135300
704.781	0.0136952
704.859	0.0138536
704.937	0.0137994
705.015	0.0137849
705.093	0.0138503
705.171	0.0136980
705.249	0.0136893
705.328	0.0138538
705.406	0.0137629
705.484	0.0137949
705.562	0.0139145
705.640	0.0139816
705.718	0.0137611
705.796	0.0138577
705.874	0.0138139
705.953	0.0139464
706.031	0.0137881
706.109	0.0139058
706.187	0.0137937
706.265	0.0135983
706.343	0.0137451
706.421	0.0138549
706.499	0.0136834
706.578	0.0137066
706.656	0.0136711
706.734	0.0136707
706.812	0.0137005
706.890	0.0138006
706.968	0.0138966
707.046	0.0137309
707.124	0.0138010
707.203	0.0138541
707.281	0.0138219
707.359	0.0141370
707.437	0.0139838
707.515	0.0138753
707.593	0.0138369
707.671	0.0139335
707.749	0.0139796
707.828	0.0140893
707.906	0.0139409
707.984	0.0139597
708.062	0.0139777
708.140	0.0138709
708.218	0.0138755
708.296	0.0140491
708.374	0.0139227
708.453	0.0138515
708.531	0.0137565
708.609	0.0138107
708.687	0.0137589
708.765	0.0137212
708.843	0.0135895
708.921	0.0136049
708.999	0.0134793
709.078	0.0135132
709.156	0.0134042
709.234	0.0132226
709.312	0.0134290
709.390	0.0131062
709.468	0.0132605
709.546	0.0133311
709.624	0.0132355
709.703	0.0132657
709.781	0.0133202
709.859	0.0133646
709.937	0.0132588
710.015	0.0133355
710.093	0.0134790
710.171	0.0132694
710.249	0.0132337
710.328	0.0134966
710.406	0.0134103
710.484	0.0134660
710.562	0.0134939
710.640	0.0135252
710.718	0.0135841
710.796	0.0134732
710.874	0.0136345
710.953	0.0136160
711.031	0.0135532
711.109	0.0135232
711.187	0.0137425
711.265	0.0137017
711.343	0.0137222
711.421	0.0136867
711.499	0.0137486
711.578	0.0137373
711.656	0.0138408
711.734	0.0137092
711.812	0.0137446
711.890	0.0137291
711.968	0.0137605
712.046	0.0138340
712.124	0.0139204
712.203	0.0137801
712.281	0.0139704
712.359	0.0138078
712.437	0.0139503
712.515	0.0138895
712.593	0.0138750
712.671	0.0138113
712.749	0.0139709
712.828	0.0136967
712.906	0.0138029
712.984	0.0137896
713.062	0.0136236
713.140	0.0135301
713.218	0.0135918
713.296	0.0134357
713.374	0.0134400
713.453	0.0133183
713.531	0.0133666
713.609	0.0133329
713.687	0.0133711
713.765	0.0131857
713.843	0.0133099
713.921	0.0132696
713.999	0.0133353
714.078	0.0135043
714.156	0.0134921
714.234	0.0135120
714.312	0.0134270
714.390	0.0134772
714.468	0.0135015
714.546	0.0135573
714.624	0.0135673
714.703	0.0136219
714.781	0.0136708
714.859	0.0137622
714.937	0.0136494
715.015	0.0137742
715.093	0.0138140
715.171	0.0138317
715.249	0.0138192
715.328	0.0137393
715.406	0.0138898
715.484	0.0138715
715.562	0.0138380
715.640	0.0137910
715.718	0.0139301
715.796	0.0137413
715.874	0.0137662
715.953	0.0138543
716.031	0.0138008
716.109	0.0138401
716.187	0.0136597
716.265	0.0135323
716.343	0.0136633
716.421	0.0137009
716.499	0.0134523
716.578	0.0135051
716.656	0.0136200
716.734	0.0134545
716.812	0.0133612
716.890	0.0135290
716.968	0.0132872
717.046	0.0132554
717.124	0.0131427
717.203	0.0131912
717.281	0.0131602
717.359	0.0132086
717.437	0.0131334
717.515	0.0131889
717.593	0.0131630
717.671	0.0131901
717.749	0.0131767
717.828	0.0132932
717.906	0.0134462
717.984	0.0135516
718.062	0.0135204
718.140	0.0137162
718.218	0.0136738
718.296	0.0136916
718.374	0.0137064
718.453	0.0137218
718.531	0.0138329
718.609	0.0137574
718.687	0.0138586
718.765	0.0136692
718.843	0.0137641
718.921	0.0137456
718.999	0.0136668
719.078	0.0136063
719.156	0.0136720
719.234	0.0135687
719.312	0.0135188
719.390	0.0135606
719.468	0.0134101
719.546	0.0134410
719.624	0.0133974
719.703	0.0134057
719.781	0.0133805
719.859	0.0133086
719.937	0.0132360
720.015	0.0133860
720.093	0.0133964
720.171	0.0132929
720.249	0.0132080
720.328	0.0129922
720.406	0.0131322
720.484	0.0132074
720.562	0.0130846
720.640	0.0132557
720.718	0.0132845
720.796	0.0131803
720.874	0.0132825
720.953	0.0133679
721.031	0.0132519
721.109	0.0133783
721.187	0.0135955
721.265	0.0136436
721.343	0.0137638
721.421	0.0138263
721.499	0.0138379
721.578	0.0140009
721.656	0.0139481
721.734	0.0140426
721.812	0.0142618
721.890	0.0142904
721.968	0.0141943
722.046	0.0143180
722.124	0.0142870
722.203	0.0143190
722.281	0.0144038
722.359	0.0142367
722.437	0.0142117
722.515	0.0141936
722.593	0.0142445
722.671	0.0142500
722.749	0.0139619
722.828	0.0140810
722.906	0.0140574
722.984	0.0138264
723.062	0.0138427
723.140	0.0138083
723.218	0.0137910
723.296	0.0139881
723.374	0.0138215
723.453	0.0139120
723.531	0.0137222
723.609	0.0136267
723.687	0.0136396
723.765	0.0136978
723.843	0.0137685
723.921	0.0135916
723.999	0.0135502
724.078	0.0134588
724.156	0.0133997
724.234	0.0134318
724.312	0.0134224
724.390	0.0134642
724.468	0.0132186
724.546	0.0132895
724.624	0.0134316
724.703	0.0133817
724.781	0.0132681
724.859	0.0131656
724.937	0.0131836
725.015	0.0131401
725.093	0.0132281
725.171	0.0132224
725.249	0.0132364
725.328	0.0132722
725.406	0.0133469
725.484	0.0134283
725.562	0.0134454
725.640	0.0134517
725.718	0.0135164
725.796	0.0136443
725.874	0.0135828
725.953	0.0137508
726.031	0.0140044
726.109	0.0137310
726.187	0.0137970
726.265	0.0140405
726.343	0.0140606
726.421	0.0140174
726.499	0.0140328
726.578	0.0141261
726.656	0.0140441
726.734	0.0141132
726.812	0.0141404
726.890	0.0140945
726.968	0.0142559
727.046	0.0141785
727.124	0.0143581
727.203	0.0141782
727.281	0.0143455
727.359	0.0144280
727.437	0.0143133
727.515	0.0143935
727.593	0.0143935
727.671	0.0143066
727.749	0.0144311
727.828	0.0143883
727.906	0.0142632
727.984	0.0141489
728.062	0.0141715
728.140	0.0140999
728.218	0.0140170
728.296	0.0139488
728.374	0.0137676
728.453	0.0136900
728.531	0.0137189
728.609	0.0136514
728.687	0.0135445
728.765	0.0135764
728.843	0.0135971
728.921	0.0135561
728.999	0.0133760
729.078	0.0133392
729.156	0.0134145
729.234	0.0134138
729.312	0.0133183
729.390	0.0133528
729.468	0.0134156
729.546	0.0135033
729.624	0.0133798
729.703	0.0133774
729.781	0.0133649
729.859	0.0133728
729.937	0.0133403
730.015	0.0133781
730.093	0.0134056
730.171	0.0133006
730.249	0.0132833
730.328	0.0132088
730.406	0.0133447
730.484	0.0134363
730.562	0.0133605
730.640	0.0132147
730.718	0.0133200
730.796	0.0134930
730.874	0.0135059
730.953	0.0134221
731.031	0.0135011
731.109	0.0135454
731.187	0.0135535
731.265	0.0137585
731.343	0.0137579
731.421	0.0136886
731.499	0.0137020
731.578	0.0137103
731.656	0.0137783
731.734	0.0136521
731.812	0.0136990
731.890	0.0137421
731.968	0.0137451
732.046	0.0135928
732.124	0.0136655
732.203	0.0135866
732.281	0.0136269
732.359	0.0135153
732.437	0.0134143
732.515	0.0135474
732.593	0.0138007
732.671	0.0135468
732.749	0.0134285
732.828	0.0135381
732.906	0.0135007
732.984	0.0134889
733.062	0.0135400
733.140	0.0135158
733.218	0.0136914
733.296	0.0136510
733.374	0.0136842
733.453	0.0135361
733.531	0.0135989
733.609	0.0136352
733.687	0.0135359
733.765	0.0137628
733.843	0.0136957
733.921	0.0135978
733.999	0.0137046
734.078	0.0137668
734.156	0.0137574
734.234	0.0138446
734.312	0.0138727
734.390	0.0139631
734.468	0.0139029
734.546	0.0139094
734.624	0.0138264
734.703	0.0141016
734.781	0.0140410
734.859	0.0140760
734.937	0.0140507
735.015	0.0141240
735.093	0.0140859
735.171	0.0141196
735.249	0.0140488
735.328	0.0139487
735.406	0.0139591
735.484	0.0141389
735.562	0.0140417
735.640	0.0138461
735.718	0.0138082
735.796	0.0138717
735.874	0.0137293
735.953	0.0135074
736.031	0.0135890
736.109	0.0135962
736.187	0.0135347
736.265	0.0133505
736.343	0.0134031
736.421	0.0133101
736.499	0.0131944
736.578	0.0131991
736.656	0.0132845
736.734	0.0131094
736.812	0.0130681
736.890	0.0131750
736.968	0.0131349
737.046	0.0129379
737.124	0.0131361
737.203	0.0129668
737.281	0.0130849
737.359	0.0131304
737.437	0.0130540
737.515	0.0130487
737.593	0.0131931
737.671	0.0130911
737.749	0.0130760
737.828	0.0133038
737.906	0.0133079
737.984	0.0133421
738.062	0.0133808
738.140	0.0134591
738.218	0.0133723
738.296	0.0135487
738.374	0.0135538
738.453	0.0136051
738.531	0.0137207
738.609	0.0138668
738.687	0.0137523
738.765	0.0138485
738.843	0.0139967
738.921	0.0140229
738.999	0.0140830
739.078	0.0141122
739.156	0.0139251
739.234	0.0141749
739.312	0.0140928
739.390	0.0141216
739.468	0.0141560
739.546	0.0140747
739.624	0.0139807
739.703	0.0139015
739.781	0.0139899
739.859	0.0138810
739.937	0.0137379
740.015	0.0138419
740.093	0.0137032
740.171	0.0135902
740.249	0.0136974
740.328	0.0134420
740.406	0.0135673
740.484	0.0134980
740.562	0.0133469
740.640	0.0133757
740.718	0.0133960
740.796	0.0134573
740.874	0.0134844
740.953	0.0132671
741.031	0.0132558
741.109	0.0132421
741.187	0.0132572
741.265	0.0133768
741.343	0.0133225
741.421	0.0132917
741.499	0.0131758
741.578	0.0132114
741.656	0.0131319
741.734	0.0133280
741.812	0.0132559
741.890	0.0132295
741.968	0.0133430
742.046	0.0132745
742.124	0.0133558
742.203	0.0132932
742.281	0.0132511
742.359	0.0133136
742.437	0.0133953
742.515	0.0134989
742.593	0.0134654
742.671	0.0134987
742.749	0.0135291
742.828	0.0135082
742.906	0.0135699
742.984	0.0135253
743.062	0.0134016
743.140	0.0136450
743.218	0.0136015
743.296	0.0135094
743.374	0.0134721
743.453	0.0134202
743.531	0.0136471
743.609	0.0135365
743.687	0.0133037
743.765	0.0134943
743.843	0.0134372
743.921	0.0134014
743.999	0.0133117
744.078	0.0133619
744.156	0.0134621
744.234	0.0134895
744.312	0.0133723
744.390	0.0132280
744.468	0.0133224
744.546	0.0134677
744.624	0.0134680
744.703	0.0133043
744.781	0.0134586
744.859	0.0135000
744.937	0.0134871
745.015	0.0135295
745.093	0.0135915
745.171	0.0135671
745.249	0.0136817
745.328	0.0137334
745.406	0.0135677
745.484	0.0136768
745.562	0.0136340
745.640	0.0137074
745.718	0.0136459
745.796	0.0136317
745.874	0.0136725
745.953	0.0136009
746.031	0.0137932
746.109	0.0138402
746.187	0.0138995
746.265	0.0138614
746.343	0.0138849
746.421	0.0138660
746.499	0.0138036
746.578	0.0139986
746.656	0.0138918
746.734	0.0138659
746.812	0.0140260
746.890	0.0139697
746.968	0.0138506
747.046	0.0139868
747.124	0.0139485
747.203	0.0138135
747.281	0.0139248
747.359	0.0138826
747.437	0.0137927
747.515	0.0136993
747.593	0.0137296
747.671	0.0136839
747.749	0.0137585
747.828	0.0137379
747.906	0.0136445
747.984	0.0135918
748.062	0.0136597
748.140	0.0136313
748.218	0.0135848
748.296	0.0136832
748.374	0.0137226
748.453	0.0136799
748.531	0.0136071
748.609	0.0136662
748.687	0.0135862
748.765	0.0135866
748.843	0.0136246
748.921	0.0137426
748.999	0.0136552
749.078	0.0137199
749.156	0.0136683
749.234	0.0136410
749.312	0.0137925
749.390	0.0137727
749.468	0.0138604
749.546	0.0138010
749.624	0.0137387
749.703	0.0136941
749.781	0.0138905
749.859	0.0139774
749.937	0.0138067
750.015	0.0138354
750.093	0.0137141
750.171	0.0139365
750.249	0.0138696
750.328	0.0137932
750.406	0.0137585
750.484	0.0138691
750.562	0.0138381
750.640	0.0138490
750.718	0.0138910
750.796	0.0138110
750.874	0.0137253
750.953	0.0137167
751.031	0.0137085
751.109	0.0137228
751.187	0.0137121
751.265	0.0136887
751.343	0.0136558
751.421	0.0135519
751.499	0.0134785
751.578	0.0132940
751.656	0.0135491
751.734	0.0133788
751.812	0.0133967
751.890	0.0133767
751.968	0.0132299
752.046	0.0132246
752.124	0.0135104
752.203	0.0133837
752.281	0.0133467
752.359	0.0133474
752.437	0.0132964
752.515	0.0134818
752.593	0.0134786
752.671	0.0134014
752.749	0.0133868
752.828	0.0133751
752.906	0.0133913
752.984	0.0133937
753.062	0.0136339
753.140	0.0133778
753.218	0.0136198
753.296	0.0136267
753.374	0.0136597
753.453	0.0137080
753.531	0.0137939
753.609	0.0136981
753.687	0.0136091
753.765	0.0137663
753.843	0.0138085
753.921	0.0137510
753.999	0.0137467
754.078	0.0138596
754.156	0.0138486
754.234	0.0139355
754.312	0.0138190
754.390	0.0138627
754.468	0.0140661
754.546	0.0139343
754.624	0.0138341
754.703	0.0138628
754.781	0.0136929
754.859	0.0136446
754.937	0.0136542
755.015	0.0136234
755.093	0.0135538
755.171	0.0135257
755.249	0.0136543
755.328	0.0136277
755.406	0.0135658
755.484	0.0134650
755.562	0.0134344
755.640	0.0134477
755.718	0.0134639
755.796	0.0133838
755.874	0.0133980
755.953	0.0134596
756.031	0.0133684
756.109	0.0134136
756.187	0.0134562
756.265	0.0132526
756.343	0.0133730
756.421	0.0134151
756.499	0.0134767
756.578	0.0133062
756.656	0.0133021
756.734	0.0132899
756.812	0.0133344
756.890	0.0134425
756.968	0.0134974
757.046	0.0135838
757.124	0.0134203
757.203	0.0136808
757.281	0.0136942
757.359	0.0137893
757.437	0.0136322
757.515	0.0137650
757.593	0.0138193
757.671	0.0137923
757.749	0.0138509
757.828	0.0138455
757.906	0.0139802
757.984	0.0137861
758.062	0.0138710
758.140	0.0139178
758.218	0.0138384
758.296	0.0138648
758.374	0.0138432
758.453	0.0137564
758.531	0.0139017
758.609	0.0140882
758.687	0.0140316
758.765	0.0138740
758.843	0.0138512
758.921	0.0137566
758.999	0.0138934
759.078	0.0138440
759.156	0.0137035
759.234	0.0137030
759.312	0.0137424
759.390	0.0136652
759.468	0.0135417
759.546	0.0136366
759.624	0.0135411
759.703	0.0135790
759.781	0.0136949
759.859	0.0135285
759.937	0.0136290
760.015	0.0135429
760.093	0.0135242
760.171	0.0136134
760.249	0.0133863
760.328	0.0134414
760.406	0.0135417
760.484	0.0134306
760.562	0.0135412
760.640	0.0133632
760.718	0.0134501
760.796	0.0134464
760.874	0.0136521
760.953	0.0134207
761.031	0.0135275
761.109	0.0135806
761.187	0.0136810
761.265	0.0136801
761.343	0.0135605
761.421	0.0138384
761.499	0.0137443
761.578	0.0136727
761.656	0.0137943
761.734	0.0136760
761.812	0.0137800
761.890	0.0138269
761.968	0.0138076
762.046	0.0137103
762.124	0.0136549
762.203	0.0138149
762.281	0.0138447
762.359	0.0137485
762.437	0.0137168
762.515	0.0138278
762.593	0.0138976
762.671	0.0138242
762.749	0.0138311
762.828	0.0138677
762.906	0.0140050
762.984	0.0139410
763.062	0.0139349
763.140	0.0138454
763.218	0.0137790
763.296	0.0137098
763.374	0.0136710
763.453	0.0137841
763.531	0.0135933
763.609	0.0135696
763.687	0.0135224
763.765	0.0135712
763.843	0.0135600
763.921	0.0134673
763.999	0.0135031
764.078	0.0134257
764.156	0.0133685
764.234	0.0133914
764.312	0.0134068
764.390	0.0134368
764.468	0.0133757
764.546	0.0133157
764.624	0.0132906
764.703	0.0133214
764.781	0.0132968
764.859	0.0131257
764.937	0.0132887
765.015	0.0135106
765.093	0.0132173
765.171	0.0131791
765.249	0.0130991
765.328	0.0133015
765.406	0.0132963
765.484	0.0131410
765.562	0.0132887
765.640	0.0132894
765.718	0.0133349
765.796	0.0134002
765.874	0.0133221
765.953	0.0131926
766.031	0.0134252
766.109	0.0133858
766.187	0.0133996
766.265	0.0135818
766.343	0.0134640
766.421	0.0134683
766.499	0.0133925
766.578	0.0135013
766.656	0.0134810
766.734	0.0135309
766.812	0.0134942
766.890	0.0136137
766.968	0.0135855
767.046	0.0136431
767.124	0.0134620
767.203	0.0133897
767.281	0.0134458
767.359	0.0134254
767.437	0.0134506
767.515	0.0135555
767.593	0.0133991
767.671	0.0134190
767.749	0.0133134
767.828	0.0134807
767.906	0.0134013
767.984	0.0133549
768.062	0.0134989
768.140	0.0135601
768.218	0.0133736
768.296	0.0133774
768.374	0.0134138
768.453	0.0134470
768.531	0.0134361
768.609	0.0134859
768.687	0.0136209
768.765	0.0135932
768.843	0.0134839
768.921	0.0136135
768.999	0.0136275
769.078	0.0136063
769.156	0.0137408
769.234	0.0137374
769.312	0.0136562
769.390	0.0137318
769.468	0.0137811
769.546	0.0137526
769.624	0.0138768
769.703	0.0139780
769.781	0.0139351
769.859	0.0138545
769.937	0.0138566
770.015	0.0138860
770.093	0.0139416
770.171	0.0136949
770.249	0.0138017
770.328	0.0138657
770.406	0.0139519
770.484	0.0139288
770.562	0.0138943
770.640	0.0138902
770.718	0.0140490
770.796	0.0140241
770.874	0.0139700
770.953	0.0138431
771.031	0.0138345
771.109	0.0138708
771.187	0.0139674
771.265	0.0138727
771.343	0.0138722
771.421	0.0137878
771.499	0.0138428
771.578	0.0137862
771.656	0.0137177
771.734	0.0137897
771.812	0.0136378
771.890	0.0137931
771.968	0.0137431
772.046	0.0136057
772.124	0.0136967
772.203	0.0136352
772.281	0.0136112
772.359	0.0135425
772.437	0.0136118
772.515	0.0136597
772.593	0.0135429
772.671	0.0135400
772.749	0.0135431
772.828	0.0137072
772.906	0.0137202
772.984	0.0135258
773.062	0.0134900
773.140	0.0136561
773.218	0.0136656
773.296	0.0135159
773.374	0.0135282
773.453	0.0135702
773.531	0.0137079
773.609	0.0137014
773.687	0.0136680
773.765	0.0136562
773.843	0.0135925
773.921	0.0138071
773.999	0.0136173
774.078	0.0136139
774.156	0.0135620
774.234	0.0136259
774.312	0.0135957
774.390	0.0135561
774.468	0.0136473
774.546	0.0136544
774.624	0.0136713
774.703	0.0135615
774.781	0.0136536
774.859	0.0136910
774.937	0.0135583
775.015	0.0136776
775.093	0.0137057
775.171	0.0135753
775.249	0.0136053
775.328	0.0137002
775.406	0.0137780
775.484	0.0137612
775.562	0.0137829
775.640	0.0138081
775.718	0.0136495
775.796	0.0137388
775.874	0.0137576
775.953	0.0138635
776.031	0.0136785
776.109	0.0135681
776.187	0.0137878
776.265	0.0138903
776.343	0.0137351
776.421	0.0137868
776.499	0.0137663
776.578	0.0138793
776.656	0.0138274
776.734	0.0138513
776.812	0.0137976
776.890	0.0137946
776.968	0.0138249
777.046	0.0137108
777.124	0.0137846
777.203	0.0137965
777.281	0.0137512
777.359	0.0138014
777.437	0.0138313
777.515	0.0137279
777.593	0.0136755
777.671	0.0136802
777.749	0.0138155
777.828	0.0137183
777.906	0.0135886
777.984	0.0136464
778.062	0.0136375
778.140	0.0137048
778.218	0.0137008
778.296	0.0136207
778.374	0.0136003
778.453	0.0135789
778.531	0.0137009
778.609	0.0136498
778.687	0.0136581
778.765	0.0134903
778.843	0.0135946
778.921	0.0135040
778.999	0.0137420
779.078	0.0136018
779.156	0.0136163
779.234	0.0136500
779.312	0.0135762
779.390	0.0136134
779.468	0.0134641
779.546	0.0135531
779.624	0.0134883
779.703	0.0135896
779.781	0.0136609
779.859	0.0137132
779.937	0.0135909
780.015	0.0136704
780.093	0.0135777
780.171	0.0134097
780.249	0.0134753
780.328	0.0138031
780.406	0.0135915
780.484	0.0136777
780.562	0.0136990
780.640	0.0136474
780.718	0.0135633
780.796	0.0137530
780.874	0.0137954
780.953	0.0136824
781.031	0.0137480
781.109	0.0137684
781.187	0.0137829
781.265	0.0137858
781.343	0.0137812
781.421	0.0138373
781.499	0.0137459
781.578	0.0138316
781.656	0.0139229
781.734	0.0138434
781.812	0.0137602
781.890	0.0138010
781.968	0.0137994
782.046	0.0137268
782.124	0.0138120
782.203	0.0138020
782.281	0.0138320
782.359	0.0139120
782.437	0.0137946
782.515	0.0137027
782.593	0.0138430
782.671	0.0137743
782.749	0.0137855
782.828	0.0137118
782.906	0.0136787
782.984	0.0136783
783.062	0.0137556
783.140	0.0135300
783.218	0.0136657
783.296	0.0136932
783.374	0.0136154
783.453	0.0134735
783.531	0.0134705
783.609	0.0136224
783.687	0.0135301
783.765	0.0135919
783.843	0.0135214
783.921	0.0135845
783.999	0.0133631
784.078	0.0134509
784.156	0.0133232
784.234	0.0133260
784.312	0.0133973
784.390	0.0134103
784.468	0.0133713
784.546	0.0135629
784.624	0.0134087
784.703	0.0135543
784.781	0.0136246
784.859	0.0136368
784.937	0.0136494
785.015	0.0136234
785.093	0.0135503
785.171	0.0135438
785.249	0.0134964
785.328	0.0135180
785.406	0.0133743
785.484	0.0133205
785.562	0.0133764
785.640	0.0135425
785.718	0.0134466
785.796	0.0135939
785.874	0.0135096
785.953	0.0134788
786.031	0.0136023
786.109	0.0136941
786.187	0.0139030
786.265	0.0138233
786.343	0.0137988
786.421	0.0139204
786.499	0.0138303
786.578	0.0139926
786.656	0.0138332
786.734	0.0137079
786.812	0.0138741
786.890	0.0137628
786.968	0.0136889
787.046	0.0138084
787.124	0.0136774
787.203	0.0137465
787.281	0.0138019
787.359	0.0139983
787.437	0.0138780
787.515	0.0138945
787.593	0.0141116
787.671	0.0139777
787.749	0.0139114
787.828	0.0141728
787.906	0.0141016
787.984	0.0139845
788.062	0.0139160
788.140	0.0136815
788.218	0.0138521
788.296	0.0137357
788.374	0.0136929
788.453	0.0135528
788.531	0.0135849
788.609	0.0136420
788.687	0.0135783
788.765	0.0134671
788.843	0.0136880
788.921	0.0136718
788.999	0.0137394
789.078	0.0137565
789.156	0.0137440
789.234	0.0137434
789.312	0.0138753
789.390	0.0137148
789.468	0.0136176
789.546	0.0136419
789.624	0.0135925
789.703	0.0137656
789.781	0.0136184
789.859	0.0136252
789.937	0.0136972
790.015	0.0135957
790.093	0.0137724
790.171	0.0137679
790.249	0.0136863
790.328	0.0134926
790.406	0.0135514
790.484	0.0136958
790.562	0.0135152
790.640	0.0137112
790.718	0.0137327
790.796	0.0138225
790.874	0.0138573
790.953	0.0137163
791.031	0.0137664
791.109	0.0137893
791.187	0.0137730
791.265	0.0136769
791.343	0.0135920
791.421	0.0133737
791.499	0.0133001
791.578	0.0133318
791.656	0.0131506
791.734	0.0131436
791.812	0.0131026
791.890	0.0132034
791.968	0.0132375
792.046	0.0134373
792.124	0.0134361
792.203	0.0135336
792.281	0.0136965
792.359	0.0135892
792.437	0.0135365
792.515	0.0136181
792.593	0.0135323
792.671	0.0133880
792.749	0.0132878
792.828	0.0132731
792.906	0.0132874
792.984	0.0132007
793.062	0.0131695
793.140	0.0132224
793.218	0.0134406
793.296	0.0135254
793.374	0.0135265
793.453	0.0135723
793.531	0.0137939
793.609	0.0138314
793.687	0.0137757
793.765	0.0136625
793.843	0.0137329
793.921	0.0136073
793.999	0.0136017
794.078	0.0135316
794.156	0.0134789
794.234	0.0134440
794.312	0.0133493
794.390	0.0133221
794.468	0.0133396
794.546	0.0132454
794.624	0.0132994
794.703	0.0133060
794.781	0.0134739
794.859	0.0133975
794.937	0.0134749
795.015	0.0135740
795.093	0.0134771
795.171	0.0136479
795.249	0.0137359
795.328	0.0137694
795.406	0.0139845
795.484	0.0139156
795.562	0.0139030
795.640	0.0138982
795.718	0.0138732
795.796	0.0141044
795.874	0.0141823
795.953	0.0140351
796.031	0.0140321
796.109	0.0138943
796.187	0.0137873
796.265	0.0138521
796.343	0.0137866
796.421	0.0136008
796.499	0.0136406
796.578	0.0135809
796.656	0.0135696
796.734	0.0137159
796.812	0.0135536
796.890	0.0134293
796.968	0.0134899
797.046	0.0134788
797.124	0.0135136
797.203	0.0136028
797.281	0.0135275
797.359	0.0135867
797.437	0.0134651
797.515	0.0135143
797.593	0.0134418
797.671	0.0134328
797.749	0.0134325
797.828	0.0134953
797.906	0.0135021
797.984	0.0136598
798.062	0.0137581
798.140	0.0138964
798.218	0.0139280
798.296	0.0139999
798.374	0.0142059
798.453	0.0142109
798.531	0.0141513
798.609	0.0143108
798.687	0.0142168
798.765	0.0142222
798.843	0.0141321
798.921	0.0140276
798.999	0.0140409
799.078	0.0140818
799.156	0.0138721
799.234	0.0138425
799.312	0.0137638
799.390	0.0137977
799.468	0.0137212
799.546	0.0135915
799.624	0.0136150
799.703	0.0134734
799.781	0.0134981
799.859	0.0134346
799.937	0.0134254
800.015	0.0133695
800.093	0.0133530
800.171	0.0133334
800.249	0.0133215
800.328	0.0134618
800.406	0.0134557
800.484	0.0136147
800.562	0.0135237
800.640	0.0136534
800.718	0.0136646
800.796	0.0138597
800.874	0.0139410
800.953	0.0139279
801.031	0.0139358
801.109	0.0141255
801.187	0.0141160
801.265	0.0142659
801.343	0.0143620
801.421	0.0142103
801.499	0.0141079
801.578	0.0141497
801.656	0.0140536
801.734	0.0138382
801.812	0.0138061
801.890	0.0136990
801.968	0.0136562
802.046	0.0136395
802.124	0.0136533
802.203	0.0134787
802.281	0.0134094
802.359	0.0133603
802.437	0.0132907
802.515	0.0132201
802.593	0.0131621
802.671	0.0132185
802.749	0.0132665
802.828	0.0131870
802.906	0.0131866
802.984	0.0133188
803.062	0.0132776
803.140	0.0132925
803.218	0.0133405
803.296	0.0135215
803.374	0.0134453
803.453	0.0134795
803.531	0.0138481
803.609	0.0138595
803.687	0.0139819
803.765	0.0141548
803.843	0.0142543
803.921	0.0141039
803.999	0.0143664
804.078	0.0143423
804.156	0.0144521
804.234	0.0144209
804.312	0.0143567
804.390	0.0143221
804.468	0.0141649
804.546	0.0140778
804.624	0.0139233
804.703	0.0140564
804.781	0.0138643
804.859	0.0138509
804.937	0.0136436
805.015	0.0133413
805.093	0.0133157
805.171	0.0132041
805.249	0.0131892
805.328	0.0129533
805.406	0.0129684
805.484	0.0129658
805.562	0.0128963
805.640	0.0129929
805.718	0.0129325
805.796	0.0131857
805.874	0.0131819
805.953	0.0131593
806.031	0.0134076
806.109	0.0133656
806.187	0.0134553
806.265	0.0136783
806.343	0.0137402
806.421	0.0137606
806.499	0.0140953
806.578	0.0140485
806.656	0.0141158
806.734	0.0141844
806.812	0.0141726
806.890	0.0142233
806.968	0.0140875
807.046	0.0140828
807.124	0.0141378
807.203	0.0141515
807.281	0.0139821
807.359	0.0138089
807.437	0.0137743
807.515	0.0136349
807.593	0.0136665
807.671	0.0134472
807.749	0.0133937
807.828	0.0134244
807.906	0.0132097
807.984	0.0130892
808.062	0.0130385
808.140	0.0130766
808.218	0.0130122
808.296	0.0129926
808.374	0.0130386
808.453	0.0129973
808.531	0.0129360
808.609	0.0129693
808.687	0.0130563
808.765	0.0130711
808.843	0.0131132
808.921	0.0130837
808.999	0.0135033
809.078	0.0136359
809.156	0.0136131
809.234	0.0137840
809.312	0.0138593
809.390	0.0139478
809.468	0.0140153
809.546	0.0141978
809.624	0.0141936
809.703	0.0140899
809.781	0.0141820
809.859	0.0141309
809.937	0.0141146
810.015	0.0141853
810.093	0.0141386
810.171	0.0140176
810.249	0.0139952
810.328	0.0139510
810.406	0.0139499
810.484	0.0137518
810.562	0.0137949
810.640	0.0135504
810.718	0.0135062
810.796	0.0134731
810.874	0.0134184
810.953	0.0133015
811.031	0.0132323
811.109	0.0131087
811.187	0.0129494
811.265	0.0129513
811.343	0.0127887
811.421	0.0129456
811.499	0.0127782
811.578	0.0127576
811.656	0.0128834
811.734	0.0130132
811.812	0.0128900
811.890	0.0131005
811.968	0.0131313
812.046	0.0132989
812.124	0.0135435
812.203	0.0133573
812.281	0.0136788
812.359	0.0136857
812.437	0.0136208
812.515	0.0137106
812.593	0.0139887
812.671	0.0139987
812.749	0.0139822
812.828	0.0140075
812.906	0.0139575
812.984	0.0137798
813.062	0.0138876
813.140	0.0138421
813.218	0.0137301
813.296	0.0137965
813.374	0.0136021
813.453	0.0135642
813.531	0.0135190
813.609	0.0133961
813.687	0.0135380
813.765	0.0134665
813.843	0.0135548
813.921	0.0135049
813.999	0.0136095
814.078	0.0136619
814.156	0.0136057
814.234	0.0136111
814.312	0.0136225
814.390	0.0136151
814.468	0.0137020
814.546	0.0135468
814.624	0.0135872
814.703	0.0135892
814.781	0.0135472
814.859	0.0134834
814.937	0.0135001
815.015	0.0135633
815.093	0.0133607
815.171	0.0135786
815.249	0.0136991
815.328	0.0135352
815.406	0.0135799
815.484	0.0137283
815.562	0.0138084
815.640	0.0139074
815.718	0.0137078
815.796	0.0137922
815.874	0.0138241
815.953	0.0139457
816.031	0.0138880
816.109	0.0138479
816.187	0.0138103
816.265	0.0138618
816.343	0.0138012
816.421	0.0137769
816.499	0.0138558
816.578	0.0136622
816.656	0.0136444
816.734	0.0137994
816.812	0.0136198
816.890	0.0136428
816.968	0.0136372
817.046	0.0135604
817.124	0.0136804
817.203	0.0136810
817.281	0.0135844
817.359	0.0136174
817.437	0.0136472
817.515	0.0136875
817.593	0.0138016
817.671	0.0137435
817.749	0.0138027
817.828	0.0139359
817.906	0.0140446
817.984	0.0141045
818.062	0.0140519
818.140	0.0140487
818.218	0.0141142
818.296	0.0140731
818.374	0.0141597
818.453	0.0140859
818.531	0.0140883
818.609	0.0139058
818.687	0.0140635
818.765	0.0139892
818.843	0.0139648
818.921	0.0138331
818.999	0.0136590
819.078	0.0138078
819.156	0.0136854
819.234	0.0136774
819.312	0.0136113
819.390	0.0135983
819.468	0.0135997
819.546	0.0135423
819.624	0.0135974
819.703	0.0136787
819.781	0.0136118
819.859	0.0137373
819.937	0.0135936
820.015	0.0135748
820.093	0.0136621
820.171	0.0137302
820.249	0.0136777
820.328	0.0136349
820.406	0.0137447
820.484	0.0137925
820.562	0.0136631
820.640	0.0136755
820.718	0.0138274
820.796	0.0138336
820.874	0.0137707
820.953	0.0137399
821.031	0.0138438
821.109	0.0137003
821.187	0.0137916
821.265	0.0136845
821.343	0.0138285
821.421	0.0137106
821.499	0.0136705
821.578	0.0138530
821.656	0.0137167
821.734	0.0137344
821.812	0.0136938
821.890	0.0137141
821.968	0.0137253
822.046	0.0137210
822.124	0.0136312
822.203	0.0135503
822.281	0.0134959
822.359	0.0134917
822.437	0.0135439
822.515	0.0135474
822.593	0.0135235
822.671	0.0133999
822.749	0.0134904
822.828	0.0134744
822.906	0.0135962
822.984	0.0135805
823.062	0.0137601
823.140	0.0136781
823.218	0.0138694
823.296	0.0139005
823.374	0.0137871
823.453	0.0138435
823.531	0.0139575
823.609	0.0139492
823.687	0.0137993
823.765	0.0136649
823.843	0.0137933
823.921	0.0138243
823.999	0.0136620
824.078	0.0137627
824.156	0.0136555
824.234	0.0135926
824.312	0.0136121
824.390	0.0134325
824.468	0.0135825
824.546	0.0136649
824.624	0.0135986
824.703	0.0135732
824.781	0.0135624
824.859	0.0134980
824.937	0.0135867
825.015	0.0135814
825.093	0.0135566
825.171	0.0136131
825.249	0.0136317
825.328	0.0136380
825.406	0.0136319
825.484	0.0135632
825.562	0.0136503
825.640	0.0135723
825.718	0.0135302
825.796	0.0135759
825.874	0.0137705
825.953	0.0138495
826.031	0.0135226
826.109	0.0136346
826.187	0.0137959
826.265	0.0136575
826.343	0.0136419
826.421	0.0135589
826.499	0.0134981
826.578	0.0134753
826.656	0.0133850
826.734	0.0134348
826.812	0.0133214
826.890	0.0134476
826.968	0.0134356
827.046	0.0133691
827.124	0.0135202
827.203	0.0135699
827.281	0.0135448
827.359	0.0135231
827.437	0.0137915
827.515	0.0137544
827.593	0.0138457
827.671	0.0139548
827.749	0.0139464
827.828	0.0140187
827.906	0.0139722
827.984	0.0139307
828.062	0.0139021
828.140	0.0139626
828.218	0.0136769
828.296	0.0137590
828.374	0.0136662
828.453	0.0136559
828.531	0.0136071
828.609	0.0135725
828.687	0.0135831
828.765	0.0134341
828.843	0.0133713
828.921	0.0133826
828.999	0.0134756
829.078	0.0133473
829.156	0.0134724
829.234	0.0134299
829.312	0.0134392
829.390	0.0133949
829.468	0.0134547
829.546	0.0134256
829.624	0.0134106
829.703	0.0135146
829.781	0.0134778
829.859	0.0134904
829.937	0.0136393
830.015	0.0135871
830.093	0.0137092
830.171	0.0136740
830.249	0.0136794
830.328	0.0136570
830.406	0.0137309
830.484	0.0138152
830.562	0.0138058
830.640	0.0137589
830.718	0.0136095
830.796	0.0136391
830.874	0.0138374
830.953	0.0138625
831.031	0.0136971
831.109	0.0137716
831.187	0.0137169
831.265	0.0136982
831.343	0.0137949
831.421	0.0138731
831.499	0.0137952
831.578	0.0138484
831.656	0.0139213
831.734	0.0138707
831.812	0.0138390
831.890	0.0138572
831.968	0.0139684
832.046	0.0141269
832.124	0.0140322
832.203	0.0137839
832.281	0.0139529
832.359	0.0140247
832.437	0.0140265
832.515	0.0139625
832.593	0.0137766
832.671	0.0139429
832.749	0.0138815
832.828	0.0137553
832.906	0.0138171
832.984	0.0137105
833.062	0.0137737
833.140	0.0137397
833.218	0.0136933
833.296	0.0136326
833.374	0.0135768
833.453	0.0134856
833.531	0.0135523
833.609	0.0134829
833.687	0.0134628
833.765	0.0135677
833.843	0.0136032
833.921	0.0134736
833.999	0.0133940
834.078	0.0134745
834.156	0.0134839
834.234	0.0135403
834.312	0.0135637
834.390	0.0136275
834.468	0.0135207
834.546	0.0136112
834.624	0.0136595
834.703	0.0137279
834.781	0.0135134
834.859	0.0137968
834.937	0.0136079
835.015	0.0136308
835.093	0.0135768
835.171	0.0135280
835.249	0.0136180
835.328	0.0134464
835.406	0.0134200
835.484	0.0134123
835.562	0.0134653
835.640	0.0135280
835.718	0.0134592
835.796	0.0134654
835.874	0.0134142
835.953	0.0134434
836.031	0.0134023
836.109	0.0136160
836.187	0.0136927
836.265	0.0135855
836.343	0.0136103
836.421	0.0135397
836.499	0.0137879
836.578	0.0136513
836.656	0.0135466
836.734	0.0137260
836.812	0.0137190
836.890	0.0136884
836.968	0.0135728
837.046	0.0134885
837.124	0.0136365
837.203	0.0137215
837.281	0.0135034
837.359	0.0135991
837.437	0.0136715
837.515	0.0136050
837.593	0.0137640
837.671	0.0135927
837.749	0.0136277
837.828	0.0136566
837.906	0.0137528
837.984	0.0136285
838.062	0.0135668
838.140	0.0134653
838.218	0.0135714
838.296	0.0136036
838.374	0.0135438
838.453	0.0134610
838.531	0.0134732
838.609	0.0132682
838.687	0.0133355
838.765	0.0133182
838.843	0.0135077
838.921	0.0135212
838.999	0.0135712
839.078	0.0135887
839.156	0.0134985
839.234	0.0135169
839.312	0.0135580
839.390	0.0136268
839.468	0.0135938
839.546	0.0135621
839.624	0.0136610
839.703	0.0136541
839.781	0.0136549
839.859	0.0137016
839.937	0.0135809
840.015	0.0134704
840.093	0.0135246
840.171	0.0136722
840.249	0.0136459
840.328	0.0135132
840.406	0.0136517
840.484	0.0136302
840.562	0.0136545
840.640	0.0134988
840.718	0.0136309
840.796	0.0134428
840.874	0.0137373
840.953	0.0137450
841.031	0.0137695
841.109	0.0138079
841.187	0.0136847
841.265	0.0137794
841.343	0.0136925
841.421	0.0138244
841.499	0.0138598
841.578	0.0136967
841.656	0.0136415
841.734	0.0136799
841.812	0.0137896
841.890	0.0136738
841.968	0.0136198
842.046	0.0135402
842.124	0.0136283
842.203	0.0135350
842.281	0.0135625
842.359	0.0136945
842.437	0.0135510
842.515	0.0135632
842.593	0.0137137
842.671	0.0136842
842.749	0.0137964
842.828	0.0137199
842.906	0.0138043
842.984	0.0139770
843.062	0.0138465
843.140	0.0138297
843.218	0.0139905
843.296	0.0140620
843.374	0.0138179
843.453	0.0139658
843.531	0.0139591
843.609	0.0137933
843.687	0.0138061
843.765	0.0138654
843.843	0.0137770
843.921	0.0138127
843.999	0.0136430
844.078	0.0137651
844.156	0.0136363
844.234	0.0137231
844.312	0.0137373
844.390	0.0136536
844.468	0.0137761
844.546	0.0136916
844.624	0.0137239
844.703	0.0136145
844.781	0.0135841
844.859	0.0136109
844.937	0.0137543
845.015	0.0136504
845.093	0.0136832
845.171	0.0136430
845.249	0.0135864
845.328	0.0134389
845.406	0.0135574
845.484	0.0135457
845.562	0.0134936
845.640	0.0134217
845.718	0.0136623
845.796	0.0135369
845.874	0.0134586
845.953	0.0135600
846.031	0.0135863
846.109	0.0135405
846.187	0.0135524
846.265	0.0135207
846.343	0.0136505
846.421	0.0135715
846.499	0.0135910
846.578	0.0135153
846.656	0.0135236
846.734	0.0135261
846.812	0.0135988
846.890	0.0133990
846.968	0.0134061
847.046	0.0133523
847.124	0.0133479
847.203	0.0133810
847.281	0.0134000
847.359	0.0133407
847.437	0.0132532
847.515	0.0133144
847.593	0.0132504
847.671	0.0135688
847.749	0.0134235
847.828	0.0134862
847.906	0.0136405
847.984	0.0138559
848.062	0.0137305
848.140	0.0138237
848.218	0.0138660
848.296	0.0139696
848.374	0.0137681
848.453	0.0139545
848.531	0.0138923
848.609	0.0138979
848.687	0.0139098
848.765	0.0136662
848.843	0.0138413
848.921	0.0138567
848.999	0.0137027
849.078	0.0137817
849.156	0.0135942
849.234	0.0137090
849.312	0.0138514
849.390	0.0137626
849.468	0.0137209
849.546	0.0137506
849.624	0.0137447
849.703	0.0137834
849.781	0.0138853
849.859	0.0139068
849.937	0.0138625
850.015	0.0136885
850.093	0.0136903
850.171	0.0137552
850.249	0.0138306
850.328	0.0137218
850.406	0.0137285
850.484	0.0136613
850.562	0.0135414
850.640	0.0134871
850.718	0.0135991
850.796	0.0136110
850.874	0.0135276
850.953	0.0134455
851.031	0.0134129
851.109	0.0134386
851.187	0.0134965
851.265	0.0136131
851.343	0.0135914
851.421	0.0136662
851.499	0.0134647
851.578	0.0135918
851.656	0.0135307
851.734	0.0135675
851.812	0.0135557
851.890	0.0136730
851.968	0.0136449
852.046	0.0135775
852.124	0.0136975
852.203	0.0137403
852.281	0.0136859
852.359	0.0136638
852.437	0.0136943
852.515	0.0136538
852.593	0.0137835
852.671	0.0138379
852.749	0.0136973
852.828	0.0137642
852.906	0.0139139
852.984	0.0138525
853.062	0.0139977
853.140	0.0140147
853.218	0.0138612
853.296	0.0137672
853.374	0.0137822
853.453	0.0138880
853.531	0.0139357
853.609	0.0138471
853.687	0.0137466
853.765	0.0136859
853.843	0.0137249
853.921	0.0137245
853.999	0.0135545
854.078	0.0134050
854.156	0.0135213
854.234	0.0134408
854.312	0.0134979
854.390	0.0135200
854.468	0.0135293
854.546	0.0134702
854.624	0.0134840
854.703	0.0134371
854.781	0.0135096
854.859	0.0135288
854.937	0.0134148
855.015	0.0134472
855.093	0.0135352
855.171	0.0136573
855.249	0.0135506
855.328	0.0137350
855.406	0.0135653
855.484	0.0136494
855.562	0.0136688
855.640	0.0137098
855.718	0.0135930
855.796	0.0135420
855.874	0.0137867
855.953	0.0136967
856.031	0.0136052
856.109	0.0137198
856.187	0.0136889
856.265	0.0137572
856.343	0.0138698
856.421	0.0137620
856.499	0.0138522
856.578	0.0139782
856.656	0.0139844
856.734	0.0139334
856.812	0.0138528
856.890	0.0139013
856.968	0.0138672
857.046	0.0138756
857.124	0.0139046
857.203	0.0139668
857.281	0.0138734
857.359	0.0136481
857.437	0.0137817
857.515	0.0137351
857.593	0.0136925
857.671	0.0136437
857.749	0.0135197
857.828	0.0136362
857.906	0.0136987
857.984	0.0136193
858.062	0.0135732
858.140	0.0136401
858.218	0.0136575
858.296	0.0136492
858.374	0.0136253
858.453	0.0136392
858.531	0.0136316
858.609	0.0136638
858.687	0.0137630
858.765	0.0138487
858.843	0.0137659
858.921	0.0135597
858.999	0.0135506
859.078	0.0135393
859.156	0.0134729
859.234	0.0136385
859.312	0.0136652
859.390	0.0135318
859.468	0.0135995
859.546	0.0135455
859.624	0.0135593
859.703	0.0136498
859.781	0.0136208
859.859	0.0135030
859.937	0.0135851
860.015	0.0136131
860.093	0.0137251
860.171	0.0135812
860.249	0.0138246
860.328	0.0136980
860.406	0.0137637
860.484	0.0137481
860.562	0.0137170
860.640	0.0137095
860.718	0.0137379
860.796	0.0138613
860.874	0.0136817
860.953	0.0138442
861.031	0.0139438
861.109	0.0137103
861.187	0.0137630
861.265	0.0140303
861.343	0.0137466
861.421	0.0138376
861.499	0.0137694
861.578	0.0136856
861.656	0.0138483
861.734	0.0136020
861.812	0.0136695
861.890	0.0136922
861.968	0.0136989
862.046	0.0135729
862.124	0.0135912
862.203	0.0136738
862.281	0.0134422
862.359	0.0134985
862.437	0.0136308
862.515	0.0134688
862.593	0.0135122
862.671	0.0135172
862.749	0.0134476
862.828	0.0135697
862.906	0.0135439
862.984	0.0135229
863.062	0.0134523
863.140	0.0134396
863.218	0.0135956
863.296	0.0135968
863.374	0.0135428
863.453	0.0134613
863.531	0.0137164
863.609	0.0136298
863.687	0.0136714
863.765	0.0135747
863.843	0.0136816
863.921	0.0135460
863.999	0.0136195
864.078	0.0137323
864.156	0.0136467
864.234	0.0136842
864.312	0.0136856
864.390	0.0135195
864.468	0.0137347
864.546	0.0137072
864.624	0.0137251
864.703	0.0138428
864.781	0.0136989
864.859	0.0137775
864.937	0.0138023
865.015	0.0138342
865.093	0.0138892
865.171	0.0139130
865.249	0.0139994
865.328	0.0139445
865.406	0.0138453
865.484	0.0139255
865.562	0.0139997
865.640	0.0139028
865.718	0.0137702
865.796	0.0138074
865.874	0.0137502
865.953	0.0137978
866.031	0.0137978
866.109	0.0137795
866.187	0.0138071
866.265	0.0137146
866.343	0.0137708
866.421	0.0136487
866.499	0.0136558
866.578	0.0137075
866.656	0.0137419
866.734	0.0137962
866.812	0.0135754
866.890	0.0135974
866.968	0.0136514
867.046	0.0135336
867.124	0.0136810
867.203	0.0138292
867.281	0.0135336
867.359	0.0137728
867.437	0.0137494
867.515	0.0136649
867.593	0.0135508
867.671	0.0136314
867.749	0.0136214
867.828	0.0136947
867.906	0.0137772
867.984	0.0138615
868.062	0.0137583
868.140	0.0137657
868.218	0.0138542
868.296	0.0138539
868.374	0.0139072
868.453	0.0140062
868.531	0.0139761
868.609	0.0140338
868.687	0.0140591
868.765	0.0140662
868.843	0.0140018
868.921	0.0140453
868.999	0.0140030
869.078	0.0140283
869.156	0.0138963
869.234	0.0140310
869.312	0.0139280
869.390	0.0137955
869.468	0.0138792
869.546	0.0138064
869.624	0.0135226
869.703	0.0136317
869.781	0.0137636
869.859	0.0136588
869.937	0.0137855
870.015	0.0137106
870.093	0.0136456
870.171	0.0135203
870.249	0.0135895
870.328	0.0136250
870.406	0.0136475
870.484	0.0136468
870.562	0.0135323
870.640	0.0136345
870.718	0.0136010
870.796	0.0134653
870.874	0.0135999
870.953	0.0134888
871.031	0.0134698
871.109	0.0135583
871.187	0.0135067
871.265	0.0133708
871.343	0.0133556
871.421	0.0135620
871.499	0.0135292
871.578	0.0133251
871.656	0.0135170
871.734	0.0135345
871.812	0.0134491
871.890	0.0133743
871.968	0.0134698
872.046	0.0135959
872.124	0.0135044
872.203	0.0135601
872.281	0.0134814
872.359	0.0134045
872.437	0.0134550
872.515	0.0134990
872.593	0.0135841
872.671	0.0135886
872.749	0.0134781
872.828	0.0136056
872.906	0.0137057
872.984	0.0134845
873.062	0.0133213
873.140	0.0134470
873.218	0.0134246
873.296	0.0134760
873.374	0.0134650
873.453	0.0134220
873.531	0.0134576
873.609	0.0134470
873.687	0.0134751
873.765	0.0136134
873.843	0.0134870
873.921	0.0134347
873.999	0.0134992
874.078	0.0135042
874.156	0.0136200
874.234	0.0133804
874.312	0.0134444
874.390	0.0134426
874.468	0.0134768
874.546	0.0134616
874.624	0.0133157
874.703	0.0133803
874.781	0.0133881
874.859	0.0133806
874.937	0.0133891
875.015	0.0134167
875.093	0.0134704
875.171	0.0134192
875.249	0.0134720
875.328	0.0135077
875.406	0.0132940
875.484	0.0134410
875.562	0.0135049
875.640	0.0134802
875.718	0.0135067
875.796	0.0135379
875.874	0.0135374
875.953	0.0136708
876.031	0.0135792
876.109	0.0136516
876.187	0.0136197
876.265	0.0136306
876.343	0.0136749
876.421	0.0136801
876.499	0.0135555
876.578	0.0137579
876.656	0.0135914
876.734	0.0137868
876.812	0.0137908
876.890	0.0137207
876.968	0.0136617
877.046	0.0136720
877.124	0.0136359
877.203	0.0137413
877.281	0.0137978
877.359	0.0138568
877.437	0.0137831
877.515	0.0137397
877.593	0.0137990
877.671	0.0138497
877.749	0.0138689
877.828	0.0138109
877.906	0.0138975
877.984	0.0139241
878.062	0.0136481
878.140	0.0137149
878.218	0.0137461
878.296	0.0137451
878.374	0.0137375
878.453	0.0137252
878.531	0.0136088
878.609	0.0137038
878.687	0.0137290
878.765	0.0135835
878.843	0.0136178
878.921	0.0135995
878.999	0.0135731
879.078	0.0134959
879.156	0.0136050
879.234	0.0137392
879.312	0.0134805
879.390	0.0135275
879.468	0.0135535
879.546	0.0135132
879.624	0.0134080
879.703	0.0134447
879.781	0.0135149
879.859	0.0134230
879.937	0.0134475
880.015	0.0134081
880.093	0.0133897
880.171	0.0135483
880.249	0.0134173
880.328	0.0135828
880.406	0.0136919
880.484	0.0136710
880.562	0.0136390
880.640	0.0137605
880.718	0.0137927
880.796	0.0138293
880.874	0.0136827
880.953	0.0137965
881.031	0.0139134
881.109	0.0138645
881.187	0.0138929
881.265	0.0138589
881.343	0.0138296
881.421	0.0139240
881.499	0.0139056
881.578	0.0139301
881.656	0.0137782
881.734	0.0139710
881.812	0.0137496
881.890	0.0136905
881.968	0.0137610
882.046	0.0138317
882.124	0.0138165
882.203	0.0137578
882.281	0.0136684
882.359	0.0137959
882.437	0.0137009
882.515	0.0136929
882.593	0.0136504
882.671	0.0137218
882.749	0.0135625
882.828	0.0136082
882.906	0.0136942
882.984	0.0137417
883.062	0.0136026
883.140	0.0136951
883.218	0.0135603
883.296	0.0136406
883.374	0.0136709
883.453	0.0137495
883.531	0.0136908
883.609	0.0136871
883.687	0.0136485
883.765	0.0136249
883.843	0.0136789
883.921	0.0136968
883.999	0.0136613
884.078	0.0135490
884.156	0.0137231
884.234	0.0137710
884.312	0.0137501
884.390	0.0136901
884.468	0.0137804
884.546	0.0137334
884.624	0.0137693
884.703	0.0136983
884.781	0.0135913
884.859	0.0138293
884.937	0.0137128
885.015	0.0137605
885.093	0.0136684
885.171	0.0137862
885.249	0.0136549
885.328	0.0137707
885.406	0.0136251
885.484	0.0136594
885.562	0.0137110
885.640	0.0136344
885.718	0.0136788
885.796	0.0136595
885.874	0.0137070
885.953	0.0136588
886.031	0.0134914
886.109	0.0137708
886.187	0.0138475
886.265	0.0138036
886.343	0.0136710
886.421	0.0135737
886.499	0.0136086
886.578	0.0135411
886.656	0.0135625
886.734	0.0136465
886.812	0.0136935
886.890	0.0136051
886.968	0.0138097
887.046	0.0135303
887.124	0.0135358
887.203	0.0135539
887.281	0.0134865
887.359	0.0137127
887.437	0.0135589
887.515	0.0135707
887.593	0.0134624
887.671	0.0135194
887.749	0.0134328
887.828	0.0133946
887.906	0.0134239
887.984	0.0135513
888.062	0.0134443
888.140	0.0132800
888.218	0.0133081
888.296	0.0134559
888.374	0.0133860
888.453	0.0133382
888.531	0.0133117
888.609	0.0133743
888.687	0.0133086
888.765	0.0134010
888.843	0.0133035
888.921	0.0134465
888.999	0.0133452
889.078	0.0134293
889.156	0.0132068
889.234	0.0135464
889.312	0.0136059
889.390	0.0134116
889.468	0.0133501
889.546	0.0135084
889.624	0.0135019
889.703	0.0133185
889.781	0.0134489
889.859	0.0134647
889.937	0.0133612
890.015	0.0133655
890.093	0.0134171
890.171	0.0134663
890.249	0.0135029
890.328	0.0135533
890.406	0.0135708
890.484	0.0134258
890.562	0.0134941
890.640	0.0136039
890.718	0.0134837
890.796	0.0135561
890.874	0.0136172
890.953	0.0135886
891.031	0.0135845
891.109	0.0136168
891.187	0.0135944
891.265	0.0136534
891.343	0.0135961
891.421	0.0135417
891.499	0.0136793
891.578	0.0137010
891.656	0.0135857
891.734	0.0137280
891.812	0.0137620
891.890	0.0136559
891.968	0.0139031
892.046	0.0138676
892.124	0.0136086
892.203	0.0138542
892.281	0.0138714
892.359	0.0137374
892.437	0.0138786
892.515	0.0137077
892.593	0.0136463
892.671	0.0136436
892.749	0.0138253
892.828	0.0137710
892.906	0.0136597
892.984	0.0136838
893.062	0.0138475
893.140	0.0138483
893.218	0.0136994
893.296	0.0137048
893.374	0.0136192
893.453	0.0137330
893.531	0.0136369
893.609	0.0137460
893.687	0.0136398
893.765	0.0136526
893.843	0.0134353
893.921	0.0135815
893.999	0.0137067
894.078	0.0136906
894.156	0.0136636
894.234	0.0136023
894.312	0.0137087
894.390	0.0136268
894.468	0.0136445
894.546	0.0135920
894.624	0.0136006
894.703	0.0135269
894.781	0.0135338
894.859	0.0135448
894.937	0.0136652
895.015	0.0136063
895.093	0.0136567
895.171	0.0134955
895.249	0.0136974
895.328	0.0135075
895.406	0.0134443
895.484	0.0136607
895.562	0.0135625
895.640	0.0134586
895.718	0.0136520
895.796	0.0134814
895.874	0.0134320
895.953	0.0135600
896.031	0.0135238
896.109	0.0136097
896.187	0.0135207
896.265	0.0134273
896.343	0.0134605
896.421	0.0134807
896.499	0.0134366
896.578	0.0135234
896.656	0.0135017
896.734	0.0134939
896.812	0.0134623
896.890	0.0134665
896.968	0.0135269
897.046	0.0134476
897.124	0.0136095
897.203	0.0135687
897.281	0.0135056
897.359	0.0134853
897.437	0.0135017
897.515	0.0135226
897.593	0.0134373
897.671	0.0134956
897.749	0.0134455
897.828	0.0134791
897.906	0.0133332
897.984	0.0133940
898.062	0.0133735
898.140	0.0134559
898.218	0.0134418
898.296	0.0134026
898.374	0.0134532
898.453	0.0135351
898.531	0.0132828
898.609	0.0134798
898.687	0.0136346
898.765	0.0134734
898.843	0.0134843
898.921	0.0136359
898.999	0.0134676
899.078	0.0134483
899.156	0.0134927
899.234	0.0134308
899.312	0.0134258
899.390	0.0134668
899.468	0.0135324
899.546	0.0135567
899.624	0.0134575
899.703	0.0135650
899.781	0.0135603
899.859	0.0134273
899.937	0.0133448
900.015	0.0135332
900.093	0.0135611
900.171	0.0135716
900.249	0.0135586
900.328	0.0135609
900.406	0.0135576
900.484	0.0135859
900.562	0.0135565
900.640	0.0135378
900.718	0.0135625
900.796	0.0138300
900.874	0.0137321
900.953	0.0136115
901.031	0.0136804
901.109	0.0136200
901.187	0.0136796
901.265	0.0135907
901.343	0.0135719
901.421	0.0137469
901.499	0.0136589
901.578	0.0137607
901.656	0.0136751
901.734	0.0138199
901.812	0.0138300
901.890	0.0137302
901.968	0.0137696
902.046	0.0136683
902.124	0.0136639
902.203	0.0135841
902.281	0.0136690
902.359	0.0137230
902.437	0.0136255
902.515	0.0136898
902.593	0.0136652
902.671	0.0137717
902.749	0.0136490
902.828	0.0137423
902.906	0.0136359
902.984	0.0136617
903.062	0.0136504
903.140	0.0136629
903.218	0.0136485
903.296	0.0136499
903.374	0.0136269
903.453	0.0136279
903.531	0.0137490
903.609	0.0138718
903.687	0.0136215
903.765	0.0137139
903.843	0.0136647
903.921	0.0137078
903.999	0.0136649
904.078	0.0137278
904.156	0.0138062
904.234	0.0137800
904.312	0.0137138
904.390	0.0136557
904.468	0.0136418
904.546	0.0136756
904.624	0.0135776
904.703	0.0136097
904.781	0.0136074
904.859	0.0134595
904.937	0.0135609
905.015	0.0134452
905.093	0.0133932
905.171	0.0134518
905.249	0.0133712
905.328	0.0133569
905.406	0.0133272
905.484	0.0132766
905.562	0.0132977
905.640	0.0135194
905.718	0.0134969
905.796	0.0133709
905.874	0.0133108
905.953	0.0134476
906.031	0.0133482
906.109	0.0134953
906.187	0.0134650
906.265	0.0134514
906.343	0.0134827
906.421	0.0134283
906.499	0.0134751
906.578	0.0134206
906.656	0.0134686
906.734	0.0135249
906.812	0.0134904
906.890	0.0134565
906.968	0.0134922
907.046	0.0133891
907.124	0.0134608
907.203	0.0133924
907.281	0.0132848
907.359	0.0134020
907.437	0.0134611
907.515	0.0135268
907.593	0.0134133
907.671	0.0133392
907.749	0.0134778
907.828	0.0133816
907.906	0.0133074
907.984	0.0134413
908.062	0.0135120
908.140	0.0134823
908.218	0.0133463
908.296	0.0135517
908.374	0.0134470
908.453	0.0134989
908.531	0.0132864
908.609	0.0133477
908.687	0.0133208
908.765	0.0133775
908.843	0.0134439
908.921	0.0135351
908.999	0.0135154
909.078	0.0133243
909.156	0.0135676
909.234	0.0135307
909.312	0.0134947
909.390	0.0136259
909.468	0.0135111
909.546	0.0134175
909.624	0.0135323
909.703	0.0136926
909.781	0.0137149
909.859	0.0136979
909.937	0.0136948
910.015	0.0136853
910.093	0.0137914
910.171	0.0136896
910.249	0.0136791
910.328	0.0138064
910.406	0.0137307
910.484	0.0136432
910.562	0.0136306
910.640	0.0135941
910.718	0.0135439
910.796	0.0137319
910.874	0.0136070
910.953	0.0135269
911.031	0.0136300
911.109	0.0135173
911.187	0.0135826
911.265	0.0135792
911.343	0.0134066
911.421	0.0135113
911.499	0.0136032
911.578	0.0135668
911.656	0.0134937
911.734	0.0133672
911.812	0.0134014
911.890	0.0134799
911.968	0.0133651
912.046	0.0133602
912.124	0.0134397
912.203	0.0133259
912.281	0.0133568
912.359	0.0134245
912.437	0.0132037
912.515	0.0133823
912.593	0.0133590
912.671	0.0133846
912.749	0.0133069
912.828	0.0134291
912.906	0.0132573
912.984	0.0134460
913.062	0.0133726
913.140	0.0133326
913.218	0.0134828
913.296	0.0134467
913.374	0.0135072
913.453	0.0134495
913.531	0.0135715
913.609	0.0135719
913.687	0.0135785
913.765	0.0134924
913.843	0.0134442
913.921	0.0135301
913.999	0.0135707
914.078	0.0137106
914.156	0.0136941
914.234	0.0137399
914.312	0.0136658
914.390	0.0136362
914.468	0.0136613
914.546	0.0138071
914.624	0.0136766
914.703	0.0136668
914.781	0.0137432
914.859	0.0137305
914.937	0.0137131
915.015	0.0137003
915.093	0.0136077
915.171	0.0136875
915.249	0.0136613
915.328	0.0136415
915.406	0.0137254
915.484	0.0137617
915.562	0.0136966
915.640	0.0136812
915.718	0.0136458
915.796	0.0137186
915.874	0.0137168
915.953	0.0136477
916.031	0.0136548
916.109	0.0136165
916.187	0.0137362
916.265	0.0137543
916.343	0.0137152
916.421	0.0136115
916.499	0.0137183
916.578	0.0138010
916.656	0.0136704
916.734	0.0136570
916.812	0.0137360
916.890	0.0137278
916.968	0.0136546
917.046	0.0136708
917.124	0.0137811
917.203	0.0134641
917.281	0.0136545
917.359	0.0136095
917.437	0.0136416
917.515	0.0136459
917.593	0.0135986
917.671	0.0135259
917.749	0.0136827
917.828	0.0136211
917.906	0.0136481
917.984	0.0137130
918.062	0.0136536
918.140	0.0136426
918.218	0.0135843
918.296	0.0135045
918.374	0.0137331
918.453	0.0137260
918.531	0.0136514
918.609	0.0136739
918.687	0.0136578
918.765	0.0136766
918.843	0.0137525
918.921	0.0138564
918.999	0.0137885
919.078	0.0136546
919.156	0.0137089
919.234	0.0137000
919.312	0.0137904
919.390	0.0136542
919.468	0.0137344
919.546	0.0138073
919.624	0.0138613
919.703	0.0136691
919.781	0.0138020
919.859	0.0136521
919.937	0.0136359
