05/08/2022	20:29:02	Ver.	4.1	UNKNOWN
Optical Delay	600.015094	Delta X		0.078125	Sweeps	1	Scan Rate	0/0
Coordinates	Axis 1	NaN	Axis 2	NaN	Axis 3	NaN	Axis 4	NaN	Axis 5	NaN	Axis 6	0.000000
TX Power	0.000000	RX Power	0.000000

600.015	0.0139965
600.093	0.0140317
600.171	0.0140238
600.249	0.0140888
600.328	0.0141991
600.406	0.0139561
600.484	0.0139419
600.562	0.0140652
600.640	0.0139711
600.718	0.0141524
600.796	0.0139620
600.874	0.0138988
600.953	0.0138461
601.031	0.0137926
601.109	0.0138454
601.187	0.0138454
601.265	0.0138789
601.343	0.0139732
601.421	0.0139067
601.499	0.0137728
601.578	0.0138864
601.656	0.0138322
601.734	0.0139529
601.812	0.0140367
601.890	0.0138243
601.968	0.0138317
602.046	0.0139727
602.124	0.0139047
602.203	0.0137923
602.281	0.0138912
602.359	0.0138003
602.437	0.0138076
602.515	0.0136813
602.593	0.0136370
602.671	0.0137225
602.749	0.0134576
602.828	0.0134154
602.906	0.0135039
602.984	0.0134412
603.062	0.0134956
603.140	0.0136604
603.218	0.0136768
603.296	0.0135082
603.374	0.0135930
603.453	0.0136033
603.531	0.0136410
603.609	0.0138115
603.687	0.0136568
603.765	0.0136308
603.843	0.0136703
603.921	0.0138769
603.999	0.0138383
604.078	0.0137545
604.156	0.0136463
604.234	0.0135619
604.312	0.0136314
604.390	0.0136076
604.468	0.0135939
604.546	0.0136828
604.624	0.0136127
604.703	0.0136985
604.781	0.0136685
604.859	0.0136478
604.937	0.0136990
605.015	0.0137000
605.093	0.0138091
605.171	0.0138649
605.249	0.0137379
605.328	0.0138503
605.406	0.0138332
605.484	0.0138150
605.562	0.0138608
605.640	0.0138586
605.718	0.0137474
605.796	0.0137965
605.874	0.0139944
605.953	0.0140158
606.031	0.0138680
606.109	0.0138544
606.187	0.0138805
606.265	0.0140228
606.343	0.0139374
606.421	0.0138669
606.499	0.0139359
606.578	0.0138227
606.656	0.0140022
606.734	0.0140240
606.812	0.0139234
606.890	0.0139511
606.968	0.0140327
607.046	0.0141679
607.124	0.0138851
607.203	0.0140040
607.281	0.0140319
607.359	0.0141498
607.437	0.0141351
607.515	0.0139484
607.593	0.0137803
607.671	0.0139552
607.749	0.0139404
607.828	0.0139497
607.906	0.0138823
607.984	0.0138795
608.062	0.0140025
608.140	0.0139641
608.218	0.0140157
608.296	0.0138422
608.374	0.0138895
608.453	0.0139612
608.531	0.0138457
608.609	0.0139668
608.687	0.0138358
608.765	0.0139453
608.843	0.0141174
608.921	0.0140636
608.999	0.0139702
609.078	0.0140291
609.156	0.0139273
609.234	0.0138695
609.312	0.0139223
609.390	0.0140056
609.468	0.0139350
609.546	0.0138500
609.624	0.0138290
609.703	0.0138042
609.781	0.0138467
609.859	0.0138022
609.937	0.0138403
610.015	0.0138816
610.093	0.0139298
610.171	0.0139423
610.249	0.0140508
610.328	0.0139384
610.406	0.0138593
610.484	0.0139989
610.562	0.0138882
610.640	0.0140567
610.718	0.0140417
610.796	0.0139642
610.874	0.0140482
610.953	0.0140848
611.031	0.0140678
611.109	0.0140155
611.187	0.0141372
611.265	0.0139641
611.343	0.0139618
611.421	0.0140699
611.499	0.0139761
611.578	0.0140739
611.656	0.0140046
611.734	0.0139913
611.812	0.0139727
611.890	0.0138762
611.968	0.0139032
612.046	0.0138695
612.124	0.0137550
612.203	0.0139295
612.281	0.0138777
612.359	0.0138005
612.437	0.0137281
612.515	0.0138663
612.593	0.0139012
612.671	0.0136626
612.749	0.0136777
612.828	0.0139409
612.906	0.0137815
612.984	0.0139123
613.062	0.0139423
613.140	0.0139097
613.218	0.0138499
613.296	0.0139045
613.374	0.0139611
613.453	0.0141191
613.531	0.0141702
613.609	0.0140926
613.687	0.0141232
613.765	0.0140033
613.843	0.0139653
613.921	0.0140924
613.999	0.0140010
614.078	0.0140600
614.156	0.0138503
614.234	0.0139814
614.312	0.0140515
614.390	0.0138423
614.468	0.0138431
614.546	0.0137927
614.624	0.0137668
614.703	0.0137489
614.781	0.0138686
614.859	0.0137467
614.937	0.0137263
615.015	0.0136753
615.093	0.0136552
615.171	0.0136876
615.249	0.0137572
615.328	0.0137103
615.406	0.0137867
615.484	0.0137918
615.562	0.0138280
615.640	0.0138107
615.718	0.0137868
615.796	0.0138408
615.874	0.0137465
615.953	0.0137930
616.031	0.0138007
616.109	0.0138593
616.187	0.0138367
616.265	0.0138197
616.343	0.0136167
616.421	0.0137549
616.499	0.0138858
616.578	0.0136790
616.656	0.0136559
616.734	0.0136548
616.812	0.0137763
616.890	0.0135949
616.968	0.0137896
617.046	0.0136699
617.124	0.0137280
617.203	0.0137839
617.281	0.0136356
617.359	0.0135294
617.437	0.0137144
617.515	0.0136111
617.593	0.0134832
617.671	0.0136408
617.749	0.0136664
617.828	0.0136304
617.906	0.0138154
617.984	0.0136877
618.062	0.0135818
618.140	0.0137649
618.218	0.0137519
618.296	0.0136111
618.374	0.0136928
618.453	0.0136923
618.531	0.0136459
618.609	0.0136779
618.687	0.0137170
618.765	0.0137856
618.843	0.0136839
618.921	0.0139099
618.999	0.0140044
619.078	0.0139478
619.156	0.0137610
619.234	0.0137314
619.312	0.0137841
619.390	0.0138602
619.468	0.0137711
619.546	0.0137804
619.624	0.0137239
619.703	0.0136639
619.781	0.0136089
619.859	0.0136382
619.937	0.0136713
620.015	0.0137392
620.093	0.0137350
620.171	0.0135435
620.249	0.0134881
620.328	0.0135858
620.406	0.0135391
620.484	0.0133844
620.562	0.0135914
620.640	0.0135459
620.718	0.0135027
620.796	0.0134234
620.874	0.0133375
620.953	0.0133204
621.031	0.0134909
621.109	0.0135259
621.187	0.0134686
621.265	0.0134717
621.343	0.0135496
621.421	0.0135877
621.499	0.0135655
621.578	0.0136581
621.656	0.0136565
621.734	0.0135656
621.812	0.0137077
621.890	0.0137296
621.968	0.0137106
622.046	0.0138298
622.124	0.0137258
622.203	0.0137614
622.281	0.0137952
622.359	0.0138364
622.437	0.0136123
622.515	0.0135726
622.593	0.0135346
622.671	0.0136084
622.749	0.0135081
622.828	0.0135355
622.906	0.0134660
622.984	0.0135040
623.062	0.0135186
623.140	0.0134214
623.218	0.0136053
623.296	0.0134946
623.374	0.0135604
623.453	0.0136163
623.531	0.0136440
623.609	0.0136350
623.687	0.0137946
623.765	0.0137086
623.843	0.0138061
623.921	0.0137465
623.999	0.0138229
624.078	0.0137173
624.156	0.0139043
624.234	0.0139808
624.312	0.0139246
624.390	0.0139619
624.468	0.0140920
624.546	0.0140336
624.624	0.0140916
624.703	0.0140456
624.781	0.0139434
624.859	0.0140720
624.937	0.0141424
625.015	0.0141367
625.093	0.0141531
625.171	0.0140315
625.249	0.0141192
625.328	0.0142693
625.406	0.0141988
625.484	0.0141145
625.562	0.0141943
625.640	0.0140204
625.718	0.0139903
625.796	0.0139828
625.874	0.0142089
625.953	0.0140427
626.031	0.0138238
626.109	0.0139627
626.187	0.0139017
626.265	0.0139264
626.343	0.0138809
626.421	0.0139589
626.499	0.0138933
626.578	0.0139658
626.656	0.0139498
626.734	0.0139063
626.812	0.0139228
626.890	0.0140248
626.968	0.0139928
627.046	0.0141572
627.124	0.0141241
627.203	0.0140169
627.281	0.0140803
627.359	0.0139349
627.437	0.0139914
627.515	0.0141364
627.593	0.0141099
627.671	0.0139536
627.749	0.0139085
627.828	0.0138334
627.906	0.0138536
627.984	0.0138365
628.062	0.0138280
628.140	0.0137762
628.218	0.0139046
628.296	0.0138515
628.374	0.0138332
628.453	0.0138494
628.531	0.0138097
628.609	0.0136629
628.687	0.0137360
628.765	0.0138673
628.843	0.0139165
628.921	0.0139497
628.999	0.0140227
629.078	0.0140131
629.156	0.0139502
629.234	0.0139991
629.312	0.0139381
629.390	0.0139423
629.468	0.0141324
629.546	0.0139309
629.624	0.0139494
629.703	0.0140642
629.781	0.0140642
629.859	0.0139967
629.937	0.0137707
630.015	0.0138989
630.093	0.0138519
630.171	0.0138489
630.249	0.0137819
630.328	0.0136350
630.406	0.0136333
630.484	0.0136205
630.562	0.0135574
630.640	0.0135902
630.718	0.0135860
630.796	0.0135511
630.874	0.0135110
630.953	0.0133460
631.031	0.0134174
631.109	0.0132739
631.187	0.0134135
631.265	0.0135314
631.343	0.0136135
631.421	0.0134722
631.499	0.0134818
631.578	0.0135130
631.656	0.0134724
631.734	0.0135643
631.812	0.0135089
631.890	0.0134448
631.968	0.0135798
632.046	0.0136539
632.124	0.0136536
632.203	0.0137077
632.281	0.0137966
632.359	0.0137206
632.437	0.0137415
632.515	0.0136125
632.593	0.0137256
632.671	0.0136785
632.749	0.0136546
632.828	0.0138192
632.906	0.0137479
632.984	0.0134924
633.062	0.0135702
633.140	0.0135606
633.218	0.0135151
633.296	0.0134972
633.374	0.0135309
633.453	0.0135184
633.531	0.0134293
633.609	0.0133827
633.687	0.0133968
633.765	0.0133935
633.843	0.0135466
633.921	0.0134245
633.999	0.0135146
634.078	0.0134159
634.156	0.0134220
634.234	0.0135998
634.312	0.0136091
634.390	0.0136587
634.468	0.0138121
634.546	0.0135667
634.624	0.0137259
634.703	0.0137679
634.781	0.0138428
634.859	0.0139225
634.937	0.0138136
635.015	0.0137708
635.093	0.0138494
635.171	0.0138493
635.249	0.0138860
635.328	0.0137630
635.406	0.0138295
635.484	0.0136877
635.562	0.0137437
635.640	0.0137051
635.718	0.0136942
635.796	0.0136974
635.874	0.0137475
635.953	0.0137540
636.031	0.0136542
636.109	0.0136855
636.187	0.0136417
636.265	0.0135558
636.343	0.0136518
636.421	0.0136539
636.499	0.0136951
636.578	0.0135348
636.656	0.0135783
636.734	0.0137167
636.812	0.0135282
636.890	0.0134612
636.968	0.0136137
637.046	0.0136043
637.124	0.0137617
637.203	0.0138197
637.281	0.0135583
637.359	0.0135510
637.437	0.0136558
637.515	0.0136208
637.593	0.0136968
637.671	0.0137524
637.749	0.0135633
637.828	0.0136202
637.906	0.0136171
637.984	0.0135124
638.062	0.0134731
638.140	0.0135698
638.218	0.0136591
638.296	0.0135381
638.374	0.0135741
638.453	0.0135220
638.531	0.0134454
638.609	0.0135333
638.687	0.0134360
638.765	0.0135210
638.843	0.0134250
638.921	0.0136296
638.999	0.0136173
639.078	0.0135174
639.156	0.0136227
639.234	0.0137503
639.312	0.0138736
639.390	0.0136292
639.468	0.0135781
639.546	0.0137174
639.624	0.0137151
639.703	0.0137167
639.781	0.0137826
639.859	0.0138881
639.937	0.0136901
640.015	0.0136407
640.093	0.0137726
640.171	0.0138916
640.249	0.0139651
640.328	0.0138817
640.406	0.0139046
640.484	0.0137637
640.562	0.0138857
640.640	0.0138504
640.718	0.0137624
640.796	0.0139125
640.874	0.0138628
640.953	0.0137843
641.031	0.0137223
641.109	0.0136822
641.187	0.0136114
641.265	0.0136042
641.343	0.0136581
641.421	0.0135567
641.499	0.0136362
641.578	0.0136843
641.656	0.0135970
641.734	0.0137057
641.812	0.0136669
641.890	0.0137336
641.968	0.0139091
642.046	0.0138504
642.124	0.0139116
642.203	0.0140497
642.281	0.0140443
642.359	0.0139024
642.437	0.0141043
642.515	0.0140248
642.593	0.0140214
642.671	0.0141435
642.749	0.0139861
642.828	0.0138214
642.906	0.0139674
642.984	0.0138811
643.062	0.0137527
643.140	0.0137427
643.218	0.0137106
643.296	0.0136623
643.374	0.0134673
643.453	0.0133826
643.531	0.0132804
643.609	0.0130080
643.687	0.0131351
643.765	0.0130623
643.843	0.0130187
643.921	0.0127119
643.999	0.0128973
644.078	0.0126570
644.156	0.0128139
644.234	0.0128720
644.312	0.0128542
644.390	0.0130917
644.468	0.0131570
644.546	0.0131855
644.624	0.0133418
644.703	0.0134206
644.781	0.0134828
644.859	0.0137274
644.937	0.0137917
645.015	0.0138817
645.093	0.0139985
645.171	0.0140265
645.249	0.0140644
645.328	0.0141018
645.406	0.0141614
645.484	0.0141947
645.562	0.0142259
645.640	0.0143292
645.718	0.0141637
645.796	0.0142129
645.874	0.0141959
645.953	0.0141582
646.031	0.0139727
646.109	0.0138528
646.187	0.0137830
646.265	0.0135864
646.343	0.0134988
646.421	0.0133352
646.499	0.0133272
646.578	0.0131120
646.656	0.0128988
646.734	0.0127290
646.812	0.0128284
646.890	0.0127311
646.968	0.0126976
647.046	0.0127076
647.124	0.0125480
647.203	0.0125883
647.281	0.0126617
647.359	0.0127116
647.437	0.0128268
647.515	0.0128049
647.593	0.0130056
647.671	0.0131079
647.749	0.0132123
647.828	0.0134600
647.906	0.0136084
647.984	0.0136517
648.062	0.0137341
648.140	0.0141069
648.218	0.0143079
648.296	0.0143902
648.374	0.0144253
648.453	0.0146601
648.531	0.0148756
648.609	0.0149509
648.687	0.0149163
648.765	0.0150068
648.843	0.0149030
648.921	0.0149358
648.999	0.0148061
649.078	0.0148473
649.156	0.0147134
649.234	0.0145737
649.312	0.0145691
649.390	0.0145219
649.468	0.0141589
649.546	0.0140897
649.624	0.0140142
649.703	0.0137426
649.781	0.0135777
649.859	0.0134435
649.937	0.0132167
650.015	0.0130472
650.093	0.0131659
650.171	0.0129150
650.249	0.0127486
650.328	0.0129141
650.406	0.0128610
650.484	0.0127322
650.562	0.0127724
650.640	0.0127925
650.718	0.0128088
650.796	0.0129034
650.874	0.0130842
650.953	0.0131127
651.031	0.0131784
651.109	0.0133255
651.187	0.0132394
651.265	0.0134281
651.343	0.0135818
651.421	0.0136897
651.499	0.0138287
651.578	0.0138848
651.656	0.0137186
651.734	0.0139529
651.812	0.0140038
651.890	0.0138668
651.968	0.0141061
652.046	0.0142421
652.124	0.0143123
652.203	0.0143172
652.281	0.0143064
652.359	0.0144810
652.437	0.0145163
652.515	0.0144286
652.593	0.0144336
652.671	0.0143114
652.749	0.0143974
652.828	0.0143153
652.906	0.0141133
652.984	0.0140308
653.062	0.0140968
653.140	0.0140416
653.218	0.0140646
653.296	0.0140000
653.374	0.0139211
653.453	0.0141056
653.531	0.0142667
653.609	0.0139792
653.687	0.0139957
653.765	0.0140549
653.843	0.0141174
653.921	0.0140332
653.999	0.0139900
654.078	0.0140070
654.156	0.0137827
654.234	0.0138406
654.312	0.0140036
654.390	0.0137956
654.468	0.0137194
654.546	0.0136353
654.624	0.0137086
654.703	0.0136588
654.781	0.0135020
654.859	0.0133185
654.937	0.0133278
655.015	0.0133009
655.093	0.0133076
655.171	0.0131956
655.249	0.0129895
655.328	0.0129551
655.406	0.0129211
655.484	0.0128644
655.562	0.0127527
655.640	0.0129346
655.718	0.0129050
655.796	0.0128167
655.874	0.0129389
655.953	0.0130522
656.031	0.0131519
656.109	0.0133072
656.187	0.0133762
656.265	0.0135217
656.343	0.0137349
656.421	0.0139805
656.499	0.0141138
656.578	0.0142397
656.656	0.0145600
656.734	0.0146956
656.812	0.0148677
656.890	0.0152520
656.968	0.0153294
657.046	0.0156015
657.124	0.0157370
657.203	0.0157704
657.281	0.0158157
657.359	0.0158490
657.437	0.0158952
657.515	0.0158888
657.593	0.0157885
657.671	0.0157045
657.749	0.0155989
657.828	0.0152439
657.906	0.0151512
657.984	0.0148581
658.062	0.0146276
658.140	0.0143234
658.218	0.0141196
658.296	0.0138306
658.374	0.0135431
658.453	0.0132774
658.531	0.0129906
658.609	0.0126601
658.687	0.0123757
658.765	0.0122526
658.843	0.0121858
658.921	0.0120568
658.999	0.0118155
659.078	0.0117746
659.156	0.0118420
659.234	0.0118301
659.312	0.0117273
659.390	0.0117989
659.468	0.0119245
659.546	0.0120057
659.624	0.0119691
659.703	0.0122180
659.781	0.0122481
659.859	0.0122282
659.937	0.0126046
660.015	0.0126633
660.093	0.0127608
660.171	0.0129736
660.249	0.0130560
660.328	0.0132834
660.406	0.0135811
660.484	0.0137798
660.562	0.0139114
660.640	0.0141735
660.718	0.0144351
660.796	0.0146321
660.874	0.0146539
660.953	0.0148143
661.031	0.0149085
661.109	0.0150702
661.187	0.0151722
661.265	0.0152238
661.343	0.0152620
661.421	0.0151852
661.499	0.0152219
661.578	0.0152136
661.656	0.0152465
661.734	0.0150271
661.812	0.0150329
661.890	0.0149570
661.968	0.0148162
662.046	0.0147531
662.124	0.0147083
662.203	0.0142628
662.281	0.0142690
662.359	0.0141347
662.437	0.0139790
662.515	0.0136587
662.593	0.0135873
662.671	0.0134858
662.749	0.0132539
662.828	0.0130557
662.906	0.0129490
662.984	0.0128838
663.062	0.0128078
663.140	0.0125439
663.218	0.0123433
663.296	0.0123662
663.374	0.0123691
663.453	0.0122892
663.531	0.0121704
663.609	0.0120148
663.687	0.0120878
663.765	0.0120941
663.843	0.0122034
663.921	0.0122362
663.999	0.0121777
664.078	0.0123664
664.156	0.0125534
664.234	0.0126371
664.312	0.0129288
664.390	0.0130783
664.468	0.0133356
664.546	0.0135275
664.624	0.0138384
664.703	0.0140497
664.781	0.0142152
664.859	0.0144924
664.937	0.0148483
665.015	0.0149678
665.093	0.0151108
665.171	0.0153447
665.249	0.0156139
665.328	0.0155159
665.406	0.0157137
665.484	0.0156855
665.562	0.0154996
665.640	0.0155774
665.718	0.0156520
665.796	0.0154659
665.874	0.0154101
665.953	0.0153221
666.031	0.0151171
666.109	0.0148865
666.187	0.0147301
666.265	0.0145467
666.343	0.0143690
666.421	0.0144051
666.499	0.0141103
666.578	0.0139098
666.656	0.0136549
666.734	0.0135465
666.812	0.0133729
666.890	0.0131866
666.968	0.0131236
667.046	0.0129209
667.124	0.0128703
667.203	0.0126550
667.281	0.0128163
667.359	0.0128853
667.437	0.0126993
667.515	0.0126297
667.593	0.0125974
667.671	0.0126604
667.749	0.0127728
667.828	0.0127307
667.906	0.0127750
667.984	0.0127354
668.062	0.0126817
668.140	0.0129350
668.218	0.0130396
668.296	0.0130014
668.374	0.0130762
668.453	0.0130728
668.531	0.0131380
668.609	0.0131991
668.687	0.0133304
668.765	0.0134128
668.843	0.0132691
668.921	0.0133511
668.999	0.0134223
669.078	0.0134193
669.156	0.0135362
669.234	0.0136225
669.312	0.0135519
669.390	0.0135865
669.468	0.0136266
669.546	0.0136729
669.624	0.0138313
669.703	0.0139240
669.781	0.0138692
669.859	0.0138462
669.937	0.0140257
670.015	0.0139961
670.093	0.0143047
670.171	0.0141896
670.249	0.0141723
670.328	0.0142628
670.406	0.0144875
670.484	0.0143172
670.562	0.0143186
670.640	0.0145417
670.718	0.0144111
670.796	0.0144608
670.874	0.0143835
670.953	0.0143468
671.031	0.0140897
671.109	0.0141983
671.187	0.0140196
671.265	0.0139702
671.343	0.0138477
671.421	0.0138541
671.499	0.0137287
671.578	0.0136075
671.656	0.0134680
671.734	0.0135358
671.812	0.0133742
671.890	0.0131439
671.968	0.0132732
672.046	0.0132402
672.124	0.0132098
672.203	0.0129874
672.281	0.0131763
672.359	0.0132789
672.437	0.0134090
672.515	0.0134708
672.593	0.0135395
672.671	0.0134544
672.749	0.0134063
672.828	0.0135495
672.906	0.0138306
672.984	0.0139262
673.062	0.0139633
673.140	0.0140151
673.218	0.0141144
673.296	0.0142647
673.374	0.0143197
673.453	0.0144579
673.531	0.0142937
673.609	0.0144483
673.687	0.0145628
673.765	0.0145016
673.843	0.0145088
673.921	0.0144016
673.999	0.0145112
674.078	0.0145390
674.156	0.0144721
674.234	0.0144670
674.312	0.0144843
674.390	0.0142857
674.468	0.0142923
674.546	0.0141257
674.624	0.0140845
674.703	0.0139766
674.781	0.0141041
674.859	0.0141212
674.937	0.0140068
675.015	0.0139718
675.093	0.0140361
675.171	0.0139158
675.249	0.0138552
675.328	0.0139495
675.406	0.0139169
675.484	0.0139280
675.562	0.0138869
675.640	0.0140250
675.718	0.0140926
675.796	0.0140742
675.874	0.0141420
675.953	0.0141410
676.031	0.0141504
676.109	0.0142693
676.187	0.0143046
676.265	0.0143352
676.343	0.0143279
676.421	0.0142494
676.499	0.0143222
676.578	0.0143513
676.656	0.0143784
676.734	0.0145470
676.812	0.0142532
676.890	0.0142454
676.968	0.0142566
677.046	0.0141235
677.124	0.0141356
677.203	0.0138277
677.281	0.0139466
677.359	0.0140776
677.437	0.0138303
677.515	0.0135825
677.593	0.0135328
677.671	0.0135540
677.749	0.0134345
677.828	0.0133300
677.906	0.0133810
677.984	0.0132704
678.062	0.0133541
678.140	0.0132706
678.218	0.0133539
678.296	0.0134045
678.374	0.0134443
678.453	0.0134264
678.531	0.0134626
678.609	0.0135348
678.687	0.0135134
678.765	0.0135410
678.843	0.0136610
678.921	0.0136735
678.999	0.0135661
679.078	0.0136250
679.156	0.0136221
679.234	0.0135137
679.312	0.0135801
679.390	0.0135574
679.468	0.0138117
679.546	0.0136745
679.624	0.0137516
679.703	0.0137471
679.781	0.0136497
679.859	0.0136501
679.937	0.0135658
680.015	0.0136250
680.093	0.0135507
680.171	0.0133791
680.249	0.0136064
680.328	0.0133797
680.406	0.0134031
680.484	0.0134999
680.562	0.0133932
680.640	0.0134736
680.718	0.0135592
680.796	0.0135728
680.874	0.0136116
680.953	0.0136600
681.031	0.0136992
681.109	0.0138091
681.187	0.0139542
681.265	0.0140604
681.343	0.0141290
681.421	0.0141606
681.499	0.0142905
681.578	0.0142340
681.656	0.0143910
681.734	0.0142513
681.812	0.0143643
681.890	0.0144798
681.968	0.0145762
682.046	0.0143632
682.124	0.0142960
682.203	0.0142313
682.281	0.0141830
682.359	0.0141485
682.437	0.0142887
682.515	0.0140903
682.593	0.0141708
682.671	0.0140888
682.749	0.0140392
682.828	0.0141004
682.906	0.0141463
682.984	0.0140384
683.062	0.0139930
683.140	0.0140623
683.218	0.0140867
683.296	0.0141210
683.374	0.0139272
683.453	0.0140137
683.531	0.0141186
683.609	0.0139902
683.687	0.0141080
683.765	0.0140178
683.843	0.0140955
683.921	0.0141329
683.999	0.0140653
684.078	0.0140408
684.156	0.0141257
684.234	0.0140475
684.312	0.0139883
684.390	0.0139473
684.468	0.0140094
684.546	0.0140116
684.624	0.0140185
684.703	0.0138382
684.781	0.0140224
684.859	0.0140939
684.937	0.0139085
685.015	0.0140833
685.093	0.0140642
685.171	0.0140370
685.249	0.0142106
685.328	0.0142080
685.406	0.0142117
685.484	0.0142146
685.562	0.0142152
685.640	0.0143166
685.718	0.0142583
685.796	0.0144115
685.874	0.0145264
685.953	0.0143755
686.031	0.0143023
686.109	0.0144469
686.187	0.0145054
686.265	0.0145283
686.343	0.0145284
686.421	0.0143637
686.499	0.0143407
686.578	0.0143688
686.656	0.0142638
686.734	0.0141331
686.812	0.0140518
686.890	0.0139919
686.968	0.0139385
687.046	0.0137741
687.124	0.0136418
687.203	0.0136333
687.281	0.0136213
687.359	0.0134040
687.437	0.0133547
687.515	0.0132417
687.593	0.0133546
687.671	0.0132484
687.749	0.0130122
687.828	0.0130910
687.906	0.0132801
687.984	0.0132758
688.062	0.0132722
688.140	0.0132932
688.218	0.0133930
688.296	0.0135600
688.374	0.0135770
688.453	0.0135304
688.531	0.0136990
688.609	0.0137376
688.687	0.0137483
688.765	0.0136530
688.843	0.0137515
688.921	0.0136358
688.999	0.0136523
689.078	0.0137742
689.156	0.0136436
689.234	0.0135706
689.312	0.0138432
689.390	0.0137038
689.468	0.0137885
689.546	0.0138986
689.624	0.0138289
689.703	0.0138638
689.781	0.0138841
689.859	0.0139149
689.937	0.0140299
690.015	0.0140429
690.093	0.0141409
690.171	0.0141543
690.249	0.0143070
690.328	0.0143403
690.406	0.0143918
690.484	0.0142852
690.562	0.0142943
690.640	0.0142818
690.718	0.0142824
690.796	0.0142977
690.874	0.0141665
690.953	0.0140665
691.031	0.0140406
691.109	0.0139997
691.187	0.0139880
691.265	0.0137075
691.343	0.0135576
691.421	0.0137437
691.499	0.0135915
691.578	0.0134743
691.656	0.0133334
691.734	0.0132858
691.812	0.0132503
691.890	0.0129919
691.968	0.0130116
692.046	0.0128577
692.124	0.0129032
692.203	0.0127567
692.281	0.0128712
692.359	0.0127966
692.437	0.0127493
692.515	0.0129345
692.593	0.0128097
692.671	0.0128876
692.749	0.0130746
692.828	0.0131371
692.906	0.0132638
692.984	0.0134718
693.062	0.0136748
693.140	0.0137377
693.218	0.0138634
693.296	0.0139213
693.374	0.0140741
693.453	0.0140933
693.531	0.0141113
693.609	0.0141845
693.687	0.0142663
693.765	0.0141989
693.843	0.0141613
693.921	0.0141794
693.999	0.0141114
694.078	0.0140231
694.156	0.0141775
694.234	0.0142414
694.312	0.0141590
694.390	0.0140301
694.468	0.0141145
694.546	0.0142090
694.624	0.0141211
694.703	0.0140506
694.781	0.0141711
694.859	0.0140723
694.937	0.0139215
695.015	0.0140759
695.093	0.0139867
695.171	0.0139610
695.249	0.0138714
695.328	0.0138761
695.406	0.0140186
695.484	0.0139157
695.562	0.0139001
695.640	0.0138431
695.718	0.0139872
695.796	0.0138255
695.874	0.0138720
695.953	0.0138618
696.031	0.0137270
696.109	0.0137766
696.187	0.0138120
696.265	0.0136966
696.343	0.0138258
696.421	0.0138313
696.499	0.0137505
696.578	0.0138275
696.656	0.0139200
696.734	0.0139554
696.812	0.0139533
696.890	0.0139960
696.968	0.0139045
697.046	0.0139553
697.124	0.0139050
697.203	0.0139374
697.281	0.0139363
697.359	0.0140256
697.437	0.0138272
697.515	0.0139687
697.593	0.0138193
697.671	0.0138412
697.749	0.0137612
697.828	0.0138762
697.906	0.0140219
697.984	0.0140279
698.062	0.0139283
698.140	0.0139539
698.218	0.0140534
698.296	0.0140949
698.374	0.0140053
698.453	0.0141572
698.531	0.0140395
698.609	0.0141997
698.687	0.0142673
698.765	0.0142049
698.843	0.0140813
698.921	0.0141206
698.999	0.0139720
699.078	0.0139413
699.156	0.0139462
699.234	0.0139607
699.312	0.0139949
699.390	0.0138083
699.468	0.0138115
699.546	0.0138374
699.624	0.0138513
699.703	0.0137996
699.781	0.0136886
699.859	0.0138638
699.937	0.0138113
700.015	0.0137160
700.093	0.0137270
700.171	0.0136945
700.249	0.0135320
700.328	0.0137728
700.406	0.0137207
700.484	0.0135896
700.562	0.0136047
700.640	0.0135931
700.718	0.0135837
700.796	0.0136366
700.874	0.0137778
700.953	0.0136549
701.031	0.0137775
701.109	0.0138197
701.187	0.0139962
701.265	0.0140018
701.343	0.0140790
701.421	0.0142329
701.499	0.0141914
701.578	0.0142269
701.656	0.0143914
701.734	0.0144136
701.812	0.0145105
701.890	0.0143595
701.968	0.0144595
702.046	0.0145813
702.124	0.0145854
702.203	0.0144475
702.281	0.0144523
702.359	0.0145571
702.437	0.0144594
702.515	0.0145340
702.593	0.0144275
702.671	0.0144244
702.749	0.0143845
702.828	0.0141822
702.906	0.0140092
702.984	0.0139555
703.062	0.0137363
703.140	0.0137359
703.218	0.0136488
703.296	0.0135207
703.374	0.0132011
703.453	0.0131047
703.531	0.0128917
703.609	0.0129751
703.687	0.0131085
703.765	0.0129598
703.843	0.0127679
703.921	0.0127477
703.999	0.0127325
704.078	0.0129021
704.156	0.0129176
704.234	0.0130151
704.312	0.0129671
704.390	0.0131271
704.468	0.0131932
704.546	0.0132452
704.624	0.0133688
704.703	0.0134138
704.781	0.0135901
704.859	0.0135882
704.937	0.0135844
705.015	0.0136647
705.093	0.0136697
705.171	0.0137415
705.249	0.0138197
705.328	0.0138238
705.406	0.0137206
705.484	0.0137300
705.562	0.0137531
705.640	0.0137819
705.718	0.0137049
705.796	0.0137067
705.874	0.0136230
705.953	0.0136594
706.031	0.0136724
706.109	0.0137569
706.187	0.0137467
706.265	0.0136955
706.343	0.0137392
706.421	0.0138434
706.499	0.0138772
706.578	0.0137772
706.656	0.0138014
706.734	0.0138673
706.812	0.0140634
706.890	0.0139657
706.968	0.0141026
707.046	0.0141454
707.124	0.0142428
707.203	0.0142281
707.281	0.0143047
707.359	0.0142669
707.437	0.0143963
707.515	0.0144124
707.593	0.0145068
707.671	0.0143686
707.749	0.0143871
707.828	0.0144889
707.906	0.0144764
707.984	0.0144058
708.062	0.0143602
708.140	0.0143655
708.218	0.0143927
708.296	0.0144147
708.374	0.0143948
708.453	0.0143452
708.531	0.0141608
708.609	0.0142517
708.687	0.0143439
708.765	0.0143069
708.843	0.0142442
708.921	0.0140874
708.999	0.0140538
709.078	0.0141635
709.156	0.0138517
709.234	0.0138348
709.312	0.0137667
709.390	0.0137273
709.468	0.0137401
709.546	0.0137176
709.624	0.0136935
709.703	0.0136982
709.781	0.0137291
709.859	0.0136372
709.937	0.0137225
710.015	0.0136575
710.093	0.0135778
710.171	0.0136481
710.249	0.0134345
710.328	0.0136200
710.406	0.0136593
710.484	0.0136112
710.562	0.0136546
710.640	0.0136168
710.718	0.0134513
710.796	0.0137841
710.874	0.0136503
710.953	0.0137201
711.031	0.0138626
711.109	0.0138043
711.187	0.0136769
711.265	0.0136474
711.343	0.0137341
711.421	0.0138806
711.499	0.0139468
711.578	0.0138701
711.656	0.0140222
711.734	0.0140539
711.812	0.0138999
711.890	0.0140486
711.968	0.0142822
712.046	0.0142786
712.124	0.0142992
712.203	0.0142902
712.281	0.0143176
712.359	0.0144350
712.437	0.0143552
712.515	0.0143396
712.593	0.0143167
712.671	0.0145071
712.749	0.0142522
712.828	0.0141049
712.906	0.0142136
712.984	0.0140704
713.062	0.0142699
713.140	0.0140660
713.218	0.0138904
713.296	0.0138875
713.374	0.0139034
713.453	0.0138353
713.531	0.0137430
713.609	0.0135380
713.687	0.0135855
713.765	0.0135612
713.843	0.0133769
713.921	0.0134190
713.999	0.0133736
714.078	0.0132082
714.156	0.0132896
714.234	0.0132489
714.312	0.0131960
714.390	0.0130521
714.468	0.0132173
714.546	0.0131484
714.624	0.0132092
714.703	0.0132672
714.781	0.0131383
714.859	0.0132045
714.937	0.0131747
715.015	0.0133430
715.093	0.0134655
715.171	0.0134490
715.249	0.0134484
715.328	0.0136340
715.406	0.0137729
715.484	0.0137222
715.562	0.0140020
715.640	0.0139406
715.718	0.0139705
715.796	0.0140553
715.874	0.0141180
715.953	0.0141674
716.031	0.0142174
716.109	0.0143129
716.187	0.0143651
716.265	0.0143794
716.343	0.0143256
716.421	0.0144128
716.499	0.0144350
716.578	0.0142700
716.656	0.0141902
716.734	0.0141830
716.812	0.0140878
716.890	0.0140628
716.968	0.0139925
717.046	0.0138386
717.124	0.0138793
717.203	0.0136983
717.281	0.0136572
717.359	0.0135347
717.437	0.0135500
717.515	0.0133959
717.593	0.0135120
717.671	0.0135226
717.749	0.0134004
717.828	0.0131830
717.906	0.0133203
717.984	0.0133085
718.062	0.0131464
718.140	0.0132211
718.218	0.0132843
718.296	0.0132178
718.374	0.0132812
718.453	0.0133907
718.531	0.0132330
718.609	0.0132644
718.687	0.0133132
718.765	0.0132214
718.843	0.0132458
718.921	0.0134616
718.999	0.0135042
719.078	0.0134415
719.156	0.0132729
719.234	0.0134135
719.312	0.0133801
719.390	0.0133507
719.468	0.0134922
719.546	0.0133826
719.624	0.0133321
719.703	0.0135088
719.781	0.0134592
719.859	0.0133215
719.937	0.0134763
720.015	0.0134991
720.093	0.0136452
720.171	0.0134659
720.249	0.0134439
720.328	0.0134502
720.406	0.0135577
720.484	0.0134898
720.562	0.0134608
720.640	0.0134793
720.718	0.0133878
720.796	0.0132832
720.874	0.0132661
720.953	0.0133420
721.031	0.0134044
721.109	0.0133079
721.187	0.0133838
721.265	0.0134311
721.343	0.0135140
721.421	0.0136818
721.499	0.0136965
721.578	0.0137302
721.656	0.0137328
721.734	0.0139984
721.812	0.0139919
721.890	0.0140540
721.968	0.0141821
722.046	0.0140719
722.124	0.0141228
722.203	0.0143513
722.281	0.0141820
722.359	0.0139590
722.437	0.0142279
722.515	0.0140432
722.593	0.0139021
722.671	0.0138153
722.749	0.0137982
722.828	0.0138109
722.906	0.0138319
722.984	0.0136879
723.062	0.0136335
723.140	0.0137032
723.218	0.0138004
723.296	0.0137996
723.374	0.0137729
723.453	0.0138798
723.531	0.0138607
723.609	0.0140889
723.687	0.0140341
723.765	0.0140419
723.843	0.0140342
723.921	0.0139313
723.999	0.0138947
724.078	0.0140094
724.156	0.0138041
724.234	0.0138020
724.312	0.0137498
724.390	0.0138616
724.468	0.0137591
724.546	0.0136983
724.624	0.0136680
724.703	0.0136804
724.781	0.0137457
724.859	0.0136084
724.937	0.0136150
725.015	0.0135775
725.093	0.0135470
725.171	0.0136478
725.249	0.0136489
725.328	0.0136993
725.406	0.0136842
725.484	0.0137432
725.562	0.0137433
725.640	0.0136832
725.718	0.0136342
725.796	0.0135945
725.874	0.0137527
725.953	0.0135902
726.031	0.0135563
726.109	0.0134757
726.187	0.0135623
726.265	0.0136850
726.343	0.0137576
726.421	0.0136309
726.499	0.0136248
726.578	0.0137385
726.656	0.0136497
726.734	0.0135402
726.812	0.0137624
726.890	0.0139152
726.968	0.0138335
727.046	0.0137745
727.124	0.0140469
727.203	0.0137936
727.281	0.0138779
727.359	0.0139280
727.437	0.0140068
727.515	0.0138683
727.593	0.0140503
727.671	0.0140633
727.749	0.0140936
727.828	0.0140430
727.906	0.0140453
727.984	0.0139430
728.062	0.0140844
728.140	0.0142336
728.218	0.0143338
728.296	0.0142355
728.374	0.0143103
728.453	0.0142504
728.531	0.0141926
728.609	0.0142466
728.687	0.0142246
728.765	0.0141859
728.843	0.0143362
728.921	0.0141503
728.999	0.0140382
729.078	0.0139603
729.156	0.0141261
729.234	0.0140735
729.312	0.0139025
729.390	0.0138931
729.468	0.0139074
729.546	0.0138467
729.624	0.0137085
729.703	0.0136974
729.781	0.0137913
729.859	0.0138590
729.937	0.0137967
730.015	0.0136723
730.093	0.0136841
730.171	0.0138850
730.249	0.0137225
730.328	0.0136845
730.406	0.0137202
730.484	0.0138043
730.562	0.0137460
730.640	0.0138968
730.718	0.0139189
730.796	0.0138773
730.874	0.0139342
730.953	0.0139490
731.031	0.0137832
731.109	0.0141446
731.187	0.0142021
731.265	0.0139345
731.343	0.0140046
731.421	0.0140016
731.499	0.0139901
731.578	0.0139133
731.656	0.0140061
731.734	0.0140425
731.812	0.0138127
731.890	0.0138022
731.968	0.0138387
732.046	0.0138762
732.124	0.0137789
732.203	0.0137691
732.281	0.0139057
732.359	0.0137589
732.437	0.0136768
732.515	0.0138667
732.593	0.0137646
732.671	0.0139108
732.749	0.0137326
732.828	0.0136900
732.906	0.0137794
732.984	0.0136209
733.062	0.0135583
733.140	0.0135456
733.218	0.0136089
733.296	0.0135040
733.374	0.0136251
733.453	0.0137190
733.531	0.0138306
733.609	0.0140443
733.687	0.0141959
733.765	0.0142460
733.843	0.0143510
733.921	0.0143254
733.999	0.0145293
734.078	0.0145956
734.156	0.0147411
734.234	0.0146522
734.312	0.0145528
734.390	0.0145937
734.468	0.0146732
734.546	0.0145540
734.624	0.0144727
734.703	0.0145242
734.781	0.0143665
734.859	0.0143651
734.937	0.0143349
735.015	0.0142100
735.093	0.0141772
735.171	0.0141960
735.249	0.0140725
735.328	0.0138802
735.406	0.0138171
735.484	0.0138187
735.562	0.0136964
735.640	0.0135048
735.718	0.0135152
735.796	0.0136322
735.874	0.0136258
735.953	0.0134145
736.031	0.0132852
736.109	0.0133681
736.187	0.0133031
736.265	0.0132072
736.343	0.0132224
736.421	0.0132578
736.499	0.0132345
736.578	0.0133326
736.656	0.0131593
736.734	0.0131212
736.812	0.0133105
736.890	0.0132561
736.968	0.0132394
737.046	0.0130315
737.124	0.0130311
737.203	0.0130173
737.281	0.0129843
737.359	0.0132127
737.437	0.0129780
737.515	0.0129699
737.593	0.0130371
737.671	0.0130584
737.749	0.0131821
737.828	0.0132607
737.906	0.0132719
737.984	0.0133862
738.062	0.0135050
738.140	0.0135189
738.218	0.0135201
738.296	0.0135934
738.374	0.0136386
738.453	0.0136018
738.531	0.0136256
738.609	0.0137701
738.687	0.0137409
738.765	0.0138274
738.843	0.0139093
738.921	0.0138770
738.999	0.0137971
739.078	0.0137631
739.156	0.0138045
739.234	0.0137770
739.312	0.0137952
739.390	0.0139253
739.468	0.0138158
739.546	0.0137136
739.624	0.0137453
739.703	0.0136107
739.781	0.0138402
739.859	0.0137009
739.937	0.0136614
740.015	0.0136324
740.093	0.0135780
740.171	0.0134901
740.249	0.0133929
740.328	0.0134130
740.406	0.0135994
740.484	0.0133866
740.562	0.0134789
740.640	0.0135290
740.718	0.0134592
740.796	0.0134628
740.874	0.0134383
740.953	0.0135655
741.031	0.0137479
741.109	0.0136748
741.187	0.0135721
741.265	0.0135993
741.343	0.0136743
741.421	0.0136897
741.499	0.0136633
741.578	0.0137749
741.656	0.0136810
741.734	0.0134914
741.812	0.0136751
741.890	0.0136436
741.968	0.0137688
742.046	0.0137397
742.124	0.0137060
742.203	0.0135630
742.281	0.0137591
742.359	0.0139980
742.437	0.0139191
742.515	0.0136168
742.593	0.0137827
742.671	0.0138020
742.749	0.0136983
742.828	0.0137088
742.906	0.0138590
742.984	0.0138194
743.062	0.0138530
743.140	0.0137305
743.218	0.0137456
743.296	0.0138858
743.374	0.0137910
743.453	0.0136474
743.531	0.0137557
743.609	0.0137115
743.687	0.0137656
743.765	0.0137498
743.843	0.0135543
743.921	0.0136252
743.999	0.0137357
744.078	0.0135870
744.156	0.0137666
744.234	0.0136008
744.312	0.0136735
744.390	0.0136229
744.468	0.0136576
744.546	0.0136513
744.624	0.0135863
744.703	0.0135273
744.781	0.0134840
744.859	0.0136056
744.937	0.0136629
745.015	0.0135404
745.093	0.0135507
745.171	0.0136767
745.249	0.0136251
745.328	0.0135701
745.406	0.0137471
745.484	0.0134528
745.562	0.0135381
745.640	0.0136262
745.718	0.0136549
745.796	0.0135448
745.874	0.0135136
745.953	0.0135850
746.031	0.0136107
746.109	0.0137527
746.187	0.0136237
746.265	0.0136868
746.343	0.0136553
746.421	0.0137429
746.499	0.0140035
746.578	0.0138454
746.656	0.0138919
746.734	0.0139619
746.812	0.0141132
746.890	0.0139702
746.968	0.0138807
747.046	0.0139761
747.124	0.0139148
747.203	0.0138776
747.281	0.0138003
747.359	0.0137526
747.437	0.0137181
747.515	0.0137083
747.593	0.0138020
747.671	0.0137624
747.749	0.0137491
747.828	0.0138264
747.906	0.0137469
747.984	0.0137344
748.062	0.0136562
748.140	0.0137336
748.218	0.0136998
748.296	0.0138375
748.374	0.0138253
748.453	0.0137725
748.531	0.0138842
748.609	0.0139940
748.687	0.0140010
748.765	0.0138367
748.843	0.0138785
748.921	0.0138405
748.999	0.0140145
749.078	0.0140796
749.156	0.0140915
749.234	0.0141331
749.312	0.0141799
749.390	0.0141827
749.468	0.0141180
749.546	0.0142242
749.624	0.0141816
749.703	0.0142273
749.781	0.0140690
749.859	0.0141380
749.937	0.0141703
750.015	0.0141222
750.093	0.0139803
750.171	0.0139539
750.249	0.0139584
750.328	0.0139203
750.406	0.0138918
750.484	0.0138258
750.562	0.0137460
750.640	0.0136312
750.718	0.0136029
750.796	0.0136838
750.874	0.0135239
750.953	0.0135471
751.031	0.0134255
751.109	0.0132441
751.187	0.0132930
751.265	0.0132455
751.343	0.0132570
751.421	0.0132329
751.499	0.0133368
751.578	0.0133334
751.656	0.0133974
751.734	0.0131553
751.812	0.0132984
751.890	0.0133784
751.968	0.0133665
752.046	0.0136201
752.124	0.0135341
752.203	0.0135473
752.281	0.0136852
752.359	0.0136802
752.437	0.0135793
752.515	0.0135536
752.593	0.0135489
752.671	0.0136943
752.749	0.0138156
752.828	0.0138696
752.906	0.0138911
752.984	0.0139431
753.062	0.0140103
753.140	0.0139177
753.218	0.0139202
753.296	0.0141026
753.374	0.0141352
753.453	0.0141219
753.531	0.0140777
753.609	0.0142052
753.687	0.0142463
753.765	0.0141994
753.843	0.0142679
753.921	0.0141589
753.999	0.0143455
754.078	0.0143505
754.156	0.0143097
754.234	0.0142628
754.312	0.0140928
754.390	0.0142512
754.468	0.0142410
754.546	0.0142026
754.624	0.0141114
754.703	0.0140576
754.781	0.0140699
754.859	0.0139052
754.937	0.0140227
755.015	0.0138574
755.093	0.0137997
755.171	0.0139114
755.249	0.0138509
755.328	0.0138168
755.406	0.0136920
755.484	0.0138276
755.562	0.0139286
755.640	0.0140237
755.718	0.0139192
755.796	0.0140672
755.874	0.0140707
755.953	0.0139681
756.031	0.0140353
756.109	0.0139674
756.187	0.0140190
756.265	0.0139471
756.343	0.0140761
756.421	0.0140314
756.499	0.0140205
756.578	0.0139841
756.656	0.0140313
756.734	0.0139526
756.812	0.0139773
756.890	0.0139351
756.968	0.0139398
757.046	0.0140222
757.124	0.0140365
757.203	0.0140937
757.281	0.0141856
757.359	0.0141112
757.437	0.0141341
757.515	0.0141988
757.593	0.0141768
757.671	0.0140393
757.749	0.0140874
757.828	0.0141042
757.906	0.0140331
757.984	0.0140051
758.062	0.0138706
758.140	0.0139185
758.218	0.0137560
758.296	0.0139733
758.374	0.0137607
758.453	0.0136128
758.531	0.0136457
758.609	0.0137534
758.687	0.0135843
758.765	0.0134853
758.843	0.0134769
758.921	0.0135275
758.999	0.0134004
759.078	0.0134362
759.156	0.0136422
759.234	0.0134060
759.312	0.0133033
759.390	0.0133130
759.468	0.0133652
759.546	0.0134370
759.624	0.0135737
759.703	0.0133512
759.781	0.0133323
759.859	0.0132994
759.937	0.0134070
760.015	0.0133583
760.093	0.0132479
760.171	0.0132695
760.249	0.0132930
760.328	0.0132006
760.406	0.0133172
760.484	0.0133131
760.562	0.0132532
760.640	0.0132819
760.718	0.0132807
760.796	0.0134667
760.874	0.0134207
760.953	0.0132944
761.031	0.0133811
761.109	0.0134235
761.187	0.0134920
761.265	0.0134972
761.343	0.0135423
761.421	0.0134687
761.499	0.0136546
761.578	0.0138265
761.656	0.0138308
761.734	0.0139311
761.812	0.0141489
761.890	0.0140192
761.968	0.0140965
762.046	0.0139677
762.124	0.0140240
762.203	0.0140664
762.281	0.0138272
762.359	0.0137696
762.437	0.0135627
762.515	0.0135182
762.593	0.0133820
762.671	0.0132086
762.749	0.0130795
762.828	0.0131512
762.906	0.0131564
762.984	0.0132404
763.062	0.0133178
763.140	0.0132113
763.218	0.0133111
763.296	0.0134991
763.374	0.0136275
763.453	0.0136520
763.531	0.0137904
763.609	0.0139304
763.687	0.0140043
763.765	0.0139421
763.843	0.0139776
763.921	0.0140285
763.999	0.0139430
764.078	0.0140137
764.156	0.0139439
764.234	0.0139571
764.312	0.0139382
764.390	0.0138275
764.468	0.0137524
764.546	0.0135142
764.624	0.0135095
764.703	0.0135830
764.781	0.0134975
764.859	0.0135516
764.937	0.0135314
765.015	0.0134692
765.093	0.0135484
765.171	0.0134831
765.249	0.0135945
765.328	0.0136134
765.406	0.0135831
765.484	0.0136656
765.562	0.0137045
765.640	0.0138116
765.718	0.0136917
765.796	0.0136431
765.874	0.0137830
765.953	0.0136935
766.031	0.0136125
766.109	0.0138969
766.187	0.0138555
766.265	0.0137415
766.343	0.0138637
766.421	0.0139605
766.499	0.0138908
766.578	0.0140176
766.656	0.0140782
766.734	0.0139396
766.812	0.0138623
766.890	0.0138567
766.968	0.0140682
767.046	0.0138435
767.124	0.0137405
767.203	0.0138683
767.281	0.0138165
767.359	0.0135351
767.437	0.0136483
767.515	0.0136125
767.593	0.0135315
767.671	0.0134650
767.749	0.0134525
767.828	0.0135013
767.906	0.0132993
767.984	0.0133868
768.062	0.0133424
768.140	0.0134426
768.218	0.0136343
768.296	0.0135970
768.374	0.0136358
768.453	0.0137701
768.531	0.0137644
768.609	0.0137959
768.687	0.0138244
768.765	0.0139966
768.843	0.0139694
768.921	0.0140082
768.999	0.0138784
769.078	0.0139803
769.156	0.0138677
769.234	0.0138529
769.312	0.0139345
769.390	0.0136935
769.468	0.0135758
769.546	0.0135594
769.624	0.0136108
769.703	0.0134824
769.781	0.0134815
769.859	0.0133333
769.937	0.0132858
770.015	0.0133638
770.093	0.0134237
770.171	0.0134621
770.249	0.0133610
770.328	0.0135102
770.406	0.0134502
770.484	0.0134820
770.562	0.0136507
770.640	0.0136263
770.718	0.0138203
770.796	0.0137970
770.874	0.0139439
770.953	0.0140145
771.031	0.0139736
771.109	0.0139033
771.187	0.0138425
771.265	0.0140759
771.343	0.0139762
771.421	0.0141149
771.499	0.0140186
771.578	0.0139538
771.656	0.0139413
771.734	0.0140182
771.812	0.0139633
771.890	0.0139797
771.968	0.0139636
772.046	0.0138603
772.124	0.0138319
772.203	0.0139021
772.281	0.0139191
772.359	0.0138786
772.437	0.0139709
772.515	0.0139048
772.593	0.0140579
772.671	0.0140442
772.749	0.0140076
772.828	0.0140070
772.906	0.0139577
772.984	0.0141928
773.062	0.0140866
773.140	0.0141227
773.218	0.0141447
773.296	0.0141546
773.374	0.0142909
773.453	0.0141508
773.531	0.0140658
773.609	0.0141071
773.687	0.0142577
773.765	0.0142097
773.843	0.0140460
773.921	0.0140533
773.999	0.0141994
774.078	0.0140951
774.156	0.0141705
774.234	0.0141486
774.312	0.0139666
774.390	0.0141440
774.468	0.0140360
774.546	0.0140701
774.624	0.0140102
774.703	0.0140889
774.781	0.0141349
774.859	0.0141513
774.937	0.0140193
775.015	0.0140250
775.093	0.0139535
775.171	0.0140904
775.249	0.0140938
775.328	0.0140067
775.406	0.0138423
775.484	0.0137857
775.562	0.0138682
775.640	0.0138367
775.718	0.0138789
775.796	0.0138670
775.874	0.0138810
775.953	0.0139931
776.031	0.0138705
776.109	0.0139907
776.187	0.0139409
776.265	0.0139350
776.343	0.0138821
776.421	0.0140462
776.499	0.0139380
776.578	0.0139720
776.656	0.0140685
776.734	0.0139703
776.812	0.0139007
776.890	0.0140410
776.968	0.0141985
777.046	0.0139225
777.124	0.0139180
777.203	0.0138535
777.281	0.0137589
777.359	0.0138013
777.437	0.0139629
777.515	0.0138403
777.593	0.0138226
777.671	0.0136456
777.749	0.0137831
777.828	0.0137190
777.906	0.0137097
777.984	0.0139221
778.062	0.0137183
778.140	0.0136546
778.218	0.0137336
778.296	0.0138251
778.374	0.0138261
778.453	0.0138311
778.531	0.0138499
778.609	0.0138288
778.687	0.0137627
778.765	0.0137857
778.843	0.0139267
778.921	0.0138621
778.999	0.0136143
779.078	0.0138247
779.156	0.0139326
779.234	0.0139161
779.312	0.0136630
779.390	0.0137219
779.468	0.0139445
779.546	0.0137950
779.624	0.0137862
779.703	0.0137731
779.781	0.0137220
779.859	0.0137823
779.937	0.0138290
780.015	0.0137801
780.093	0.0138075
780.171	0.0136673
780.249	0.0136884
780.328	0.0137007
780.406	0.0136964
780.484	0.0136049
780.562	0.0137041
780.640	0.0135700
780.718	0.0135202
780.796	0.0134529
780.874	0.0134828
780.953	0.0134780
781.031	0.0134740
781.109	0.0133744
781.187	0.0135191
781.265	0.0135902
781.343	0.0134579
781.421	0.0135201
781.499	0.0134634
781.578	0.0135673
781.656	0.0136250
781.734	0.0136209
781.812	0.0136292
781.890	0.0137032
781.968	0.0137186
782.046	0.0138705
782.124	0.0137513
782.203	0.0137061
782.281	0.0138790
782.359	0.0139148
782.437	0.0139212
782.515	0.0139761
782.593	0.0137670
782.671	0.0137796
782.749	0.0139434
782.828	0.0138372
782.906	0.0138043
782.984	0.0138290
783.062	0.0135404
783.140	0.0136534
783.218	0.0137655
783.296	0.0136931
783.374	0.0137066
783.453	0.0137140
783.531	0.0136720
783.609	0.0138129
783.687	0.0137427
783.765	0.0136633
783.843	0.0138461
783.921	0.0137468
783.999	0.0137676
784.078	0.0138184
784.156	0.0138272
784.234	0.0137112
784.312	0.0137992
784.390	0.0138139
784.468	0.0136897
784.546	0.0138838
784.624	0.0136728
784.703	0.0137431
784.781	0.0136546
784.859	0.0136382
784.937	0.0137993
785.015	0.0136868
785.093	0.0137197
785.171	0.0139130
785.249	0.0137803
785.328	0.0138136
785.406	0.0138457
785.484	0.0138163
785.562	0.0136868
785.640	0.0136897
785.718	0.0135458
785.796	0.0135287
785.874	0.0134494
785.953	0.0135234
786.031	0.0135185
786.109	0.0135201
786.187	0.0136308
786.265	0.0136915
786.343	0.0137402
786.421	0.0137321
786.499	0.0139277
786.578	0.0138785
786.656	0.0137746
786.734	0.0140102
786.812	0.0139088
786.890	0.0140585
786.968	0.0139646
787.046	0.0140878
787.124	0.0140416
787.203	0.0140692
787.281	0.0140330
787.359	0.0139527
787.437	0.0141515
787.515	0.0140011
787.593	0.0139701
787.671	0.0139681
787.749	0.0139401
787.828	0.0139084
787.906	0.0138839
787.984	0.0137157
788.062	0.0138326
788.140	0.0137856
788.218	0.0137659
788.296	0.0138966
788.374	0.0138127
788.453	0.0138259
788.531	0.0139413
788.609	0.0138562
788.687	0.0137679
788.765	0.0138274
788.843	0.0137215
788.921	0.0136862
788.999	0.0137064
789.078	0.0137077
789.156	0.0138644
789.234	0.0138213
789.312	0.0137138
789.390	0.0138255
789.468	0.0139555
789.546	0.0139295
789.624	0.0141026
789.703	0.0140035
789.781	0.0140012
789.859	0.0139812
789.937	0.0138743
790.015	0.0138321
790.093	0.0139575
790.171	0.0139278
790.249	0.0138362
790.328	0.0137859
790.406	0.0138323
790.484	0.0137089
790.562	0.0137643
790.640	0.0139253
790.718	0.0139523
790.796	0.0139928
790.874	0.0137370
790.953	0.0138614
791.031	0.0139432
791.109	0.0138895
791.187	0.0138554
791.265	0.0139404
791.343	0.0139204
791.421	0.0139376
791.499	0.0139091
791.578	0.0138824
791.656	0.0140632
791.734	0.0139776
791.812	0.0139122
791.890	0.0139761
791.968	0.0137734
792.046	0.0136803
792.124	0.0135977
792.203	0.0135799
792.281	0.0134457
792.359	0.0134519
792.437	0.0133779
792.515	0.0134505
792.593	0.0134610
792.671	0.0134524
792.749	0.0133574
792.828	0.0134103
792.906	0.0134672
792.984	0.0135168
793.062	0.0135041
793.140	0.0135725
793.218	0.0134467
793.296	0.0134438
793.374	0.0132591
793.453	0.0133452
793.531	0.0131561
793.609	0.0131037
793.687	0.0130157
793.765	0.0128663
793.843	0.0127351
793.921	0.0128296
793.999	0.0129230
794.078	0.0130563
794.156	0.0130409
794.234	0.0131533
794.312	0.0134617
794.390	0.0135749
794.468	0.0135551
794.546	0.0137086
794.624	0.0138832
794.703	0.0140079
794.781	0.0140831
794.859	0.0139191
794.937	0.0139846
795.015	0.0138609
795.093	0.0138119
795.171	0.0138223
795.249	0.0137623
795.328	0.0136560
795.406	0.0137056
795.484	0.0137553
795.562	0.0137199
795.640	0.0137603
795.718	0.0136285
795.796	0.0134956
795.874	0.0136378
795.953	0.0137517
796.031	0.0139887
796.109	0.0136774
796.187	0.0137662
796.265	0.0139491
796.343	0.0139622
796.421	0.0140958
796.499	0.0141286
796.578	0.0141400
796.656	0.0142592
796.734	0.0143784
796.812	0.0144547
796.890	0.0143904
796.968	0.0143121
797.046	0.0142937
797.124	0.0142898
797.203	0.0142368
797.281	0.0141223
797.359	0.0141924
797.437	0.0140693
797.515	0.0139359
797.593	0.0139560
797.671	0.0140290
797.749	0.0139569
797.828	0.0140744
797.906	0.0140182
797.984	0.0141834
798.062	0.0139980
798.140	0.0140641
798.218	0.0142050
798.296	0.0142764
798.374	0.0141463
798.453	0.0142027
798.531	0.0142185
798.609	0.0145032
798.687	0.0144353
798.765	0.0144589
798.843	0.0145312
798.921	0.0145932
798.999	0.0145982
799.078	0.0144881
799.156	0.0142781
799.234	0.0143214
799.312	0.0142970
799.390	0.0141159
799.468	0.0140845
799.546	0.0141075
799.624	0.0142368
799.703	0.0141934
799.781	0.0140328
799.859	0.0141248
799.937	0.0143701
800.015	0.0143599
800.093	0.0142916
800.171	0.0143683
800.249	0.0142515
800.328	0.0142576
800.406	0.0140950
800.484	0.0139722
800.562	0.0139178
800.640	0.0138575
800.718	0.0137077
800.796	0.0138351
800.874	0.0136974
800.953	0.0136449
801.031	0.0136962
801.109	0.0135524
801.187	0.0135339
801.265	0.0136137
801.343	0.0136417
801.421	0.0135964
801.499	0.0135161
801.578	0.0136974
801.656	0.0135682
801.734	0.0135786
801.812	0.0135031
801.890	0.0136588
801.968	0.0135779
802.046	0.0137566
802.124	0.0138277
802.203	0.0137096
802.281	0.0137583
802.359	0.0138261
802.437	0.0137996
802.515	0.0138427
802.593	0.0138763
802.671	0.0139392
802.749	0.0138044
802.828	0.0138813
802.906	0.0136659
802.984	0.0136674
803.062	0.0137440
803.140	0.0135170
803.218	0.0134763
803.296	0.0133008
803.374	0.0134217
803.453	0.0131804
803.531	0.0133018
803.609	0.0133113
803.687	0.0133591
803.765	0.0133488
803.843	0.0133220
803.921	0.0130853
803.999	0.0133389
804.078	0.0133717
804.156	0.0135581
804.234	0.0135065
804.312	0.0134734
804.390	0.0135242
804.468	0.0135287
804.546	0.0136307
804.624	0.0136817
804.703	0.0137205
804.781	0.0139385
804.859	0.0139131
804.937	0.0139146
805.015	0.0140763
805.093	0.0138407
805.171	0.0139986
805.249	0.0138490
805.328	0.0139127
805.406	0.0136868
805.484	0.0136164
805.562	0.0137189
805.640	0.0136044
805.718	0.0135677
805.796	0.0135297
805.874	0.0135573
805.953	0.0135481
806.031	0.0136725
806.109	0.0136965
806.187	0.0137495
806.265	0.0137972
806.343	0.0138836
806.421	0.0136578
806.499	0.0137749
806.578	0.0138918
806.656	0.0137261
806.734	0.0137688
806.812	0.0138010
806.890	0.0137571
806.968	0.0137225
807.046	0.0139006
807.124	0.0139133
807.203	0.0136899
807.281	0.0140262
807.359	0.0139691
807.437	0.0141415
807.515	0.0140646
807.593	0.0141721
807.671	0.0143085
807.749	0.0141817
807.828	0.0142761
807.906	0.0143887
807.984	0.0142327
808.062	0.0142271
808.140	0.0141819
808.218	0.0141275
808.296	0.0139525
808.374	0.0138978
808.453	0.0137873
808.531	0.0137162
808.609	0.0138358
808.687	0.0137764
808.765	0.0137060
808.843	0.0136012
808.921	0.0137780
808.999	0.0136736
809.078	0.0138059
809.156	0.0137846
809.234	0.0138594
809.312	0.0138585
809.390	0.0137860
809.468	0.0139243
809.546	0.0140272
809.624	0.0139733
809.703	0.0138707
809.781	0.0139506
809.859	0.0138441
809.937	0.0137975
810.015	0.0140003
810.093	0.0138901
810.171	0.0137582
810.249	0.0137572
810.328	0.0140128
810.406	0.0137854
810.484	0.0137165
810.562	0.0137199
810.640	0.0137910
810.718	0.0136929
810.796	0.0136989
810.874	0.0137587
810.953	0.0136784
811.031	0.0136825
811.109	0.0138577
811.187	0.0138747
811.265	0.0135275
811.343	0.0137589
811.421	0.0138159
811.499	0.0137546
811.578	0.0137541
811.656	0.0135786
811.734	0.0137077
811.812	0.0137589
811.890	0.0137045
811.968	0.0137070
812.046	0.0138033
812.124	0.0136772
812.203	0.0138551
812.281	0.0137819
812.359	0.0139403
812.437	0.0138390
812.515	0.0138638
812.593	0.0140482
812.671	0.0143111
812.749	0.0142032
812.828	0.0140797
812.906	0.0141808
812.984	0.0139806
813.062	0.0139767
813.140	0.0139178
813.218	0.0136869
813.296	0.0136471
813.374	0.0135618
813.453	0.0136942
813.531	0.0135393
813.609	0.0134612
813.687	0.0133883
813.765	0.0135095
813.843	0.0136473
813.921	0.0135128
813.999	0.0136902
814.078	0.0137914
814.156	0.0136704
814.234	0.0138116
814.312	0.0138977
814.390	0.0138776
814.468	0.0138680
814.546	0.0136882
814.624	0.0137470
814.703	0.0137856
814.781	0.0135721
814.859	0.0136409
814.937	0.0138501
815.015	0.0136956
815.093	0.0137687
815.171	0.0137959
815.249	0.0136864
815.328	0.0137594
815.406	0.0137666
815.484	0.0137154
815.562	0.0138293
815.640	0.0139152
815.718	0.0140247
815.796	0.0138026
815.874	0.0138555
815.953	0.0141377
816.031	0.0140210
816.109	0.0138937
816.187	0.0139935
816.265	0.0140135
816.343	0.0141392
816.421	0.0142878
816.499	0.0141216
816.578	0.0140121
816.656	0.0139983
816.734	0.0139243
816.812	0.0139938
816.890	0.0138444
816.968	0.0136932
817.046	0.0134946
817.124	0.0135429
817.203	0.0131913
817.281	0.0133134
817.359	0.0129710
817.437	0.0128987
817.515	0.0129745
817.593	0.0129639
817.671	0.0128725
817.749	0.0129310
817.828	0.0129037
817.906	0.0128885
817.984	0.0131212
818.062	0.0134277
818.140	0.0135210
818.218	0.0136775
818.296	0.0138914
818.374	0.0138543
818.453	0.0139839
818.531	0.0140474
818.609	0.0141611
818.687	0.0140359
818.765	0.0139678
818.843	0.0138671
818.921	0.0138461
818.999	0.0138220
819.078	0.0138351
819.156	0.0136575
819.234	0.0136104
819.312	0.0136477
819.390	0.0136633
819.468	0.0134686
819.546	0.0137040
819.624	0.0135927
819.703	0.0136521
819.781	0.0135812
819.859	0.0136640
819.937	0.0137619
820.015	0.0136913
820.093	0.0137451
820.171	0.0138341
820.249	0.0139217
820.328	0.0139489
820.406	0.0139564
820.484	0.0138427
820.562	0.0137386
820.640	0.0137437
820.718	0.0138226
820.796	0.0139165
820.874	0.0137878
820.953	0.0136286
821.031	0.0134549
821.109	0.0136259
821.187	0.0135429
821.265	0.0134229
821.343	0.0134892
821.421	0.0133758
821.499	0.0132865
821.578	0.0134008
821.656	0.0134743
821.734	0.0133520
821.812	0.0134638
821.890	0.0135017
821.968	0.0135037
822.046	0.0134299
822.124	0.0135543
822.203	0.0134752
822.281	0.0134499
822.359	0.0135571
822.437	0.0135935
822.515	0.0135458
822.593	0.0137006
822.671	0.0136869
822.749	0.0136890
822.828	0.0138409
822.906	0.0138710
822.984	0.0139949
823.062	0.0141769
823.140	0.0140859
823.218	0.0141456
823.296	0.0140815
823.374	0.0142637
823.453	0.0143356
823.531	0.0143002
823.609	0.0142908
823.687	0.0143076
823.765	0.0143079
823.843	0.0143476
823.921	0.0142554
823.999	0.0142010
824.078	0.0142403
824.156	0.0141393
824.234	0.0141500
824.312	0.0139869
824.390	0.0140440
824.468	0.0140451
824.546	0.0138907
824.624	0.0138615
824.703	0.0138539
824.781	0.0138046
824.859	0.0138008
824.937	0.0138543
825.015	0.0139870
825.093	0.0139176
825.171	0.0138881
825.249	0.0139153
825.328	0.0139796
825.406	0.0140343
825.484	0.0140749
825.562	0.0141002
825.640	0.0139808
825.718	0.0140648
825.796	0.0139197
825.874	0.0139389
825.953	0.0140489
826.031	0.0140144
826.109	0.0137776
826.187	0.0139909
826.265	0.0137411
826.343	0.0137386
826.421	0.0139032
826.499	0.0137720
826.578	0.0137719
826.656	0.0136368
826.734	0.0137203
826.812	0.0137350
826.890	0.0136961
826.968	0.0137538
827.046	0.0136921
827.124	0.0137624
827.203	0.0139355
827.281	0.0139563
827.359	0.0139120
827.437	0.0138397
827.515	0.0139638
827.593	0.0140840
827.671	0.0140362
827.749	0.0139874
827.828	0.0142049
827.906	0.0141177
827.984	0.0142287
828.062	0.0139679
828.140	0.0140569
828.218	0.0140113
828.296	0.0139255
828.374	0.0139856
828.453	0.0138649
828.531	0.0137592
828.609	0.0135985
828.687	0.0136334
828.765	0.0135992
828.843	0.0135136
828.921	0.0135349
828.999	0.0133878
829.078	0.0133267
829.156	0.0133088
829.234	0.0135786
829.312	0.0134236
829.390	0.0135887
829.468	0.0136901
829.546	0.0136543
829.624	0.0135555
829.703	0.0136561
829.781	0.0136192
829.859	0.0138140
829.937	0.0137627
830.015	0.0137196
830.093	0.0138203
830.171	0.0138492
830.249	0.0139522
830.328	0.0139858
830.406	0.0138916
830.484	0.0137543
830.562	0.0137652
830.640	0.0137543
830.718	0.0136799
830.796	0.0138171
830.874	0.0136803
830.953	0.0136439
831.031	0.0138297
831.109	0.0135930
831.187	0.0135743
831.265	0.0136909
831.343	0.0136871
831.421	0.0135702
831.499	0.0137895
831.578	0.0137735
831.656	0.0138568
831.734	0.0139045
831.812	0.0139429
831.890	0.0139993
831.968	0.0140874
832.046	0.0141715
832.124	0.0142522
832.203	0.0143192
832.281	0.0142884
832.359	0.0142830
832.437	0.0141528
832.515	0.0142354
832.593	0.0140639
832.671	0.0140381
832.749	0.0140348
832.828	0.0138172
832.906	0.0138183
832.984	0.0137064
833.062	0.0136200
833.140	0.0136103
833.218	0.0134869
833.296	0.0135407
833.374	0.0134402
833.453	0.0134986
833.531	0.0135685
833.609	0.0135388
833.687	0.0134752
833.765	0.0134822
833.843	0.0136465
833.921	0.0134318
833.999	0.0134462
834.078	0.0135117
834.156	0.0135459
834.234	0.0134575
834.312	0.0136589
834.390	0.0135590
834.468	0.0136857
834.546	0.0136951
834.624	0.0137132
834.703	0.0136237
834.781	0.0136096
834.859	0.0136626
834.937	0.0136987
835.015	0.0135018
835.093	0.0135859
835.171	0.0135350
835.249	0.0135001
835.328	0.0136111
835.406	0.0134922
835.484	0.0134546
835.562	0.0135182
835.640	0.0134636
835.718	0.0134056
835.796	0.0135058
835.874	0.0134120
835.953	0.0136471
836.031	0.0135512
836.109	0.0136682
836.187	0.0137492
836.265	0.0137200
836.343	0.0138782
836.421	0.0139436
836.499	0.0139592
836.578	0.0140305
836.656	0.0139790
836.734	0.0140764
836.812	0.0141816
836.890	0.0141804
836.968	0.0140802
837.046	0.0141080
837.124	0.0141101
837.203	0.0141122
837.281	0.0140352
837.359	0.0140236
837.437	0.0140006
837.515	0.0140069
837.593	0.0139466
837.671	0.0137842
837.749	0.0138609
837.828	0.0138326
837.906	0.0140058
837.984	0.0138424
838.062	0.0138590
838.140	0.0138998
838.218	0.0138590
838.296	0.0138070
838.374	0.0139112
838.453	0.0139481
838.531	0.0140607
838.609	0.0140801
838.687	0.0141053
838.765	0.0139442
838.843	0.0140369
838.921	0.0140933
838.999	0.0140925
839.078	0.0139870
839.156	0.0141120
839.234	0.0140419
839.312	0.0139001
839.390	0.0139409
839.468	0.0137704
839.546	0.0136180
839.624	0.0134652
839.703	0.0136428
839.781	0.0134339
839.859	0.0133171
839.937	0.0133862
840.015	0.0133964
840.093	0.0133086
840.171	0.0134007
840.249	0.0133456
840.328	0.0133183
840.406	0.0133733
840.484	0.0135706
840.562	0.0135632
840.640	0.0133399
840.718	0.0135640
840.796	0.0138762
840.874	0.0138059
840.953	0.0137347
841.031	0.0139295
841.109	0.0138066
841.187	0.0137914
841.265	0.0138503
841.343	0.0138890
841.421	0.0137671
841.499	0.0139179
841.578	0.0137400
841.656	0.0137774
841.734	0.0137380
841.812	0.0138525
841.890	0.0136530
841.968	0.0135275
842.046	0.0136258
842.124	0.0136815
842.203	0.0137281
842.281	0.0136327
842.359	0.0135171
842.437	0.0134467
842.515	0.0135388
842.593	0.0134917
842.671	0.0135212
842.749	0.0135359
842.828	0.0135356
842.906	0.0134068
842.984	0.0134844
843.062	0.0136821
843.140	0.0136391
843.218	0.0136132
843.296	0.0137299
843.374	0.0138148
843.453	0.0137650
843.531	0.0136572
843.609	0.0138449
843.687	0.0137900
843.765	0.0138644
843.843	0.0138683
843.921	0.0138929
843.999	0.0138516
844.078	0.0139178
844.156	0.0139877
844.234	0.0140031
844.312	0.0141048
844.390	0.0139848
844.468	0.0139745
844.546	0.0139963
844.624	0.0140643
844.703	0.0139317
844.781	0.0138810
844.859	0.0140512
844.937	0.0137756
845.015	0.0139804
845.093	0.0140994
845.171	0.0139996
845.249	0.0138956
845.328	0.0138944
845.406	0.0138663
845.484	0.0138028
845.562	0.0139496
845.640	0.0139827
845.718	0.0139500
845.796	0.0139326
845.874	0.0138847
845.953	0.0139714
846.031	0.0140178
846.109	0.0139701
846.187	0.0139190
846.265	0.0138621
846.343	0.0137620
846.421	0.0139503
846.499	0.0140118
846.578	0.0139635
846.656	0.0137598
846.734	0.0137370
846.812	0.0139153
846.890	0.0138753
846.968	0.0138131
847.046	0.0137363
847.124	0.0137286
847.203	0.0137626
847.281	0.0136932
847.359	0.0138588
847.437	0.0136709
847.515	0.0136605
847.593	0.0136650
847.671	0.0136730
847.749	0.0138554
847.828	0.0139610
847.906	0.0137656
847.984	0.0138677
848.062	0.0139394
848.140	0.0138729
848.218	0.0140202
848.296	0.0138945
848.374	0.0139420
848.453	0.0140685
848.531	0.0140230
848.609	0.0140710
848.687	0.0140897
848.765	0.0139410
848.843	0.0140305
848.921	0.0138947
848.999	0.0139944
849.078	0.0139284
849.156	0.0138084
849.234	0.0137883
849.312	0.0140195
849.390	0.0138728
849.468	0.0138559
849.546	0.0140282
849.624	0.0139141
849.703	0.0139355
849.781	0.0138148
849.859	0.0137897
849.937	0.0139188
850.015	0.0139970
850.093	0.0139824
850.171	0.0139735
850.249	0.0139260
850.328	0.0138100
850.406	0.0139555
850.484	0.0137433
850.562	0.0138617
850.640	0.0139634
850.718	0.0138683
850.796	0.0137646
850.874	0.0138541
850.953	0.0137678
851.031	0.0135783
851.109	0.0138214
851.187	0.0137048
851.265	0.0136855
851.343	0.0136517
851.421	0.0135268
851.499	0.0136482
851.578	0.0137836
851.656	0.0138963
851.734	0.0137952
851.812	0.0136521
851.890	0.0139014
851.968	0.0138736
852.046	0.0139194
852.124	0.0139150
852.203	0.0138583
852.281	0.0138811
852.359	0.0138601
852.437	0.0138742
852.515	0.0140234
852.593	0.0139393
852.671	0.0138142
852.749	0.0140642
852.828	0.0138731
852.906	0.0138538
852.984	0.0138337
853.062	0.0138055
853.140	0.0138259
853.218	0.0138796
853.296	0.0138269
853.374	0.0137981
853.453	0.0138840
853.531	0.0138367
853.609	0.0137758
853.687	0.0136449
853.765	0.0136272
853.843	0.0136073
853.921	0.0137368
853.999	0.0138015
854.078	0.0135943
854.156	0.0135330
854.234	0.0134948
854.312	0.0137517
854.390	0.0135660
854.468	0.0136269
854.546	0.0135778
854.624	0.0136781
854.703	0.0135415
854.781	0.0135656
854.859	0.0137023
854.937	0.0136765
855.015	0.0137378
855.093	0.0137138
855.171	0.0136984
855.249	0.0136794
855.328	0.0136848
855.406	0.0137055
855.484	0.0137283
855.562	0.0138106
855.640	0.0139167
855.718	0.0138436
855.796	0.0138196
855.874	0.0139870
855.953	0.0138935
856.031	0.0139289
856.109	0.0138069
856.187	0.0139334
856.265	0.0138108
856.343	0.0140297
856.421	0.0139275
856.499	0.0138569
856.578	0.0140018
856.656	0.0139440
856.734	0.0138776
856.812	0.0139183
856.890	0.0139536
856.968	0.0139450
857.046	0.0139212
857.124	0.0139916
857.203	0.0139558
857.281	0.0139304
857.359	0.0140808
857.437	0.0141141
857.515	0.0140774
857.593	0.0141054
857.671	0.0141719
857.749	0.0142270
857.828	0.0141064
857.906	0.0140807
857.984	0.0139725
858.062	0.0138715
858.140	0.0138279
858.218	0.0139515
858.296	0.0138452
858.374	0.0137512
858.453	0.0137135
858.531	0.0136063
858.609	0.0138328
858.687	0.0136780
858.765	0.0136589
858.843	0.0138841
858.921	0.0138107
858.999	0.0138437
859.078	0.0138332
859.156	0.0139518
859.234	0.0139246
859.312	0.0139478
859.390	0.0139374
859.468	0.0138924
859.546	0.0139902
859.624	0.0140196
859.703	0.0140478
859.781	0.0138428
859.859	0.0140350
859.937	0.0141133
860.015	0.0140868
860.093	0.0142196
860.171	0.0141156
860.249	0.0141796
860.328	0.0142297
860.406	0.0141482
860.484	0.0141793
860.562	0.0143598
860.640	0.0143168
860.718	0.0141649
860.796	0.0142397
860.874	0.0141470
860.953	0.0142250
861.031	0.0141859
861.109	0.0142059
861.187	0.0141796
861.265	0.0141212
861.343	0.0142284
861.421	0.0139178
861.499	0.0138375
861.578	0.0140023
861.656	0.0139629
861.734	0.0139710
861.812	0.0139330
861.890	0.0138216
861.968	0.0139417
862.046	0.0137029
862.124	0.0138245
862.203	0.0139367
862.281	0.0138055
862.359	0.0138468
862.437	0.0137003
862.515	0.0135322
862.593	0.0136900
862.671	0.0136332
862.749	0.0134277
862.828	0.0136173
862.906	0.0136765
862.984	0.0136075
863.062	0.0136068
863.140	0.0134718
863.218	0.0135230
863.296	0.0133960
863.374	0.0135248
863.453	0.0134055
863.531	0.0136034
863.609	0.0136769
863.687	0.0134961
863.765	0.0136014
863.843	0.0134639
863.921	0.0136087
863.999	0.0136644
864.078	0.0136007
864.156	0.0136525
864.234	0.0135835
864.312	0.0135235
864.390	0.0137721
864.468	0.0136743
864.546	0.0138174
864.624	0.0137389
864.703	0.0136884
864.781	0.0138858
864.859	0.0137081
864.937	0.0138392
865.015	0.0138671
865.093	0.0139303
865.171	0.0139067
865.249	0.0137561
865.328	0.0138715
865.406	0.0138439
865.484	0.0138324
865.562	0.0139087
865.640	0.0138244
865.718	0.0139135
865.796	0.0137894
865.874	0.0138116
865.953	0.0138097
866.031	0.0139018
866.109	0.0136627
866.187	0.0136979
866.265	0.0136811
866.343	0.0137888
866.421	0.0135976
866.499	0.0134600
866.578	0.0135271
866.656	0.0135839
866.734	0.0136202
866.812	0.0135529
866.890	0.0134481
866.968	0.0133355
867.046	0.0134937
867.124	0.0134673
867.203	0.0134417
867.281	0.0134822
867.359	0.0134914
867.437	0.0134145
867.515	0.0135571
867.593	0.0136154
867.671	0.0135741
867.749	0.0134679
867.828	0.0135996
867.906	0.0137070
867.984	0.0134431
868.062	0.0135229
868.140	0.0135823
868.218	0.0137013
868.296	0.0136732
868.374	0.0136049
868.453	0.0137312
868.531	0.0137061
868.609	0.0137176
868.687	0.0138163
868.765	0.0137663
868.843	0.0138382
868.921	0.0138268
868.999	0.0136954
869.078	0.0137885
869.156	0.0137670
869.234	0.0136968
869.312	0.0137695
869.390	0.0138721
869.468	0.0137949
869.546	0.0139065
869.624	0.0136746
869.703	0.0138095
869.781	0.0138850
869.859	0.0138715
869.937	0.0138043
870.015	0.0137889
870.093	0.0137412
870.171	0.0138180
870.249	0.0137908
870.328	0.0139848
870.406	0.0138145
870.484	0.0137855
870.562	0.0138185
870.640	0.0137872
870.718	0.0138689
870.796	0.0138369
870.874	0.0137747
870.953	0.0138408
871.031	0.0138756
871.109	0.0138857
871.187	0.0139430
871.265	0.0139741
871.343	0.0139876
871.421	0.0139621
871.499	0.0137806
871.578	0.0137608
871.656	0.0139126
871.734	0.0139384
871.812	0.0138753
871.890	0.0137824
871.968	0.0139024
872.046	0.0138508
872.124	0.0138808
872.203	0.0138823
872.281	0.0138573
872.359	0.0140891
872.437	0.0142135
872.515	0.0141654
872.593	0.0140981
872.671	0.0142200
872.749	0.0143047
872.828	0.0142187
872.906	0.0140950
872.984	0.0140870
873.062	0.0141643
873.140	0.0141994
873.218	0.0141720
873.296	0.0140343
873.374	0.0139188
873.453	0.0139297
873.531	0.0139514
873.609	0.0139427
873.687	0.0140350
873.765	0.0138557
873.843	0.0138358
873.921	0.0137123
873.999	0.0137650
874.078	0.0138990
874.156	0.0138343
874.234	0.0137734
874.312	0.0139116
874.390	0.0140077
874.468	0.0138740
874.546	0.0138715
874.624	0.0139432
874.703	0.0137854
874.781	0.0137428
874.859	0.0137375
874.937	0.0139246
875.015	0.0138987
875.093	0.0137493
875.171	0.0138141
875.249	0.0138567
875.328	0.0137015
875.406	0.0138647
875.484	0.0139792
875.562	0.0138604
875.640	0.0138406
875.718	0.0139713
875.796	0.0139394
875.874	0.0138668
875.953	0.0139910
876.031	0.0139265
876.109	0.0139037
876.187	0.0140182
876.265	0.0138164
876.343	0.0139655
876.421	0.0140801
876.499	0.0139587
876.578	0.0138960
876.656	0.0138936
876.734	0.0140786
876.812	0.0140401
876.890	0.0138151
876.968	0.0140501
877.046	0.0140594
877.124	0.0137630
877.203	0.0139435
877.281	0.0138824
877.359	0.0138153
877.437	0.0138181
877.515	0.0138518
877.593	0.0139587
877.671	0.0140254
877.749	0.0137967
877.828	0.0137756
877.906	0.0137985
877.984	0.0138081
878.062	0.0137522
878.140	0.0137883
878.218	0.0137848
878.296	0.0138035
878.374	0.0137004
878.453	0.0137222
878.531	0.0137598
878.609	0.0137077
878.687	0.0137267
878.765	0.0136540
878.843	0.0136247
878.921	0.0137027
878.999	0.0135942
879.078	0.0136665
879.156	0.0136739
879.234	0.0135693
879.312	0.0135978
879.390	0.0136442
879.468	0.0136625
879.546	0.0135892
879.624	0.0137016
879.703	0.0136206
879.781	0.0135220
879.859	0.0135107
879.937	0.0135786
880.015	0.0134970
880.093	0.0134908
880.171	0.0134383
880.249	0.0134878
880.328	0.0135579
880.406	0.0134290
880.484	0.0133282
880.562	0.0133158
880.640	0.0134792
880.718	0.0133768
880.796	0.0133138
880.874	0.0133875
880.953	0.0135133
881.031	0.0133600
881.109	0.0134325
881.187	0.0135923
881.265	0.0136575
881.343	0.0135669
881.421	0.0134412
881.499	0.0134496
881.578	0.0135448
881.656	0.0136425
881.734	0.0135329
881.812	0.0136287
881.890	0.0135558
881.968	0.0137350
882.046	0.0137233
882.124	0.0136029
882.203	0.0137010
882.281	0.0137183
882.359	0.0137911
882.437	0.0138433
882.515	0.0136670
882.593	0.0135919
882.671	0.0135840
882.749	0.0134585
882.828	0.0135777
882.906	0.0135686
882.984	0.0135444
883.062	0.0135500
883.140	0.0135228
883.218	0.0135773
883.296	0.0136221
883.374	0.0134493
883.453	0.0133424
883.531	0.0135863
883.609	0.0134792
883.687	0.0135040
883.765	0.0135525
883.843	0.0136849
883.921	0.0135901
883.999	0.0138266
884.078	0.0136044
884.156	0.0136115
884.234	0.0136787
884.312	0.0136961
884.390	0.0136720
884.468	0.0136646
884.546	0.0136623
884.624	0.0136777
884.703	0.0136346
884.781	0.0136250
884.859	0.0134770
884.937	0.0135069
885.015	0.0134908
885.093	0.0136956
885.171	0.0134551
885.249	0.0135667
885.328	0.0134731
885.406	0.0134933
885.484	0.0135515
885.562	0.0136195
885.640	0.0136461
885.718	0.0137178
885.796	0.0137943
885.874	0.0137038
885.953	0.0137842
886.031	0.0139431
886.109	0.0140321
886.187	0.0141001
886.265	0.0140287
886.343	0.0141579
886.421	0.0139606
886.499	0.0142263
886.578	0.0140220
886.656	0.0140566
886.734	0.0141383
886.812	0.0140513
886.890	0.0140041
886.968	0.0139793
887.046	0.0141924
887.124	0.0138670
887.203	0.0139006
887.281	0.0138470
887.359	0.0138657
887.437	0.0138989
887.515	0.0139354
887.593	0.0139218
887.671	0.0139980
887.749	0.0138750
887.828	0.0139636
887.906	0.0138843
887.984	0.0138633
888.062	0.0140225
888.140	0.0139516
888.218	0.0139635
888.296	0.0138315
888.374	0.0139700
888.453	0.0140445
888.531	0.0141224
888.609	0.0140455
888.687	0.0140424
888.765	0.0140316
888.843	0.0139382
888.921	0.0139862
888.999	0.0140466
889.078	0.0139684
889.156	0.0138562
889.234	0.0141935
889.312	0.0141528
889.390	0.0141870
889.468	0.0140823
889.546	0.0140794
889.624	0.0140167
889.703	0.0140154
889.781	0.0141062
889.859	0.0140495
889.937	0.0138361
890.015	0.0139129
890.093	0.0137545
890.171	0.0136377
890.249	0.0136327
890.328	0.0136411
890.406	0.0134646
890.484	0.0136816
890.562	0.0135747
890.640	0.0135547
890.718	0.0135136
890.796	0.0134541
890.874	0.0135658
890.953	0.0136275
891.031	0.0136010
891.109	0.0134586
891.187	0.0135263
891.265	0.0136932
891.343	0.0135590
891.421	0.0135207
891.499	0.0134499
891.578	0.0135468
891.656	0.0133965
891.734	0.0132398
891.812	0.0132452
891.890	0.0131400
891.968	0.0132674
892.046	0.0132621
892.124	0.0131784
892.203	0.0131916
892.281	0.0132234
892.359	0.0131422
892.437	0.0132935
892.515	0.0132939
892.593	0.0134366
892.671	0.0134760
892.749	0.0133422
892.828	0.0134303
892.906	0.0135825
892.984	0.0135900
893.062	0.0136510
893.140	0.0137851
893.218	0.0136230
893.296	0.0139027
893.374	0.0137962
893.453	0.0137651
893.531	0.0137853
893.609	0.0137886
893.687	0.0137643
893.765	0.0136411
893.843	0.0137394
893.921	0.0136701
893.999	0.0136118
894.078	0.0135419
894.156	0.0133556
894.234	0.0134386
894.312	0.0136255
894.390	0.0134239
894.468	0.0134533
894.546	0.0134921
894.624	0.0134023
894.703	0.0134952
894.781	0.0137103
894.859	0.0136330
894.937	0.0136323
895.015	0.0136394
895.093	0.0136600
895.171	0.0138055
895.249	0.0136920
895.328	0.0136381
895.406	0.0136786
895.484	0.0137202
895.562	0.0137171
895.640	0.0137146
895.718	0.0134589
895.796	0.0135084
895.874	0.0134538
895.953	0.0133809
896.031	0.0132574
896.109	0.0133504
896.187	0.0133964
896.265	0.0133296
896.343	0.0132533
896.421	0.0133633
896.499	0.0135317
896.578	0.0135513
896.656	0.0135219
896.734	0.0136444
896.812	0.0136584
896.890	0.0135999
896.968	0.0135954
897.046	0.0137820
897.124	0.0137492
897.203	0.0136183
897.281	0.0137701
897.359	0.0136835
897.437	0.0135327
897.515	0.0135668
897.593	0.0136797
897.671	0.0136723
897.749	0.0136762
897.828	0.0134722
897.906	0.0136813
897.984	0.0138243
898.062	0.0137425
898.140	0.0137517
898.218	0.0137402
898.296	0.0137209
898.374	0.0138827
898.453	0.0138208
898.531	0.0139655
898.609	0.0141412
898.687	0.0138815
898.765	0.0140420
898.843	0.0139819
898.921	0.0139663
898.999	0.0141125
899.078	0.0139576
899.156	0.0140110
899.234	0.0139962
899.312	0.0138994
899.390	0.0139352
899.468	0.0139104
899.546	0.0139026
899.624	0.0138302
899.703	0.0136978
899.781	0.0137393
899.859	0.0137334
899.937	0.0139008
900.015	0.0137769
900.093	0.0138203
900.171	0.0137662
900.249	0.0138773
900.328	0.0139439
900.406	0.0137148
900.484	0.0139414
900.562	0.0139496
900.640	0.0139439
900.718	0.0138941
900.796	0.0141068
900.874	0.0142172
900.953	0.0140978
901.031	0.0142104
901.109	0.0142040
901.187	0.0140941
901.265	0.0139569
901.343	0.0141192
901.421	0.0140079
901.499	0.0140630
901.578	0.0138972
901.656	0.0138055
901.734	0.0137890
901.812	0.0137249
901.890	0.0138500
901.968	0.0137538
902.046	0.0135567
902.124	0.0137286
902.203	0.0136773
902.281	0.0135698
902.359	0.0135994
902.437	0.0135485
902.515	0.0135667
902.593	0.0136415
902.671	0.0136341
902.749	0.0136782
902.828	0.0135748
902.906	0.0136843
902.984	0.0136652
903.062	0.0136449
903.140	0.0136737
903.218	0.0137200
903.296	0.0137631
903.374	0.0137440
903.453	0.0135333
903.531	0.0135916
903.609	0.0137963
903.687	0.0136261
903.765	0.0135927
903.843	0.0136044
903.921	0.0135396
903.999	0.0137247
904.078	0.0137461
904.156	0.0135618
904.234	0.0134789
904.312	0.0136066
904.390	0.0136684
904.468	0.0135105
904.546	0.0136596
904.624	0.0136846
904.703	0.0136738
904.781	0.0135491
904.859	0.0136371
904.937	0.0137232
905.015	0.0136246
905.093	0.0136559
905.171	0.0137204
905.249	0.0137324
905.328	0.0136967
905.406	0.0137006
905.484	0.0137086
905.562	0.0137252
905.640	0.0137483
905.718	0.0136444
905.796	0.0136514
905.874	0.0137267
905.953	0.0137074
906.031	0.0135883
906.109	0.0136018
906.187	0.0134518
906.265	0.0135839
906.343	0.0134814
906.421	0.0134290
906.499	0.0133289
906.578	0.0135331
906.656	0.0133434
906.734	0.0134597
906.812	0.0135082
906.890	0.0135008
906.968	0.0133894
907.046	0.0134732
907.124	0.0135059
907.203	0.0134861
907.281	0.0134521
907.359	0.0134865
907.437	0.0135591
907.515	0.0135016
907.593	0.0134404
907.671	0.0134184
907.749	0.0133953
907.828	0.0133969
907.906	0.0134837
907.984	0.0135531
908.062	0.0134645
908.140	0.0135043
908.218	0.0135095
908.296	0.0135048
908.374	0.0134113
908.453	0.0133994
908.531	0.0135986
908.609	0.0136398
908.687	0.0137096
908.765	0.0136283
908.843	0.0136307
908.921	0.0137563
908.999	0.0137382
909.078	0.0136866
909.156	0.0137511
909.234	0.0138200
909.312	0.0138245
909.390	0.0139165
909.468	0.0137836
909.546	0.0138365
909.624	0.0139643
909.703	0.0138561
909.781	0.0138874
909.859	0.0140481
909.937	0.0138728
910.015	0.0138538
910.093	0.0139182
910.171	0.0139272
910.249	0.0140086
910.328	0.0140266
910.406	0.0137943
910.484	0.0138668
910.562	0.0138689
910.640	0.0139160
910.718	0.0138491
910.796	0.0139626
910.874	0.0136716
910.953	0.0138665
911.031	0.0137666
911.109	0.0137963
911.187	0.0137649
911.265	0.0138438
911.343	0.0137335
911.421	0.0139130
911.499	0.0138514
911.578	0.0138913
911.656	0.0139674
911.734	0.0139713
911.812	0.0138667
911.890	0.0139367
911.968	0.0140154
912.046	0.0139119
912.124	0.0139600
912.203	0.0139535
912.281	0.0138374
912.359	0.0138360
912.437	0.0139963
912.515	0.0138488
912.593	0.0138999
912.671	0.0138979
912.749	0.0137617
912.828	0.0138133
912.906	0.0137460
912.984	0.0137566
913.062	0.0135367
913.140	0.0136520
913.218	0.0137045
913.296	0.0137213
913.374	0.0137123
913.453	0.0135721
913.531	0.0136636
913.609	0.0137762
913.687	0.0136320
913.765	0.0136964
913.843	0.0137163
913.921	0.0137435
913.999	0.0137502
914.078	0.0138209
914.156	0.0136183
914.234	0.0136658
914.312	0.0137504
914.390	0.0138712
914.468	0.0137213
914.546	0.0138469
914.624	0.0137695
914.703	0.0137757
914.781	0.0138866
914.859	0.0138062
914.937	0.0137633
915.015	0.0137572
915.093	0.0137469
915.171	0.0137019
915.249	0.0137866
915.328	0.0138594
915.406	0.0136459
915.484	0.0136684
915.562	0.0138406
915.640	0.0137568
915.718	0.0136655
915.796	0.0136779
915.874	0.0138746
915.953	0.0136097
916.031	0.0137119
916.109	0.0136704
916.187	0.0135983
916.265	0.0135957
916.343	0.0136936
916.421	0.0136427
916.499	0.0135263
916.578	0.0135267
916.656	0.0135515
916.734	0.0134119
916.812	0.0135699
916.890	0.0135500
916.968	0.0135220
917.046	0.0135684
917.124	0.0137012
917.203	0.0135922
917.281	0.0136343
917.359	0.0135712
917.437	0.0137307
917.515	0.0138742
917.593	0.0137711
917.671	0.0137614
917.749	0.0136830
917.828	0.0137502
917.906	0.0136005
917.984	0.0137360
918.062	0.0136555
918.140	0.0136092
918.218	0.0138100
918.296	0.0137685
918.374	0.0137184
918.453	0.0136646
918.531	0.0137591
918.609	0.0137126
918.687	0.0138003
918.765	0.0137815
918.843	0.0137357
918.921	0.0137482
918.999	0.0138134
919.078	0.0137727
919.156	0.0135566
919.234	0.0137857
919.312	0.0136483
919.390	0.0136466
919.468	0.0136880
919.546	0.0138255
919.624	0.0136614
919.703	0.0136515
919.781	0.0137035
919.859	0.0138595
919.937	0.0137994
