05/08/2022	19:36:10	Ver.	4.1	UNKNOWN
Optical Delay	649.989667	Delta X		0.078125	Sweeps	1	Scan Rate	0/0
Coordinates	Axis 1	NaN	Axis 2	NaN	Axis 3	NaN	Axis 4	NaN	Axis 5	NaN	Axis 6	0.000000
TX Power	0.000000	RX Power	0.000000

649.990	0.0139222
650.068	0.0140117
650.146	0.0138434
650.224	0.0139786
650.302	0.0140014
650.380	0.0139057
650.458	0.0138932
650.537	0.0139758
650.615	0.0139644
650.693	0.0139645
650.771	0.0138450
650.849	0.0140536
650.927	0.0139464
651.005	0.0138860
651.083	0.0138833
651.162	0.0139062
651.240	0.0138857
651.318	0.0138427
651.396	0.0138277
651.474	0.0139111
651.552	0.0140279
651.630	0.0139736
651.708	0.0138482
651.787	0.0139642
651.865	0.0139056
651.943	0.0139076
652.021	0.0140160
652.099	0.0140321
652.177	0.0138923
652.255	0.0139348
652.333	0.0139068
652.412	0.0139660
652.490	0.0138905
652.568	0.0138865
652.646	0.0138973
652.724	0.0138412
652.802	0.0137946
652.880	0.0137910
652.958	0.0137656
653.037	0.0139243
653.115	0.0138577
653.193	0.0138225
653.271	0.0139287
653.349	0.0137316
653.427	0.0139101
653.505	0.0140321
653.583	0.0138572
653.662	0.0140010
653.740	0.0138660
653.818	0.0137853
653.896	0.0139176
653.974	0.0139447
654.052	0.0139932
654.130	0.0139540
654.208	0.0138882
654.287	0.0139156
654.365	0.0140761
654.443	0.0139547
654.521	0.0138274
654.599	0.0138917
654.677	0.0138915
654.755	0.0140723
654.833	0.0138485
654.912	0.0137936
654.990	0.0139495
655.068	0.0139281
655.146	0.0139125
655.224	0.0139567
655.302	0.0138461
655.380	0.0138622
655.458	0.0138378
655.537	0.0137608
655.615	0.0138647
655.693	0.0140707
655.771	0.0140022
655.849	0.0138851
655.927	0.0138493
656.005	0.0139188
656.083	0.0138884
656.162	0.0139938
656.240	0.0139648
656.318	0.0140630
656.396	0.0139166
656.474	0.0138920
656.552	0.0139380
656.630	0.0139553
656.708	0.0139275
656.787	0.0139256
656.865	0.0139764
656.943	0.0138402
657.021	0.0140098
657.099	0.0140310
657.177	0.0138640
657.255	0.0137997
657.333	0.0140274
657.412	0.0138557
657.490	0.0139204
657.568	0.0138560
657.646	0.0139200
657.724	0.0139017
657.802	0.0138776
657.880	0.0139842
657.958	0.0138507
658.037	0.0139559
658.115	0.0139113
658.193	0.0139864
658.271	0.0139705
658.349	0.0140122
658.427	0.0140883
658.505	0.0140295
658.583	0.0139949
658.662	0.0138828
658.740	0.0139007
658.818	0.0139740
658.896	0.0138580
658.974	0.0139397
659.052	0.0138731
659.130	0.0139661
659.208	0.0138898
659.287	0.0137917
659.365	0.0138616
659.443	0.0138116
659.521	0.0139466
659.599	0.0138850
659.677	0.0139504
659.755	0.0139943
659.833	0.0137904
659.912	0.0139172
659.990	0.0139005
660.068	0.0138705
660.146	0.0138325
660.224	0.0138552
660.302	0.0139246
660.380	0.0139712
660.458	0.0139584
660.537	0.0138886
660.615	0.0140372
660.693	0.0138570
660.771	0.0139331
660.849	0.0139132
660.927	0.0138988
661.005	0.0139874
661.083	0.0139305
661.162	0.0139845
661.240	0.0139539
661.318	0.0139549
661.396	0.0139982
661.474	0.0137733
661.552	0.0139017
661.630	0.0140908
661.708	0.0139703
661.787	0.0138843
661.865	0.0138915
661.943	0.0137482
662.021	0.0139241
662.099	0.0138255
662.177	0.0138781
662.255	0.0137876
662.333	0.0139437
662.412	0.0139506
662.490	0.0138060
662.568	0.0138215
662.646	0.0137953
662.724	0.0139256
662.802	0.0138151
662.880	0.0138683
662.958	0.0139143
663.037	0.0139341
663.115	0.0138783
663.193	0.0137678
663.271	0.0137422
663.349	0.0138031
663.427	0.0139605
663.505	0.0138728
663.583	0.0138470
663.662	0.0138696
663.740	0.0140199
663.818	0.0139324
663.896	0.0138506
663.974	0.0138522
664.052	0.0137790
664.130	0.0138123
664.208	0.0139452
664.287	0.0139373
664.365	0.0139117
664.443	0.0139014
664.521	0.0137114
664.599	0.0137424
664.677	0.0138775
664.755	0.0137944
664.833	0.0138664
664.912	0.0137629
664.990	0.0139463
665.068	0.0138520
665.146	0.0138968
665.224	0.0139880
665.302	0.0138128
665.380	0.0139699
665.458	0.0139995
665.537	0.0139366
665.615	0.0137494
665.693	0.0137966
665.771	0.0139947
665.849	0.0139121
665.927	0.0140446
666.005	0.0138406
666.083	0.0138435
666.162	0.0138851
666.240	0.0139024
666.318	0.0138747
666.396	0.0139548
666.474	0.0138941
666.552	0.0139721
666.630	0.0138712
666.708	0.0139093
666.787	0.0140223
666.865	0.0139127
666.943	0.0139011
667.021	0.0139620
667.099	0.0139822
667.177	0.0138918
667.255	0.0139595
667.333	0.0141920
667.412	0.0139130
667.490	0.0138457
667.568	0.0138670
667.646	0.0139792
667.724	0.0140708
667.802	0.0140699
667.880	0.0140154
667.958	0.0140680
668.037	0.0140556
668.115	0.0140190
668.193	0.0140549
668.271	0.0140107
668.349	0.0138689
668.427	0.0140205
668.505	0.0140950
668.583	0.0139412
668.662	0.0140437
668.740	0.0139326
668.818	0.0140076
668.896	0.0139367
668.974	0.0139755
669.052	0.0139774
669.130	0.0139088
669.208	0.0140353
669.287	0.0139955
669.365	0.0140677
669.443	0.0138642
669.521	0.0140975
669.599	0.0140045
669.677	0.0140987
669.755	0.0139313
669.833	0.0139523
669.912	0.0141424
669.990	0.0139423
670.068	0.0139387
670.146	0.0138580
670.224	0.0140377
670.302	0.0139985
670.380	0.0139218
670.458	0.0139517
670.537	0.0140265
670.615	0.0139387
670.693	0.0140437
670.771	0.0139464
670.849	0.0139860
670.927	0.0140318
671.005	0.0140331
671.083	0.0141021
671.162	0.0137885
671.240	0.0139404
671.318	0.0140050
671.396	0.0139892
671.474	0.0139968
671.552	0.0138599
671.630	0.0139413
671.708	0.0138136
671.787	0.0137434
671.865	0.0139046
671.943	0.0139922
672.021	0.0139178
672.099	0.0140180
672.177	0.0140026
672.255	0.0138837
672.333	0.0138153
672.412	0.0138844
672.490	0.0139816
672.568	0.0140849
672.646	0.0137739
672.724	0.0138078
672.802	0.0138345
672.880	0.0140077
672.958	0.0138520
673.037	0.0139184
673.115	0.0139194
673.193	0.0139822
673.271	0.0138432
673.349	0.0138621
673.427	0.0139212
673.505	0.0139388
673.583	0.0137122
673.662	0.0138139
673.740	0.0137547
673.818	0.0138764
673.896	0.0138602
673.974	0.0138551
674.052	0.0137834
674.130	0.0138912
674.208	0.0137753
674.287	0.0136723
674.365	0.0137836
674.443	0.0138026
674.521	0.0138998
674.599	0.0138862
674.677	0.0138689
674.755	0.0137723
674.833	0.0137959
674.912	0.0138389
674.990	0.0137987
675.068	0.0137271
675.146	0.0137955
675.224	0.0137280
675.302	0.0137394
675.380	0.0137373
675.458	0.0137683
675.537	0.0138359
675.615	0.0139069
675.693	0.0137586
675.771	0.0136928
675.849	0.0138648
675.927	0.0137966
676.005	0.0136525
676.083	0.0137970
676.162	0.0138511
676.240	0.0138651
676.318	0.0137283
676.396	0.0137488
676.474	0.0138858
676.552	0.0137760
676.630	0.0138756
676.708	0.0138140
676.787	0.0138947
676.865	0.0138255
676.943	0.0138538
677.021	0.0139127
677.099	0.0138496
677.177	0.0137893
677.255	0.0138500
677.333	0.0138321
677.412	0.0137907
677.490	0.0138699
677.568	0.0138918
677.646	0.0138496
677.724	0.0138044
677.802	0.0137312
677.880	0.0137585
677.958	0.0138708
678.037	0.0138518
678.115	0.0138449
678.193	0.0138348
678.271	0.0137945
678.349	0.0139936
678.427	0.0138258
678.505	0.0138208
678.583	0.0137704
678.662	0.0139040
678.740	0.0139865
678.818	0.0139678
678.896	0.0138790
678.974	0.0138182
679.052	0.0138028
679.130	0.0138935
679.208	0.0138438
679.287	0.0139720
679.365	0.0139626
679.443	0.0139180
679.521	0.0139774
679.599	0.0139053
679.677	0.0139287
679.755	0.0139661
679.833	0.0138473
679.912	0.0138290
679.990	0.0137862
680.068	0.0138257
680.146	0.0138498
680.224	0.0137840
680.302	0.0140360
680.380	0.0140678
680.458	0.0140572
680.537	0.0141254
680.615	0.0143143
680.693	0.0142515
680.771	0.0142267
680.849	0.0140588
680.927	0.0139444
681.005	0.0139276
681.083	0.0136996
681.162	0.0135794
681.240	0.0136420
681.318	0.0134654
681.396	0.0132885
681.474	0.0134566
681.552	0.0134235
681.630	0.0134347
681.708	0.0136192
681.787	0.0136729
681.865	0.0138994
681.943	0.0141040
682.021	0.0142451
682.099	0.0144887
682.177	0.0144734
682.255	0.0147720
682.333	0.0151235
682.412	0.0152720
682.490	0.0153967
682.568	0.0152875
682.646	0.0152955
682.724	0.0150502
682.802	0.0145206
682.880	0.0140299
682.958	0.0133280
683.037	0.0125983
683.115	0.0117960
683.193	0.0113208
683.271	0.0110542
683.349	0.0109614
683.427	0.0111608
683.505	0.0114902
683.583	0.0120792
683.662	0.0127527
683.740	0.0136485
683.818	0.0147249
683.896	0.0154426
683.974	0.0161839
684.052	0.0168348
684.130	0.0171144
684.208	0.0174340
684.287	0.0172834
684.365	0.0171600
684.443	0.0169461
684.521	0.0164378
684.599	0.0158644
684.677	0.0151637
684.755	0.0143663
684.833	0.0134103
684.912	0.0126752
684.990	0.0117155
685.068	0.0109382
685.146	0.0103835
685.224	0.0101559
685.302	0.00991875
685.380	0.0100327
685.458	0.0103287
685.537	0.0109518
685.615	0.0115073
685.693	0.0122417
685.771	0.0131007
685.849	0.0138224
685.927	0.0144839
686.005	0.0152950
686.083	0.0155713
686.162	0.0160690
686.240	0.0160735
686.318	0.0161888
686.396	0.0161913
686.474	0.0159325
686.552	0.0160480
686.630	0.0160085
686.708	0.0158380
686.787	0.0155158
686.865	0.0153423
686.943	0.0154015
687.021	0.0149094
687.099	0.0148273
687.177	0.0145152
687.255	0.0140953
687.333	0.0137767
687.412	0.0134740
687.490	0.0129262
687.568	0.0125359
687.646	0.0122931
687.724	0.0119090
687.802	0.0115962
687.880	0.0114059
687.958	0.0116903
688.037	0.0117783
688.115	0.0118832
688.193	0.0121237
688.271	0.0124616
688.349	0.0126435
688.427	0.0130309
688.505	0.0135674
688.583	0.0137672
688.662	0.0138793
688.740	0.0143237
688.818	0.0144054
688.896	0.0144617
688.974	0.0146257
689.052	0.0146459
689.130	0.0148307
689.208	0.0148926
689.287	0.0149395
689.365	0.0150446
689.443	0.0151998
689.521	0.0151349
689.599	0.0150701
689.677	0.0150069
689.755	0.0150781
689.833	0.0150758
689.912	0.0149876
689.990	0.0151884
690.068	0.0151816
690.146	0.0150446
690.224	0.0148788
690.302	0.0144705
690.380	0.0143545
690.458	0.0141132
690.537	0.0135266
690.615	0.0133756
690.693	0.0130240
690.771	0.0127980
690.849	0.0123137
690.927	0.0121504
691.005	0.0119417
691.083	0.0118463
691.162	0.0116684
691.240	0.0116684
691.318	0.0116911
691.396	0.0117170
691.474	0.0119844
691.552	0.0120866
691.630	0.0125504
691.708	0.0129833
691.787	0.0133759
691.865	0.0139500
691.943	0.0145486
692.021	0.0150358
692.099	0.0156597
692.177	0.0160509
692.255	0.0163953
692.333	0.0168880
692.412	0.0169380
692.490	0.0170416
692.568	0.0168904
692.646	0.0164687
692.724	0.0159248
692.802	0.0153281
692.880	0.0147202
692.958	0.0139719
693.037	0.0130553
693.115	0.0124074
693.193	0.0120580
693.271	0.0115688
693.349	0.0111480
693.427	0.0109780
693.505	0.0109374
693.583	0.0109631
693.662	0.0111636
693.740	0.0116301
693.818	0.0123179
693.896	0.0127758
693.974	0.0132709
694.052	0.0140631
694.130	0.0145896
694.208	0.0153011
694.287	0.0159518
694.365	0.0163576
694.443	0.0166859
694.521	0.0170247
694.599	0.0170502
694.677	0.0169432
694.755	0.0169343
694.833	0.0166298
694.912	0.0161320
694.990	0.0156007
695.068	0.0153367
695.146	0.0145735
695.224	0.0139712
695.302	0.0133442
695.380	0.0127149
695.458	0.0122185
695.537	0.0117195
695.615	0.0114797
695.693	0.0111946
695.771	0.0111008
695.849	0.0111504
695.927	0.0112968
696.005	0.0114870
696.083	0.0116969
696.162	0.0118711
696.240	0.0121472
696.318	0.0126529
696.396	0.0129299
696.474	0.0133150
696.552	0.0135419
696.630	0.0138831
696.708	0.0141239
696.787	0.0143645
696.865	0.0145464
696.943	0.0147285
697.021	0.0149621
697.099	0.0148503
697.177	0.0149510
697.255	0.0150387
697.333	0.0149825
697.412	0.0149921
697.490	0.0148376
697.568	0.0147707
697.646	0.0146611
697.724	0.0146439
697.802	0.0146471
697.880	0.0146159
697.958	0.0145168
698.037	0.0144639
698.115	0.0146402
698.193	0.0146556
698.271	0.0146977
698.349	0.0147430
698.427	0.0149550
698.505	0.0149701
698.583	0.0152222
698.662	0.0150853
698.740	0.0152622
698.818	0.0151337
698.896	0.0151838
698.974	0.0149496
699.052	0.0147455
699.130	0.0146642
699.208	0.0144398
699.287	0.0139492
699.365	0.0136073
699.443	0.0133047
699.521	0.0130296
699.599	0.0126611
699.677	0.0120684
699.755	0.0118655
699.833	0.0116844
699.912	0.0112351
699.990	0.0110773
700.068	0.0110410
700.146	0.0110084
700.224	0.0109216
700.302	0.0110976
700.380	0.0114467
700.458	0.0117469
700.537	0.0121119
700.615	0.0123785
700.693	0.0128896
700.771	0.0133757
700.849	0.0138500
700.927	0.0143370
701.005	0.0145591
701.083	0.0148569
701.162	0.0152017
701.240	0.0153091
701.318	0.0154088
701.396	0.0154049
701.474	0.0154356
701.552	0.0152934
701.630	0.0154280
701.708	0.0153733
701.787	0.0150294
701.865	0.0148907
701.943	0.0149293
702.021	0.0147913
702.099	0.0148895
702.177	0.0146484
702.255	0.0146697
702.333	0.0148109
702.412	0.0147501
702.490	0.0149905
702.568	0.0150529
702.646	0.0149069
702.724	0.0151852
702.802	0.0152632
702.880	0.0151851
702.958	0.0152194
703.037	0.0152055
703.115	0.0151194
703.193	0.0149906
703.271	0.0147562
703.349	0.0147343
703.427	0.0144721
703.505	0.0140033
703.583	0.0136723
703.662	0.0134412
703.740	0.0129028
703.818	0.0127309
703.896	0.0122974
703.974	0.0120994
704.052	0.0117385
704.130	0.0115695
704.208	0.0112415
704.287	0.0111475
704.365	0.0109808
704.443	0.0109748
704.521	0.0109772
704.599	0.0110899
704.677	0.0112836
704.755	0.0113422
704.833	0.0117191
704.912	0.0119219
704.990	0.0122501
705.068	0.0127081
705.146	0.0132901
705.224	0.0137266
705.302	0.0141141
705.380	0.0147401
705.458	0.0149430
705.537	0.0153024
705.615	0.0156989
705.693	0.0161031
705.771	0.0163429
705.849	0.0164303
705.927	0.0164789
706.005	0.0166670
706.083	0.0165640
706.162	0.0164587
706.240	0.0162434
706.318	0.0160358
706.396	0.0156987
706.474	0.0155379
706.552	0.0151985
706.630	0.0147831
706.708	0.0145480
706.787	0.0143443
706.865	0.0141523
706.943	0.0140015
707.021	0.0139856
707.099	0.0136384
707.177	0.0135397
707.255	0.0136543
707.333	0.0137000
707.412	0.0136322
707.490	0.0137354
707.568	0.0138888
707.646	0.0139513
707.724	0.0140484
707.802	0.0140920
707.880	0.0139568
707.958	0.0140611
708.037	0.0139502
708.115	0.0139109
708.193	0.0138323
708.271	0.0135012
708.349	0.0131997
708.427	0.0130272
708.505	0.0129678
708.583	0.0126198
708.662	0.0124201
708.740	0.0122482
708.818	0.0122549
708.896	0.0121097
708.974	0.0120934
709.052	0.0121024
709.130	0.0121965
709.208	0.0121780
709.287	0.0123407
709.365	0.0125782
709.443	0.0126717
709.521	0.0129242
709.599	0.0130815
709.677	0.0133358
709.755	0.0137274
709.833	0.0139687
709.912	0.0142998
709.990	0.0147134
710.068	0.0149115
710.146	0.0150903
710.224	0.0155622
710.302	0.0157059
710.380	0.0156784
710.458	0.0157422
710.537	0.0158184
710.615	0.0156383
710.693	0.0157221
710.771	0.0154959
710.849	0.0151603
710.927	0.0148167
711.005	0.0145602
711.083	0.0145041
711.162	0.0142971
711.240	0.0140932
711.318	0.0138367
711.396	0.0138755
711.474	0.0136352
711.552	0.0136343
711.630	0.0137019
711.708	0.0136175
711.787	0.0135045
711.865	0.0137171
711.943	0.0136415
712.021	0.0138178
712.099	0.0136904
712.177	0.0137477
712.255	0.0137094
712.333	0.0137700
712.412	0.0135844
712.490	0.0137778
712.568	0.0136371
712.646	0.0135547
712.724	0.0136248
712.802	0.0137434
712.880	0.0136168
712.958	0.0136954
713.037	0.0136312
713.115	0.0136816
713.193	0.0136053
713.271	0.0135809
713.349	0.0136399
713.427	0.0135464
713.505	0.0136858
713.583	0.0134945
713.662	0.0136202
713.740	0.0136858
713.818	0.0135450
713.896	0.0136260
713.974	0.0135188
714.052	0.0133846
714.130	0.0133784
714.208	0.0134214
714.287	0.0133354
714.365	0.0133823
714.443	0.0134364
714.521	0.0134126
714.599	0.0134794
714.677	0.0135470
714.755	0.0135186
714.833	0.0135216
714.912	0.0135548
714.990	0.0137813
715.068	0.0138605
715.146	0.0137980
715.224	0.0138126
715.302	0.0141182
715.380	0.0140745
715.458	0.0140936
715.537	0.0141064
715.615	0.0141664
715.693	0.0142160
715.771	0.0140684
715.849	0.0141486
715.927	0.0141604
716.005	0.0140846
716.083	0.0140788
716.162	0.0140894
716.240	0.0141008
716.318	0.0140717
716.396	0.0140115
716.474	0.0140968
716.552	0.0141367
716.630	0.0141397
716.708	0.0141170
716.787	0.0143332
716.865	0.0142818
716.943	0.0143192
717.021	0.0140208
717.099	0.0141162
717.177	0.0141315
717.255	0.0141710
717.333	0.0140794
717.412	0.0139872
717.490	0.0139822
717.568	0.0138737
717.646	0.0137756
717.724	0.0139944
717.802	0.0138426
717.880	0.0138133
717.958	0.0138778
718.037	0.0138966
718.115	0.0139130
718.193	0.0139034
718.271	0.0139772
718.349	0.0139236
718.427	0.0138997
718.505	0.0139205
718.583	0.0141074
718.662	0.0138464
718.740	0.0139067
718.818	0.0139025
718.896	0.0138036
718.974	0.0138287
719.052	0.0137150
719.130	0.0137693
719.208	0.0136648
719.287	0.0136377
719.365	0.0136319
719.443	0.0135926
719.521	0.0134598
719.599	0.0131942
719.677	0.0134016
719.755	0.0133466
719.833	0.0132520
719.912	0.0131962
719.990	0.0132956
720.068	0.0133246
720.146	0.0133707
720.224	0.0134126
720.302	0.0135503
720.380	0.0136323
720.458	0.0138424
720.537	0.0136649
720.615	0.0137695
720.693	0.0138988
720.771	0.0139084
720.849	0.0140381
720.927	0.0140814
721.005	0.0139228
721.083	0.0142330
721.162	0.0142371
721.240	0.0142486
721.318	0.0143176
721.396	0.0142316
721.474	0.0142660
721.552	0.0144707
721.630	0.0144919
721.708	0.0144641
721.787	0.0144522
721.865	0.0143526
721.943	0.0143072
722.021	0.0144778
722.099	0.0143114
722.177	0.0142873
722.255	0.0141902
722.333	0.0141673
722.412	0.0141639
722.490	0.0138644
722.568	0.0136936
722.646	0.0137563
722.724	0.0135488
722.802	0.0136364
722.880	0.0135645
722.958	0.0136011
723.037	0.0134695
723.115	0.0134949
723.193	0.0135874
723.271	0.0135474
723.349	0.0134708
723.427	0.0136694
723.505	0.0135854
723.583	0.0135734
723.662	0.0135381
723.740	0.0137043
723.818	0.0138973
723.896	0.0139532
723.974	0.0139362
724.052	0.0140108
724.130	0.0141217
724.208	0.0141559
724.287	0.0143305
724.365	0.0142991
724.443	0.0142435
724.521	0.0140260
724.599	0.0140025
724.677	0.0139907
724.755	0.0139162
724.833	0.0138120
724.912	0.0138160
724.990	0.0137754
725.068	0.0137914
725.146	0.0137127
725.224	0.0137124
725.302	0.0138204
725.380	0.0137196
725.458	0.0137993
725.537	0.0136999
725.615	0.0136955
725.693	0.0138337
725.771	0.0138253
725.849	0.0137080
725.927	0.0138531
726.005	0.0137486
726.083	0.0136072
726.162	0.0137023
726.240	0.0137148
726.318	0.0136275
726.396	0.0135638
726.474	0.0135021
726.552	0.0135458
726.630	0.0135305
726.708	0.0134943
726.787	0.0135415
726.865	0.0134982
726.943	0.0134984
727.021	0.0135646
727.099	0.0136930
727.177	0.0138504
727.255	0.0137933
727.333	0.0140125
727.412	0.0140871
727.490	0.0141604
727.568	0.0141586
727.646	0.0143571
727.724	0.0142970
727.802	0.0143222
727.880	0.0142606
727.958	0.0143220
728.037	0.0142620
728.115	0.0142278
728.193	0.0141580
728.271	0.0140073
728.349	0.0140295
728.427	0.0139791
728.505	0.0139869
728.583	0.0138735
728.662	0.0138242
728.740	0.0138695
728.818	0.0138335
728.896	0.0138515
728.974	0.0137389
729.052	0.0138031
729.130	0.0138396
729.208	0.0138689
729.287	0.0138529
729.365	0.0138715
729.443	0.0138525
729.521	0.0138238
729.599	0.0137717
729.677	0.0138757
729.755	0.0138789
729.833	0.0138828
729.912	0.0138977
729.990	0.0141633
730.068	0.0142570
730.146	0.0141206
730.224	0.0141383
730.302	0.0141945
730.380	0.0143401
730.458	0.0142643
730.537	0.0142494
730.615	0.0142601
730.693	0.0141313
730.771	0.0140743
730.849	0.0140421
730.927	0.0141410
731.005	0.0139893
731.083	0.0139277
731.162	0.0137166
731.240	0.0138635
731.318	0.0137572
731.396	0.0136697
731.474	0.0136601
731.552	0.0135654
731.630	0.0137011
731.708	0.0135529
731.787	0.0135586
731.865	0.0135322
731.943	0.0134963
732.021	0.0134069
732.099	0.0133891
732.177	0.0133744
732.255	0.0134869
732.333	0.0133572
732.412	0.0133922
732.490	0.0134852
732.568	0.0134366
732.646	0.0135724
732.724	0.0135229
732.802	0.0136982
732.880	0.0137334
732.958	0.0137168
733.037	0.0139703
733.115	0.0140173
733.193	0.0139449
733.271	0.0140703
733.349	0.0141067
733.427	0.0141635
733.505	0.0142892
733.583	0.0142224
733.662	0.0141678
733.740	0.0142551
733.818	0.0143555
733.896	0.0142016
733.974	0.0140788
734.052	0.0140232
734.130	0.0139867
734.208	0.0139962
734.287	0.0140608
734.365	0.0140430
734.443	0.0139825
734.521	0.0140511
734.599	0.0139530
734.677	0.0142057
734.755	0.0142424
734.833	0.0142651
734.912	0.0142524
734.990	0.0143402
735.068	0.0142379
735.146	0.0142919
735.224	0.0143157
735.302	0.0144271
735.380	0.0141099
735.458	0.0142444
735.537	0.0141583
735.615	0.0141278
735.693	0.0139533
735.771	0.0138186
735.849	0.0138473
735.927	0.0138480
736.005	0.0138769
736.083	0.0137756
736.162	0.0135757
736.240	0.0135809
736.318	0.0136398
736.396	0.0136462
736.474	0.0138767
736.552	0.0137237
736.630	0.0137148
736.708	0.0135788
736.787	0.0135821
736.865	0.0136171
736.943	0.0136977
737.021	0.0136755
737.099	0.0136388
737.177	0.0136710
737.255	0.0135670
737.333	0.0136886
737.412	0.0135390
737.490	0.0137275
737.568	0.0136742
737.646	0.0139244
737.724	0.0139079
737.802	0.0139587
737.880	0.0138706
737.958	0.0138400
738.037	0.0138942
738.115	0.0139644
738.193	0.0138451
738.271	0.0137460
738.349	0.0137464
738.427	0.0136579
738.505	0.0137753
738.583	0.0138258
738.662	0.0137035
738.740	0.0137163
738.818	0.0137943
738.896	0.0137015
738.974	0.0138348
739.052	0.0138721
739.130	0.0138457
739.208	0.0138484
739.287	0.0138436
739.365	0.0138957
739.443	0.0139870
739.521	0.0139674
739.599	0.0138780
739.677	0.0139507
739.755	0.0141025
739.833	0.0140971
739.912	0.0140310
739.990	0.0139735
740.068	0.0139265
740.146	0.0139156
740.224	0.0140852
740.302	0.0139671
740.380	0.0140701
740.458	0.0140961
740.537	0.0140685
740.615	0.0140943
740.693	0.0140825
740.771	0.0140843
740.849	0.0140224
740.927	0.0140914
741.005	0.0142117
741.083	0.0141235
741.162	0.0141595
741.240	0.0141349
741.318	0.0141460
741.396	0.0140421
741.474	0.0139886
741.552	0.0140813
741.630	0.0140519
741.708	0.0140031
741.787	0.0138412
741.865	0.0137718
741.943	0.0139329
742.021	0.0137153
742.099	0.0137487
742.177	0.0135744
742.255	0.0136124
742.333	0.0137434
742.412	0.0135249
742.490	0.0137923
742.568	0.0138492
742.646	0.0138702
742.724	0.0137611
742.802	0.0138626
742.880	0.0138914
742.958	0.0140302
743.037	0.0138246
743.115	0.0139993
743.193	0.0139906
743.271	0.0139709
743.349	0.0139623
743.427	0.0140778
743.505	0.0139411
743.583	0.0139174
743.662	0.0139488
743.740	0.0139286
743.818	0.0138841
743.896	0.0140025
743.974	0.0139024
744.052	0.0138054
744.130	0.0137237
744.208	0.0136565
744.287	0.0135307
744.365	0.0135907
744.443	0.0133315
744.521	0.0133725
744.599	0.0133542
744.677	0.0134772
744.755	0.0133327
744.833	0.0132194
744.912	0.0134576
744.990	0.0135014
745.068	0.0135505
745.146	0.0135680
745.224	0.0137540
745.302	0.0139502
745.380	0.0140047
745.458	0.0140179
745.537	0.0140834
745.615	0.0142479
745.693	0.0143330
745.771	0.0144264
745.849	0.0143998
745.927	0.0144705
746.005	0.0145021
746.083	0.0145660
746.162	0.0145381
746.240	0.0145718
746.318	0.0146501
746.396	0.0145089
746.474	0.0145396
746.552	0.0144310
746.630	0.0145121
746.708	0.0142355
746.787	0.0141570
746.865	0.0143060
746.943	0.0142377
747.021	0.0140877
747.099	0.0141593
747.177	0.0139955
747.255	0.0139518
747.333	0.0139559
747.412	0.0139046
747.490	0.0140429
747.568	0.0140199
747.646	0.0139890
747.724	0.0140186
747.802	0.0141393
747.880	0.0138850
747.958	0.0138000
748.037	0.0138492
748.115	0.0137865
748.193	0.0137457
748.271	0.0137583
748.349	0.0136961
748.427	0.0137333
748.505	0.0137563
748.583	0.0135416
748.662	0.0135796
748.740	0.0133565
748.818	0.0133946
748.896	0.0135823
748.974	0.0134812
749.052	0.0133477
749.130	0.0133508
749.208	0.0132582
749.287	0.0134526
749.365	0.0133992
749.443	0.0133103
749.521	0.0133282
749.599	0.0134456
749.677	0.0134492
749.755	0.0136192
749.833	0.0136298
749.912	0.0138569
749.990	0.0139242
750.068	0.0140153
750.146	0.0139114
750.224	0.0139400
750.302	0.0140292
750.380	0.0141322
750.458	0.0142493
750.537	0.0142264
750.615	0.0142169
750.693	0.0142996
750.771	0.0142888
750.849	0.0142928
750.927	0.0142578
751.005	0.0141569
751.083	0.0141837
751.162	0.0141315
751.240	0.0141705
751.318	0.0140356
751.396	0.0140614
751.474	0.0139564
751.552	0.0139099
751.630	0.0139137
751.708	0.0138206
751.787	0.0137865
751.865	0.0138892
751.943	0.0139326
752.021	0.0138992
752.099	0.0138029
752.177	0.0138544
752.255	0.0138337
752.333	0.0136520
752.412	0.0136641
752.490	0.0137805
752.568	0.0138597
752.646	0.0136610
752.724	0.0139182
752.802	0.0139435
752.880	0.0139262
752.958	0.0139515
753.037	0.0140160
753.115	0.0139941
753.193	0.0140096
753.271	0.0140954
753.349	0.0142278
753.427	0.0142092
753.505	0.0141690
753.583	0.0141171
753.662	0.0142837
753.740	0.0142599
753.818	0.0142051
753.896	0.0141299
753.974	0.0143401
754.052	0.0141937
754.130	0.0142079
754.208	0.0141187
754.287	0.0142759
754.365	0.0141042
754.443	0.0141119
754.521	0.0140295
754.599	0.0140273
754.677	0.0138084
754.755	0.0140184
754.833	0.0138257
754.912	0.0138148
754.990	0.0137431
755.068	0.0137746
755.146	0.0138017
755.224	0.0136239
755.302	0.0135426
755.380	0.0133784
755.458	0.0135567
755.537	0.0136792
755.615	0.0135862
755.693	0.0136015
755.771	0.0135778
755.849	0.0137104
755.927	0.0138557
756.005	0.0139362
756.083	0.0139071
756.162	0.0139785
756.240	0.0140635
756.318	0.0140931
756.396	0.0141777
756.474	0.0140893
756.552	0.0140706
756.630	0.0143456
756.708	0.0141662
756.787	0.0140482
756.865	0.0141590
756.943	0.0140688
757.021	0.0139165
757.099	0.0138860
757.177	0.0139511
757.255	0.0136483
757.333	0.0136624
757.412	0.0135667
757.490	0.0136726
757.568	0.0135778
757.646	0.0135630
757.724	0.0134083
757.802	0.0134819
757.880	0.0134249
757.958	0.0134827
758.037	0.0135098
758.115	0.0135817
758.193	0.0136680
758.271	0.0136389
758.349	0.0137310
758.427	0.0139336
758.505	0.0139024
758.583	0.0139200
758.662	0.0140606
758.740	0.0141727
758.818	0.0139572
758.896	0.0141624
758.974	0.0142365
759.052	0.0141908
759.130	0.0142755
759.208	0.0142604
759.287	0.0142488
759.365	0.0143661
759.443	0.0142719
759.521	0.0142130
759.599	0.0142886
759.677	0.0144120
759.755	0.0143252
759.833	0.0141517
759.912	0.0142197
759.990	0.0143309
760.068	0.0141997
760.146	0.0141946
760.224	0.0142030
760.302	0.0141080
760.380	0.0139934
760.458	0.0138815
760.537	0.0137851
760.615	0.0140371
760.693	0.0139429
760.771	0.0138051
760.849	0.0137540
760.927	0.0139519
761.005	0.0139467
761.083	0.0138585
761.162	0.0138639
761.240	0.0138445
761.318	0.0137843
761.396	0.0137882
761.474	0.0137823
761.552	0.0137538
761.630	0.0137260
761.708	0.0135322
761.787	0.0134818
761.865	0.0133896
761.943	0.0135357
762.021	0.0133631
762.099	0.0134821
762.177	0.0131924
762.255	0.0132224
762.333	0.0132888
762.412	0.0132353
762.490	0.0132508
762.568	0.0133523
762.646	0.0134599
762.724	0.0135199
762.802	0.0136015
762.880	0.0137436
762.958	0.0137434
763.037	0.0138511
763.115	0.0140591
763.193	0.0140736
763.271	0.0141714
763.349	0.0142007
763.427	0.0143807
763.505	0.0143508
763.583	0.0142947
763.662	0.0144691
763.740	0.0143848
763.818	0.0142870
763.896	0.0143190
763.974	0.0144077
764.052	0.0142517
764.130	0.0142602
764.208	0.0141678
764.287	0.0141390
764.365	0.0143400
764.443	0.0141348
764.521	0.0141655
764.599	0.0140096
764.677	0.0141176
764.755	0.0140607
764.833	0.0140604
764.912	0.0139093
764.990	0.0138760
765.068	0.0140371
765.146	0.0139988
765.224	0.0139503
765.302	0.0139797
765.380	0.0140127
765.458	0.0139407
765.537	0.0141995
765.615	0.0140879
765.693	0.0139614
765.771	0.0141195
765.849	0.0139936
765.927	0.0139870
766.005	0.0139619
766.083	0.0138390
766.162	0.0139464
766.240	0.0140050
766.318	0.0138479
766.396	0.0137035
766.474	0.0138811
766.552	0.0138727
766.630	0.0138294
766.708	0.0138618
766.787	0.0136818
766.865	0.0137118
766.943	0.0138685
767.021	0.0138687
767.099	0.0137312
767.177	0.0137861
767.255	0.0138648
767.333	0.0141206
767.412	0.0140681
767.490	0.0139932
767.568	0.0139974
767.646	0.0141374
767.724	0.0141373
767.802	0.0141982
767.880	0.0140591
767.958	0.0141870
768.037	0.0142133
768.115	0.0140422
768.193	0.0140465
768.271	0.0141350
768.349	0.0140779
768.427	0.0138725
768.505	0.0140249
768.583	0.0139124
768.662	0.0140471
768.740	0.0139174
768.818	0.0139557
768.896	0.0139220
768.974	0.0139890
769.052	0.0139307
769.130	0.0139091
769.208	0.0138512
769.287	0.0141014
769.365	0.0138594
769.443	0.0140266
769.521	0.0138870
769.599	0.0138616
769.677	0.0140118
769.755	0.0139040
769.833	0.0139143
769.912	0.0138429
769.990	0.0139710
770.068	0.0137940
770.146	0.0137101
770.224	0.0138500
770.302	0.0138297
770.380	0.0138750
770.458	0.0137930
770.537	0.0138742
770.615	0.0140012
770.693	0.0139068
770.771	0.0139676
770.849	0.0140205
770.927	0.0139033
771.005	0.0139516
771.083	0.0140491
771.162	0.0140241
771.240	0.0139070
771.318	0.0139048
771.396	0.0139532
771.474	0.0138304
771.552	0.0139091
771.630	0.0139926
771.708	0.0139249
771.787	0.0138983
771.865	0.0139421
771.943	0.0138100
772.021	0.0137262
772.099	0.0138872
772.177	0.0138163
772.255	0.0139664
772.333	0.0137170
772.412	0.0136480
772.490	0.0139334
772.568	0.0138275
772.646	0.0136311
772.724	0.0136953
772.802	0.0137486
772.880	0.0136790
772.958	0.0136772
773.037	0.0136665
773.115	0.0137324
773.193	0.0137413
773.271	0.0136268
773.349	0.0136765
773.427	0.0138228
773.505	0.0139186
773.583	0.0139877
773.662	0.0138461
773.740	0.0138893
773.818	0.0139946
773.896	0.0139819
773.974	0.0139765
774.052	0.0140352
774.130	0.0141160
774.208	0.0141117
774.287	0.0141663
774.365	0.0141398
774.443	0.0139806
774.521	0.0139761
774.599	0.0139622
774.677	0.0139320
774.755	0.0139143
774.833	0.0138689
774.912	0.0137917
774.990	0.0138195
775.068	0.0137133
775.146	0.0137617
775.224	0.0137868
775.302	0.0137500
775.380	0.0136852
775.458	0.0136968
775.537	0.0137807
775.615	0.0136047
775.693	0.0137573
775.771	0.0136620
775.849	0.0136117
775.927	0.0138572
776.005	0.0136884
776.083	0.0137003
776.162	0.0139348
776.240	0.0138486
776.318	0.0138008
776.396	0.0137974
776.474	0.0137543
776.552	0.0139666
776.630	0.0139234
776.708	0.0138210
776.787	0.0139231
776.865	0.0139052
776.943	0.0139701
777.021	0.0140469
777.099	0.0139944
777.177	0.0139391
777.255	0.0138833
777.333	0.0138730
777.412	0.0139445
777.490	0.0139278
777.568	0.0138869
777.646	0.0138744
777.724	0.0138450
777.802	0.0137235
777.880	0.0138604
777.958	0.0137839
778.037	0.0138633
778.115	0.0139231
778.193	0.0139006
778.271	0.0138666
778.349	0.0139882
778.427	0.0139932
778.505	0.0141365
778.583	0.0140007
778.662	0.0139933
778.740	0.0139621
778.818	0.0139697
778.896	0.0139276
778.974	0.0140571
779.052	0.0140020
779.130	0.0140280
779.208	0.0139809
779.287	0.0139399
779.365	0.0139366
779.443	0.0138514
779.521	0.0139589
779.599	0.0139925
779.677	0.0139965
779.755	0.0138878
779.833	0.0138937
779.912	0.0139691
779.990	0.0140295
780.068	0.0141405
780.146	0.0139773
780.224	0.0138326
780.302	0.0140974
780.380	0.0138776
780.458	0.0138500
780.537	0.0138394
780.615	0.0138841
780.693	0.0139182
780.771	0.0137775
780.849	0.0137272
780.927	0.0137724
781.005	0.0137174
781.083	0.0136944
781.162	0.0137464
781.240	0.0135895
781.318	0.0136394
781.396	0.0136554
781.474	0.0136517
781.552	0.0136252
781.630	0.0138465
781.708	0.0138501
781.787	0.0138027
781.865	0.0138039
781.943	0.0139516
782.021	0.0137229
782.099	0.0138274
782.177	0.0136974
782.255	0.0137359
782.333	0.0138062
782.412	0.0138733
782.490	0.0138841
782.568	0.0139165
782.646	0.0139381
782.724	0.0138977
782.802	0.0139426
782.880	0.0137650
782.958	0.0138920
783.037	0.0139073
783.115	0.0139272
783.193	0.0139628
783.271	0.0139687
783.349	0.0140326
783.427	0.0139910
783.505	0.0139825
783.583	0.0140934
783.662	0.0138606
783.740	0.0140580
783.818	0.0141072
783.896	0.0139500
783.974	0.0139776
784.052	0.0140368
784.130	0.0139134
784.208	0.0139014
784.287	0.0138171
784.365	0.0138419
784.443	0.0137336
784.521	0.0137871
784.599	0.0136299
784.677	0.0137112
784.755	0.0137683
784.833	0.0136762
784.912	0.0136445
784.990	0.0135908
785.068	0.0136194
785.146	0.0136287
785.224	0.0135777
785.302	0.0135261
785.380	0.0136388
785.458	0.0136511
785.537	0.0136960
785.615	0.0138345
785.693	0.0138917
785.771	0.0139478
785.849	0.0139696
785.927	0.0138554
786.005	0.0140266
786.083	0.0141195
786.162	0.0141512
786.240	0.0141676
786.318	0.0140294
786.396	0.0139591
786.474	0.0140409
786.552	0.0140438
786.630	0.0139684
786.708	0.0139594
786.787	0.0139632
786.865	0.0139359
786.943	0.0138910
787.021	0.0138438
787.099	0.0138948
787.177	0.0138747
787.255	0.0138991
787.333	0.0137749
787.412	0.0138078
787.490	0.0138973
787.568	0.0139665
787.646	0.0138334
787.724	0.0139747
787.802	0.0138725
787.880	0.0140515
787.958	0.0140583
788.037	0.0139526
788.115	0.0141399
788.193	0.0140715
788.271	0.0141031
788.349	0.0138751
788.427	0.0141666
788.505	0.0142948
788.583	0.0139807
788.662	0.0140552
788.740	0.0140663
788.818	0.0138911
788.896	0.0138651
788.974	0.0139780
789.052	0.0138069
789.130	0.0138492
789.208	0.0138049
789.287	0.0139822
789.365	0.0139131
789.443	0.0138529
789.521	0.0138345
789.599	0.0138390
789.677	0.0137928
789.755	0.0138110
789.833	0.0136699
789.912	0.0138920
789.990	0.0139030
790.068	0.0138023
790.146	0.0137388
790.224	0.0138296
790.302	0.0138257
790.380	0.0138694
790.458	0.0140507
790.537	0.0140501
790.615	0.0139066
790.693	0.0140027
790.771	0.0139897
790.849	0.0139539
790.927	0.0139966
791.005	0.0141177
791.083	0.0141235
791.162	0.0139407
791.240	0.0140898
791.318	0.0140404
791.396	0.0140320
791.474	0.0139230
791.552	0.0139663
791.630	0.0138987
791.708	0.0139542
791.787	0.0138226
791.865	0.0139424
791.943	0.0135561
792.021	0.0136523
792.099	0.0137352
792.177	0.0137060
792.255	0.0136092
792.333	0.0135472
792.412	0.0134899
792.490	0.0135548
792.568	0.0134570
792.646	0.0134391
792.724	0.0134081
792.802	0.0135262
792.880	0.0134367
792.958	0.0134296
793.037	0.0135161
793.115	0.0134966
793.193	0.0135734
793.271	0.0137378
793.349	0.0136440
793.427	0.0136694
793.505	0.0138250
793.583	0.0137802
793.662	0.0137533
793.740	0.0137941
793.818	0.0138390
793.896	0.0140182
793.974	0.0140001
794.052	0.0138919
794.130	0.0140956
794.208	0.0141745
794.287	0.0142820
794.365	0.0141167
794.443	0.0142760
794.521	0.0143373
794.599	0.0144234
794.677	0.0143793
794.755	0.0144931
794.833	0.0145501
794.912	0.0145520
794.990	0.0144883
795.068	0.0143854
795.146	0.0144676
795.224	0.0144772
795.302	0.0143588
795.380	0.0143675
795.458	0.0141611
795.537	0.0141931
795.615	0.0140610
795.693	0.0139306
795.771	0.0140059
795.849	0.0139073
795.927	0.0137927
796.005	0.0137627
796.083	0.0137173
796.162	0.0136476
796.240	0.0135598
796.318	0.0135318
796.396	0.0135974
796.474	0.0135246
796.552	0.0135260
796.630	0.0134345
796.708	0.0133720
796.787	0.0134735
796.865	0.0136404
796.943	0.0135718
797.021	0.0133975
797.099	0.0134017
797.177	0.0135445
797.255	0.0134437
797.333	0.0135391
797.412	0.0135498
797.490	0.0137353
797.568	0.0135361
797.646	0.0137126
797.724	0.0136568
797.802	0.0136880
797.880	0.0138542
797.958	0.0136940
798.037	0.0138628
798.115	0.0139608
798.193	0.0137737
798.271	0.0137688
798.349	0.0136845
798.427	0.0139021
798.505	0.0138890
798.583	0.0137373
798.662	0.0139188
798.740	0.0139881
798.818	0.0139191
798.896	0.0138448
798.974	0.0140374
799.052	0.0139900
799.130	0.0139651
799.208	0.0139779
799.287	0.0141807
799.365	0.0142333
799.443	0.0140708
799.521	0.0141203
799.599	0.0141413
799.677	0.0143194
799.755	0.0141020
799.833	0.0141116
799.912	0.0144284
799.990	0.0142376
800.068	0.0141542
800.146	0.0141124
800.224	0.0140575
800.302	0.0140958
800.380	0.0140238
800.458	0.0138865
800.537	0.0138810
800.615	0.0138688
800.693	0.0137525
800.771	0.0137341
800.849	0.0135947
800.927	0.0136706
801.005	0.0136413
801.083	0.0135268
801.162	0.0136332
801.240	0.0135703
801.318	0.0136627
801.396	0.0136800
801.474	0.0137253
801.552	0.0136960
801.630	0.0138196
801.708	0.0138303
801.787	0.0138279
801.865	0.0138480
801.943	0.0138096
802.021	0.0138034
802.099	0.0139164
802.177	0.0138404
802.255	0.0139242
802.333	0.0138243
802.412	0.0137865
802.490	0.0140172
802.568	0.0139070
802.646	0.0137794
802.724	0.0140595
802.802	0.0139309
802.880	0.0139463
802.958	0.0139918
803.037	0.0139450
803.115	0.0139648
803.193	0.0138181
803.271	0.0139760
803.349	0.0137869
803.427	0.0138965
803.505	0.0140157
803.583	0.0139064
803.662	0.0139145
803.740	0.0139005
803.818	0.0139368
803.896	0.0138580
803.974	0.0137609
804.052	0.0137145
804.130	0.0137684
804.208	0.0139579
804.287	0.0137872
804.365	0.0137977
804.443	0.0137708
804.521	0.0139184
804.599	0.0137675
804.677	0.0137068
804.755	0.0138428
804.833	0.0138688
804.912	0.0139371
804.990	0.0137682
805.068	0.0138634
805.146	0.0139280
805.224	0.0139950
805.302	0.0139301
805.380	0.0138276
805.458	0.0138548
805.537	0.0138756
805.615	0.0138757
805.693	0.0138538
805.771	0.0139091
805.849	0.0139822
805.927	0.0138390
806.005	0.0138903
806.083	0.0139095
806.162	0.0139441
806.240	0.0137763
806.318	0.0138798
806.396	0.0138020
806.474	0.0138522
806.552	0.0139368
806.630	0.0138046
806.708	0.0138259
806.787	0.0137491
806.865	0.0138957
806.943	0.0137492
807.021	0.0138026
807.099	0.0138169
807.177	0.0138754
807.255	0.0138320
807.333	0.0139226
807.412	0.0137193
807.490	0.0138572
807.568	0.0138332
807.646	0.0138492
807.724	0.0139486
807.802	0.0139326
807.880	0.0138941
807.958	0.0138364
808.037	0.0138076
808.115	0.0138593
808.193	0.0137997
808.271	0.0139050
808.349	0.0137878
808.427	0.0138541
808.505	0.0138207
808.583	0.0137607
808.662	0.0139654
808.740	0.0138921
808.818	0.0138113
808.896	0.0137736
808.974	0.0137750
809.052	0.0139150
809.130	0.0138313
809.208	0.0139299
809.287	0.0138325
809.365	0.0139883
809.443	0.0139081
809.521	0.0139013
809.599	0.0140153
809.677	0.0140601
809.755	0.0139845
809.833	0.0139066
809.912	0.0138328
809.990	0.0138065
810.068	0.0139449
810.146	0.0138710
810.224	0.0140038
810.302	0.0139140
810.380	0.0138661
810.458	0.0139223
810.537	0.0137996
810.615	0.0139181
810.693	0.0138332
810.771	0.0138056
810.849	0.0139153
810.927	0.0139587
811.005	0.0137878
811.083	0.0138517
811.162	0.0138994
811.240	0.0138124
811.318	0.0138447
811.396	0.0138871
811.474	0.0138643
811.552	0.0138560
811.630	0.0138226
811.708	0.0139336
811.787	0.0137701
811.865	0.0138483
811.943	0.0140441
812.021	0.0140500
812.099	0.0138946
812.177	0.0139934
812.255	0.0138742
812.333	0.0138958
812.412	0.0140724
812.490	0.0139750
812.568	0.0137951
812.646	0.0139303
812.724	0.0139603
812.802	0.0139925
812.880	0.0139555
812.958	0.0140893
813.037	0.0140056
813.115	0.0141156
813.193	0.0141190
813.271	0.0140434
813.349	0.0141287
813.427	0.0141332
813.505	0.0140715
813.583	0.0139656
813.662	0.0139655
813.740	0.0140115
813.818	0.0141071
813.896	0.0140802
813.974	0.0140507
814.052	0.0139638
814.130	0.0139303
814.208	0.0139328
814.287	0.0139204
814.365	0.0137634
814.443	0.0139425
814.521	0.0137984
814.599	0.0137225
814.677	0.0138979
814.755	0.0138915
814.833	0.0138387
814.912	0.0136749
814.990	0.0139027
815.068	0.0137754
815.146	0.0137989
815.224	0.0137447
815.302	0.0137621
815.380	0.0138044
815.458	0.0138242
815.537	0.0139284
815.615	0.0139490
815.693	0.0139744
815.771	0.0139556
815.849	0.0139243
815.927	0.0140599
816.005	0.0139872
816.083	0.0139645
816.162	0.0140388
816.240	0.0140166
816.318	0.0140246
816.396	0.0139095
816.474	0.0140011
816.552	0.0141502
816.630	0.0139816
816.708	0.0140543
816.787	0.0140013
816.865	0.0138982
816.943	0.0140400
817.021	0.0139801
817.099	0.0140659
817.177	0.0138906
817.255	0.0141061
817.333	0.0141234
817.412	0.0140076
817.490	0.0139397
817.568	0.0139943
817.646	0.0139696
817.724	0.0138715
817.802	0.0138841
817.880	0.0138424
817.958	0.0139038
818.037	0.0138431
818.115	0.0136690
818.193	0.0137662
818.271	0.0137191
818.349	0.0137372
818.427	0.0136772
818.505	0.0137032
818.583	0.0138127
818.662	0.0137579
818.740	0.0138387
818.818	0.0139150
818.896	0.0138719
818.974	0.0138248
819.052	0.0138202
819.130	0.0138737
819.208	0.0139960
819.287	0.0139559
819.365	0.0139674
819.443	0.0140380
819.521	0.0138255
819.599	0.0141368
819.677	0.0139735
819.755	0.0139552
819.833	0.0138470
819.912	0.0139221
819.990	0.0139366
820.068	0.0139447
820.146	0.0137946
820.224	0.0138176
820.302	0.0138054
820.380	0.0137891
820.458	0.0136924
820.537	0.0136333
820.615	0.0136473
820.693	0.0138025
820.771	0.0137914
820.849	0.0137168
820.927	0.0135299
821.005	0.0136232
821.083	0.0136164
821.162	0.0135962
821.240	0.0137191
821.318	0.0137389
821.396	0.0136521
821.474	0.0137151
821.552	0.0136985
821.630	0.0138040
821.708	0.0137198
821.787	0.0137983
821.865	0.0138749
821.943	0.0139558
822.021	0.0139068
822.099	0.0138312
822.177	0.0139646
822.255	0.0139891
822.333	0.0139666
822.412	0.0139516
822.490	0.0139794
822.568	0.0140159
822.646	0.0139266
822.724	0.0141006
822.802	0.0140015
822.880	0.0138808
822.958	0.0139610
823.037	0.0138896
823.115	0.0138822
823.193	0.0138403
823.271	0.0138951
823.349	0.0139755
823.427	0.0139872
823.505	0.0138690
823.583	0.0137959
823.662	0.0139050
823.740	0.0139585
823.818	0.0138662
823.896	0.0139665
823.974	0.0139717
824.052	0.0138905
824.130	0.0139349
824.208	0.0139773
824.287	0.0138660
824.365	0.0138944
824.443	0.0139936
824.521	0.0141268
824.599	0.0139268
824.677	0.0139346
824.755	0.0139688
824.833	0.0140517
824.912	0.0140704
824.990	0.0141318
825.068	0.0140028
825.146	0.0140036
825.224	0.0141678
825.302	0.0141663
825.380	0.0141817
825.458	0.0141324
825.537	0.0140063
825.615	0.0141295
825.693	0.0140368
825.771	0.0141087
825.849	0.0140087
825.927	0.0139861
826.005	0.0140215
826.083	0.0140350
826.162	0.0140208
826.240	0.0139139
826.318	0.0139463
826.396	0.0139128
826.474	0.0138113
826.552	0.0139310
826.630	0.0139794
826.708	0.0139822
826.787	0.0139240
826.865	0.0138385
826.943	0.0139511
827.021	0.0140262
827.099	0.0139605
827.177	0.0139560
827.255	0.0140357
827.333	0.0140223
827.412	0.0140028
827.490	0.0140108
827.568	0.0141351
827.646	0.0140333
827.724	0.0139435
827.802	0.0140749
827.880	0.0139892
827.958	0.0139026
828.037	0.0139152
828.115	0.0138914
828.193	0.0138978
828.271	0.0137483
828.349	0.0137534
828.427	0.0136810
828.505	0.0138698
828.583	0.0136794
828.662	0.0137642
828.740	0.0137162
828.818	0.0136567
828.896	0.0137064
828.974	0.0136579
829.052	0.0136936
829.130	0.0136325
829.208	0.0137006
829.287	0.0137527
829.365	0.0135861
829.443	0.0136983
829.521	0.0137243
829.599	0.0136883
829.677	0.0138154
829.755	0.0137766
829.833	0.0135942
829.912	0.0137282
829.990	0.0138385
830.068	0.0136993
830.146	0.0138089
830.224	0.0138583
830.302	0.0137804
830.380	0.0137389
830.458	0.0140026
830.537	0.0139561
830.615	0.0139497
830.693	0.0140031
830.771	0.0140261
830.849	0.0139943
830.927	0.0140479
831.005	0.0141705
831.083	0.0140759
831.162	0.0140588
831.240	0.0140990
831.318	0.0141547
831.396	0.0141061
831.474	0.0140334
831.552	0.0139946
831.630	0.0140092
831.708	0.0139988
831.787	0.0139584
831.865	0.0139906
831.943	0.0139172
832.021	0.0139755
832.099	0.0137872
832.177	0.0138174
832.255	0.0137235
832.333	0.0139445
832.412	0.0140295
832.490	0.0140310
832.568	0.0137619
832.646	0.0141189
832.724	0.0138986
832.802	0.0138931
832.880	0.0140481
832.958	0.0138938
833.037	0.0140123
833.115	0.0139270
833.193	0.0138940
833.271	0.0138750
833.349	0.0139809
833.427	0.0139347
833.505	0.0138511
833.583	0.0139337
833.662	0.0138564
833.740	0.0140011
833.818	0.0138861
833.896	0.0138683
833.974	0.0138327
834.052	0.0137038
834.130	0.0136613
834.208	0.0136243
834.287	0.0137930
834.365	0.0138728
834.443	0.0138123
834.521	0.0138058
834.599	0.0138532
834.677	0.0139006
834.755	0.0138734
834.833	0.0139014
834.912	0.0138637
834.990	0.0138121
835.068	0.0139139
835.146	0.0138496
835.224	0.0138928
835.302	0.0138716
835.380	0.0138258
835.458	0.0139066
835.537	0.0139799
835.615	0.0139541
835.693	0.0140342
835.771	0.0140524
835.849	0.0139158
835.927	0.0141560
836.005	0.0141190
836.083	0.0141457
836.162	0.0141475
836.240	0.0141817
836.318	0.0141843
836.396	0.0140841
836.474	0.0142818
836.552	0.0143013
836.630	0.0143826
836.708	0.0140693
836.787	0.0140885
836.865	0.0142762
836.943	0.0142098
837.021	0.0141479
837.099	0.0141165
837.177	0.0141793
837.255	0.0140849
837.333	0.0139005
837.412	0.0139471
837.490	0.0140369
837.568	0.0141091
837.646	0.0140615
837.724	0.0139091
837.802	0.0138766
837.880	0.0139513
837.958	0.0140102
838.037	0.0140549
838.115	0.0139001
838.193	0.0140039
838.271	0.0138293
838.349	0.0139020
838.427	0.0140488
838.505	0.0137959
838.583	0.0137944
838.662	0.0136672
838.740	0.0138630
838.818	0.0138208
838.896	0.0137977
838.974	0.0137624
839.052	0.0137856
839.130	0.0138029
839.208	0.0137014
839.287	0.0137263
839.365	0.0135500
839.443	0.0136938
839.521	0.0137120
839.599	0.0137582
839.677	0.0139055
839.755	0.0139285
839.833	0.0138232
839.912	0.0139272
839.990	0.0139326
840.068	0.0139243
840.146	0.0138762
840.224	0.0138641
840.302	0.0139952
840.380	0.0140105
840.458	0.0139838
840.537	0.0140876
840.615	0.0140792
840.693	0.0139068
840.771	0.0139179
840.849	0.0138916
840.927	0.0138577
841.005	0.0140028
841.083	0.0139313
841.162	0.0138121
841.240	0.0136713
841.318	0.0138456
841.396	0.0138715
841.474	0.0139177
841.552	0.0138558
841.630	0.0136964
841.708	0.0137701
841.787	0.0138615
841.865	0.0138750
841.943	0.0136805
842.021	0.0137806
842.099	0.0138838
842.177	0.0138435
842.255	0.0139204
842.333	0.0139632
842.412	0.0138873
842.490	0.0138668
842.568	0.0138881
842.646	0.0139711
842.724	0.0139025
842.802	0.0137511
842.880	0.0137034
842.958	0.0137528
843.037	0.0137935
843.115	0.0137961
843.193	0.0138298
843.271	0.0139307
843.349	0.0137103
843.427	0.0137799
843.505	0.0137782
843.583	0.0138799
843.662	0.0137197
843.740	0.0137981
843.818	0.0140274
843.896	0.0138789
843.974	0.0138619
844.052	0.0138860
844.130	0.0137715
844.208	0.0138528
844.287	0.0139481
844.365	0.0139790
844.443	0.0138915
844.521	0.0138153
844.599	0.0139419
844.677	0.0138149
844.755	0.0138021
844.833	0.0137914
844.912	0.0139053
844.990	0.0140104
845.068	0.0139767
845.146	0.0138448
845.224	0.0139801
845.302	0.0138795
845.380	0.0138346
845.458	0.0139279
845.537	0.0138167
845.615	0.0139743
845.693	0.0139433
845.771	0.0139788
845.849	0.0138814
845.927	0.0138481
846.005	0.0138182
846.083	0.0137421
846.162	0.0136752
846.240	0.0139075
846.318	0.0139469
846.396	0.0137759
846.474	0.0138093
846.552	0.0138696
846.630	0.0138860
846.708	0.0138910
846.787	0.0139254
846.865	0.0138487
846.943	0.0140260
847.021	0.0139407
847.099	0.0140434
847.177	0.0141108
847.255	0.0140753
847.333	0.0140498
847.412	0.0140008
847.490	0.0140789
847.568	0.0141457
847.646	0.0141107
847.724	0.0140849
847.802	0.0141547
847.880	0.0141020
847.958	0.0140752
848.037	0.0141844
848.115	0.0140459
848.193	0.0139222
848.271	0.0140023
848.349	0.0140022
848.427	0.0139730
848.505	0.0138704
848.583	0.0138158
848.662	0.0140264
848.740	0.0140181
848.818	0.0139288
848.896	0.0139488
848.974	0.0138300
849.052	0.0138525
849.130	0.0139625
849.208	0.0138971
849.287	0.0140221
849.365	0.0139697
849.443	0.0140730
849.521	0.0141625
849.599	0.0140659
849.677	0.0140697
849.755	0.0140369
849.833	0.0141938
849.912	0.0140118
849.990	0.0141127
850.068	0.0141277
850.146	0.0140661
850.224	0.0142673
850.302	0.0141046
850.380	0.0139510
850.458	0.0140288
850.537	0.0140327
850.615	0.0139069
850.693	0.0139515
850.771	0.0140069
850.849	0.0137959
850.927	0.0139150
851.005	0.0138039
851.083	0.0137939
851.162	0.0139764
851.240	0.0138599
851.318	0.0137949
851.396	0.0137240
851.474	0.0138935
851.552	0.0138859
851.630	0.0138992
851.708	0.0139618
851.787	0.0139812
851.865	0.0137773
851.943	0.0138721
852.021	0.0138541
852.099	0.0138650
852.177	0.0138702
852.255	0.0138387
852.333	0.0139442
852.412	0.0139675
852.490	0.0138680
852.568	0.0137807
852.646	0.0136970
852.724	0.0137021
852.802	0.0138702
852.880	0.0137495
852.958	0.0137080
853.037	0.0138338
853.115	0.0136692
853.193	0.0136779
853.271	0.0137883
853.349	0.0137868
853.427	0.0138163
853.505	0.0139251
853.583	0.0137278
853.662	0.0138317
853.740	0.0137784
853.818	0.0139252
853.896	0.0140675
853.974	0.0138698
854.052	0.0138940
854.130	0.0141274
854.208	0.0140491
854.287	0.0139983
854.365	0.0141229
854.443	0.0141469
854.521	0.0139433
854.599	0.0139791
854.677	0.0140339
854.755	0.0140793
854.833	0.0141335
854.912	0.0141005
854.990	0.0139893
855.068	0.0141420
855.146	0.0140607
855.224	0.0139825
855.302	0.0139968
855.380	0.0141020
855.458	0.0139600
855.537	0.0139281
855.615	0.0139906
855.693	0.0139442
855.771	0.0139547
855.849	0.0138654
855.927	0.0140038
856.005	0.0138232
856.083	0.0139359
856.162	0.0139390
856.240	0.0139626
856.318	0.0139581
856.396	0.0139472
856.474	0.0138465
856.552	0.0139731
856.630	0.0139233
856.708	0.0138633
856.787	0.0139799
856.865	0.0139831
856.943	0.0140405
857.021	0.0139951
857.099	0.0138943
857.177	0.0139868
857.255	0.0140424
857.333	0.0139125
857.412	0.0139886
857.490	0.0140694
857.568	0.0139091
857.646	0.0138580
857.724	0.0137799
857.802	0.0139238
857.880	0.0139426
857.958	0.0138687
858.037	0.0138905
858.115	0.0139926
858.193	0.0138374
858.271	0.0137231
858.349	0.0138783
858.427	0.0138873
858.505	0.0137566
858.583	0.0137020
858.662	0.0138332
858.740	0.0138959
858.818	0.0138525
858.896	0.0138787
858.974	0.0139005
859.052	0.0138345
859.130	0.0138127
859.208	0.0138308
859.287	0.0138583
859.365	0.0138110
859.443	0.0139906
859.521	0.0140727
859.599	0.0141539
859.677	0.0140408
859.755	0.0139008
859.833	0.0139322
859.912	0.0140335
859.990	0.0141069
860.068	0.0139469
860.146	0.0139639
860.224	0.0140138
860.302	0.0141362
860.380	0.0140123
860.458	0.0140102
860.537	0.0140313
860.615	0.0139688
860.693	0.0140513
860.771	0.0139394
860.849	0.0138818
860.927	0.0139960
861.005	0.0139478
861.083	0.0140593
861.162	0.0140723
861.240	0.0139251
861.318	0.0139624
861.396	0.0139748
861.474	0.0140551
861.552	0.0140812
861.630	0.0139983
861.708	0.0140240
861.787	0.0139297
861.865	0.0140462
861.943	0.0141226
862.021	0.0141332
862.099	0.0139494
862.177	0.0141706
862.255	0.0142157
862.333	0.0139937
862.412	0.0139754
862.490	0.0140893
862.568	0.0140058
862.646	0.0139632
862.724	0.0139176
862.802	0.0139064
862.880	0.0140241
862.958	0.0139294
863.037	0.0139807
863.115	0.0139720
863.193	0.0138490
863.271	0.0137753
863.349	0.0138232
863.427	0.0138443
863.505	0.0138484
863.583	0.0137730
863.662	0.0137128
863.740	0.0137815
863.818	0.0137425
863.896	0.0137547
863.974	0.0137332
864.052	0.0138865
864.130	0.0138947
864.208	0.0139024
864.287	0.0139586
864.365	0.0139214
864.443	0.0139297
864.521	0.0140094
864.599	0.0139403
864.677	0.0139678
864.755	0.0139072
864.833	0.0139372
864.912	0.0137834
864.990	0.0138234
865.068	0.0139629
865.146	0.0138264
865.224	0.0139124
865.302	0.0138638
865.380	0.0138553
865.458	0.0138594
865.537	0.0137741
865.615	0.0138187
865.693	0.0136860
865.771	0.0138482
865.849	0.0139862
865.927	0.0138620
866.005	0.0139407
866.083	0.0140275
866.162	0.0138876
866.240	0.0137291
866.318	0.0139355
866.396	0.0139156
866.474	0.0139089
866.552	0.0138702
866.630	0.0139037
866.708	0.0138469
866.787	0.0138227
866.865	0.0139291
866.943	0.0139219
867.021	0.0140083
867.099	0.0140237
867.177	0.0138163
867.255	0.0139128
867.333	0.0139988
867.412	0.0140655
867.490	0.0140633
867.568	0.0137786
867.646	0.0139769
867.724	0.0140901
867.802	0.0140551
867.880	0.0139893
867.958	0.0139369
868.037	0.0139318
868.115	0.0139809
868.193	0.0141378
868.271	0.0139788
868.349	0.0141209
868.427	0.0140338
868.505	0.0140951
868.583	0.0140273
868.662	0.0141111
868.740	0.0140420
868.818	0.0140965
868.896	0.0140987
868.974	0.0140385
869.052	0.0141442
869.130	0.0140961
869.208	0.0140181
869.287	0.0140699
869.365	0.0139852
869.443	0.0139481
869.521	0.0140221
869.599	0.0140369
869.677	0.0139469
869.755	0.0139641
869.833	0.0138820
869.912	0.0138532
869.990	0.0138417
870.068	0.0138184
870.146	0.0138000
870.224	0.0137566
870.302	0.0137549
870.380	0.0137006
870.458	0.0137982
870.537	0.0137514
870.615	0.0137516
870.693	0.0136673
870.771	0.0137305
870.849	0.0137435
870.927	0.0139320
871.005	0.0138972
871.083	0.0138264
871.162	0.0138979
871.240	0.0137459
871.318	0.0137992
871.396	0.0138382
871.474	0.0139618
871.552	0.0138669
871.630	0.0138167
871.708	0.0139383
871.787	0.0137661
871.865	0.0138243
871.943	0.0138714
872.021	0.0138099
872.099	0.0140571
872.177	0.0140420
872.255	0.0138734
872.333	0.0139928
872.412	0.0139622
872.490	0.0139899
872.568	0.0139967
872.646	0.0139086
872.724	0.0139430
872.802	0.0139836
872.880	0.0138522
872.958	0.0139219
873.037	0.0138116
873.115	0.0138582
873.193	0.0137467
873.271	0.0136938
873.349	0.0138027
873.427	0.0139820
873.505	0.0138184
873.583	0.0137937
873.662	0.0138701
873.740	0.0139062
873.818	0.0138734
873.896	0.0139243
873.974	0.0140263
874.052	0.0139995
874.130	0.0139748
874.208	0.0139307
874.287	0.0140060
874.365	0.0141259
874.443	0.0141371
874.521	0.0139266
874.599	0.0139946
874.677	0.0138316
874.755	0.0138491
874.833	0.0138690
874.912	0.0138310
874.990	0.0136160
875.068	0.0138208
875.146	0.0138258
875.224	0.0138105
875.302	0.0135585
875.380	0.0136626
875.458	0.0137621
875.537	0.0139581
875.615	0.0141029
875.693	0.0140614
875.771	0.0141064
875.849	0.0140388
875.927	0.0140299
876.005	0.0141491
876.083	0.0141549
876.162	0.0140253
876.240	0.0140507
876.318	0.0139946
876.396	0.0139776
876.474	0.0139823
876.552	0.0140071
876.630	0.0138293
876.708	0.0137159
876.787	0.0136948
876.865	0.0137331
876.943	0.0137009
877.021	0.0136340
877.099	0.0136787
877.177	0.0135713
877.255	0.0135448
877.333	0.0135531
877.412	0.0136151
877.490	0.0137384
877.568	0.0137420
877.646	0.0137670
877.724	0.0138794
877.802	0.0138065
877.880	0.0139133
877.958	0.0140113
878.037	0.0139881
878.115	0.0140439
878.193	0.0141949
878.271	0.0141375
878.349	0.0141386
878.427	0.0142554
878.505	0.0141674
878.583	0.0141486
878.662	0.0141660
878.740	0.0139887
878.818	0.0141026
878.896	0.0140727
878.974	0.0138098
879.052	0.0140112
879.130	0.0138269
879.208	0.0137199
879.287	0.0137814
879.365	0.0135394
879.443	0.0135636
879.521	0.0134602
879.599	0.0135845
879.677	0.0137064
879.755	0.0136938
879.833	0.0137289
879.912	0.0138578
879.990	0.0138377
880.068	0.0138405
880.146	0.0137768
880.224	0.0139758
880.302	0.0139293
880.380	0.0139819
880.458	0.0140559
880.537	0.0141654
880.615	0.0140644
880.693	0.0141013
880.771	0.0140732
880.849	0.0141569
880.927	0.0139765
881.005	0.0139864
881.083	0.0141015
881.162	0.0140195
881.240	0.0140611
881.318	0.0139943
881.396	0.0139195
881.474	0.0136866
881.552	0.0137489
881.630	0.0138764
881.708	0.0138181
881.787	0.0136907
881.865	0.0135294
881.943	0.0136676
882.021	0.0137322
882.099	0.0134479
882.177	0.0133900
882.255	0.0136520
882.333	0.0135350
882.412	0.0133771
882.490	0.0135634
882.568	0.0136011
882.646	0.0136158
882.724	0.0137524
882.802	0.0136669
882.880	0.0137312
882.958	0.0138644
883.037	0.0138344
883.115	0.0140833
883.193	0.0140278
883.271	0.0140739
883.349	0.0140326
883.427	0.0140011
883.505	0.0141885
883.583	0.0141772
883.662	0.0141237
883.740	0.0140389
883.818	0.0139665
883.896	0.0138981
883.974	0.0140586
884.052	0.0140343
884.130	0.0139137
884.208	0.0138515
884.287	0.0137852
884.365	0.0138367
884.443	0.0139284
884.521	0.0136201
884.599	0.0136478
884.677	0.0135429
884.755	0.0137333
884.833	0.0136596
884.912	0.0135791
884.990	0.0136076
885.068	0.0136270
885.146	0.0137550
885.224	0.0136430
885.302	0.0138830
885.380	0.0138469
885.458	0.0138540
885.537	0.0140394
885.615	0.0138908
885.693	0.0140134
885.771	0.0139600
885.849	0.0139601
885.927	0.0140443
886.005	0.0141402
886.083	0.0140717
886.162	0.0140855
886.240	0.0141061
886.318	0.0141490
886.396	0.0140083
886.474	0.0140325
886.552	0.0141109
886.630	0.0139310
886.708	0.0139342
886.787	0.0139301
886.865	0.0136176
886.943	0.0136350
887.021	0.0135732
887.099	0.0134227
887.177	0.0135256
887.255	0.0134304
887.333	0.0135406
887.412	0.0134264
887.490	0.0134700
887.568	0.0134959
887.646	0.0134010
887.724	0.0134994
887.802	0.0135567
887.880	0.0136845
887.958	0.0137656
888.037	0.0136388
888.115	0.0136473
888.193	0.0137630
888.271	0.0137458
888.349	0.0138113
888.427	0.0138555
888.505	0.0140116
888.583	0.0139220
888.662	0.0139870
888.740	0.0142126
888.818	0.0140389
888.896	0.0140822
888.974	0.0140998
889.052	0.0141325
889.130	0.0141261
889.208	0.0141003
889.287	0.0141108
889.365	0.0142433
889.443	0.0142064
889.521	0.0140433
889.599	0.0138924
889.677	0.0138896
889.755	0.0138742
889.833	0.0139384
889.912	0.0138831
889.990	0.0138590
890.068	0.0139612
890.146	0.0138554
890.224	0.0137466
890.302	0.0138490
890.380	0.0138044
890.458	0.0140586
890.537	0.0140525
890.615	0.0140019
890.693	0.0140185
890.771	0.0140533
890.849	0.0140056
890.927	0.0140372
891.005	0.0141149
891.083	0.0139339
891.162	0.0139709
891.240	0.0140443
891.318	0.0138886
891.396	0.0138685
891.474	0.0136990
891.552	0.0136985
891.630	0.0135905
891.708	0.0136880
891.787	0.0136167
891.865	0.0136156
891.943	0.0135130
892.021	0.0134347
892.099	0.0135902
892.177	0.0134963
892.255	0.0135230
892.333	0.0137067
892.412	0.0137271
892.490	0.0137218
892.568	0.0137382
892.646	0.0137292
892.724	0.0139867
892.802	0.0139048
892.880	0.0139060
892.958	0.0137769
893.037	0.0139656
893.115	0.0140212
893.193	0.0138853
893.271	0.0139471
893.349	0.0140144
893.427	0.0140399
893.505	0.0138284
893.583	0.0138622
893.662	0.0139878
893.740	0.0138424
893.818	0.0138567
893.896	0.0138599
893.974	0.0139046
894.052	0.0138925
894.130	0.0138653
894.208	0.0138727
894.287	0.0138293
894.365	0.0138168
894.443	0.0138724
894.521	0.0138152
894.599	0.0138227
894.677	0.0138927
894.755	0.0139008
894.833	0.0138003
894.912	0.0139001
894.990	0.0136894
895.068	0.0137524
895.146	0.0138759
895.224	0.0137826
895.302	0.0138621
895.380	0.0138631
895.458	0.0136762
895.537	0.0137218
895.615	0.0137301
895.693	0.0136432
895.771	0.0136010
895.849	0.0137686
895.927	0.0136893
896.005	0.0137093
896.083	0.0136864
896.162	0.0137698
896.240	0.0138764
896.318	0.0137424
896.396	0.0138626
896.474	0.0140394
896.552	0.0139905
896.630	0.0140519
896.708	0.0141042
896.787	0.0139828
896.865	0.0142892
896.943	0.0141824
897.021	0.0142149
897.099	0.0141672
897.177	0.0142873
897.255	0.0142565
897.333	0.0141743
897.412	0.0140407
897.490	0.0141711
897.568	0.0142433
897.646	0.0140719
897.724	0.0140661
897.802	0.0139516
897.880	0.0140656
897.958	0.0138918
898.037	0.0138969
898.115	0.0138624
898.193	0.0139525
898.271	0.0138746
898.349	0.0138611
898.427	0.0139788
898.505	0.0139127
898.583	0.0139830
898.662	0.0138475
898.740	0.0140586
898.818	0.0140620
898.896	0.0141812
898.974	0.0142081
899.052	0.0140066
899.130	0.0141217
899.208	0.0141681
899.287	0.0142231
899.365	0.0140952
899.443	0.0141311
899.521	0.0141578
899.599	0.0140863
899.677	0.0139362
899.755	0.0138853
899.833	0.0138722
899.912	0.0140297
899.990	0.0138242
900.068	0.0138622
900.146	0.0138181
900.224	0.0138732
900.302	0.0138364
900.380	0.0136694
900.458	0.0136810
900.537	0.0136837
900.615	0.0137435
900.693	0.0138387
900.771	0.0137683
900.849	0.0138016
900.927	0.0138236
901.005	0.0139462
901.083	0.0136816
901.162	0.0138443
901.240	0.0137547
901.318	0.0138405
901.396	0.0139397
901.474	0.0139677
901.552	0.0138619
901.630	0.0139612
901.708	0.0141245
901.787	0.0140263
901.865	0.0140391
901.943	0.0140224
902.021	0.0143204
902.099	0.0140873
902.177	0.0141187
902.255	0.0142041
902.333	0.0141108
902.412	0.0141886
902.490	0.0141372
902.568	0.0139618
902.646	0.0140446
902.724	0.0141061
902.802	0.0140178
902.880	0.0139352
902.958	0.0139832
903.037	0.0139155
903.115	0.0139101
903.193	0.0138135
903.271	0.0139621
903.349	0.0137643
903.427	0.0136675
903.505	0.0137270
903.583	0.0137869
903.662	0.0137624
903.740	0.0138049
903.818	0.0135960
903.896	0.0135311
903.974	0.0136899
904.052	0.0136236
904.130	0.0136356
904.208	0.0136887
904.287	0.0137050
904.365	0.0136521
904.443	0.0137342
904.521	0.0137243
904.599	0.0139161
904.677	0.0139065
904.755	0.0138969
904.833	0.0138451
904.912	0.0138657
904.990	0.0139091
905.068	0.0139868
905.146	0.0138171
905.224	0.0139764
905.302	0.0139774
905.380	0.0139088
905.458	0.0139562
905.537	0.0138020
905.615	0.0139431
905.693	0.0138040
905.771	0.0138449
905.849	0.0139165
905.927	0.0138021
906.005	0.0137402
906.083	0.0138338
906.162	0.0137866
906.240	0.0138777
906.318	0.0137260
906.396	0.0136232
906.474	0.0137218
906.552	0.0138335
906.630	0.0137728
906.708	0.0139816
906.787	0.0140155
906.865	0.0139091
906.943	0.0138428
907.021	0.0139334
907.099	0.0139700
907.177	0.0138177
907.255	0.0138984
907.333	0.0138606
907.412	0.0139276
907.490	0.0139773
907.568	0.0139716
907.646	0.0137342
907.724	0.0138570
907.802	0.0138939
907.880	0.0138967
907.958	0.0138917
908.037	0.0138492
908.115	0.0137881
908.193	0.0136998
908.271	0.0138795
908.349	0.0138213
908.427	0.0137795
908.505	0.0137978
908.583	0.0137855
908.662	0.0138976
908.740	0.0139480
908.818	0.0139290
908.896	0.0138391
908.974	0.0138554
909.052	0.0138181
909.130	0.0138142
909.208	0.0138951
909.287	0.0139745
909.365	0.0138357
909.443	0.0138516
909.521	0.0139784
909.599	0.0139062
909.677	0.0140022
909.755	0.0139301
909.833	0.0140708
909.912	0.0141180
909.990	0.0140536
910.068	0.0139619
910.146	0.0141132
910.224	0.0139684
910.302	0.0139549
910.380	0.0139121
910.458	0.0139185
910.537	0.0140999
910.615	0.0138882
910.693	0.0139423
910.771	0.0138496
910.849	0.0138997
910.927	0.0139419
911.005	0.0140593
911.083	0.0138184
911.162	0.0137849
911.240	0.0138037
911.318	0.0138425
911.396	0.0138034
911.474	0.0137880
911.552	0.0138066
911.630	0.0138483
911.708	0.0137703
911.787	0.0139623
911.865	0.0139034
911.943	0.0137971
912.021	0.0138438
912.099	0.0138358
912.177	0.0138211
912.255	0.0138598
912.333	0.0139346
912.412	0.0139316
912.490	0.0137920
912.568	0.0138759
912.646	0.0140298
912.724	0.0138129
912.802	0.0139009
912.880	0.0140184
912.958	0.0138994
913.037	0.0139539
913.115	0.0140189
913.193	0.0140430
913.271	0.0139312
913.349	0.0138869
913.427	0.0140387
913.505	0.0139472
913.583	0.0139540
913.662	0.0138094
913.740	0.0139661
913.818	0.0139956
913.896	0.0139208
913.974	0.0138440
914.052	0.0138486
914.130	0.0138994
914.208	0.0137305
914.287	0.0137671
914.365	0.0137762
914.443	0.0138506
914.521	0.0138757
914.599	0.0137067
914.677	0.0136938
914.755	0.0138245
914.833	0.0138387
914.912	0.0136345
914.990	0.0138737
915.068	0.0137645
915.146	0.0137858
915.224	0.0137735
915.302	0.0138602
915.380	0.0138591
915.458	0.0138634
915.537	0.0138791
915.615	0.0139955
915.693	0.0139788
915.771	0.0139162
915.849	0.0139890
915.927	0.0139304
916.005	0.0140055
916.083	0.0139222
916.162	0.0137677
916.240	0.0138829
916.318	0.0141273
916.396	0.0139548
916.474	0.0139098
916.552	0.0138056
916.630	0.0138315
916.708	0.0137337
916.787	0.0136948
916.865	0.0138451
916.943	0.0138211
917.021	0.0137959
917.099	0.0137982
917.177	0.0138716
917.255	0.0138338
917.333	0.0138187
917.412	0.0140056
917.490	0.0139694
917.568	0.0139869
917.646	0.0139754
917.724	0.0139279
917.802	0.0139926
917.880	0.0139552
917.958	0.0140368
918.037	0.0138335
918.115	0.0138562
918.193	0.0139381
918.271	0.0139279
918.349	0.0138245
918.427	0.0139764
918.505	0.0138910
918.583	0.0138181
918.662	0.0137359
918.740	0.0138080
918.818	0.0139182
918.896	0.0138856
918.974	0.0138885
919.052	0.0139372
919.130	0.0138564
919.208	0.0139352
919.287	0.0139883
919.365	0.0139116
919.443	0.0139091
919.521	0.0140192
919.599	0.0139691
919.677	0.0139637
919.755	0.0138794
919.833	0.0138885
919.912	0.0139922
919.990	0.0138439
920.068	0.0139520
920.146	0.0138686
920.224	0.0139497
920.302	0.0139205
920.380	0.0140121
920.458	0.0140945
920.537	0.0140285
920.615	0.0138367
920.693	0.0139468
920.771	0.0139739
920.849	0.0140526
920.927	0.0141121
921.005	0.0140936
921.083	0.0140916
921.162	0.0139868
921.240	0.0141365
921.318	0.0140765
921.396	0.0141193
921.474	0.0140104
921.552	0.0139779
921.630	0.0139807
921.708	0.0139809
921.787	0.0139969
921.865	0.0137961
921.943	0.0139141
922.021	0.0138071
922.099	0.0138878
922.177	0.0139835
922.255	0.0138851
922.333	0.0138525
922.412	0.0138058
922.490	0.0138493
922.568	0.0138288
922.646	0.0139467
922.724	0.0138549
922.802	0.0139256
922.880	0.0140888
922.958	0.0140193
923.037	0.0139610
923.115	0.0139770
923.193	0.0140547
923.271	0.0140770
923.349	0.0139794
923.427	0.0139746
923.505	0.0139870
923.583	0.0139627
923.662	0.0139150
923.740	0.0138666
923.818	0.0139838
923.896	0.0139603
923.974	0.0139188
924.052	0.0137807
924.130	0.0139254
924.208	0.0138496
924.287	0.0138644
924.365	0.0139722
924.443	0.0140170
924.521	0.0139890
924.599	0.0138565
924.677	0.0139133
924.755	0.0139610
924.833	0.0139418
924.912	0.0139828
924.990	0.0141019
925.068	0.0139574
925.146	0.0139270
925.224	0.0139731
925.302	0.0139411
925.380	0.0140544
925.458	0.0140460
925.537	0.0141244
925.615	0.0141665
925.693	0.0140639
925.771	0.0140559
925.849	0.0140596
925.927	0.0140105
926.005	0.0138966
926.083	0.0138445
926.162	0.0139878
926.240	0.0140416
926.318	0.0138618
926.396	0.0138829
926.474	0.0139342
926.552	0.0137466
926.630	0.0138416
926.708	0.0139085
926.787	0.0139547
926.865	0.0137863
926.943	0.0138239
927.021	0.0138365
927.099	0.0138539
927.177	0.0138340
927.255	0.0138680
927.333	0.0138335
927.412	0.0139970
927.490	0.0138182
927.568	0.0138984
927.646	0.0138408
927.724	0.0139378
927.802	0.0138397
927.880	0.0138898
927.958	0.0137939
928.037	0.0138615
928.115	0.0139431
928.193	0.0139069
928.271	0.0138673
928.349	0.0138233
928.427	0.0139693
928.505	0.0136741
928.583	0.0138049
928.662	0.0139003
928.740	0.0139755
928.818	0.0140011
928.896	0.0139990
928.974	0.0138683
929.052	0.0139917
929.130	0.0138791
929.208	0.0139046
929.287	0.0139454
929.365	0.0140855
929.443	0.0139359
929.521	0.0138742
929.599	0.0138860
929.677	0.0138479
929.755	0.0140260
929.833	0.0139384
929.912	0.0138519
929.990	0.0138344
930.068	0.0138988
930.146	0.0137905
930.224	0.0137682
930.302	0.0139009
930.380	0.0140459
930.458	0.0139845
930.537	0.0138494
930.615	0.0139227
930.693	0.0139027
930.771	0.0138343
930.849	0.0139054
930.927	0.0140408
931.005	0.0140596
931.083	0.0139838
931.162	0.0139375
931.240	0.0138416
931.318	0.0141209
931.396	0.0139339
931.474	0.0138616
931.552	0.0138982
931.630	0.0139044
931.708	0.0140169
931.787	0.0139362
931.865	0.0138177
931.943	0.0139494
932.021	0.0138255
932.099	0.0137910
932.177	0.0138568
932.255	0.0138750
932.333	0.0137636
932.412	0.0138837
932.490	0.0137975
932.568	0.0138276
932.646	0.0137201
932.724	0.0137449
932.802	0.0137749
932.880	0.0137914
932.958	0.0140076
933.037	0.0139271
933.115	0.0138569
933.193	0.0140092
933.271	0.0139330
933.349	0.0138816
933.427	0.0139275
933.505	0.0139957
933.583	0.0139696
933.662	0.0140628
933.740	0.0138766
933.818	0.0137716
933.896	0.0138563
933.974	0.0137679
934.052	0.0137228
934.130	0.0137692
934.208	0.0139469
934.287	0.0137943
934.365	0.0138525
934.443	0.0138329
934.521	0.0138197
934.599	0.0138121
934.677	0.0137362
934.755	0.0137514
934.833	0.0137608
934.912	0.0139703
934.990	0.0137682
935.068	0.0139856
935.146	0.0140034
935.224	0.0139255
935.302	0.0139544
935.380	0.0139862
935.458	0.0139619
935.537	0.0139030
935.615	0.0138910
935.693	0.0139317
935.771	0.0140565
935.849	0.0138739
935.927	0.0138315
936.005	0.0139173
936.083	0.0138716
936.162	0.0138662
936.240	0.0136774
936.318	0.0138271
936.396	0.0139223
936.474	0.0139105
936.552	0.0137535
936.630	0.0140732
936.708	0.0139525
936.787	0.0138685
936.865	0.0139302
936.943	0.0139413
937.021	0.0140243
937.099	0.0140981
937.177	0.0140177
937.255	0.0141113
937.333	0.0139442
937.412	0.0139027
937.490	0.0138776
937.568	0.0139668
937.646	0.0141267
937.724	0.0141163
937.802	0.0139274
937.880	0.0139536
937.958	0.0140532
938.037	0.0138311
938.115	0.0138253
938.193	0.0140134
938.271	0.0140548
938.349	0.0139997
938.427	0.0140816
938.505	0.0140536
938.583	0.0140364
938.662	0.0139458
938.740	0.0139853
938.818	0.0138939
938.896	0.0140034
938.974	0.0140445
939.052	0.0138795
939.130	0.0140011
939.208	0.0139490
939.287	0.0140470
939.365	0.0139308
939.443	0.0138026
939.521	0.0139823
939.599	0.0139034
939.677	0.0140690
939.755	0.0139347
939.833	0.0139531
939.912	0.0139894
939.990	0.0138980
940.068	0.0139700
940.146	0.0140692
940.224	0.0139293
940.302	0.0139707
940.380	0.0139275
940.458	0.0139172
940.537	0.0138665
940.615	0.0139408
940.693	0.0141604
940.771	0.0140900
940.849	0.0138741
940.927	0.0139283
941.005	0.0139487
941.083	0.0140256
941.162	0.0139088
941.240	0.0138967
941.318	0.0138837
941.396	0.0138754
941.474	0.0139294
941.552	0.0139374
941.630	0.0139632
941.708	0.0140050
941.787	0.0140695
941.865	0.0140321
941.943	0.0139613
942.021	0.0140974
942.099	0.0141270
942.177	0.0139774
942.255	0.0140068
942.333	0.0139561
942.412	0.0140881
942.490	0.0140157
942.568	0.0140273
942.646	0.0139534
942.724	0.0139674
942.802	0.0140292
942.880	0.0137491
942.958	0.0140060
943.037	0.0140085
943.115	0.0139904
943.193	0.0138076
943.271	0.0137704
943.349	0.0139002
943.427	0.0138006
943.505	0.0138021
943.583	0.0139240
943.662	0.0138430
943.740	0.0138925
943.818	0.0137908
943.896	0.0138483
943.974	0.0139937
944.052	0.0139138
944.130	0.0137913
944.208	0.0138908
944.287	0.0138683
944.365	0.0139555
944.443	0.0139921
944.521	0.0137830
944.599	0.0140055
944.677	0.0140123
944.755	0.0139933
944.833	0.0139890
944.912	0.0140434
944.990	0.0138720
945.068	0.0140660
945.146	0.0140334
945.224	0.0140685
945.302	0.0140119
945.380	0.0139274
945.458	0.0139934
945.537	0.0141031
945.615	0.0139355
945.693	0.0138870
945.771	0.0139709
945.849	0.0139462
945.927	0.0138744
946.005	0.0139503
946.083	0.0138159
946.162	0.0139053
946.240	0.0138658
946.318	0.0138040
946.396	0.0139629
946.474	0.0137859
946.552	0.0137805
946.630	0.0139054
946.708	0.0139491
946.787	0.0137664
946.865	0.0139175
946.943	0.0138808
947.021	0.0137777
947.099	0.0138424
947.177	0.0137410
947.255	0.0138713
947.333	0.0139231
947.412	0.0138631
947.490	0.0139230
947.568	0.0138668
947.646	0.0138770
947.724	0.0139141
947.802	0.0139571
947.880	0.0140781
947.958	0.0140247
948.037	0.0140033
948.115	0.0140701
948.193	0.0140141
948.271	0.0140145
948.349	0.0140612
948.427	0.0140311
948.505	0.0139289
948.583	0.0139813
948.662	0.0139023
948.740	0.0139819
948.818	0.0139887
948.896	0.0138717
948.974	0.0139600
949.052	0.0141216
949.130	0.0139610
949.208	0.0140405
949.287	0.0141272
949.365	0.0139719
949.443	0.0140034
949.521	0.0140217
949.599	0.0140794
949.677	0.0141084
949.755	0.0140060
949.833	0.0140269
949.912	0.0139011
949.990	0.0138755
950.068	0.0139328
950.146	0.0139190
950.224	0.0139769
950.302	0.0138189
950.380	0.0138116
950.458	0.0139482
950.537	0.0139211
950.615	0.0138779
950.693	0.0138818
950.771	0.0138128
950.849	0.0138324
950.927	0.0138766
951.005	0.0140047
951.083	0.0138894
951.162	0.0139633
951.240	0.0140771
951.318	0.0138921
951.396	0.0139339
951.474	0.0138493
951.552	0.0137437
951.630	0.0138647
951.708	0.0137389
951.787	0.0138013
951.865	0.0138809
951.943	0.0139655
952.021	0.0141389
952.099	0.0140308
952.177	0.0140775
952.255	0.0139806
952.333	0.0139362
952.412	0.0140758
952.490	0.0142709
952.568	0.0140313
952.646	0.0139425
952.724	0.0139838
952.802	0.0139976
952.880	0.0137923
952.958	0.0138369
953.037	0.0138190
953.115	0.0137596
953.193	0.0138100
953.271	0.0136532
953.349	0.0137602
953.427	0.0138586
953.505	0.0136941
953.583	0.0136082
953.662	0.0137178
953.740	0.0138451
953.818	0.0137830
953.896	0.0139417
953.974	0.0139964
954.052	0.0139520
954.130	0.0141228
954.208	0.0141509
954.287	0.0141246
954.365	0.0141264
954.443	0.0141876
954.521	0.0141680
954.599	0.0142262
954.677	0.0140216
954.755	0.0139850
954.833	0.0140557
954.912	0.0139644
954.990	0.0138811
955.068	0.0137910
955.146	0.0137441
955.224	0.0137446
955.302	0.0138272
955.380	0.0137328
955.458	0.0139277
955.537	0.0138223
955.615	0.0138239
955.693	0.0138815
955.771	0.0138071
955.849	0.0138091
955.927	0.0138781
956.005	0.0137459
956.083	0.0138295
956.162	0.0138715
956.240	0.0139557
956.318	0.0139084
956.396	0.0140701
956.474	0.0138554
956.552	0.0140018
956.630	0.0139432
956.708	0.0139790
956.787	0.0138886
956.865	0.0139168
956.943	0.0139285
957.021	0.0139638
957.099	0.0140088
957.177	0.0140570
957.255	0.0140020
957.333	0.0138364
957.412	0.0140652
957.490	0.0139912
957.568	0.0138418
957.646	0.0139066
957.724	0.0139598
957.802	0.0137939
957.880	0.0138051
957.958	0.0138736
958.037	0.0137949
958.115	0.0139120
958.193	0.0138012
958.271	0.0138330
958.349	0.0137617
958.427	0.0137294
958.505	0.0138108
958.583	0.0138177
958.662	0.0139788
958.740	0.0137537
958.818	0.0137750
958.896	0.0137477
958.974	0.0137173
959.052	0.0138511
959.130	0.0138694
959.208	0.0139800
959.287	0.0140361
959.365	0.0139192
959.443	0.0140829
959.521	0.0141325
959.599	0.0141098
959.677	0.0141843
959.755	0.0142065
959.833	0.0139398
959.912	0.0139378
959.990	0.0139725
960.068	0.0137549
960.146	0.0137857
960.224	0.0137220
960.302	0.0137635
960.380	0.0138477
960.458	0.0136971
960.537	0.0138833
960.615	0.0138105
960.693	0.0137051
960.771	0.0138108
960.849	0.0141219
960.927	0.0139292
961.005	0.0141365
961.083	0.0138772
961.162	0.0139928
961.240	0.0139440
961.318	0.0140359
961.396	0.0141263
961.474	0.0139458
961.552	0.0140189
961.630	0.0139171
961.708	0.0137983
961.787	0.0138456
961.865	0.0138306
961.943	0.0139407
962.021	0.0138570
962.099	0.0138461
962.177	0.0138973
962.255	0.0139566
962.333	0.0139434
962.412	0.0140832
962.490	0.0141423
962.568	0.0140941
962.646	0.0142072
962.724	0.0141300
962.802	0.0141655
962.880	0.0141166
962.958	0.0141884
963.037	0.0143112
963.115	0.0140872
963.193	0.0140388
963.271	0.0140314
963.349	0.0138457
963.427	0.0138354
963.505	0.0138446
963.583	0.0137157
963.662	0.0136115
963.740	0.0137402
963.818	0.0137834
963.896	0.0136858
963.974	0.0137511
964.052	0.0138372
964.130	0.0138329
964.208	0.0139128
964.287	0.0140190
964.365	0.0140823
964.443	0.0141465
964.521	0.0141119
964.599	0.0139870
964.677	0.0139830
964.755	0.0140816
964.833	0.0140645
964.912	0.0141870
964.990	0.0140218
965.068	0.0140376
965.146	0.0140038
965.224	0.0139047
965.302	0.0140176
965.380	0.0140414
965.458	0.0138654
965.537	0.0139378
965.615	0.0139012
965.693	0.0138954
965.771	0.0137654
965.849	0.0139496
965.927	0.0140158
966.005	0.0137730
966.083	0.0138319
966.162	0.0138871
966.240	0.0140496
966.318	0.0139625
966.396	0.0139725
966.474	0.0139422
966.552	0.0139560
966.630	0.0138486
966.708	0.0139298
966.787	0.0139497
966.865	0.0138683
966.943	0.0138565
967.021	0.0139095
967.099	0.0138876
967.177	0.0139597
967.255	0.0138503
967.333	0.0138290
967.412	0.0139766
967.490	0.0139910
967.568	0.0137762
967.646	0.0139006
967.724	0.0139153
967.802	0.0138953
967.880	0.0139139
967.958	0.0136456
968.037	0.0136585
968.115	0.0137995
968.193	0.0137525
968.271	0.0137272
968.349	0.0136272
968.427	0.0138425
968.505	0.0137875
968.583	0.0139364
968.662	0.0137012
968.740	0.0138706
968.818	0.0138331
968.896	0.0138263
968.974	0.0138701
969.052	0.0138595
969.130	0.0139660
969.208	0.0139386
969.287	0.0137600
969.365	0.0137460
969.443	0.0136432
969.521	0.0137488
969.599	0.0137654
969.677	0.0137843
969.755	0.0136701
969.833	0.0138047
969.912	0.0138290
