05/08/2022	19:31:24	Ver.	4.1	UNKNOWN
Optical Delay	649.989667	Delta X		0.078125	Sweeps	1	Scan Rate	0/0
Coordinates	Axis 1	NaN	Axis 2	NaN	Axis 3	NaN	Axis 4	NaN	Axis 5	NaN	Axis 6	0.000000
TX Power	0.000000	RX Power	0.000000

649.990	0.0150894
650.068	0.0151510
650.146	0.0150797
650.224	0.0150343
650.302	0.0151289
650.380	0.0151965
650.458	0.0151765
650.537	0.0151682
650.615	0.0151989
650.693	0.0150046
650.771	0.0150016
650.849	0.0151125
650.927	0.0149578
651.005	0.0151553
651.083	0.0151166
651.162	0.0151659
651.240	0.0150449
651.318	0.0150890
651.396	0.0150028
651.474	0.0150880
651.552	0.0150895
651.630	0.0151010
651.708	0.0151660
651.787	0.0151145
651.865	0.0151261
651.943	0.0151672
652.021	0.0150965
652.099	0.0149714
652.177	0.0151211
652.255	0.0150377
652.333	0.0150678
652.412	0.0151330
652.490	0.0151139
652.568	0.0150946
652.646	0.0151657
652.724	0.0150644
652.802	0.0149393
652.880	0.0149575
652.958	0.0151173
653.037	0.0150908
653.115	0.0150784
653.193	0.0150636
653.271	0.0150982
653.349	0.0151436
653.427	0.0151004
653.505	0.0150155
653.583	0.0150184
653.662	0.0150517
653.740	0.0151595
653.818	0.0151196
653.896	0.0149780
653.974	0.0151429
654.052	0.0151037
654.130	0.0150552
654.208	0.0151912
654.287	0.0151845
654.365	0.0150111
654.443	0.0150997
654.521	0.0150330
654.599	0.0149888
654.677	0.0150766
654.755	0.0151891
654.833	0.0150382
654.912	0.0150256
654.990	0.0149584
655.068	0.0150242
655.146	0.0150967
655.224	0.0150982
655.302	0.0150200
655.380	0.0150505
655.458	0.0150092
655.537	0.0150799
655.615	0.0150608
655.693	0.0151714
655.771	0.0151234
655.849	0.0150012
655.927	0.0149605
656.005	0.0151404
656.083	0.0149945
656.162	0.0151107
656.240	0.0150658
656.318	0.0149995
656.396	0.0151847
656.474	0.0150400
656.552	0.0150569
656.630	0.0150792
656.708	0.0149153
656.787	0.0150027
656.865	0.0150128
656.943	0.0150410
657.021	0.0150604
657.099	0.0151836
657.177	0.0149979
657.255	0.0150776
657.333	0.0150349
657.412	0.0151426
657.490	0.0150478
657.568	0.0151546
657.646	0.0149408
657.724	0.0151226
657.802	0.0150343
657.880	0.0151304
657.958	0.0149230
658.037	0.0151250
658.115	0.0152074
658.193	0.0150618
658.271	0.0150791
658.349	0.0151677
658.427	0.0150490
658.505	0.0151124
658.583	0.0150134
658.662	0.0150570
658.740	0.0150744
658.818	0.0150716
658.896	0.0151714
658.974	0.0151738
659.052	0.0151033
659.130	0.0149673
659.208	0.0151920
659.287	0.0149877
659.365	0.0150716
659.443	0.0150572
659.521	0.0151124
659.599	0.0150742
659.677	0.0149626
659.755	0.0151064
659.833	0.0150663
659.912	0.0149810
659.990	0.0150526
660.068	0.0150430
660.146	0.0149829
660.224	0.0149805
660.302	0.0150768
660.380	0.0150119
660.458	0.0150006
660.537	0.0150357
660.615	0.0151230
660.693	0.0151742
660.771	0.0150094
660.849	0.0149891
660.927	0.0151334
661.005	0.0150451
661.083	0.0151838
661.162	0.0152886
661.240	0.0152231
661.318	0.0150746
661.396	0.0150848
661.474	0.0150929
661.552	0.0151031
661.630	0.0150478
661.708	0.0151278
661.787	0.0151604
661.865	0.0149042
661.943	0.0150841
662.021	0.0151291
662.099	0.0150631
662.177	0.0150002
662.255	0.0149070
662.333	0.0150913
662.412	0.0149945
662.490	0.0150225
662.568	0.0149470
662.646	0.0149921
662.724	0.0150594
662.802	0.0151434
662.880	0.0150285
662.958	0.0150035
663.037	0.0150870
663.115	0.0150898
663.193	0.0151132
663.271	0.0150680
663.349	0.0151529
663.427	0.0150544
663.505	0.0151424
663.583	0.0150753
663.662	0.0152491
663.740	0.0151665
663.818	0.0151778
663.896	0.0150999
663.974	0.0151577
664.052	0.0150983
664.130	0.0150856
664.208	0.0150272
664.287	0.0151473
664.365	0.0151534
664.443	0.0150340
664.521	0.0151180
664.599	0.0151321
664.677	0.0152195
664.755	0.0149932
664.833	0.0150486
664.912	0.0151154
664.990	0.0150433
665.068	0.0150639
665.146	0.0150700
665.224	0.0150294
665.302	0.0151447
665.380	0.0151059
665.458	0.0151451
665.537	0.0151629
665.615	0.0151748
665.693	0.0150766
665.771	0.0151719
665.849	0.0152335
665.927	0.0151173
666.005	0.0152362
666.083	0.0152322
666.162	0.0152071
666.240	0.0152502
666.318	0.0150513
666.396	0.0148899
666.474	0.0150694
666.552	0.0150680
666.630	0.0150906
666.708	0.0151688
666.787	0.0150466
666.865	0.0150916
666.943	0.0151014
667.021	0.0151467
667.099	0.0151148
667.177	0.0152606
667.255	0.0150688
667.333	0.0151910
667.412	0.0151869
667.490	0.0150472
667.568	0.0152610
667.646	0.0153061
667.724	0.0152052
667.802	0.0150616
667.880	0.0150817
667.958	0.0151207
668.037	0.0151540
668.115	0.0151241
668.193	0.0150929
668.271	0.0151510
668.349	0.0150539
668.427	0.0150314
668.505	0.0152323
668.583	0.0150385
668.662	0.0151538
668.740	0.0150485
668.818	0.0150411
668.896	0.0150746
668.974	0.0150495
669.052	0.0150523
669.130	0.0149876
669.208	0.0149809
669.287	0.0150393
669.365	0.0151723
669.443	0.0149466
669.521	0.0149521
669.599	0.0150462
669.677	0.0150481
669.755	0.0149622
669.833	0.0148798
669.912	0.0150311
669.990	0.0150237
670.068	0.0149098
670.146	0.0149024
670.224	0.0149063
670.302	0.0149717
670.380	0.0150008
670.458	0.0150274
670.537	0.0149213
670.615	0.0147906
670.693	0.0148572
670.771	0.0149681
670.849	0.0148505
670.927	0.0149480
671.005	0.0147790
671.083	0.0148148
671.162	0.0149120
671.240	0.0149577
671.318	0.0148009
671.396	0.0149039
671.474	0.0148685
671.552	0.0148869
671.630	0.0148370
671.708	0.0148291
671.787	0.0148890
671.865	0.0147811
671.943	0.0149075
672.021	0.0148491
672.099	0.0148796
672.177	0.0149322
672.255	0.0148455
672.333	0.0149245
672.412	0.0150002
672.490	0.0148042
672.568	0.0147156
672.646	0.0148196
672.724	0.0149227
672.802	0.0148145
672.880	0.0147897
672.958	0.0147174
673.037	0.0149044
673.115	0.0148270
673.193	0.0148174
673.271	0.0149447
673.349	0.0148732
673.427	0.0147429
673.505	0.0147160
673.583	0.0149650
673.662	0.0148315
673.740	0.0147231
673.818	0.0149055
673.896	0.0148514
673.974	0.0146842
674.052	0.0148399
674.130	0.0149634
674.208	0.0147835
674.287	0.0149423
674.365	0.0150155
674.443	0.0150973
674.521	0.0149831
674.599	0.0150175
674.677	0.0150208
674.755	0.0150192
674.833	0.0149407
674.912	0.0149448
674.990	0.0150168
675.068	0.0150782
675.146	0.0150333
675.224	0.0150564
675.302	0.0149599
675.380	0.0150855
675.458	0.0150075
675.537	0.0152261
675.615	0.0151222
675.693	0.0151998
675.771	0.0152757
675.849	0.0152120
675.927	0.0152312
676.005	0.0151817
676.083	0.0151791
676.162	0.0151342
676.240	0.0151602
676.318	0.0152172
676.396	0.0153384
676.474	0.0153664
676.552	0.0153016
676.630	0.0153037
676.708	0.0153426
676.787	0.0152013
676.865	0.0152147
676.943	0.0151190
677.021	0.0151674
677.099	0.0152402
677.177	0.0152157
677.255	0.0153079
677.333	0.0153365
677.412	0.0153255
677.490	0.0152670
677.568	0.0153065
677.646	0.0152821
677.724	0.0152705
677.802	0.0152308
677.880	0.0154023
677.958	0.0154165
678.037	0.0152264
678.115	0.0151820
678.193	0.0153008
678.271	0.0152554
678.349	0.0152682
678.427	0.0153517
678.505	0.0152507
678.583	0.0151885
678.662	0.0153633
678.740	0.0152178
678.818	0.0151903
678.896	0.0153822
678.974	0.0154688
679.052	0.0152674
679.130	0.0153816
679.208	0.0152030
679.287	0.0153020
679.365	0.0153399
679.443	0.0152650
679.521	0.0152309
679.599	0.0152833
679.677	0.0152588
679.755	0.0152107
679.833	0.0152053
679.912	0.0150955
679.990	0.0151447
680.068	0.0150388
680.146	0.0151561
680.224	0.0152466
680.302	0.0152699
680.380	0.0151591
680.458	0.0151463
680.537	0.0150986
680.615	0.0151488
680.693	0.0151250
680.771	0.0150754
680.849	0.0151858
680.927	0.0151385
681.005	0.0150858
681.083	0.0149955
681.162	0.0150828
681.240	0.0150880
681.318	0.0148975
681.396	0.0151775
681.474	0.0150134
681.552	0.0150901
681.630	0.0151218
681.708	0.0151268
681.787	0.0150102
681.865	0.0149231
681.943	0.0149498
682.021	0.0149218
682.099	0.0148730
682.177	0.0150934
682.255	0.0150684
682.333	0.0148949
682.412	0.0150054
682.490	0.0149259
682.568	0.0150556
682.646	0.0150436
682.724	0.0149265
682.802	0.0149644
682.880	0.0149168
682.958	0.0149751
683.037	0.0149071
683.115	0.0150054
683.193	0.0151208
683.271	0.0150072
683.349	0.0150661
683.427	0.0150120
683.505	0.0149338
683.583	0.0150658
683.662	0.0149223
683.740	0.0151000
683.818	0.0149569
683.896	0.0151013
683.974	0.0149175
684.052	0.0150771
684.130	0.0150054
684.208	0.0149962
684.287	0.0149619
684.365	0.0149613
684.443	0.0149026
684.521	0.0149043
684.599	0.0150424
684.677	0.0151070
684.755	0.0149816
684.833	0.0148738
684.912	0.0150103
684.990	0.0149886
685.068	0.0149320
685.146	0.0149239
685.224	0.0149998
685.302	0.0150279
685.380	0.0150482
685.458	0.0151597
685.537	0.0150404
685.615	0.0150755
685.693	0.0149848
685.771	0.0150269
685.849	0.0150338
685.927	0.0150519
686.005	0.0150755
686.083	0.0150436
686.162	0.0150329
686.240	0.0149358
686.318	0.0151118
686.396	0.0151529
686.474	0.0151281
686.552	0.0149412
686.630	0.0149819
686.708	0.0150318
686.787	0.0151277
686.865	0.0150815
686.943	0.0150113
687.021	0.0149586
687.099	0.0149923
687.177	0.0150249
687.255	0.0150304
687.333	0.0151324
687.412	0.0152192
687.490	0.0151259
687.568	0.0151197
687.646	0.0150710
687.724	0.0151449
687.802	0.0150494
687.880	0.0150698
687.958	0.0152034
688.037	0.0151614
688.115	0.0150098
688.193	0.0152186
688.271	0.0151237
688.349	0.0150822
688.427	0.0150387
688.505	0.0150968
688.583	0.0149052
688.662	0.0150681
688.740	0.0152374
688.818	0.0151210
688.896	0.0151150
688.974	0.0151291
689.052	0.0150890
689.130	0.0153336
689.208	0.0153356
689.287	0.0151668
689.365	0.0150760
689.443	0.0152244
689.521	0.0151411
689.599	0.0150287
689.677	0.0150749
689.755	0.0150188
689.833	0.0150173
689.912	0.0150298
689.990	0.0150365
690.068	0.0150665
690.146	0.0150841
690.224	0.0151386
690.302	0.0151678
690.380	0.0150270
690.458	0.0150909
690.537	0.0152759
690.615	0.0151572
690.693	0.0151332
690.771	0.0151210
690.849	0.0151936
690.927	0.0151185
691.005	0.0151427
691.083	0.0150916
691.162	0.0150141
691.240	0.0150992
691.318	0.0150116
691.396	0.0149913
691.474	0.0149831
691.552	0.0148901
691.630	0.0149008
691.708	0.0149296
691.787	0.0149797
691.865	0.0148549
691.943	0.0149434
692.021	0.0149828
692.099	0.0151066
692.177	0.0151142
692.255	0.0149486
692.333	0.0151714
692.412	0.0152181
692.490	0.0151552
692.568	0.0151240
692.646	0.0152721
692.724	0.0153100
692.802	0.0150864
692.880	0.0152278
692.958	0.0152390
693.037	0.0153351
693.115	0.0152139
693.193	0.0150677
693.271	0.0151626
693.349	0.0151371
693.427	0.0149594
693.505	0.0151022
693.583	0.0149147
693.662	0.0151126
693.740	0.0150201
693.818	0.0148358
693.896	0.0149689
693.974	0.0148810
694.052	0.0150359
694.130	0.0150465
694.208	0.0149775
694.287	0.0148730
694.365	0.0149594
694.443	0.0149075
694.521	0.0149171
694.599	0.0150420
694.677	0.0149400
694.755	0.0149000
694.833	0.0149107
694.912	0.0149036
694.990	0.0147956
695.068	0.0148808
695.146	0.0149072
695.224	0.0147526
695.302	0.0147109
695.380	0.0147849
695.458	0.0148171
695.537	0.0148983
695.615	0.0149197
695.693	0.0149254
695.771	0.0153035
695.849	0.0151144
695.927	0.0152740
696.005	0.0153724
696.083	0.0154635
696.162	0.0155317
696.240	0.0154802
696.318	0.0155244
696.396	0.0156261
696.474	0.0156079
696.552	0.0155107
696.630	0.0154670
696.708	0.0154045
696.787	0.0153313
696.865	0.0152660
696.943	0.0149846
697.021	0.0148547
697.099	0.0148525
697.177	0.0148438
697.255	0.0146978
697.333	0.0145088
697.412	0.0144862
697.490	0.0143432
697.568	0.0144797
697.646	0.0143375
697.724	0.0142989
697.802	0.0144344
697.880	0.0143494
697.958	0.0145007
698.037	0.0145692
698.115	0.0145823
698.193	0.0144937
698.271	0.0146745
698.349	0.0147677
698.427	0.0148794
698.505	0.0147518
698.583	0.0149045
698.662	0.0148726
698.740	0.0150928
698.818	0.0151279
698.896	0.0149881
698.974	0.0151519
699.052	0.0151258
699.130	0.0151192
699.208	0.0150238
699.287	0.0149935
699.365	0.0152191
699.443	0.0152291
699.521	0.0151850
699.599	0.0153868
699.677	0.0152657
699.755	0.0153560
699.833	0.0154290
699.912	0.0154834
699.990	0.0154346
700.068	0.0154797
700.146	0.0155965
700.224	0.0156196
700.302	0.0156181
700.380	0.0156318
700.458	0.0155999
700.537	0.0155815
700.615	0.0153909
700.693	0.0152281
700.771	0.0152065
700.849	0.0151124
700.927	0.0148740
701.005	0.0149223
701.083	0.0146368
701.162	0.0144994
701.240	0.0146210
701.318	0.0145130
701.396	0.0144714
701.474	0.0143623
701.552	0.0144550
701.630	0.0144679
701.708	0.0143932
701.787	0.0145914
701.865	0.0146862
701.943	0.0146796
702.021	0.0146712
702.099	0.0147932
702.177	0.0147333
702.255	0.0149298
702.333	0.0151182
702.412	0.0150401
702.490	0.0152465
702.568	0.0150448
702.646	0.0151540
702.724	0.0151112
702.802	0.0151749
702.880	0.0153632
702.958	0.0151685
703.037	0.0152301
703.115	0.0152432
703.193	0.0152105
703.271	0.0151524
703.349	0.0151645
703.427	0.0153165
703.505	0.0153202
703.583	0.0154042
703.662	0.0154601
703.740	0.0153804
703.818	0.0155197
703.896	0.0156013
703.974	0.0155177
704.052	0.0155303
704.130	0.0155232
704.208	0.0156689
704.287	0.0157021
704.365	0.0156866
704.443	0.0155180
704.521	0.0154725
704.599	0.0154359
704.677	0.0155318
704.755	0.0155510
704.833	0.0154172
704.912	0.0152970
704.990	0.0154359
705.068	0.0152659
705.146	0.0153000
705.224	0.0152550
705.302	0.0152254
705.380	0.0151408
705.458	0.0151936
705.537	0.0151530
705.615	0.0151628
705.693	0.0151250
705.771	0.0149706
705.849	0.0150090
705.927	0.0150086
706.005	0.0148218
706.083	0.0149689
706.162	0.0148650
706.240	0.0148243
706.318	0.0148416
706.396	0.0149026
706.474	0.0149222
706.552	0.0148446
706.630	0.0149105
706.708	0.0149400
706.787	0.0151252
706.865	0.0151847
706.943	0.0150501
707.021	0.0151755
707.099	0.0152397
707.177	0.0152815
707.255	0.0152451
707.333	0.0152210
707.412	0.0152284
707.490	0.0152875
707.568	0.0154012
707.646	0.0153233
707.724	0.0152579
707.802	0.0152834
707.880	0.0151705
707.958	0.0152571
708.037	0.0152335
708.115	0.0150980
708.193	0.0151799
708.271	0.0151062
708.349	0.0150069
708.427	0.0150467
708.505	0.0150966
708.583	0.0150518
708.662	0.0150203
708.740	0.0148282
708.818	0.0147366
708.896	0.0149335
708.974	0.0149086
709.052	0.0147737
709.130	0.0147826
709.208	0.0148279
709.287	0.0148495
709.365	0.0149162
709.443	0.0149596
709.521	0.0150411
709.599	0.0149032
709.677	0.0150671
709.755	0.0149471
709.833	0.0149702
709.912	0.0148795
709.990	0.0149636
710.068	0.0148579
710.146	0.0150009
710.224	0.0151931
710.302	0.0150976
710.380	0.0150167
710.458	0.0149638
710.537	0.0151025
710.615	0.0150446
710.693	0.0151663
710.771	0.0151213
710.849	0.0152130
710.927	0.0151538
711.005	0.0151356
711.083	0.0151768
711.162	0.0152664
711.240	0.0153091
711.318	0.0152153
711.396	0.0153062
711.474	0.0152244
711.552	0.0151520
711.630	0.0150541
711.708	0.0151987
711.787	0.0153568
711.865	0.0151842
711.943	0.0149647
712.021	0.0151031
712.099	0.0151872
712.177	0.0150229
712.255	0.0150545
712.333	0.0150829
712.412	0.0149891
712.490	0.0149801
712.568	0.0152597
712.646	0.0150251
712.724	0.0148944
712.802	0.0150786
712.880	0.0150806
712.958	0.0150137
713.037	0.0148867
713.115	0.0148709
713.193	0.0149890
713.271	0.0150450
713.349	0.0151113
713.427	0.0151246
713.505	0.0151086
713.583	0.0150642
713.662	0.0151317
713.740	0.0151007
713.818	0.0150298
713.896	0.0150925
713.974	0.0153401
714.052	0.0152953
714.130	0.0151081
714.208	0.0150277
714.287	0.0151591
714.365	0.0151537
714.443	0.0151877
714.521	0.0151486
714.599	0.0151019
714.677	0.0150063
714.755	0.0151567
714.833	0.0152382
714.912	0.0150607
714.990	0.0150883
715.068	0.0151209
715.146	0.0150400
715.224	0.0150323
715.302	0.0151136
715.380	0.0150404
715.458	0.0150096
715.537	0.0150526
715.615	0.0150199
715.693	0.0149488
715.771	0.0150011
715.849	0.0150894
715.927	0.0150732
716.005	0.0150633
716.083	0.0151231
716.162	0.0150948
716.240	0.0150967
716.318	0.0150911
716.396	0.0150980
716.474	0.0148994
716.552	0.0150876
716.630	0.0150263
716.708	0.0150930
716.787	0.0150314
716.865	0.0149171
716.943	0.0151055
717.021	0.0151434
717.099	0.0151469
717.177	0.0149419
717.255	0.0149163
717.333	0.0148976
717.412	0.0150704
717.490	0.0149143
717.568	0.0150754
717.646	0.0151357
717.724	0.0150944
717.802	0.0149632
717.880	0.0151152
717.958	0.0150739
718.037	0.0151925
718.115	0.0151524
718.193	0.0150723
718.271	0.0152779
718.349	0.0151985
718.427	0.0153354
718.505	0.0152843
718.583	0.0152751
718.662	0.0151974
718.740	0.0153076
718.818	0.0152682
718.896	0.0153312
718.974	0.0153053
719.052	0.0152113
719.130	0.0151325
719.208	0.0152325
719.287	0.0151382
719.365	0.0151975
719.443	0.0151778
719.521	0.0151359
719.599	0.0151257
719.677	0.0150530
719.755	0.0149773
719.833	0.0150762
719.912	0.0150292
719.990	0.0150571
720.068	0.0149979
720.146	0.0150073
720.224	0.0150200
720.302	0.0149358
720.380	0.0150778
720.458	0.0149749
720.537	0.0149046
720.615	0.0149849
720.693	0.0149449
720.771	0.0149049
720.849	0.0151030
720.927	0.0149448
721.005	0.0147719
721.083	0.0149406
721.162	0.0149785
721.240	0.0149564
721.318	0.0149615
721.396	0.0149918
721.474	0.0149402
721.552	0.0149595
721.630	0.0150523
721.708	0.0151022
721.787	0.0150857
721.865	0.0150701
721.943	0.0150583
722.021	0.0150503
722.099	0.0149717
722.177	0.0150227
722.255	0.0151254
722.333	0.0150082
722.412	0.0150948
722.490	0.0149255
722.568	0.0149483
722.646	0.0149556
722.724	0.0150205
722.802	0.0150219
722.880	0.0149713
722.958	0.0148956
723.037	0.0150003
723.115	0.0148087
723.193	0.0149561
723.271	0.0148998
723.349	0.0149673
723.427	0.0150526
723.505	0.0148721
723.583	0.0149548
723.662	0.0152246
723.740	0.0150158
723.818	0.0149404
723.896	0.0149795
723.974	0.0149997
724.052	0.0151105
724.130	0.0150101
724.208	0.0150841
724.287	0.0150966
724.365	0.0150195
724.443	0.0150750
724.521	0.0150120
724.599	0.0151234
724.677	0.0150498
724.755	0.0150583
724.833	0.0150577
724.912	0.0150997
724.990	0.0150029
725.068	0.0149471
725.146	0.0150387
725.224	0.0151187
725.302	0.0150231
725.380	0.0150457
725.458	0.0149503
725.537	0.0148945
725.615	0.0149125
725.693	0.0148068
725.771	0.0150845
725.849	0.0150657
725.927	0.0150996
726.005	0.0150404
726.083	0.0150588
726.162	0.0150825
726.240	0.0149773
726.318	0.0151497
726.396	0.0149559
726.474	0.0149816
726.552	0.0149316
726.630	0.0150476
726.708	0.0150185
726.787	0.0151578
726.865	0.0149969
726.943	0.0151797
727.021	0.0151245
727.099	0.0151886
727.177	0.0150844
727.255	0.0151101
727.333	0.0152049
727.412	0.0151402
727.490	0.0151078
727.568	0.0151002
727.646	0.0152029
727.724	0.0151569
727.802	0.0150968
727.880	0.0150698
727.958	0.0149408
728.037	0.0151460
728.115	0.0151472
728.193	0.0152272
728.271	0.0151957
728.349	0.0150256
728.427	0.0149950
728.505	0.0150822
728.583	0.0150705
728.662	0.0151381
728.740	0.0152393
728.818	0.0151884
728.896	0.0151127
728.974	0.0150950
729.052	0.0150417
729.130	0.0151018
729.208	0.0152319
729.287	0.0151860
729.365	0.0150454
729.443	0.0151887
729.521	0.0152357
729.599	0.0152373
729.677	0.0151860
729.755	0.0151445
729.833	0.0152095
729.912	0.0153274
729.990	0.0152844
730.068	0.0152799
730.146	0.0152105
730.224	0.0150818
730.302	0.0151843
730.380	0.0152728
730.458	0.0152416
730.537	0.0151091
730.615	0.0150312
730.693	0.0151582
730.771	0.0152289
730.849	0.0150806
730.927	0.0150725
731.005	0.0150157
731.083	0.0150104
731.162	0.0151507
731.240	0.0150928
731.318	0.0149927
731.396	0.0149842
731.474	0.0150742
731.552	0.0149691
731.630	0.0149821
731.708	0.0151293
731.787	0.0149210
731.865	0.0149195
731.943	0.0149696
732.021	0.0149662
732.099	0.0150926
732.177	0.0151601
732.255	0.0149978
732.333	0.0151263
732.412	0.0151355
732.490	0.0149440
732.568	0.0150695
732.646	0.0149837
732.724	0.0148548
732.802	0.0150092
732.880	0.0149458
732.958	0.0150271
733.037	0.0150343
733.115	0.0151012
733.193	0.0149791
733.271	0.0149679
733.349	0.0150070
733.427	0.0150514
733.505	0.0150465
733.583	0.0149692
733.662	0.0149625
733.740	0.0150916
733.818	0.0150433
733.896	0.0151564
733.974	0.0151535
734.052	0.0151248
734.130	0.0151187
734.208	0.0151060
734.287	0.0150672
734.365	0.0152911
734.443	0.0152162
734.521	0.0151669
734.599	0.0151846
734.677	0.0151201
734.755	0.0150099
734.833	0.0151931
734.912	0.0151762
734.990	0.0152241
735.068	0.0151740
735.146	0.0150681
735.224	0.0152074
735.302	0.0151565
735.380	0.0151076
735.458	0.0150537
735.537	0.0149812
735.615	0.0150557
735.693	0.0149681
735.771	0.0150350
735.849	0.0152100
735.927	0.0149864
736.005	0.0149640
736.083	0.0150642
736.162	0.0150111
736.240	0.0149625
736.318	0.0149763
736.396	0.0149487
736.474	0.0150029
736.552	0.0150196
736.630	0.0149636
736.708	0.0151317
736.787	0.0150439
736.865	0.0150188
736.943	0.0150778
737.021	0.0150485
737.099	0.0149950
737.177	0.0151962
737.255	0.0151070
737.333	0.0150492
737.412	0.0150962
737.490	0.0150070
737.568	0.0151080
737.646	0.0150243
737.724	0.0148866
737.802	0.0149669
737.880	0.0149515
737.958	0.0150721
738.037	0.0151421
738.115	0.0150339
738.193	0.0149267
738.271	0.0150029
738.349	0.0150031
738.427	0.0149921
738.505	0.0150783
738.583	0.0150087
738.662	0.0148055
738.740	0.0148837
738.818	0.0150890
738.896	0.0149704
738.974	0.0149854
739.052	0.0150744
739.130	0.0150587
739.208	0.0149836
739.287	0.0150637
739.365	0.0151822
739.443	0.0151647
739.521	0.0150304
739.599	0.0150615
739.677	0.0150431
739.755	0.0151075
739.833	0.0149247
739.912	0.0150100
739.990	0.0150011
740.068	0.0150400
740.146	0.0151083
740.224	0.0150822
740.302	0.0150507
740.380	0.0150414
740.458	0.0150642
740.537	0.0150547
740.615	0.0150220
740.693	0.0150834
740.771	0.0151787
740.849	0.0150733
740.927	0.0151387
741.005	0.0152144
741.083	0.0151089
741.162	0.0151395
741.240	0.0151552
741.318	0.0151090
741.396	0.0153042
741.474	0.0152434
741.552	0.0153117
741.630	0.0152049
741.708	0.0151038
741.787	0.0151263
741.865	0.0151502
741.943	0.0151772
742.021	0.0151132
742.099	0.0151579
742.177	0.0152048
742.255	0.0151788
742.333	0.0150278
742.412	0.0150483
742.490	0.0151683
742.568	0.0151753
742.646	0.0151906
742.724	0.0151328
742.802	0.0150423
742.880	0.0151414
742.958	0.0152087
743.037	0.0151636
743.115	0.0150282
743.193	0.0150773
743.271	0.0151628
743.349	0.0151822
743.427	0.0151583
743.505	0.0150367
743.583	0.0150780
743.662	0.0150301
743.740	0.0149397
743.818	0.0150675
743.896	0.0150306
743.974	0.0149958
744.052	0.0149969
744.130	0.0151192
744.208	0.0151283
744.287	0.0149719
744.365	0.0149170
744.443	0.0150523
744.521	0.0150068
744.599	0.0150909
744.677	0.0151058
744.755	0.0150488
744.833	0.0150221
744.912	0.0149725
744.990	0.0152211
745.068	0.0152149
745.146	0.0150565
745.224	0.0150443
745.302	0.0150684
745.380	0.0150319
745.458	0.0151168
745.537	0.0151810
745.615	0.0151370
745.693	0.0151003
745.771	0.0150181
745.849	0.0150761
745.927	0.0151324
746.005	0.0150617
746.083	0.0150142
746.162	0.0151411
746.240	0.0151555
746.318	0.0150940
746.396	0.0151491
746.474	0.0151483
746.552	0.0150236
746.630	0.0152174
746.708	0.0151559
746.787	0.0152778
746.865	0.0151595
746.943	0.0151994
747.021	0.0152055
747.099	0.0151245
747.177	0.0151328
747.255	0.0151678
747.333	0.0152570
747.412	0.0153333
747.490	0.0152429
747.568	0.0150984
747.646	0.0150723
747.724	0.0151483
747.802	0.0151432
747.880	0.0150787
747.958	0.0151084
748.037	0.0150420
748.115	0.0149960
748.193	0.0149613
748.271	0.0149490
748.349	0.0149351
748.427	0.0149334
748.505	0.0148477
748.583	0.0150267
748.662	0.0149789
748.740	0.0149220
748.818	0.0149181
748.896	0.0150444
748.974	0.0151576
749.052	0.0150718
749.130	0.0149586
749.208	0.0150496
749.287	0.0150606
749.365	0.0150411
749.443	0.0149486
749.521	0.0151093
749.599	0.0151113
749.677	0.0151243
749.755	0.0152473
749.833	0.0152696
749.912	0.0152171
749.990	0.0150187
750.068	0.0150597
750.146	0.0152300
750.224	0.0152025
750.302	0.0152724
750.380	0.0151305
750.458	0.0150763
750.537	0.0152631
750.615	0.0150665
750.693	0.0151391
750.771	0.0151817
750.849	0.0151104
750.927	0.0151108
751.005	0.0151096
751.083	0.0150897
751.162	0.0152153
751.240	0.0152294
751.318	0.0151792
751.396	0.0151139
751.474	0.0151220
751.552	0.0151261
751.630	0.0151098
751.708	0.0150441
751.787	0.0150989
751.865	0.0151182
751.943	0.0150327
752.021	0.0152020
752.099	0.0150762
752.177	0.0149451
752.255	0.0150660
752.333	0.0149917
752.412	0.0151836
752.490	0.0151373
752.568	0.0150693
752.646	0.0149078
752.724	0.0151880
752.802	0.0151863
752.880	0.0151866
752.958	0.0152926
753.037	0.0149596
753.115	0.0149403
753.193	0.0150652
753.271	0.0151977
753.349	0.0151888
753.427	0.0150943
753.505	0.0150094
753.583	0.0152164
753.662	0.0151703
753.740	0.0150957
753.818	0.0149487
753.896	0.0150977
753.974	0.0150880
754.052	0.0150014
754.130	0.0149249
754.208	0.0150258
754.287	0.0151414
754.365	0.0150025
754.443	0.0149983
754.521	0.0149712
754.599	0.0149229
754.677	0.0150481
754.755	0.0151452
754.833	0.0150162
754.912	0.0149592
754.990	0.0149761
755.068	0.0149483
755.146	0.0151642
755.224	0.0150069
755.302	0.0150379
755.380	0.0150148
755.458	0.0150111
755.537	0.0149764
755.615	0.0151038
755.693	0.0149306
755.771	0.0149427
755.849	0.0149273
755.927	0.0150792
756.005	0.0151275
756.083	0.0149933
756.162	0.0149100
756.240	0.0149860
756.318	0.0150651
756.396	0.0150185
756.474	0.0149824
756.552	0.0150129
756.630	0.0150718
756.708	0.0151807
756.787	0.0149921
756.865	0.0151194
756.943	0.0150786
757.021	0.0150078
757.099	0.0152349
757.177	0.0150920
757.255	0.0150559
757.333	0.0152552
757.412	0.0152177
757.490	0.0150185
757.568	0.0151946
757.646	0.0152425
757.724	0.0152546
757.802	0.0152534
757.880	0.0152271
757.958	0.0150161
758.037	0.0152188
758.115	0.0152392
758.193	0.0150992
758.271	0.0150616
758.349	0.0149764
758.427	0.0151554
758.505	0.0151300
758.583	0.0151704
758.662	0.0149986
758.740	0.0151307
758.818	0.0149590
758.896	0.0149538
758.974	0.0149933
759.052	0.0149369
759.130	0.0151356
759.208	0.0150011
759.287	0.0149895
759.365	0.0149883
759.443	0.0148640
759.521	0.0151031
759.599	0.0150044
759.677	0.0149425
759.755	0.0149737
759.833	0.0149758
759.912	0.0151537
759.990	0.0151044
760.068	0.0149998
760.146	0.0150467
760.224	0.0151030
760.302	0.0152439
760.380	0.0150567
760.458	0.0150538
760.537	0.0151345
760.615	0.0151237
760.693	0.0150378
760.771	0.0149216
760.849	0.0151109
760.927	0.0150491
761.005	0.0149765
761.083	0.0150787
761.162	0.0151420
761.240	0.0151294
761.318	0.0151620
761.396	0.0150353
761.474	0.0150439
761.552	0.0150987
761.630	0.0149712
761.708	0.0152048
761.787	0.0151101
761.865	0.0151064
761.943	0.0151164
762.021	0.0151952
762.099	0.0150227
762.177	0.0150952
762.255	0.0150795
762.333	0.0151836
762.412	0.0151009
762.490	0.0150737
762.568	0.0150247
762.646	0.0150994
762.724	0.0151651
762.802	0.0151789
762.880	0.0150867
762.958	0.0150626
763.037	0.0151981
763.115	0.0149741
763.193	0.0150865
763.271	0.0150321
763.349	0.0150971
763.427	0.0151737
763.505	0.0152020
763.583	0.0149810
763.662	0.0150343
763.740	0.0149660
763.818	0.0150185
763.896	0.0150634
763.974	0.0151042
764.052	0.0151920
764.130	0.0150406
764.208	0.0149371
764.287	0.0151088
764.365	0.0151434
764.443	0.0150566
764.521	0.0150154
764.599	0.0151376
764.677	0.0151003
764.755	0.0150754
764.833	0.0151331
764.912	0.0152061
764.990	0.0151487
765.068	0.0150552
765.146	0.0150216
765.224	0.0150893
765.302	0.0151513
765.380	0.0151324
765.458	0.0149883
765.537	0.0151504
765.615	0.0150902
765.693	0.0149452
765.771	0.0150566
765.849	0.0150432
765.927	0.0150596
766.005	0.0150052
766.083	0.0150706
766.162	0.0150176
766.240	0.0151187
766.318	0.0150610
766.396	0.0150175
766.474	0.0150135
766.552	0.0150266
766.630	0.0151823
766.708	0.0149776
766.787	0.0150208
766.865	0.0151580
766.943	0.0151339
767.021	0.0151186
767.099	0.0151692
767.177	0.0151608
767.255	0.0151973
767.333	0.0151134
767.412	0.0149752
767.490	0.0150235
767.568	0.0150761
767.646	0.0149532
767.724	0.0149899
767.802	0.0151443
767.880	0.0150784
767.958	0.0151227
768.037	0.0151543
768.115	0.0148740
768.193	0.0149472
768.271	0.0149112
768.349	0.0150193
768.427	0.0150600
768.505	0.0149115
768.583	0.0150645
768.662	0.0150712
768.740	0.0150507
768.818	0.0151612
768.896	0.0151563
768.974	0.0149725
769.052	0.0150477
769.130	0.0151700
769.208	0.0151541
769.287	0.0152184
769.365	0.0150980
769.443	0.0151521
769.521	0.0151339
769.599	0.0150816
769.677	0.0151673
769.755	0.0151324
769.833	0.0151308
769.912	0.0151871
769.990	0.0150834
770.068	0.0152164
770.146	0.0150081
770.224	0.0149851
770.302	0.0150935
770.380	0.0150603
770.458	0.0150494
770.537	0.0151650
770.615	0.0150420
770.693	0.0148966
770.771	0.0151225
770.849	0.0151067
770.927	0.0150556
771.005	0.0149271
771.083	0.0149616
771.162	0.0150182
771.240	0.0150246
771.318	0.0149309
771.396	0.0151949
771.474	0.0151012
771.552	0.0151244
771.630	0.0150001
771.708	0.0150660
771.787	0.0150835
771.865	0.0151022
771.943	0.0149004
772.021	0.0149911
772.099	0.0150965
772.177	0.0150749
772.255	0.0150100
772.333	0.0150999
772.412	0.0150080
772.490	0.0151059
772.568	0.0150843
772.646	0.0152350
772.724	0.0151036
772.802	0.0151646
772.880	0.0150996
772.958	0.0152309
773.037	0.0152586
773.115	0.0153468
773.193	0.0151905
773.271	0.0151810
773.349	0.0151302
773.427	0.0152731
773.505	0.0152576
773.583	0.0153033
773.662	0.0152085
773.740	0.0151973
773.818	0.0153535
773.896	0.0151500
773.974	0.0151035
774.052	0.0150910
774.130	0.0150948
774.208	0.0151209
774.287	0.0152405
774.365	0.0150076
774.443	0.0150214
774.521	0.0152052
774.599	0.0150275
774.677	0.0151572
774.755	0.0149886
774.833	0.0151748
774.912	0.0151033
774.990	0.0152352
775.068	0.0149785
775.146	0.0150057
775.224	0.0151701
775.302	0.0151948
775.380	0.0152557
775.458	0.0152168
775.537	0.0151498
775.615	0.0152731
775.693	0.0152248
775.771	0.0152372
775.849	0.0151772
775.927	0.0150850
776.005	0.0152164
776.083	0.0152774
776.162	0.0152682
776.240	0.0152654
776.318	0.0151044
776.396	0.0152502
776.474	0.0151495
776.552	0.0150871
776.630	0.0152475
776.708	0.0151822
776.787	0.0151942
776.865	0.0150468
776.943	0.0150594
777.021	0.0151093
777.099	0.0152882
777.177	0.0150449
777.255	0.0151505
777.333	0.0152254
777.412	0.0152067
777.490	0.0150757
777.568	0.0152461
777.646	0.0152273
777.724	0.0152441
777.802	0.0150552
777.880	0.0152031
777.958	0.0152480
778.037	0.0150741
778.115	0.0152480
778.193	0.0151875
778.271	0.0152731
778.349	0.0152739
778.427	0.0152345
778.505	0.0153741
778.583	0.0151874
778.662	0.0150224
778.740	0.0152826
778.818	0.0150639
778.896	0.0150823
778.974	0.0150627
779.052	0.0152563
779.130	0.0150848
779.208	0.0151367
779.287	0.0150813
779.365	0.0151304
779.443	0.0151102
779.521	0.0151463
779.599	0.0150812
779.677	0.0149686
779.755	0.0149731
779.833	0.0150888
779.912	0.0151743
779.990	0.0150244
780.068	0.0150858
780.146	0.0152009
780.224	0.0151770
780.302	0.0149802
780.380	0.0151041
780.458	0.0150758
780.537	0.0150372
780.615	0.0151115
780.693	0.0150066
780.771	0.0151364
780.849	0.0151944
780.927	0.0151585
781.005	0.0151238
781.083	0.0151857
781.162	0.0150825
781.240	0.0152280
781.318	0.0151984
781.396	0.0152039
781.474	0.0150713
781.552	0.0150872
781.630	0.0150726
781.708	0.0152254
781.787	0.0150959
781.865	0.0151055
781.943	0.0151302
782.021	0.0152131
782.099	0.0151328
782.177	0.0151329
782.255	0.0150757
782.333	0.0151395
782.412	0.0151278
782.490	0.0150319
782.568	0.0150021
782.646	0.0149277
782.724	0.0150146
782.802	0.0150146
782.880	0.0150275
782.958	0.0150975
783.037	0.0149693
783.115	0.0149873
783.193	0.0150396
783.271	0.0150357
783.349	0.0149916
783.427	0.0148837
783.505	0.0149412
783.583	0.0150356
783.662	0.0150378
783.740	0.0150814
783.818	0.0151618
783.896	0.0151485
783.974	0.0150605
784.052	0.0150536
784.130	0.0151334
784.208	0.0150134
784.287	0.0149937
784.365	0.0150547
784.443	0.0151490
784.521	0.0150768
784.599	0.0151905
784.677	0.0152845
784.755	0.0150623
784.833	0.0150359
784.912	0.0152766
784.990	0.0152562
785.068	0.0152214
785.146	0.0152336
785.224	0.0152073
785.302	0.0151877
785.380	0.0150890
785.458	0.0150579
785.537	0.0152142
785.615	0.0151443
785.693	0.0151054
785.771	0.0151334
785.849	0.0150254
785.927	0.0149557
786.005	0.0151662
786.083	0.0151269
786.162	0.0149870
786.240	0.0150105
786.318	0.0149648
786.396	0.0149664
786.474	0.0150684
786.552	0.0150031
786.630	0.0150727
786.708	0.0150257
786.787	0.0150747
786.865	0.0150021
786.943	0.0148428
787.021	0.0149598
787.099	0.0150179
787.177	0.0151305
787.255	0.0149690
787.333	0.0151157
787.412	0.0151292
787.490	0.0150213
787.568	0.0150862
787.646	0.0150525
787.724	0.0150830
787.802	0.0151571
787.880	0.0151312
787.958	0.0150722
788.037	0.0148877
788.115	0.0150004
788.193	0.0150788
788.271	0.0150646
788.349	0.0150851
788.427	0.0149847
788.505	0.0150865
788.583	0.0148917
788.662	0.0151626
788.740	0.0150507
788.818	0.0150449
788.896	0.0149944
788.974	0.0150683
789.052	0.0150272
789.130	0.0150334
789.208	0.0150499
789.287	0.0151391
789.365	0.0151240
789.443	0.0151409
789.521	0.0149572
789.599	0.0151659
789.677	0.0150218
789.755	0.0150888
789.833	0.0152267
789.912	0.0149594
789.990	0.0150121
790.068	0.0149864
790.146	0.0149953
790.224	0.0150817
790.302	0.0149812
790.380	0.0149020
790.458	0.0150092
790.537	0.0150021
790.615	0.0150495
790.693	0.0149600
790.771	0.0149376
790.849	0.0148685
790.927	0.0148776
791.005	0.0148813
791.083	0.0149144
791.162	0.0148805
791.240	0.0150747
791.318	0.0150190
791.396	0.0148501
791.474	0.0149649
791.552	0.0148685
791.630	0.0149131
791.708	0.0149234
791.787	0.0148994
791.865	0.0148540
791.943	0.0150414
792.021	0.0150352
792.099	0.0150441
792.177	0.0150285
792.255	0.0150135
792.333	0.0150446
792.412	0.0149988
792.490	0.0149841
792.568	0.0149441
792.646	0.0150533
792.724	0.0150562
792.802	0.0151241
792.880	0.0149952
792.958	0.0149842
793.037	0.0149829
793.115	0.0151331
793.193	0.0150323
793.271	0.0150818
793.349	0.0151660
793.427	0.0151416
793.505	0.0151835
793.583	0.0150394
793.662	0.0151667
793.740	0.0150768
793.818	0.0150483
793.896	0.0150817
793.974	0.0150844
794.052	0.0149215
794.130	0.0149854
794.208	0.0150434
794.287	0.0150319
794.365	0.0149969
794.443	0.0149209
794.521	0.0149622
794.599	0.0148598
794.677	0.0149809
794.755	0.0149434
794.833	0.0148943
794.912	0.0150050
794.990	0.0150006
795.068	0.0148823
795.146	0.0151097
795.224	0.0150808
795.302	0.0152073
795.380	0.0151078
795.458	0.0149368
795.537	0.0151497
795.615	0.0152162
795.693	0.0150635
795.771	0.0153522
795.849	0.0151376
795.927	0.0152765
796.005	0.0152769
796.083	0.0151707
796.162	0.0151534
796.240	0.0152433
796.318	0.0151252
796.396	0.0151125
796.474	0.0152139
796.552	0.0152602
796.630	0.0153838
796.708	0.0150939
796.787	0.0150312
796.865	0.0150450
796.943	0.0151605
797.021	0.0152448
797.099	0.0150739
797.177	0.0150916
797.255	0.0150626
797.333	0.0150221
797.412	0.0151183
797.490	0.0149969
797.568	0.0149782
797.646	0.0149751
797.724	0.0150116
797.802	0.0150864
797.880	0.0149548
797.958	0.0150130
798.037	0.0150455
798.115	0.0149974
798.193	0.0150993
798.271	0.0150676
798.349	0.0150582
798.427	0.0149380
798.505	0.0151264
798.583	0.0151756
798.662	0.0150724
798.740	0.0150986
798.818	0.0150945
798.896	0.0149859
798.974	0.0151080
799.052	0.0150858
799.130	0.0151051
799.208	0.0152032
799.287	0.0150555
799.365	0.0150761
799.443	0.0151537
799.521	0.0150822
799.599	0.0152029
799.677	0.0151218
799.755	0.0150357
799.833	0.0151013
799.912	0.0151716
799.990	0.0152066
800.068	0.0152798
800.146	0.0151324
800.224	0.0151449
800.302	0.0151819
800.380	0.0151159
800.458	0.0152240
800.537	0.0151623
800.615	0.0150066
800.693	0.0151586
800.771	0.0150462
800.849	0.0149656
800.927	0.0150372
801.005	0.0150691
801.083	0.0150070
801.162	0.0151404
801.240	0.0150021
801.318	0.0150864
801.396	0.0150256
801.474	0.0150866
801.552	0.0150560
801.630	0.0150481
801.708	0.0149507
801.787	0.0151281
801.865	0.0149465
801.943	0.0148672
802.021	0.0150883
802.099	0.0149710
802.177	0.0149048
802.255	0.0150160
802.333	0.0151009
802.412	0.0151640
802.490	0.0150684
802.568	0.0150291
802.646	0.0150906
802.724	0.0151458
802.802	0.0151255
802.880	0.0151989
802.958	0.0150661
803.037	0.0150904
803.115	0.0150423
803.193	0.0150904
803.271	0.0151557
803.349	0.0150801
803.427	0.0151514
803.505	0.0151147
803.583	0.0151077
803.662	0.0151178
803.740	0.0152587
803.818	0.0150746
803.896	0.0151213
803.974	0.0152203
804.052	0.0151788
804.130	0.0152943
804.208	0.0152891
804.287	0.0152120
804.365	0.0152821
804.443	0.0152010
804.521	0.0151659
804.599	0.0152223
804.677	0.0152934
804.755	0.0151456
804.833	0.0151974
804.912	0.0151588
804.990	0.0152146
805.068	0.0150361
805.146	0.0151958
805.224	0.0149860
805.302	0.0151556
805.380	0.0150180
805.458	0.0151255
805.537	0.0150050
805.615	0.0152395
805.693	0.0150114
805.771	0.0150014
805.849	0.0149522
805.927	0.0149914
806.005	0.0150859
806.083	0.0151546
806.162	0.0150120
806.240	0.0148885
806.318	0.0150863
806.396	0.0151226
806.474	0.0152246
806.552	0.0151152
806.630	0.0149026
806.708	0.0150040
806.787	0.0152420
806.865	0.0152154
806.943	0.0150764
807.021	0.0149374
807.099	0.0151361
807.177	0.0150547
807.255	0.0149911
807.333	0.0151090
807.412	0.0150683
807.490	0.0150817
807.568	0.0150800
807.646	0.0150829
807.724	0.0151496
807.802	0.0151182
807.880	0.0150589
807.958	0.0150008
808.037	0.0150111
808.115	0.0150408
808.193	0.0151814
808.271	0.0151241
808.349	0.0151683
808.427	0.0150900
808.505	0.0149537
808.583	0.0150283
808.662	0.0150724
808.740	0.0150385
808.818	0.0150904
808.896	0.0150044
808.974	0.0150617
809.052	0.0150518
809.130	0.0150494
809.208	0.0151765
809.287	0.0150914
809.365	0.0149986
809.443	0.0148293
809.521	0.0150773
809.599	0.0150835
809.677	0.0149456
809.755	0.0150609
809.833	0.0150125
809.912	0.0149916
809.990	0.0150600
810.068	0.0151222
810.146	0.0150238
810.224	0.0151747
810.302	0.0152048
810.380	0.0151623
810.458	0.0150809
810.537	0.0152665
810.615	0.0151470
810.693	0.0151120
810.771	0.0151793
810.849	0.0151230
810.927	0.0149905
811.005	0.0151409
811.083	0.0149941
811.162	0.0149795
811.240	0.0149847
811.318	0.0150889
811.396	0.0150824
811.474	0.0150774
811.552	0.0150360
811.630	0.0149879
811.708	0.0151717
811.787	0.0150613
811.865	0.0150058
811.943	0.0151176
812.021	0.0151986
812.099	0.0150831
812.177	0.0150140
812.255	0.0151442
812.333	0.0152124
812.412	0.0150945
812.490	0.0150288
812.568	0.0150687
812.646	0.0151105
812.724	0.0152251
812.802	0.0151350
812.880	0.0151282
812.958	0.0149844
813.037	0.0151807
813.115	0.0150796
813.193	0.0150011
813.271	0.0150239
813.349	0.0150359
813.427	0.0151474
813.505	0.0150130
813.583	0.0149191
813.662	0.0148241
813.740	0.0148624
813.818	0.0147980
813.896	0.0150108
813.974	0.0148464
814.052	0.0147354
814.130	0.0147686
814.208	0.0149308
814.287	0.0148257
814.365	0.0147936
814.443	0.0148717
814.521	0.0148763
814.599	0.0149223
814.677	0.0149789
814.755	0.0149654
814.833	0.0149857
814.912	0.0150234
814.990	0.0148853
815.068	0.0150755
815.146	0.0150402
815.224	0.0149555
815.302	0.0151046
815.380	0.0151137
815.458	0.0151283
815.537	0.0149744
815.615	0.0150410
815.693	0.0150572
815.771	0.0150998
815.849	0.0150711
815.927	0.0151168
816.005	0.0153135
816.083	0.0150971
816.162	0.0149503
816.240	0.0150809
816.318	0.0150644
816.396	0.0151783
816.474	0.0150794
816.552	0.0150999
816.630	0.0150705
816.708	0.0150565
816.787	0.0150570
816.865	0.0149964
816.943	0.0148137
817.021	0.0150058
817.099	0.0149384
817.177	0.0151515
817.255	0.0149937
817.333	0.0150107
817.412	0.0150852
817.490	0.0149320
817.568	0.0149671
817.646	0.0148811
817.724	0.0149095
817.802	0.0148692
817.880	0.0149880
817.958	0.0149106
818.037	0.0150137
818.115	0.0150982
818.193	0.0151421
818.271	0.0150228
818.349	0.0149839
818.427	0.0150858
818.505	0.0149686
818.583	0.0150501
818.662	0.0150870
818.740	0.0149815
818.818	0.0149925
818.896	0.0150472
818.974	0.0150050
819.052	0.0149937
819.130	0.0150701
819.208	0.0151370
819.287	0.0150446
819.365	0.0152045
819.443	0.0152062
819.521	0.0151466
819.599	0.0150906
819.677	0.0151400
819.755	0.0151587
819.833	0.0153891
819.912	0.0152770
819.990	0.0150297
820.068	0.0152257
820.146	0.0151677
820.224	0.0152364
820.302	0.0151199
820.380	0.0150794
820.458	0.0152194
820.537	0.0149782
820.615	0.0150554
820.693	0.0151241
820.771	0.0151205
820.849	0.0149417
820.927	0.0150211
821.005	0.0150544
821.083	0.0149726
821.162	0.0150896
821.240	0.0151321
821.318	0.0151170
821.396	0.0149676
821.474	0.0151464
821.552	0.0150363
821.630	0.0149690
821.708	0.0149820
821.787	0.0149680
821.865	0.0149893
821.943	0.0150556
822.021	0.0149012
822.099	0.0149962
822.177	0.0152084
822.255	0.0150552
822.333	0.0150333
822.412	0.0151984
822.490	0.0150616
822.568	0.0151424
822.646	0.0152267
822.724	0.0153984
822.802	0.0151704
822.880	0.0150877
822.958	0.0151473
823.037	0.0151584
823.115	0.0151636
823.193	0.0152452
823.271	0.0151791
823.349	0.0150760
823.427	0.0150813
823.505	0.0151494
823.583	0.0151051
823.662	0.0151198
823.740	0.0152751
823.818	0.0151468
823.896	0.0151555
823.974	0.0150477
824.052	0.0152053
824.130	0.0150877
824.208	0.0150300
824.287	0.0150861
824.365	0.0149893
824.443	0.0150116
824.521	0.0149519
824.599	0.0150494
824.677	0.0152013
824.755	0.0151270
824.833	0.0150912
824.912	0.0151138
824.990	0.0150836
825.068	0.0151240
825.146	0.0151611
825.224	0.0152082
825.302	0.0150303
825.380	0.0150151
825.458	0.0151317
825.537	0.0150092
825.615	0.0148706
825.693	0.0149755
825.771	0.0148294
825.849	0.0149393
825.927	0.0148679
826.005	0.0149071
826.083	0.0150415
826.162	0.0148309
826.240	0.0148802
826.318	0.0148673
826.396	0.0148523
826.474	0.0149715
826.552	0.0148795
826.630	0.0148460
826.708	0.0150002
826.787	0.0149511
826.865	0.0149295
826.943	0.0149857
827.021	0.0149114
827.099	0.0149235
827.177	0.0149396
827.255	0.0148877
827.333	0.0151437
827.412	0.0151403
827.490	0.0149046
827.568	0.0150407
827.646	0.0150917
827.724	0.0152106
827.802	0.0152083
827.880	0.0151408
827.958	0.0153255
828.037	0.0151592
828.115	0.0152444
828.193	0.0152949
828.271	0.0152541
828.349	0.0152415
828.427	0.0153323
828.505	0.0153668
828.583	0.0154085
828.662	0.0151672
828.740	0.0152813
828.818	0.0152913
828.896	0.0152603
828.974	0.0152341
829.052	0.0151266
829.130	0.0152302
829.208	0.0151747
829.287	0.0151532
829.365	0.0151350
829.443	0.0151137
829.521	0.0150182
829.599	0.0150117
829.677	0.0150027
829.755	0.0150952
829.833	0.0149860
829.912	0.0149786
829.990	0.0149763
830.068	0.0150076
830.146	0.0148577
830.224	0.0149345
830.302	0.0149290
830.380	0.0148061
830.458	0.0148940
830.537	0.0148817
830.615	0.0148186
830.693	0.0149058
830.771	0.0149263
830.849	0.0148238
830.927	0.0149041
831.005	0.0149139
831.083	0.0148995
831.162	0.0149962
831.240	0.0149380
831.318	0.0148789
831.396	0.0150145
831.474	0.0150652
831.552	0.0151118
831.630	0.0150610
831.708	0.0151513
831.787	0.0151538
831.865	0.0151194
831.943	0.0151002
832.021	0.0153421
832.099	0.0153075
832.177	0.0152934
832.255	0.0152737
832.333	0.0151718
832.412	0.0153322
832.490	0.0153116
832.568	0.0152283
832.646	0.0152612
832.724	0.0152072
832.802	0.0153105
832.880	0.0152886
832.958	0.0152780
833.037	0.0151795
833.115	0.0151503
833.193	0.0152132
833.271	0.0152353
833.349	0.0151317
833.427	0.0150958
833.505	0.0151451
833.583	0.0151204
833.662	0.0150862
833.740	0.0150596
833.818	0.0150122
833.896	0.0150068
833.974	0.0150088
834.052	0.0148665
834.130	0.0149300
834.208	0.0149563
834.287	0.0148681
834.365	0.0149778
834.443	0.0149448
834.521	0.0148579
834.599	0.0148932
834.677	0.0149332
834.755	0.0148496
834.833	0.0148522
834.912	0.0149471
834.990	0.0147797
835.068	0.0149450
835.146	0.0149954
835.224	0.0148533
835.302	0.0148190
835.380	0.0149821
835.458	0.0150117
835.537	0.0149168
835.615	0.0149562
835.693	0.0151680
835.771	0.0149393
835.849	0.0150888
835.927	0.0150169
836.005	0.0150195
836.083	0.0151089
836.162	0.0151937
836.240	0.0153867
836.318	0.0152402
836.396	0.0152795
836.474	0.0152464
836.552	0.0152055
836.630	0.0153388
836.708	0.0153850
836.787	0.0153338
836.865	0.0154756
836.943	0.0154165
837.021	0.0153029
837.099	0.0153214
837.177	0.0152615
837.255	0.0151481
837.333	0.0153178
837.412	0.0153044
837.490	0.0152834
837.568	0.0152748
837.646	0.0150984
837.724	0.0151167
837.802	0.0151394
837.880	0.0152414
837.958	0.0152171
838.037	0.0150913
838.115	0.0150948
838.193	0.0152699
838.271	0.0150582
838.349	0.0152007
838.427	0.0151983
838.505	0.0150916
838.583	0.0151022
838.662	0.0150181
838.740	0.0151479
838.818	0.0150172
838.896	0.0150904
838.974	0.0150101
839.052	0.0148228
839.130	0.0148039
839.208	0.0147607
839.287	0.0150304
839.365	0.0148280
839.443	0.0146681
839.521	0.0149243
839.599	0.0148171
839.677	0.0147173
839.755	0.0147726
839.833	0.0148034
839.912	0.0147999
839.990	0.0148974
840.068	0.0149912
840.146	0.0149948
840.224	0.0150498
840.302	0.0150081
840.380	0.0151715
840.458	0.0152398
840.537	0.0151833
840.615	0.0153233
840.693	0.0152033
840.771	0.0151591
840.849	0.0153372
840.927	0.0152760
841.005	0.0152517
841.083	0.0152979
841.162	0.0152393
841.240	0.0151006
841.318	0.0152029
841.396	0.0152229
841.474	0.0151254
841.552	0.0152302
841.630	0.0152576
841.708	0.0152180
841.787	0.0152003
841.865	0.0151133
841.943	0.0152438
842.021	0.0151328
842.099	0.0151199
842.177	0.0151222
842.255	0.0151357
842.333	0.0150829
842.412	0.0151369
842.490	0.0151663
842.568	0.0150143
842.646	0.0150934
842.724	0.0151683
842.802	0.0150021
842.880	0.0149603
842.958	0.0150696
843.037	0.0153487
843.115	0.0150639
843.193	0.0149889
843.271	0.0151015
843.349	0.0151583
843.427	0.0150394
843.505	0.0151122
843.583	0.0150065
843.662	0.0152251
843.740	0.0152087
843.818	0.0151397
843.896	0.0150141
843.974	0.0150877
844.052	0.0151475
844.130	0.0150691
844.208	0.0149429
844.287	0.0148993
844.365	0.0150848
844.443	0.0151023
844.521	0.0149248
844.599	0.0150536
844.677	0.0148071
844.755	0.0148610
844.833	0.0147791
844.912	0.0148022
844.990	0.0148904
845.068	0.0149119
845.146	0.0149983
845.224	0.0148118
845.302	0.0148705
845.380	0.0150262
845.458	0.0149944
845.537	0.0150015
845.615	0.0151093
845.693	0.0151564
845.771	0.0150155
845.849	0.0152557
845.927	0.0151327
846.005	0.0152788
846.083	0.0151469
846.162	0.0152355
846.240	0.0152174
846.318	0.0153097
846.396	0.0153700
846.474	0.0152612
846.552	0.0152560
846.630	0.0152677
846.708	0.0153014
846.787	0.0152171
846.865	0.0152175
846.943	0.0153291
847.021	0.0153304
847.099	0.0153574
847.177	0.0153262
847.255	0.0153195
847.333	0.0151884
847.412	0.0152117
847.490	0.0152016
847.568	0.0152039
847.646	0.0151920
847.724	0.0152104
847.802	0.0151546
847.880	0.0150278
847.958	0.0150094
848.037	0.0150291
848.115	0.0149966
848.193	0.0149947
848.271	0.0149988
848.349	0.0149067
848.427	0.0149959
848.505	0.0149369
848.583	0.0150066
848.662	0.0150178
848.740	0.0149259
848.818	0.0150118
848.896	0.0151063
848.974	0.0150526
849.052	0.0151534
849.130	0.0151038
849.208	0.0150509
849.287	0.0149888
849.365	0.0152023
849.443	0.0150990
849.521	0.0151122
849.599	0.0151473
849.677	0.0151012
849.755	0.0149142
849.833	0.0149937
849.912	0.0149644
849.990	0.0149319
850.068	0.0150057
850.146	0.0150069
850.224	0.0150595
850.302	0.0148999
850.380	0.0149146
850.458	0.0151060
850.537	0.0149850
850.615	0.0149995
850.693	0.0148931
850.771	0.0150866
850.849	0.0151759
850.927	0.0150813
851.005	0.0153032
851.083	0.0151056
851.162	0.0152325
851.240	0.0153004
851.318	0.0152679
851.396	0.0152757
851.474	0.0151759
851.552	0.0152693
851.630	0.0153370
851.708	0.0152250
851.787	0.0151537
851.865	0.0153907
851.943	0.0151693
852.021	0.0151262
852.099	0.0151398
852.177	0.0151767
852.255	0.0151651
852.333	0.0152197
852.412	0.0151118
852.490	0.0151244
852.568	0.0150247
852.646	0.0151632
852.724	0.0151293
852.802	0.0150645
852.880	0.0150814
852.958	0.0150694
853.037	0.0149779
853.115	0.0151445
853.193	0.0150081
853.271	0.0151196
853.349	0.0149085
853.427	0.0151160
853.505	0.0150156
853.583	0.0150365
853.662	0.0149713
853.740	0.0149582
853.818	0.0151198
853.896	0.0150600
853.974	0.0148686
854.052	0.0150095
854.130	0.0151640
854.208	0.0149968
854.287	0.0151122
854.365	0.0151042
854.443	0.0151590
854.521	0.0151642
854.599	0.0152644
854.677	0.0151669
854.755	0.0153148
854.833	0.0151313
854.912	0.0151170
854.990	0.0152365
855.068	0.0151737
855.146	0.0152441
855.224	0.0152338
855.302	0.0152373
855.380	0.0151546
855.458	0.0151439
855.537	0.0152728
855.615	0.0152920
855.693	0.0152180
855.771	0.0151402
855.849	0.0151510
855.927	0.0151181
856.005	0.0148602
856.083	0.0149272
856.162	0.0149991
856.240	0.0150597
856.318	0.0150740
856.396	0.0150517
856.474	0.0149995
856.552	0.0149486
856.630	0.0149426
856.708	0.0150841
856.787	0.0150614
856.865	0.0151943
856.943	0.0152025
857.021	0.0151105
857.099	0.0150517
857.177	0.0150626
857.255	0.0151095
857.333	0.0150233
857.412	0.0153110
857.490	0.0152276
857.568	0.0151294
857.646	0.0151404
857.724	0.0152430
857.802	0.0151505
857.880	0.0150897
857.958	0.0151220
858.037	0.0150461
858.115	0.0151659
858.193	0.0152746
858.271	0.0151649
858.349	0.0151388
858.427	0.0151212
858.505	0.0150732
858.583	0.0151469
858.662	0.0151264
858.740	0.0151252
858.818	0.0150898
858.896	0.0151088
858.974	0.0148994
859.052	0.0150206
859.130	0.0150166
859.208	0.0150040
859.287	0.0150417
859.365	0.0150377
859.443	0.0150066
859.521	0.0150646
859.599	0.0150169
859.677	0.0149184
859.755	0.0150826
859.833	0.0150254
859.912	0.0150509
859.990	0.0152120
860.068	0.0151936
860.146	0.0151275
860.224	0.0151421
860.302	0.0150559
860.380	0.0150740
860.458	0.0152217
860.537	0.0152212
860.615	0.0153139
860.693	0.0150976
860.771	0.0152193
860.849	0.0151710
860.927	0.0151748
861.005	0.0151741
861.083	0.0150818
861.162	0.0151830
861.240	0.0151002
861.318	0.0150318
861.396	0.0151537
861.474	0.0150742
861.552	0.0150935
861.630	0.0151604
861.708	0.0151154
861.787	0.0149678
861.865	0.0150856
861.943	0.0149955
862.021	0.0150280
862.099	0.0149866
862.177	0.0151773
862.255	0.0150323
862.333	0.0151135
862.412	0.0151661
862.490	0.0151393
862.568	0.0151679
862.646	0.0151981
862.724	0.0153227
862.802	0.0153329
862.880	0.0152822
862.958	0.0153084
863.037	0.0152439
863.115	0.0152697
863.193	0.0151686
863.271	0.0151859
863.349	0.0151466
863.427	0.0152304
863.505	0.0151878
863.583	0.0150588
863.662	0.0150376
863.740	0.0151429
863.818	0.0152007
863.896	0.0149529
863.974	0.0149899
864.052	0.0151086
864.130	0.0151000
864.208	0.0151118
864.287	0.0151083
864.365	0.0152088
864.443	0.0150574
864.521	0.0149935
864.599	0.0150588
864.677	0.0151302
864.755	0.0151694
864.833	0.0150570
864.912	0.0150146
864.990	0.0151242
865.068	0.0151878
865.146	0.0150789
865.224	0.0150303
865.302	0.0150301
865.380	0.0151079
865.458	0.0151228
865.537	0.0148689
865.615	0.0149325
865.693	0.0150099
865.771	0.0149863
865.849	0.0150710
865.927	0.0150559
866.005	0.0150014
866.083	0.0150889
866.162	0.0150087
866.240	0.0150410
866.318	0.0149974
866.396	0.0149567
866.474	0.0149837
866.552	0.0151773
866.630	0.0149573
866.708	0.0150732
866.787	0.0150603
866.865	0.0149628
866.943	0.0149895
867.021	0.0149621
867.099	0.0148655
867.177	0.0149635
867.255	0.0148820
867.333	0.0149358
867.412	0.0148894
867.490	0.0149794
867.568	0.0150957
867.646	0.0149156
867.724	0.0150982
867.802	0.0151925
867.880	0.0150404
867.958	0.0150346
868.037	0.0151328
868.115	0.0151453
868.193	0.0150773
868.271	0.0151920
868.349	0.0151913
868.427	0.0151405
868.505	0.0150822
868.583	0.0151993
868.662	0.0150952
868.740	0.0151029
868.818	0.0152195
868.896	0.0150666
868.974	0.0151337
869.052	0.0150961
869.130	0.0152173
869.208	0.0149928
869.287	0.0150305
869.365	0.0151752
869.443	0.0151685
869.521	0.0150011
869.599	0.0149868
869.677	0.0149924
869.755	0.0149845
869.833	0.0149153
869.912	0.0148701
869.990	0.0148867
870.068	0.0149277
870.146	0.0148164
870.224	0.0147333
870.302	0.0149434
870.380	0.0147399
870.458	0.0148915
870.537	0.0149384
870.615	0.0149210
870.693	0.0148212
870.771	0.0149283
870.849	0.0149141
870.927	0.0149436
871.005	0.0150638
871.083	0.0149496
871.162	0.0148890
871.240	0.0149751
871.318	0.0150285
871.396	0.0150507
871.474	0.0151414
871.552	0.0151167
871.630	0.0151352
871.708	0.0152702
871.787	0.0151306
871.865	0.0151960
871.943	0.0151821
872.021	0.0152046
872.099	0.0151704
872.177	0.0151798
872.255	0.0152225
872.333	0.0152406
872.412	0.0152853
872.490	0.0151643
872.568	0.0151015
872.646	0.0151537
872.724	0.0151292
872.802	0.0151693
872.880	0.0150979
872.958	0.0150050
873.037	0.0150565
873.115	0.0151228
873.193	0.0150653
873.271	0.0149813
873.349	0.0149738
873.427	0.0151283
873.505	0.0151272
873.583	0.0150163
873.662	0.0149387
873.740	0.0150697
873.818	0.0151640
873.896	0.0151733
873.974	0.0150333
874.052	0.0150581
874.130	0.0151845
874.208	0.0151354
874.287	0.0150359
874.365	0.0151562
874.443	0.0150782
874.521	0.0151883
874.599	0.0150430
874.677	0.0151069
874.755	0.0150214
874.833	0.0150448
874.912	0.0150932
874.990	0.0150609
875.068	0.0150441
875.146	0.0150259
875.224	0.0149725
875.302	0.0150772
875.380	0.0150514
875.458	0.0150558
875.537	0.0150459
875.615	0.0150552
875.693	0.0151279
875.771	0.0151215
875.849	0.0152337
875.927	0.0152234
876.005	0.0150813
876.083	0.0150498
876.162	0.0151214
876.240	0.0152758
876.318	0.0151955
876.396	0.0151007
876.474	0.0151944
876.552	0.0151318
876.630	0.0151653
876.708	0.0152565
876.787	0.0151814
876.865	0.0152477
876.943	0.0151219
877.021	0.0150548
877.099	0.0150242
877.177	0.0150519
877.255	0.0150693
877.333	0.0150528
877.412	0.0150282
877.490	0.0150021
877.568	0.0150110
877.646	0.0149987
877.724	0.0150568
877.802	0.0150512
877.880	0.0150185
877.958	0.0149658
878.037	0.0150373
878.115	0.0148336
878.193	0.0150729
878.271	0.0148710
878.349	0.0149866
878.427	0.0151490
878.505	0.0149649
878.583	0.0148547
878.662	0.0149915
878.740	0.0148978
878.818	0.0149660
878.896	0.0151160
878.974	0.0150013
879.052	0.0151792
879.130	0.0151655
879.208	0.0151338
879.287	0.0151029
879.365	0.0150816
879.443	0.0151858
879.521	0.0150974
879.599	0.0150687
879.677	0.0150172
879.755	0.0152167
879.833	0.0152747
879.912	0.0152432
879.990	0.0152145
880.068	0.0152020
880.146	0.0152072
880.224	0.0151729
880.302	0.0150995
880.380	0.0150391
880.458	0.0151859
880.537	0.0151601
880.615	0.0150037
880.693	0.0151085
880.771	0.0152291
880.849	0.0150562
880.927	0.0150275
881.005	0.0151759
881.083	0.0152180
881.162	0.0152506
881.240	0.0151591
881.318	0.0151527
881.396	0.0151008
881.474	0.0152011
881.552	0.0153094
881.630	0.0151886
881.708	0.0150295
881.787	0.0151025
881.865	0.0151273
881.943	0.0151157
882.021	0.0150282
882.099	0.0151425
882.177	0.0150532
882.255	0.0149979
882.333	0.0150134
882.412	0.0150685
882.490	0.0150779
882.568	0.0149748
882.646	0.0152059
882.724	0.0150018
882.802	0.0150481
882.880	0.0150475
882.958	0.0149091
883.037	0.0150018
883.115	0.0150484
883.193	0.0151570
883.271	0.0150652
883.349	0.0150209
883.427	0.0150701
883.505	0.0150031
883.583	0.0150799
883.662	0.0150475
883.740	0.0150244
883.818	0.0150734
883.896	0.0150475
883.974	0.0150613
884.052	0.0149390
884.130	0.0148949
884.208	0.0150838
884.287	0.0150179
884.365	0.0150311
884.443	0.0150835
884.521	0.0150412
884.599	0.0150929
884.677	0.0149849
884.755	0.0151010
884.833	0.0150698
884.912	0.0149828
884.990	0.0151453
885.068	0.0151205
885.146	0.0151390
885.224	0.0151038
885.302	0.0152795
885.380	0.0152083
885.458	0.0151945
885.537	0.0151859
885.615	0.0152721
885.693	0.0152235
885.771	0.0152050
885.849	0.0151717
885.927	0.0150030
886.005	0.0150916
886.083	0.0151646
886.162	0.0150857
886.240	0.0151537
886.318	0.0151171
886.396	0.0151891
886.474	0.0150292
886.552	0.0150790
886.630	0.0149589
886.708	0.0149874
886.787	0.0150913
886.865	0.0150392
886.943	0.0149103
887.021	0.0149897
887.099	0.0151194
887.177	0.0150301
887.255	0.0150241
887.333	0.0148538
887.412	0.0150864
887.490	0.0150466
887.568	0.0150286
887.646	0.0150724
887.724	0.0150218
887.802	0.0149471
887.880	0.0149482
887.958	0.0148595
888.037	0.0151045
888.115	0.0151665
888.193	0.0150909
888.271	0.0150829
888.349	0.0151894
888.427	0.0150552
888.505	0.0151884
888.583	0.0151945
888.662	0.0151609
888.740	0.0151415
888.818	0.0150968
888.896	0.0151376
888.974	0.0151382
889.052	0.0150755
889.130	0.0150880
889.208	0.0151405
889.287	0.0150685
889.365	0.0149557
889.443	0.0150489
889.521	0.0149999
889.599	0.0149966
889.677	0.0149153
889.755	0.0150726
889.833	0.0150285
889.912	0.0148956
889.990	0.0149633
890.068	0.0150964
890.146	0.0150999
890.224	0.0150447
890.302	0.0151540
890.380	0.0149448
890.458	0.0150550
890.537	0.0151869
890.615	0.0150275
890.693	0.0151791
890.771	0.0151154
890.849	0.0151917
890.927	0.0151965
891.005	0.0151572
891.083	0.0151122
891.162	0.0151519
891.240	0.0151628
891.318	0.0151109
891.396	0.0149325
891.474	0.0150642
891.552	0.0150755
891.630	0.0151711
891.708	0.0151306
891.787	0.0151501
891.865	0.0151792
891.943	0.0152443
892.021	0.0151888
892.099	0.0151091
892.177	0.0151250
892.255	0.0151562
892.333	0.0151572
892.412	0.0152086
892.490	0.0150484
892.568	0.0151212
892.646	0.0151576
892.724	0.0149044
892.802	0.0150329
892.880	0.0151576
892.958	0.0150819
893.037	0.0149348
893.115	0.0149574
893.193	0.0150922
893.271	0.0151427
893.349	0.0148721
893.427	0.0149551
893.505	0.0150060
893.583	0.0149973
893.662	0.0148974
893.740	0.0149541
893.818	0.0149844
893.896	0.0149399
893.974	0.0148292
894.052	0.0148293
894.130	0.0149422
894.208	0.0150926
894.287	0.0148600
894.365	0.0148011
894.443	0.0149140
894.521	0.0149363
894.599	0.0149063
894.677	0.0149287
894.755	0.0150357
894.833	0.0149920
894.912	0.0149680
894.990	0.0149390
895.068	0.0149549
895.146	0.0150341
895.224	0.0150523
895.302	0.0150726
895.380	0.0149792
895.458	0.0150096
895.537	0.0151122
895.615	0.0151534
895.693	0.0149955
895.771	0.0150185
895.849	0.0148147
895.927	0.0149178
896.005	0.0150292
896.083	0.0150513
896.162	0.0148992
896.240	0.0148994
896.318	0.0150285
896.396	0.0148902
896.474	0.0149668
896.552	0.0149976
896.630	0.0150191
896.708	0.0150768
896.787	0.0150522
896.865	0.0150996
896.943	0.0150369
897.021	0.0150695
897.099	0.0150404
897.177	0.0152629
897.255	0.0150085
897.333	0.0151126
897.412	0.0150552
897.490	0.0149654
897.568	0.0149078
897.646	0.0149478
897.724	0.0148657
897.802	0.0149375
897.880	0.0150549
897.958	0.0149258
898.037	0.0149856
898.115	0.0148207
898.193	0.0149530
898.271	0.0150537
898.349	0.0149885
898.427	0.0149519
898.505	0.0148963
898.583	0.0150859
898.662	0.0151276
898.740	0.0150485
898.818	0.0150973
898.896	0.0151222
898.974	0.0150939
899.052	0.0151017
899.130	0.0151936
899.208	0.0152335
899.287	0.0151701
899.365	0.0152425
899.443	0.0151524
899.521	0.0150534
899.599	0.0150837
899.677	0.0149982
899.755	0.0150435
899.833	0.0151433
899.912	0.0150236
899.990	0.0151453
900.068	0.0153432
900.146	0.0150814
900.224	0.0150439
900.302	0.0151189
900.380	0.0151033
900.458	0.0152052
900.537	0.0151296
900.615	0.0149871
900.693	0.0151377
900.771	0.0150737
900.849	0.0150653
900.927	0.0152332
901.005	0.0150903
901.083	0.0150703
901.162	0.0150542
901.240	0.0150968
901.318	0.0151360
901.396	0.0150267
901.474	0.0151085
901.552	0.0151157
901.630	0.0150718
901.708	0.0148298
901.787	0.0150738
901.865	0.0149600
901.943	0.0149432
902.021	0.0148259
902.099	0.0150373
902.177	0.0149488
902.255	0.0149317
902.333	0.0148690
902.412	0.0149570
902.490	0.0149236
902.568	0.0150219
902.646	0.0150794
902.724	0.0150079
902.802	0.0149279
902.880	0.0150036
902.958	0.0149032
903.037	0.0149791
903.115	0.0149547
903.193	0.0150114
903.271	0.0148890
903.349	0.0150083
903.427	0.0150510
903.505	0.0148599
903.583	0.0150417
903.662	0.0148669
903.740	0.0149552
903.818	0.0149036
903.896	0.0150102
903.974	0.0150496
904.052	0.0150478
904.130	0.0150607
904.208	0.0151521
904.287	0.0150774
904.365	0.0150245
904.443	0.0149636
904.521	0.0148934
904.599	0.0151914
904.677	0.0150611
904.755	0.0150452
904.833	0.0150373
904.912	0.0148928
904.990	0.0150285
905.068	0.0150094
905.146	0.0149043
905.224	0.0149778
905.302	0.0149976
905.380	0.0150638
905.458	0.0149913
905.537	0.0149836
905.615	0.0148458
905.693	0.0150301
905.771	0.0150031
905.849	0.0149723
905.927	0.0150026
906.005	0.0148734
906.083	0.0148291
906.162	0.0150833
906.240	0.0150863
906.318	0.0150998
906.396	0.0150731
906.474	0.0149815
906.552	0.0150345
906.630	0.0150687
906.708	0.0150946
906.787	0.0151840
906.865	0.0151253
906.943	0.0150075
907.021	0.0151728
907.099	0.0151088
907.177	0.0150636
907.255	0.0150425
907.333	0.0150086
907.412	0.0151356
907.490	0.0150945
907.568	0.0150393
907.646	0.0149884
907.724	0.0150523
907.802	0.0150800
907.880	0.0148726
907.958	0.0149770
908.037	0.0149598
908.115	0.0150891
908.193	0.0149348
908.271	0.0150708
908.349	0.0151316
908.427	0.0150543
908.505	0.0150410
908.583	0.0149467
908.662	0.0151080
908.740	0.0150472
908.818	0.0150426
908.896	0.0150465
908.974	0.0150709
909.052	0.0150967
909.130	0.0151039
909.208	0.0151752
909.287	0.0151732
909.365	0.0150659
909.443	0.0150211
909.521	0.0150439
909.599	0.0150304
909.677	0.0150917
909.755	0.0150600
909.833	0.0149597
909.912	0.0149287
909.990	0.0151396
910.068	0.0150634
910.146	0.0149430
910.224	0.0151022
910.302	0.0150160
910.380	0.0150198
910.458	0.0149976
910.537	0.0149529
910.615	0.0149930
910.693	0.0150973
910.771	0.0151024
910.849	0.0151559
910.927	0.0150438
911.005	0.0149992
911.083	0.0151360
911.162	0.0151062
911.240	0.0149424
911.318	0.0150294
911.396	0.0150321
911.474	0.0151084
911.552	0.0151044
911.630	0.0150660
911.708	0.0151591
911.787	0.0150875
911.865	0.0150365
911.943	0.0151392
912.021	0.0151756
912.099	0.0151454
912.177	0.0153014
912.255	0.0152385
912.333	0.0151938
912.412	0.0152679
912.490	0.0152523
912.568	0.0152029
912.646	0.0153493
912.724	0.0154148
912.802	0.0153305
912.880	0.0152053
912.958	0.0153565
913.037	0.0151099
913.115	0.0152379
913.193	0.0153206
913.271	0.0152114
913.349	0.0151915
913.427	0.0151582
913.505	0.0152365
913.583	0.0152610
913.662	0.0151385
913.740	0.0152385
913.818	0.0151655
913.896	0.0151768
913.974	0.0151501
914.052	0.0151299
914.130	0.0151384
914.208	0.0150853
914.287	0.0151826
914.365	0.0151591
914.443	0.0152042
914.521	0.0150003
914.599	0.0153448
914.677	0.0152150
914.755	0.0151932
914.833	0.0151284
914.912	0.0150386
914.990	0.0151885
915.068	0.0151990
915.146	0.0151972
915.224	0.0152312
915.302	0.0151765
915.380	0.0152383
915.458	0.0151115
915.537	0.0151888
915.615	0.0152836
915.693	0.0152380
915.771	0.0152081
915.849	0.0151888
915.927	0.0152552
916.005	0.0151488
916.083	0.0151409
916.162	0.0151170
916.240	0.0152946
916.318	0.0153657
916.396	0.0152392
916.474	0.0151653
916.552	0.0151874
916.630	0.0150563
916.708	0.0151147
916.787	0.0152742
916.865	0.0151129
916.943	0.0151060
917.021	0.0151961
917.099	0.0151248
917.177	0.0150707
917.255	0.0150343
917.333	0.0150508
917.412	0.0151154
917.490	0.0150140
917.568	0.0149740
917.646	0.0150074
917.724	0.0151728
917.802	0.0150144
917.880	0.0150275
917.958	0.0147923
918.037	0.0147854
918.115	0.0149942
918.193	0.0149909
918.271	0.0149036
918.349	0.0149913
918.427	0.0148628
918.505	0.0148170
918.583	0.0149995
918.662	0.0148980
918.740	0.0149001
918.818	0.0149630
918.896	0.0150240
918.974	0.0149547
919.052	0.0150014
919.130	0.0149472
919.208	0.0149357
919.287	0.0149588
919.365	0.0151206
919.443	0.0150072
919.521	0.0150298
919.599	0.0150632
919.677	0.0150537
919.755	0.0151721
919.833	0.0150726
919.912	0.0151503
919.990	0.0151521
920.068	0.0150762
920.146	0.0151217
920.224	0.0151685
920.302	0.0151455
920.380	0.0151078
920.458	0.0151106
920.537	0.0151326
920.615	0.0150182
920.693	0.0149320
920.771	0.0150437
920.849	0.0151193
920.927	0.0149776
921.005	0.0149401
921.083	0.0149021
921.162	0.0149489
921.240	0.0149012
921.318	0.0148608
921.396	0.0149687
921.474	0.0150670
921.552	0.0149564
921.630	0.0149155
921.708	0.0149683
921.787	0.0150165
921.865	0.0149534
921.943	0.0151006
922.021	0.0149312
922.099	0.0149570
922.177	0.0149725
922.255	0.0148942
922.333	0.0148403
922.412	0.0148792
922.490	0.0148426
922.568	0.0149551
922.646	0.0148005
922.724	0.0148761
922.802	0.0149442
922.880	0.0149229
922.958	0.0149398
923.037	0.0150231
923.115	0.0149348
923.193	0.0149828
923.271	0.0151140
923.349	0.0150932
923.427	0.0151836
923.505	0.0151429
923.583	0.0150680
923.662	0.0151255
923.740	0.0152655
923.818	0.0150614
923.896	0.0153456
923.974	0.0151631
924.052	0.0151468
924.130	0.0150974
924.208	0.0151788
924.287	0.0150620
924.365	0.0151851
924.443	0.0150596
924.521	0.0151434
924.599	0.0150616
924.677	0.0150835
924.755	0.0152076
924.833	0.0151283
924.912	0.0151042
924.990	0.0149868
925.068	0.0150636
925.146	0.0151425
925.224	0.0151483
925.302	0.0150101
925.380	0.0150363
925.458	0.0150529
925.537	0.0150037
925.615	0.0151151
925.693	0.0150002
925.771	0.0151020
925.849	0.0149697
925.927	0.0150490
926.005	0.0148952
926.083	0.0149973
926.162	0.0151532
926.240	0.0150800
926.318	0.0151398
926.396	0.0150696
926.474	0.0149397
926.552	0.0150333
926.630	0.0151688
926.708	0.0151398
926.787	0.0151785
926.865	0.0151104
926.943	0.0151064
927.021	0.0151143
927.099	0.0149790
927.177	0.0149989
927.255	0.0151038
927.333	0.0150135
927.412	0.0149389
927.490	0.0150446
927.568	0.0150446
927.646	0.0150877
927.724	0.0151280
927.802	0.0150887
927.880	0.0150640
927.958	0.0151053
928.037	0.0150324
928.115	0.0151192
928.193	0.0151134
928.271	0.0150753
928.349	0.0151089
928.427	0.0150426
928.505	0.0150998
928.583	0.0151320
928.662	0.0150761
928.740	0.0151266
928.818	0.0152386
928.896	0.0150127
928.974	0.0151417
929.052	0.0151858
929.130	0.0150055
929.208	0.0153190
929.287	0.0151878
929.365	0.0149687
929.443	0.0151508
929.521	0.0151328
929.599	0.0151103
929.677	0.0151048
929.755	0.0151489
929.833	0.0151826
929.912	0.0150677
929.990	0.0151256
930.068	0.0152633
930.146	0.0151122
930.224	0.0151650
930.302	0.0151142
930.380	0.0150524
930.458	0.0151826
930.537	0.0151512
930.615	0.0151128
930.693	0.0150836
930.771	0.0151286
930.849	0.0151173
930.927	0.0152137
931.005	0.0151430
931.083	0.0151516
931.162	0.0150578
931.240	0.0149861
931.318	0.0149800
931.396	0.0150266
931.474	0.0151212
931.552	0.0150293
931.630	0.0150773
931.708	0.0150681
931.787	0.0150019
931.865	0.0149494
931.943	0.0150319
932.021	0.0149601
932.099	0.0150127
932.177	0.0149822
932.255	0.0149873
932.333	0.0151631
932.412	0.0151007
932.490	0.0149818
932.568	0.0150727
932.646	0.0150437
932.724	0.0151116
932.802	0.0150412
932.880	0.0152355
932.958	0.0151082
933.037	0.0151795
933.115	0.0150848
933.193	0.0150890
933.271	0.0149787
933.349	0.0149917
933.427	0.0151781
933.505	0.0150358
933.583	0.0150903
933.662	0.0150844
933.740	0.0151190
933.818	0.0151573
933.896	0.0151421
933.974	0.0151348
934.052	0.0151800
934.130	0.0152134
934.208	0.0151272
934.287	0.0151677
934.365	0.0154103
934.443	0.0151872
934.521	0.0152744
934.599	0.0152109
934.677	0.0150730
934.755	0.0152109
934.833	0.0152192
934.912	0.0153105
934.990	0.0151507
935.068	0.0152493
935.146	0.0153249
935.224	0.0152313
935.302	0.0152523
935.380	0.0152466
935.458	0.0152439
935.537	0.0150679
935.615	0.0151889
935.693	0.0151326
935.771	0.0152365
935.849	0.0151031
935.927	0.0150506
936.005	0.0151011
936.083	0.0151112
936.162	0.0151347
936.240	0.0151782
936.318	0.0151791
936.396	0.0151937
936.474	0.0151707
936.552	0.0150466
936.630	0.0151680
936.708	0.0152691
936.787	0.0151244
936.865	0.0152951
936.943	0.0151332
937.021	0.0151296
937.099	0.0150417
937.177	0.0152267
937.255	0.0151545
937.333	0.0151360
937.412	0.0150286
937.490	0.0150745
937.568	0.0152107
937.646	0.0151020
937.724	0.0150500
937.802	0.0152756
937.880	0.0150914
937.958	0.0150896
938.037	0.0151925
938.115	0.0152351
938.193	0.0151847
938.271	0.0151675
938.349	0.0151594
938.427	0.0151948
938.505	0.0149815
938.583	0.0150887
938.662	0.0152884
938.740	0.0152806
938.818	0.0151438
938.896	0.0151073
938.974	0.0151479
939.052	0.0152149
939.130	0.0151326
939.208	0.0151977
939.287	0.0151740
939.365	0.0150349
939.443	0.0152326
939.521	0.0152338
939.599	0.0151009
939.677	0.0149831
939.755	0.0151816
939.833	0.0151819
939.912	0.0149974
939.990	0.0151801
940.068	0.0150838
940.146	0.0151295
940.224	0.0151812
940.302	0.0151080
940.380	0.0151241
940.458	0.0151002
940.537	0.0150814
940.615	0.0151194
940.693	0.0150566
940.771	0.0151825
940.849	0.0149977
940.927	0.0150381
941.005	0.0150986
941.083	0.0151440
941.162	0.0151417
941.240	0.0150122
941.318	0.0150983
941.396	0.0150901
941.474	0.0151141
941.552	0.0151127
941.630	0.0151336
941.708	0.0149808
941.787	0.0149448
941.865	0.0150040
941.943	0.0151031
942.021	0.0149967
942.099	0.0150406
942.177	0.0151624
942.255	0.0150776
942.333	0.0150806
942.412	0.0150102
942.490	0.0150136
942.568	0.0150192
942.646	0.0151626
942.724	0.0150780
942.802	0.0149436
942.880	0.0150538
942.958	0.0150410
943.037	0.0150510
943.115	0.0151114
943.193	0.0150927
943.271	0.0150723
943.349	0.0150986
943.427	0.0149659
943.505	0.0150346
943.583	0.0150497
943.662	0.0150922
943.740	0.0150171
943.818	0.0149347
943.896	0.0151648
943.974	0.0149934
944.052	0.0149868
944.130	0.0149310
944.208	0.0150282
944.287	0.0151236
944.365	0.0148936
944.443	0.0148700
944.521	0.0149951
944.599	0.0150604
944.677	0.0150375
944.755	0.0150269
944.833	0.0149229
944.912	0.0150783
944.990	0.0150201
945.068	0.0150484
945.146	0.0150865
945.224	0.0150671
945.302	0.0151234
945.380	0.0151185
945.458	0.0149915
945.537	0.0150656
945.615	0.0150944
945.693	0.0150148
945.771	0.0151355
945.849	0.0150880
945.927	0.0149484
946.005	0.0151075
946.083	0.0151817
946.162	0.0150353
946.240	0.0151233
946.318	0.0151892
946.396	0.0151024
946.474	0.0149834
946.552	0.0151006
946.630	0.0151424
946.708	0.0151366
946.787	0.0149503
946.865	0.0152276
946.943	0.0151027
947.021	0.0150922
947.099	0.0151900
947.177	0.0151214
947.255	0.0152482
947.333	0.0151596
947.412	0.0151900
947.490	0.0152045
947.568	0.0151674
947.646	0.0150307
947.724	0.0151257
947.802	0.0151534
947.880	0.0150861
947.958	0.0151434
948.037	0.0152101
948.115	0.0151037
948.193	0.0150120
948.271	0.0151324
948.349	0.0151268
948.427	0.0152012
948.505	0.0152151
948.583	0.0150774
948.662	0.0152414
948.740	0.0150930
948.818	0.0150067
948.896	0.0150652
948.974	0.0151244
949.052	0.0152933
949.130	0.0151511
949.208	0.0149937
949.287	0.0151747
949.365	0.0150200
949.443	0.0150748
949.521	0.0150529
949.599	0.0150824
949.677	0.0150538
949.755	0.0151523
949.833	0.0150099
949.912	0.0152018
949.990	0.0151730
950.068	0.0151694
950.146	0.0149873
950.224	0.0149869
950.302	0.0151179
950.380	0.0150028
950.458	0.0153159
950.537	0.0151971
950.615	0.0150710
950.693	0.0151711
950.771	0.0150365
950.849	0.0151217
950.927	0.0151176
951.005	0.0152471
951.083	0.0151886
951.162	0.0151079
951.240	0.0150980
951.318	0.0151461
951.396	0.0151545
951.474	0.0152274
951.552	0.0150744
951.630	0.0151132
951.708	0.0149855
951.787	0.0150029
951.865	0.0150604
951.943	0.0148832
952.021	0.0151526
952.099	0.0150525
952.177	0.0150814
952.255	0.0149772
952.333	0.0149485
952.412	0.0149135
952.490	0.0150020
952.568	0.0149866
952.646	0.0149147
952.724	0.0149461
952.802	0.0149288
952.880	0.0149139
952.958	0.0150005
953.037	0.0150443
953.115	0.0150627
953.193	0.0151742
953.271	0.0149719
953.349	0.0150917
953.427	0.0150453
953.505	0.0150529
953.583	0.0150026
953.662	0.0151896
953.740	0.0151361
953.818	0.0151558
953.896	0.0150346
953.974	0.0151057
954.052	0.0151851
954.130	0.0151448
954.208	0.0151619
954.287	0.0150535
954.365	0.0151756
954.443	0.0152390
954.521	0.0151569
954.599	0.0150283
954.677	0.0152107
954.755	0.0151649
954.833	0.0151401
954.912	0.0150323
954.990	0.0151353
955.068	0.0149931
955.146	0.0150074
955.224	0.0150523
955.302	0.0151734
955.380	0.0151966
955.458	0.0151277
955.537	0.0149709
955.615	0.0149442
955.693	0.0150973
955.771	0.0150597
955.849	0.0151250
955.927	0.0151984
956.005	0.0151424
956.083	0.0149868
956.162	0.0151787
956.240	0.0151466
956.318	0.0152295
956.396	0.0151167
956.474	0.0151720
956.552	0.0150827
956.630	0.0150473
956.708	0.0151741
956.787	0.0151933
956.865	0.0149392
956.943	0.0150237
957.021	0.0151798
957.099	0.0151684
957.177	0.0151269
957.255	0.0151941
957.333	0.0152206
957.412	0.0151359
957.490	0.0152528
957.568	0.0151003
957.646	0.0151402
957.724	0.0151839
957.802	0.0152728
957.880	0.0152148
957.958	0.0151129
958.037	0.0152030
958.115	0.0151792
958.193	0.0152660
958.271	0.0152206
958.349	0.0152153
958.427	0.0150526
958.505	0.0151836
958.583	0.0152552
958.662	0.0153004
958.740	0.0152122
958.818	0.0153678
958.896	0.0152505
958.974	0.0152761
959.052	0.0153831
959.130	0.0153308
959.208	0.0152871
959.287	0.0152812
959.365	0.0151292
959.443	0.0150191
959.521	0.0148848
959.599	0.0149190
959.677	0.0151602
959.755	0.0150309
959.833	0.0150714
959.912	0.0151784
959.990	0.0152441
960.068	0.0153851
960.146	0.0154770
960.224	0.0155010
960.302	0.0154554
960.380	0.0154491
960.458	0.0152596
960.537	0.0153120
960.615	0.0151800
960.693	0.0149869
960.771	0.0148898
960.849	0.0148768
960.927	0.0148213
961.005	0.0148554
961.083	0.0148751
961.162	0.0148767
961.240	0.0150312
961.318	0.0150608
961.396	0.0150781
961.474	0.0154144
961.552	0.0154634
961.630	0.0156763
961.708	0.0156268
961.787	0.0155997
961.865	0.0157263
961.943	0.0156236
962.021	0.0154720
962.099	0.0152183
962.177	0.0151249
962.255	0.0150271
962.333	0.0148406
962.412	0.0148096
962.490	0.0148376
962.568	0.0146316
962.646	0.0144663
962.724	0.0145871
962.802	0.0145818
962.880	0.0146056
962.958	0.0148241
963.037	0.0149370
963.115	0.0152264
963.193	0.0154318
963.271	0.0155118
963.349	0.0156326
963.427	0.0156711
963.505	0.0156683
963.583	0.0158065
963.662	0.0155634
963.740	0.0154408
963.818	0.0154480
963.896	0.0152901
963.974	0.0149358
964.052	0.0147662
964.130	0.0145728
964.208	0.0145962
964.287	0.0144735
964.365	0.0146142
964.443	0.0145285
964.521	0.0145927
964.599	0.0145992
964.677	0.0148166
964.755	0.0149392
964.833	0.0149481
964.912	0.0150045
964.990	0.0152710
965.068	0.0153368
965.146	0.0153349
965.224	0.0154910
965.302	0.0154355
965.380	0.0155882
965.458	0.0155855
965.537	0.0155264
965.615	0.0153454
965.693	0.0152802
965.771	0.0151402
965.849	0.0150230
965.927	0.0150722
966.005	0.0149526
966.083	0.0148821
966.162	0.0147677
966.240	0.0147852
966.318	0.0147836
966.396	0.0147781
966.474	0.0146719
966.552	0.0147840
966.630	0.0150225
966.708	0.0147910
966.787	0.0149211
966.865	0.0150092
966.943	0.0149457
967.021	0.0149951
967.099	0.0151610
967.177	0.0152810
967.255	0.0151991
967.333	0.0150804
967.412	0.0152745
967.490	0.0152589
967.568	0.0152923
967.646	0.0153582
967.724	0.0151559
967.802	0.0152224
967.880	0.0152686
967.958	0.0151501
968.037	0.0151883
968.115	0.0151015
968.193	0.0150255
968.271	0.0149631
968.349	0.0149969
968.427	0.0148428
968.505	0.0148747
968.583	0.0149468
968.662	0.0148321
968.740	0.0149911
968.818	0.0149220
968.896	0.0149663
968.974	0.0151411
969.052	0.0150233
969.130	0.0152474
969.208	0.0150984
969.287	0.0151151
969.365	0.0152679
969.443	0.0151189
969.521	0.0152188
969.599	0.0152643
969.677	0.0152168
969.755	0.0150904
969.833	0.0152068
969.912	0.0152472
