05/08/2022	19:48:00	Ver.	4.1	UNKNOWN
Optical Delay	649.989667	Delta X		0.078125	Sweeps	1	Scan Rate	0/0
Coordinates	Axis 1	NaN	Axis 2	NaN	Axis 3	NaN	Axis 4	NaN	Axis 5	NaN	Axis 6	0.000000
TX Power	0.000000	RX Power	0.000000

649.990	0.0139064
650.068	0.0139977
650.146	0.0139635
650.224	0.0137434
650.302	0.0138297
650.380	0.0139208
650.458	0.0139796
650.537	0.0139584
650.615	0.0138490
650.693	0.0138490
650.771	0.0139706
650.849	0.0138824
650.927	0.0137875
651.005	0.0138905
651.083	0.0139224
651.162	0.0137440
651.240	0.0138058
651.318	0.0139642
651.396	0.0138512
651.474	0.0138462
651.552	0.0139561
651.630	0.0139125
651.708	0.0138774
651.787	0.0139184
651.865	0.0139597
651.943	0.0139390
652.021	0.0138959
652.099	0.0138303
652.177	0.0139614
652.255	0.0139442
652.333	0.0137849
652.412	0.0140057
652.490	0.0138878
652.568	0.0139559
652.646	0.0140007
652.724	0.0138654
652.802	0.0139746
652.880	0.0138880
652.958	0.0139079
653.037	0.0138692
653.115	0.0138412
653.193	0.0138339
653.271	0.0138546
653.349	0.0139169
653.427	0.0139329
653.505	0.0139646
653.583	0.0138958
653.662	0.0138657
653.740	0.0139601
653.818	0.0138985
653.896	0.0139476
653.974	0.0138689
654.052	0.0138226
654.130	0.0138861
654.208	0.0139611
654.287	0.0140264
654.365	0.0138567
654.443	0.0138455
654.521	0.0139476
654.599	0.0139287
654.677	0.0137991
654.755	0.0138617
654.833	0.0138123
654.912	0.0139790
654.990	0.0138788
655.068	0.0138422
655.146	0.0139046
655.224	0.0140562
655.302	0.0139304
655.380	0.0139292
655.458	0.0139216
655.537	0.0138958
655.615	0.0139555
655.693	0.0139242
655.771	0.0139973
655.849	0.0140108
655.927	0.0138787
656.005	0.0139133
656.083	0.0139146
656.162	0.0139063
656.240	0.0139346
656.318	0.0138610
656.396	0.0140092
656.474	0.0139306
656.552	0.0138715
656.630	0.0138869
656.708	0.0139065
656.787	0.0139586
656.865	0.0137898
656.943	0.0137955
657.021	0.0138883
657.099	0.0139905
657.177	0.0140016
657.255	0.0138671
657.333	0.0139825
657.412	0.0141241
657.490	0.0140306
657.568	0.0138676
657.646	0.0138222
657.724	0.0137979
657.802	0.0139452
657.880	0.0137586
657.958	0.0139709
658.037	0.0139168
658.115	0.0139420
658.193	0.0139388
658.271	0.0139717
658.349	0.0139312
658.427	0.0137877
658.505	0.0137961
658.583	0.0138697
658.662	0.0139051
658.740	0.0139214
658.818	0.0138366
658.896	0.0138895
658.974	0.0139622
659.052	0.0139487
659.130	0.0140048
659.208	0.0138280
659.287	0.0138783
659.365	0.0138390
659.443	0.0139284
659.521	0.0138573
659.599	0.0139540
659.677	0.0137064
659.755	0.0138896
659.833	0.0138563
659.912	0.0137950
659.990	0.0140232
660.068	0.0138781
660.146	0.0139180
660.224	0.0138419
660.302	0.0138765
660.380	0.0139317
660.458	0.0138292
660.537	0.0137608
660.615	0.0139487
660.693	0.0139672
660.771	0.0138107
660.849	0.0137934
660.927	0.0138357
661.005	0.0138645
661.083	0.0139165
661.162	0.0138956
661.240	0.0138238
661.318	0.0139503
661.396	0.0138425
661.474	0.0138206
661.552	0.0138984
661.630	0.0139689
661.708	0.0138162
661.787	0.0138733
661.865	0.0139090
661.943	0.0138843
662.021	0.0137455
662.099	0.0138929
662.177	0.0139291
662.255	0.0138177
662.333	0.0138116
662.412	0.0138270
662.490	0.0139111
662.568	0.0138426
662.646	0.0137694
662.724	0.0139604
662.802	0.0139033
662.880	0.0139629
662.958	0.0139028
663.037	0.0137796
663.115	0.0139023
663.193	0.0139589
663.271	0.0138074
663.349	0.0139204
663.427	0.0140146
663.505	0.0138738
663.583	0.0138677
663.662	0.0139060
663.740	0.0138040
663.818	0.0138978
663.896	0.0139455
663.974	0.0137795
664.052	0.0137804
664.130	0.0140102
664.208	0.0138919
664.287	0.0138089
664.365	0.0136981
664.443	0.0139207
664.521	0.0138412
664.599	0.0139082
664.677	0.0139386
664.755	0.0139359
664.833	0.0137839
664.912	0.0138643
664.990	0.0138661
665.068	0.0138699
665.146	0.0138485
665.224	0.0138277
665.302	0.0139153
665.380	0.0138351
665.458	0.0137843
665.537	0.0138850
665.615	0.0139681
665.693	0.0137798
665.771	0.0138557
665.849	0.0138529
665.927	0.0139017
666.005	0.0138290
666.083	0.0137959
666.162	0.0138789
666.240	0.0138279
666.318	0.0137487
666.396	0.0140312
666.474	0.0138609
666.552	0.0139285
666.630	0.0139935
666.708	0.0138257
666.787	0.0137955
666.865	0.0138584
666.943	0.0137940
667.021	0.0137907
667.099	0.0139424
667.177	0.0138413
667.255	0.0136800
667.333	0.0136243
667.412	0.0136882
667.490	0.0138406
667.568	0.0138258
667.646	0.0139081
667.724	0.0139043
667.802	0.0138725
667.880	0.0139692
667.958	0.0137888
668.037	0.0139370
668.115	0.0139343
668.193	0.0139130
668.271	0.0138111
668.349	0.0139127
668.427	0.0140254
668.505	0.0139841
668.583	0.0138123
668.662	0.0139002
668.740	0.0139112
668.818	0.0138444
668.896	0.0138898
668.974	0.0138304
669.052	0.0139349
669.130	0.0138695
669.208	0.0137541
669.287	0.0137321
669.365	0.0137781
669.443	0.0138862
669.521	0.0137756
669.599	0.0137827
669.677	0.0139452
669.755	0.0138490
669.833	0.0139510
669.912	0.0141368
669.990	0.0141190
670.068	0.0140203
670.146	0.0141128
670.224	0.0138853
670.302	0.0137231
670.380	0.0136217
670.458	0.0137501
670.537	0.0136869
670.615	0.0136800
670.693	0.0136129
670.771	0.0137053
670.849	0.0135848
670.927	0.0138134
671.005	0.0139864
671.083	0.0140347
671.162	0.0139202
671.240	0.0139964
671.318	0.0139944
671.396	0.0140408
671.474	0.0141573
671.552	0.0140012
671.630	0.0141193
671.708	0.0142361
671.787	0.0142899
671.865	0.0143404
671.943	0.0143581
672.021	0.0143032
672.099	0.0142425
672.177	0.0141655
672.255	0.0140237
672.333	0.0137175
672.412	0.0135419
672.490	0.0134859
672.568	0.0133551
672.646	0.0131989
672.724	0.0130736
672.802	0.0131322
672.880	0.0129628
672.958	0.0130299
673.037	0.0132244
673.115	0.0133272
673.193	0.0134665
673.271	0.0134964
673.349	0.0135835
673.427	0.0138265
673.505	0.0140457
673.583	0.0140949
673.662	0.0143688
673.740	0.0145721
673.818	0.0147559
673.896	0.0148307
673.974	0.0148598
674.052	0.0149183
674.130	0.0148158
674.208	0.0147971
674.287	0.0147560
674.365	0.0144837
674.443	0.0143253
674.521	0.0141690
674.599	0.0139256
674.677	0.0138299
674.755	0.0138801
674.833	0.0138120
674.912	0.0138406
674.990	0.0138550
675.068	0.0135885
675.146	0.0136251
675.224	0.0134311
675.302	0.0132411
675.380	0.0130141
675.458	0.0128024
675.537	0.0125493
675.615	0.0124924
675.693	0.0122926
675.771	0.0121404
675.849	0.0123048
675.927	0.0123196
676.005	0.0124319
676.083	0.0129271
676.162	0.0134386
676.240	0.0137001
676.318	0.0141498
676.396	0.0146315
676.474	0.0150447
676.552	0.0153871
676.630	0.0155882
676.708	0.0157295
676.787	0.0159309
676.865	0.0161337
676.943	0.0161885
677.021	0.0160382
677.099	0.0160783
677.177	0.0158083
677.255	0.0158456
677.333	0.0156646
677.412	0.0153886
677.490	0.0150393
677.568	0.0147132
677.646	0.0141467
677.724	0.0139058
677.802	0.0134363
677.880	0.0129149
677.958	0.0124092
678.037	0.0120370
678.115	0.0116441
678.193	0.0112092
678.271	0.0110637
678.349	0.0108386
678.427	0.0107301
678.505	0.0105871
678.583	0.0108942
678.662	0.0110665
678.740	0.0112374
678.818	0.0114559
678.896	0.0116518
678.974	0.0121056
679.052	0.0125455
679.130	0.0129557
679.208	0.0133491
679.287	0.0139749
679.365	0.0145486
679.443	0.0149775
679.521	0.0157078
679.599	0.0164641
679.677	0.0170079
679.755	0.0174825
679.833	0.0179385
679.912	0.0183158
679.990	0.0187194
680.068	0.0189600
680.146	0.0188874
680.224	0.0188253
680.302	0.0184663
680.380	0.0178354
680.458	0.0172432
680.537	0.0163356
680.615	0.0152755
680.693	0.0144889
680.771	0.0133158
680.849	0.0124334
680.927	0.0113632
681.005	0.0105521
681.083	0.00994362
681.162	0.00939507
681.240	0.00923218
681.318	0.00918442
681.396	0.00919083
681.474	0.00937126
681.552	0.00967880
681.630	0.0101485
681.708	0.0107153
681.787	0.0111006
681.865	0.0118066
681.943	0.0123276
682.021	0.0125553
682.099	0.0133249
682.177	0.0137538
682.255	0.0138199
682.333	0.0142417
682.412	0.0145604
682.490	0.0147542
682.568	0.0148829
682.646	0.0151573
682.724	0.0153062
682.802	0.0152547
682.880	0.0150950
682.958	0.0151571
683.037	0.0151001
683.115	0.0151335
683.193	0.0149416
683.271	0.0149628
683.349	0.0152088
683.427	0.0151978
683.505	0.0153751
683.583	0.0156566
683.662	0.0158195
683.740	0.0162373
683.818	0.0165816
683.896	0.0167389
683.974	0.0167857
684.052	0.0170572
684.130	0.0168578
684.208	0.0166420
684.287	0.0164220
684.365	0.0161571
684.443	0.0157798
684.521	0.0150915
684.599	0.0145884
684.677	0.0140189
684.755	0.0136045
684.833	0.0130957
684.912	0.0125961
684.990	0.0122619
685.068	0.0119714
685.146	0.0117892
685.224	0.0114583
685.302	0.0113448
685.380	0.0109218
685.458	0.0107587
685.537	0.0103832
685.615	0.0100455
685.693	0.00992683
685.771	0.00980255
685.849	0.00968887
685.927	0.00960716
686.005	0.00969070
686.083	0.00995140
686.162	0.0104699
686.240	0.0107775
686.318	0.0113999
686.396	0.0120479
686.474	0.0126385
686.552	0.0134655
686.630	0.0142307
686.708	0.0147506
686.787	0.0155419
686.865	0.0161441
686.943	0.0166833
687.021	0.0168636
687.099	0.0171058
687.177	0.0172802
687.255	0.0172487
687.333	0.0170368
687.412	0.0167374
687.490	0.0167297
687.568	0.0166629
687.646	0.0165556
687.724	0.0162398
687.802	0.0161303
687.880	0.0161098
687.958	0.0159554
688.037	0.0159756
688.115	0.0161368
688.193	0.0162650
688.271	0.0163845
688.349	0.0166683
688.427	0.0169077
688.505	0.0171427
688.583	0.0173552
688.662	0.0171316
688.740	0.0169352
688.818	0.0166124
688.896	0.0160403
688.974	0.0153757
689.052	0.0143019
689.130	0.0134202
689.208	0.0124615
689.287	0.0113581
689.365	0.0103693
689.443	0.00934357
689.521	0.00843887
689.599	0.00751175
689.677	0.00689636
689.755	0.00629463
689.833	0.00594040
689.912	0.00581818
689.990	0.00593529
690.068	0.00628922
690.146	0.00669380
690.224	0.00747093
690.302	0.00824875
690.380	0.00928055
690.458	0.0104703
690.537	0.0117107
690.615	0.0128185
690.693	0.0142661
690.771	0.0154771
690.849	0.0166768
690.927	0.0177190
691.005	0.0187568
691.083	0.0194760
691.162	0.0199842
691.240	0.0203961
691.318	0.0207086
691.396	0.0205982
691.474	0.0205059
691.552	0.0201701
691.630	0.0197310
691.708	0.0191142
691.787	0.0184344
691.865	0.0178055
691.943	0.0169570
692.021	0.0161292
692.099	0.0154921
692.177	0.0148565
692.255	0.0143800
692.333	0.0140260
692.412	0.0136602
692.490	0.0131269
692.568	0.0128767
692.646	0.0126787
692.724	0.0124899
692.802	0.0124220
692.880	0.0120143
692.958	0.0121096
693.037	0.0122079
693.115	0.0124680
693.193	0.0127052
693.271	0.0129060
693.349	0.0131873
693.427	0.0134944
693.505	0.0137180
693.583	0.0139450
693.662	0.0141192
693.740	0.0142702
693.818	0.0143539
693.896	0.0142115
693.974	0.0140593
694.052	0.0137514
694.130	0.0132929
694.208	0.0127293
694.287	0.0122641
694.365	0.0116826
694.443	0.0109332
694.521	0.0103274
694.599	0.00993675
694.677	0.00950974
694.755	0.00899574
694.833	0.00889381
694.912	0.00878204
694.990	0.00902199
695.068	0.00922211
695.146	0.00952950
695.224	0.0101832
695.302	0.0110894
695.380	0.0117416
695.458	0.0128094
695.537	0.0136864
695.615	0.0147104
695.693	0.0158011
695.771	0.0167921
695.849	0.0174088
695.927	0.0179709
696.005	0.0186214
696.083	0.0188866
696.162	0.0189867
696.240	0.0192679
696.318	0.0189096
696.396	0.0185332
696.474	0.0181114
696.552	0.0176236
696.630	0.0169867
696.708	0.0164707
696.787	0.0160007
696.865	0.0153799
696.943	0.0150768
697.021	0.0148236
697.099	0.0145939
697.177	0.0143990
697.255	0.0142011
697.333	0.0140120
697.412	0.0141059
697.490	0.0142503
697.568	0.0142620
697.646	0.0143690
697.724	0.0146732
697.802	0.0147446
697.880	0.0148508
697.958	0.0151691
698.037	0.0151383
698.115	0.0151649
698.193	0.0150108
698.271	0.0149360
698.349	0.0146256
698.427	0.0144311
698.505	0.0138306
698.583	0.0132511
698.662	0.0127246
698.740	0.0119296
698.818	0.0114248
698.896	0.0108251
698.974	0.0102748
699.052	0.0100274
699.130	0.00945686
699.208	0.00914841
699.287	0.00869576
699.365	0.00852280
699.443	0.00842354
699.521	0.00846840
699.599	0.00829582
699.677	0.00846573
699.755	0.00828514
699.833	0.00840546
699.912	0.00897346
699.990	0.00965950
700.068	0.0102557
700.146	0.0110430
700.224	0.0119944
700.302	0.0128702
700.380	0.0138631
700.458	0.0148458
700.537	0.0158831
700.615	0.0169067
700.693	0.0176983
700.771	0.0183719
700.849	0.0190129
700.927	0.0191026
701.005	0.0192753
701.083	0.0192940
701.162	0.0190477
701.240	0.0188335
701.318	0.0184750
701.396	0.0181087
701.474	0.0178086
701.552	0.0174532
701.630	0.0173888
701.708	0.0171187
701.787	0.0170484
701.865	0.0171799
701.943	0.0172002
702.021	0.0172569
702.099	0.0173464
702.177	0.0173461
702.255	0.0172927
702.333	0.0173295
702.412	0.0170927
702.490	0.0170203
702.568	0.0166111
702.646	0.0162463
702.724	0.0158012
702.802	0.0153452
702.880	0.0147057
702.958	0.0139980
703.037	0.0131020
703.115	0.0120582
703.193	0.0113262
703.271	0.0102758
703.349	0.00930252
703.427	0.00846977
703.505	0.00778351
703.583	0.00697784
703.662	0.00630539
703.740	0.00575500
703.818	0.00568237
703.896	0.00539650
703.974	0.00553001
704.052	0.00569321
704.130	0.00609863
704.208	0.00669960
704.287	0.00752907
704.365	0.00827431
704.443	0.00926132
704.521	0.0102825
704.599	0.0113657
704.677	0.0124992
704.755	0.0138049
704.833	0.0148473
704.912	0.0158632
704.990	0.0169394
705.068	0.0178060
705.146	0.0184454
705.224	0.0190028
705.302	0.0193739
705.380	0.0195249
705.458	0.0195898
705.537	0.0194931
705.615	0.0192928
705.693	0.0190051
705.771	0.0185069
705.849	0.0182201
705.927	0.0174043
706.005	0.0169785
706.083	0.0163475
706.162	0.0160449
706.240	0.0157139
706.318	0.0156050
706.396	0.0154662
706.474	0.0156708
706.552	0.0156573
706.630	0.0158389
706.708	0.0158644
706.787	0.0159826
706.865	0.0158826
706.943	0.0161147
707.021	0.0159782
707.099	0.0158965
707.177	0.0158628
707.255	0.0157386
707.333	0.0155552
707.412	0.0152142
707.490	0.0149883
707.568	0.0145337
707.646	0.0139403
707.724	0.0133278
707.802	0.0128829
707.880	0.0123360
707.958	0.0116520
708.037	0.0109189
708.115	0.0104839
708.193	0.00992828
708.271	0.00956665
708.349	0.00920029
708.427	0.00884651
708.505	0.00864288
708.583	0.00871109
708.662	0.00861069
708.740	0.00884331
708.818	0.00911995
708.896	0.00946945
708.974	0.00985367
709.052	0.0104154
709.130	0.0110510
709.208	0.0115756
709.287	0.0120439
709.365	0.0125343
709.443	0.0131499
709.521	0.0135771
709.599	0.0140743
709.677	0.0146803
709.755	0.0151452
709.833	0.0154448
709.912	0.0159126
709.990	0.0163285
710.068	0.0165938
710.146	0.0167657
710.224	0.0170058
710.302	0.0171971
710.380	0.0172441
710.458	0.0170947
710.537	0.0171042
710.615	0.0169595
710.693	0.0169210
710.771	0.0167635
710.849	0.0165045
710.927	0.0164037
711.005	0.0161705
711.083	0.0160319
711.162	0.0159604
711.240	0.0157751
711.318	0.0156997
711.396	0.0154749
711.474	0.0153275
711.552	0.0151338
711.630	0.0149715
711.708	0.0147994
711.787	0.0145509
711.865	0.0141212
711.943	0.0138296
712.021	0.0136815
712.099	0.0133437
712.177	0.0131685
712.255	0.0132251
712.333	0.0130576
712.412	0.0129647
712.490	0.0127016
712.568	0.0128042
712.646	0.0126738
712.724	0.0126579
712.802	0.0125082
712.880	0.0123825
712.958	0.0124371
713.037	0.0121999
713.115	0.0121954
713.193	0.0123779
713.271	0.0122790
713.349	0.0124448
713.427	0.0124741
713.505	0.0127753
713.583	0.0128561
713.662	0.0130173
713.740	0.0132782
713.818	0.0136019
713.896	0.0138797
713.974	0.0139896
714.052	0.0143218
714.130	0.0144983
714.208	0.0145483
714.287	0.0145494
714.365	0.0145091
714.443	0.0142152
714.521	0.0143118
714.599	0.0142213
714.677	0.0140590
714.755	0.0138209
714.833	0.0135354
714.912	0.0134814
714.990	0.0131378
715.068	0.0130179
715.146	0.0128777
715.224	0.0127406
715.302	0.0127402
715.380	0.0128020
715.458	0.0128428
715.537	0.0130408
715.615	0.0130676
715.693	0.0133724
715.771	0.0135944
715.849	0.0138885
715.927	0.0141788
716.005	0.0145879
716.083	0.0148969
716.162	0.0153805
716.240	0.0157146
716.318	0.0160884
716.396	0.0161026
716.474	0.0164376
716.552	0.0165826
716.630	0.0164083
716.708	0.0163866
716.787	0.0162221
716.865	0.0159322
716.943	0.0156652
717.021	0.0152940
717.099	0.0147565
717.177	0.0142419
717.255	0.0135592
717.333	0.0133144
717.412	0.0128556
717.490	0.0123273
717.568	0.0121009
717.646	0.0118813
717.724	0.0117673
717.802	0.0117502
717.880	0.0118302
717.958	0.0117993
718.037	0.0122169
718.115	0.0123932
718.193	0.0125163
718.271	0.0128348
718.349	0.0131855
718.427	0.0135137
718.505	0.0136261
718.583	0.0139816
718.662	0.0143333
718.740	0.0142916
718.818	0.0143491
718.896	0.0146654
718.974	0.0147835
719.052	0.0146004
719.130	0.0145322
719.208	0.0143970
719.287	0.0142576
719.365	0.0142128
719.443	0.0140260
719.521	0.0137712
719.599	0.0137897
719.677	0.0136357
719.755	0.0136250
719.833	0.0134897
719.912	0.0134779
719.990	0.0135474
720.068	0.0134741
720.146	0.0136681
720.224	0.0136730
720.302	0.0136543
720.380	0.0137684
720.458	0.0138695
720.537	0.0137994
720.615	0.0138815
720.693	0.0136669
720.771	0.0139157
720.849	0.0139258
720.927	0.0139126
721.005	0.0138343
721.083	0.0138673
721.162	0.0139580
721.240	0.0141241
721.318	0.0139874
721.396	0.0140901
721.474	0.0140491
721.552	0.0140908
721.630	0.0138448
721.708	0.0140052
721.787	0.0138763
721.865	0.0136732
721.943	0.0134616
722.021	0.0134676
722.099	0.0135114
722.177	0.0133054
722.255	0.0133318
722.333	0.0135313
722.412	0.0134221
722.490	0.0135999
722.568	0.0135307
722.646	0.0138562
722.724	0.0142034
722.802	0.0142214
722.880	0.0143461
722.958	0.0146043
723.037	0.0145724
723.115	0.0147501
723.193	0.0148458
723.271	0.0146904
723.349	0.0147204
723.427	0.0147932
723.505	0.0147460
723.583	0.0146906
723.662	0.0143839
723.740	0.0144405
723.818	0.0143670
723.896	0.0140484
723.974	0.0138901
724.052	0.0135845
724.130	0.0133819
724.208	0.0132846
724.287	0.0129162
724.365	0.0126553
724.443	0.0124843
724.521	0.0123877
724.599	0.0124212
724.677	0.0124303
724.755	0.0124918
724.833	0.0124909
724.912	0.0128149
724.990	0.0129663
725.068	0.0131854
725.146	0.0135168
725.224	0.0137631
725.302	0.0139238
725.380	0.0141360
725.458	0.0144395
725.537	0.0143787
725.615	0.0146434
725.693	0.0147256
725.771	0.0147735
725.849	0.0149697
725.927	0.0150202
726.005	0.0150919
726.083	0.0151882
726.162	0.0153898
726.240	0.0152890
726.318	0.0152981
726.396	0.0152690
726.474	0.0151676
726.552	0.0149952
726.630	0.0148427
726.708	0.0146650
726.787	0.0143022
726.865	0.0140558
726.943	0.0136603
727.021	0.0134146
727.099	0.0131799
727.177	0.0129168
727.255	0.0128197
727.333	0.0128329
727.412	0.0127524
727.490	0.0128508
727.568	0.0127043
727.646	0.0129540
727.724	0.0130489
727.802	0.0129780
727.880	0.0131828
727.958	0.0132780
728.037	0.0133808
728.115	0.0135758
728.193	0.0136386
728.271	0.0138496
728.349	0.0138743
728.427	0.0138330
728.505	0.0140364
728.583	0.0141558
728.662	0.0140105
728.740	0.0141009
728.818	0.0141064
728.896	0.0140169
728.974	0.0140918
729.052	0.0137992
729.130	0.0136755
729.208	0.0137263
729.287	0.0137066
729.365	0.0136677
729.443	0.0135199
729.521	0.0135843
729.599	0.0136060
729.677	0.0137646
729.755	0.0137004
729.833	0.0138901
729.912	0.0138038
729.990	0.0139945
730.068	0.0139958
730.146	0.0140379
730.224	0.0140771
730.302	0.0142236
730.380	0.0144187
730.458	0.0142350
730.537	0.0142606
730.615	0.0143773
730.693	0.0143011
730.771	0.0142342
730.849	0.0143147
730.927	0.0145008
731.005	0.0143711
731.083	0.0145222
731.162	0.0144667
731.240	0.0145090
731.318	0.0145397
731.396	0.0145965
731.474	0.0144823
731.552	0.0145597
731.630	0.0145858
731.708	0.0145911
731.787	0.0143436
731.865	0.0143841
731.943	0.0140702
732.021	0.0142970
732.099	0.0141759
732.177	0.0139402
732.255	0.0139838
732.333	0.0137656
732.412	0.0136727
732.490	0.0136148
732.568	0.0135594
732.646	0.0136469
732.724	0.0134364
732.802	0.0133426
732.880	0.0133806
732.958	0.0133381
733.037	0.0132368
733.115	0.0132950
733.193	0.0134770
733.271	0.0133652
733.349	0.0132938
733.427	0.0132809
733.505	0.0133133
733.583	0.0133565
733.662	0.0133089
733.740	0.0133585
733.818	0.0134199
733.896	0.0133280
733.974	0.0133246
734.052	0.0132782
734.130	0.0132652
734.208	0.0133352
734.287	0.0136331
734.365	0.0137519
734.443	0.0139597
734.521	0.0139326
734.599	0.0140480
734.677	0.0141317
734.755	0.0142632
734.833	0.0143262
734.912	0.0143980
734.990	0.0145097
735.068	0.0145123
735.146	0.0145014
735.224	0.0144588
735.302	0.0144757
735.380	0.0143819
735.458	0.0144500
735.537	0.0144672
735.615	0.0144861
735.693	0.0145439
735.771	0.0143636
735.849	0.0144225
735.927	0.0144372
736.005	0.0144113
736.083	0.0141343
736.162	0.0142033
736.240	0.0140290
736.318	0.0137476
736.396	0.0136211
736.474	0.0136029
736.552	0.0135523
736.630	0.0131446
736.708	0.0130971
736.787	0.0131303
736.865	0.0131246
736.943	0.0132908
737.021	0.0132582
737.099	0.0132896
737.177	0.0133916
737.255	0.0135303
737.333	0.0137194
737.412	0.0137857
737.490	0.0140028
737.568	0.0141210
737.646	0.0142589
737.724	0.0143440
737.802	0.0144785
737.880	0.0144485
737.958	0.0145822
738.037	0.0145313
738.115	0.0144680
738.193	0.0146358
738.271	0.0147319
738.349	0.0145092
738.427	0.0145274
738.505	0.0144886
738.583	0.0145702
738.662	0.0144344
738.740	0.0143656
738.818	0.0143307
738.896	0.0142141
738.974	0.0140630
739.052	0.0138711
739.130	0.0138314
739.208	0.0138068
739.287	0.0136094
739.365	0.0135599
739.443	0.0133507
739.521	0.0131263
739.599	0.0131358
739.677	0.0131499
739.755	0.0131338
739.833	0.0129795
739.912	0.0128089
739.990	0.0128111
740.068	0.0127483
740.146	0.0128323
740.224	0.0126921
740.302	0.0128844
740.380	0.0129105
740.458	0.0130606
740.537	0.0130965
740.615	0.0132382
740.693	0.0133850
740.771	0.0136228
740.849	0.0137103
740.927	0.0139017
741.005	0.0139900
741.083	0.0141354
741.162	0.0143096
741.240	0.0143024
741.318	0.0143581
741.396	0.0143272
741.474	0.0143624
741.552	0.0144013
741.630	0.0141740
741.708	0.0142943
741.787	0.0142248
741.865	0.0142342
741.943	0.0141034
742.021	0.0142277
742.099	0.0141669
742.177	0.0141241
742.255	0.0142033
742.333	0.0142770
742.412	0.0142799
742.490	0.0141340
742.568	0.0140260
742.646	0.0142366
742.724	0.0139380
742.802	0.0138847
742.880	0.0137856
742.958	0.0138770
743.037	0.0137521
743.115	0.0138673
743.193	0.0138358
743.271	0.0138977
743.349	0.0141015
743.427	0.0139256
743.505	0.0139843
743.583	0.0140783
743.662	0.0140714
743.740	0.0140972
743.818	0.0141151
743.896	0.0138816
743.974	0.0139181
744.052	0.0139304
744.130	0.0139521
744.208	0.0138163
744.287	0.0137808
744.365	0.0136761
744.443	0.0135745
744.521	0.0136472
744.599	0.0135207
744.677	0.0134822
744.755	0.0136307
744.833	0.0135065
744.912	0.0135686
744.990	0.0135677
745.068	0.0134650
745.146	0.0134980
745.224	0.0135749
745.302	0.0135625
745.380	0.0135265
745.458	0.0135961
745.537	0.0136080
745.615	0.0136230
745.693	0.0135058
745.771	0.0136087
745.849	0.0137643
745.927	0.0136955
746.005	0.0137187
746.083	0.0137513
746.162	0.0137558
746.240	0.0137900
746.318	0.0137418
746.396	0.0137737
746.474	0.0138388
746.552	0.0136973
746.630	0.0138285
746.708	0.0140279
746.787	0.0138998
746.865	0.0141448
746.943	0.0140769
747.021	0.0141418
747.099	0.0141351
747.177	0.0141180
747.255	0.0140411
747.333	0.0141738
747.412	0.0140281
747.490	0.0141116
747.568	0.0140759
747.646	0.0139735
747.724	0.0138829
747.802	0.0139422
747.880	0.0138976
747.958	0.0137029
748.037	0.0138579
748.115	0.0137355
748.193	0.0136418
748.271	0.0135727
748.349	0.0135209
748.427	0.0137344
748.505	0.0137675
748.583	0.0136504
748.662	0.0135960
748.740	0.0136731
748.818	0.0136416
748.896	0.0135697
748.974	0.0137708
749.052	0.0138380
749.130	0.0136494
749.208	0.0137366
749.287	0.0136963
749.365	0.0138062
749.443	0.0137692
749.521	0.0137752
749.599	0.0136113
749.677	0.0135008
749.755	0.0137289
749.833	0.0137652
749.912	0.0138540
749.990	0.0140108
750.068	0.0138881
750.146	0.0140010
750.224	0.0142563
750.302	0.0141906
750.380	0.0143407
750.458	0.0144458
750.537	0.0144885
750.615	0.0145686
750.693	0.0146284
750.771	0.0146682
750.849	0.0147147
750.927	0.0147675
751.005	0.0146860
751.083	0.0146244
751.162	0.0143893
751.240	0.0142595
751.318	0.0142584
751.396	0.0140895
751.474	0.0139809
751.552	0.0138335
751.630	0.0137102
751.708	0.0134538
751.787	0.0133294
751.865	0.0134432
751.943	0.0131342
752.021	0.0131094
752.099	0.0129907
752.177	0.0130066
752.255	0.0131739
752.333	0.0130925
752.412	0.0131712
752.490	0.0131747
752.568	0.0132321
752.646	0.0133454
752.724	0.0135020
752.802	0.0135352
752.880	0.0135793
752.958	0.0137346
753.037	0.0136385
753.115	0.0137818
753.193	0.0139215
753.271	0.0140891
753.349	0.0139322
753.427	0.0138522
753.505	0.0141563
753.583	0.0140670
753.662	0.0140215
753.740	0.0140103
753.818	0.0140417
753.896	0.0141010
753.974	0.0140228
754.052	0.0142697
754.130	0.0140682
754.208	0.0140565
754.287	0.0140267
754.365	0.0140526
754.443	0.0140525
754.521	0.0141170
754.599	0.0141035
754.677	0.0141157
754.755	0.0139068
754.833	0.0138097
754.912	0.0139728
754.990	0.0139002
755.068	0.0138030
755.146	0.0138634
755.224	0.0138319
755.302	0.0137862
755.380	0.0138602
755.458	0.0138101
755.537	0.0136914
755.615	0.0137672
755.693	0.0140341
755.771	0.0138447
755.849	0.0138307
755.927	0.0138856
756.005	0.0139096
756.083	0.0139835
756.162	0.0139938
756.240	0.0140622
756.318	0.0139610
756.396	0.0139590
756.474	0.0141090
756.552	0.0140959
756.630	0.0140797
756.708	0.0141886
756.787	0.0141911
756.865	0.0143090
756.943	0.0142141
757.021	0.0142968
757.099	0.0142929
757.177	0.0142691
757.255	0.0143265
757.333	0.0141457
757.412	0.0140794
757.490	0.0140553
757.568	0.0141100
757.646	0.0139858
757.724	0.0139037
757.802	0.0137638
757.880	0.0137365
757.958	0.0137552
758.037	0.0138168
758.115	0.0137125
758.193	0.0135869
758.271	0.0135931
758.349	0.0135947
758.427	0.0137608
758.505	0.0136326
758.583	0.0137006
758.662	0.0135564
758.740	0.0135152
758.818	0.0134594
758.896	0.0135452
758.974	0.0135078
759.052	0.0133401
759.130	0.0135854
759.208	0.0135676
759.287	0.0136260
759.365	0.0137095
759.443	0.0136267
759.521	0.0138303
759.599	0.0138189
759.677	0.0137800
759.755	0.0139123
759.833	0.0138981
759.912	0.0139585
759.990	0.0138403
760.068	0.0139525
760.146	0.0140324
760.224	0.0138934
760.302	0.0139075
760.380	0.0138737
760.458	0.0139338
760.537	0.0139939
760.615	0.0139898
760.693	0.0138960
760.771	0.0140032
760.849	0.0139792
760.927	0.0142346
761.005	0.0141239
761.083	0.0140871
761.162	0.0140814
761.240	0.0141028
761.318	0.0140763
761.396	0.0139462
761.474	0.0141035
761.552	0.0142603
761.630	0.0141256
761.708	0.0139520
761.787	0.0140107
761.865	0.0140995
761.943	0.0140626
762.021	0.0140078
762.099	0.0140594
762.177	0.0139944
762.255	0.0139614
762.333	0.0138626
762.412	0.0137325
762.490	0.0137285
762.568	0.0136777
762.646	0.0136055
762.724	0.0136682
762.802	0.0136381
762.880	0.0134187
762.958	0.0134746
763.037	0.0134495
763.115	0.0133965
763.193	0.0136148
763.271	0.0135865
763.349	0.0135573
763.427	0.0137342
763.505	0.0137709
763.583	0.0138924
763.662	0.0139498
763.740	0.0138460
763.818	0.0140947
763.896	0.0141727
763.974	0.0140896
764.052	0.0139323
764.130	0.0141832
764.208	0.0140429
764.287	0.0139986
764.365	0.0140197
764.443	0.0140231
764.521	0.0139349
764.599	0.0139177
764.677	0.0138936
764.755	0.0137714
764.833	0.0138115
764.912	0.0139776
764.990	0.0137778
765.068	0.0138377
765.146	0.0138972
765.224	0.0138480
765.302	0.0138605
765.380	0.0140129
765.458	0.0139514
765.537	0.0140551
765.615	0.0139337
765.693	0.0139354
765.771	0.0139676
765.849	0.0139456
765.927	0.0139813
766.005	0.0138859
766.083	0.0138088
766.162	0.0140045
766.240	0.0137737
766.318	0.0136814
766.396	0.0138843
766.474	0.0137674
766.552	0.0136416
766.630	0.0136937
766.708	0.0135532
766.787	0.0135815
766.865	0.0137353
766.943	0.0137446
767.021	0.0138316
767.099	0.0136726
767.177	0.0136272
767.255	0.0137682
767.333	0.0136606
767.412	0.0137305
767.490	0.0137049
767.568	0.0135621
767.646	0.0136711
767.724	0.0136143
767.802	0.0134598
767.880	0.0135732
767.958	0.0136014
768.037	0.0135308
768.115	0.0137466
768.193	0.0135314
768.271	0.0136731
768.349	0.0137209
768.427	0.0138925
768.505	0.0137595
768.583	0.0139543
768.662	0.0140154
768.740	0.0139148
768.818	0.0140794
768.896	0.0141428
768.974	0.0140792
769.052	0.0140711
769.130	0.0142840
769.208	0.0143356
769.287	0.0142268
769.365	0.0142861
769.443	0.0143346
769.521	0.0143199
769.599	0.0143010
769.677	0.0143258
769.755	0.0141512
769.833	0.0141772
769.912	0.0141823
769.990	0.0141653
770.068	0.0140246
770.146	0.0140354
770.224	0.0140362
770.302	0.0140243
770.380	0.0140921
770.458	0.0138435
770.537	0.0138737
770.615	0.0139764
770.693	0.0139507
770.771	0.0137771
770.849	0.0137019
770.927	0.0138139
771.005	0.0137518
771.083	0.0137521
771.162	0.0137840
771.240	0.0136012
771.318	0.0137868
771.396	0.0135398
771.474	0.0137096
771.552	0.0137432
771.630	0.0136443
771.708	0.0136115
771.787	0.0136906
771.865	0.0137363
771.943	0.0138128
772.021	0.0136874
772.099	0.0136480
772.177	0.0138119
772.255	0.0137814
772.333	0.0137252
772.412	0.0138906
772.490	0.0137746
772.568	0.0137614
772.646	0.0138044
772.724	0.0137876
772.802	0.0136850
772.880	0.0137830
772.958	0.0138548
773.037	0.0138131
773.115	0.0137907
773.193	0.0136800
773.271	0.0138361
773.349	0.0139574
773.427	0.0138262
773.505	0.0139182
773.583	0.0140886
773.662	0.0140611
773.740	0.0141341
773.818	0.0141820
773.896	0.0142735
773.974	0.0142333
774.052	0.0140505
774.130	0.0141096
774.208	0.0140419
774.287	0.0139197
774.365	0.0140244
774.443	0.0138926
774.521	0.0138551
774.599	0.0139425
774.677	0.0137696
774.755	0.0138768
774.833	0.0137005
774.912	0.0137578
774.990	0.0138691
775.068	0.0136795
775.146	0.0135583
775.224	0.0136517
775.302	0.0137389
775.380	0.0138710
775.458	0.0136811
775.537	0.0136602
775.615	0.0136504
775.693	0.0138144
775.771	0.0137054
775.849	0.0137288
775.927	0.0138400
776.005	0.0138325
776.083	0.0137978
776.162	0.0138657
776.240	0.0139986
776.318	0.0141226
776.396	0.0141226
776.474	0.0142106
776.552	0.0141241
776.630	0.0143220
776.708	0.0143826
776.787	0.0144957
776.865	0.0144017
776.943	0.0144081
777.021	0.0142927
777.099	0.0143103
777.177	0.0143172
777.255	0.0142802
777.333	0.0142110
777.412	0.0140734
777.490	0.0141907
777.568	0.0140536
777.646	0.0140146
777.724	0.0138831
777.802	0.0139157
777.880	0.0138093
777.958	0.0136206
778.037	0.0135007
778.115	0.0136791
778.193	0.0135667
778.271	0.0133841
778.349	0.0133855
778.427	0.0134715
778.505	0.0132358
778.583	0.0132847
778.662	0.0132957
778.740	0.0132459
778.818	0.0133971
778.896	0.0132593
778.974	0.0134428
779.052	0.0134579
779.130	0.0134866
779.208	0.0135620
779.287	0.0137189
779.365	0.0136668
779.443	0.0138590
779.521	0.0138983
779.599	0.0137768
779.677	0.0140352
779.755	0.0141655
779.833	0.0141167
779.912	0.0142461
779.990	0.0143975
780.068	0.0144216
780.146	0.0142838
780.224	0.0143929
780.302	0.0144584
780.380	0.0142551
780.458	0.0144388
780.537	0.0144558
780.615	0.0145064
780.693	0.0143909
780.771	0.0143764
780.849	0.0142221
780.927	0.0141351
781.005	0.0143043
781.083	0.0140938
781.162	0.0140665
781.240	0.0141695
781.318	0.0140498
781.396	0.0141185
781.474	0.0140892
781.552	0.0140153
781.630	0.0140608
781.708	0.0140220
781.787	0.0140350
781.865	0.0139063
781.943	0.0138492
782.021	0.0138860
782.099	0.0136916
782.177	0.0135806
782.255	0.0136166
782.333	0.0135566
782.412	0.0134126
782.490	0.0134300
782.568	0.0135744
782.646	0.0134319
782.724	0.0134705
782.802	0.0134515
782.880	0.0135464
782.958	0.0135630
783.037	0.0134570
783.115	0.0136395
783.193	0.0136826
783.271	0.0137610
783.349	0.0138590
783.427	0.0137697
783.505	0.0138503
783.583	0.0139989
783.662	0.0139864
783.740	0.0140193
783.818	0.0141515
783.896	0.0142455
783.974	0.0141679
784.052	0.0141588
784.130	0.0143938
784.208	0.0143345
784.287	0.0143044
784.365	0.0143338
784.443	0.0144521
784.521	0.0144739
784.599	0.0143976
784.677	0.0143295
784.755	0.0143835
784.833	0.0142664
784.912	0.0142709
784.990	0.0142569
785.068	0.0140686
785.146	0.0141363
785.224	0.0141026
785.302	0.0140635
785.380	0.0140479
785.458	0.0141441
785.537	0.0139385
785.615	0.0138637
785.693	0.0138717
785.771	0.0139271
785.849	0.0137860
785.927	0.0137005
786.005	0.0138290
786.083	0.0137923
786.162	0.0136921
786.240	0.0136605
786.318	0.0136570
786.396	0.0137440
786.474	0.0135616
786.552	0.0134783
786.630	0.0135370
786.708	0.0134486
786.787	0.0134299
786.865	0.0134087
786.943	0.0134573
787.021	0.0132877
787.099	0.0133484
787.177	0.0133920
787.255	0.0134558
787.333	0.0134138
787.412	0.0134000
787.490	0.0135746
787.568	0.0135596
787.646	0.0134531
787.724	0.0137452
787.802	0.0137488
787.880	0.0137632
787.958	0.0139671
788.037	0.0139407
788.115	0.0141070
788.193	0.0142989
788.271	0.0143734
788.349	0.0143696
788.427	0.0143377
788.505	0.0145456
788.583	0.0144909
788.662	0.0144946
788.740	0.0144694
788.818	0.0143890
788.896	0.0143846
788.974	0.0143616
789.052	0.0141919
789.130	0.0141525
789.208	0.0140771
789.287	0.0140531
789.365	0.0138931
789.443	0.0139604
789.521	0.0137895
789.599	0.0137458
789.677	0.0138667
789.755	0.0138251
789.833	0.0136792
789.912	0.0137817
789.990	0.0135179
790.068	0.0137481
790.146	0.0137273
790.224	0.0138702
790.302	0.0138094
790.380	0.0138180
790.458	0.0140073
790.537	0.0137650
790.615	0.0138221
790.693	0.0139169
790.771	0.0141394
790.849	0.0139244
790.927	0.0138628
791.005	0.0138806
791.083	0.0138339
791.162	0.0139429
791.240	0.0138677
791.318	0.0137385
791.396	0.0139287
791.474	0.0138673
791.552	0.0138416
791.630	0.0136976
791.708	0.0137881
791.787	0.0139544
791.865	0.0138109
791.943	0.0137897
792.021	0.0137415
792.099	0.0137819
792.177	0.0138381
792.255	0.0138568
792.333	0.0137350
792.412	0.0137632
792.490	0.0138709
792.568	0.0140010
792.646	0.0139388
792.724	0.0140874
792.802	0.0139640
792.880	0.0139695
792.958	0.0140060
793.037	0.0140217
793.115	0.0141114
793.193	0.0141605
793.271	0.0139493
793.349	0.0138840
793.427	0.0140013
793.505	0.0140926
793.583	0.0138639
793.662	0.0138914
793.740	0.0141534
793.818	0.0141347
793.896	0.0140994
793.974	0.0140262
794.052	0.0141277
794.130	0.0141536
794.208	0.0142151
794.287	0.0142641
794.365	0.0143240
794.443	0.0142092
794.521	0.0141299
794.599	0.0140781
794.677	0.0140692
794.755	0.0142518
794.833	0.0140932
794.912	0.0140991
794.990	0.0141425
795.068	0.0140371
795.146	0.0141378
795.224	0.0140524
795.302	0.0139305
795.380	0.0140275
795.458	0.0138637
795.537	0.0138375
795.615	0.0138100
795.693	0.0137447
795.771	0.0136044
795.849	0.0136962
795.927	0.0135586
796.005	0.0133443
796.083	0.0133229
796.162	0.0133595
796.240	0.0132544
796.318	0.0131667
796.396	0.0130290
796.474	0.0132113
796.552	0.0133948
796.630	0.0132391
796.708	0.0133366
796.787	0.0133982
796.865	0.0134200
796.943	0.0134306
797.021	0.0134840
797.099	0.0136541
797.177	0.0136794
797.255	0.0137062
797.333	0.0136557
797.412	0.0138458
797.490	0.0138773
797.568	0.0138763
797.646	0.0140695
797.724	0.0141217
797.802	0.0142000
797.880	0.0142789
797.958	0.0143768
798.037	0.0144653
798.115	0.0143454
798.193	0.0146266
798.271	0.0145803
798.349	0.0145546
798.427	0.0145798
798.505	0.0144650
798.583	0.0144701
798.662	0.0145793
798.740	0.0145123
798.818	0.0143195
798.896	0.0143040
798.974	0.0142281
799.052	0.0143856
799.130	0.0143002
799.208	0.0141299
799.287	0.0140649
799.365	0.0140735
799.443	0.0139326
799.521	0.0138304
799.599	0.0137360
799.677	0.0137811
799.755	0.0137376
799.833	0.0134792
799.912	0.0133925
799.990	0.0134317
800.068	0.0132298
800.146	0.0131751
800.224	0.0131268
800.302	0.0130968
800.380	0.0130167
800.458	0.0132067
800.537	0.0131823
800.615	0.0131689
800.693	0.0132767
800.771	0.0133536
800.849	0.0133389
800.927	0.0134567
801.005	0.0134082
801.083	0.0135063
801.162	0.0135844
801.240	0.0135673
801.318	0.0136998
801.396	0.0136778
801.474	0.0137758
801.552	0.0139938
801.630	0.0140257
801.708	0.0139725
801.787	0.0140804
801.865	0.0140206
801.943	0.0140801
802.021	0.0141801
802.099	0.0141713
802.177	0.0142879
802.255	0.0143214
802.333	0.0142928
802.412	0.0141448
802.490	0.0144167
802.568	0.0144907
802.646	0.0143439
802.724	0.0144625
802.802	0.0144270
802.880	0.0144280
802.958	0.0143507
803.037	0.0142744
803.115	0.0144830
803.193	0.0144318
803.271	0.0142673
803.349	0.0141732
803.427	0.0141079
803.505	0.0141625
803.583	0.0142361
803.662	0.0141333
803.740	0.0140856
803.818	0.0141361
803.896	0.0139967
803.974	0.0139362
804.052	0.0139751
804.130	0.0139324
804.208	0.0138636
804.287	0.0138937
804.365	0.0138396
804.443	0.0138136
804.521	0.0137502
804.599	0.0138236
804.677	0.0137659
804.755	0.0139103
804.833	0.0137518
804.912	0.0138155
804.990	0.0137414
805.068	0.0137914
805.146	0.0136613
805.224	0.0136535
805.302	0.0136384
805.380	0.0136923
805.458	0.0136726
805.537	0.0138445
805.615	0.0137195
805.693	0.0138178
805.771	0.0136118
805.849	0.0136354
805.927	0.0138654
806.005	0.0138036
806.083	0.0137484
806.162	0.0139950
806.240	0.0140335
806.318	0.0140222
806.396	0.0140450
806.474	0.0140712
806.552	0.0143028
806.630	0.0142731
806.708	0.0142390
806.787	0.0142387
806.865	0.0141053
806.943	0.0141356
807.021	0.0141328
807.099	0.0140335
807.177	0.0139858
807.255	0.0140337
807.333	0.0139481
807.412	0.0137862
807.490	0.0137809
807.568	0.0138608
807.646	0.0138513
807.724	0.0137790
807.802	0.0137980
807.880	0.0136453
807.958	0.0136079
808.037	0.0137043
808.115	0.0138316
808.193	0.0134595
808.271	0.0136456
808.349	0.0136994
808.427	0.0136586
808.505	0.0136247
808.583	0.0135835
808.662	0.0137744
808.740	0.0137613
808.818	0.0138303
808.896	0.0139052
808.974	0.0137750
809.052	0.0139864
809.130	0.0140129
809.208	0.0141972
809.287	0.0142003
809.365	0.0142048
809.443	0.0142211
809.521	0.0143607
809.599	0.0143098
809.677	0.0142643
809.755	0.0143656
809.833	0.0142457
809.912	0.0141920
809.990	0.0142951
810.068	0.0142829
810.146	0.0141782
810.224	0.0143362
810.302	0.0141943
810.380	0.0141305
810.458	0.0140792
810.537	0.0142361
810.615	0.0140078
810.693	0.0139258
810.771	0.0139301
810.849	0.0138433
810.927	0.0138405
811.005	0.0136998
811.083	0.0138116
811.162	0.0136835
811.240	0.0136958
811.318	0.0136018
811.396	0.0135567
811.474	0.0135232
811.552	0.0135480
811.630	0.0136729
811.708	0.0135731
811.787	0.0136945
811.865	0.0138121
811.943	0.0137146
812.021	0.0137355
812.099	0.0137537
812.177	0.0138527
812.255	0.0138602
812.333	0.0137971
812.412	0.0139343
812.490	0.0139059
812.568	0.0140322
812.646	0.0140155
812.724	0.0140585
812.802	0.0141502
812.880	0.0141346
812.958	0.0141017
813.037	0.0141808
813.115	0.0140980
813.193	0.0140704
813.271	0.0142457
813.349	0.0140755
813.427	0.0140427
813.505	0.0141904
813.583	0.0139548
813.662	0.0139132
813.740	0.0141711
813.818	0.0139021
813.896	0.0139134
813.974	0.0140535
814.052	0.0139316
814.130	0.0139001
814.208	0.0140418
814.287	0.0141030
814.365	0.0141057
814.443	0.0141223
814.521	0.0141113
814.599	0.0140611
814.677	0.0141512
814.755	0.0142219
814.833	0.0140385
814.912	0.0139080
814.990	0.0141030
815.068	0.0139276
815.146	0.0139538
815.224	0.0140548
815.302	0.0138786
815.380	0.0138541
815.458	0.0138554
815.537	0.0140112
815.615	0.0139513
815.693	0.0137051
815.771	0.0137355
815.849	0.0137531
815.927	0.0138496
816.005	0.0136614
816.083	0.0138026
816.162	0.0137917
816.240	0.0136804
816.318	0.0137382
816.396	0.0136520
816.474	0.0137645
816.552	0.0136402
816.630	0.0136261
816.708	0.0137462
816.787	0.0135809
816.865	0.0138126
816.943	0.0137530
817.021	0.0138861
817.099	0.0138688
817.177	0.0138144
817.255	0.0139388
817.333	0.0138185
817.412	0.0138769
817.490	0.0138694
817.568	0.0140781
817.646	0.0140520
817.724	0.0140182
817.802	0.0139329
817.880	0.0139404
817.958	0.0140154
818.037	0.0139753
818.115	0.0139243
818.193	0.0138998
818.271	0.0139728
818.349	0.0139291
818.427	0.0137480
818.505	0.0138550
818.583	0.0138713
818.662	0.0137681
818.740	0.0138262
818.818	0.0139986
818.896	0.0139046
818.974	0.0138860
819.052	0.0140311
819.130	0.0139906
819.208	0.0139194
819.287	0.0140203
819.365	0.0138639
819.443	0.0140155
819.521	0.0139455
819.599	0.0138357
819.677	0.0140083
819.755	0.0140288
819.833	0.0139816
819.912	0.0139985
819.990	0.0139870
820.068	0.0139994
820.146	0.0139304
820.224	0.0139569
820.302	0.0139163
820.380	0.0138478
820.458	0.0138543
820.537	0.0137682
820.615	0.0138045
820.693	0.0138013
820.771	0.0137498
820.849	0.0137617
820.927	0.0137444
821.005	0.0137016
821.083	0.0137366
821.162	0.0137314
821.240	0.0137136
821.318	0.0136772
821.396	0.0138297
821.474	0.0136267
821.552	0.0137814
821.630	0.0136704
821.708	0.0136363
821.787	0.0138332
821.865	0.0137650
821.943	0.0137612
822.021	0.0137244
822.099	0.0136853
822.177	0.0137480
822.255	0.0138383
822.333	0.0137974
822.412	0.0138235
822.490	0.0138463
822.568	0.0138584
822.646	0.0139313
822.724	0.0139861
822.802	0.0139835
822.880	0.0139562
822.958	0.0140186
823.037	0.0140764
823.115	0.0140179
823.193	0.0139990
823.271	0.0139465
823.349	0.0139044
823.427	0.0140215
823.505	0.0140948
823.583	0.0139022
823.662	0.0139581
823.740	0.0138998
823.818	0.0137590
823.896	0.0137466
823.974	0.0138567
824.052	0.0139574
824.130	0.0138776
824.208	0.0137505
824.287	0.0138235
824.365	0.0138541
824.443	0.0137458
824.521	0.0137690
824.599	0.0138435
824.677	0.0137547
824.755	0.0137097
824.833	0.0137274
824.912	0.0137318
824.990	0.0137052
825.068	0.0139168
825.146	0.0139471
825.224	0.0138752
825.302	0.0138959
825.380	0.0140926
825.458	0.0140421
825.537	0.0140620
825.615	0.0139571
825.693	0.0140746
825.771	0.0140530
825.849	0.0141229
825.927	0.0141014
826.005	0.0139851
826.083	0.0140894
826.162	0.0140148
826.240	0.0140158
826.318	0.0140100
826.396	0.0138589
826.474	0.0139656
826.552	0.0139282
826.630	0.0139787
826.708	0.0139062
826.787	0.0138034
826.865	0.0138822
826.943	0.0137675
827.021	0.0138635
827.099	0.0137041
827.177	0.0136396
827.255	0.0138412
827.333	0.0137489
827.412	0.0137038
827.490	0.0139224
827.568	0.0138268
827.646	0.0138914
827.724	0.0139783
827.802	0.0140041
827.880	0.0139408
827.958	0.0139075
828.037	0.0139271
828.115	0.0138627
828.193	0.0139473
828.271	0.0140137
828.349	0.0139641
828.427	0.0140046
828.505	0.0137972
828.583	0.0139285
828.662	0.0139637
828.740	0.0138912
828.818	0.0140065
828.896	0.0137531
828.974	0.0139289
829.052	0.0139066
829.130	0.0140152
829.208	0.0140820
829.287	0.0138033
829.365	0.0139339
829.443	0.0139268
829.521	0.0140436
829.599	0.0139265
829.677	0.0139758
829.755	0.0140902
829.833	0.0139830
829.912	0.0139689
829.990	0.0139263
830.068	0.0140005
830.146	0.0138203
830.224	0.0140346
830.302	0.0138391
830.380	0.0138827
830.458	0.0140295
830.537	0.0139771
830.615	0.0139060
830.693	0.0138369
830.771	0.0139107
830.849	0.0137917
830.927	0.0137473
831.005	0.0138857
831.083	0.0138551
831.162	0.0138151
831.240	0.0138091
831.318	0.0137135
831.396	0.0137222
831.474	0.0138613
831.552	0.0137895
831.630	0.0136926
831.708	0.0137543
831.787	0.0135744
831.865	0.0136340
831.943	0.0137235
832.021	0.0135379
832.099	0.0137070
832.177	0.0137540
832.255	0.0136684
832.333	0.0137090
832.412	0.0137096
832.490	0.0136958
832.568	0.0137724
832.646	0.0136890
832.724	0.0138503
832.802	0.0137742
832.880	0.0137759
832.958	0.0139027
833.037	0.0138451
833.115	0.0138593
833.193	0.0138938
833.271	0.0139890
833.349	0.0138415
833.427	0.0139541
833.505	0.0139635
833.583	0.0139092
833.662	0.0139545
833.740	0.0139265
833.818	0.0138778
833.896	0.0139056
833.974	0.0139605
834.052	0.0137437
834.130	0.0140180
834.208	0.0139449
834.287	0.0138315
834.365	0.0139703
834.443	0.0139265
834.521	0.0140047
834.599	0.0138626
834.677	0.0140396
834.755	0.0139243
834.833	0.0140208
834.912	0.0140970
834.990	0.0140769
835.068	0.0140419
835.146	0.0141314
835.224	0.0139771
835.302	0.0140260
835.380	0.0140936
835.458	0.0138473
835.537	0.0140448
835.615	0.0139905
835.693	0.0139617
835.771	0.0139384
835.849	0.0138598
835.927	0.0139329
836.005	0.0136378
836.083	0.0137683
836.162	0.0137022
836.240	0.0137369
836.318	0.0136259
836.396	0.0136790
836.474	0.0135857
836.552	0.0136800
836.630	0.0135804
836.708	0.0134869
836.787	0.0135780
836.865	0.0135680
836.943	0.0135735
837.021	0.0137242
837.099	0.0136915
837.177	0.0137267
837.255	0.0137299
837.333	0.0137486
837.412	0.0137391
837.490	0.0138426
837.568	0.0138134
837.646	0.0137825
837.724	0.0138591
837.802	0.0140006
837.880	0.0138228
837.958	0.0138776
838.037	0.0140214
838.115	0.0140114
838.193	0.0138718
838.271	0.0138960
838.349	0.0138997
838.427	0.0140932
838.505	0.0140166
838.583	0.0140756
838.662	0.0140688
838.740	0.0140477
838.818	0.0141539
838.896	0.0140169
838.974	0.0142132
839.052	0.0140608
839.130	0.0141396
839.208	0.0140557
839.287	0.0140321
839.365	0.0140390
839.443	0.0140984
839.521	0.0140536
839.599	0.0140858
839.677	0.0139727
839.755	0.0138476
839.833	0.0139832
839.912	0.0139790
839.990	0.0138073
840.068	0.0137872
840.146	0.0138138
840.224	0.0139268
840.302	0.0138415
840.380	0.0138786
840.458	0.0138265
840.537	0.0137836
840.615	0.0137989
840.693	0.0138088
840.771	0.0138446
840.849	0.0137503
840.927	0.0139441
841.005	0.0139113
841.083	0.0138291
841.162	0.0139396
841.240	0.0137686
841.318	0.0139954
841.396	0.0139446
841.474	0.0139144
841.552	0.0139441
841.630	0.0138685
841.708	0.0138511
841.787	0.0137969
841.865	0.0137369
841.943	0.0138427
842.021	0.0137858
842.099	0.0136943
842.177	0.0136980
842.255	0.0136903
842.333	0.0136922
842.412	0.0137241
842.490	0.0136541
842.568	0.0135511
842.646	0.0135996
842.724	0.0136539
842.802	0.0133909
842.880	0.0136134
842.958	0.0136794
843.037	0.0137095
843.115	0.0135812
843.193	0.0136552
843.271	0.0138147
843.349	0.0138015
843.427	0.0138043
843.505	0.0138103
843.583	0.0139935
843.662	0.0139249
843.740	0.0139037
843.818	0.0138381
843.896	0.0139074
843.974	0.0139780
844.052	0.0139483
844.130	0.0139623
844.208	0.0139841
844.287	0.0140694
844.365	0.0140665
844.443	0.0139290
844.521	0.0139495
844.599	0.0141425
844.677	0.0140277
844.755	0.0139853
844.833	0.0140170
844.912	0.0139159
844.990	0.0138752
845.068	0.0140615
845.146	0.0139102
845.224	0.0139750
845.302	0.0139454
845.380	0.0139649
845.458	0.0139534
845.537	0.0138603
845.615	0.0137588
845.693	0.0137898
845.771	0.0139681
845.849	0.0138848
845.927	0.0137290
846.005	0.0136784
846.083	0.0137530
846.162	0.0139407
846.240	0.0137199
846.318	0.0137181
846.396	0.0137169
846.474	0.0137284
846.552	0.0138029
846.630	0.0137940
846.708	0.0137350
846.787	0.0137975
846.865	0.0138023
846.943	0.0138179
847.021	0.0137654
847.099	0.0137440
847.177	0.0137592
847.255	0.0137846
847.333	0.0138329
847.412	0.0137993
847.490	0.0138372
847.568	0.0137576
847.646	0.0138678
847.724	0.0139223
847.802	0.0138204
847.880	0.0139349
847.958	0.0139770
848.037	0.0139050
848.115	0.0138848
848.193	0.0139761
848.271	0.0139234
848.349	0.0139872
848.427	0.0137652
848.505	0.0138468
848.583	0.0139539
848.662	0.0138823
848.740	0.0139330
848.818	0.0139005
848.896	0.0136795
848.974	0.0138425
849.052	0.0138314
849.130	0.0139390
849.208	0.0138857
849.287	0.0139298
849.365	0.0138203
849.443	0.0139052
849.521	0.0139385
849.599	0.0139468
849.677	0.0138824
849.755	0.0140823
849.833	0.0141398
849.912	0.0139571
849.990	0.0140936
850.068	0.0141480
850.146	0.0140491
850.224	0.0140356
850.302	0.0140337
850.380	0.0140549
850.458	0.0140910
850.537	0.0140388
850.615	0.0138750
850.693	0.0138358
850.771	0.0139502
850.849	0.0137972
850.927	0.0138672
851.005	0.0136489
851.083	0.0136708
851.162	0.0136974
851.240	0.0136206
851.318	0.0136526
851.396	0.0135748
851.474	0.0134826
851.552	0.0136381
851.630	0.0135477
851.708	0.0134985
851.787	0.0137132
851.865	0.0137418
851.943	0.0137647
852.021	0.0138496
852.099	0.0138260
852.177	0.0139198
852.255	0.0139272
852.333	0.0140201
852.412	0.0139404
852.490	0.0139271
852.568	0.0139821
852.646	0.0138683
852.724	0.0140107
852.802	0.0140227
852.880	0.0140295
852.958	0.0139155
853.037	0.0139498
853.115	0.0140685
853.193	0.0139719
853.271	0.0140107
853.349	0.0138490
853.427	0.0139375
853.505	0.0141482
853.583	0.0140394
853.662	0.0138431
853.740	0.0140432
853.818	0.0140514
853.896	0.0140489
853.974	0.0139973
854.052	0.0140471
854.130	0.0140743
854.208	0.0139233
854.287	0.0141257
854.365	0.0140655
854.443	0.0140569
854.521	0.0140079
854.599	0.0140242
854.677	0.0140710
854.755	0.0140968
854.833	0.0139946
854.912	0.0138313
854.990	0.0138934
855.068	0.0139808
855.146	0.0138776
855.224	0.0137846
855.302	0.0138423
855.380	0.0137583
855.458	0.0137236
855.537	0.0138698
855.615	0.0137749
855.693	0.0138321
855.771	0.0136770
855.849	0.0136404
855.927	0.0136045
856.005	0.0137384
856.083	0.0137385
856.162	0.0135791
856.240	0.0137826
856.318	0.0137154
856.396	0.0135535
856.474	0.0137432
856.552	0.0137685
856.630	0.0137208
856.708	0.0138399
856.787	0.0138387
856.865	0.0137730
856.943	0.0139107
857.021	0.0138367
857.099	0.0139349
857.177	0.0140300
857.255	0.0139777
857.333	0.0139835
857.412	0.0140252
857.490	0.0140243
857.568	0.0139845
857.646	0.0139142
857.724	0.0139887
857.802	0.0139215
857.880	0.0138678
857.958	0.0138123
858.037	0.0138712
858.115	0.0138062
858.193	0.0138839
858.271	0.0138866
858.349	0.0139552
858.427	0.0137771
858.505	0.0139355
858.583	0.0137894
858.662	0.0139421
858.740	0.0139714
858.818	0.0140071
858.896	0.0141109
858.974	0.0141524
859.052	0.0141696
859.130	0.0140647
859.208	0.0141217
859.287	0.0140707
859.365	0.0141176
859.443	0.0141405
859.521	0.0141579
859.599	0.0141310
859.677	0.0140324
859.755	0.0138786
859.833	0.0137820
859.912	0.0139101
859.990	0.0139693
860.068	0.0138667
860.146	0.0136244
860.224	0.0136404
860.302	0.0135825
860.380	0.0137109
860.458	0.0136895
860.537	0.0135936
860.615	0.0136432
860.693	0.0137108
860.771	0.0136519
860.849	0.0137976
860.927	0.0136606
861.005	0.0137324
861.083	0.0138780
861.162	0.0136700
861.240	0.0137736
861.318	0.0139050
861.396	0.0138584
861.474	0.0139365
861.552	0.0140228
861.630	0.0139017
861.708	0.0140893
861.787	0.0141264
861.865	0.0140976
861.943	0.0140190
862.021	0.0140309
862.099	0.0139883
862.177	0.0138610
862.255	0.0139341
862.333	0.0139070
862.412	0.0139971
862.490	0.0138916
862.568	0.0138903
862.646	0.0139016
862.724	0.0139327
862.802	0.0139705
862.880	0.0138432
862.958	0.0140009
863.037	0.0138533
863.115	0.0136987
863.193	0.0139002
863.271	0.0141759
863.349	0.0140231
863.427	0.0139445
863.505	0.0140454
863.583	0.0141663
863.662	0.0141281
863.740	0.0140200
863.818	0.0141568
863.896	0.0141187
863.974	0.0140208
864.052	0.0140127
864.130	0.0140961
864.208	0.0140385
864.287	0.0141074
864.365	0.0140073
864.443	0.0139091
864.521	0.0140269
864.599	0.0138743
864.677	0.0138539
864.755	0.0138216
864.833	0.0137984
864.912	0.0137959
864.990	0.0136591
865.068	0.0134866
865.146	0.0136826
865.224	0.0137550
865.302	0.0137669
865.380	0.0139002
865.458	0.0138119
865.537	0.0138088
865.615	0.0137440
865.693	0.0137640
865.771	0.0139494
865.849	0.0138020
865.927	0.0139642
866.005	0.0139363
866.083	0.0139458
866.162	0.0140088
866.240	0.0139748
866.318	0.0141651
866.396	0.0141377
866.474	0.0140194
866.552	0.0141155
866.630	0.0140916
866.708	0.0139130
866.787	0.0140249
866.865	0.0140893
866.943	0.0140330
867.021	0.0140051
867.099	0.0139171
867.177	0.0137995
867.255	0.0137459
867.333	0.0138704
867.412	0.0137640
867.490	0.0137224
867.568	0.0137125
867.646	0.0137361
867.724	0.0138367
867.802	0.0138285
867.880	0.0138776
867.958	0.0139191
868.037	0.0140160
868.115	0.0142669
868.193	0.0141187
868.271	0.0141103
868.349	0.0141661
868.427	0.0142229
868.505	0.0143220
868.583	0.0143928
868.662	0.0142499
868.740	0.0142252
868.818	0.0143128
868.896	0.0142031
868.974	0.0142098
869.052	0.0140512
869.130	0.0140747
869.208	0.0140611
869.287	0.0140038
869.365	0.0139662
869.443	0.0138031
869.521	0.0137904
869.599	0.0137129
869.677	0.0136443
869.755	0.0135996
869.833	0.0136054
869.912	0.0135274
869.990	0.0134179
870.068	0.0134276
870.146	0.0133700
870.224	0.0134274
870.302	0.0135032
870.380	0.0134692
870.458	0.0136622
870.537	0.0135297
870.615	0.0138519
870.693	0.0138963
870.771	0.0138290
870.849	0.0139945
870.927	0.0141066
871.005	0.0141483
871.083	0.0142235
871.162	0.0141781
871.240	0.0143525
871.318	0.0143049
871.396	0.0143465
871.474	0.0143105
871.552	0.0142461
871.630	0.0143187
871.708	0.0144971
871.787	0.0142081
871.865	0.0142619
871.943	0.0141671
872.021	0.0141146
872.099	0.0141560
872.177	0.0141383
872.255	0.0139214
872.333	0.0139861
872.412	0.0138908
872.490	0.0136240
872.568	0.0137065
872.646	0.0136526
872.724	0.0135989
872.802	0.0133918
872.880	0.0136569
872.958	0.0135825
873.037	0.0134909
873.115	0.0135075
873.193	0.0136110
873.271	0.0136329
873.349	0.0136516
873.427	0.0135924
873.505	0.0137200
873.583	0.0137585
873.662	0.0136305
873.740	0.0137885
873.818	0.0138421
873.896	0.0140219
873.974	0.0139581
874.052	0.0138997
874.130	0.0139431
874.208	0.0139919
874.287	0.0138979
874.365	0.0138979
874.443	0.0139838
874.521	0.0140927
874.599	0.0140206
874.677	0.0140244
874.755	0.0139616
874.833	0.0139834
874.912	0.0140945
874.990	0.0139249
875.068	0.0140722
875.146	0.0140391
875.224	0.0140034
875.302	0.0139822
875.380	0.0139694
875.458	0.0140966
875.537	0.0140688
875.615	0.0140240
875.693	0.0139929
875.771	0.0140485
875.849	0.0140559
875.927	0.0140544
876.005	0.0139835
876.083	0.0138906
876.162	0.0139275
876.240	0.0138567
876.318	0.0137448
876.396	0.0138765
876.474	0.0138678
876.552	0.0136972
876.630	0.0137984
876.708	0.0136546
876.787	0.0139201
876.865	0.0137799
876.943	0.0136800
877.021	0.0138605
877.099	0.0137374
877.177	0.0137732
877.255	0.0136684
877.333	0.0137536
877.412	0.0137958
877.490	0.0138195
877.568	0.0138118
877.646	0.0137649
877.724	0.0137705
877.802	0.0137753
877.880	0.0136842
877.958	0.0137373
878.037	0.0137978
878.115	0.0137309
878.193	0.0137785
878.271	0.0139648
878.349	0.0140092
878.427	0.0139499
878.505	0.0140611
878.583	0.0141331
878.662	0.0141743
878.740	0.0142627
878.818	0.0142888
878.896	0.0144357
878.974	0.0143896
879.052	0.0143818
879.130	0.0145265
879.208	0.0142240
879.287	0.0141564
879.365	0.0142195
879.443	0.0143065
879.521	0.0141199
879.599	0.0140261
879.677	0.0139436
879.755	0.0137216
879.833	0.0139074
879.912	0.0138852
879.990	0.0136862
880.068	0.0138393
880.146	0.0137060
880.224	0.0136568
880.302	0.0137106
880.380	0.0137515
880.458	0.0137260
880.537	0.0138605
880.615	0.0139135
880.693	0.0138464
880.771	0.0139184
880.849	0.0137980
880.927	0.0136901
881.005	0.0137164
881.083	0.0136977
881.162	0.0137256
881.240	0.0136947
881.318	0.0135480
881.396	0.0134642
881.474	0.0134856
881.552	0.0136048
881.630	0.0133987
881.708	0.0134365
881.787	0.0134891
881.865	0.0134657
881.943	0.0133090
882.021	0.0136340
882.099	0.0137211
882.177	0.0138201
882.255	0.0138868
882.333	0.0139111
882.412	0.0140448
882.490	0.0140508
882.568	0.0142284
882.646	0.0141761
882.724	0.0142591
882.802	0.0144350
882.880	0.0144526
882.958	0.0145813
883.037	0.0144786
883.115	0.0144153
883.193	0.0144125
883.271	0.0142659
883.349	0.0140949
883.427	0.0142407
883.505	0.0142896
883.583	0.0141640
883.662	0.0140984
883.740	0.0140078
883.818	0.0139902
883.896	0.0139383
883.974	0.0139058
884.052	0.0139327
884.130	0.0137048
884.208	0.0136896
884.287	0.0138577
884.365	0.0137778
884.443	0.0137148
884.521	0.0137537
884.599	0.0137172
884.677	0.0136014
884.755	0.0137146
884.833	0.0135470
884.912	0.0136792
884.990	0.0138284
885.068	0.0138539
885.146	0.0138334
885.224	0.0138023
885.302	0.0139066
885.380	0.0140397
885.458	0.0139970
885.537	0.0140178
885.615	0.0141343
885.693	0.0141338
885.771	0.0139528
885.849	0.0139862
885.927	0.0139954
886.005	0.0139429
886.083	0.0137685
886.162	0.0138034
886.240	0.0137120
886.318	0.0136755
886.396	0.0136097
886.474	0.0137651
886.552	0.0135771
886.630	0.0134427
886.708	0.0134644
886.787	0.0133381
886.865	0.0135390
886.943	0.0135108
887.021	0.0135207
887.099	0.0135435
887.177	0.0137602
887.255	0.0137531
887.333	0.0137926
887.412	0.0138519
887.490	0.0138895
887.568	0.0141873
887.646	0.0143723
887.724	0.0142180
887.802	0.0142741
887.880	0.0143170
887.958	0.0142739
888.037	0.0144323
888.115	0.0141764
888.193	0.0142263
888.271	0.0143004
888.349	0.0142769
888.427	0.0140875
888.505	0.0141643
888.583	0.0142757
888.662	0.0142236
888.740	0.0140346
888.818	0.0141602
888.896	0.0141828
888.974	0.0140401
889.052	0.0140597
889.130	0.0139564
889.208	0.0139052
889.287	0.0140618
889.365	0.0138758
889.443	0.0140262
889.521	0.0138406
889.599	0.0137553
889.677	0.0139121
889.755	0.0138906
889.833	0.0139377
889.912	0.0138955
889.990	0.0139101
890.068	0.0139995
890.146	0.0140124
890.224	0.0139205
890.302	0.0138467
890.380	0.0138667
890.458	0.0138452
890.537	0.0136767
890.615	0.0137730
890.693	0.0138109
890.771	0.0136610
890.849	0.0136465
890.927	0.0133424
891.005	0.0133382
891.083	0.0133849
891.162	0.0133884
891.240	0.0133041
891.318	0.0133119
891.396	0.0132851
891.474	0.0133219
891.552	0.0133430
891.630	0.0132925
891.708	0.0133596
891.787	0.0135371
891.865	0.0136305
891.943	0.0137422
892.021	0.0139101
892.099	0.0140693
892.177	0.0142340
892.255	0.0143896
892.333	0.0144470
892.412	0.0145337
892.490	0.0145683
892.568	0.0145761
892.646	0.0148236
892.724	0.0149213
892.802	0.0147312
892.880	0.0146671
892.958	0.0147330
893.037	0.0146162
893.115	0.0144987
893.193	0.0144727
893.271	0.0143615
893.349	0.0142531
893.427	0.0140778
893.505	0.0141689
893.583	0.0140653
893.662	0.0139880
893.740	0.0139880
893.818	0.0140204
893.896	0.0139375
893.974	0.0138662
894.052	0.0138749
894.130	0.0138519
894.208	0.0136781
894.287	0.0135716
894.365	0.0135969
894.443	0.0137028
894.521	0.0136414
894.599	0.0134028
894.677	0.0134659
894.755	0.0132233
894.833	0.0131862
894.912	0.0133663
894.990	0.0133185
895.068	0.0133096
895.146	0.0131828
895.224	0.0132722
895.302	0.0135000
895.380	0.0134174
895.458	0.0133769
895.537	0.0135124
895.615	0.0135356
895.693	0.0136649
895.771	0.0136479
895.849	0.0138487
895.927	0.0137808
896.005	0.0138320
896.083	0.0139884
896.162	0.0140063
896.240	0.0141203
896.318	0.0141438
896.396	0.0142105
896.474	0.0142422
896.552	0.0141840
896.630	0.0146267
896.708	0.0145034
896.787	0.0143880
896.865	0.0144915
896.943	0.0144712
897.021	0.0144531
897.099	0.0144374
897.177	0.0144251
897.255	0.0142454
897.333	0.0144009
897.412	0.0142132
897.490	0.0141319
897.568	0.0140946
897.646	0.0139610
897.724	0.0139182
897.802	0.0138123
897.880	0.0138167
897.958	0.0136507
898.037	0.0136828
898.115	0.0135979
898.193	0.0135416
898.271	0.0136285
898.349	0.0137207
898.427	0.0135677
898.505	0.0137566
898.583	0.0136674
898.662	0.0136832
898.740	0.0137703
898.818	0.0137509
898.896	0.0139124
898.974	0.0138744
899.052	0.0139802
899.130	0.0139170
899.208	0.0139787
899.287	0.0139897
899.365	0.0140597
899.443	0.0139616
899.521	0.0139712
899.599	0.0139170
899.677	0.0139791
899.755	0.0139068
899.833	0.0138702
899.912	0.0137416
899.990	0.0137486
900.068	0.0137428
900.146	0.0136325
900.224	0.0135728
900.302	0.0134871
900.380	0.0136086
900.458	0.0135918
900.537	0.0135514
900.615	0.0137255
900.693	0.0136549
900.771	0.0138048
900.849	0.0137462
900.927	0.0138467
901.005	0.0139448
901.083	0.0139580
901.162	0.0140232
901.240	0.0142453
901.318	0.0141647
901.396	0.0141618
901.474	0.0141609
901.552	0.0140930
901.630	0.0140244
901.708	0.0141013
901.787	0.0140453
901.865	0.0140573
901.943	0.0140562
902.021	0.0140416
902.099	0.0139935
902.177	0.0140942
902.255	0.0139262
902.333	0.0139024
902.412	0.0140160
902.490	0.0139075
902.568	0.0139256
902.646	0.0138141
902.724	0.0140273
902.802	0.0139397
902.880	0.0140133
902.958	0.0139687
903.037	0.0139790
903.115	0.0140199
903.193	0.0140226
903.271	0.0140179
903.349	0.0141819
903.427	0.0140706
903.505	0.0141312
903.583	0.0140382
903.662	0.0140927
903.740	0.0141145
903.818	0.0141788
903.896	0.0140405
903.974	0.0139853
904.052	0.0140078
904.130	0.0140449
904.208	0.0141403
904.287	0.0141492
904.365	0.0139316
904.443	0.0139311
904.521	0.0139519
904.599	0.0138427
904.677	0.0137067
904.755	0.0137563
904.833	0.0137070
904.912	0.0137516
904.990	0.0137463
905.068	0.0137286
905.146	0.0137683
905.224	0.0137419
905.302	0.0137182
905.380	0.0137741
905.458	0.0136702
905.537	0.0137640
905.615	0.0137381
905.693	0.0137221
905.771	0.0137730
905.849	0.0138904
905.927	0.0139354
906.005	0.0137968
906.083	0.0138803
906.162	0.0138449
906.240	0.0138216
906.318	0.0139526
906.396	0.0139128
906.474	0.0139249
906.552	0.0139120
906.630	0.0139460
906.708	0.0139127
906.787	0.0138795
906.865	0.0139581
906.943	0.0139002
907.021	0.0140470
907.099	0.0139773
907.177	0.0140076
907.255	0.0139766
907.333	0.0140137
907.412	0.0141639
907.490	0.0141423
907.568	0.0140162
907.646	0.0139861
907.724	0.0141448
907.802	0.0140067
907.880	0.0141209
907.958	0.0141002
908.037	0.0140611
908.115	0.0139450
908.193	0.0140782
908.271	0.0139889
908.349	0.0139908
908.427	0.0140653
908.505	0.0141049
908.583	0.0139857
908.662	0.0138403
908.740	0.0140140
908.818	0.0139954
908.896	0.0139125
908.974	0.0138528
909.052	0.0137892
909.130	0.0136723
909.208	0.0136475
909.287	0.0137450
909.365	0.0137325
909.443	0.0137160
909.521	0.0136493
909.599	0.0137860
909.677	0.0138042
909.755	0.0138666
909.833	0.0138630
909.912	0.0141174
909.990	0.0139542
910.068	0.0139771
910.146	0.0139708
910.224	0.0139500
910.302	0.0140821
910.380	0.0140448
910.458	0.0140557
910.537	0.0140824
910.615	0.0141069
910.693	0.0140752
910.771	0.0139177
910.849	0.0141203
910.927	0.0140532
911.005	0.0140108
911.083	0.0140563
911.162	0.0139657
911.240	0.0139040
911.318	0.0138181
911.396	0.0136660
911.474	0.0136757
911.552	0.0137943
911.630	0.0137963
911.708	0.0137511
911.787	0.0137743
911.865	0.0138248
911.943	0.0136987
912.021	0.0137106
912.099	0.0137926
912.177	0.0137238
912.255	0.0136336
912.333	0.0138321
912.412	0.0136900
912.490	0.0138414
912.568	0.0139400
912.646	0.0138301
912.724	0.0138435
912.802	0.0138140
912.880	0.0138784
912.958	0.0137901
913.037	0.0138665
913.115	0.0138919
913.193	0.0138268
913.271	0.0137121
913.349	0.0138523
913.427	0.0138335
913.505	0.0139229
913.583	0.0137862
913.662	0.0137607
913.740	0.0135899
913.818	0.0138068
913.896	0.0138582
913.974	0.0138843
914.052	0.0140005
914.130	0.0138602
914.208	0.0140221
914.287	0.0140143
914.365	0.0140177
914.443	0.0140671
914.521	0.0141124
914.599	0.0140512
914.677	0.0140087
914.755	0.0141683
914.833	0.0141335
914.912	0.0141675
914.990	0.0141526
915.068	0.0141251
915.146	0.0141432
915.224	0.0141045
915.302	0.0140649
915.380	0.0140012
915.458	0.0140303
915.537	0.0140669
915.615	0.0138763
915.693	0.0139791
915.771	0.0138168
915.849	0.0138567
915.927	0.0137832
916.005	0.0137314
916.083	0.0136523
916.162	0.0136185
916.240	0.0134315
916.318	0.0134219
916.396	0.0134935
916.474	0.0136237
916.552	0.0134772
916.630	0.0133466
916.708	0.0134428
916.787	0.0133954
916.865	0.0135745
916.943	0.0136978
917.021	0.0135831
917.099	0.0136643
917.177	0.0136005
917.255	0.0137458
917.333	0.0138227
917.412	0.0138892
917.490	0.0137946
917.568	0.0139438
917.646	0.0140653
917.724	0.0140824
917.802	0.0140595
917.880	0.0140110
917.958	0.0142145
918.037	0.0141601
918.115	0.0141245
918.193	0.0141547
918.271	0.0139544
918.349	0.0141582
918.427	0.0140344
918.505	0.0140510
918.583	0.0139069
918.662	0.0140518
918.740	0.0141074
918.818	0.0139535
918.896	0.0140643
918.974	0.0138834
919.052	0.0139405
919.130	0.0141779
919.208	0.0139637
919.287	0.0139651
919.365	0.0140714
919.443	0.0139984
919.521	0.0138689
919.599	0.0139792
919.677	0.0138881
919.755	0.0139034
919.833	0.0138299
919.912	0.0139196
919.990	0.0138673
920.068	0.0137386
920.146	0.0137775
920.224	0.0137170
920.302	0.0137305
920.380	0.0138266
920.458	0.0138099
920.537	0.0139293
920.615	0.0137912
920.693	0.0137380
920.771	0.0139493
920.849	0.0138882
920.927	0.0138550
921.005	0.0139189
921.083	0.0140208
921.162	0.0139394
921.240	0.0139359
921.318	0.0139496
921.396	0.0140590
921.474	0.0139140
921.552	0.0139755
921.630	0.0138913
921.708	0.0137740
921.787	0.0137990
921.865	0.0139169
921.943	0.0138494
922.021	0.0138188
922.099	0.0139855
922.177	0.0138108
922.255	0.0136950
922.333	0.0138267
922.412	0.0138939
922.490	0.0138184
922.568	0.0138101
922.646	0.0139113
922.724	0.0140051
922.802	0.0139604
922.880	0.0138946
922.958	0.0139806
923.037	0.0140603
923.115	0.0139396
923.193	0.0140207
923.271	0.0140459
923.349	0.0140701
923.427	0.0140748
923.505	0.0140064
923.583	0.0141420
923.662	0.0141264
923.740	0.0140501
923.818	0.0141550
923.896	0.0140961
923.974	0.0139481
924.052	0.0140368
924.130	0.0139030
924.208	0.0139168
924.287	0.0137804
924.365	0.0136456
924.443	0.0137523
924.521	0.0136565
924.599	0.0138862
924.677	0.0138126
924.755	0.0136433
924.833	0.0137009
924.912	0.0136977
924.990	0.0137913
925.068	0.0137109
925.146	0.0137804
925.224	0.0136458
925.302	0.0138004
925.380	0.0137290
925.458	0.0137726
925.537	0.0138980
925.615	0.0138749
925.693	0.0137337
925.771	0.0137544
925.849	0.0138998
925.927	0.0139339
926.005	0.0138673
926.083	0.0139225
926.162	0.0139625
926.240	0.0140147
926.318	0.0139888
926.396	0.0141336
926.474	0.0141244
926.552	0.0142167
926.630	0.0141846
926.708	0.0139880
926.787	0.0139790
926.865	0.0140549
926.943	0.0140468
927.021	0.0139757
927.099	0.0138947
927.177	0.0139799
927.255	0.0139842
927.333	0.0140361
927.412	0.0138693
927.490	0.0137811
927.568	0.0138545
927.646	0.0137527
927.724	0.0138086
927.802	0.0137671
927.880	0.0137573
927.958	0.0137627
928.037	0.0138344
928.115	0.0138474
928.193	0.0136611
928.271	0.0136388
928.349	0.0137278
928.427	0.0135985
928.505	0.0137376
928.583	0.0137476
928.662	0.0137642
928.740	0.0136795
928.818	0.0137006
928.896	0.0138069
928.974	0.0138796
929.052	0.0139404
929.130	0.0138945
929.208	0.0138837
929.287	0.0139442
929.365	0.0140072
929.443	0.0140088
929.521	0.0141068
929.599	0.0140894
929.677	0.0140424
929.755	0.0140948
929.833	0.0140353
929.912	0.0141740
929.990	0.0140651
930.068	0.0139828
930.146	0.0139498
930.224	0.0140971
930.302	0.0140553
930.380	0.0138450
930.458	0.0139315
930.537	0.0139365
930.615	0.0139555
930.693	0.0138670
930.771	0.0136773
930.849	0.0140240
930.927	0.0138322
931.005	0.0137406
931.083	0.0138345
931.162	0.0138345
931.240	0.0138332
931.318	0.0137511
931.396	0.0138406
931.474	0.0137422
931.552	0.0138626
931.630	0.0138656
931.708	0.0138185
931.787	0.0139444
931.865	0.0138794
931.943	0.0138927
932.021	0.0139088
932.099	0.0140036
932.177	0.0140936
932.255	0.0139129
932.333	0.0140434
932.412	0.0140498
932.490	0.0140845
932.568	0.0140506
932.646	0.0140428
932.724	0.0141040
932.802	0.0140154
932.880	0.0139629
932.958	0.0138307
933.037	0.0139574
933.115	0.0138896
933.193	0.0138004
933.271	0.0138982
933.349	0.0139650
933.427	0.0136243
933.505	0.0135776
933.583	0.0136903
933.662	0.0137501
933.740	0.0137122
933.818	0.0134728
933.896	0.0136621
933.974	0.0135925
934.052	0.0135786
934.130	0.0136740
934.208	0.0136519
934.287	0.0136187
934.365	0.0135796
934.443	0.0136530
934.521	0.0139397
934.599	0.0139283
934.677	0.0138136
934.755	0.0138625
934.833	0.0140058
934.912	0.0140543
934.990	0.0140758
935.068	0.0140539
935.146	0.0140794
935.224	0.0141932
935.302	0.0142031
935.380	0.0141559
935.458	0.0140781
935.537	0.0140205
935.615	0.0140120
935.693	0.0142130
935.771	0.0140195
935.849	0.0140543
935.927	0.0139258
936.005	0.0139695
936.083	0.0139194
936.162	0.0139279
936.240	0.0140362
936.318	0.0138723
936.396	0.0138930
936.474	0.0141075
936.552	0.0141167
936.630	0.0139011
936.708	0.0140077
936.787	0.0139816
936.865	0.0137650
936.943	0.0138951
937.021	0.0139132
937.099	0.0139783
937.177	0.0138724
937.255	0.0138404
937.333	0.0137679
937.412	0.0137572
937.490	0.0137841
937.568	0.0137948
937.646	0.0138023
937.724	0.0137878
937.802	0.0136784
937.880	0.0138277
937.958	0.0137981
938.037	0.0136035
938.115	0.0136205
938.193	0.0136778
938.271	0.0138046
938.349	0.0136745
938.427	0.0136460
938.505	0.0136966
938.583	0.0137864
938.662	0.0137439
938.740	0.0137648
938.818	0.0137957
938.896	0.0138833
938.974	0.0138493
939.052	0.0138295
939.130	0.0139285
939.208	0.0138303
939.287	0.0138695
939.365	0.0139347
939.443	0.0140759
939.521	0.0139013
939.599	0.0139195
939.677	0.0139115
939.755	0.0140488
939.833	0.0140574
939.912	0.0140174
939.990	0.0139893
940.068	0.0140742
940.146	0.0140232
940.224	0.0140591
940.302	0.0141447
940.380	0.0140817
940.458	0.0140591
940.537	0.0140839
940.615	0.0141074
940.693	0.0139677
940.771	0.0138713
940.849	0.0140868
940.927	0.0140156
941.005	0.0138633
941.083	0.0139038
941.162	0.0139964
941.240	0.0139964
941.318	0.0138731
941.396	0.0139294
941.474	0.0137685
941.552	0.0138486
941.630	0.0138138
941.708	0.0137122
941.787	0.0138992
941.865	0.0138675
941.943	0.0137753
942.021	0.0138531
942.099	0.0138039
942.177	0.0138714
942.255	0.0136551
942.333	0.0137533
942.412	0.0138328
942.490	0.0137287
942.568	0.0136932
942.646	0.0136957
942.724	0.0136118
942.802	0.0136020
942.880	0.0137567
942.958	0.0137645
943.037	0.0137643
943.115	0.0137503
943.193	0.0138595
943.271	0.0136938
943.349	0.0139289
943.427	0.0138937
943.505	0.0139097
943.583	0.0138258
943.662	0.0139877
943.740	0.0136871
943.818	0.0139730
943.896	0.0137611
943.974	0.0138681
944.052	0.0138206
944.130	0.0138033
944.208	0.0139438
944.287	0.0139649
944.365	0.0137285
944.443	0.0137949
944.521	0.0139230
944.599	0.0139211
944.677	0.0139566
944.755	0.0137881
944.833	0.0137496
944.912	0.0139406
944.990	0.0141514
945.068	0.0139793
945.146	0.0138903
945.224	0.0140102
945.302	0.0140016
945.380	0.0139220
945.458	0.0140076
945.537	0.0140793
945.615	0.0139629
945.693	0.0139268
945.771	0.0139095
945.849	0.0138568
945.927	0.0138463
946.005	0.0138375
946.083	0.0138174
946.162	0.0138584
946.240	0.0138528
946.318	0.0137270
946.396	0.0136452
946.474	0.0137883
946.552	0.0138103
946.630	0.0138507
946.708	0.0138417
946.787	0.0139140
946.865	0.0139048
946.943	0.0137592
947.021	0.0137462
947.099	0.0137238
947.177	0.0138831
947.255	0.0138136
947.333	0.0138200
947.412	0.0137645
947.490	0.0138470
947.568	0.0137188
947.646	0.0138401
947.724	0.0137484
947.802	0.0137978
947.880	0.0138377
947.958	0.0138268
948.037	0.0137588
948.115	0.0136562
948.193	0.0135837
948.271	0.0136776
948.349	0.0138555
948.427	0.0137122
948.505	0.0137089
948.583	0.0136449
948.662	0.0137453
948.740	0.0136947
948.818	0.0139204
948.896	0.0139711
948.974	0.0139393
949.052	0.0139037
949.130	0.0139053
949.208	0.0140662
949.287	0.0140555
949.365	0.0139849
949.443	0.0140414
949.521	0.0140548
949.599	0.0139499
949.677	0.0140665
949.755	0.0138839
949.833	0.0139669
949.912	0.0141338
949.990	0.0140147
950.068	0.0140157
950.146	0.0139294
950.224	0.0140138
950.302	0.0139604
950.380	0.0139059
950.458	0.0138840
950.537	0.0136867
950.615	0.0138026
950.693	0.0137813
950.771	0.0138535
950.849	0.0137332
950.927	0.0139252
951.005	0.0137323
951.083	0.0137775
951.162	0.0138765
951.240	0.0138815
951.318	0.0138033
951.396	0.0137913
951.474	0.0138921
951.552	0.0138105
951.630	0.0139754
951.708	0.0139162
951.787	0.0139209
951.865	0.0139703
951.943	0.0138429
952.021	0.0138857
952.099	0.0139449
952.177	0.0137418
952.255	0.0139304
952.333	0.0137646
952.412	0.0137153
952.490	0.0138640
952.568	0.0136716
952.646	0.0138019
952.724	0.0135685
952.802	0.0136072
952.880	0.0137095
952.958	0.0137415
953.037	0.0137793
953.115	0.0137119
953.193	0.0136443
953.271	0.0136579
953.349	0.0137305
953.427	0.0137038
953.505	0.0138218
953.583	0.0138758
953.662	0.0138746
953.740	0.0139708
953.818	0.0139290
953.896	0.0139560
953.974	0.0138392
954.052	0.0140366
954.130	0.0140434
954.208	0.0141534
954.287	0.0140571
954.365	0.0139671
954.443	0.0140228
954.521	0.0139899
954.599	0.0139285
954.677	0.0140306
954.755	0.0139679
954.833	0.0139240
954.912	0.0139760
954.990	0.0139757
955.068	0.0140168
955.146	0.0139383
955.224	0.0139285
955.302	0.0139349
955.380	0.0139167
955.458	0.0138918
955.537	0.0140834
955.615	0.0137964
955.693	0.0139770
955.771	0.0140816
955.849	0.0139992
955.927	0.0138341
956.005	0.0138892
956.083	0.0139859
956.162	0.0138316
956.240	0.0137826
956.318	0.0138926
956.396	0.0138586
956.474	0.0138516
956.552	0.0136961
956.630	0.0138755
956.708	0.0138578
956.787	0.0137026
956.865	0.0136820
956.943	0.0138429
957.021	0.0138962
957.099	0.0138515
957.177	0.0139274
957.255	0.0139513
957.333	0.0139757
957.412	0.0138614
957.490	0.0140408
957.568	0.0140237
957.646	0.0140285
957.724	0.0140525
957.802	0.0140571
957.880	0.0140303
957.958	0.0140919
958.037	0.0141704
958.115	0.0138900
958.193	0.0138100
958.271	0.0138714
958.349	0.0138699
958.427	0.0139641
958.505	0.0140596
958.583	0.0137947
958.662	0.0137498
958.740	0.0140038
958.818	0.0138689
958.896	0.0139140
958.974	0.0138000
959.052	0.0139970
959.130	0.0139732
959.208	0.0139510
959.287	0.0138873
959.365	0.0139697
959.443	0.0139991
959.521	0.0140307
959.599	0.0138641
959.677	0.0138208
959.755	0.0138229
959.833	0.0139397
959.912	0.0138821
959.990	0.0137054
960.068	0.0139201
960.146	0.0138795
960.224	0.0140133
960.302	0.0138908
960.380	0.0137442
960.458	0.0138170
960.537	0.0139126
960.615	0.0138432
960.693	0.0139433
960.771	0.0139876
960.849	0.0140068
960.927	0.0138901
961.005	0.0138736
961.083	0.0139174
961.162	0.0139248
961.240	0.0139672
961.318	0.0141021
961.396	0.0139215
961.474	0.0138469
961.552	0.0138058
961.630	0.0139810
961.708	0.0139108
961.787	0.0137742
961.865	0.0140440
961.943	0.0139562
962.021	0.0138406
962.099	0.0137049
962.177	0.0138471
962.255	0.0139877
962.333	0.0138407
962.412	0.0137634
962.490	0.0139204
962.568	0.0138564
962.646	0.0140485
962.724	0.0140633
962.802	0.0139382
962.880	0.0139005
962.958	0.0140264
963.037	0.0140540
963.115	0.0138524
963.193	0.0138805
963.271	0.0137415
963.349	0.0138028
963.427	0.0138741
963.505	0.0138431
963.583	0.0138381
963.662	0.0138237
963.740	0.0137849
963.818	0.0136993
963.896	0.0136442
963.974	0.0138257
964.052	0.0138157
964.130	0.0138438
964.208	0.0137387
964.287	0.0138350
964.365	0.0139291
964.443	0.0139600
964.521	0.0139187
964.599	0.0138213
964.677	0.0138467
964.755	0.0138219
964.833	0.0139925
964.912	0.0139186
964.990	0.0139420
965.068	0.0138384
965.146	0.0140302
965.224	0.0138805
965.302	0.0136626
965.380	0.0138988
965.458	0.0137450
965.537	0.0138582
965.615	0.0139208
965.693	0.0139857
965.771	0.0139199
965.849	0.0139404
965.927	0.0138940
966.005	0.0138625
966.083	0.0139521
966.162	0.0137467
966.240	0.0137486
966.318	0.0137614
966.396	0.0139601
966.474	0.0137839
966.552	0.0137719
966.630	0.0137867
966.708	0.0137428
966.787	0.0138411
966.865	0.0138237
966.943	0.0137778
967.021	0.0137825
967.099	0.0137387
967.177	0.0138250
967.255	0.0138475
967.333	0.0137505
967.412	0.0137588
967.490	0.0138374
967.568	0.0138565
967.646	0.0138210
967.724	0.0138824
967.802	0.0139597
967.880	0.0138745
967.958	0.0139265
968.037	0.0139099
968.115	0.0138467
968.193	0.0138889
968.271	0.0139056
968.349	0.0138032
968.427	0.0138306
968.505	0.0138466
968.583	0.0138416
968.662	0.0138586
968.740	0.0136044
968.818	0.0136106
968.896	0.0138381
968.974	0.0137473
969.052	0.0137536
969.130	0.0137412
969.208	0.0136965
969.287	0.0137922
969.365	0.0137704
969.443	0.0137622
969.521	0.0138625
969.599	0.0137959
969.677	0.0139204
969.755	0.0138419
969.833	0.0139450
969.912	0.0138432
