05/08/2022	19:48:35	Ver.	4.1	UNKNOWN
Optical Delay	649.989667	Delta X		0.078125	Sweeps	1	Scan Rate	0/0
Coordinates	Axis 1	NaN	Axis 2	NaN	Axis 3	NaN	Axis 4	NaN	Axis 5	NaN	Axis 6	0.000000
TX Power	0.000000	RX Power	0.000000

649.990	0.0135151
650.068	0.0135125
650.146	0.0135921
650.224	0.0134832
650.302	0.0134649
650.380	0.0134839
650.458	0.0135030
650.537	0.0134673
650.615	0.0135480
650.693	0.0135507
650.771	0.0133768
650.849	0.0134400
650.927	0.0136450
651.005	0.0136632
651.083	0.0135464
651.162	0.0134950
651.240	0.0134839
651.318	0.0135500
651.396	0.0135672
651.474	0.0136285
651.552	0.0135503
651.630	0.0134773
651.708	0.0134681
651.787	0.0136752
651.865	0.0135639
651.943	0.0135648
652.021	0.0135435
652.099	0.0134050
652.177	0.0134795
652.255	0.0134946
652.333	0.0135571
652.412	0.0134868
652.490	0.0134483
652.568	0.0135690
652.646	0.0135514
652.724	0.0134580
652.802	0.0136684
652.880	0.0135173
652.958	0.0135180
653.037	0.0135472
653.115	0.0135804
653.193	0.0135002
653.271	0.0136427
653.349	0.0135675
653.427	0.0134386
653.505	0.0136247
653.583	0.0134885
653.662	0.0136303
653.740	0.0135894
653.818	0.0134441
653.896	0.0135385
653.974	0.0135960
654.052	0.0134505
654.130	0.0135267
654.208	0.0135066
654.287	0.0135812
654.365	0.0134361
654.443	0.0134021
654.521	0.0135436
654.599	0.0135460
654.677	0.0135733
654.755	0.0134138
654.833	0.0136803
654.912	0.0134428
654.990	0.0134966
655.068	0.0134972
655.146	0.0134944
655.224	0.0135519
655.302	0.0134695
655.380	0.0135163
655.458	0.0135712
655.537	0.0135374
655.615	0.0135219
655.693	0.0134959
655.771	0.0135481
655.849	0.0136183
655.927	0.0132790
656.005	0.0132300
656.083	0.0135602
656.162	0.0135301
656.240	0.0135403
656.318	0.0134912
656.396	0.0135310
656.474	0.0135445
656.552	0.0134929
656.630	0.0135175
656.708	0.0134727
656.787	0.0134930
656.865	0.0134827
656.943	0.0135651
657.021	0.0134451
657.099	0.0133408
657.177	0.0135394
657.255	0.0134897
657.333	0.0135047
657.412	0.0135331
657.490	0.0134436
657.568	0.0135669
657.646	0.0134975
657.724	0.0134304
657.802	0.0135327
657.880	0.0134699
657.958	0.0134031
658.037	0.0135636
658.115	0.0136686
658.193	0.0135943
658.271	0.0134795
658.349	0.0135718
658.427	0.0134991
658.505	0.0134422
658.583	0.0136419
658.662	0.0135542
658.740	0.0134492
658.818	0.0135916
658.896	0.0135120
658.974	0.0135824
659.052	0.0135558
659.130	0.0135435
659.208	0.0134359
659.287	0.0136643
659.365	0.0136398
659.443	0.0135034
659.521	0.0133835
659.599	0.0134240
659.677	0.0133951
659.755	0.0134048
659.833	0.0133618
659.912	0.0134458
659.990	0.0135247
660.068	0.0134679
660.146	0.0135468
660.224	0.0134380
660.302	0.0134924
660.380	0.0134447
660.458	0.0134315
660.537	0.0134578
660.615	0.0134436
660.693	0.0135651
660.771	0.0135259
660.849	0.0135045
660.927	0.0135881
661.005	0.0135495
661.083	0.0135040
661.162	0.0134830
661.240	0.0134924
661.318	0.0134873
661.396	0.0135723
661.474	0.0135823
661.552	0.0136631
661.630	0.0134911
661.708	0.0135969
661.787	0.0134836
661.865	0.0135686
661.943	0.0135343
662.021	0.0134234
662.099	0.0135856
662.177	0.0135560
662.255	0.0135354
662.333	0.0135259
662.412	0.0136228
662.490	0.0136221
662.568	0.0134665
662.646	0.0134869
662.724	0.0136655
662.802	0.0133963
662.880	0.0134966
662.958	0.0134084
663.037	0.0135132
663.115	0.0134138
663.193	0.0135904
663.271	0.0134888
663.349	0.0135110
663.427	0.0136390
663.505	0.0135703
663.583	0.0133015
663.662	0.0135704
663.740	0.0133150
663.818	0.0135806
663.896	0.0134860
663.974	0.0135123
664.052	0.0135591
664.130	0.0135694
664.208	0.0135099
664.287	0.0135304
664.365	0.0134326
664.443	0.0133033
664.521	0.0135750
664.599	0.0135474
664.677	0.0134844
664.755	0.0134917
664.833	0.0133603
664.912	0.0134422
664.990	0.0135529
665.068	0.0134622
665.146	0.0134254
665.224	0.0135409
665.302	0.0133967
665.380	0.0133956
665.458	0.0134888
665.537	0.0135084
665.615	0.0134727
665.693	0.0134085
665.771	0.0134608
665.849	0.0134961
665.927	0.0135780
666.005	0.0134344
666.083	0.0135952
666.162	0.0135654
666.240	0.0135960
666.318	0.0135954
666.396	0.0134016
666.474	0.0135297
666.552	0.0136131
666.630	0.0134325
666.708	0.0135366
666.787	0.0135745
666.865	0.0135355
666.943	0.0134469
667.021	0.0134610
667.099	0.0134460
667.177	0.0134410
667.255	0.0134829
667.333	0.0135629
667.412	0.0134313
667.490	0.0135973
667.568	0.0136453
667.646	0.0134548
667.724	0.0135334
667.802	0.0135380
667.880	0.0134047
667.958	0.0135084
668.037	0.0134270
668.115	0.0133183
668.193	0.0133917
668.271	0.0133802
668.349	0.0133443
668.427	0.0134991
668.505	0.0133802
668.583	0.0134128
668.662	0.0137001
668.740	0.0136195
668.818	0.0136623
668.896	0.0135349
668.974	0.0137332
669.052	0.0138345
669.130	0.0135093
669.208	0.0133857
669.287	0.0134491
669.365	0.0132713
669.443	0.0132478
669.521	0.0132600
669.599	0.0131399
669.677	0.0131007
669.755	0.0133304
669.833	0.0134460
669.912	0.0134547
669.990	0.0135875
670.068	0.0135498
670.146	0.0137964
670.224	0.0137535
670.302	0.0136769
670.380	0.0137023
670.458	0.0137871
670.537	0.0138533
670.615	0.0138205
670.693	0.0138128
670.771	0.0138450
670.849	0.0138570
670.927	0.0139439
671.005	0.0137344
671.083	0.0136860
671.162	0.0135422
671.240	0.0134494
671.318	0.0132519
671.396	0.0129617
671.474	0.0130178
671.552	0.0128585
671.630	0.0127271
671.708	0.0129287
671.787	0.0128899
671.865	0.0130750
671.943	0.0130918
672.021	0.0131663
672.099	0.0132802
672.177	0.0134133
672.255	0.0134515
672.333	0.0134775
672.412	0.0135713
672.490	0.0133582
672.568	0.0136265
672.646	0.0137201
672.724	0.0138493
672.802	0.0139460
672.880	0.0142273
672.958	0.0144286
673.037	0.0144996
673.115	0.0145287
673.193	0.0147308
673.271	0.0145434
673.349	0.0145483
673.427	0.0142474
673.505	0.0141390
673.583	0.0140379
673.662	0.0135806
673.740	0.0132831
673.818	0.0131337
673.896	0.0129056
673.974	0.0127435
674.052	0.0126970
674.130	0.0126308
674.208	0.0125474
674.287	0.0126190
674.365	0.0126995
674.443	0.0126385
674.521	0.0126097
674.599	0.0126496
674.677	0.0125450
674.755	0.0126775
674.833	0.0126046
674.912	0.0126307
674.990	0.0127254
675.068	0.0127893
675.146	0.0129687
675.224	0.0130775
675.302	0.0135678
675.380	0.0139700
675.458	0.0143784
675.537	0.0146806
675.615	0.0150988
675.693	0.0154998
675.771	0.0155861
675.849	0.0157631
675.927	0.0158884
676.005	0.0157988
676.083	0.0155217
676.162	0.0151728
676.240	0.0147794
676.318	0.0144499
676.396	0.0140704
676.474	0.0138743
676.552	0.0136771
676.630	0.0134799
676.708	0.0134719
676.787	0.0134018
676.865	0.0132108
676.943	0.0130737
677.021	0.0128776
677.099	0.0125398
677.177	0.0122490
677.255	0.0119121
677.333	0.0112681
677.412	0.0109470
677.490	0.0104155
677.568	0.0102895
677.646	0.0100889
677.724	0.0100822
677.802	0.0100286
677.880	0.0102269
677.958	0.0107174
678.037	0.0111523
678.115	0.0118705
678.193	0.0124700
678.271	0.0133836
678.349	0.0142068
678.427	0.0150205
678.505	0.0158976
678.583	0.0166114
678.662	0.0172242
678.740	0.0177989
678.818	0.0183428
678.896	0.0185574
678.974	0.0187011
679.052	0.0188594
679.130	0.0187289
679.208	0.0183878
679.287	0.0178564
679.365	0.0170827
679.443	0.0162016
679.521	0.0154108
679.599	0.0145413
679.677	0.0135744
679.755	0.0126372
679.833	0.0119473
679.912	0.0112062
679.990	0.0105328
680.068	0.0100018
680.146	0.00960587
680.224	0.00917786
680.302	0.00906456
680.380	0.00886719
680.458	0.00907547
680.537	0.00885963
680.615	0.00914452
680.693	0.00943954
680.771	0.00979736
680.849	0.0103510
680.927	0.0108982
681.005	0.0116594
681.083	0.0123190
681.162	0.0130289
681.240	0.0134142
681.318	0.0142025
681.396	0.0146301
681.474	0.0150825
681.552	0.0151592
681.630	0.0153014
681.708	0.0154374
681.787	0.0153300
681.865	0.0153847
681.943	0.0154091
682.021	0.0153822
682.099	0.0155138
682.177	0.0159131
682.255	0.0159693
682.333	0.0161526
682.412	0.0165195
682.490	0.0166677
682.568	0.0167272
682.646	0.0167484
682.724	0.0167204
682.802	0.0166792
682.880	0.0164033
682.958	0.0161124
683.037	0.0155192
683.115	0.0149587
683.193	0.0145277
683.271	0.0139796
683.349	0.0134160
683.427	0.0128697
683.505	0.0123467
683.583	0.0118121
683.662	0.0116877
683.740	0.0114465
683.818	0.0111600
683.896	0.0108983
683.974	0.0108066
684.052	0.0107825
684.130	0.0109347
684.208	0.0109431
684.287	0.0109596
684.365	0.0111398
684.443	0.0110080
684.521	0.0109505
684.599	0.0110082
684.677	0.0111090
684.755	0.0109295
684.833	0.0112897
684.912	0.0115525
684.990	0.0118650
685.068	0.0121831
685.146	0.0125702
685.224	0.0131136
685.302	0.0135258
685.380	0.0138114
685.458	0.0139465
685.537	0.0142175
685.615	0.0144933
685.693	0.0145448
685.771	0.0145605
685.849	0.0143821
685.927	0.0143840
686.005	0.0143606
686.083	0.0144646
686.162	0.0144020
686.240	0.0145123
686.318	0.0145950
686.396	0.0146085
686.474	0.0148095
686.552	0.0151237
686.630	0.0153049
686.708	0.0154739
686.787	0.0156931
686.865	0.0157880
686.943	0.0160304
687.021	0.0161604
687.099	0.0161443
687.177	0.0162856
687.255	0.0161797
687.333	0.0161165
687.412	0.0162811
687.490	0.0161683
687.568	0.0160323
687.646	0.0158007
687.724	0.0157427
687.802	0.0154342
687.880	0.0152602
687.958	0.0148282
688.037	0.0144051
688.115	0.0139188
688.193	0.0133873
688.271	0.0126199
688.349	0.0118137
688.427	0.0110891
688.505	0.0102484
688.583	0.00942024
688.662	0.00836594
688.740	0.00748611
688.818	0.00681686
688.896	0.00622208
688.974	0.00587753
689.052	0.00554337
689.130	0.00572678
689.208	0.00595467
689.287	0.00652695
689.365	0.00717003
689.443	0.00830894
689.521	0.00936165
689.599	0.0105357
689.677	0.0120042
689.755	0.0133767
689.833	0.0146947
689.912	0.0159708
689.990	0.0171609
690.068	0.0180089
690.146	0.0188603
690.224	0.0195413
690.302	0.0198263
690.380	0.0200005
690.458	0.0202518
690.537	0.0200647
690.615	0.0196771
690.693	0.0192957
690.771	0.0190971
690.849	0.0184243
690.927	0.0177329
691.005	0.0170461
691.083	0.0164244
691.162	0.0159641
691.240	0.0153168
691.318	0.0148062
691.396	0.0142756
691.474	0.0138191
691.552	0.0133599
691.630	0.0128671
691.708	0.0126407
691.787	0.0122959
691.865	0.0121416
691.943	0.0122037
692.021	0.0121147
692.099	0.0122551
692.177	0.0123982
692.255	0.0127183
692.333	0.0125063
692.412	0.0126434
692.490	0.0127370
692.568	0.0125885
692.646	0.0123621
692.724	0.0120735
692.802	0.0118857
692.880	0.0113072
692.958	0.0109030
693.037	0.0105994
693.115	0.0101624
693.193	0.0100392
693.271	0.0100200
693.349	0.00991852
693.427	0.00975342
693.505	0.00986351
693.583	0.00996475
693.662	0.00987999
693.740	0.00999939
693.818	0.0101579
693.896	0.0103486
693.974	0.0106516
694.052	0.0110024
694.130	0.0112883
694.208	0.0116559
694.287	0.0122758
694.365	0.0128568
694.443	0.0136002
694.521	0.0145815
694.599	0.0153873
694.677	0.0161646
694.755	0.0171703
694.833	0.0178457
694.912	0.0187614
694.990	0.0189947
695.068	0.0194385
695.146	0.0195193
695.224	0.0194769
695.302	0.0190050
695.380	0.0185320
695.458	0.0177583
695.537	0.0170513
695.615	0.0162476
695.693	0.0155392
695.771	0.0149356
695.849	0.0143240
695.927	0.0139529
696.005	0.0136282
696.083	0.0133231
696.162	0.0132629
696.240	0.0131596
696.318	0.0129829
696.396	0.0127038
696.474	0.0125153
696.552	0.0123286
696.630	0.0121443
696.708	0.0117574
696.787	0.0117329
696.865	0.0115565
696.943	0.0115579
697.021	0.0116260
697.099	0.0117844
697.177	0.0120807
697.255	0.0124666
697.333	0.0125167
697.412	0.0128512
697.490	0.0131992
697.568	0.0133749
697.646	0.0138037
697.724	0.0140559
697.802	0.0142282
697.880	0.0142886
697.958	0.0142867
698.037	0.0142451
698.115	0.0141155
698.193	0.0139290
698.271	0.0136755
698.349	0.0132825
698.427	0.0129284
698.505	0.0124939
698.583	0.0118745
698.662	0.0115204
698.740	0.0108490
698.818	0.0103455
698.896	0.0100912
698.974	0.00971817
699.052	0.00934792
699.130	0.00932877
699.208	0.00936539
699.287	0.00954346
699.365	0.00969330
699.443	0.0100648
699.521	0.0106500
699.599	0.0112862
699.677	0.0121655
699.755	0.0129082
699.833	0.0136532
699.912	0.0145992
699.990	0.0154095
700.068	0.0162471
700.146	0.0170233
700.224	0.0175539
700.302	0.0179626
700.380	0.0182358
700.458	0.0185200
700.537	0.0186275
700.615	0.0187192
700.693	0.0185940
700.771	0.0183511
700.849	0.0184009
700.927	0.0181233
701.005	0.0179087
701.083	0.0176086
701.162	0.0174112
701.240	0.0170290
701.318	0.0166783
701.396	0.0163025
701.474	0.0158851
701.552	0.0154955
701.630	0.0148611
701.708	0.0143070
701.787	0.0139983
701.865	0.0136285
701.943	0.0131329
702.021	0.0126518
702.099	0.0122105
702.177	0.0120168
702.255	0.0115865
702.333	0.0112476
702.412	0.0109641
702.490	0.0108606
702.568	0.0105829
702.646	0.0102653
702.724	0.0101180
702.802	0.0101390
702.880	0.0101116
702.958	0.0100372
703.037	0.0100728
703.115	0.0100310
703.193	0.0101038
703.271	0.0102515
703.349	0.0102952
703.427	0.0103382
703.505	0.0102995
703.583	0.0102627
703.662	0.0103311
703.740	0.0102929
703.818	0.0101876
703.896	0.0103848
703.974	0.0103858
704.052	0.0105256
704.130	0.0106647
704.208	0.0110728
704.287	0.0114259
704.365	0.0120470
704.443	0.0126331
704.521	0.0134826
704.599	0.0142445
704.677	0.0150779
704.755	0.0158594
704.833	0.0166158
704.912	0.0173284
704.990	0.0176614
705.068	0.0180882
705.146	0.0186588
705.224	0.0189062
705.302	0.0189551
705.380	0.0188667
705.458	0.0185241
705.537	0.0184425
705.615	0.0181205
705.693	0.0179525
705.771	0.0176981
705.849	0.0173993
705.927	0.0171982
706.005	0.0172296
706.083	0.0170293
706.162	0.0168851
706.240	0.0167397
706.318	0.0165166
706.396	0.0162926
706.474	0.0157826
706.552	0.0154478
706.630	0.0148003
706.708	0.0141179
706.787	0.0134571
706.865	0.0130346
706.943	0.0124880
707.021	0.0117979
707.099	0.0113554
707.177	0.0108231
707.255	0.0106728
707.333	0.0103513
707.412	0.0101461
707.490	0.00988808
707.568	0.00987869
707.646	0.00970467
707.724	0.00962761
707.802	0.00959145
707.880	0.00961601
707.958	0.00945251
708.037	0.00961136
708.115	0.00938713
708.193	0.00943253
708.271	0.00952805
708.349	0.00945801
708.427	0.00944557
708.505	0.00986610
708.583	0.0100466
708.662	0.0101879
708.740	0.0104039
708.818	0.0106107
708.896	0.0109402
708.974	0.0113908
709.052	0.0117161
709.130	0.0123003
709.208	0.0129424
709.287	0.0136607
709.365	0.0144216
709.443	0.0152067
709.521	0.0161170
709.599	0.0168948
709.677	0.0176868
709.755	0.0183887
709.833	0.0191029
709.912	0.0193234
709.990	0.0194723
710.068	0.0194311
710.146	0.0192803
710.224	0.0187566
710.302	0.0183039
710.380	0.0176340
710.458	0.0167887
710.537	0.0159889
710.615	0.0154840
710.693	0.0146747
710.771	0.0141628
710.849	0.0137837
710.927	0.0135437
711.005	0.0133047
711.083	0.0132562
711.162	0.0130706
711.240	0.0131286
711.318	0.0131834
711.396	0.0130241
711.474	0.0129974
711.552	0.0129105
711.630	0.0128722
711.708	0.0127953
711.787	0.0126768
711.865	0.0125766
711.943	0.0125093
712.021	0.0125130
712.099	0.0124940
712.177	0.0123953
712.255	0.0123974
712.333	0.0125137
712.412	0.0123358
712.490	0.0123698
712.568	0.0122483
712.646	0.0122467
712.724	0.0121861
712.802	0.0121307
712.880	0.0122442
712.958	0.0123190
713.037	0.0124481
713.115	0.0123737
713.193	0.0124149
713.271	0.0122622
713.349	0.0124660
713.427	0.0124435
713.505	0.0123557
713.583	0.0123380
713.662	0.0121817
713.740	0.0122556
713.818	0.0120817
713.896	0.0119473
713.974	0.0116831
714.052	0.0116386
714.130	0.0117896
714.208	0.0119866
714.287	0.0119962
714.365	0.0123175
714.443	0.0125346
714.521	0.0129420
714.599	0.0130532
714.677	0.0135328
714.755	0.0139986
714.833	0.0143151
714.912	0.0147390
714.990	0.0150732
715.068	0.0153056
715.146	0.0155431
715.224	0.0157736
715.302	0.0159179
715.380	0.0159261
715.458	0.0159004
715.537	0.0159574
715.615	0.0156597
715.693	0.0156663
715.771	0.0154915
715.849	0.0153844
715.927	0.0153239
716.005	0.0152071
716.083	0.0150134
716.162	0.0149625
716.240	0.0145570
716.318	0.0142200
716.396	0.0139615
716.474	0.0137031
716.552	0.0135764
716.630	0.0130817
716.708	0.0129806
716.787	0.0126471
716.865	0.0125076
716.943	0.0122119
717.021	0.0120589
717.099	0.0122006
717.177	0.0120109
717.255	0.0121292
717.333	0.0120705
717.412	0.0121482
717.490	0.0122636
717.568	0.0124203
717.646	0.0125701
717.724	0.0127463
717.802	0.0131597
717.880	0.0134892
717.958	0.0136793
718.037	0.0138301
718.115	0.0142378
718.193	0.0143458
718.271	0.0144302
718.349	0.0146864
718.427	0.0146806
718.505	0.0144637
718.583	0.0144308
718.662	0.0142805
718.740	0.0141740
718.818	0.0137705
718.896	0.0133465
718.974	0.0129865
719.052	0.0127524
719.130	0.0124254
719.208	0.0122469
719.287	0.0121378
719.365	0.0118021
719.443	0.0118499
719.521	0.0119075
719.599	0.0119930
719.677	0.0121084
719.755	0.0123781
719.833	0.0125903
719.912	0.0129249
719.990	0.0130724
720.068	0.0131407
720.146	0.0133030
720.224	0.0135139
720.302	0.0135579
720.380	0.0134743
720.458	0.0136596
720.537	0.0137952
720.615	0.0138269
720.693	0.0137897
720.771	0.0139304
720.849	0.0141711
720.927	0.0142206
721.005	0.0143304
721.083	0.0145090
721.162	0.0146643
721.240	0.0148348
721.318	0.0147359
721.396	0.0147519
721.474	0.0147651
721.552	0.0147025
721.630	0.0146867
721.708	0.0143780
721.787	0.0143920
721.865	0.0144602
721.943	0.0142844
722.021	0.0141367
722.099	0.0139815
722.177	0.0139767
722.255	0.0137501
722.333	0.0137502
722.412	0.0137281
722.490	0.0137053
722.568	0.0138383
722.646	0.0136972
722.724	0.0138601
722.802	0.0140201
722.880	0.0139919
722.958	0.0139518
723.037	0.0140678
723.115	0.0140171
723.193	0.0140358
723.271	0.0140764
723.349	0.0139137
723.427	0.0136810
723.505	0.0136174
723.583	0.0132483
723.662	0.0129912
723.740	0.0126646
723.818	0.0124951
723.896	0.0123170
723.974	0.0120585
724.052	0.0117589
724.130	0.0116508
724.208	0.0116449
724.287	0.0115591
724.365	0.0114859
724.443	0.0115983
724.521	0.0120171
724.599	0.0121899
724.677	0.0123864
724.755	0.0128394
724.833	0.0132199
724.912	0.0134845
724.990	0.0140052
725.068	0.0142133
725.146	0.0142673
725.224	0.0145741
725.302	0.0148502
725.380	0.0148997
725.458	0.0149337
725.537	0.0149932
725.615	0.0150276
725.693	0.0150655
725.771	0.0147591
725.849	0.0147623
725.927	0.0144971
726.005	0.0144688
726.083	0.0142760
726.162	0.0139127
726.240	0.0137164
726.318	0.0136328
726.396	0.0133972
726.474	0.0132085
726.552	0.0129586
726.630	0.0128745
726.708	0.0128199
726.787	0.0128070
726.865	0.0128154
726.943	0.0129057
727.021	0.0128801
727.099	0.0130901
727.177	0.0131750
727.255	0.0134060
727.333	0.0136027
727.412	0.0134467
727.490	0.0136778
727.568	0.0139165
727.646	0.0140335
727.724	0.0141226
727.802	0.0143080
727.880	0.0143002
727.958	0.0143860
728.037	0.0144392
728.115	0.0144762
728.193	0.0143081
728.271	0.0142120
728.349	0.0140346
728.427	0.0138271
728.505	0.0137448
728.583	0.0134848
728.662	0.0131488
728.740	0.0128350
728.818	0.0127387
728.896	0.0124735
728.974	0.0123097
729.052	0.0122443
729.130	0.0123253
729.208	0.0121461
729.287	0.0122330
729.365	0.0124528
729.443	0.0124831
729.521	0.0128320
729.599	0.0130199
729.677	0.0132050
729.755	0.0133512
729.833	0.0137497
729.912	0.0139187
729.990	0.0141167
730.068	0.0142476
730.146	0.0143452
730.224	0.0144531
730.302	0.0146165
730.380	0.0146807
730.458	0.0145821
730.537	0.0145885
730.615	0.0145585
730.693	0.0146553
730.771	0.0144064
730.849	0.0144710
730.927	0.0143576
731.005	0.0143187
731.083	0.0141856
731.162	0.0141383
731.240	0.0138725
731.318	0.0137756
731.396	0.0136739
731.474	0.0134913
731.552	0.0133310
731.630	0.0132996
731.708	0.0133098
731.787	0.0131088
731.865	0.0128651
731.943	0.0129420
732.021	0.0127438
732.099	0.0125746
732.177	0.0125843
732.255	0.0125175
732.333	0.0124023
732.412	0.0123543
732.490	0.0125394
732.568	0.0126415
732.646	0.0127305
732.724	0.0128368
732.802	0.0129366
732.880	0.0132074
732.958	0.0133133
733.037	0.0134460
733.115	0.0136346
733.193	0.0136829
733.271	0.0139968
733.349	0.0138230
733.427	0.0139924
733.505	0.0140045
733.583	0.0140257
733.662	0.0139690
733.740	0.0138342
733.818	0.0138882
733.896	0.0136111
733.974	0.0137432
734.052	0.0135822
734.130	0.0135436
734.208	0.0135192
734.287	0.0136333
734.365	0.0135857
734.443	0.0135741
734.521	0.0137571
734.599	0.0138425
734.677	0.0139333
734.755	0.0140056
734.833	0.0139324
734.912	0.0139204
734.990	0.0139895
735.068	0.0141010
735.146	0.0139764
735.224	0.0140475
735.302	0.0139490
735.380	0.0140764
735.458	0.0140139
735.537	0.0140254
735.615	0.0138702
735.693	0.0138769
735.771	0.0136855
735.849	0.0136165
735.927	0.0134558
736.005	0.0130798
736.083	0.0129729
736.162	0.0127020
736.240	0.0127346
736.318	0.0124104
736.396	0.0124255
736.474	0.0123103
736.552	0.0121209
736.630	0.0122564
736.708	0.0124631
736.787	0.0125052
736.865	0.0127458
736.943	0.0128652
737.021	0.0130580
737.099	0.0133135
737.177	0.0135297
737.255	0.0136957
737.333	0.0140225
737.412	0.0140845
737.490	0.0142866
737.568	0.0145135
737.646	0.0144711
737.724	0.0143541
737.802	0.0145652
737.880	0.0145775
737.958	0.0146006
738.037	0.0144478
738.115	0.0144893
738.193	0.0143010
738.271	0.0143609
738.349	0.0143005
738.427	0.0141412
738.505	0.0140891
738.583	0.0140062
738.662	0.0136114
738.740	0.0133564
738.818	0.0134345
738.896	0.0132125
738.974	0.0129014
739.052	0.0127707
739.130	0.0126040
739.208	0.0124998
739.287	0.0124817
739.365	0.0124554
739.443	0.0123768
739.521	0.0123093
739.599	0.0124371
739.677	0.0124458
739.755	0.0125555
739.833	0.0125880
739.912	0.0126814
739.990	0.0128302
740.068	0.0129417
740.146	0.0130131
740.224	0.0130863
740.302	0.0132510
740.380	0.0134581
740.458	0.0135526
740.537	0.0136722
740.615	0.0136938
740.693	0.0139936
740.771	0.0142638
740.849	0.0140441
740.927	0.0142554
741.005	0.0143429
741.083	0.0142586
741.162	0.0142525
741.240	0.0141696
741.318	0.0142633
741.396	0.0141561
741.474	0.0141312
741.552	0.0139447
741.630	0.0139171
741.708	0.0137508
741.787	0.0138370
741.865	0.0136552
741.943	0.0136168
742.021	0.0135896
742.099	0.0134857
742.177	0.0136247
742.255	0.0135307
742.333	0.0135043
742.412	0.0134143
742.490	0.0135772
742.568	0.0135586
742.646	0.0136823
742.724	0.0135329
742.802	0.0136372
742.880	0.0137276
742.958	0.0136857
743.037	0.0138144
743.115	0.0138103
743.193	0.0137208
743.271	0.0137445
743.349	0.0136778
743.427	0.0136530
743.505	0.0135377
743.583	0.0136614
743.662	0.0135051
743.740	0.0134303
743.818	0.0132378
743.896	0.0130677
743.974	0.0130431
744.052	0.0128418
744.130	0.0126538
744.208	0.0127452
744.287	0.0127194
744.365	0.0127389
744.443	0.0126929
744.521	0.0127126
744.599	0.0128980
744.677	0.0131062
744.755	0.0131794
744.833	0.0132674
744.912	0.0134341
744.990	0.0134636
745.068	0.0135571
745.146	0.0135975
745.224	0.0137292
745.302	0.0137873
745.380	0.0138830
745.458	0.0137667
745.537	0.0136588
745.615	0.0137891
745.693	0.0138244
745.771	0.0137709
745.849	0.0137412
745.927	0.0138569
746.005	0.0137047
746.083	0.0137294
746.162	0.0137776
746.240	0.0136909
746.318	0.0135581
746.396	0.0136395
746.474	0.0136866
746.552	0.0136665
746.630	0.0135561
746.708	0.0135845
746.787	0.0134987
746.865	0.0136443
746.943	0.0134970
747.021	0.0134753
747.099	0.0136672
747.177	0.0136073
747.255	0.0135815
747.333	0.0135294
747.412	0.0136234
747.490	0.0134910
747.568	0.0135316
747.646	0.0135744
747.724	0.0135505
747.802	0.0136119
747.880	0.0133955
747.958	0.0132835
748.037	0.0133348
748.115	0.0134469
748.193	0.0134715
748.271	0.0133114
748.349	0.0133669
748.427	0.0133801
748.505	0.0134679
748.583	0.0134084
748.662	0.0132703
748.740	0.0132910
748.818	0.0134069
748.896	0.0134134
748.974	0.0133688
749.052	0.0132865
749.130	0.0132339
749.208	0.0132128
749.287	0.0132718
749.365	0.0131531
749.443	0.0134473
749.521	0.0133678
749.599	0.0134704
749.677	0.0136582
749.755	0.0137910
749.833	0.0136841
749.912	0.0138789
749.990	0.0139819
750.068	0.0139689
750.146	0.0140418
750.224	0.0139799
750.302	0.0140729
750.380	0.0141058
750.458	0.0141853
750.537	0.0141305
750.615	0.0142198
750.693	0.0141650
750.771	0.0140971
750.849	0.0141008
750.927	0.0139579
751.005	0.0138063
751.083	0.0138130
751.162	0.0137346
751.240	0.0135096
751.318	0.0135433
751.396	0.0134727
751.474	0.0132414
751.552	0.0131554
751.630	0.0129938
751.708	0.0129058
751.787	0.0129919
751.865	0.0127081
751.943	0.0127551
752.021	0.0127500
752.099	0.0127641
752.177	0.0128052
752.255	0.0127790
752.333	0.0127914
752.412	0.0130489
752.490	0.0130853
752.568	0.0132166
752.646	0.0131886
752.724	0.0134814
752.802	0.0133791
752.880	0.0134852
752.958	0.0134203
753.037	0.0136079
753.115	0.0137180
753.193	0.0138322
753.271	0.0138223
753.349	0.0137323
753.427	0.0139977
753.505	0.0139442
753.583	0.0139222
753.662	0.0138732
753.740	0.0138576
753.818	0.0137704
753.896	0.0136814
753.974	0.0136338
754.052	0.0135423
754.130	0.0134912
754.208	0.0133867
754.287	0.0133930
754.365	0.0134579
754.443	0.0132397
754.521	0.0133364
754.599	0.0133179
754.677	0.0133365
754.755	0.0132982
754.833	0.0134547
754.912	0.0135686
754.990	0.0135764
755.068	0.0136815
755.146	0.0136890
755.224	0.0137001
755.302	0.0135873
755.380	0.0136132
755.458	0.0137370
755.537	0.0134808
755.615	0.0135337
755.693	0.0136980
755.771	0.0137896
755.849	0.0138791
755.927	0.0137446
756.005	0.0137639
756.083	0.0137643
756.162	0.0135822
756.240	0.0136874
756.318	0.0136861
756.396	0.0136594
756.474	0.0136446
756.552	0.0135357
756.630	0.0133930
756.708	0.0133286
756.787	0.0135070
756.865	0.0133302
756.943	0.0134025
757.021	0.0131718
757.099	0.0132305
757.177	0.0132368
757.255	0.0133107
757.333	0.0131936
757.412	0.0132829
757.490	0.0134152
757.568	0.0132223
757.646	0.0133389
757.724	0.0134355
757.802	0.0135512
757.880	0.0135264
757.958	0.0135316
758.037	0.0135938
758.115	0.0135843
758.193	0.0135739
758.271	0.0136816
758.349	0.0136413
758.427	0.0134615
758.505	0.0136779
758.583	0.0136285
758.662	0.0136176
758.740	0.0135540
758.818	0.0135077
758.896	0.0137162
758.974	0.0135529
759.052	0.0133657
759.130	0.0134977
759.208	0.0134801
759.287	0.0134026
759.365	0.0133515
759.443	0.0133508
759.521	0.0134509
759.599	0.0132501
759.677	0.0131974
759.755	0.0133208
759.833	0.0132539
759.912	0.0132746
759.990	0.0132787
760.068	0.0131606
760.146	0.0132587
760.224	0.0133064
760.302	0.0134827
760.380	0.0134150
760.458	0.0135271
760.537	0.0136273
760.615	0.0136188
760.693	0.0137527
760.771	0.0136814
760.849	0.0139831
760.927	0.0139052
761.005	0.0139108
761.083	0.0139291
761.162	0.0138924
761.240	0.0139749
761.318	0.0140081
761.396	0.0138684
761.474	0.0138148
761.552	0.0137945
761.630	0.0135799
761.708	0.0134963
761.787	0.0134402
761.865	0.0132973
761.943	0.0132269
762.021	0.0132002
762.099	0.0132649
762.177	0.0131976
762.255	0.0130490
762.333	0.0130259
762.412	0.0131524
762.490	0.0131715
762.568	0.0134031
762.646	0.0133323
762.724	0.0134358
762.802	0.0135458
762.880	0.0135979
762.958	0.0135893
763.037	0.0137653
763.115	0.0137914
763.193	0.0137415
763.271	0.0138423
763.349	0.0139037
763.427	0.0137806
763.505	0.0138486
763.583	0.0135859
763.662	0.0137727
763.740	0.0136931
763.818	0.0134688
763.896	0.0134906
763.974	0.0134294
764.052	0.0135117
764.130	0.0134920
764.208	0.0134101
764.287	0.0134704
764.365	0.0133813
764.443	0.0134621
764.521	0.0136184
764.599	0.0134576
764.677	0.0133898
764.755	0.0133327
764.833	0.0133705
764.912	0.0132357
764.990	0.0134606
765.068	0.0135391
765.146	0.0134624
765.224	0.0135065
765.302	0.0134015
765.380	0.0134516
765.458	0.0133830
765.537	0.0133561
765.615	0.0133914
765.693	0.0133987
765.771	0.0134396
765.849	0.0134707
765.927	0.0135497
766.005	0.0135178
766.083	0.0134653
766.162	0.0134812
766.240	0.0135545
766.318	0.0136124
766.396	0.0136369
766.474	0.0133942
766.552	0.0133627
766.630	0.0135224
766.708	0.0134785
766.787	0.0133685
766.865	0.0134164
766.943	0.0133640
767.021	0.0133100
767.099	0.0132784
767.177	0.0131323
767.255	0.0132361
767.333	0.0130904
767.412	0.0129137
767.490	0.0131184
767.568	0.0130929
767.646	0.0132104
767.724	0.0133387
767.802	0.0133419
767.880	0.0134067
767.958	0.0134081
768.037	0.0134795
768.115	0.0135174
768.193	0.0138264
768.271	0.0137735
768.349	0.0138094
768.427	0.0139396
768.505	0.0140263
768.583	0.0139843
768.662	0.0139417
768.740	0.0139419
768.818	0.0140945
768.896	0.0139604
768.974	0.0139583
769.052	0.0138030
769.130	0.0137376
769.208	0.0138425
769.287	0.0138208
769.365	0.0138136
769.443	0.0136958
769.521	0.0136478
769.599	0.0137615
769.677	0.0137048
769.755	0.0137353
769.833	0.0136443
769.912	0.0135354
769.990	0.0134477
770.068	0.0136351
770.146	0.0135906
770.224	0.0134293
770.302	0.0135471
770.380	0.0134570
770.458	0.0132121
770.537	0.0134069
770.615	0.0134218
770.693	0.0132767
770.771	0.0133824
770.849	0.0133499
770.927	0.0133787
771.005	0.0133522
771.083	0.0133977
771.162	0.0134640
771.240	0.0135445
771.318	0.0133386
771.396	0.0134019
771.474	0.0133925
771.552	0.0132327
771.630	0.0133739
771.708	0.0132915
771.787	0.0132968
771.865	0.0131463
771.943	0.0131945
772.021	0.0133592
772.099	0.0132195
772.177	0.0132243
772.255	0.0130806
772.333	0.0132106
772.412	0.0133294
772.490	0.0131885
772.568	0.0133727
772.646	0.0135693
772.724	0.0135345
772.802	0.0136100
772.880	0.0136958
772.958	0.0136426
773.037	0.0136555
773.115	0.0137713
773.193	0.0139358
773.271	0.0140044
773.349	0.0138103
773.427	0.0139207
773.505	0.0139691
773.583	0.0138474
773.662	0.0138054
773.740	0.0137326
773.818	0.0136996
773.896	0.0136586
773.974	0.0135664
774.052	0.0135297
774.130	0.0134959
774.208	0.0133325
774.287	0.0133998
774.365	0.0133475
774.443	0.0133110
774.521	0.0133052
774.599	0.0132969
774.677	0.0133645
774.755	0.0133652
774.833	0.0131689
774.912	0.0131972
774.990	0.0132839
775.068	0.0134531
775.146	0.0135190
775.224	0.0135762
775.302	0.0136161
775.380	0.0136401
775.458	0.0136324
775.537	0.0137087
775.615	0.0136414
775.693	0.0137446
775.771	0.0137127
775.849	0.0138048
775.927	0.0138405
776.005	0.0139099
776.083	0.0136886
776.162	0.0139016
776.240	0.0138947
776.318	0.0138287
776.396	0.0139022
776.474	0.0140124
776.552	0.0139729
776.630	0.0140024
776.708	0.0137566
776.787	0.0138019
776.865	0.0136445
776.943	0.0136192
777.021	0.0133775
777.099	0.0132968
777.177	0.0132788
777.255	0.0132162
777.333	0.0132074
777.412	0.0128954
777.490	0.0130630
777.568	0.0130367
777.646	0.0131290
777.724	0.0131463
777.802	0.0129572
777.880	0.0130647
777.958	0.0131549
778.037	0.0132828
778.115	0.0132881
778.193	0.0134750
778.271	0.0135181
778.349	0.0134931
778.427	0.0136644
778.505	0.0136298
778.583	0.0137683
778.662	0.0136887
778.740	0.0137252
778.818	0.0138715
778.896	0.0138586
778.974	0.0139606
779.052	0.0141268
779.130	0.0140775
779.208	0.0141554
779.287	0.0139223
779.365	0.0139895
779.443	0.0140440
779.521	0.0140939
779.599	0.0138564
779.677	0.0138818
779.755	0.0138414
779.833	0.0138255
779.912	0.0138072
779.990	0.0136897
780.068	0.0134134
780.146	0.0135167
780.224	0.0134752
780.302	0.0134153
780.380	0.0132971
780.458	0.0133788
780.537	0.0132635
780.615	0.0133585
780.693	0.0132983
780.771	0.0134655
780.849	0.0133454
780.927	0.0133774
781.005	0.0134325
781.083	0.0135413
781.162	0.0134657
781.240	0.0136366
781.318	0.0135811
781.396	0.0136026
781.474	0.0135666
781.552	0.0137098
781.630	0.0137813
781.708	0.0136449
781.787	0.0136152
781.865	0.0137499
781.943	0.0134389
782.021	0.0135078
782.099	0.0135484
782.177	0.0136172
782.255	0.0134498
782.333	0.0134922
782.412	0.0135114
782.490	0.0134401
782.568	0.0134726
782.646	0.0135218
782.724	0.0135397
782.802	0.0135587
782.880	0.0136452
782.958	0.0136683
783.037	0.0135888
783.115	0.0136944
783.193	0.0137684
783.271	0.0137401
783.349	0.0138086
783.427	0.0137861
783.505	0.0138985
783.583	0.0139101
783.662	0.0139811
783.740	0.0137826
783.818	0.0137986
783.896	0.0138084
783.974	0.0137798
784.052	0.0137987
784.130	0.0137161
784.208	0.0135802
784.287	0.0135876
784.365	0.0136481
784.443	0.0134296
784.521	0.0134377
784.599	0.0134845
784.677	0.0135610
784.755	0.0136478
784.833	0.0133825
784.912	0.0133852
784.990	0.0134725
785.068	0.0134453
785.146	0.0134431
785.224	0.0133982
785.302	0.0133272
785.380	0.0134475
785.458	0.0132732
785.537	0.0132350
785.615	0.0132204
785.693	0.0133416
785.771	0.0133003
785.849	0.0132111
785.927	0.0131146
786.005	0.0131909
786.083	0.0130933
786.162	0.0131367
786.240	0.0131302
786.318	0.0131373
786.396	0.0130757
786.474	0.0131760
786.552	0.0132213
786.630	0.0132942
786.708	0.0134594
786.787	0.0133463
786.865	0.0134496
786.943	0.0134631
787.021	0.0135854
787.099	0.0136704
787.177	0.0138254
787.255	0.0137968
787.333	0.0138103
787.412	0.0137854
787.490	0.0139564
787.568	0.0140937
787.646	0.0139468
787.724	0.0139908
787.802	0.0141260
787.880	0.0141537
787.958	0.0141039
788.037	0.0141965
788.115	0.0141815
788.193	0.0140424
788.271	0.0139645
788.349	0.0138321
788.427	0.0138262
788.505	0.0136536
788.583	0.0136334
788.662	0.0135979
788.740	0.0134823
788.818	0.0134250
788.896	0.0133755
788.974	0.0132738
789.052	0.0132753
789.130	0.0132249
789.208	0.0132531
789.287	0.0132602
789.365	0.0131963
789.443	0.0133408
789.521	0.0133465
789.599	0.0134042
789.677	0.0133071
789.755	0.0133658
789.833	0.0134176
789.912	0.0133621
789.990	0.0133159
790.068	0.0133221
790.146	0.0134212
790.224	0.0135433
790.302	0.0135047
790.380	0.0136208
790.458	0.0137893
790.537	0.0136474
790.615	0.0136162
790.693	0.0136520
790.771	0.0136768
790.849	0.0138583
790.927	0.0137835
791.005	0.0137916
791.083	0.0137836
791.162	0.0137406
791.240	0.0137469
791.318	0.0135906
791.396	0.0135548
791.474	0.0137054
791.552	0.0136729
791.630	0.0135570
791.708	0.0135120
791.787	0.0134646
791.865	0.0135509
791.943	0.0134045
792.021	0.0135216
792.099	0.0134212
792.177	0.0135064
792.255	0.0133993
792.333	0.0133828
792.412	0.0135359
792.490	0.0133369
792.568	0.0133878
792.646	0.0134890
792.724	0.0135235
792.802	0.0135032
792.880	0.0135403
792.958	0.0136312
793.037	0.0135338
793.115	0.0136760
793.193	0.0134982
793.271	0.0136447
793.349	0.0136732
793.427	0.0136174
793.505	0.0134941
793.583	0.0136825
793.662	0.0138153
793.740	0.0138267
793.818	0.0139104
793.896	0.0137567
793.974	0.0137391
794.052	0.0137613
794.130	0.0137176
794.208	0.0138160
794.287	0.0138227
794.365	0.0137863
794.443	0.0138226
794.521	0.0136086
794.599	0.0136172
794.677	0.0136938
794.755	0.0137051
794.833	0.0137070
794.912	0.0136951
794.990	0.0135893
795.068	0.0134878
795.146	0.0133032
795.224	0.0133532
795.302	0.0131593
795.380	0.0132108
795.458	0.0131218
795.537	0.0130739
795.615	0.0130699
795.693	0.0130299
795.771	0.0130740
795.849	0.0130479
795.927	0.0130402
796.005	0.0130298
796.083	0.0132442
796.162	0.0132291
796.240	0.0133414
796.318	0.0133167
796.396	0.0133645
796.474	0.0134226
796.552	0.0134811
796.630	0.0134861
796.708	0.0135151
796.787	0.0135030
796.865	0.0135997
796.943	0.0135870
797.021	0.0135516
797.099	0.0136290
797.177	0.0136778
797.255	0.0137241
797.333	0.0137634
797.412	0.0138795
797.490	0.0138300
797.568	0.0138937
797.646	0.0139569
797.724	0.0140025
797.802	0.0140405
797.880	0.0140057
797.958	0.0139295
798.037	0.0139384
798.115	0.0138734
798.193	0.0138691
798.271	0.0137656
798.349	0.0138392
798.427	0.0138944
798.505	0.0136382
798.583	0.0136640
798.662	0.0137092
798.740	0.0135491
798.818	0.0135748
798.896	0.0136398
798.974	0.0135033
799.052	0.0135079
799.130	0.0133324
799.208	0.0134846
799.287	0.0133852
799.365	0.0133035
799.443	0.0134261
799.521	0.0132661
799.599	0.0131888
799.677	0.0132298
799.755	0.0129853
799.833	0.0131223
799.912	0.0132330
799.990	0.0130240
800.068	0.0130029
800.146	0.0129994
800.224	0.0130052
800.302	0.0128938
800.380	0.0131105
800.458	0.0129477
800.537	0.0130547
800.615	0.0130746
800.693	0.0131272
800.771	0.0130590
800.849	0.0130125
800.927	0.0130781
801.005	0.0131825
801.083	0.0132352
801.162	0.0132906
801.240	0.0132787
801.318	0.0134439
801.396	0.0135355
801.474	0.0135268
801.552	0.0136977
801.630	0.0138805
801.708	0.0139423
801.787	0.0139798
801.865	0.0141198
801.943	0.0139514
802.021	0.0140723
802.099	0.0142255
802.177	0.0141309
802.255	0.0141577
802.333	0.0142724
802.412	0.0142132
802.490	0.0142510
802.568	0.0143015
802.646	0.0142773
802.724	0.0142781
802.802	0.0141691
802.880	0.0140565
802.958	0.0140153
803.037	0.0140316
803.115	0.0141552
803.193	0.0140318
803.271	0.0141127
803.349	0.0139094
803.427	0.0139625
803.505	0.0136620
803.583	0.0137566
803.662	0.0137008
803.740	0.0137835
803.818	0.0135712
803.896	0.0136546
803.974	0.0134808
804.052	0.0134342
804.130	0.0134844
804.208	0.0133970
804.287	0.0133892
804.365	0.0133293
804.443	0.0133315
804.521	0.0132190
804.599	0.0131952
804.677	0.0131772
804.755	0.0131268
804.833	0.0131293
804.912	0.0131606
804.990	0.0132155
805.068	0.0129941
805.146	0.0129790
805.224	0.0131583
805.302	0.0131258
805.380	0.0132705
805.458	0.0132676
805.537	0.0133575
805.615	0.0135426
805.693	0.0133769
805.771	0.0133929
805.849	0.0135819
805.927	0.0137423
806.005	0.0137392
806.083	0.0137568
806.162	0.0137979
806.240	0.0137215
806.318	0.0136652
806.396	0.0137206
806.474	0.0136597
806.552	0.0136206
806.630	0.0135051
806.708	0.0135262
806.787	0.0134685
806.865	0.0135069
806.943	0.0134406
807.021	0.0133949
807.099	0.0134385
807.177	0.0133482
807.255	0.0132637
807.333	0.0133479
807.412	0.0134479
807.490	0.0136028
807.568	0.0135460
807.646	0.0136118
807.724	0.0136253
807.802	0.0136304
807.880	0.0135870
807.958	0.0134448
808.037	0.0137807
808.115	0.0138078
808.193	0.0136208
808.271	0.0137010
808.349	0.0136991
808.427	0.0137073
808.505	0.0136419
808.583	0.0138236
808.662	0.0139900
808.740	0.0138981
808.818	0.0138992
808.896	0.0139594
808.974	0.0140181
809.052	0.0138726
809.130	0.0139554
809.208	0.0138095
809.287	0.0138535
809.365	0.0139040
809.443	0.0137613
809.521	0.0136257
809.599	0.0135619
809.677	0.0135213
809.755	0.0135177
809.833	0.0133273
809.912	0.0133064
809.990	0.0132925
810.068	0.0132619
810.146	0.0131176
810.224	0.0131510
810.302	0.0132616
810.380	0.0131882
810.458	0.0131581
810.537	0.0130582
810.615	0.0131179
810.693	0.0132407
810.771	0.0130957
810.849	0.0132398
810.927	0.0131464
811.005	0.0131197
811.083	0.0132146
811.162	0.0132722
811.240	0.0132650
811.318	0.0132532
811.396	0.0134457
811.474	0.0134544
811.552	0.0134323
811.630	0.0136145
811.708	0.0136571
811.787	0.0137946
811.865	0.0138201
811.943	0.0137579
812.021	0.0137357
812.099	0.0138096
812.177	0.0140456
812.255	0.0138924
812.333	0.0139350
812.412	0.0138831
812.490	0.0139806
812.568	0.0139748
812.646	0.0139909
812.724	0.0139676
812.802	0.0138850
812.880	0.0137894
812.958	0.0139193
813.037	0.0137977
813.115	0.0136817
813.193	0.0136866
813.271	0.0137082
813.349	0.0136528
813.427	0.0136755
813.505	0.0136161
813.583	0.0134869
813.662	0.0136304
813.740	0.0134303
813.818	0.0135876
813.896	0.0135546
813.974	0.0135829
814.052	0.0136274
814.130	0.0132944
814.208	0.0134957
814.287	0.0135797
814.365	0.0135353
814.443	0.0134625
814.521	0.0134309
814.599	0.0133393
814.677	0.0134779
814.755	0.0133881
814.833	0.0133137
814.912	0.0133244
814.990	0.0133821
815.068	0.0133321
815.146	0.0133467
815.224	0.0132476
815.302	0.0132588
815.380	0.0132804
815.458	0.0133890
815.537	0.0132563
815.615	0.0130751
815.693	0.0132633
815.771	0.0132915
815.849	0.0131403
815.927	0.0131961
816.005	0.0131204
816.083	0.0132189
816.162	0.0132155
816.240	0.0132259
816.318	0.0132954
816.396	0.0133533
816.474	0.0133935
816.552	0.0133790
816.630	0.0134467
816.708	0.0134942
816.787	0.0135865
816.865	0.0135055
816.943	0.0135500
817.021	0.0136937
817.099	0.0136269
817.177	0.0137036
817.255	0.0138298
817.333	0.0137522
817.412	0.0136970
817.490	0.0137433
817.568	0.0136424
817.646	0.0136922
817.724	0.0137050
817.802	0.0136130
817.880	0.0135559
817.958	0.0135586
818.037	0.0133609
818.115	0.0133016
818.193	0.0133459
818.271	0.0134940
818.349	0.0135149
818.427	0.0133153
818.505	0.0134947
818.583	0.0133725
818.662	0.0135464
818.740	0.0135414
818.818	0.0136096
818.896	0.0136644
818.974	0.0136614
819.052	0.0136372
819.130	0.0137193
819.208	0.0136417
819.287	0.0135956
819.365	0.0137554
819.443	0.0136703
819.521	0.0136222
819.599	0.0135193
819.677	0.0136739
819.755	0.0135228
819.833	0.0135527
819.912	0.0134370
819.990	0.0134778
820.068	0.0134164
820.146	0.0134017
820.224	0.0133591
820.302	0.0133140
820.380	0.0131683
820.458	0.0133268
820.537	0.0133175
820.615	0.0134017
820.693	0.0132804
820.771	0.0133797
820.849	0.0133244
820.927	0.0133810
821.005	0.0132598
821.083	0.0134046
821.162	0.0134933
821.240	0.0135361
821.318	0.0133922
821.396	0.0134060
821.474	0.0134341
821.552	0.0134255
821.630	0.0135879
821.708	0.0135081
821.787	0.0134499
821.865	0.0135174
821.943	0.0135455
822.021	0.0135789
822.099	0.0134394
822.177	0.0135303
822.255	0.0135052
822.333	0.0137139
822.412	0.0134607
822.490	0.0134724
822.568	0.0134980
822.646	0.0135323
822.724	0.0134833
822.802	0.0135096
822.880	0.0133782
822.958	0.0135503
823.037	0.0136698
823.115	0.0134467
823.193	0.0134673
823.271	0.0134314
823.349	0.0133808
823.427	0.0134003
823.505	0.0134431
823.583	0.0134807
823.662	0.0134578
823.740	0.0134901
823.818	0.0135184
823.896	0.0136157
823.974	0.0136608
824.052	0.0136745
824.130	0.0136889
824.208	0.0137275
824.287	0.0137772
824.365	0.0138213
824.443	0.0138642
824.521	0.0138229
824.599	0.0138229
824.677	0.0138522
824.755	0.0137756
824.833	0.0136484
824.912	0.0138480
824.990	0.0138202
825.068	0.0137489
825.146	0.0136909
825.224	0.0135173
825.302	0.0135904
825.380	0.0136681
825.458	0.0136316
825.537	0.0137106
825.615	0.0136343
825.693	0.0136266
825.771	0.0135548
825.849	0.0135986
825.927	0.0134742
826.005	0.0135368
826.083	0.0136684
826.162	0.0134768
826.240	0.0134951
826.318	0.0136162
826.396	0.0134028
826.474	0.0134893
826.552	0.0135235
826.630	0.0136009
826.708	0.0134270
826.787	0.0134606
826.865	0.0133727
826.943	0.0135255
827.021	0.0134499
827.099	0.0135711
827.177	0.0134776
827.255	0.0135886
827.333	0.0134633
827.412	0.0135178
827.490	0.0136188
827.568	0.0134603
827.646	0.0135416
827.724	0.0136062
827.802	0.0134846
827.880	0.0136021
827.958	0.0135150
828.037	0.0134946
828.115	0.0136874
828.193	0.0135123
828.271	0.0135806
828.349	0.0137251
828.427	0.0135011
828.505	0.0135585
828.583	0.0135481
828.662	0.0134954
828.740	0.0135403
828.818	0.0135159
828.896	0.0135917
828.974	0.0135904
829.052	0.0136589
829.130	0.0134975
829.208	0.0135554
829.287	0.0134985
829.365	0.0135411
829.443	0.0135334
829.521	0.0135276
829.599	0.0135828
829.677	0.0135839
829.755	0.0135516
829.833	0.0136642
829.912	0.0134452
829.990	0.0135835
830.068	0.0134766
830.146	0.0134556
830.224	0.0134478
830.302	0.0136314
830.380	0.0133967
830.458	0.0132787
830.537	0.0133945
830.615	0.0134393
830.693	0.0134824
830.771	0.0132817
830.849	0.0133945
830.927	0.0134695
831.005	0.0133717
831.083	0.0134507
831.162	0.0133958
831.240	0.0133717
831.318	0.0134762
831.396	0.0134168
831.474	0.0134656
831.552	0.0135265
831.630	0.0134351
831.708	0.0135184
831.787	0.0135025
831.865	0.0136864
831.943	0.0135477
832.021	0.0135648
832.099	0.0134399
832.177	0.0134007
832.255	0.0135250
832.333	0.0134132
832.412	0.0135518
832.490	0.0134844
832.568	0.0135626
832.646	0.0135477
832.724	0.0135578
832.802	0.0135252
832.880	0.0134787
832.958	0.0134521
833.037	0.0134719
833.115	0.0134811
833.193	0.0136048
833.271	0.0134769
833.349	0.0134998
833.427	0.0134904
833.505	0.0135399
833.583	0.0136233
833.662	0.0133955
833.740	0.0135551
833.818	0.0136893
833.896	0.0136922
833.974	0.0135092
834.052	0.0135493
834.130	0.0135754
834.208	0.0135769
834.287	0.0134529
834.365	0.0134762
834.443	0.0135023
834.521	0.0135629
834.599	0.0134801
834.677	0.0135719
834.755	0.0135355
834.833	0.0134663
834.912	0.0134523
834.990	0.0134836
835.068	0.0134569
835.146	0.0135410
835.224	0.0134057
835.302	0.0133978
835.380	0.0133263
835.458	0.0133924
835.537	0.0134802
835.615	0.0134518
835.693	0.0134380
835.771	0.0135807
835.849	0.0134088
835.927	0.0134810
836.005	0.0134736
836.083	0.0133389
836.162	0.0134113
836.240	0.0134270
836.318	0.0134519
836.396	0.0134081
836.474	0.0134260
836.552	0.0134626
836.630	0.0135682
836.708	0.0134433
836.787	0.0134322
836.865	0.0135153
836.943	0.0135195
837.021	0.0136167
837.099	0.0136562
837.177	0.0134779
837.255	0.0135480
837.333	0.0136060
837.412	0.0137581
837.490	0.0135695
837.568	0.0136580
837.646	0.0136794
837.724	0.0135673
837.802	0.0136263
837.880	0.0135107
837.958	0.0136859
838.037	0.0134899
838.115	0.0135598
838.193	0.0137948
838.271	0.0136839
838.349	0.0137323
838.427	0.0134753
838.505	0.0135754
838.583	0.0136508
838.662	0.0136299
838.740	0.0138134
838.818	0.0136339
838.896	0.0136564
838.974	0.0136336
839.052	0.0136317
839.130	0.0136123
839.208	0.0136027
839.287	0.0134913
839.365	0.0136147
839.443	0.0135131
839.521	0.0135189
839.599	0.0135656
839.677	0.0135861
839.755	0.0135358
839.833	0.0136179
839.912	0.0134330
839.990	0.0136127
840.068	0.0135536
840.146	0.0134882
840.224	0.0135693
840.302	0.0137030
840.380	0.0136488
840.458	0.0132932
840.537	0.0133997
840.615	0.0135029
840.693	0.0135007
840.771	0.0134022
840.849	0.0135780
840.927	0.0135368
841.005	0.0133171
841.083	0.0133163
841.162	0.0134062
841.240	0.0133243
841.318	0.0132969
841.396	0.0131606
841.474	0.0130862
841.552	0.0131140
841.630	0.0131983
841.708	0.0132518
841.787	0.0131086
841.865	0.0131154
841.943	0.0132295
842.021	0.0131847
842.099	0.0133109
842.177	0.0133353
842.255	0.0134889
842.333	0.0135150
842.412	0.0134952
842.490	0.0134912
842.568	0.0135442
842.646	0.0136562
842.724	0.0136316
842.802	0.0136460
842.880	0.0135585
842.958	0.0136813
843.037	0.0136407
843.115	0.0137689
843.193	0.0136536
843.271	0.0136687
843.349	0.0136588
843.427	0.0135691
843.505	0.0135113
843.583	0.0137063
843.662	0.0136922
843.740	0.0135308
843.818	0.0135886
843.896	0.0136899
843.974	0.0137043
844.052	0.0135490
844.130	0.0138046
844.208	0.0136900
844.287	0.0137495
844.365	0.0135897
844.443	0.0136561
844.521	0.0136322
844.599	0.0136763
844.677	0.0136075
844.755	0.0135748
844.833	0.0133841
844.912	0.0136021
844.990	0.0135001
845.068	0.0135330
845.146	0.0134579
845.224	0.0134492
845.302	0.0134396
845.380	0.0133875
845.458	0.0133352
845.537	0.0134907
845.615	0.0134132
845.693	0.0133260
845.771	0.0133892
845.849	0.0133277
845.927	0.0133147
846.005	0.0133041
846.083	0.0133566
846.162	0.0133356
846.240	0.0133563
846.318	0.0134135
846.396	0.0132779
846.474	0.0133602
846.552	0.0132759
846.630	0.0131679
846.708	0.0131860
846.787	0.0133692
846.865	0.0134556
846.943	0.0133487
847.021	0.0132976
847.099	0.0133572
847.177	0.0134402
847.255	0.0134674
847.333	0.0134276
847.412	0.0135056
847.490	0.0134384
847.568	0.0134857
847.646	0.0136552
847.724	0.0135395
847.802	0.0133382
847.880	0.0135509
847.958	0.0135168
848.037	0.0136855
848.115	0.0135532
848.193	0.0136453
848.271	0.0135284
848.349	0.0136713
848.427	0.0136556
848.505	0.0136412
848.583	0.0137006
848.662	0.0137399
848.740	0.0136504
848.818	0.0137401
848.896	0.0136535
848.974	0.0137040
849.052	0.0136376
849.130	0.0137298
849.208	0.0137346
849.287	0.0137776
849.365	0.0137257
849.443	0.0137718
849.521	0.0137539
849.599	0.0137434
849.677	0.0137646
849.755	0.0137498
849.833	0.0134867
849.912	0.0134068
849.990	0.0134219
850.068	0.0133627
850.146	0.0133194
850.224	0.0133328
850.302	0.0132256
850.380	0.0133147
850.458	0.0132027
850.537	0.0132407
850.615	0.0131834
850.693	0.0133114
850.771	0.0131500
850.849	0.0132589
850.927	0.0131304
851.005	0.0132458
851.083	0.0131602
851.162	0.0132147
851.240	0.0133326
851.318	0.0134021
851.396	0.0133222
851.474	0.0133113
851.552	0.0134155
851.630	0.0133900
851.708	0.0135745
851.787	0.0135341
851.865	0.0135702
851.943	0.0135564
852.021	0.0134042
852.099	0.0135676
852.177	0.0136797
852.255	0.0136140
852.333	0.0136507
852.412	0.0136244
852.490	0.0136327
852.568	0.0136243
852.646	0.0136636
852.724	0.0137522
852.802	0.0136052
852.880	0.0136383
852.958	0.0137382
853.037	0.0137634
853.115	0.0136530
853.193	0.0135821
853.271	0.0137860
853.349	0.0136780
853.427	0.0137063
853.505	0.0137871
853.583	0.0137411
853.662	0.0136671
853.740	0.0136395
853.818	0.0137062
853.896	0.0137316
853.974	0.0136414
854.052	0.0136034
854.130	0.0135983
854.208	0.0134803
854.287	0.0135465
854.365	0.0134667
854.443	0.0134306
854.521	0.0135075
854.599	0.0134278
854.677	0.0134827
854.755	0.0134930
854.833	0.0134350
854.912	0.0133252
854.990	0.0133224
855.068	0.0133897
855.146	0.0133371
855.224	0.0132412
855.302	0.0132700
855.380	0.0131661
855.458	0.0133009
855.537	0.0134328
855.615	0.0133431
855.693	0.0133763
855.771	0.0131985
855.849	0.0133904
855.927	0.0134924
856.005	0.0134887
856.083	0.0134184
856.162	0.0135873
856.240	0.0136896
856.318	0.0135213
856.396	0.0134671
856.474	0.0134895
856.552	0.0135215
856.630	0.0134403
856.708	0.0136590
856.787	0.0135403
856.865	0.0135241
856.943	0.0135247
857.021	0.0134435
857.099	0.0134517
857.177	0.0133876
857.255	0.0136358
857.333	0.0135885
857.412	0.0135995
857.490	0.0134816
857.568	0.0136067
857.646	0.0136337
857.724	0.0135133
857.802	0.0136312
857.880	0.0135971
857.958	0.0136443
858.037	0.0135670
858.115	0.0136530
858.193	0.0137824
858.271	0.0136882
858.349	0.0136103
858.427	0.0134896
858.505	0.0137000
858.583	0.0138311
858.662	0.0135321
858.740	0.0133319
858.818	0.0135326
858.896	0.0135821
858.974	0.0136551
859.052	0.0135661
859.130	0.0133981
859.208	0.0133662
859.287	0.0134583
859.365	0.0133342
859.443	0.0133158
859.521	0.0134001
859.599	0.0132980
859.677	0.0133650
859.755	0.0132975
859.833	0.0133464
859.912	0.0134970
859.990	0.0134692
860.068	0.0135746
860.146	0.0135760
860.224	0.0134570
860.302	0.0135789
860.380	0.0136340
860.458	0.0135352
860.537	0.0136198
860.615	0.0137650
860.693	0.0137330
860.771	0.0135783
860.849	0.0136752
860.927	0.0138133
861.005	0.0135550
861.083	0.0137571
861.162	0.0136164
861.240	0.0136536
861.318	0.0136338
861.396	0.0136378
861.474	0.0136008
861.552	0.0135262
861.630	0.0136217
861.708	0.0136637
861.787	0.0136345
861.865	0.0136282
861.943	0.0135626
862.021	0.0134869
862.099	0.0134663
862.177	0.0134977
862.255	0.0133943
862.333	0.0134882
862.412	0.0134398
862.490	0.0135131
862.568	0.0134642
862.646	0.0136241
862.724	0.0134610
862.802	0.0134748
862.880	0.0136994
862.958	0.0135931
863.037	0.0137103
863.115	0.0136684
863.193	0.0136430
863.271	0.0137273
863.349	0.0135994
863.427	0.0135360
863.505	0.0136864
863.583	0.0135388
863.662	0.0135732
863.740	0.0137688
863.818	0.0135091
863.896	0.0134280
863.974	0.0135356
864.052	0.0134697
864.130	0.0135529
864.208	0.0135641
864.287	0.0134886
864.365	0.0134081
864.443	0.0133539
864.521	0.0135544
864.599	0.0135104
864.677	0.0134189
864.755	0.0134843
864.833	0.0135866
864.912	0.0135648
864.990	0.0135484
865.068	0.0134927
865.146	0.0135258
865.224	0.0135757
865.302	0.0135937
865.380	0.0136182
865.458	0.0134951
865.537	0.0134554
865.615	0.0135559
865.693	0.0135004
865.771	0.0135356
865.849	0.0134574
865.927	0.0136053
866.005	0.0135270
866.083	0.0134983
866.162	0.0136510
866.240	0.0134185
866.318	0.0134689
866.396	0.0134957
866.474	0.0134159
866.552	0.0134471
866.630	0.0133643
866.708	0.0135255
866.787	0.0134826
866.865	0.0134486
866.943	0.0135742
867.021	0.0135767
867.099	0.0133921
867.177	0.0136108
867.255	0.0136310
867.333	0.0136501
867.412	0.0138178
867.490	0.0138213
867.568	0.0138451
867.646	0.0138506
867.724	0.0139189
867.802	0.0137444
867.880	0.0137088
867.958	0.0136270
868.037	0.0137107
868.115	0.0138137
868.193	0.0135478
868.271	0.0136507
868.349	0.0136505
868.427	0.0135018
868.505	0.0135105
868.583	0.0133787
868.662	0.0134143
868.740	0.0133886
868.818	0.0134064
868.896	0.0133911
868.974	0.0132609
869.052	0.0132932
869.130	0.0134523
869.208	0.0131092
869.287	0.0131764
869.365	0.0131733
869.443	0.0132711
869.521	0.0131001
869.599	0.0131170
869.677	0.0132950
869.755	0.0133045
869.833	0.0134495
869.912	0.0133450
869.990	0.0134751
870.068	0.0134576
870.146	0.0137077
870.224	0.0136750
870.302	0.0137498
870.380	0.0139252
870.458	0.0140428
870.537	0.0140209
870.615	0.0140288
870.693	0.0139367
870.771	0.0140758
870.849	0.0140879
870.927	0.0140686
871.005	0.0139704
871.083	0.0139832
871.162	0.0137548
871.240	0.0140151
871.318	0.0138997
871.396	0.0136510
871.474	0.0134521
871.552	0.0134088
871.630	0.0133312
871.708	0.0132845
871.787	0.0131696
871.865	0.0132720
871.943	0.0130539
872.021	0.0130067
872.099	0.0129574
872.177	0.0130071
872.255	0.0129720
872.333	0.0130579
872.412	0.0130684
872.490	0.0130798
872.568	0.0133040
872.646	0.0132611
872.724	0.0133504
872.802	0.0135034
872.880	0.0134344
872.958	0.0138051
873.037	0.0137457
873.115	0.0138002
873.193	0.0138865
873.271	0.0139219
873.349	0.0140661
873.427	0.0140543
873.505	0.0139636
873.583	0.0137296
873.662	0.0137159
873.740	0.0137380
873.818	0.0135948
873.896	0.0135786
873.974	0.0136420
874.052	0.0135320
874.130	0.0135618
874.208	0.0133350
874.287	0.0134650
874.365	0.0134185
874.443	0.0135475
874.521	0.0133673
874.599	0.0135414
874.677	0.0135694
874.755	0.0135345
874.833	0.0135071
874.912	0.0134317
874.990	0.0134920
875.068	0.0136093
875.146	0.0132939
875.224	0.0134261
875.302	0.0133160
875.380	0.0132258
875.458	0.0133722
875.537	0.0135130
875.615	0.0133723
875.693	0.0133858
875.771	0.0135605
875.849	0.0135172
875.927	0.0135295
876.005	0.0136044
876.083	0.0137657
876.162	0.0135950
876.240	0.0135693
876.318	0.0135835
876.396	0.0135477
876.474	0.0134933
876.552	0.0136979
876.630	0.0136280
876.708	0.0135381
876.787	0.0135841
876.865	0.0135270
876.943	0.0134823
877.021	0.0136140
877.099	0.0135587
877.177	0.0135659
877.255	0.0134777
877.333	0.0134888
877.412	0.0134550
877.490	0.0135123
877.568	0.0134856
877.646	0.0134276
877.724	0.0136790
877.802	0.0136382
877.880	0.0137535
877.958	0.0136112
878.037	0.0137861
878.115	0.0138185
878.193	0.0138712
878.271	0.0137615
878.349	0.0138590
878.427	0.0140276
878.505	0.0140410
878.583	0.0139986
878.662	0.0138334
878.740	0.0137889
878.818	0.0138055
878.896	0.0137077
878.974	0.0135877
879.052	0.0135294
879.130	0.0135149
879.208	0.0135035
879.287	0.0134612
879.365	0.0132483
879.443	0.0133258
879.521	0.0133452
879.599	0.0133295
879.677	0.0133475
879.755	0.0132992
879.833	0.0134196
879.912	0.0133831
879.990	0.0134594
880.068	0.0135276
880.146	0.0134584
880.224	0.0133401
880.302	0.0132938
880.380	0.0134493
880.458	0.0132986
880.537	0.0133556
880.615	0.0132285
880.693	0.0132916
880.771	0.0131642
880.849	0.0133157
880.927	0.0131857
881.005	0.0132550
881.083	0.0133456
881.162	0.0132941
881.240	0.0133511
881.318	0.0134941
881.396	0.0134583
881.474	0.0135697
881.552	0.0137260
881.630	0.0137338
881.708	0.0137582
881.787	0.0139451
881.865	0.0139152
881.943	0.0140801
882.021	0.0140939
882.099	0.0140063
882.177	0.0141143
882.255	0.0140419
882.333	0.0140022
882.412	0.0139349
882.490	0.0139149
882.568	0.0139767
882.646	0.0139222
882.724	0.0137742
882.802	0.0137666
882.880	0.0138120
882.958	0.0138118
883.037	0.0138193
883.115	0.0135329
883.193	0.0134517
883.271	0.0134888
883.349	0.0133611
883.427	0.0132343
883.505	0.0132213
883.583	0.0132156
883.662	0.0132636
883.740	0.0133357
883.818	0.0132054
883.896	0.0133054
883.974	0.0134499
884.052	0.0135007
884.130	0.0134547
884.208	0.0134451
884.287	0.0134116
884.365	0.0135025
884.443	0.0135324
884.521	0.0135002
884.599	0.0134986
884.677	0.0136562
884.755	0.0133884
884.833	0.0133977
884.912	0.0132747
884.990	0.0133756
885.068	0.0133850
885.146	0.0133195
885.224	0.0133390
885.302	0.0133949
885.380	0.0133258
885.458	0.0133647
885.537	0.0134415
885.615	0.0133404
885.693	0.0133887
885.771	0.0132967
885.849	0.0134103
885.927	0.0134685
886.005	0.0132456
886.083	0.0133530
886.162	0.0134698
886.240	0.0136199
886.318	0.0135030
886.396	0.0136501
886.474	0.0139637
886.552	0.0137735
886.630	0.0138618
886.708	0.0139962
886.787	0.0139481
886.865	0.0139314
886.943	0.0139354
887.021	0.0140057
887.099	0.0139079
887.177	0.0139154
887.255	0.0138224
887.333	0.0137620
887.412	0.0136955
887.490	0.0138435
887.568	0.0136562
887.646	0.0136718
887.724	0.0136433
887.802	0.0135478
887.880	0.0135403
887.958	0.0134974
888.037	0.0136458
888.115	0.0136252
888.193	0.0135138
888.271	0.0133636
888.349	0.0134660
888.427	0.0134319
888.505	0.0133798
888.583	0.0134706
888.662	0.0133517
888.740	0.0134750
888.818	0.0132985
888.896	0.0134216
888.974	0.0135735
889.052	0.0133074
889.130	0.0134308
889.208	0.0135568
889.287	0.0136971
889.365	0.0137672
889.443	0.0136131
889.521	0.0137389
889.599	0.0138397
889.677	0.0137798
889.755	0.0137218
889.833	0.0137656
889.912	0.0134957
889.990	0.0134507
890.068	0.0135555
890.146	0.0132014
890.224	0.0133350
890.302	0.0132749
890.380	0.0129626
890.458	0.0129302
890.537	0.0130494
890.615	0.0129092
890.693	0.0129015
890.771	0.0128225
890.849	0.0128916
890.927	0.0131740
891.005	0.0130559
891.083	0.0131901
891.162	0.0131447
891.240	0.0135449
891.318	0.0135899
891.396	0.0136925
891.474	0.0137875
891.552	0.0138510
891.630	0.0140295
891.708	0.0141925
891.787	0.0142023
891.865	0.0143434
891.943	0.0142213
892.021	0.0142764
892.099	0.0142843
892.177	0.0141763
892.255	0.0142935
892.333	0.0141591
892.412	0.0140141
892.490	0.0139267
892.568	0.0139407
892.646	0.0138908
892.724	0.0136914
892.802	0.0137495
892.880	0.0136533
892.958	0.0136795
893.037	0.0135337
893.115	0.0132695
893.193	0.0133710
893.271	0.0133910
893.349	0.0134152
893.427	0.0132856
893.505	0.0132330
893.583	0.0131884
893.662	0.0131658
893.740	0.0131023
893.818	0.0129440
893.896	0.0132136
893.974	0.0132449
894.052	0.0131265
894.130	0.0131972
894.208	0.0132148
894.287	0.0130795
894.365	0.0132622
894.443	0.0132156
894.521	0.0133890
894.599	0.0133982
894.677	0.0133731
894.755	0.0134765
894.833	0.0135949
894.912	0.0134866
894.990	0.0136072
895.068	0.0136371
895.146	0.0136299
895.224	0.0136761
895.302	0.0134780
895.380	0.0136518
895.458	0.0135912
895.537	0.0135616
895.615	0.0134547
895.693	0.0134733
895.771	0.0134589
895.849	0.0133682
895.927	0.0134953
896.005	0.0136038
896.083	0.0135770
896.162	0.0136158
896.240	0.0136373
896.318	0.0137206
896.396	0.0137496
896.474	0.0138130
896.552	0.0138174
896.630	0.0137452
896.708	0.0138261
896.787	0.0139420
896.865	0.0139554
896.943	0.0137914
897.021	0.0138542
897.099	0.0137891
897.177	0.0137751
897.255	0.0135020
897.333	0.0136781
897.412	0.0135542
897.490	0.0134206
897.568	0.0133857
897.646	0.0135178
897.724	0.0134491
897.802	0.0134318
897.880	0.0133691
897.958	0.0134653
898.037	0.0133790
898.115	0.0135493
898.193	0.0134303
898.271	0.0133662
898.349	0.0135040
898.427	0.0134203
898.505	0.0134047
898.583	0.0132907
898.662	0.0134043
898.740	0.0134246
898.818	0.0132926
898.896	0.0131820
898.974	0.0134087
899.052	0.0132185
899.130	0.0133651
899.208	0.0134389
899.287	0.0133839
899.365	0.0134802
899.443	0.0134412
899.521	0.0134959
899.599	0.0136412
899.677	0.0134859
899.755	0.0135435
899.833	0.0134048
899.912	0.0134496
899.990	0.0133974
900.068	0.0135200
900.146	0.0135349
900.224	0.0133589
900.302	0.0134183
900.380	0.0134801
900.458	0.0133857
900.537	0.0134199
900.615	0.0133397
900.693	0.0132417
900.771	0.0132999
900.849	0.0133714
900.927	0.0135134
901.005	0.0133703
901.083	0.0132328
901.162	0.0133762
901.240	0.0134799
901.318	0.0135258
901.396	0.0135601
901.474	0.0136292
901.552	0.0136528
901.630	0.0136814
901.708	0.0137572
901.787	0.0137202
901.865	0.0138137
901.943	0.0136106
902.021	0.0136556
902.099	0.0136977
902.177	0.0137289
902.255	0.0137183
902.333	0.0134837
902.412	0.0135062
902.490	0.0134906
902.568	0.0134593
902.646	0.0135069
902.724	0.0135387
902.802	0.0136812
902.880	0.0136902
902.958	0.0136874
903.037	0.0136088
903.115	0.0138078
903.193	0.0138251
903.271	0.0137821
903.349	0.0137490
903.427	0.0136411
903.505	0.0135616
903.583	0.0135915
903.662	0.0134541
903.740	0.0135315
903.818	0.0134354
903.896	0.0133383
903.974	0.0132488
904.052	0.0133516
904.130	0.0134982
904.208	0.0133720
904.287	0.0133486
904.365	0.0133846
904.443	0.0132867
904.521	0.0134660
904.599	0.0133933
904.677	0.0134271
904.755	0.0133244
904.833	0.0133762
904.912	0.0135555
904.990	0.0135587
905.068	0.0132133
905.146	0.0132814
905.224	0.0133940
905.302	0.0134711
905.380	0.0133865
905.458	0.0133649
905.537	0.0132495
905.615	0.0131654
905.693	0.0133525
905.771	0.0133134
905.849	0.0132934
905.927	0.0133408
906.005	0.0134361
906.083	0.0134071
906.162	0.0134814
906.240	0.0135456
906.318	0.0134667
906.396	0.0137156
906.474	0.0136986
906.552	0.0136964
906.630	0.0138493
906.708	0.0142125
906.787	0.0139969
906.865	0.0139117
906.943	0.0139406
907.021	0.0140279
907.099	0.0140875
907.177	0.0140434
907.255	0.0140404
907.333	0.0140609
907.412	0.0139371
907.490	0.0138329
907.568	0.0138822
907.646	0.0138929
907.724	0.0138560
907.802	0.0137547
907.880	0.0136880
907.958	0.0136803
908.037	0.0135077
908.115	0.0134397
908.193	0.0134669
908.271	0.0132963
908.349	0.0133739
908.427	0.0132661
908.505	0.0132765
908.583	0.0133325
908.662	0.0133551
908.740	0.0132245
908.818	0.0133530
908.896	0.0133896
908.974	0.0133318
909.052	0.0134352
909.130	0.0133620
909.208	0.0133038
909.287	0.0134602
909.365	0.0136580
909.443	0.0136060
909.521	0.0135732
909.599	0.0136610
909.677	0.0137024
909.755	0.0137826
909.833	0.0136887
909.912	0.0137403
909.990	0.0137413
910.068	0.0137207
910.146	0.0137974
910.224	0.0136857
910.302	0.0136364
910.380	0.0136862
910.458	0.0135973
910.537	0.0135141
910.615	0.0135509
910.693	0.0134582
910.771	0.0133233
910.849	0.0134780
910.927	0.0133612
911.005	0.0132172
911.083	0.0132742
911.162	0.0133717
911.240	0.0134856
911.318	0.0133191
911.396	0.0132963
911.474	0.0136150
911.552	0.0136199
911.630	0.0135944
911.708	0.0134938
911.787	0.0136163
911.865	0.0134859
911.943	0.0136281
912.021	0.0136819
912.099	0.0136686
912.177	0.0135344
912.255	0.0135240
912.333	0.0135530
912.412	0.0135862
912.490	0.0135779
912.568	0.0136411
912.646	0.0134344
912.724	0.0135779
912.802	0.0134068
912.880	0.0133487
912.958	0.0135209
913.037	0.0135828
913.115	0.0134915
913.193	0.0134875
913.271	0.0135908
913.349	0.0132552
913.427	0.0133535
913.505	0.0135333
913.583	0.0135504
913.662	0.0136714
913.740	0.0135832
913.818	0.0136129
913.896	0.0135576
913.974	0.0136689
914.052	0.0136433
914.130	0.0137796
914.208	0.0137148
914.287	0.0138397
914.365	0.0138618
914.443	0.0136850
914.521	0.0137057
914.599	0.0136035
914.677	0.0135598
914.755	0.0135194
914.833	0.0135559
914.912	0.0136505
914.990	0.0134088
915.068	0.0134391
915.146	0.0133151
915.224	0.0134420
915.302	0.0132397
915.380	0.0132517
915.458	0.0131241
915.537	0.0131173
915.615	0.0131557
915.693	0.0129527
915.771	0.0130385
915.849	0.0130070
915.927	0.0130599
916.005	0.0130473
916.083	0.0130413
916.162	0.0130478
916.240	0.0130861
916.318	0.0131348
916.396	0.0132507
916.474	0.0131707
916.552	0.0132354
916.630	0.0134702
916.708	0.0133871
916.787	0.0134364
916.865	0.0134875
916.943	0.0136826
917.021	0.0135224
917.099	0.0135703
917.177	0.0136607
917.255	0.0137617
917.333	0.0137715
917.412	0.0136639
917.490	0.0138509
917.568	0.0137783
917.646	0.0136904
917.724	0.0137428
917.802	0.0139153
917.880	0.0138802
917.958	0.0137553
918.037	0.0135479
918.115	0.0137095
918.193	0.0136120
918.271	0.0136254
918.349	0.0136024
918.427	0.0135504
918.505	0.0135211
918.583	0.0135548
918.662	0.0135411
918.740	0.0134984
918.818	0.0135431
918.896	0.0134168
918.974	0.0136115
919.052	0.0135284
919.130	0.0134470
919.208	0.0135074
919.287	0.0134216
919.365	0.0135108
919.443	0.0135575
919.521	0.0134609
919.599	0.0134544
919.677	0.0135042
919.755	0.0134518
919.833	0.0135467
919.912	0.0135126
919.990	0.0135007
920.068	0.0135349
920.146	0.0134409
920.224	0.0136624
920.302	0.0135528
920.380	0.0135757
920.458	0.0136210
920.537	0.0136356
920.615	0.0135836
920.693	0.0135331
920.771	0.0134689
920.849	0.0134751
920.927	0.0134113
921.005	0.0133025
921.083	0.0134443
921.162	0.0133150
921.240	0.0135052
921.318	0.0133315
921.396	0.0132674
921.474	0.0134814
921.552	0.0134398
921.630	0.0135405
921.708	0.0135295
921.787	0.0135421
921.865	0.0135339
921.943	0.0134432
922.021	0.0135445
922.099	0.0135160
922.177	0.0134238
922.255	0.0135937
922.333	0.0135460
922.412	0.0135483
922.490	0.0135117
922.568	0.0135613
922.646	0.0136461
922.724	0.0136431
922.802	0.0137630
922.880	0.0136957
922.958	0.0136607
923.037	0.0135897
923.115	0.0136343
923.193	0.0136595
923.271	0.0137138
923.349	0.0137517
923.427	0.0135502
923.505	0.0136077
923.583	0.0137160
923.662	0.0136135
923.740	0.0136015
923.818	0.0134658
923.896	0.0135174
923.974	0.0133523
924.052	0.0133598
924.130	0.0134702
924.208	0.0133995
924.287	0.0133741
924.365	0.0135074
924.443	0.0133728
924.521	0.0134559
924.599	0.0134085
924.677	0.0134100
924.755	0.0135462
924.833	0.0137385
924.912	0.0137002
924.990	0.0135335
925.068	0.0136698
925.146	0.0137707
925.224	0.0137063
925.302	0.0135324
925.380	0.0135975
925.458	0.0137372
925.537	0.0136716
925.615	0.0136480
925.693	0.0137431
925.771	0.0137275
925.849	0.0135201
925.927	0.0134803
926.005	0.0135282
926.083	0.0135246
926.162	0.0135290
926.240	0.0135010
926.318	0.0135001
926.396	0.0133802
926.474	0.0134492
926.552	0.0133978
926.630	0.0133846
926.708	0.0133499
926.787	0.0133545
926.865	0.0132185
926.943	0.0133887
927.021	0.0132976
927.099	0.0131428
927.177	0.0133649
927.255	0.0132678
927.333	0.0132040
927.412	0.0133682
927.490	0.0132544
927.568	0.0132640
927.646	0.0132634
927.724	0.0133826
927.802	0.0132612
927.880	0.0133237
927.958	0.0132896
928.037	0.0131917
928.115	0.0132341
928.193	0.0134427
928.271	0.0133627
928.349	0.0134978
928.427	0.0134884
928.505	0.0134438
928.583	0.0136156
928.662	0.0137212
928.740	0.0138015
928.818	0.0136837
928.896	0.0138593
928.974	0.0138645
929.052	0.0138492
929.130	0.0138567
929.208	0.0140301
929.287	0.0140068
929.365	0.0138367
929.443	0.0139294
929.521	0.0139398
929.599	0.0138282
929.677	0.0138342
929.755	0.0138181
929.833	0.0137321
929.912	0.0134789
929.990	0.0135865
930.068	0.0134077
930.146	0.0133643
930.224	0.0134432
930.302	0.0134184
930.380	0.0131982
930.458	0.0133018
930.537	0.0132864
930.615	0.0132883
930.693	0.0132742
930.771	0.0133237
930.849	0.0133851
930.927	0.0133089
931.005	0.0132181
931.083	0.0133712
931.162	0.0133882
931.240	0.0134737
931.318	0.0134865
931.396	0.0136156
931.474	0.0137407
931.552	0.0136539
931.630	0.0135767
931.708	0.0137872
931.787	0.0138296
931.865	0.0138873
931.943	0.0137428
932.021	0.0138250
932.099	0.0138747
932.177	0.0138259
932.255	0.0137051
932.333	0.0137225
932.412	0.0137493
932.490	0.0136285
932.568	0.0134912
932.646	0.0135260
932.724	0.0133775
932.802	0.0133922
932.880	0.0133731
932.958	0.0133274
933.037	0.0133320
933.115	0.0132263
933.193	0.0131701
933.271	0.0133613
933.349	0.0131232
933.427	0.0133524
933.505	0.0132848
933.583	0.0133913
933.662	0.0133474
933.740	0.0133765
933.818	0.0134378
933.896	0.0133656
933.974	0.0135110
934.052	0.0133936
934.130	0.0135702
934.208	0.0135706
934.287	0.0135554
934.365	0.0137387
934.443	0.0136144
934.521	0.0136924
934.599	0.0136925
934.677	0.0138541
934.755	0.0138405
934.833	0.0139056
934.912	0.0138751
934.990	0.0137489
935.068	0.0135796
935.146	0.0138004
935.224	0.0137276
935.302	0.0136795
935.380	0.0136106
935.458	0.0136906
935.537	0.0137305
935.615	0.0136346
935.693	0.0134702
935.771	0.0134945
935.849	0.0134346
935.927	0.0135018
936.005	0.0134523
936.083	0.0135146
936.162	0.0135590
936.240	0.0133975
936.318	0.0134402
936.396	0.0135087
936.474	0.0135098
936.552	0.0135571
936.630	0.0135239
936.708	0.0136179
936.787	0.0135687
936.865	0.0135152
936.943	0.0136774
937.021	0.0134550
937.099	0.0136379
937.177	0.0135281
937.255	0.0135427
937.333	0.0134082
937.412	0.0134401
937.490	0.0134432
937.568	0.0134101
937.646	0.0132560
937.724	0.0133685
937.802	0.0131999
937.880	0.0131589
937.958	0.0132008
938.037	0.0131516
938.115	0.0131551
938.193	0.0131908
938.271	0.0132257
938.349	0.0132264
938.427	0.0132848
938.505	0.0134885
938.583	0.0134829
938.662	0.0134504
938.740	0.0134270
938.818	0.0136107
938.896	0.0135725
938.974	0.0136169
939.052	0.0135338
939.130	0.0136025
939.208	0.0136134
939.287	0.0134975
939.365	0.0137125
939.443	0.0136765
939.521	0.0135514
939.599	0.0138026
939.677	0.0136565
939.755	0.0135070
939.833	0.0135896
939.912	0.0136025
939.990	0.0135066
940.068	0.0134746
940.146	0.0134951
940.224	0.0135911
940.302	0.0134550
940.380	0.0134647
940.458	0.0136311
940.537	0.0135191
940.615	0.0134129
940.693	0.0134743
940.771	0.0134609
940.849	0.0135304
940.927	0.0133128
941.005	0.0133748
941.083	0.0135538
941.162	0.0135583
941.240	0.0134484
941.318	0.0133532
941.396	0.0132795
941.474	0.0134109
941.552	0.0133755
941.630	0.0134530
941.708	0.0134473
941.787	0.0133210
941.865	0.0134113
941.943	0.0134514
942.021	0.0134755
942.099	0.0136810
942.177	0.0135899
942.255	0.0135166
942.333	0.0135230
942.412	0.0135389
942.490	0.0136037
942.568	0.0136404
942.646	0.0135926
942.724	0.0135029
942.802	0.0136029
942.880	0.0135851
942.958	0.0135162
943.037	0.0135715
943.115	0.0135464
943.193	0.0133826
943.271	0.0132424
943.349	0.0133823
943.427	0.0133115
943.505	0.0132616
943.583	0.0132349
943.662	0.0133588
943.740	0.0132442
943.818	0.0131811
943.896	0.0133634
943.974	0.0133820
944.052	0.0133888
944.130	0.0134395
944.208	0.0134524
944.287	0.0135697
944.365	0.0134837
944.443	0.0134883
944.521	0.0135415
944.599	0.0135983
944.677	0.0136759
944.755	0.0135682
944.833	0.0136697
944.912	0.0137381
944.990	0.0137127
945.068	0.0137526
945.146	0.0137546
945.224	0.0137100
945.302	0.0135870
945.380	0.0137125
945.458	0.0137035
945.537	0.0135544
945.615	0.0136977
945.693	0.0136725
945.771	0.0136351
945.849	0.0136555
945.927	0.0135633
946.005	0.0134380
946.083	0.0133337
946.162	0.0132830
946.240	0.0133589
946.318	0.0134154
946.396	0.0134203
946.474	0.0133983
946.552	0.0133639
946.630	0.0133417
946.708	0.0133701
946.787	0.0134923
946.865	0.0133588
946.943	0.0134860
947.021	0.0135292
947.099	0.0134647
947.177	0.0136147
947.255	0.0135193
947.333	0.0136191
947.412	0.0135658
947.490	0.0135928
947.568	0.0135879
947.646	0.0136355
947.724	0.0136269
947.802	0.0136504
947.880	0.0135946
947.958	0.0136653
948.037	0.0135279
948.115	0.0136075
948.193	0.0135757
948.271	0.0133683
948.349	0.0134806
948.427	0.0134299
948.505	0.0135185
948.583	0.0135950
948.662	0.0133671
948.740	0.0132590
948.818	0.0134277
948.896	0.0133062
948.974	0.0133573
949.052	0.0134068
949.130	0.0134177
949.208	0.0132256
949.287	0.0134593
949.365	0.0135690
949.443	0.0134487
949.521	0.0136293
949.599	0.0135164
949.677	0.0135538
949.755	0.0136149
949.833	0.0136646
949.912	0.0136727
949.990	0.0135979
950.068	0.0137044
950.146	0.0136275
950.224	0.0136189
950.302	0.0136292
950.380	0.0136345
950.458	0.0135789
950.537	0.0134685
950.615	0.0136790
950.693	0.0135165
950.771	0.0134928
950.849	0.0133771
950.927	0.0134713
951.005	0.0134510
951.083	0.0135376
951.162	0.0134576
951.240	0.0134848
951.318	0.0134494
951.396	0.0133631
951.474	0.0133164
951.552	0.0135473
951.630	0.0134644
951.708	0.0133607
951.787	0.0135796
951.865	0.0133157
951.943	0.0133380
952.021	0.0134530
952.099	0.0133954
952.177	0.0134917
952.255	0.0135547
952.333	0.0134214
952.412	0.0134888
952.490	0.0135320
952.568	0.0134027
952.646	0.0135593
952.724	0.0136204
952.802	0.0135821
952.880	0.0135586
952.958	0.0135969
953.037	0.0134155
953.115	0.0136368
953.193	0.0135686
953.271	0.0135768
953.349	0.0136239
953.427	0.0135145
953.505	0.0134041
953.583	0.0133616
953.662	0.0134224
953.740	0.0134647
953.818	0.0136572
953.896	0.0135002
953.974	0.0134161
954.052	0.0136070
954.130	0.0136379
954.208	0.0135638
954.287	0.0137337
954.365	0.0137020
954.443	0.0137940
954.521	0.0135045
954.599	0.0137611
954.677	0.0136568
954.755	0.0137431
954.833	0.0138519
954.912	0.0136095
954.990	0.0136324
955.068	0.0137381
955.146	0.0135583
955.224	0.0134831
955.302	0.0134154
955.380	0.0134019
955.458	0.0133889
955.537	0.0134460
955.615	0.0133335
955.693	0.0133240
955.771	0.0133323
955.849	0.0133442
955.927	0.0134174
956.005	0.0133984
956.083	0.0133389
956.162	0.0134699
956.240	0.0133935
956.318	0.0135062
956.396	0.0134749
956.474	0.0133184
956.552	0.0135369
956.630	0.0135583
956.708	0.0135860
956.787	0.0136875
956.865	0.0135533
956.943	0.0135854
957.021	0.0135586
957.099	0.0136934
957.177	0.0136293
957.255	0.0135954
957.333	0.0136198
957.412	0.0135878
957.490	0.0136199
957.568	0.0135821
957.646	0.0135974
957.724	0.0137049
957.802	0.0136079
957.880	0.0136244
957.958	0.0135508
958.037	0.0135090
958.115	0.0136632
958.193	0.0135944
958.271	0.0135669
958.349	0.0135388
958.427	0.0135411
958.505	0.0136832
958.583	0.0134264
958.662	0.0134076
958.740	0.0135430
958.818	0.0134852
958.896	0.0134407
958.974	0.0134975
959.052	0.0135223
959.130	0.0134951
959.208	0.0134645
959.287	0.0133820
959.365	0.0133990
959.443	0.0134485
959.521	0.0135548
959.599	0.0134586
959.677	0.0134965
959.755	0.0135761
959.833	0.0135818
959.912	0.0136449
959.990	0.0136155
960.068	0.0137319
960.146	0.0137213
960.224	0.0136433
960.302	0.0135983
960.380	0.0135516
960.458	0.0136338
960.537	0.0136378
960.615	0.0135182
960.693	0.0135513
960.771	0.0136665
960.849	0.0135374
960.927	0.0134827
961.005	0.0134926
961.083	0.0134787
961.162	0.0135623
961.240	0.0135392
961.318	0.0134911
961.396	0.0135333
961.474	0.0136420
961.552	0.0136731
961.630	0.0135680
961.708	0.0135833
961.787	0.0135610
961.865	0.0135856
961.943	0.0136169
962.021	0.0135272
962.099	0.0133800
962.177	0.0133978
962.255	0.0134682
962.333	0.0135856
962.412	0.0134809
962.490	0.0134245
962.568	0.0134470
962.646	0.0134209
962.724	0.0133703
962.802	0.0134657
962.880	0.0136058
962.958	0.0134254
963.037	0.0135385
963.115	0.0135396
963.193	0.0134011
963.271	0.0135378
963.349	0.0135554
963.427	0.0134875
963.505	0.0135575
963.583	0.0135316
963.662	0.0135723
963.740	0.0134125
963.818	0.0134237
963.896	0.0133923
963.974	0.0133739
964.052	0.0134760
964.130	0.0134321
964.208	0.0136325
964.287	0.0134635
964.365	0.0135473
964.443	0.0136792
964.521	0.0136023
964.599	0.0137330
964.677	0.0135853
964.755	0.0135755
964.833	0.0135007
964.912	0.0136080
964.990	0.0136208
965.068	0.0136637
965.146	0.0134452
965.224	0.0135873
965.302	0.0136948
965.380	0.0134892
965.458	0.0135744
965.537	0.0135409
965.615	0.0135709
965.693	0.0135304
965.771	0.0135427
965.849	0.0134501
965.927	0.0134766
966.005	0.0135444
966.083	0.0136073
966.162	0.0135401
966.240	0.0135325
966.318	0.0135303
966.396	0.0134017
966.474	0.0134084
966.552	0.0134986
966.630	0.0134540
966.708	0.0134689
966.787	0.0135652
966.865	0.0136445
966.943	0.0135838
967.021	0.0134577
967.099	0.0135345
967.177	0.0136005
967.255	0.0133883
967.333	0.0136857
967.412	0.0135284
967.490	0.0135223
967.568	0.0136140
967.646	0.0135666
967.724	0.0135550
967.802	0.0134780
967.880	0.0134641
967.958	0.0135661
968.037	0.0135197
968.115	0.0135874
968.193	0.0135211
968.271	0.0135569
968.349	0.0135629
968.427	0.0134489
968.505	0.0134508
968.583	0.0133761
968.662	0.0135349
968.740	0.0135002
968.818	0.0134521
968.896	0.0135416
968.974	0.0135359
969.052	0.0135947
969.130	0.0137047
969.208	0.0136685
969.287	0.0134978
969.365	0.0135570
969.443	0.0135574
969.521	0.0135917
969.599	0.0135918
969.677	0.0135492
969.755	0.0135487
969.833	0.0135186
969.912	0.0134785
