05/08/2022	19:51:00	Ver.	4.1	UNKNOWN
Optical Delay	649.989667	Delta X		0.078125	Sweeps	1	Scan Rate	0/0
Coordinates	Axis 1	NaN	Axis 2	NaN	Axis 3	NaN	Axis 4	NaN	Axis 5	NaN	Axis 6	0.000000
TX Power	0.000000	RX Power	0.000000

649.990	0.0137199
650.068	0.0137061
650.146	0.0136504
650.224	0.0137275
650.302	0.0135431
650.380	0.0136555
650.458	0.0137744
650.537	0.0136755
650.615	0.0135268
650.693	0.0136790
650.771	0.0136973
650.849	0.0137498
650.927	0.0137167
651.005	0.0137563
651.083	0.0137893
651.162	0.0136839
651.240	0.0138385
651.318	0.0135831
651.396	0.0136620
651.474	0.0136945
651.552	0.0137936
651.630	0.0137039
651.708	0.0136822
651.787	0.0138228
651.865	0.0137291
651.943	0.0137177
652.021	0.0136800
652.099	0.0137355
652.177	0.0137491
652.255	0.0136864
652.333	0.0137051
652.412	0.0137140
652.490	0.0136862
652.568	0.0136705
652.646	0.0137295
652.724	0.0136235
652.802	0.0138467
652.880	0.0137861
652.958	0.0136640
653.037	0.0134995
653.115	0.0137192
653.193	0.0137654
653.271	0.0137494
653.349	0.0138923
653.427	0.0136811
653.505	0.0134814
653.583	0.0136329
653.662	0.0137225
653.740	0.0136188
653.818	0.0137914
653.896	0.0136440
653.974	0.0136478
654.052	0.0138326
654.130	0.0137807
654.208	0.0136226
654.287	0.0136079
654.365	0.0137018
654.443	0.0136842
654.521	0.0137001
654.599	0.0137980
654.677	0.0136649
654.755	0.0136011
654.833	0.0135724
654.912	0.0137887
654.990	0.0137257
655.068	0.0137270
655.146	0.0136523
655.224	0.0136568
655.302	0.0137952
655.380	0.0136842
655.458	0.0136623
655.537	0.0137877
655.615	0.0137054
655.693	0.0138089
655.771	0.0137213
655.849	0.0137655
655.927	0.0136259
656.005	0.0137939
656.083	0.0138045
656.162	0.0136613
656.240	0.0137021
656.318	0.0137697
656.396	0.0138511
656.474	0.0136793
656.552	0.0135560
656.630	0.0138456
656.708	0.0136674
656.787	0.0138518
656.865	0.0137483
656.943	0.0136686
657.021	0.0135699
657.099	0.0137636
657.177	0.0137481
657.255	0.0136678
657.333	0.0137382
657.412	0.0136121
657.490	0.0137215
657.568	0.0137505
657.646	0.0139124
657.724	0.0137743
657.802	0.0136549
657.880	0.0136713
657.958	0.0138100
658.037	0.0136707
658.115	0.0134838
658.193	0.0136900
658.271	0.0135265
658.349	0.0136247
658.427	0.0135727
658.505	0.0136710
658.583	0.0135631
658.662	0.0136064
658.740	0.0136411
658.818	0.0137576
658.896	0.0137126
658.974	0.0135356
659.052	0.0135674
659.130	0.0135782
659.208	0.0136181
659.287	0.0136802
659.365	0.0137126
659.443	0.0137710
659.521	0.0135830
659.599	0.0137522
659.677	0.0137382
659.755	0.0137036
659.833	0.0137506
659.912	0.0137302
659.990	0.0137405
660.068	0.0136039
660.146	0.0137677
660.224	0.0137459
660.302	0.0138139
660.380	0.0136410
660.458	0.0136717
660.537	0.0136193
660.615	0.0136600
660.693	0.0137305
660.771	0.0136746
660.849	0.0137125
660.927	0.0137611
661.005	0.0136942
661.083	0.0137262
661.162	0.0137990
661.240	0.0137482
661.318	0.0137212
661.396	0.0136720
661.474	0.0135666
661.552	0.0136813
661.630	0.0136833
661.708	0.0138229
661.787	0.0137048
661.865	0.0137411
661.943	0.0136652
662.021	0.0136713
662.099	0.0137277
662.177	0.0138791
662.255	0.0137079
662.333	0.0137497
662.412	0.0137179
662.490	0.0137890
662.568	0.0135669
662.646	0.0137323
662.724	0.0137833
662.802	0.0136626
662.880	0.0136832
662.958	0.0138406
663.037	0.0137155
663.115	0.0137799
663.193	0.0135757
663.271	0.0137054
663.349	0.0138106
663.427	0.0137499
663.505	0.0137109
663.583	0.0137041
663.662	0.0138528
663.740	0.0135970
663.818	0.0138393
663.896	0.0139019
663.974	0.0137905
664.052	0.0140263
664.130	0.0138621
664.208	0.0138040
664.287	0.0137457
664.365	0.0137718
664.443	0.0135770
664.521	0.0134344
664.599	0.0135003
664.677	0.0136385
664.755	0.0132902
664.833	0.0134013
664.912	0.0134823
664.990	0.0134512
665.068	0.0137053
665.146	0.0137272
665.224	0.0137849
665.302	0.0139658
665.380	0.0139931
665.458	0.0142414
665.537	0.0142292
665.615	0.0143686
665.693	0.0142589
665.771	0.0141144
665.849	0.0140889
665.927	0.0139346
666.005	0.0137609
666.083	0.0136605
666.162	0.0135328
666.240	0.0133359
666.318	0.0132175
666.396	0.0132697
666.474	0.0129552
666.552	0.0129843
666.630	0.0131253
666.708	0.0131961
666.787	0.0133056
666.865	0.0133556
666.943	0.0136010
667.021	0.0137946
667.099	0.0140005
667.177	0.0141261
667.255	0.0143893
667.333	0.0143098
667.412	0.0143725
667.490	0.0143653
667.568	0.0143234
667.646	0.0142426
667.724	0.0138988
667.802	0.0139050
667.880	0.0137273
667.958	0.0136131
668.037	0.0137410
668.115	0.0136973
668.193	0.0136814
668.271	0.0139040
668.349	0.0138978
668.427	0.0142438
668.505	0.0142219
668.583	0.0142022
668.662	0.0141627
668.740	0.0140607
668.818	0.0138824
668.896	0.0137331
668.974	0.0133949
669.052	0.0131751
669.130	0.0130099
669.208	0.0128194
669.287	0.0125535
669.365	0.0124717
669.443	0.0125810
669.521	0.0127659
669.599	0.0128842
669.677	0.0133086
669.755	0.0135229
669.833	0.0139043
669.912	0.0141982
669.990	0.0146152
670.068	0.0147843
670.146	0.0148560
670.224	0.0149932
670.302	0.0149706
670.380	0.0147080
670.458	0.0143369
670.537	0.0142033
670.615	0.0137943
670.693	0.0135801
670.771	0.0134028
670.849	0.0133002
670.927	0.0132258
671.005	0.0133021
671.083	0.0135101
671.162	0.0136647
671.240	0.0138940
671.318	0.0144326
671.396	0.0147321
671.474	0.0148795
671.552	0.0150106
671.630	0.0149196
671.708	0.0148668
671.787	0.0146977
671.865	0.0144955
671.943	0.0140336
672.021	0.0139103
672.099	0.0134830
672.177	0.0130757
672.255	0.0128983
672.333	0.0125319
672.412	0.0124284
672.490	0.0122778
672.568	0.0120155
672.646	0.0120467
672.724	0.0120785
672.802	0.0120116
672.880	0.0120096
672.958	0.0121720
673.037	0.0123607
673.115	0.0126190
673.193	0.0128206
673.271	0.0130945
673.349	0.0135066
673.427	0.0137795
673.505	0.0142323
673.583	0.0143226
673.662	0.0147190
673.740	0.0149020
673.818	0.0150753
673.896	0.0150407
673.974	0.0151817
674.052	0.0152432
674.130	0.0151218
674.208	0.0149400
674.287	0.0150597
674.365	0.0148357
674.443	0.0147092
674.521	0.0148704
674.599	0.0147274
674.677	0.0148492
674.755	0.0149714
674.833	0.0149227
674.912	0.0149749
674.990	0.0149792
675.068	0.0148139
675.146	0.0147527
675.224	0.0145749
675.302	0.0141946
675.380	0.0138986
675.458	0.0134122
675.537	0.0131567
675.615	0.0127464
675.693	0.0122753
675.771	0.0119547
675.849	0.0116644
675.927	0.0112157
676.005	0.0109408
676.083	0.0109168
676.162	0.0108488
676.240	0.0109281
676.318	0.0109734
676.396	0.0112617
676.474	0.0115647
676.552	0.0119328
676.630	0.0124449
676.708	0.0126176
676.787	0.0129186
676.865	0.0132363
676.943	0.0133782
677.021	0.0133980
677.099	0.0135818
677.177	0.0138052
677.255	0.0137803
677.333	0.0137655
677.412	0.0137695
677.490	0.0140755
677.568	0.0140320
677.646	0.0141170
677.724	0.0145025
677.802	0.0148540
677.880	0.0152979
677.958	0.0159344
678.037	0.0165212
678.115	0.0168286
678.193	0.0174080
678.271	0.0178223
678.349	0.0184336
678.427	0.0185149
678.505	0.0184439
678.583	0.0182693
678.662	0.0179082
678.740	0.0173806
678.818	0.0167735
678.896	0.0161105
678.974	0.0152063
679.052	0.0142257
679.130	0.0134221
679.208	0.0125238
679.287	0.0117390
679.365	0.0109422
679.443	0.0104001
679.521	0.00975334
679.599	0.00939987
679.677	0.00916016
679.755	0.00900368
679.833	0.00878189
679.912	0.00855583
679.990	0.00863029
680.068	0.00858887
680.146	0.00870544
680.224	0.00877998
680.302	0.00898224
680.380	0.00920982
680.458	0.00946861
680.537	0.00985153
680.615	0.0105840
680.693	0.0111975
680.771	0.0120027
680.849	0.0128117
680.927	0.0136308
681.005	0.0145097
681.083	0.0154266
681.162	0.0163879
681.240	0.0172204
681.318	0.0178293
681.396	0.0181686
681.474	0.0187573
681.552	0.0192486
681.630	0.0195832
681.708	0.0195149
681.787	0.0195535
681.865	0.0194215
681.943	0.0190468
682.021	0.0187732
682.099	0.0185560
682.177	0.0179302
682.255	0.0176832
682.333	0.0172290
682.412	0.0165679
682.490	0.0162500
682.568	0.0157496
682.646	0.0151860
682.724	0.0146628
682.802	0.0142578
682.880	0.0134895
682.958	0.0127757
683.037	0.0124886
683.115	0.0118024
683.193	0.0111179
683.271	0.0105854
683.349	0.00994736
683.427	0.00925934
683.505	0.00899742
683.583	0.00878204
683.662	0.00827515
683.740	0.00805130
683.818	0.00787567
683.896	0.00782013
683.974	0.00787468
684.052	0.00819191
684.130	0.00833229
684.208	0.00872711
684.287	0.00912582
684.365	0.00951225
684.443	0.0101593
684.521	0.0110149
684.599	0.0117709
684.677	0.0125533
684.755	0.0134084
684.833	0.0141203
684.912	0.0151540
684.990	0.0159862
685.068	0.0167862
685.146	0.0175684
685.224	0.0180257
685.302	0.0186365
685.380	0.0188852
685.458	0.0189931
685.537	0.0190475
685.615	0.0188229
685.693	0.0186775
685.771	0.0184081
685.849	0.0179909
685.927	0.0173793
686.005	0.0170013
686.083	0.0166659
686.162	0.0162366
686.240	0.0158353
686.318	0.0153366
686.396	0.0151231
686.474	0.0148067
686.552	0.0144048
686.630	0.0141927
686.708	0.0138285
686.787	0.0133983
686.865	0.0132132
686.943	0.0127637
687.021	0.0125146
687.099	0.0120829
687.177	0.0117758
687.255	0.0115403
687.333	0.0113154
687.412	0.0112615
687.490	0.0114230
687.568	0.0113995
687.646	0.0116477
687.724	0.0118982
687.802	0.0121770
687.880	0.0124135
687.958	0.0127406
688.037	0.0128950
688.115	0.0130338
688.193	0.0130354
688.271	0.0129326
688.349	0.0127267
688.427	0.0124137
688.505	0.0119609
688.583	0.0117075
688.662	0.0114872
688.740	0.0112229
688.818	0.0110307
688.896	0.0109346
688.974	0.0109656
689.052	0.0112037
689.130	0.0114594
689.208	0.0118504
689.287	0.0123086
689.365	0.0128178
689.443	0.0133717
689.521	0.0138590
689.599	0.0143484
689.677	0.0150458
689.755	0.0154781
689.833	0.0158150
689.912	0.0161009
689.990	0.0165742
690.068	0.0169392
690.146	0.0171456
690.224	0.0175264
690.302	0.0174692
690.380	0.0175134
690.458	0.0174161
690.537	0.0171365
690.615	0.0169065
690.693	0.0166344
690.771	0.0159843
690.849	0.0153636
690.927	0.0146693
691.005	0.0141068
691.083	0.0135741
691.162	0.0130686
691.240	0.0124526
691.318	0.0122152
691.396	0.0122498
691.474	0.0124477
691.552	0.0125394
691.630	0.0126837
691.708	0.0131669
691.787	0.0134291
691.865	0.0136071
691.943	0.0138069
692.021	0.0138819
692.099	0.0141345
692.177	0.0139088
692.255	0.0138583
692.333	0.0136448
692.412	0.0135728
692.490	0.0133791
692.568	0.0131189
692.646	0.0130778
692.724	0.0131411
692.802	0.0131483
692.880	0.0131312
692.958	0.0132168
693.037	0.0132953
693.115	0.0133934
693.193	0.0135107
693.271	0.0134991
693.349	0.0137677
693.427	0.0135846
693.505	0.0135714
693.583	0.0137083
693.662	0.0136358
693.740	0.0135285
693.818	0.0134883
693.896	0.0131921
693.974	0.0129549
694.052	0.0128831
694.130	0.0127314
694.208	0.0122830
694.287	0.0119690
694.365	0.0116177
694.443	0.0114816
694.521	0.0114837
694.599	0.0113008
694.677	0.0114421
694.755	0.0115996
694.833	0.0118777
694.912	0.0122378
694.990	0.0125779
695.068	0.0131473
695.146	0.0134958
695.224	0.0139848
695.302	0.0145471
695.380	0.0148310
695.458	0.0152097
695.537	0.0154311
695.615	0.0156107
695.693	0.0157615
695.771	0.0158325
695.849	0.0157722
695.927	0.0156998
696.005	0.0158179
696.083	0.0156423
696.162	0.0156262
696.240	0.0158668
696.318	0.0158540
696.396	0.0160396
696.474	0.0162669
696.552	0.0164766
696.630	0.0167940
696.708	0.0166758
696.787	0.0167091
696.865	0.0167851
696.943	0.0164967
697.021	0.0162363
697.099	0.0160339
697.177	0.0154046
697.255	0.0147675
697.333	0.0143179
697.412	0.0137476
697.490	0.0132300
697.568	0.0124632
697.646	0.0118993
697.724	0.0115381
697.802	0.0110061
697.880	0.0101133
697.958	0.00994591
698.037	0.00972023
698.115	0.00944542
698.193	0.00925179
698.271	0.00954308
698.349	0.00966560
698.427	0.0100434
698.505	0.0105273
698.583	0.0110767
698.662	0.0116714
698.740	0.0122220
698.818	0.0129424
698.896	0.0134876
698.974	0.0137731
699.052	0.0143427
699.130	0.0147471
699.208	0.0149760
699.287	0.0155391
699.365	0.0154536
699.443	0.0153634
699.521	0.0153167
699.599	0.0150604
699.677	0.0147216
699.755	0.0141965
699.833	0.0138982
699.912	0.0136307
699.990	0.0130417
700.068	0.0126579
700.146	0.0124897
700.224	0.0123081
700.302	0.0122641
700.380	0.0120424
700.458	0.0120113
700.537	0.0122005
700.615	0.0122365
700.693	0.0123920
700.771	0.0126703
700.849	0.0131156
700.927	0.0133306
701.005	0.0137253
701.083	0.0140776
701.162	0.0147385
701.240	0.0152296
701.318	0.0157101
701.396	0.0162627
701.474	0.0166413
701.552	0.0170707
701.630	0.0177241
701.708	0.0177363
701.787	0.0178362
701.865	0.0179367
701.943	0.0176709
702.021	0.0173933
702.099	0.0171037
702.177	0.0167072
702.255	0.0159415
702.333	0.0155521
702.412	0.0149255
702.490	0.0145135
702.568	0.0140454
702.646	0.0135426
702.724	0.0130963
702.802	0.0125988
702.880	0.0122666
702.958	0.0119312
703.037	0.0117014
703.115	0.0113775
703.193	0.0112403
703.271	0.0109370
703.349	0.0109373
703.427	0.0107964
703.505	0.0107687
703.583	0.0108970
703.662	0.0109828
703.740	0.0110012
703.818	0.0112647
703.896	0.0113280
703.974	0.0115086
704.052	0.0117139
704.130	0.0117173
704.208	0.0119548
704.287	0.0120802
704.365	0.0122296
704.443	0.0123167
704.521	0.0124393
704.599	0.0127060
704.677	0.0130107
704.755	0.0134437
704.833	0.0137426
704.912	0.0142069
704.990	0.0145480
705.068	0.0148290
705.146	0.0150918
705.224	0.0154900
705.302	0.0155994
705.380	0.0158447
705.458	0.0157936
705.537	0.0155567
705.615	0.0153838
705.693	0.0149269
705.771	0.0147579
705.849	0.0142813
705.927	0.0138149
706.005	0.0135049
706.083	0.0130993
706.162	0.0128977
706.240	0.0127798
706.318	0.0127541
706.396	0.0127824
706.474	0.0126711
706.552	0.0130183
706.630	0.0132047
706.708	0.0134350
706.787	0.0137048
706.865	0.0141695
706.943	0.0144398
707.021	0.0146236
707.099	0.0152045
707.177	0.0153379
707.255	0.0156958
707.333	0.0158534
707.412	0.0158985
707.490	0.0161986
707.568	0.0160694
707.646	0.0161613
707.724	0.0160217
707.802	0.0157609
707.880	0.0155409
707.958	0.0152285
708.037	0.0149121
708.115	0.0147744
708.193	0.0144973
708.271	0.0141423
708.349	0.0138845
708.427	0.0136775
708.505	0.0136792
708.583	0.0133904
708.662	0.0131159
708.740	0.0130856
708.818	0.0129736
708.896	0.0125883
708.974	0.0124524
709.052	0.0123997
709.130	0.0120525
709.208	0.0114996
709.287	0.0112711
709.365	0.0109464
709.443	0.0107207
709.521	0.0105244
709.599	0.0104169
709.677	0.0102841
709.755	0.0103573
709.833	0.0103731
709.912	0.0106960
709.990	0.0111692
710.068	0.0115053
710.146	0.0119713
710.224	0.0124290
710.302	0.0129549
710.380	0.0137492
710.458	0.0144135
710.537	0.0148138
710.615	0.0154246
710.693	0.0158970
710.771	0.0164394
710.849	0.0167351
710.927	0.0168196
711.005	0.0169767
711.083	0.0168390
711.162	0.0165277
711.240	0.0161759
711.318	0.0157183
711.396	0.0150246
711.474	0.0143341
711.552	0.0137941
711.630	0.0132268
711.708	0.0126252
711.787	0.0121183
711.865	0.0117532
711.943	0.0116541
712.021	0.0115420
712.099	0.0115870
712.177	0.0118337
712.255	0.0122005
712.333	0.0125465
712.412	0.0127053
712.490	0.0131174
712.568	0.0133737
712.646	0.0136544
712.724	0.0139974
712.802	0.0143196
712.880	0.0144543
712.958	0.0145724
713.037	0.0148868
713.115	0.0149123
713.193	0.0151390
713.271	0.0151026
713.349	0.0154495
713.427	0.0156735
713.505	0.0160458
713.583	0.0161400
713.662	0.0164124
713.740	0.0164517
713.818	0.0165208
713.896	0.0166006
713.974	0.0163470
714.052	0.0162846
714.130	0.0160331
714.208	0.0156332
714.287	0.0149756
714.365	0.0146273
714.443	0.0140566
714.521	0.0136907
714.599	0.0133081
714.677	0.0130077
714.755	0.0124689
714.833	0.0120010
714.912	0.0117273
714.990	0.0114793
715.068	0.0111297
715.146	0.0109756
715.224	0.0107721
715.302	0.0105090
715.380	0.0104977
715.458	0.0104257
715.537	0.0103181
715.615	0.0103745
715.693	0.0104826
715.771	0.0106329
715.849	0.0109375
715.927	0.0111947
716.005	0.0115284
716.083	0.0118774
716.162	0.0121902
716.240	0.0126768
716.318	0.0133110
716.396	0.0136708
716.474	0.0141443
716.552	0.0144898
716.630	0.0150011
716.708	0.0153188
716.787	0.0155991
716.865	0.0158493
716.943	0.0161250
717.021	0.0162433
717.099	0.0163572
717.177	0.0163957
717.255	0.0162708
717.333	0.0160728
717.412	0.0156618
717.490	0.0153357
717.568	0.0150473
717.646	0.0147820
717.724	0.0144014
717.802	0.0140462
717.880	0.0136319
717.958	0.0131753
718.037	0.0130332
718.115	0.0128813
718.193	0.0125620
718.271	0.0126324
718.349	0.0126188
718.427	0.0125091
718.505	0.0127895
718.583	0.0128971
718.662	0.0131023
718.740	0.0132742
718.818	0.0134732
718.896	0.0137770
718.974	0.0140344
719.052	0.0143318
719.130	0.0145889
719.208	0.0146662
719.287	0.0149114
719.365	0.0150974
719.443	0.0152266
719.521	0.0152425
719.599	0.0154677
719.677	0.0154042
719.755	0.0155554
719.833	0.0154136
719.912	0.0153802
719.990	0.0153075
720.068	0.0150690
720.146	0.0149893
720.224	0.0145883
720.302	0.0145473
720.380	0.0141429
720.458	0.0140151
720.537	0.0136395
720.615	0.0134062
720.693	0.0130567
720.771	0.0127984
720.849	0.0125896
720.927	0.0123196
721.005	0.0121658
721.083	0.0120205
721.162	0.0119231
721.240	0.0117750
721.318	0.0117060
721.396	0.0116412
721.474	0.0114875
721.552	0.0114896
721.630	0.0114106
721.708	0.0112805
721.787	0.0114869
721.865	0.0115664
721.943	0.0116888
722.021	0.0119402
722.099	0.0121140
722.177	0.0124818
722.255	0.0128445
722.333	0.0131499
722.412	0.0136638
722.490	0.0140784
722.568	0.0144955
722.646	0.0147907
722.724	0.0150529
722.802	0.0154173
722.880	0.0154218
722.958	0.0153606
723.037	0.0152351
723.115	0.0148807
723.193	0.0149107
723.271	0.0145428
723.349	0.0141576
723.427	0.0136516
723.505	0.0134091
723.583	0.0131760
723.662	0.0129234
723.740	0.0125496
723.818	0.0125607
723.896	0.0124554
723.974	0.0125911
724.052	0.0127948
724.130	0.0131826
724.208	0.0133080
724.287	0.0136924
724.365	0.0140793
724.443	0.0146096
724.521	0.0149205
724.599	0.0153699
724.677	0.0155328
724.755	0.0157371
724.833	0.0158974
724.912	0.0160532
724.990	0.0160677
725.068	0.0159894
725.146	0.0159857
725.224	0.0157382
725.302	0.0154660
725.380	0.0153117
725.458	0.0151719
725.537	0.0148259
725.615	0.0146086
725.693	0.0142741
725.771	0.0140912
725.849	0.0139001
725.927	0.0137320
726.005	0.0134576
726.083	0.0131839
726.162	0.0130626
726.240	0.0130240
726.318	0.0129302
726.396	0.0126926
726.474	0.0126910
726.552	0.0126933
726.630	0.0127141
726.708	0.0126717
726.787	0.0127427
726.865	0.0126696
726.943	0.0126920
727.021	0.0123515
727.099	0.0121723
727.177	0.0121703
727.255	0.0119978
727.333	0.0119489
727.412	0.0118642
727.490	0.0116221
727.568	0.0116755
727.646	0.0116455
727.724	0.0118209
727.802	0.0118710
727.880	0.0119971
727.958	0.0123728
728.037	0.0126288
728.115	0.0131927
728.193	0.0133147
728.271	0.0137534
728.349	0.0140847
728.427	0.0143526
728.505	0.0145943
728.583	0.0148721
728.662	0.0149657
728.740	0.0149128
728.818	0.0147952
728.896	0.0146819
728.974	0.0144833
729.052	0.0142332
729.130	0.0139879
729.208	0.0137086
729.287	0.0132528
729.365	0.0129682
729.443	0.0131258
729.521	0.0128755
729.599	0.0128127
729.677	0.0128990
729.755	0.0130212
729.833	0.0132711
729.912	0.0137344
729.990	0.0138630
730.068	0.0139616
730.146	0.0143740
730.224	0.0148318
730.302	0.0151472
730.380	0.0151805
730.458	0.0153646
730.537	0.0156758
730.615	0.0157601
730.693	0.0158625
730.771	0.0157542
730.849	0.0155601
730.927	0.0153042
731.005	0.0152136
731.083	0.0150201
731.162	0.0150148
731.240	0.0145644
731.318	0.0144665
731.396	0.0141695
731.474	0.0138990
731.552	0.0137306
731.630	0.0135331
731.708	0.0134602
731.787	0.0133422
731.865	0.0132130
731.943	0.0130747
732.021	0.0130479
732.099	0.0128961
732.177	0.0129416
732.255	0.0129030
732.333	0.0129047
732.412	0.0128499
732.490	0.0130264
732.568	0.0130022
732.646	0.0129782
732.724	0.0129526
732.802	0.0131493
732.880	0.0131570
732.958	0.0130299
733.037	0.0131180
733.115	0.0129870
733.193	0.0128867
733.271	0.0129469
733.349	0.0128725
733.427	0.0127368
733.505	0.0127256
733.583	0.0128384
733.662	0.0128187
733.740	0.0130331
733.818	0.0129810
733.896	0.0131990
733.974	0.0131991
734.052	0.0133126
734.130	0.0136181
734.208	0.0136745
734.287	0.0138052
734.365	0.0140936
734.443	0.0138654
734.521	0.0139410
734.599	0.0139886
734.677	0.0137291
734.755	0.0135834
734.833	0.0135243
734.912	0.0133485
734.990	0.0132249
735.068	0.0130876
735.146	0.0129336
735.224	0.0130257
735.302	0.0128207
735.380	0.0129436
735.458	0.0130423
735.537	0.0132841
735.615	0.0134058
735.693	0.0137152
735.771	0.0139335
735.849	0.0141101
735.927	0.0145068
736.005	0.0148631
736.083	0.0150131
736.162	0.0151761
736.240	0.0152554
736.318	0.0154727
736.396	0.0155316
736.474	0.0154001
736.552	0.0153419
736.630	0.0153046
736.708	0.0150941
736.787	0.0150810
736.865	0.0146174
736.943	0.0147268
737.021	0.0147650
737.099	0.0146350
737.177	0.0144489
737.255	0.0143536
737.333	0.0143317
737.412	0.0142862
737.490	0.0143526
737.568	0.0142838
737.646	0.0142509
737.724	0.0139910
737.802	0.0139957
737.880	0.0137508
737.958	0.0136863
738.037	0.0134479
738.115	0.0131277
738.193	0.0131920
738.271	0.0129051
738.349	0.0127598
738.427	0.0125645
738.505	0.0123622
738.583	0.0123840
738.662	0.0123537
738.740	0.0123360
738.818	0.0121973
738.896	0.0123747
738.974	0.0123779
739.052	0.0125226
739.130	0.0124962
739.208	0.0125186
739.287	0.0127795
739.365	0.0129066
739.443	0.0131877
739.521	0.0131762
739.599	0.0131819
739.677	0.0133440
739.755	0.0136423
739.833	0.0137122
739.912	0.0140567
739.990	0.0139735
740.068	0.0142127
740.146	0.0141732
740.224	0.0142564
740.302	0.0142544
740.380	0.0142818
740.458	0.0143896
740.537	0.0142754
740.615	0.0141919
740.693	0.0139909
740.771	0.0136840
740.849	0.0136663
740.927	0.0138905
741.005	0.0136625
741.083	0.0134083
741.162	0.0132027
741.240	0.0131219
741.318	0.0132182
741.396	0.0131473
741.474	0.0130541
741.552	0.0133261
741.630	0.0135093
741.708	0.0135698
741.787	0.0136777
741.865	0.0140133
741.943	0.0141982
742.021	0.0143648
742.099	0.0144553
742.177	0.0145940
742.255	0.0146727
742.333	0.0147862
742.412	0.0145322
742.490	0.0146832
742.568	0.0144309
742.646	0.0143542
742.724	0.0141971
742.802	0.0141287
742.880	0.0141100
742.958	0.0140948
743.037	0.0139134
743.115	0.0139394
743.193	0.0139292
743.271	0.0139642
743.349	0.0139604
743.427	0.0140626
743.505	0.0140555
743.583	0.0140658
743.662	0.0140643
743.740	0.0142033
743.818	0.0142590
743.896	0.0140262
743.974	0.0141054
744.052	0.0141142
744.130	0.0140421
744.208	0.0139188
744.287	0.0139031
744.365	0.0136565
744.443	0.0135941
744.521	0.0135342
744.599	0.0135169
744.677	0.0133699
744.755	0.0131751
744.833	0.0132240
744.912	0.0132332
744.990	0.0131886
745.068	0.0131113
745.146	0.0129626
745.224	0.0130109
745.302	0.0129272
745.380	0.0130840
745.458	0.0131786
745.537	0.0132462
745.615	0.0133629
745.693	0.0134312
745.771	0.0134240
745.849	0.0135703
745.927	0.0136732
746.005	0.0137813
746.083	0.0137640
746.162	0.0139222
746.240	0.0136489
746.318	0.0137663
746.396	0.0138565
746.474	0.0137551
746.552	0.0137099
746.630	0.0139369
746.708	0.0136098
746.787	0.0135553
746.865	0.0134222
746.943	0.0133813
747.021	0.0134383
747.099	0.0133966
747.177	0.0134352
747.255	0.0134013
747.333	0.0134102
747.412	0.0135713
747.490	0.0135847
747.568	0.0136356
747.646	0.0137001
747.724	0.0136806
747.802	0.0139758
747.880	0.0140632
747.958	0.0139880
748.037	0.0140000
748.115	0.0141504
748.193	0.0139484
748.271	0.0139688
748.349	0.0140346
748.427	0.0141092
748.505	0.0139606
748.583	0.0140413
748.662	0.0140215
748.740	0.0140974
748.818	0.0141473
748.896	0.0140411
748.974	0.0140906
749.052	0.0140436
749.130	0.0141971
749.208	0.0140961
749.287	0.0143213
749.365	0.0142924
749.443	0.0141570
749.521	0.0141549
749.599	0.0141363
749.677	0.0141004
749.755	0.0140903
749.833	0.0140273
749.912	0.0139482
749.990	0.0138164
750.068	0.0138234
750.146	0.0136170
750.224	0.0136613
750.302	0.0136050
750.380	0.0136131
750.458	0.0136005
750.537	0.0136703
750.615	0.0136262
750.693	0.0136365
750.771	0.0139460
750.849	0.0137898
750.927	0.0137257
751.005	0.0137318
751.083	0.0136367
751.162	0.0136153
751.240	0.0135939
751.318	0.0134366
751.396	0.0133902
751.474	0.0133524
751.552	0.0132225
751.630	0.0129272
751.708	0.0131157
751.787	0.0130080
751.865	0.0130341
751.943	0.0131615
752.021	0.0131253
752.099	0.0130440
752.177	0.0131845
752.255	0.0132076
752.333	0.0133778
752.412	0.0135606
752.490	0.0136274
752.568	0.0134163
752.646	0.0135203
752.724	0.0135679
752.802	0.0136234
752.880	0.0135631
752.958	0.0137318
753.037	0.0136528
753.115	0.0137383
753.193	0.0137700
753.271	0.0138613
753.349	0.0136942
753.427	0.0135566
753.505	0.0138766
753.583	0.0139455
753.662	0.0139611
753.740	0.0139183
753.818	0.0139581
753.896	0.0140121
753.974	0.0140108
754.052	0.0138084
754.130	0.0139113
754.208	0.0140202
754.287	0.0138911
754.365	0.0138800
754.443	0.0139412
754.521	0.0139998
754.599	0.0140772
754.677	0.0139681
754.755	0.0138528
754.833	0.0138185
754.912	0.0138408
754.990	0.0137719
755.068	0.0137597
755.146	0.0139082
755.224	0.0137733
755.302	0.0137843
755.380	0.0137635
755.458	0.0138347
755.537	0.0137710
755.615	0.0137356
755.693	0.0136753
755.771	0.0136934
755.849	0.0136417
755.927	0.0135238
756.005	0.0135118
756.083	0.0136037
756.162	0.0136098
756.240	0.0134067
756.318	0.0135934
756.396	0.0136546
756.474	0.0135685
756.552	0.0135822
756.630	0.0134846
756.708	0.0135777
756.787	0.0133796
756.865	0.0135769
756.943	0.0135673
757.021	0.0134650
757.099	0.0137461
757.177	0.0137292
757.255	0.0138991
757.333	0.0137904
757.412	0.0138643
757.490	0.0137132
757.568	0.0138252
757.646	0.0138524
757.724	0.0137708
757.802	0.0137981
757.880	0.0137608
757.958	0.0138662
758.037	0.0138825
758.115	0.0138148
758.193	0.0137400
758.271	0.0138191
758.349	0.0137415
758.427	0.0136018
758.505	0.0133749
758.583	0.0134678
758.662	0.0134456
758.740	0.0134190
758.818	0.0132600
758.896	0.0132225
758.974	0.0132504
759.052	0.0132410
759.130	0.0131579
759.208	0.0131983
759.287	0.0132905
759.365	0.0132931
759.443	0.0134059
759.521	0.0134741
759.599	0.0135956
759.677	0.0135960
759.755	0.0136674
759.833	0.0137024
759.912	0.0137109
759.990	0.0139694
760.068	0.0139344
760.146	0.0139573
760.224	0.0140337
760.302	0.0139591
760.380	0.0141436
760.458	0.0141653
760.537	0.0141205
760.615	0.0141776
760.693	0.0142721
760.771	0.0142329
760.849	0.0142111
760.927	0.0141902
761.005	0.0141171
761.083	0.0140404
761.162	0.0139224
761.240	0.0139363
761.318	0.0141181
761.396	0.0139488
761.474	0.0137549
761.552	0.0138726
761.630	0.0139803
761.708	0.0138251
761.787	0.0137746
761.865	0.0137841
761.943	0.0137644
762.021	0.0136980
762.099	0.0137402
762.177	0.0136141
762.255	0.0136622
762.333	0.0137068
762.412	0.0135374
762.490	0.0135181
762.568	0.0133362
762.646	0.0135263
762.724	0.0134555
762.802	0.0133585
762.880	0.0134260
762.958	0.0133771
763.037	0.0133819
763.115	0.0133675
763.193	0.0134654
763.271	0.0135069
763.349	0.0133304
763.427	0.0134718
763.505	0.0137332
763.583	0.0134530
763.662	0.0136086
763.740	0.0137530
763.818	0.0138473
763.896	0.0139173
763.974	0.0138005
764.052	0.0139537
764.130	0.0138304
764.208	0.0137955
764.287	0.0138859
764.365	0.0138808
764.443	0.0138997
764.521	0.0136757
764.599	0.0136489
764.677	0.0135644
764.755	0.0135509
764.833	0.0136466
764.912	0.0135126
764.990	0.0133707
765.068	0.0135071
765.146	0.0134750
765.224	0.0135110
765.302	0.0133125
765.380	0.0133665
765.458	0.0135817
765.537	0.0134610
765.615	0.0135301
765.693	0.0135818
765.771	0.0135851
765.849	0.0138056
765.927	0.0137453
766.005	0.0138314
766.083	0.0139861
766.162	0.0140047
766.240	0.0139812
766.318	0.0141551
766.396	0.0142876
766.474	0.0142126
766.552	0.0142278
766.630	0.0142960
766.708	0.0141035
766.787	0.0142391
766.865	0.0142374
766.943	0.0141605
767.021	0.0142183
767.099	0.0142259
767.177	0.0139526
767.255	0.0139700
767.333	0.0138382
767.412	0.0137243
767.490	0.0136194
767.568	0.0135941
767.646	0.0135187
767.724	0.0135666
767.802	0.0134235
767.880	0.0133978
767.958	0.0133334
768.037	0.0133186
768.115	0.0133871
768.193	0.0134874
768.271	0.0134779
768.349	0.0132746
768.427	0.0134013
768.505	0.0134210
768.583	0.0134840
768.662	0.0136218
768.740	0.0136273
768.818	0.0135281
768.896	0.0135989
768.974	0.0135184
769.052	0.0135725
769.130	0.0135947
769.208	0.0134705
769.287	0.0135807
769.365	0.0135252
769.443	0.0134570
769.521	0.0135418
769.599	0.0136051
769.677	0.0135262
769.755	0.0135785
769.833	0.0136048
769.912	0.0137912
769.990	0.0136532
770.068	0.0137698
770.146	0.0137996
770.224	0.0139070
770.302	0.0138400
770.380	0.0138656
770.458	0.0138663
770.537	0.0138329
770.615	0.0141336
770.693	0.0139627
770.771	0.0140154
770.849	0.0141238
770.927	0.0139709
771.005	0.0140344
771.083	0.0139145
771.162	0.0139914
771.240	0.0139742
771.318	0.0140623
771.396	0.0140924
771.474	0.0139630
771.552	0.0138844
771.630	0.0139919
771.708	0.0139406
771.787	0.0138302
771.865	0.0137480
771.943	0.0137749
772.021	0.0136625
772.099	0.0135352
772.177	0.0134352
772.255	0.0135299
772.333	0.0134662
772.412	0.0133169
772.490	0.0132790
772.568	0.0132401
772.646	0.0133424
772.724	0.0132064
772.802	0.0131375
772.880	0.0130465
772.958	0.0131908
773.037	0.0131689
773.115	0.0132298
773.193	0.0132655
773.271	0.0132272
773.349	0.0133322
773.427	0.0135406
773.505	0.0135020
773.583	0.0136682
773.662	0.0138282
773.740	0.0139168
773.818	0.0139413
773.896	0.0140269
773.974	0.0141155
774.052	0.0141988
774.130	0.0142284
774.208	0.0142393
774.287	0.0141478
774.365	0.0142955
774.443	0.0145132
774.521	0.0142874
774.599	0.0141807
774.677	0.0143351
774.755	0.0142122
774.833	0.0141127
774.912	0.0141479
774.990	0.0142332
775.068	0.0142081
775.146	0.0140139
775.224	0.0140589
775.302	0.0139740
775.380	0.0139562
775.458	0.0138640
775.537	0.0138277
775.615	0.0137785
775.693	0.0135147
775.771	0.0134497
775.849	0.0133563
775.927	0.0132240
776.005	0.0132351
776.083	0.0131976
776.162	0.0131190
776.240	0.0129247
776.318	0.0127634
776.396	0.0128355
776.474	0.0128528
776.552	0.0130024
776.630	0.0130013
776.708	0.0128371
776.787	0.0128688
776.865	0.0129494
776.943	0.0129456
777.021	0.0131066
777.099	0.0131196
777.177	0.0132066
777.255	0.0134157
777.333	0.0135539
777.412	0.0137302
777.490	0.0137801
777.568	0.0137654
777.646	0.0139629
777.724	0.0141575
777.802	0.0142822
777.880	0.0142226
777.958	0.0142851
778.037	0.0142269
778.115	0.0141190
778.193	0.0144202
778.271	0.0143900
778.349	0.0143473
778.427	0.0142365
778.505	0.0142432
778.583	0.0142429
778.662	0.0142602
778.740	0.0140802
778.818	0.0141174
778.896	0.0141475
778.974	0.0140044
779.052	0.0140512
779.130	0.0139629
779.208	0.0138565
779.287	0.0138074
779.365	0.0136826
779.443	0.0136003
779.521	0.0135632
779.599	0.0136018
779.677	0.0133889
779.755	0.0133705
779.833	0.0134895
779.912	0.0135062
779.990	0.0134835
780.068	0.0134641
780.146	0.0133346
780.224	0.0133018
780.302	0.0132817
780.380	0.0133009
780.458	0.0133430
780.537	0.0134287
780.615	0.0133750
780.693	0.0132905
780.771	0.0133041
780.849	0.0133468
780.927	0.0133121
781.005	0.0134429
781.083	0.0133974
781.162	0.0132378
781.240	0.0133548
781.318	0.0133026
781.396	0.0134109
781.474	0.0133447
781.552	0.0134356
781.630	0.0135288
781.708	0.0135536
781.787	0.0136655
781.865	0.0135086
781.943	0.0136990
782.021	0.0137982
782.099	0.0138892
782.177	0.0140215
782.255	0.0138877
782.333	0.0139396
782.412	0.0139718
782.490	0.0141706
782.568	0.0142524
782.646	0.0140549
782.724	0.0141442
782.802	0.0142187
782.880	0.0141709
782.958	0.0140852
783.037	0.0140549
783.115	0.0139455
783.193	0.0139684
783.271	0.0139320
783.349	0.0137728
783.427	0.0136762
783.505	0.0137403
783.583	0.0137542
783.662	0.0135573
783.740	0.0135421
783.818	0.0132376
783.896	0.0132201
783.974	0.0132378
784.052	0.0131907
784.130	0.0131537
784.208	0.0131191
784.287	0.0131124
784.365	0.0131527
784.443	0.0131735
784.521	0.0132242
784.599	0.0132837
784.677	0.0133815
784.755	0.0131876
784.833	0.0134133
784.912	0.0135189
784.990	0.0135490
785.068	0.0136626
785.146	0.0137940
785.224	0.0137092
785.302	0.0137937
785.380	0.0138129
785.458	0.0139007
785.537	0.0139826
785.615	0.0140414
785.693	0.0140986
785.771	0.0140044
785.849	0.0139067
785.927	0.0138229
786.005	0.0140310
786.083	0.0138013
786.162	0.0137497
786.240	0.0137744
786.318	0.0136362
786.396	0.0136888
786.474	0.0137706
786.552	0.0137920
786.630	0.0137134
786.708	0.0136877
786.787	0.0135835
786.865	0.0138728
786.943	0.0137981
787.021	0.0136642
787.099	0.0138162
787.177	0.0139363
787.255	0.0138107
787.333	0.0138963
787.412	0.0139480
787.490	0.0138817
787.568	0.0139037
787.646	0.0137794
787.724	0.0137099
787.802	0.0137897
787.880	0.0137213
787.958	0.0137048
788.037	0.0138907
788.115	0.0137266
788.193	0.0135647
788.271	0.0135858
788.349	0.0136926
788.427	0.0135262
788.505	0.0134520
788.583	0.0135056
788.662	0.0135431
788.740	0.0136624
788.818	0.0135942
788.896	0.0135281
788.974	0.0134641
789.052	0.0134621
789.130	0.0134371
789.208	0.0135494
789.287	0.0135540
789.365	0.0135840
789.443	0.0134846
789.521	0.0136086
789.599	0.0137209
789.677	0.0137301
789.755	0.0136703
789.833	0.0138549
789.912	0.0138824
789.990	0.0137578
790.068	0.0137167
790.146	0.0138307
790.224	0.0139220
790.302	0.0139482
790.380	0.0138431
790.458	0.0139433
790.537	0.0139167
790.615	0.0139289
790.693	0.0138876
790.771	0.0137408
790.849	0.0138063
790.927	0.0137026
791.005	0.0137177
791.083	0.0136671
791.162	0.0136078
791.240	0.0135917
791.318	0.0136409
791.396	0.0137337
791.474	0.0136710
791.552	0.0137702
791.630	0.0136645
791.708	0.0136607
791.787	0.0136367
791.865	0.0136973
791.943	0.0138034
792.021	0.0137914
792.099	0.0137440
792.177	0.0136708
792.255	0.0136888
792.333	0.0137943
792.412	0.0138316
792.490	0.0138319
792.568	0.0138995
792.646	0.0138721
792.724	0.0138078
792.802	0.0138821
792.880	0.0139559
792.958	0.0139427
793.037	0.0139693
793.115	0.0139878
793.193	0.0138093
793.271	0.0138282
793.349	0.0139712
793.427	0.0138539
793.505	0.0137827
793.583	0.0138129
793.662	0.0139041
793.740	0.0137245
793.818	0.0136434
793.896	0.0136589
793.974	0.0135530
794.052	0.0134912
794.130	0.0136028
794.208	0.0134579
794.287	0.0133241
794.365	0.0135058
794.443	0.0133683
794.521	0.0133290
794.599	0.0134386
794.677	0.0134708
794.755	0.0135400
794.833	0.0135053
794.912	0.0136271
794.990	0.0137367
795.068	0.0137763
795.146	0.0138003
795.224	0.0137803
795.302	0.0137957
795.380	0.0138867
795.458	0.0138379
795.537	0.0138172
795.615	0.0139208
795.693	0.0138635
795.771	0.0137599
795.849	0.0137725
795.927	0.0135958
796.005	0.0135982
796.083	0.0135902
796.162	0.0135999
796.240	0.0135493
796.318	0.0135661
796.396	0.0135622
796.474	0.0133732
796.552	0.0134148
796.630	0.0135102
796.708	0.0136134
796.787	0.0135981
796.865	0.0135261
796.943	0.0135102
797.021	0.0135674
797.099	0.0134048
797.177	0.0134154
797.255	0.0135248
797.333	0.0136062
797.412	0.0134110
797.490	0.0135696
797.568	0.0136444
797.646	0.0135218
797.724	0.0136523
797.802	0.0136185
797.880	0.0137450
797.958	0.0136629
798.037	0.0137781
798.115	0.0138742
798.193	0.0139681
798.271	0.0140266
798.349	0.0140183
798.427	0.0140129
798.505	0.0139877
798.583	0.0141154
798.662	0.0138324
798.740	0.0140394
798.818	0.0140507
798.896	0.0139344
798.974	0.0138909
799.052	0.0138585
799.130	0.0138934
799.208	0.0137673
799.287	0.0138496
799.365	0.0137997
799.443	0.0136031
799.521	0.0136708
799.599	0.0135355
799.677	0.0135412
799.755	0.0135435
799.833	0.0136018
799.912	0.0134809
799.990	0.0134174
800.068	0.0134417
800.146	0.0136224
800.224	0.0136737
800.302	0.0137082
800.380	0.0135968
800.458	0.0136820
800.537	0.0135484
800.615	0.0136677
800.693	0.0137201
800.771	0.0137463
800.849	0.0137097
800.927	0.0138651
801.005	0.0138182
801.083	0.0138196
801.162	0.0139508
801.240	0.0139403
801.318	0.0138007
801.396	0.0137976
801.474	0.0138654
801.552	0.0138974
801.630	0.0138751
801.708	0.0137384
801.787	0.0137624
801.865	0.0137174
801.943	0.0135699
802.021	0.0136232
802.099	0.0136502
802.177	0.0134842
802.255	0.0135565
802.333	0.0134448
802.412	0.0133721
802.490	0.0133708
802.568	0.0134543
802.646	0.0134100
802.724	0.0135355
802.802	0.0135476
802.880	0.0133958
802.958	0.0135226
803.037	0.0136806
803.115	0.0136379
803.193	0.0136486
803.271	0.0137331
803.349	0.0138859
803.427	0.0137198
803.505	0.0137461
803.583	0.0138071
803.662	0.0138165
803.740	0.0137973
803.818	0.0139655
803.896	0.0139073
803.974	0.0139159
804.052	0.0138932
804.130	0.0138958
804.208	0.0139262
804.287	0.0140547
804.365	0.0140206
804.443	0.0140777
804.521	0.0139586
804.599	0.0139986
804.677	0.0140807
804.755	0.0140324
804.833	0.0140527
804.912	0.0138665
804.990	0.0138529
805.068	0.0137795
805.146	0.0138665
805.224	0.0138431
805.302	0.0138585
805.380	0.0138952
805.458	0.0138302
805.537	0.0138436
805.615	0.0137636
805.693	0.0137502
805.771	0.0136877
805.849	0.0137407
805.927	0.0136356
806.005	0.0134974
806.083	0.0136120
806.162	0.0134158
806.240	0.0134747
806.318	0.0134123
806.396	0.0133516
806.474	0.0133784
806.552	0.0135060
806.630	0.0133997
806.708	0.0133770
806.787	0.0134172
806.865	0.0134222
806.943	0.0133479
807.021	0.0133341
807.099	0.0132798
807.177	0.0134808
807.255	0.0134866
807.333	0.0135497
807.412	0.0136322
807.490	0.0136886
807.568	0.0135313
807.646	0.0135184
807.724	0.0137371
807.802	0.0136481
807.880	0.0137509
807.958	0.0137199
808.037	0.0137151
808.115	0.0136479
808.193	0.0136591
808.271	0.0137452
808.349	0.0137018
808.427	0.0135664
808.505	0.0136687
808.583	0.0137695
808.662	0.0137552
808.740	0.0137943
808.818	0.0137686
808.896	0.0137925
808.974	0.0137939
809.052	0.0137473
809.130	0.0138679
809.208	0.0138255
809.287	0.0138070
809.365	0.0139067
809.443	0.0139758
809.521	0.0138559
809.599	0.0138985
809.677	0.0138231
809.755	0.0136837
809.833	0.0138316
809.912	0.0139485
809.990	0.0138116
810.068	0.0138684
810.146	0.0138479
810.224	0.0137284
810.302	0.0136687
810.380	0.0136724
810.458	0.0136349
810.537	0.0136912
810.615	0.0136253
810.693	0.0137716
810.771	0.0136744
810.849	0.0135374
810.927	0.0134342
811.005	0.0134641
811.083	0.0135223
811.162	0.0135689
811.240	0.0134878
811.318	0.0135081
811.396	0.0135076
811.474	0.0134857
811.552	0.0134550
811.630	0.0135471
811.708	0.0135126
811.787	0.0134563
811.865	0.0134719
811.943	0.0134887
812.021	0.0135508
812.099	0.0135567
812.177	0.0134856
812.255	0.0135461
812.333	0.0136434
812.412	0.0136159
812.490	0.0135990
812.568	0.0136877
812.646	0.0135774
812.724	0.0136510
812.802	0.0136652
812.880	0.0136972
812.958	0.0137688
813.037	0.0137041
813.115	0.0135420
813.193	0.0135043
813.271	0.0135706
813.349	0.0135323
813.427	0.0136436
813.505	0.0136794
813.583	0.0137256
813.662	0.0135132
813.740	0.0135226
813.818	0.0134518
813.896	0.0134836
813.974	0.0135816
814.052	0.0136858
814.130	0.0135977
814.208	0.0135613
814.287	0.0135581
814.365	0.0135098
814.443	0.0136497
814.521	0.0137434
814.599	0.0136716
814.677	0.0136648
814.755	0.0137732
814.833	0.0139758
814.912	0.0137975
814.990	0.0139293
815.068	0.0140654
815.146	0.0140955
815.224	0.0140269
815.302	0.0141196
815.380	0.0141235
815.458	0.0140549
815.537	0.0141048
815.615	0.0140842
815.693	0.0139891
815.771	0.0140627
815.849	0.0140015
815.927	0.0138654
816.005	0.0140272
816.083	0.0138606
816.162	0.0138857
816.240	0.0139738
816.318	0.0138049
816.396	0.0137638
816.474	0.0138171
816.552	0.0137458
816.630	0.0137389
816.708	0.0138123
816.787	0.0137533
816.865	0.0136801
816.943	0.0137637
817.021	0.0137676
817.099	0.0134683
817.177	0.0134147
817.255	0.0134334
817.333	0.0135342
817.412	0.0133067
817.490	0.0133715
817.568	0.0133584
817.646	0.0132975
817.724	0.0132738
817.802	0.0132420
817.880	0.0132209
817.958	0.0133488
818.037	0.0133815
818.115	0.0132458
818.193	0.0134003
818.271	0.0133014
818.349	0.0133546
818.427	0.0133384
818.505	0.0135486
818.583	0.0136298
818.662	0.0135203
818.740	0.0136422
818.818	0.0135600
818.896	0.0136225
818.974	0.0136568
819.052	0.0136127
819.130	0.0136131
819.208	0.0137045
819.287	0.0138506
819.365	0.0137787
819.443	0.0136386
819.521	0.0138930
819.599	0.0137219
819.677	0.0137768
819.755	0.0138900
819.833	0.0138869
819.912	0.0138048
819.990	0.0137797
820.068	0.0137442
820.146	0.0138352
820.224	0.0138752
820.302	0.0138125
820.380	0.0140073
820.458	0.0137987
820.537	0.0137197
820.615	0.0138624
820.693	0.0139479
820.771	0.0138619
820.849	0.0137437
820.927	0.0138705
821.005	0.0138509
821.083	0.0138867
821.162	0.0137933
821.240	0.0138540
821.318	0.0138292
821.396	0.0137999
821.474	0.0136807
821.552	0.0137413
821.630	0.0138045
821.708	0.0138519
821.787	0.0139599
821.865	0.0138039
821.943	0.0138079
822.021	0.0137833
822.099	0.0139001
822.177	0.0138306
822.255	0.0138327
822.333	0.0138245
822.412	0.0138155
822.490	0.0137798
822.568	0.0136177
822.646	0.0137870
822.724	0.0138643
822.802	0.0136642
822.880	0.0136176
822.958	0.0135847
823.037	0.0136512
823.115	0.0136874
823.193	0.0136239
823.271	0.0134730
823.349	0.0136090
823.427	0.0136591
823.505	0.0137625
823.583	0.0135406
823.662	0.0135482
823.740	0.0135585
823.818	0.0135136
823.896	0.0134575
823.974	0.0136707
824.052	0.0135673
824.130	0.0134416
824.208	0.0135506
824.287	0.0137346
824.365	0.0136003
824.443	0.0135438
824.521	0.0135499
824.599	0.0135118
824.677	0.0136622
824.755	0.0136780
824.833	0.0135029
824.912	0.0136446
824.990	0.0136530
825.068	0.0137520
825.146	0.0137472
825.224	0.0135774
825.302	0.0136604
825.380	0.0135374
825.458	0.0134480
825.537	0.0136494
825.615	0.0135375
825.693	0.0136063
825.771	0.0136388
825.849	0.0137003
825.927	0.0137440
826.005	0.0136528
826.083	0.0137659
826.162	0.0139318
826.240	0.0137551
826.318	0.0138277
826.396	0.0139810
826.474	0.0140649
826.552	0.0140699
826.630	0.0140702
826.708	0.0141163
826.787	0.0141604
826.865	0.0142162
826.943	0.0141460
827.021	0.0140771
827.099	0.0141411
827.177	0.0141571
827.255	0.0142638
827.333	0.0140395
827.412	0.0141248
827.490	0.0141829
827.568	0.0140852
827.646	0.0140601
827.724	0.0141608
827.802	0.0139675
827.880	0.0138257
827.958	0.0139285
828.037	0.0141059
828.115	0.0140298
828.193	0.0139072
828.271	0.0138538
828.349	0.0138712
828.427	0.0137932
828.505	0.0139410
828.583	0.0138042
828.662	0.0139011
828.740	0.0137719
828.818	0.0137861
828.896	0.0135620
828.974	0.0137003
829.052	0.0135490
829.130	0.0135323
829.208	0.0135786
829.287	0.0135119
829.365	0.0134428
829.443	0.0136204
829.521	0.0135445
829.599	0.0133406
829.677	0.0134825
829.755	0.0136253
829.833	0.0135461
829.912	0.0136045
829.990	0.0135081
830.068	0.0136242
830.146	0.0135841
830.224	0.0137254
830.302	0.0137582
830.380	0.0134683
830.458	0.0135791
830.537	0.0133973
830.615	0.0134736
830.693	0.0134412
830.771	0.0135262
830.849	0.0133851
830.927	0.0134332
831.005	0.0135143
831.083	0.0135098
831.162	0.0135464
831.240	0.0133293
831.318	0.0134876
831.396	0.0135688
831.474	0.0135503
831.552	0.0135947
831.630	0.0135728
831.708	0.0135303
831.787	0.0136565
831.865	0.0137499
831.943	0.0136506
832.021	0.0137379
832.099	0.0137437
832.177	0.0138918
832.255	0.0138496
832.333	0.0138659
832.412	0.0138397
832.490	0.0139867
832.568	0.0139447
832.646	0.0139711
832.724	0.0137885
832.802	0.0139941
832.880	0.0140014
832.958	0.0138953
833.037	0.0138966
833.115	0.0138824
833.193	0.0138072
833.271	0.0140117
833.349	0.0138635
833.427	0.0138312
833.505	0.0140093
833.583	0.0138703
833.662	0.0139516
833.740	0.0138842
833.818	0.0138274
833.896	0.0139452
833.974	0.0139498
834.052	0.0138918
834.130	0.0139272
834.208	0.0138920
834.287	0.0137826
834.365	0.0136716
834.443	0.0137896
834.521	0.0136763
834.599	0.0135576
834.677	0.0136252
834.755	0.0136892
834.833	0.0135648
834.912	0.0136402
834.990	0.0137086
835.068	0.0135192
835.146	0.0136781
835.224	0.0135320
835.302	0.0136241
835.380	0.0138574
835.458	0.0137457
835.537	0.0137334
835.615	0.0138512
835.693	0.0137725
835.771	0.0137237
835.849	0.0137008
835.927	0.0138351
836.005	0.0136737
836.083	0.0136547
836.162	0.0136847
836.240	0.0135711
836.318	0.0135577
836.396	0.0135387
836.474	0.0134209
836.552	0.0134521
836.630	0.0132590
836.708	0.0134117
836.787	0.0133881
836.865	0.0133624
836.943	0.0133369
837.021	0.0133871
837.099	0.0133210
837.177	0.0134324
837.255	0.0133649
837.333	0.0135038
837.412	0.0134814
837.490	0.0133704
837.568	0.0134893
837.646	0.0134839
837.724	0.0136903
837.802	0.0137563
837.880	0.0136965
837.958	0.0138044
838.037	0.0137856
838.115	0.0139613
838.193	0.0137358
838.271	0.0137770
838.349	0.0138589
838.427	0.0138297
838.505	0.0137368
838.583	0.0138872
838.662	0.0140188
838.740	0.0138490
838.818	0.0137936
838.896	0.0138701
838.974	0.0138414
839.052	0.0137986
839.130	0.0139146
839.208	0.0140562
839.287	0.0140093
839.365	0.0140107
839.443	0.0140308
839.521	0.0139841
839.599	0.0139903
839.677	0.0140153
839.755	0.0138617
839.833	0.0139846
839.912	0.0139677
839.990	0.0140292
840.068	0.0139889
840.146	0.0137771
840.224	0.0137409
840.302	0.0138992
840.380	0.0136891
840.458	0.0136690
840.537	0.0137808
840.615	0.0136186
840.693	0.0136962
840.771	0.0134524
840.849	0.0136002
840.927	0.0137147
841.005	0.0135937
841.083	0.0134111
841.162	0.0134786
841.240	0.0134807
841.318	0.0134556
841.396	0.0134995
841.474	0.0134632
841.552	0.0132040
841.630	0.0135360
841.708	0.0135739
841.787	0.0134265
841.865	0.0133688
841.943	0.0133897
842.021	0.0133987
842.099	0.0134347
842.177	0.0133582
842.255	0.0133392
842.333	0.0134664
842.412	0.0134287
842.490	0.0135929
842.568	0.0135609
842.646	0.0134589
842.724	0.0136832
842.802	0.0137267
842.880	0.0135828
842.958	0.0136265
843.037	0.0136945
843.115	0.0136925
843.193	0.0138375
843.271	0.0138644
843.349	0.0137582
843.427	0.0138522
843.505	0.0138499
843.583	0.0139172
843.662	0.0139697
843.740	0.0137679
843.818	0.0138251
843.896	0.0138992
843.974	0.0138590
844.052	0.0138637
844.130	0.0138699
844.208	0.0138127
844.287	0.0138332
844.365	0.0138960
844.443	0.0137482
844.521	0.0138254
844.599	0.0139668
844.677	0.0137718
844.755	0.0137210
844.833	0.0137827
844.912	0.0138361
844.990	0.0138567
845.068	0.0137601
845.146	0.0137156
845.224	0.0137875
845.302	0.0137232
845.380	0.0137235
845.458	0.0137486
845.537	0.0137995
845.615	0.0138097
845.693	0.0138331
845.771	0.0138094
845.849	0.0138012
845.927	0.0138022
846.005	0.0136441
846.083	0.0136611
846.162	0.0137612
846.240	0.0136216
846.318	0.0136109
846.396	0.0136273
846.474	0.0136562
846.552	0.0136108
846.630	0.0136505
846.708	0.0135412
846.787	0.0135738
846.865	0.0135587
846.943	0.0136240
847.021	0.0135666
847.099	0.0137377
847.177	0.0136982
847.255	0.0135975
847.333	0.0136385
847.412	0.0136241
847.490	0.0135701
847.568	0.0136132
847.646	0.0136072
847.724	0.0135389
847.802	0.0136393
847.880	0.0135924
847.958	0.0135706
848.037	0.0135700
848.115	0.0136421
848.193	0.0137208
848.271	0.0137086
848.349	0.0135219
848.427	0.0136139
848.505	0.0137344
848.583	0.0136830
848.662	0.0137916
848.740	0.0139447
848.818	0.0137189
848.896	0.0138142
848.974	0.0137770
849.052	0.0138918
849.130	0.0137061
849.208	0.0136996
849.287	0.0136032
849.365	0.0135954
849.443	0.0137607
849.521	0.0137733
849.599	0.0137819
849.677	0.0138463
849.755	0.0137172
849.833	0.0137428
849.912	0.0136621
849.990	0.0137407
850.068	0.0137614
850.146	0.0136084
850.224	0.0136473
850.302	0.0137896
850.380	0.0137405
850.458	0.0137122
850.537	0.0137132
850.615	0.0135947
850.693	0.0137917
850.771	0.0136592
850.849	0.0136601
850.927	0.0137875
851.005	0.0137362
851.083	0.0138735
851.162	0.0137610
851.240	0.0138590
851.318	0.0139886
851.396	0.0138861
851.474	0.0139882
851.552	0.0139826
851.630	0.0139223
851.708	0.0140005
851.787	0.0139590
851.865	0.0139210
851.943	0.0138826
852.021	0.0138044
852.099	0.0137913
852.177	0.0138610
852.255	0.0137075
852.333	0.0136797
852.412	0.0135870
852.490	0.0135766
852.568	0.0134496
852.646	0.0135968
852.724	0.0135604
852.802	0.0134792
852.880	0.0136118
852.958	0.0135123
853.037	0.0134772
853.115	0.0135313
853.193	0.0135474
853.271	0.0134711
853.349	0.0136806
853.427	0.0135896
853.505	0.0136263
853.583	0.0135145
853.662	0.0136684
853.740	0.0137526
853.818	0.0136656
853.896	0.0135217
853.974	0.0136680
854.052	0.0137344
854.130	0.0137146
854.208	0.0135502
854.287	0.0135340
854.365	0.0136648
854.443	0.0136809
854.521	0.0135487
854.599	0.0136355
854.677	0.0137327
854.755	0.0137095
854.833	0.0137727
854.912	0.0137574
854.990	0.0137473
855.068	0.0136564
855.146	0.0137154
855.224	0.0137103
855.302	0.0137887
855.380	0.0137959
855.458	0.0137951
855.537	0.0136471
855.615	0.0137411
855.693	0.0135989
855.771	0.0136685
855.849	0.0137569
855.927	0.0136503
856.005	0.0137542
856.083	0.0138378
856.162	0.0136563
856.240	0.0135750
856.318	0.0136772
856.396	0.0136629
856.474	0.0137224
856.552	0.0138371
856.630	0.0138209
856.708	0.0138446
856.787	0.0138538
856.865	0.0138602
856.943	0.0138616
857.021	0.0136374
857.099	0.0139613
857.177	0.0140482
857.255	0.0139079
857.333	0.0138895
857.412	0.0139334
857.490	0.0138647
857.568	0.0137584
857.646	0.0137583
857.724	0.0139326
857.802	0.0138828
857.880	0.0137171
857.958	0.0138610
858.037	0.0137964
858.115	0.0135786
858.193	0.0137139
858.271	0.0136791
858.349	0.0136107
858.427	0.0136898
858.505	0.0136143
858.583	0.0136810
858.662	0.0138466
858.740	0.0137061
858.818	0.0137525
858.896	0.0137266
858.974	0.0137037
859.052	0.0137262
859.130	0.0137666
859.208	0.0135863
859.287	0.0135626
859.365	0.0136175
859.443	0.0136124
859.521	0.0135413
859.599	0.0135719
859.677	0.0136465
859.755	0.0134902
859.833	0.0136172
859.912	0.0136170
859.990	0.0136235
860.068	0.0136425
860.146	0.0137025
860.224	0.0137001
860.302	0.0136861
860.380	0.0138689
860.458	0.0137690
860.537	0.0139199
860.615	0.0137907
860.693	0.0138750
860.771	0.0135838
860.849	0.0135626
860.927	0.0137129
861.005	0.0136626
861.083	0.0136178
861.162	0.0136012
861.240	0.0136418
861.318	0.0136945
861.396	0.0136804
861.474	0.0137849
861.552	0.0137542
861.630	0.0136997
861.708	0.0136382
861.787	0.0138594
861.865	0.0139042
861.943	0.0139063
862.021	0.0138499
862.099	0.0137859
862.177	0.0138133
862.255	0.0139640
862.333	0.0139379
862.412	0.0137789
862.490	0.0137861
862.568	0.0137885
862.646	0.0138232
862.724	0.0137764
862.802	0.0137724
862.880	0.0137609
862.958	0.0138436
863.037	0.0138153
863.115	0.0139657
863.193	0.0140238
863.271	0.0139970
863.349	0.0139294
863.427	0.0139655
863.505	0.0139176
863.583	0.0139542
863.662	0.0139421
863.740	0.0138145
863.818	0.0138332
863.896	0.0136788
863.974	0.0137897
864.052	0.0137915
864.130	0.0136012
864.208	0.0136062
864.287	0.0136115
864.365	0.0136124
864.443	0.0137643
864.521	0.0137321
864.599	0.0136573
864.677	0.0134609
864.755	0.0135666
864.833	0.0135296
864.912	0.0136097
864.990	0.0134893
865.068	0.0134916
865.146	0.0135682
865.224	0.0136468
865.302	0.0136349
865.380	0.0135524
865.458	0.0136494
865.537	0.0137485
865.615	0.0137798
865.693	0.0137206
865.771	0.0136343
865.849	0.0135976
865.927	0.0137759
866.005	0.0137708
866.083	0.0138689
866.162	0.0136771
866.240	0.0136210
866.318	0.0137281
866.396	0.0138503
866.474	0.0136314
866.552	0.0137554
866.630	0.0138992
866.708	0.0139232
866.787	0.0137550
866.865	0.0137228
866.943	0.0139077
867.021	0.0137446
867.099	0.0137475
867.177	0.0137617
867.255	0.0136505
867.333	0.0134962
867.412	0.0134594
867.490	0.0134486
867.568	0.0134576
867.646	0.0133702
867.724	0.0132956
867.802	0.0132965
867.880	0.0132299
867.958	0.0134103
868.037	0.0133637
868.115	0.0134571
868.193	0.0135650
868.271	0.0134332
868.349	0.0135913
868.427	0.0135635
868.505	0.0136465
868.583	0.0136945
868.662	0.0138376
868.740	0.0138612
868.818	0.0139108
868.896	0.0139593
868.974	0.0140710
869.052	0.0139146
869.130	0.0140165
869.208	0.0139037
869.287	0.0140822
869.365	0.0141022
869.443	0.0140719
869.521	0.0140353
869.599	0.0139066
869.677	0.0140766
869.755	0.0140129
869.833	0.0138794
869.912	0.0139634
869.990	0.0138396
870.068	0.0139191
870.146	0.0138364
870.224	0.0139524
870.302	0.0139543
870.380	0.0138620
870.458	0.0137856
870.537	0.0137163
870.615	0.0138264
870.693	0.0137260
870.771	0.0135567
870.849	0.0134425
870.927	0.0133582
871.005	0.0133815
871.083	0.0132447
871.162	0.0132487
871.240	0.0133635
871.318	0.0133169
871.396	0.0131709
871.474	0.0131586
871.552	0.0133818
871.630	0.0133934
871.708	0.0133552
871.787	0.0134836
871.865	0.0136266
871.943	0.0136712
872.021	0.0138574
872.099	0.0138571
872.177	0.0138393
872.255	0.0136651
872.333	0.0137180
872.412	0.0138821
872.490	0.0139825
872.568	0.0139829
872.646	0.0139813
872.724	0.0138773
872.802	0.0141112
872.880	0.0141294
872.958	0.0141794
873.037	0.0141059
873.115	0.0142432
873.193	0.0142510
873.271	0.0141206
873.349	0.0141101
873.427	0.0142881
873.505	0.0143311
873.583	0.0141383
873.662	0.0140753
873.740	0.0140324
873.818	0.0140208
873.896	0.0138972
873.974	0.0139423
874.052	0.0138480
874.130	0.0136780
874.208	0.0136810
874.287	0.0135789
874.365	0.0134364
874.443	0.0133662
874.521	0.0133478
874.599	0.0133627
874.677	0.0132954
874.755	0.0131785
874.833	0.0131500
874.912	0.0130588
874.990	0.0131897
875.068	0.0132303
875.146	0.0133358
875.224	0.0131223
875.302	0.0131885
875.380	0.0133187
875.458	0.0134822
875.537	0.0133409
875.615	0.0134559
875.693	0.0135009
875.771	0.0134981
875.849	0.0134534
875.927	0.0135135
876.005	0.0134753
876.083	0.0135777
876.162	0.0135641
876.240	0.0136549
876.318	0.0137789
876.396	0.0137481
876.474	0.0139571
876.552	0.0139735
876.630	0.0138684
876.708	0.0139256
876.787	0.0141284
876.865	0.0141118
876.943	0.0142812
877.021	0.0142763
877.099	0.0141408
877.177	0.0142503
877.255	0.0142950
877.333	0.0142341
877.412	0.0141418
877.490	0.0140257
877.568	0.0140544
877.646	0.0139520
877.724	0.0140118
877.802	0.0139089
877.880	0.0139704
877.958	0.0136996
878.037	0.0136671
878.115	0.0137392
878.193	0.0137509
878.271	0.0137059
878.349	0.0136106
878.427	0.0136080
878.505	0.0135822
878.583	0.0135711
878.662	0.0135146
878.740	0.0133863
878.818	0.0132695
878.896	0.0132310
878.974	0.0132146
879.052	0.0131940
879.130	0.0132345
879.208	0.0133223
879.287	0.0132458
879.365	0.0131664
879.443	0.0134220
879.521	0.0134446
879.599	0.0136234
879.677	0.0137022
879.755	0.0138248
879.833	0.0137348
879.912	0.0139635
879.990	0.0138540
880.068	0.0139008
880.146	0.0139842
880.224	0.0139083
880.302	0.0138520
880.380	0.0138731
880.458	0.0140125
880.537	0.0138320
880.615	0.0137843
880.693	0.0137370
880.771	0.0137289
880.849	0.0137885
880.927	0.0137267
881.005	0.0136256
881.083	0.0135436
881.162	0.0136133
881.240	0.0135413
881.318	0.0135172
881.396	0.0134776
881.474	0.0135783
881.552	0.0136450
881.630	0.0133900
881.708	0.0135116
881.787	0.0135110
881.865	0.0135071
881.943	0.0135866
882.021	0.0135989
882.099	0.0135149
882.177	0.0136771
882.255	0.0136985
882.333	0.0137599
882.412	0.0136526
882.490	0.0139548
882.568	0.0137806
882.646	0.0137845
882.724	0.0138161
882.802	0.0137805
882.880	0.0140117
882.958	0.0138757
883.037	0.0138952
883.115	0.0138333
883.193	0.0140114
883.271	0.0139089
883.349	0.0139518
883.427	0.0140137
883.505	0.0140131
883.583	0.0140977
883.662	0.0139718
883.740	0.0141654
883.818	0.0140157
883.896	0.0139391
883.974	0.0139664
884.052	0.0138113
884.130	0.0138166
884.208	0.0137626
884.287	0.0137256
884.365	0.0136818
884.443	0.0135416
884.521	0.0136216
884.599	0.0136662
884.677	0.0136137
884.755	0.0136620
884.833	0.0134200
884.912	0.0135477
884.990	0.0137799
885.068	0.0135333
885.146	0.0134306
885.224	0.0135503
885.302	0.0136252
885.380	0.0134978
885.458	0.0133652
885.537	0.0134703
885.615	0.0136089
885.693	0.0135818
885.771	0.0134373
885.849	0.0135400
885.927	0.0133809
886.005	0.0134727
886.083	0.0134554
886.162	0.0135223
886.240	0.0135625
886.318	0.0134995
886.396	0.0136676
886.474	0.0136317
886.552	0.0135793
886.630	0.0137524
886.708	0.0137968
886.787	0.0138985
886.865	0.0139069
886.943	0.0140127
887.021	0.0141021
887.099	0.0140715
887.177	0.0140196
887.255	0.0141611
887.333	0.0141621
887.412	0.0142314
887.490	0.0142553
887.568	0.0141913
887.646	0.0140611
887.724	0.0138665
887.802	0.0138438
887.880	0.0140755
887.958	0.0138680
888.037	0.0139259
888.115	0.0138967
888.193	0.0137589
888.271	0.0137982
888.349	0.0137348
888.427	0.0136999
888.505	0.0138189
888.583	0.0137563
888.662	0.0137496
888.740	0.0134000
888.818	0.0135288
888.896	0.0135402
888.974	0.0134703
889.052	0.0134531
889.130	0.0133083
889.208	0.0132751
889.287	0.0132916
889.365	0.0133270
889.443	0.0132774
889.521	0.0133827
889.599	0.0134178
889.677	0.0135010
889.755	0.0134048
889.833	0.0135339
889.912	0.0136513
889.990	0.0136843
890.068	0.0136829
890.146	0.0136311
890.224	0.0139008
890.302	0.0138947
890.380	0.0140553
890.458	0.0139219
890.537	0.0139475
890.615	0.0140654
890.693	0.0142149
890.771	0.0142343
890.849	0.0140961
890.927	0.0142179
891.005	0.0141568
891.083	0.0140544
891.162	0.0140664
891.240	0.0140122
891.318	0.0138731
891.396	0.0137653
891.474	0.0137858
891.552	0.0137294
891.630	0.0136790
891.708	0.0137152
891.787	0.0135712
891.865	0.0135427
891.943	0.0136142
892.021	0.0134997
892.099	0.0134348
892.177	0.0134631
892.255	0.0134191
892.333	0.0134187
892.412	0.0134358
892.490	0.0134103
892.568	0.0134514
892.646	0.0134020
892.724	0.0134474
892.802	0.0135995
892.880	0.0136026
892.958	0.0136428
893.037	0.0137495
893.115	0.0136046
893.193	0.0138365
893.271	0.0139058
893.349	0.0138990
893.427	0.0139751
893.505	0.0139697
893.583	0.0139715
893.662	0.0140123
893.740	0.0140758
893.818	0.0141878
893.896	0.0138994
893.974	0.0139431
894.052	0.0139512
894.130	0.0139806
894.208	0.0139535
894.287	0.0137782
894.365	0.0136479
894.443	0.0137834
894.521	0.0137257
894.599	0.0137501
894.677	0.0138125
894.755	0.0137258
894.833	0.0135934
894.912	0.0137475
894.990	0.0136662
895.068	0.0136164
895.146	0.0136533
895.224	0.0136172
895.302	0.0137500
895.380	0.0136716
895.458	0.0137005
895.537	0.0137802
895.615	0.0136912
895.693	0.0137576
895.771	0.0136728
895.849	0.0137846
895.927	0.0137988
896.005	0.0136996
896.083	0.0135585
896.162	0.0137302
896.240	0.0137102
896.318	0.0136063
896.396	0.0135841
896.474	0.0135062
896.552	0.0136330
896.630	0.0135371
896.708	0.0135162
896.787	0.0135296
896.865	0.0136396
896.943	0.0135032
897.021	0.0136089
897.099	0.0135469
897.177	0.0136173
897.255	0.0136913
897.333	0.0137266
897.412	0.0137504
897.490	0.0138260
897.568	0.0137389
897.646	0.0137370
897.724	0.0137920
897.802	0.0138447
897.880	0.0138374
897.958	0.0138870
898.037	0.0138121
898.115	0.0138055
898.193	0.0139333
898.271	0.0139146
898.349	0.0138927
898.427	0.0140244
898.505	0.0139160
898.583	0.0140409
898.662	0.0140839
898.740	0.0140076
898.818	0.0139989
898.896	0.0140892
898.974	0.0141085
899.052	0.0140079
899.130	0.0138778
899.208	0.0138438
899.287	0.0137955
899.365	0.0137398
899.443	0.0135795
899.521	0.0136830
899.599	0.0136227
899.677	0.0134824
899.755	0.0135966
899.833	0.0135132
899.912	0.0135954
899.990	0.0133882
900.068	0.0134018
900.146	0.0135098
900.224	0.0134664
900.302	0.0135348
900.380	0.0135412
900.458	0.0132703
900.537	0.0133489
900.615	0.0135563
900.693	0.0133858
900.771	0.0135031
900.849	0.0136105
900.927	0.0136965
901.005	0.0135212
901.083	0.0135220
901.162	0.0135577
901.240	0.0135931
901.318	0.0135913
901.396	0.0135132
901.474	0.0135128
901.552	0.0135017
901.630	0.0136947
901.708	0.0137044
901.787	0.0136352
901.865	0.0137868
901.943	0.0138170
902.021	0.0139065
902.099	0.0138702
902.177	0.0138758
902.255	0.0140235
902.333	0.0139378
902.412	0.0139977
902.490	0.0140097
902.568	0.0139780
902.646	0.0139407
902.724	0.0140458
902.802	0.0139828
902.880	0.0138954
902.958	0.0138759
903.037	0.0138344
903.115	0.0138535
903.193	0.0136417
903.271	0.0136669
903.349	0.0136277
903.427	0.0136216
903.505	0.0136297
903.583	0.0136494
903.662	0.0134692
903.740	0.0135606
903.818	0.0136276
903.896	0.0135637
903.974	0.0136324
904.052	0.0138145
904.130	0.0137125
904.208	0.0136085
904.287	0.0136646
904.365	0.0137656
904.443	0.0136593
904.521	0.0137742
904.599	0.0137489
904.677	0.0138069
904.755	0.0139320
904.833	0.0137673
904.912	0.0135730
904.990	0.0137893
905.068	0.0139526
905.146	0.0138684
905.224	0.0136983
905.302	0.0138618
905.380	0.0137894
905.458	0.0139083
905.537	0.0137643
905.615	0.0139866
905.693	0.0139259
905.771	0.0139307
905.849	0.0138453
905.927	0.0138549
906.005	0.0137038
906.083	0.0136105
906.162	0.0136353
906.240	0.0135843
906.318	0.0133973
906.396	0.0133685
906.474	0.0134233
906.552	0.0133290
906.630	0.0132690
906.708	0.0132882
906.787	0.0133171
906.865	0.0133983
906.943	0.0134476
907.021	0.0133227
907.099	0.0133292
907.177	0.0133276
907.255	0.0133929
907.333	0.0134508
907.412	0.0134296
907.490	0.0134768
907.568	0.0134487
907.646	0.0134428
907.724	0.0135040
907.802	0.0135964
907.880	0.0135124
907.958	0.0136573
908.037	0.0137773
908.115	0.0137793
908.193	0.0138396
908.271	0.0139584
908.349	0.0140022
908.427	0.0139013
908.505	0.0139421
908.583	0.0141141
908.662	0.0139147
908.740	0.0140723
908.818	0.0141520
908.896	0.0141877
908.974	0.0142770
909.052	0.0141487
909.130	0.0140576
909.208	0.0140475
909.287	0.0140694
909.365	0.0140562
909.443	0.0140167
909.521	0.0138823
909.599	0.0138869
909.677	0.0137749
909.755	0.0136931
909.833	0.0136955
909.912	0.0135522
909.990	0.0136162
910.068	0.0136149
910.146	0.0136433
910.224	0.0137312
910.302	0.0136414
910.380	0.0136049
910.458	0.0137569
910.537	0.0136341
910.615	0.0136404
910.693	0.0135082
910.771	0.0136607
910.849	0.0136704
910.927	0.0134554
911.005	0.0136786
911.083	0.0136735
911.162	0.0135275
911.240	0.0135161
911.318	0.0135365
911.396	0.0135104
911.474	0.0136781
911.552	0.0136476
911.630	0.0136755
911.708	0.0135641
911.787	0.0135368
911.865	0.0136106
911.943	0.0136057
912.021	0.0135961
912.099	0.0137160
912.177	0.0135317
912.255	0.0134933
912.333	0.0135593
912.412	0.0135325
912.490	0.0136642
912.568	0.0137074
912.646	0.0137125
912.724	0.0137095
912.802	0.0136665
912.880	0.0136324
912.958	0.0137431
913.037	0.0137995
913.115	0.0136414
913.193	0.0136716
913.271	0.0137568
913.349	0.0136945
913.427	0.0137545
913.505	0.0137727
913.583	0.0137668
913.662	0.0136794
913.740	0.0138530
913.818	0.0137955
913.896	0.0137210
913.974	0.0137366
914.052	0.0137319
914.130	0.0138161
914.208	0.0137596
914.287	0.0138803
914.365	0.0138615
914.443	0.0138096
914.521	0.0138493
914.599	0.0140627
914.677	0.0139050
914.755	0.0137881
914.833	0.0139144
914.912	0.0138114
914.990	0.0136877
915.068	0.0137508
915.146	0.0138593
915.224	0.0136589
915.302	0.0136134
915.380	0.0135321
915.458	0.0135543
915.537	0.0136063
915.615	0.0136239
915.693	0.0133598
915.771	0.0135152
915.849	0.0136094
915.927	0.0137411
916.005	0.0137413
916.083	0.0137708
916.162	0.0136481
916.240	0.0138686
916.318	0.0138895
916.396	0.0137366
916.474	0.0138275
916.552	0.0138599
916.630	0.0138487
916.708	0.0139293
916.787	0.0137587
916.865	0.0136188
916.943	0.0136192
917.021	0.0136317
917.099	0.0135694
917.177	0.0135418
917.255	0.0135310
917.333	0.0134619
917.412	0.0135065
917.490	0.0136110
917.568	0.0135082
917.646	0.0133933
917.724	0.0134758
917.802	0.0134784
917.880	0.0133899
917.958	0.0133982
918.037	0.0134497
918.115	0.0133861
918.193	0.0135390
918.271	0.0136002
918.349	0.0132948
918.427	0.0135463
918.505	0.0137168
918.583	0.0136861
918.662	0.0136164
918.740	0.0136024
918.818	0.0136639
918.896	0.0136637
918.974	0.0136112
919.052	0.0137648
919.130	0.0138155
919.208	0.0137283
919.287	0.0137204
919.365	0.0138112
919.443	0.0138252
919.521	0.0138351
919.599	0.0139904
919.677	0.0139329
919.755	0.0139697
919.833	0.0140887
919.912	0.0141089
919.990	0.0139788
920.068	0.0141599
920.146	0.0140711
920.224	0.0141061
920.302	0.0141542
920.380	0.0140265
920.458	0.0142383
920.537	0.0139217
920.615	0.0140204
920.693	0.0139122
920.771	0.0139076
920.849	0.0138333
920.927	0.0139106
921.005	0.0138755
921.083	0.0137460
921.162	0.0137517
921.240	0.0135609
921.318	0.0136047
921.396	0.0136185
921.474	0.0136037
921.552	0.0137115
921.630	0.0136407
921.708	0.0135394
921.787	0.0136702
921.865	0.0136416
921.943	0.0136666
922.021	0.0136002
922.099	0.0135532
922.177	0.0135529
922.255	0.0136041
922.333	0.0136141
922.412	0.0137645
922.490	0.0136584
922.568	0.0135879
922.646	0.0135543
922.724	0.0133990
922.802	0.0135513
922.880	0.0135526
922.958	0.0134758
923.037	0.0135500
923.115	0.0136012
923.193	0.0134725
923.271	0.0135524
923.349	0.0136856
923.427	0.0137356
923.505	0.0137001
923.583	0.0136936
923.662	0.0137354
923.740	0.0137807
923.818	0.0137816
923.896	0.0138375
923.974	0.0138649
924.052	0.0139336
924.130	0.0137539
924.208	0.0139102
924.287	0.0140183
924.365	0.0138074
924.443	0.0138050
924.521	0.0138310
924.599	0.0137696
924.677	0.0137917
924.755	0.0137470
924.833	0.0137251
924.912	0.0137589
924.990	0.0138488
925.068	0.0138467
925.146	0.0135806
925.224	0.0136107
925.302	0.0138712
925.380	0.0136614
925.458	0.0137688
925.537	0.0135918
925.615	0.0136296
925.693	0.0138395
925.771	0.0136871
925.849	0.0136451
925.927	0.0136504
926.005	0.0137626
926.083	0.0138352
926.162	0.0137895
926.240	0.0136655
926.318	0.0137887
926.396	0.0138858
926.474	0.0136749
926.552	0.0138871
926.630	0.0138786
926.708	0.0137427
926.787	0.0136995
926.865	0.0137614
926.943	0.0137025
927.021	0.0137646
927.099	0.0138056
927.177	0.0136634
927.255	0.0137455
927.333	0.0137055
927.412	0.0137098
927.490	0.0136363
927.568	0.0135892
927.646	0.0138030
927.724	0.0138941
927.802	0.0137388
927.880	0.0136811
927.958	0.0137034
928.037	0.0136958
928.115	0.0137586
928.193	0.0137390
928.271	0.0137723
928.349	0.0136751
928.427	0.0136359
928.505	0.0135388
928.583	0.0136235
928.662	0.0135981
928.740	0.0136916
928.818	0.0135368
928.896	0.0134963
928.974	0.0134758
929.052	0.0135152
929.130	0.0137514
929.208	0.0136741
929.287	0.0137167
929.365	0.0137885
929.443	0.0137120
929.521	0.0134824
929.599	0.0136028
929.677	0.0138117
929.755	0.0137461
929.833	0.0136207
929.912	0.0137377
929.990	0.0135249
930.068	0.0137125
930.146	0.0136369
930.224	0.0135571
930.302	0.0136182
930.380	0.0136007
930.458	0.0136226
930.537	0.0135970
930.615	0.0137474
930.693	0.0137360
930.771	0.0136968
930.849	0.0136175
930.927	0.0136770
931.005	0.0139103
931.083	0.0138226
931.162	0.0137903
931.240	0.0137717
931.318	0.0139191
931.396	0.0138337
931.474	0.0139229
931.552	0.0139323
931.630	0.0138538
931.708	0.0139297
931.787	0.0138492
931.865	0.0139774
931.943	0.0139592
932.021	0.0139295
932.099	0.0139294
932.177	0.0139606
932.255	0.0140445
932.333	0.0139334
932.412	0.0139268
932.490	0.0139869
932.568	0.0139069
932.646	0.0139538
932.724	0.0138488
932.802	0.0138198
932.880	0.0137275
932.958	0.0138618
933.037	0.0136916
933.115	0.0136803
933.193	0.0137121
933.271	0.0137175
933.349	0.0136147
933.427	0.0136660
933.505	0.0136651
933.583	0.0135522
933.662	0.0134834
933.740	0.0134904
933.818	0.0136400
933.896	0.0135425
933.974	0.0133381
934.052	0.0136446
934.130	0.0135021
934.208	0.0133415
934.287	0.0135390
934.365	0.0135960
934.443	0.0136494
934.521	0.0135709
934.599	0.0134804
934.677	0.0135682
934.755	0.0135894
934.833	0.0136016
934.912	0.0137277
934.990	0.0137608
935.068	0.0135699
935.146	0.0137170
935.224	0.0137769
935.302	0.0136107
935.380	0.0138218
935.458	0.0138689
935.537	0.0137460
935.615	0.0138616
935.693	0.0137614
935.771	0.0136870
935.849	0.0136651
935.927	0.0136821
936.005	0.0136710
936.083	0.0138184
936.162	0.0136963
936.240	0.0134412
936.318	0.0137029
936.396	0.0136816
936.474	0.0136615
936.552	0.0137319
936.630	0.0136452
936.708	0.0136905
936.787	0.0137066
936.865	0.0137044
936.943	0.0136968
937.021	0.0137418
937.099	0.0136197
937.177	0.0137220
937.255	0.0137386
937.333	0.0137245
937.412	0.0138293
937.490	0.0138187
937.568	0.0138730
937.646	0.0138624
937.724	0.0140071
937.802	0.0139887
937.880	0.0139801
937.958	0.0139803
938.037	0.0139140
938.115	0.0139024
938.193	0.0138670
938.271	0.0139200
938.349	0.0138248
938.427	0.0139633
938.505	0.0138100
938.583	0.0137909
938.662	0.0137264
938.740	0.0138691
938.818	0.0135653
938.896	0.0136002
938.974	0.0135033
939.052	0.0136924
939.130	0.0136245
939.208	0.0136513
939.287	0.0137208
939.365	0.0135426
939.443	0.0134999
939.521	0.0136671
939.599	0.0135898
939.677	0.0135150
939.755	0.0136332
939.833	0.0136498
939.912	0.0137075
939.990	0.0136521
940.068	0.0136353
940.146	0.0135857
940.224	0.0136106
940.302	0.0137519
940.380	0.0137453
940.458	0.0137120
940.537	0.0137096
940.615	0.0137796
940.693	0.0137514
940.771	0.0138056
940.849	0.0137429
940.927	0.0137326
941.005	0.0136212
941.083	0.0138046
941.162	0.0138138
941.240	0.0136976
941.318	0.0136314
941.396	0.0135887
941.474	0.0135465
941.552	0.0134842
941.630	0.0135052
941.708	0.0136010
941.787	0.0135762
941.865	0.0134909
941.943	0.0134904
942.021	0.0135571
942.099	0.0135018
942.177	0.0135751
942.255	0.0135783
942.333	0.0136579
942.412	0.0136725
942.490	0.0137235
942.568	0.0136425
942.646	0.0137738
942.724	0.0137723
942.802	0.0138926
942.880	0.0138221
942.958	0.0139199
943.037	0.0139777
943.115	0.0139109
943.193	0.0139343
943.271	0.0138980
943.349	0.0139596
943.427	0.0139134
943.505	0.0140204
943.583	0.0139611
943.662	0.0138805
943.740	0.0140218
943.818	0.0140027
943.896	0.0139152
943.974	0.0138377
944.052	0.0137232
944.130	0.0139014
944.208	0.0138240
944.287	0.0137122
944.365	0.0138133
944.443	0.0136224
944.521	0.0137273
944.599	0.0138200
944.677	0.0136375
944.755	0.0134935
944.833	0.0134875
944.912	0.0135928
944.990	0.0137638
945.068	0.0136291
945.146	0.0136052
945.224	0.0135454
945.302	0.0137649
945.380	0.0136858
945.458	0.0137018
945.537	0.0138011
945.615	0.0138590
945.693	0.0137772
945.771	0.0137848
945.849	0.0138403
945.927	0.0139363
946.005	0.0139653
946.083	0.0137437
946.162	0.0137393
946.240	0.0137862
946.318	0.0138779
946.396	0.0138976
946.474	0.0138184
946.552	0.0137381
946.630	0.0137402
946.708	0.0136474
946.787	0.0137344
946.865	0.0135176
946.943	0.0134011
947.021	0.0136089
947.099	0.0134474
947.177	0.0135139
947.255	0.0135410
947.333	0.0134550
947.412	0.0133817
947.490	0.0134566
947.568	0.0133214
947.646	0.0134875
947.724	0.0135634
947.802	0.0136807
947.880	0.0137296
947.958	0.0136043
948.037	0.0135805
948.115	0.0137394
948.193	0.0137600
948.271	0.0137707
948.349	0.0138464
948.427	0.0137234
948.505	0.0137585
948.583	0.0137584
948.662	0.0137923
948.740	0.0138557
948.818	0.0139583
948.896	0.0139133
948.974	0.0138216
949.052	0.0137947
949.130	0.0138421
949.208	0.0139759
949.287	0.0139317
949.365	0.0138332
949.443	0.0138469
949.521	0.0139612
949.599	0.0139674
949.677	0.0137736
949.755	0.0139008
949.833	0.0139121
949.912	0.0139098
949.990	0.0139433
950.068	0.0139349
950.146	0.0140168
950.224	0.0138146
950.302	0.0138908
950.380	0.0139104
950.458	0.0136704
950.537	0.0137501
950.615	0.0137859
950.693	0.0138291
950.771	0.0136599
950.849	0.0136575
950.927	0.0136443
951.005	0.0137423
951.083	0.0135992
951.162	0.0136043
951.240	0.0136788
951.318	0.0136420
951.396	0.0136928
951.474	0.0137711
951.552	0.0139106
951.630	0.0137949
951.708	0.0138834
951.787	0.0137910
951.865	0.0138008
951.943	0.0137914
952.021	0.0137893
952.099	0.0138862
952.177	0.0137902
952.255	0.0137079
952.333	0.0137539
952.412	0.0136861
952.490	0.0137064
952.568	0.0136595
952.646	0.0137237
952.724	0.0135395
952.802	0.0135712
952.880	0.0135453
952.958	0.0136592
953.037	0.0135151
953.115	0.0135773
953.193	0.0135415
953.271	0.0135031
953.349	0.0134550
953.427	0.0136117
953.505	0.0135001
953.583	0.0135198
953.662	0.0135523
953.740	0.0135566
953.818	0.0135577
953.896	0.0135918
953.974	0.0136767
954.052	0.0136420
954.130	0.0135875
954.208	0.0136267
954.287	0.0136866
954.365	0.0137132
954.443	0.0136594
954.521	0.0136449
954.599	0.0137180
954.677	0.0138496
954.755	0.0139898
954.833	0.0138383
954.912	0.0140205
954.990	0.0139970
955.068	0.0140007
955.146	0.0139288
955.224	0.0138859
955.302	0.0138675
955.380	0.0139812
955.458	0.0139267
955.537	0.0141988
955.615	0.0140186
955.693	0.0139709
955.771	0.0138900
955.849	0.0139465
955.927	0.0139130
956.005	0.0140676
956.083	0.0139964
956.162	0.0138721
956.240	0.0138101
956.318	0.0137868
956.396	0.0137838
956.474	0.0138811
956.552	0.0135899
956.630	0.0136258
956.708	0.0136100
956.787	0.0136537
956.865	0.0137349
956.943	0.0135937
957.021	0.0135446
957.099	0.0135991
957.177	0.0136242
957.255	0.0136063
957.333	0.0137627
957.412	0.0138577
957.490	0.0138166
957.568	0.0138138
957.646	0.0138072
957.724	0.0139683
957.802	0.0138532
957.880	0.0137332
957.958	0.0138252
958.037	0.0137488
958.115	0.0137400
958.193	0.0136754
958.271	0.0136124
958.349	0.0137829
958.427	0.0137337
958.505	0.0136517
958.583	0.0137879
958.662	0.0136281
958.740	0.0135819
958.818	0.0136292
958.896	0.0136318
958.974	0.0135815
959.052	0.0135649
959.130	0.0135902
959.208	0.0136354
959.287	0.0136337
959.365	0.0134982
959.443	0.0135826
959.521	0.0136883
959.599	0.0135935
959.677	0.0136432
959.755	0.0137247
959.833	0.0137057
959.912	0.0136369
959.990	0.0137212
960.068	0.0137388
960.146	0.0137677
960.224	0.0138374
960.302	0.0137334
960.380	0.0137881
960.458	0.0137432
960.537	0.0137051
960.615	0.0139352
960.693	0.0137599
960.771	0.0139490
960.849	0.0140115
960.927	0.0138383
961.005	0.0138614
961.083	0.0138136
961.162	0.0138012
961.240	0.0138911
961.318	0.0137330
961.396	0.0137246
961.474	0.0137398
961.552	0.0136732
961.630	0.0136874
961.708	0.0137143
961.787	0.0137386
961.865	0.0135812
961.943	0.0137044
962.021	0.0136888
962.099	0.0136658
962.177	0.0135136
962.255	0.0135695
962.333	0.0136289
962.412	0.0137274
962.490	0.0138715
962.568	0.0136986
962.646	0.0137679
962.724	0.0138686
962.802	0.0137574
962.880	0.0138469
962.958	0.0139261
963.037	0.0138373
963.115	0.0137381
963.193	0.0138387
963.271	0.0138656
963.349	0.0138783
963.427	0.0137611
963.505	0.0137620
963.583	0.0138076
963.662	0.0138974
963.740	0.0137732
963.818	0.0137392
963.896	0.0136701
963.974	0.0136327
964.052	0.0137563
964.130	0.0137346
964.208	0.0135960
964.287	0.0136080
964.365	0.0136330
964.443	0.0135548
964.521	0.0134669
964.599	0.0136231
964.677	0.0136030
964.755	0.0134718
964.833	0.0134007
964.912	0.0133746
964.990	0.0133429
965.068	0.0134425
965.146	0.0133558
965.224	0.0134540
965.302	0.0133572
965.380	0.0134290
965.458	0.0136040
965.537	0.0135176
965.615	0.0136723
965.693	0.0138385
965.771	0.0137537
965.849	0.0136760
965.927	0.0138346
966.005	0.0139014
966.083	0.0139056
966.162	0.0139053
966.240	0.0140190
966.318	0.0140088
966.396	0.0140556
966.474	0.0141550
966.552	0.0140643
966.630	0.0140531
966.708	0.0140241
966.787	0.0141378
966.865	0.0141486
966.943	0.0141167
967.021	0.0139798
967.099	0.0140768
967.177	0.0140569
967.255	0.0138733
967.333	0.0139692
967.412	0.0139096
967.490	0.0136404
967.568	0.0135117
967.646	0.0136645
967.724	0.0137394
967.802	0.0134486
967.880	0.0134296
967.958	0.0134116
968.037	0.0134601
968.115	0.0132068
968.193	0.0132563
968.271	0.0133380
968.349	0.0133469
968.427	0.0132913
968.505	0.0133945
968.583	0.0133972
968.662	0.0135392
968.740	0.0134036
968.818	0.0134957
968.896	0.0136243
968.974	0.0136346
969.052	0.0136849
969.130	0.0138024
969.208	0.0138203
969.287	0.0139526
969.365	0.0139392
969.443	0.0139078
969.521	0.0140063
969.599	0.0140367
969.677	0.0141769
969.755	0.0141632
969.833	0.0141612
969.912	0.0140925
