05/08/2022	19:51:20	Ver.	4.1	UNKNOWN
Optical Delay	649.989667	Delta X		0.078125	Sweeps	1	Scan Rate	0/0
Coordinates	Axis 1	NaN	Axis 2	NaN	Axis 3	NaN	Axis 4	NaN	Axis 5	NaN	Axis 6	0.000000
TX Power	0.000000	RX Power	0.000000

649.990	0.0135632
650.068	0.0136428
650.146	0.0135377
650.224	0.0136292
650.302	0.0135160
650.380	0.0133430
650.458	0.0134675
650.537	0.0134900
650.615	0.0135800
650.693	0.0134773
650.771	0.0135622
650.849	0.0135311
650.927	0.0135274
651.005	0.0135562
651.083	0.0135066
651.162	0.0134753
651.240	0.0135079
651.318	0.0135528
651.396	0.0135350
651.474	0.0135770
651.552	0.0136532
651.630	0.0134567
651.708	0.0135429
651.787	0.0135913
651.865	0.0135406
651.943	0.0135600
652.021	0.0134969
652.099	0.0134243
652.177	0.0135793
652.255	0.0134631
652.333	0.0135374
652.412	0.0135197
652.490	0.0134159
652.568	0.0135462
652.646	0.0135329
652.724	0.0136423
652.802	0.0134468
652.880	0.0134969
652.958	0.0134328
653.037	0.0136036
653.115	0.0135056
653.193	0.0135667
653.271	0.0136178
653.349	0.0135500
653.427	0.0135950
653.505	0.0136442
653.583	0.0134372
653.662	0.0135519
653.740	0.0135453
653.818	0.0135872
653.896	0.0135192
653.974	0.0135524
654.052	0.0135948
654.130	0.0135166
654.208	0.0137412
654.287	0.0136577
654.365	0.0135460
654.443	0.0136208
654.521	0.0136547
654.599	0.0135005
654.677	0.0135635
654.755	0.0136238
654.833	0.0136056
654.912	0.0136143
654.990	0.0136192
655.068	0.0136515
655.146	0.0135873
655.224	0.0136469
655.302	0.0135963
655.380	0.0136185
655.458	0.0137278
655.537	0.0135712
655.615	0.0136246
655.693	0.0135017
655.771	0.0135542
655.849	0.0134685
655.927	0.0137071
656.005	0.0136664
656.083	0.0135857
656.162	0.0135287
656.240	0.0135934
656.318	0.0137428
656.396	0.0136330
656.474	0.0134156
656.552	0.0135698
656.630	0.0134990
656.708	0.0136305
656.787	0.0136645
656.865	0.0135017
656.943	0.0135828
657.021	0.0137224
657.099	0.0136139
657.177	0.0136022
657.255	0.0135123
657.333	0.0136081
657.412	0.0134927
657.490	0.0135564
657.568	0.0135526
657.646	0.0135879
657.724	0.0134998
657.802	0.0136466
657.880	0.0135627
657.958	0.0136754
658.037	0.0135854
658.115	0.0135859
658.193	0.0134920
658.271	0.0136511
658.349	0.0136346
658.427	0.0135959
658.505	0.0135125
658.583	0.0136308
658.662	0.0135709
658.740	0.0135675
658.818	0.0135847
658.896	0.0134902
658.974	0.0135417
659.052	0.0136197
659.130	0.0136787
659.208	0.0137134
659.287	0.0135347
659.365	0.0135130
659.443	0.0136822
659.521	0.0136552
659.599	0.0136732
659.677	0.0135209
659.755	0.0136066
659.833	0.0135400
659.912	0.0135425
659.990	0.0136070
660.068	0.0134635
660.146	0.0134106
660.224	0.0134741
660.302	0.0135091
660.380	0.0136097
660.458	0.0136240
660.537	0.0134708
660.615	0.0135772
660.693	0.0135646
660.771	0.0134424
660.849	0.0135806
660.927	0.0136208
661.005	0.0137367
661.083	0.0135549
661.162	0.0135414
661.240	0.0134617
661.318	0.0137361
661.396	0.0135819
661.474	0.0135434
661.552	0.0136423
661.630	0.0136552
661.708	0.0136425
661.787	0.0136482
661.865	0.0136829
661.943	0.0136240
662.021	0.0136494
662.099	0.0136543
662.177	0.0136439
662.255	0.0136287
662.333	0.0136874
662.412	0.0135599
662.490	0.0135123
662.568	0.0135283
662.646	0.0135928
662.724	0.0135423
662.802	0.0136090
662.880	0.0134291
662.958	0.0135216
663.037	0.0136247
663.115	0.0136903
663.193	0.0136446
663.271	0.0135809
663.349	0.0136766
663.427	0.0137737
663.505	0.0138854
663.583	0.0137629
663.662	0.0136838
663.740	0.0137280
663.818	0.0136828
663.896	0.0136156
663.974	0.0134948
664.052	0.0134042
664.130	0.0133793
664.208	0.0133165
664.287	0.0133340
664.365	0.0133183
664.443	0.0133635
664.521	0.0135785
664.599	0.0137247
664.677	0.0136485
664.755	0.0138430
664.833	0.0140000
664.912	0.0141725
664.990	0.0141340
665.068	0.0141956
665.146	0.0142087
665.224	0.0142111
665.302	0.0141351
665.380	0.0140211
665.458	0.0139496
665.537	0.0137074
665.615	0.0136181
665.693	0.0134207
665.771	0.0130775
665.849	0.0129024
665.927	0.0128728
666.005	0.0128065
666.083	0.0128510
666.162	0.0129539
666.240	0.0129543
666.318	0.0130907
666.396	0.0132241
666.474	0.0135940
666.552	0.0136176
666.630	0.0138975
666.708	0.0139925
666.787	0.0142245
666.865	0.0142622
666.943	0.0141971
667.021	0.0142743
667.099	0.0141577
667.177	0.0139794
667.255	0.0138945
667.333	0.0137553
667.412	0.0136437
667.490	0.0135373
667.568	0.0135768
667.646	0.0134372
667.724	0.0135323
667.802	0.0135583
667.880	0.0137984
667.958	0.0138633
668.037	0.0138812
668.115	0.0139038
668.193	0.0139597
668.271	0.0138842
668.349	0.0136038
668.427	0.0135551
668.505	0.0133694
668.583	0.0131252
668.662	0.0127578
668.740	0.0126079
668.818	0.0122966
668.896	0.0124019
668.974	0.0124828
669.052	0.0123291
669.130	0.0124943
669.208	0.0128124
669.287	0.0132049
669.365	0.0135085
669.443	0.0138692
669.521	0.0142520
669.599	0.0146095
669.677	0.0149142
669.755	0.0149514
669.833	0.0148621
669.912	0.0149119
669.990	0.0146297
670.068	0.0145035
670.146	0.0141238
670.224	0.0137711
670.302	0.0137058
670.380	0.0133882
670.458	0.0129572
670.537	0.0129869
670.615	0.0128529
670.693	0.0129903
670.771	0.0131116
670.849	0.0132674
670.927	0.0134596
671.005	0.0136771
671.083	0.0138836
671.162	0.0140723
671.240	0.0139810
671.318	0.0139236
671.396	0.0140638
671.474	0.0139367
671.552	0.0138628
671.630	0.0137434
671.708	0.0136277
671.787	0.0134080
671.865	0.0132851
671.943	0.0129820
672.021	0.0128410
672.099	0.0126961
672.177	0.0124487
672.255	0.0122522
672.333	0.0121581
672.412	0.0120051
672.490	0.0120150
672.568	0.0119098
672.646	0.0121252
672.724	0.0122402
672.802	0.0125182
672.880	0.0129590
672.958	0.0133251
673.037	0.0136584
673.115	0.0140900
673.193	0.0143137
673.271	0.0147292
673.349	0.0148395
673.427	0.0150101
673.505	0.0151139
673.583	0.0152670
673.662	0.0150503
673.740	0.0150014
673.818	0.0148165
673.896	0.0147124
673.974	0.0144611
674.052	0.0144782
674.130	0.0142522
674.208	0.0142561
674.287	0.0141573
674.365	0.0141890
674.443	0.0142653
674.521	0.0142059
674.599	0.0141420
674.677	0.0140009
674.755	0.0139964
674.833	0.0138684
674.912	0.0136095
674.990	0.0134269
675.068	0.0132951
675.146	0.0130845
675.224	0.0128386
675.302	0.0125320
675.380	0.0124638
675.458	0.0123440
675.537	0.0118609
675.615	0.0117075
675.693	0.0116904
675.771	0.0115118
675.849	0.0112814
675.927	0.0111116
676.005	0.0110475
676.083	0.0111250
676.162	0.0111199
676.240	0.0111067
676.318	0.0114217
676.396	0.0117129
676.474	0.0124015
676.552	0.0127548
676.630	0.0133917
676.708	0.0137007
676.787	0.0141026
676.865	0.0145072
676.943	0.0148382
677.021	0.0151188
677.099	0.0152644
677.177	0.0152757
677.255	0.0152933
677.333	0.0153463
677.412	0.0154490
677.490	0.0155113
677.568	0.0156484
677.646	0.0158488
677.724	0.0160838
677.802	0.0162823
677.880	0.0165585
677.958	0.0167803
678.037	0.0169777
678.115	0.0169715
678.193	0.0169789
678.271	0.0167549
678.349	0.0163027
678.427	0.0160437
678.505	0.0153604
678.583	0.0147601
678.662	0.0139983
678.740	0.0132327
678.818	0.0121893
678.896	0.0115121
678.974	0.0109245
679.052	0.0101240
679.130	0.00975578
679.208	0.00933594
679.287	0.00912392
679.365	0.00893463
679.443	0.00883583
679.521	0.00898346
679.599	0.00909706
679.677	0.00931152
679.755	0.00949013
679.833	0.00995003
679.912	0.0102503
679.990	0.0107617
680.068	0.0112175
680.146	0.0116889
680.224	0.0119773
680.302	0.0125811
680.380	0.0129506
680.458	0.0132104
680.537	0.0134743
680.615	0.0139092
680.693	0.0143313
680.771	0.0146535
680.849	0.0149562
680.927	0.0155147
681.005	0.0160149
681.083	0.0164063
681.162	0.0168463
681.240	0.0172956
681.318	0.0177227
681.396	0.0178831
681.474	0.0181966
681.552	0.0183482
681.630	0.0184209
681.708	0.0185558
681.787	0.0183907
681.865	0.0183578
681.943	0.0181060
682.021	0.0176967
682.099	0.0173336
682.177	0.0168013
682.255	0.0162508
682.333	0.0158245
682.412	0.0152275
682.490	0.0144605
682.568	0.0140018
682.646	0.0135258
682.724	0.0127596
682.802	0.0120788
682.880	0.0115057
682.958	0.0105674
683.037	0.00993752
683.115	0.00921547
683.193	0.00837624
683.271	0.00802200
683.349	0.00725899
683.427	0.00663116
683.505	0.00622490
683.583	0.00607414
683.662	0.00603516
683.740	0.00631371
683.818	0.00663651
683.896	0.00722229
683.974	0.00789146
684.052	0.00889748
684.130	0.00983635
684.208	0.0109047
684.287	0.0120933
684.365	0.0132516
684.443	0.0144106
684.521	0.0153982
684.599	0.0163811
684.677	0.0173415
684.755	0.0182035
684.833	0.0187853
684.912	0.0194239
684.990	0.0198464
685.068	0.0201828
685.146	0.0203834
685.224	0.0204618
685.302	0.0202737
685.380	0.0198193
685.458	0.0195423
685.537	0.0187902
685.615	0.0180089
685.693	0.0172326
685.771	0.0164910
685.849	0.0156265
685.927	0.0148528
686.005	0.0142428
686.083	0.0135973
686.162	0.0130684
686.240	0.0127338
686.318	0.0125446
686.396	0.0122187
686.474	0.0121740
686.552	0.0121122
686.630	0.0119726
686.708	0.0118388
686.787	0.0119268
686.865	0.0117217
686.943	0.0115877
687.021	0.0113845
687.099	0.0114821
687.177	0.0114437
687.255	0.0113250
687.333	0.0113185
687.412	0.0114127
687.490	0.0116308
687.568	0.0118619
687.646	0.0118710
687.724	0.0121378
687.802	0.0123689
687.880	0.0123530
687.958	0.0124890
688.037	0.0123586
688.115	0.0122077
688.193	0.0122160
688.271	0.0118465
688.349	0.0116250
688.427	0.0112742
688.505	0.0110500
688.583	0.0106683
688.662	0.0106508
688.740	0.0109431
688.818	0.0112312
688.896	0.0115584
688.974	0.0121924
689.052	0.0129131
689.130	0.0136208
689.208	0.0142850
689.287	0.0150304
689.365	0.0157606
689.443	0.0161607
689.521	0.0166205
689.599	0.0170113
689.677	0.0172810
689.755	0.0174892
689.833	0.0175714
689.912	0.0178176
689.990	0.0178025
690.068	0.0177596
690.146	0.0176148
690.224	0.0174659
690.302	0.0172402
690.380	0.0168801
690.458	0.0165893
690.537	0.0160365
690.615	0.0156013
690.693	0.0150868
690.771	0.0145622
690.849	0.0139246
690.927	0.0134822
691.005	0.0126622
691.083	0.0119724
691.162	0.0116491
691.240	0.0111009
691.318	0.0107430
691.396	0.0106004
691.474	0.0103156
691.552	0.0102713
691.630	0.0104163
691.708	0.0106642
691.787	0.0110163
691.865	0.0112245
691.943	0.0116136
692.021	0.0119830
692.099	0.0123962
692.177	0.0128934
692.255	0.0130085
692.333	0.0134348
692.412	0.0135878
692.490	0.0137859
692.568	0.0140711
692.646	0.0140476
692.724	0.0144354
692.802	0.0144163
692.880	0.0146578
692.958	0.0147856
693.037	0.0147645
693.115	0.0147701
693.193	0.0147443
693.271	0.0148467
693.349	0.0145057
693.427	0.0142920
693.505	0.0140273
693.583	0.0134995
693.662	0.0130840
693.740	0.0123176
693.818	0.0118817
693.896	0.0114618
693.974	0.0110673
694.052	0.0106715
694.130	0.0106525
694.208	0.0105848
694.287	0.0109124
694.365	0.0110653
694.443	0.0115025
694.521	0.0117821
694.599	0.0122947
694.677	0.0126115
694.755	0.0131619
694.833	0.0134391
694.912	0.0136926
694.990	0.0142504
695.068	0.0145683
695.146	0.0150555
695.224	0.0154315
695.302	0.0157693
695.380	0.0162140
695.458	0.0166122
695.537	0.0166528
695.615	0.0169630
695.693	0.0170177
695.771	0.0168700
695.849	0.0167832
695.927	0.0167079
696.005	0.0166845
696.083	0.0163972
696.162	0.0161428
696.240	0.0159815
696.318	0.0157524
696.396	0.0152701
696.474	0.0149233
696.552	0.0147057
696.630	0.0143185
696.708	0.0139810
696.787	0.0135820
696.865	0.0130737
696.943	0.0126086
697.021	0.0123562
697.099	0.0117945
697.177	0.0114706
697.255	0.0109303
697.333	0.0105556
697.412	0.0100977
697.490	0.00989235
697.568	0.00980515
697.646	0.00953941
697.724	0.00957138
697.802	0.00979897
697.880	0.0102576
697.958	0.0106235
698.037	0.0112297
698.115	0.0119096
698.193	0.0126034
698.271	0.0131236
698.349	0.0135206
698.427	0.0142277
698.505	0.0145797
698.583	0.0148813
698.662	0.0151871
698.740	0.0152623
698.818	0.0152105
698.896	0.0152955
698.974	0.0148580
699.052	0.0147217
699.130	0.0144920
699.208	0.0141802
699.287	0.0138407
699.365	0.0134538
699.443	0.0131715
699.521	0.0128790
699.599	0.0126053
699.677	0.0123486
699.755	0.0123310
699.833	0.0124059
699.912	0.0123696
699.990	0.0124405
700.068	0.0128043
700.146	0.0129175
700.224	0.0129041
700.302	0.0130667
700.380	0.0131187
700.458	0.0131731
700.537	0.0135036
700.615	0.0136717
700.693	0.0136594
700.771	0.0138616
700.849	0.0140171
700.927	0.0144337
701.005	0.0146862
701.083	0.0148849
701.162	0.0153601
701.240	0.0156266
701.318	0.0160972
701.396	0.0163976
701.474	0.0164475
701.552	0.0166087
701.630	0.0166936
701.708	0.0166446
701.787	0.0164809
701.865	0.0161600
701.943	0.0158746
702.021	0.0157832
702.099	0.0154538
702.177	0.0149557
702.255	0.0143392
702.333	0.0139779
702.412	0.0135345
702.490	0.0131213
702.568	0.0124056
702.646	0.0119875
702.724	0.0115390
702.802	0.0111244
702.880	0.0108458
702.958	0.0104558
703.037	0.0105358
703.115	0.0106031
703.193	0.0105524
703.271	0.0107188
703.349	0.0106714
703.427	0.0108939
703.505	0.0113062
703.583	0.0115461
703.662	0.0117798
703.740	0.0119655
703.818	0.0122566
703.896	0.0122822
703.974	0.0126871
704.052	0.0129168
704.130	0.0131232
704.208	0.0132424
704.287	0.0133427
704.365	0.0135800
704.443	0.0138586
704.521	0.0140697
704.599	0.0141011
704.677	0.0143415
704.755	0.0146878
704.833	0.0147543
704.912	0.0149372
704.990	0.0149288
705.068	0.0147824
705.146	0.0144583
705.224	0.0142153
705.302	0.0138516
705.380	0.0135217
705.458	0.0130847
705.537	0.0127786
705.615	0.0125277
705.693	0.0121916
705.771	0.0120323
705.849	0.0122557
705.927	0.0122708
706.005	0.0122602
706.083	0.0124586
706.162	0.0128619
706.240	0.0130576
706.318	0.0135346
706.396	0.0139693
706.474	0.0143143
706.552	0.0146886
706.630	0.0151147
706.708	0.0154807
706.787	0.0160484
706.865	0.0163067
706.943	0.0165788
707.021	0.0166908
707.099	0.0169384
707.177	0.0169981
707.255	0.0169588
707.333	0.0167738
707.412	0.0165154
707.490	0.0162650
707.568	0.0158470
707.646	0.0154945
707.724	0.0149610
707.802	0.0143918
707.880	0.0139738
707.958	0.0134575
708.037	0.0131003
708.115	0.0126908
708.193	0.0124097
708.271	0.0121180
708.349	0.0120598
708.427	0.0118364
708.505	0.0116306
708.583	0.0113925
708.662	0.0112234
708.740	0.0111566
708.818	0.0110480
708.896	0.0110345
708.974	0.0107241
709.052	0.0106528
709.130	0.0105970
709.208	0.0105241
709.287	0.0104846
709.365	0.0105276
709.443	0.0106438
709.521	0.0106440
709.599	0.0110108
709.677	0.0112557
709.755	0.0115802
709.833	0.0121862
709.912	0.0125118
709.990	0.0129707
710.068	0.0136893
710.146	0.0141582
710.224	0.0148669
710.302	0.0153863
710.380	0.0159018
710.458	0.0163735
710.537	0.0167588
710.615	0.0168813
710.693	0.0170827
710.771	0.0171940
710.849	0.0169157
710.927	0.0165866
711.005	0.0160899
711.083	0.0155259
711.162	0.0148910
711.240	0.0142236
711.318	0.0136011
711.396	0.0127716
711.474	0.0122375
711.552	0.0118997
711.630	0.0115504
711.708	0.0112695
711.787	0.0112588
711.865	0.0113731
711.943	0.0115075
712.021	0.0118116
712.099	0.0122549
712.177	0.0127018
712.255	0.0131081
712.333	0.0135381
712.412	0.0139595
712.490	0.0144125
712.568	0.0146432
712.646	0.0148681
712.724	0.0151624
712.802	0.0154185
712.880	0.0154276
712.958	0.0156168
713.037	0.0158712
713.115	0.0159137
713.193	0.0158576
713.271	0.0161102
713.349	0.0161420
713.427	0.0160825
713.505	0.0160114
713.583	0.0159180
713.662	0.0156528
713.740	0.0152601
713.818	0.0147841
713.896	0.0144563
713.974	0.0140047
714.052	0.0135449
714.130	0.0132243
714.208	0.0128549
714.287	0.0125152
714.365	0.0123370
714.443	0.0121877
714.521	0.0119599
714.599	0.0116546
714.677	0.0115498
714.755	0.0114798
714.833	0.0110665
714.912	0.0109368
714.990	0.0107295
715.068	0.0105814
715.146	0.0104857
715.224	0.0102955
715.302	0.0103154
715.380	0.0105423
715.458	0.0106257
715.537	0.0108711
715.615	0.0114078
715.693	0.0116990
715.771	0.0121196
715.849	0.0127359
715.927	0.0131931
716.005	0.0135210
716.083	0.0139763
716.162	0.0143325
716.240	0.0146906
716.318	0.0149815
716.396	0.0152944
716.474	0.0154282
716.552	0.0156045
716.630	0.0156281
716.708	0.0155272
716.787	0.0155726
716.865	0.0155438
716.943	0.0152933
717.021	0.0153207
717.099	0.0153191
717.177	0.0151460
717.255	0.0149718
717.333	0.0148459
717.412	0.0147524
717.490	0.0144187
717.568	0.0143044
717.646	0.0140777
717.724	0.0142292
717.802	0.0137862
717.880	0.0136755
717.958	0.0136866
718.037	0.0134743
718.115	0.0132489
718.193	0.0131168
718.271	0.0130723
718.349	0.0128188
718.427	0.0126875
718.505	0.0126195
718.583	0.0126614
718.662	0.0125612
718.740	0.0125256
718.818	0.0126662
718.896	0.0127259
718.974	0.0130683
719.052	0.0133566
719.130	0.0135612
719.208	0.0139311
719.287	0.0141982
719.365	0.0144915
719.443	0.0147921
719.521	0.0149768
719.599	0.0150242
719.677	0.0151826
719.755	0.0151413
719.833	0.0151031
719.912	0.0148657
719.990	0.0147691
720.068	0.0144778
720.146	0.0143695
720.224	0.0140769
720.302	0.0137905
720.380	0.0134129
720.458	0.0133974
720.537	0.0133223
720.615	0.0130620
720.693	0.0128400
720.771	0.0127856
720.849	0.0125755
720.927	0.0124157
721.005	0.0121452
721.083	0.0119437
721.162	0.0116885
721.240	0.0114742
721.318	0.0112921
721.396	0.0112016
721.474	0.0112404
721.552	0.0112618
721.630	0.0111276
721.708	0.0113615
721.787	0.0117152
721.865	0.0120266
721.943	0.0123284
722.021	0.0124197
722.099	0.0128759
722.177	0.0133614
722.255	0.0139490
722.333	0.0141759
722.412	0.0146637
722.490	0.0150832
722.568	0.0153584
722.646	0.0154753
722.724	0.0156973
722.802	0.0157425
722.880	0.0156885
722.958	0.0155888
723.037	0.0154089
723.115	0.0150109
723.193	0.0147313
723.271	0.0144458
723.349	0.0140257
723.427	0.0135239
723.505	0.0132451
723.583	0.0129447
723.662	0.0124787
723.740	0.0124790
723.818	0.0123378
723.896	0.0123015
723.974	0.0123256
724.052	0.0125546
724.130	0.0126617
724.208	0.0128373
724.287	0.0130333
724.365	0.0135163
724.443	0.0137798
724.521	0.0140759
724.599	0.0141952
724.677	0.0143344
724.755	0.0148222
724.833	0.0149213
724.912	0.0150391
724.990	0.0151718
725.068	0.0152689
725.146	0.0153949
725.224	0.0154284
725.302	0.0154729
725.380	0.0154765
725.458	0.0154352
725.537	0.0153284
725.615	0.0152308
725.693	0.0149050
725.771	0.0146928
725.849	0.0145300
725.927	0.0143005
726.005	0.0141712
726.083	0.0139265
726.162	0.0135352
726.240	0.0133514
726.318	0.0131768
726.396	0.0128527
726.474	0.0126073
726.552	0.0123807
726.630	0.0121412
726.708	0.0119469
726.787	0.0117116
726.865	0.0116906
726.943	0.0117145
727.021	0.0114041
727.099	0.0113854
727.177	0.0113255
727.255	0.0112788
727.333	0.0113264
727.412	0.0112604
727.490	0.0113398
727.568	0.0114761
727.646	0.0116870
727.724	0.0116674
727.802	0.0119281
727.880	0.0123384
727.958	0.0125668
728.037	0.0129939
728.115	0.0133291
728.193	0.0136954
728.271	0.0142066
728.349	0.0145036
728.427	0.0148664
728.505	0.0151316
728.583	0.0154619
728.662	0.0156202
728.740	0.0155228
728.818	0.0154639
728.896	0.0154379
728.974	0.0151740
729.052	0.0149311
729.130	0.0147822
729.208	0.0144690
729.287	0.0139769
729.365	0.0137840
729.443	0.0136018
729.521	0.0132635
729.599	0.0130278
729.677	0.0131174
729.755	0.0130791
729.833	0.0129500
729.912	0.0129459
729.990	0.0133546
730.068	0.0134740
730.146	0.0135405
730.224	0.0139479
730.302	0.0140976
730.380	0.0142616
730.458	0.0145319
730.537	0.0147644
730.615	0.0147670
730.693	0.0149385
730.771	0.0150352
730.849	0.0151417
730.927	0.0149181
731.005	0.0149715
731.083	0.0148988
731.162	0.0148038
731.240	0.0145828
731.318	0.0143944
731.396	0.0141408
731.474	0.0139693
731.552	0.0136994
731.630	0.0135301
731.708	0.0132565
731.787	0.0131454
731.865	0.0129890
731.943	0.0128288
732.021	0.0129420
732.099	0.0128615
732.177	0.0130231
732.255	0.0130247
732.333	0.0129550
732.412	0.0132516
732.490	0.0134603
732.568	0.0136177
732.646	0.0134833
732.724	0.0135281
732.802	0.0135709
732.880	0.0134404
732.958	0.0133299
733.037	0.0131740
733.115	0.0129477
733.193	0.0126453
733.271	0.0123807
733.349	0.0123852
733.427	0.0122987
733.505	0.0121195
733.583	0.0122012
733.662	0.0124340
733.740	0.0124211
733.818	0.0125941
733.896	0.0125918
733.974	0.0129648
734.052	0.0131863
734.130	0.0133664
734.208	0.0135423
734.287	0.0137058
734.365	0.0138589
734.443	0.0139017
734.521	0.0140013
734.599	0.0141015
734.677	0.0140550
734.755	0.0140681
734.833	0.0140276
734.912	0.0138922
734.990	0.0137421
735.068	0.0135755
735.146	0.0134746
735.224	0.0133844
735.302	0.0133645
735.380	0.0131284
735.458	0.0129662
735.537	0.0131905
735.615	0.0131408
735.693	0.0132832
735.771	0.0132658
735.849	0.0136541
735.927	0.0137243
736.005	0.0139735
736.083	0.0143013
736.162	0.0145718
736.240	0.0148593
736.318	0.0151283
736.396	0.0151945
736.474	0.0152505
736.552	0.0154455
736.630	0.0153569
736.708	0.0154287
736.787	0.0154401
736.865	0.0151764
736.943	0.0151158
737.021	0.0148753
737.099	0.0147270
737.177	0.0146627
737.255	0.0143021
737.333	0.0142889
737.412	0.0139948
737.490	0.0139713
737.568	0.0138579
737.646	0.0136337
737.724	0.0135368
737.802	0.0132307
737.880	0.0130587
737.958	0.0130549
738.037	0.0129816
738.115	0.0130304
738.193	0.0128509
738.271	0.0125950
738.349	0.0126673
738.427	0.0124949
738.505	0.0127287
738.583	0.0126123
738.662	0.0126768
738.740	0.0125739
738.818	0.0126218
738.896	0.0125388
738.974	0.0125522
739.052	0.0125964
739.130	0.0124299
739.208	0.0125062
739.287	0.0126842
739.365	0.0127058
739.443	0.0126708
739.521	0.0129265
739.599	0.0129871
739.677	0.0131395
739.755	0.0133004
739.833	0.0133958
739.912	0.0136242
739.990	0.0136649
740.068	0.0138074
740.146	0.0140136
740.224	0.0141844
740.302	0.0143606
740.380	0.0141298
740.458	0.0142686
740.537	0.0143215
740.615	0.0142122
740.693	0.0141034
740.771	0.0140763
740.849	0.0136965
740.927	0.0135373
741.005	0.0135355
741.083	0.0132977
741.162	0.0132106
741.240	0.0131821
741.318	0.0130279
741.396	0.0129100
741.474	0.0130865
741.552	0.0132086
741.630	0.0131730
741.708	0.0133494
741.787	0.0135459
741.865	0.0137811
741.943	0.0140019
742.021	0.0140414
742.099	0.0143188
742.177	0.0145090
742.255	0.0144219
742.333	0.0147171
742.412	0.0147108
742.490	0.0147185
742.568	0.0146522
742.646	0.0145405
742.724	0.0145016
742.802	0.0143230
742.880	0.0143829
742.958	0.0141822
743.037	0.0140560
743.115	0.0141711
743.193	0.0140310
743.271	0.0140027
743.349	0.0140189
743.427	0.0140492
743.505	0.0142258
743.583	0.0140673
743.662	0.0140263
743.740	0.0139783
743.818	0.0140544
743.896	0.0139174
743.974	0.0139332
744.052	0.0138976
744.130	0.0137105
744.208	0.0135477
744.287	0.0135018
744.365	0.0132999
744.443	0.0131447
744.521	0.0128575
744.599	0.0126125
744.677	0.0125034
744.755	0.0126411
744.833	0.0125475
744.912	0.0122723
744.990	0.0123822
745.068	0.0124892
745.146	0.0125241
745.224	0.0126035
745.302	0.0127332
745.380	0.0128082
745.458	0.0128265
745.537	0.0130698
745.615	0.0134190
745.693	0.0134767
745.771	0.0135832
745.849	0.0137601
745.927	0.0139000
746.005	0.0140026
746.083	0.0140280
746.162	0.0142200
746.240	0.0141589
746.318	0.0139841
746.396	0.0140016
746.474	0.0140902
746.552	0.0139510
746.630	0.0137411
746.708	0.0136002
746.787	0.0134007
746.865	0.0132693
746.943	0.0133530
747.021	0.0130730
747.099	0.0130119
747.177	0.0129901
747.255	0.0130519
747.333	0.0129248
747.412	0.0130014
747.490	0.0132545
747.568	0.0132021
747.646	0.0133054
747.724	0.0133692
747.802	0.0135392
747.880	0.0135475
747.958	0.0136769
748.037	0.0138918
748.115	0.0140451
748.193	0.0141129
748.271	0.0139436
748.349	0.0140381
748.427	0.0142217
748.505	0.0140085
748.583	0.0140622
748.662	0.0138747
748.740	0.0138538
748.818	0.0139275
748.896	0.0138039
748.974	0.0139424
749.052	0.0137755
749.130	0.0138595
749.208	0.0140759
749.287	0.0141045
749.365	0.0139930
749.443	0.0141337
749.521	0.0140922
749.599	0.0141566
749.677	0.0140514
749.755	0.0141696
749.833	0.0139671
749.912	0.0139527
749.990	0.0138808
750.068	0.0137950
750.146	0.0138026
750.224	0.0136581
750.302	0.0134913
750.380	0.0136322
750.458	0.0133279
750.537	0.0134368
750.615	0.0135167
750.693	0.0134445
750.771	0.0134732
750.849	0.0133856
750.927	0.0132332
751.005	0.0132285
751.083	0.0131997
751.162	0.0130202
751.240	0.0130780
751.318	0.0130171
751.396	0.0128368
751.474	0.0128439
751.552	0.0128660
751.630	0.0129205
751.708	0.0129611
751.787	0.0130457
751.865	0.0129569
751.943	0.0130481
752.021	0.0131575
752.099	0.0134519
752.177	0.0133984
752.255	0.0134283
752.333	0.0134212
752.412	0.0136974
752.490	0.0135366
752.568	0.0136132
752.646	0.0135036
752.724	0.0136978
752.802	0.0137670
752.880	0.0136619
752.958	0.0135051
753.037	0.0136121
753.115	0.0135419
753.193	0.0136311
753.271	0.0137341
753.349	0.0136150
753.427	0.0137062
753.505	0.0138112
753.583	0.0135823
753.662	0.0136087
753.740	0.0138322
753.818	0.0136846
753.896	0.0135974
753.974	0.0137534
754.052	0.0137231
754.130	0.0136342
754.208	0.0138020
754.287	0.0137326
754.365	0.0138894
754.443	0.0138265
754.521	0.0136465
754.599	0.0137222
754.677	0.0138956
754.755	0.0138435
754.833	0.0138087
754.912	0.0139317
754.990	0.0137975
755.068	0.0138613
755.146	0.0136828
755.224	0.0138920
755.302	0.0138651
755.380	0.0138332
755.458	0.0138205
755.537	0.0137482
755.615	0.0137095
755.693	0.0136818
755.771	0.0136694
755.849	0.0136790
755.927	0.0135269
756.005	0.0134998
756.083	0.0135612
756.162	0.0134953
756.240	0.0134259
756.318	0.0134618
756.396	0.0134711
756.474	0.0134705
756.552	0.0134357
756.630	0.0134461
756.708	0.0135542
756.787	0.0135352
756.865	0.0135680
756.943	0.0135935
757.021	0.0135649
757.099	0.0135053
757.177	0.0135445
757.255	0.0134248
757.333	0.0134091
757.412	0.0135095
757.490	0.0136247
757.568	0.0134293
757.646	0.0135349
757.724	0.0133244
757.802	0.0134004
757.880	0.0135413
757.958	0.0134680
758.037	0.0135076
758.115	0.0135812
758.193	0.0134879
758.271	0.0135020
758.349	0.0135681
758.427	0.0135329
758.505	0.0135318
758.583	0.0133677
758.662	0.0134123
758.740	0.0135071
758.818	0.0134638
758.896	0.0134630
758.974	0.0134241
759.052	0.0134225
759.130	0.0135677
759.208	0.0133818
759.287	0.0135412
759.365	0.0134818
759.443	0.0134918
759.521	0.0135860
759.599	0.0135968
759.677	0.0136324
759.755	0.0136118
759.833	0.0136304
759.912	0.0137556
759.990	0.0137730
760.068	0.0136930
760.146	0.0135815
760.224	0.0136867
760.302	0.0137909
760.380	0.0138868
760.458	0.0138821
760.537	0.0138932
760.615	0.0138686
760.693	0.0138043
760.771	0.0139386
760.849	0.0138700
760.927	0.0138276
761.005	0.0138460
761.083	0.0138351
761.162	0.0138724
761.240	0.0138459
761.318	0.0138451
761.396	0.0138921
761.474	0.0137478
761.552	0.0138039
761.630	0.0137801
761.708	0.0137913
761.787	0.0136161
761.865	0.0136201
761.943	0.0135908
762.021	0.0134739
762.099	0.0136627
762.177	0.0135133
762.255	0.0133456
762.333	0.0136333
762.412	0.0134248
762.490	0.0135203
762.568	0.0136013
762.646	0.0134648
762.724	0.0135677
762.802	0.0136546
762.880	0.0136111
762.958	0.0136845
763.037	0.0135775
763.115	0.0135709
763.193	0.0137009
763.271	0.0138438
763.349	0.0138907
763.427	0.0139143
763.505	0.0138345
763.583	0.0138633
763.662	0.0138541
763.740	0.0136594
763.818	0.0136764
763.896	0.0137782
763.974	0.0138011
764.052	0.0138087
764.130	0.0135414
764.208	0.0135471
764.287	0.0135535
764.365	0.0134712
764.443	0.0135381
764.521	0.0134766
764.599	0.0133691
764.677	0.0133286
764.755	0.0132950
764.833	0.0131476
764.912	0.0131846
764.990	0.0131726
765.068	0.0131600
765.146	0.0131396
765.224	0.0132378
765.302	0.0133295
765.380	0.0132267
765.458	0.0133066
765.537	0.0133730
765.615	0.0136106
765.693	0.0136537
765.771	0.0136511
765.849	0.0136989
765.927	0.0138296
766.005	0.0138762
766.083	0.0140817
766.162	0.0140775
766.240	0.0140723
766.318	0.0140257
766.396	0.0140300
766.474	0.0139550
766.552	0.0140479
766.630	0.0140940
766.708	0.0139864
766.787	0.0141022
766.865	0.0140237
766.943	0.0140859
767.021	0.0139785
767.099	0.0139791
767.177	0.0139302
767.255	0.0138643
767.333	0.0136768
767.412	0.0134332
767.490	0.0133796
767.568	0.0133940
767.646	0.0133752
767.724	0.0130521
767.802	0.0130623
767.880	0.0131066
767.958	0.0132253
768.037	0.0134138
768.115	0.0130721
768.193	0.0133109
768.271	0.0133906
768.349	0.0133707
768.427	0.0134446
768.505	0.0135574
768.583	0.0135847
768.662	0.0135495
768.740	0.0134753
768.818	0.0135462
768.896	0.0135997
768.974	0.0135924
769.052	0.0135299
769.130	0.0135173
769.208	0.0134574
769.287	0.0135083
769.365	0.0134010
769.443	0.0133731
769.521	0.0133559
769.599	0.0133640
769.677	0.0133209
769.755	0.0133770
769.833	0.0133435
769.912	0.0134301
769.990	0.0133595
770.068	0.0137669
770.146	0.0137103
770.224	0.0137153
770.302	0.0138707
770.380	0.0139195
770.458	0.0141230
770.537	0.0141875
770.615	0.0140718
770.693	0.0141194
770.771	0.0140331
770.849	0.0140102
770.927	0.0141189
771.005	0.0138820
771.083	0.0139696
771.162	0.0140237
771.240	0.0137868
771.318	0.0136797
771.396	0.0135536
771.474	0.0136189
771.552	0.0134050
771.630	0.0134975
771.708	0.0135175
771.787	0.0133461
771.865	0.0131931
771.943	0.0133341
772.021	0.0131121
772.099	0.0130760
772.177	0.0130915
772.255	0.0130464
772.333	0.0130307
772.412	0.0130836
772.490	0.0129652
772.568	0.0129528
772.646	0.0129308
772.724	0.0129398
772.802	0.0130553
772.880	0.0130230
772.958	0.0131829
773.037	0.0133276
773.115	0.0133321
773.193	0.0132179
773.271	0.0135392
773.349	0.0136087
773.427	0.0137011
773.505	0.0137680
773.583	0.0139328
773.662	0.0141151
773.740	0.0141092
773.818	0.0140542
773.896	0.0141810
773.974	0.0141737
774.052	0.0142464
774.130	0.0141562
774.208	0.0142373
774.287	0.0142010
774.365	0.0141598
774.443	0.0140988
774.521	0.0142410
774.599	0.0140570
774.677	0.0139312
774.755	0.0138506
774.833	0.0139104
774.912	0.0138974
774.990	0.0137180
775.068	0.0136214
775.146	0.0136042
775.224	0.0136837
775.302	0.0135961
775.380	0.0135044
775.458	0.0134254
775.537	0.0133311
775.615	0.0133553
775.693	0.0132184
775.771	0.0131298
775.849	0.0131921
775.927	0.0130486
776.005	0.0130062
776.083	0.0130635
776.162	0.0131421
776.240	0.0130827
776.318	0.0130492
776.396	0.0129517
776.474	0.0129883
776.552	0.0129529
776.630	0.0131660
776.708	0.0131051
776.787	0.0131796
776.865	0.0132454
776.943	0.0131743
777.021	0.0134079
777.099	0.0135339
777.177	0.0135718
777.255	0.0136263
777.333	0.0135542
777.412	0.0136929
777.490	0.0139333
777.568	0.0139105
777.646	0.0139479
777.724	0.0141216
777.802	0.0141119
777.880	0.0142983
777.958	0.0140858
778.037	0.0141017
778.115	0.0141508
778.193	0.0141633
778.271	0.0141814
778.349	0.0140865
778.427	0.0140490
778.505	0.0139606
778.583	0.0139791
778.662	0.0138892
778.740	0.0137095
778.818	0.0136282
778.896	0.0136696
778.974	0.0134714
779.052	0.0134112
779.130	0.0135040
779.208	0.0135162
779.287	0.0133910
779.365	0.0133921
779.443	0.0132680
779.521	0.0131844
779.599	0.0133228
779.677	0.0132729
779.755	0.0134138
779.833	0.0132070
779.912	0.0133973
779.990	0.0133644
780.068	0.0133839
780.146	0.0133044
780.224	0.0133829
780.302	0.0134557
780.380	0.0134869
780.458	0.0133995
780.537	0.0133109
780.615	0.0134040
780.693	0.0132856
780.771	0.0134666
780.849	0.0132930
780.927	0.0132465
781.005	0.0132509
781.083	0.0131567
781.162	0.0133189
781.240	0.0134721
781.318	0.0133239
781.396	0.0133164
781.474	0.0134787
781.552	0.0135415
781.630	0.0135799
781.708	0.0136727
781.787	0.0137535
781.865	0.0138370
781.943	0.0137675
782.021	0.0139612
782.099	0.0139213
782.177	0.0140412
782.255	0.0140913
782.333	0.0141046
782.412	0.0141003
782.490	0.0141798
782.568	0.0140966
782.646	0.0141666
782.724	0.0139622
782.802	0.0138551
782.880	0.0138910
782.958	0.0137576
783.037	0.0136826
783.115	0.0136372
783.193	0.0135472
783.271	0.0136147
783.349	0.0134158
783.427	0.0133740
783.505	0.0133221
783.583	0.0132887
783.662	0.0132712
783.740	0.0133113
783.818	0.0132765
783.896	0.0132762
783.974	0.0133259
784.052	0.0132569
784.130	0.0134180
784.208	0.0132593
784.287	0.0132115
784.365	0.0132310
784.443	0.0132724
784.521	0.0134435
784.599	0.0133573
784.677	0.0133682
784.755	0.0134145
784.833	0.0133508
784.912	0.0135194
784.990	0.0135781
785.068	0.0136581
785.146	0.0136590
785.224	0.0135989
785.302	0.0137335
785.380	0.0139173
785.458	0.0138086
785.537	0.0139023
785.615	0.0139365
785.693	0.0140000
785.771	0.0140527
785.849	0.0140098
785.927	0.0139156
786.005	0.0137344
786.083	0.0138789
786.162	0.0137773
786.240	0.0138864
786.318	0.0136246
786.396	0.0137376
786.474	0.0136687
786.552	0.0136740
786.630	0.0136837
786.708	0.0135242
786.787	0.0136670
786.865	0.0136829
786.943	0.0139175
787.021	0.0137753
787.099	0.0137129
787.177	0.0135767
787.255	0.0137916
787.333	0.0135682
787.412	0.0136521
787.490	0.0136339
787.568	0.0136102
787.646	0.0134884
787.724	0.0134578
787.802	0.0134212
787.880	0.0134998
787.958	0.0133561
788.037	0.0133755
788.115	0.0133508
788.193	0.0132951
788.271	0.0132193
788.349	0.0133638
788.427	0.0135121
788.505	0.0135162
788.583	0.0134743
788.662	0.0134923
788.740	0.0134673
788.818	0.0135741
788.896	0.0136076
788.974	0.0134248
789.052	0.0134238
789.130	0.0136153
789.208	0.0136252
789.287	0.0135629
789.365	0.0134214
789.443	0.0136539
789.521	0.0135338
789.599	0.0133779
789.677	0.0133756
789.755	0.0134493
789.833	0.0135054
789.912	0.0133675
789.990	0.0133989
790.068	0.0134097
790.146	0.0136255
790.224	0.0135741
790.302	0.0135356
790.380	0.0135976
790.458	0.0134519
790.537	0.0134881
790.615	0.0136741
790.693	0.0135949
790.771	0.0136337
790.849	0.0137855
790.927	0.0136617
791.005	0.0137784
791.083	0.0137141
791.162	0.0136650
791.240	0.0138084
791.318	0.0137515
791.396	0.0136940
791.474	0.0136085
791.552	0.0136366
791.630	0.0137859
791.708	0.0136518
791.787	0.0135220
791.865	0.0135562
791.943	0.0135783
792.021	0.0135440
792.099	0.0136321
792.177	0.0135494
792.255	0.0135304
792.333	0.0136296
792.412	0.0137617
792.490	0.0135986
792.568	0.0134964
792.646	0.0134703
792.724	0.0135336
792.802	0.0134918
792.880	0.0134678
792.958	0.0134647
793.037	0.0136383
793.115	0.0135199
793.193	0.0135071
793.271	0.0136038
793.349	0.0135893
793.427	0.0135417
793.505	0.0137189
793.583	0.0137458
793.662	0.0136510
793.740	0.0134897
793.818	0.0136118
793.896	0.0136050
793.974	0.0134909
794.052	0.0135444
794.130	0.0135092
794.208	0.0136020
794.287	0.0135818
794.365	0.0135165
794.443	0.0134183
794.521	0.0136915
794.599	0.0136565
794.677	0.0136732
794.755	0.0136522
794.833	0.0137853
794.912	0.0137787
794.990	0.0137402
795.068	0.0137042
795.146	0.0135883
795.224	0.0136797
795.302	0.0136742
795.380	0.0136774
795.458	0.0135991
795.537	0.0135854
795.615	0.0136057
795.693	0.0135969
795.771	0.0134506
795.849	0.0134471
795.927	0.0134658
796.005	0.0133202
796.083	0.0133743
796.162	0.0133546
796.240	0.0133321
796.318	0.0133460
796.396	0.0132657
796.474	0.0131087
796.552	0.0132586
796.630	0.0132983
796.708	0.0132617
796.787	0.0132345
796.865	0.0131444
796.943	0.0131670
797.021	0.0131873
797.099	0.0133117
797.177	0.0132278
797.255	0.0134749
797.333	0.0134418
797.412	0.0134374
797.490	0.0136473
797.568	0.0135365
797.646	0.0135654
797.724	0.0137214
797.802	0.0138086
797.880	0.0137711
797.958	0.0139104
798.037	0.0139478
798.115	0.0140372
798.193	0.0139945
798.271	0.0140996
798.349	0.0141212
798.427	0.0141405
798.505	0.0140782
798.583	0.0140791
798.662	0.0140485
798.740	0.0141086
798.818	0.0140032
798.896	0.0138897
798.974	0.0137827
799.052	0.0138831
799.130	0.0137631
799.208	0.0135868
799.287	0.0137092
799.365	0.0134724
799.443	0.0134400
799.521	0.0135229
799.599	0.0135559
799.677	0.0134215
799.755	0.0132516
799.833	0.0134041
799.912	0.0134499
799.990	0.0133028
800.068	0.0134772
800.146	0.0132642
800.224	0.0132939
800.302	0.0133814
800.380	0.0134076
800.458	0.0132240
800.537	0.0133923
800.615	0.0134584
800.693	0.0135086
800.771	0.0135964
800.849	0.0134298
800.927	0.0135077
801.005	0.0135825
801.083	0.0136534
801.162	0.0135561
801.240	0.0136133
801.318	0.0134628
801.396	0.0135318
801.474	0.0134100
801.552	0.0135861
801.630	0.0134959
801.708	0.0134485
801.787	0.0135824
801.865	0.0135168
801.943	0.0134922
802.021	0.0134257
802.099	0.0134336
802.177	0.0133693
802.255	0.0133847
802.333	0.0134873
802.412	0.0136134
802.490	0.0134966
802.568	0.0136848
802.646	0.0137669
802.724	0.0138106
802.802	0.0137923
802.880	0.0139331
802.958	0.0139235
803.037	0.0140371
803.115	0.0139188
803.193	0.0140023
803.271	0.0138914
803.349	0.0139340
803.427	0.0139833
803.505	0.0139706
803.583	0.0139417
803.662	0.0139037
803.740	0.0139677
803.818	0.0139217
803.896	0.0139677
803.974	0.0139676
804.052	0.0139636
804.130	0.0137947
804.208	0.0137843
804.287	0.0138023
804.365	0.0138204
804.443	0.0137379
804.521	0.0137278
804.599	0.0137863
804.677	0.0136687
804.755	0.0136588
804.833	0.0136355
804.912	0.0135311
804.990	0.0136300
805.068	0.0135325
805.146	0.0134142
805.224	0.0133957
805.302	0.0135091
805.380	0.0133959
805.458	0.0133027
805.537	0.0134991
805.615	0.0133376
805.693	0.0132773
805.771	0.0133163
805.849	0.0133843
805.927	0.0133157
806.005	0.0133210
806.083	0.0133953
806.162	0.0134314
806.240	0.0133927
806.318	0.0134171
806.396	0.0135580
806.474	0.0135403
806.552	0.0135529
806.630	0.0136971
806.708	0.0134936
806.787	0.0135939
806.865	0.0136694
806.943	0.0136094
807.021	0.0136782
807.099	0.0138387
807.177	0.0137637
807.255	0.0137201
807.333	0.0137388
807.412	0.0136919
807.490	0.0137918
807.568	0.0137801
807.646	0.0137626
807.724	0.0136358
807.802	0.0136722
807.880	0.0136472
807.958	0.0137188
808.037	0.0135905
808.115	0.0134836
808.193	0.0134953
808.271	0.0134769
808.349	0.0134903
808.427	0.0133771
808.505	0.0134533
808.583	0.0135326
808.662	0.0133737
808.740	0.0134764
808.818	0.0135606
808.896	0.0135236
808.974	0.0134717
809.052	0.0135236
809.130	0.0135403
809.208	0.0135456
809.287	0.0137286
809.365	0.0135819
809.443	0.0136924
809.521	0.0135708
809.599	0.0134905
809.677	0.0136519
809.755	0.0137712
809.833	0.0136140
809.912	0.0137571
809.990	0.0137532
810.068	0.0136575
810.146	0.0136658
810.224	0.0135519
810.302	0.0134779
810.380	0.0135427
810.458	0.0134864
810.537	0.0135957
810.615	0.0133710
810.693	0.0134293
810.771	0.0134162
810.849	0.0134264
810.927	0.0133514
811.005	0.0133208
811.083	0.0134322
811.162	0.0134179
811.240	0.0135477
811.318	0.0133891
811.396	0.0134203
811.474	0.0134604
811.552	0.0134256
811.630	0.0135118
811.708	0.0135814
811.787	0.0137195
811.865	0.0134547
811.943	0.0136105
812.021	0.0135084
812.099	0.0135608
812.177	0.0136372
812.255	0.0135139
812.333	0.0135132
812.412	0.0135149
812.490	0.0135317
812.568	0.0133710
812.646	0.0134373
812.724	0.0135874
812.802	0.0133333
812.880	0.0132903
812.958	0.0134005
813.037	0.0132888
813.115	0.0132028
813.193	0.0133459
813.271	0.0133259
813.349	0.0133270
813.427	0.0134762
813.505	0.0135143
813.583	0.0134247
813.662	0.0134359
813.740	0.0136057
813.818	0.0136324
813.896	0.0137761
813.974	0.0136233
814.052	0.0136686
814.130	0.0137682
814.208	0.0137285
814.287	0.0137554
814.365	0.0137934
814.443	0.0137797
814.521	0.0136465
814.599	0.0136175
814.677	0.0137189
814.755	0.0137415
814.833	0.0138289
814.912	0.0137213
814.990	0.0138944
815.068	0.0137873
815.146	0.0138397
815.224	0.0138503
815.302	0.0137332
815.380	0.0138480
815.458	0.0140157
815.537	0.0138477
815.615	0.0136477
815.693	0.0137582
815.771	0.0138821
815.849	0.0137800
815.927	0.0136191
816.005	0.0138662
816.083	0.0137344
816.162	0.0136885
816.240	0.0136534
816.318	0.0135313
816.396	0.0137256
816.474	0.0136634
816.552	0.0136636
816.630	0.0135717
816.708	0.0135185
816.787	0.0132671
816.865	0.0134406
816.943	0.0133421
817.021	0.0133776
817.099	0.0133235
817.177	0.0133688
817.255	0.0133300
817.333	0.0134750
817.412	0.0134548
817.490	0.0132881
817.568	0.0133603
817.646	0.0133251
817.724	0.0133253
817.802	0.0133656
817.880	0.0132802
817.958	0.0133603
818.037	0.0132215
818.115	0.0133292
818.193	0.0134254
818.271	0.0132679
818.349	0.0133306
818.427	0.0134898
818.505	0.0134311
818.583	0.0134463
818.662	0.0134820
818.740	0.0135983
818.818	0.0136411
818.896	0.0137795
818.974	0.0137421
819.052	0.0137051
819.130	0.0136456
819.208	0.0137336
819.287	0.0139365
819.365	0.0138996
819.443	0.0138600
819.521	0.0139299
819.599	0.0138367
819.677	0.0137637
819.755	0.0138063
819.833	0.0137855
819.912	0.0136428
819.990	0.0137873
820.068	0.0137870
820.146	0.0137966
820.224	0.0136929
820.302	0.0137508
820.380	0.0138870
820.458	0.0136557
820.537	0.0136789
820.615	0.0135340
820.693	0.0136072
820.771	0.0136373
820.849	0.0137640
820.927	0.0135681
821.005	0.0135574
821.083	0.0136002
821.162	0.0136644
821.240	0.0138899
821.318	0.0136927
821.396	0.0137057
821.474	0.0138978
821.552	0.0137133
821.630	0.0137572
821.708	0.0138580
821.787	0.0137630
821.865	0.0137697
821.943	0.0138628
822.021	0.0139006
822.099	0.0138284
822.177	0.0137926
822.255	0.0136597
822.333	0.0137596
822.412	0.0137981
822.490	0.0137025
822.568	0.0136155
822.646	0.0135586
822.724	0.0138084
822.802	0.0136613
822.880	0.0136330
822.958	0.0136948
823.037	0.0137811
823.115	0.0136788
823.193	0.0135714
823.271	0.0135766
823.349	0.0136158
823.427	0.0134991
823.505	0.0133881
823.583	0.0132539
823.662	0.0130756
823.740	0.0133401
823.818	0.0132508
823.896	0.0133568
823.974	0.0131470
824.052	0.0132147
824.130	0.0131109
824.208	0.0132056
824.287	0.0133162
824.365	0.0132377
824.443	0.0132045
824.521	0.0133089
824.599	0.0132204
824.677	0.0131940
824.755	0.0133772
824.833	0.0134554
824.912	0.0132851
824.990	0.0134142
825.068	0.0134509
825.146	0.0134583
825.224	0.0137978
825.302	0.0136032
825.380	0.0134969
825.458	0.0136719
825.537	0.0135609
825.615	0.0136312
825.693	0.0136410
825.771	0.0136746
825.849	0.0137005
825.927	0.0137282
826.005	0.0137215
826.083	0.0138142
826.162	0.0137337
826.240	0.0137869
826.318	0.0138055
826.396	0.0138913
826.474	0.0138560
826.552	0.0139206
826.630	0.0138594
826.708	0.0139179
826.787	0.0139316
826.865	0.0139479
826.943	0.0141058
827.021	0.0140296
827.099	0.0138058
827.177	0.0138862
827.255	0.0139123
827.333	0.0138984
827.412	0.0140132
827.490	0.0140237
827.568	0.0138633
827.646	0.0138200
827.724	0.0136017
827.802	0.0135907
827.880	0.0137257
827.958	0.0137274
828.037	0.0136283
828.115	0.0134992
828.193	0.0136369
828.271	0.0137920
828.349	0.0134851
828.427	0.0135724
828.505	0.0135072
828.583	0.0135775
828.662	0.0136470
828.740	0.0135410
828.818	0.0135132
828.896	0.0133952
828.974	0.0135064
829.052	0.0135125
829.130	0.0134029
829.208	0.0135138
829.287	0.0133977
829.365	0.0133799
829.443	0.0134191
829.521	0.0133492
829.599	0.0134482
829.677	0.0133797
829.755	0.0133938
829.833	0.0134784
829.912	0.0134069
829.990	0.0134158
830.068	0.0133790
830.146	0.0133742
830.224	0.0134263
830.302	0.0134635
830.380	0.0134864
830.458	0.0133663
830.537	0.0133340
830.615	0.0136317
830.693	0.0134824
830.771	0.0135858
830.849	0.0134115
830.927	0.0134492
831.005	0.0133727
831.083	0.0135790
831.162	0.0134770
831.240	0.0134827
831.318	0.0135115
831.396	0.0134785
831.474	0.0134850
831.552	0.0135755
831.630	0.0136403
831.708	0.0136214
831.787	0.0136068
831.865	0.0135098
831.943	0.0135841
832.021	0.0137532
832.099	0.0137702
832.177	0.0136926
832.255	0.0136010
832.333	0.0137704
832.412	0.0137784
832.490	0.0137520
832.568	0.0138932
832.646	0.0137135
832.724	0.0137970
832.802	0.0138084
832.880	0.0137041
832.958	0.0136938
833.037	0.0136376
833.115	0.0135692
833.193	0.0136261
833.271	0.0136867
833.349	0.0136688
833.427	0.0136529
833.505	0.0136799
833.583	0.0137011
833.662	0.0137052
833.740	0.0135915
833.818	0.0136646
833.896	0.0136522
833.974	0.0137965
834.052	0.0136589
834.130	0.0134959
834.208	0.0136649
834.287	0.0137297
834.365	0.0137759
834.443	0.0136109
834.521	0.0134994
834.599	0.0135631
834.677	0.0136353
834.755	0.0135662
834.833	0.0135886
834.912	0.0135107
834.990	0.0134728
835.068	0.0134811
835.146	0.0135745
835.224	0.0136333
835.302	0.0136600
835.380	0.0135822
835.458	0.0135349
835.537	0.0135249
835.615	0.0135931
835.693	0.0136277
835.771	0.0135240
835.849	0.0135324
835.927	0.0134734
836.005	0.0132883
836.083	0.0134621
836.162	0.0134867
836.240	0.0132464
836.318	0.0133012
836.396	0.0132748
836.474	0.0132668
836.552	0.0132912
836.630	0.0133180
836.708	0.0131852
836.787	0.0133386
836.865	0.0133962
836.943	0.0132471
837.021	0.0134523
837.099	0.0134854
837.177	0.0132623
837.255	0.0133370
837.333	0.0134670
837.412	0.0136244
837.490	0.0134966
837.568	0.0137384
837.646	0.0137820
837.724	0.0136956
837.802	0.0137770
837.880	0.0138215
837.958	0.0138837
838.037	0.0136410
838.115	0.0138435
838.193	0.0139394
838.271	0.0139584
838.349	0.0139042
838.427	0.0139468
838.505	0.0139285
838.583	0.0139672
838.662	0.0140990
838.740	0.0139691
838.818	0.0139239
838.896	0.0137885
838.974	0.0139298
839.052	0.0138523
839.130	0.0139626
839.208	0.0138869
839.287	0.0139288
839.365	0.0139510
839.443	0.0140190
839.521	0.0138608
839.599	0.0138799
839.677	0.0138374
839.755	0.0140052
839.833	0.0139756
839.912	0.0139053
839.990	0.0138373
840.068	0.0138284
840.146	0.0137897
840.224	0.0137132
840.302	0.0136588
840.380	0.0136796
840.458	0.0135938
840.537	0.0136436
840.615	0.0135473
840.693	0.0134119
840.771	0.0133924
840.849	0.0133926
840.927	0.0133137
841.005	0.0133353
841.083	0.0133252
841.162	0.0133408
841.240	0.0132668
841.318	0.0133086
841.396	0.0133257
841.474	0.0133100
841.552	0.0133184
841.630	0.0132753
841.708	0.0132886
841.787	0.0132578
841.865	0.0131982
841.943	0.0133052
842.021	0.0133507
842.099	0.0133405
842.177	0.0132920
842.255	0.0133347
842.333	0.0133777
842.412	0.0133664
842.490	0.0135114
842.568	0.0135529
842.646	0.0135692
842.724	0.0136147
842.802	0.0135521
842.880	0.0136058
842.958	0.0136200
843.037	0.0137128
843.115	0.0136372
843.193	0.0136083
843.271	0.0136727
843.349	0.0137756
843.427	0.0136900
843.505	0.0137302
843.583	0.0138218
843.662	0.0138507
843.740	0.0137031
843.818	0.0137872
843.896	0.0138998
843.974	0.0138526
844.052	0.0138972
844.130	0.0137976
844.208	0.0138984
844.287	0.0137907
844.365	0.0137884
844.443	0.0136938
844.521	0.0137241
844.599	0.0138024
844.677	0.0138172
844.755	0.0137317
844.833	0.0138084
844.912	0.0138760
844.990	0.0138266
845.068	0.0136486
845.146	0.0136453
845.224	0.0138036
845.302	0.0138255
845.380	0.0137552
845.458	0.0137122
845.537	0.0136371
845.615	0.0137003
845.693	0.0136530
845.771	0.0135139
845.849	0.0135342
845.927	0.0135387
846.005	0.0134776
846.083	0.0134929
846.162	0.0135933
846.240	0.0134924
846.318	0.0135084
846.396	0.0134327
846.474	0.0134724
846.552	0.0135725
846.630	0.0134070
846.708	0.0133540
846.787	0.0134489
846.865	0.0135136
846.943	0.0135285
847.021	0.0135884
847.099	0.0134908
847.177	0.0134053
847.255	0.0133776
847.333	0.0136904
847.412	0.0134640
847.490	0.0135737
847.568	0.0135879
847.646	0.0136744
847.724	0.0134822
847.802	0.0135896
847.880	0.0136224
847.958	0.0135965
848.037	0.0136307
848.115	0.0135765
848.193	0.0135098
848.271	0.0135880
848.349	0.0136941
848.427	0.0137622
848.505	0.0136163
848.583	0.0135775
848.662	0.0135469
848.740	0.0135729
848.818	0.0134192
848.896	0.0135778
848.974	0.0135596
849.052	0.0136613
849.130	0.0136240
849.208	0.0135446
849.287	0.0135371
849.365	0.0136160
849.443	0.0136514
849.521	0.0133994
849.599	0.0134834
849.677	0.0134355
849.755	0.0135597
849.833	0.0136224
849.912	0.0135720
849.990	0.0135935
850.068	0.0136077
850.146	0.0134717
850.224	0.0135551
850.302	0.0136076
850.380	0.0135022
850.458	0.0136437
850.537	0.0137148
850.615	0.0136713
850.693	0.0136752
850.771	0.0137137
850.849	0.0137909
850.927	0.0136873
851.005	0.0137691
851.083	0.0138131
851.162	0.0137090
851.240	0.0138804
851.318	0.0140210
851.396	0.0138371
851.474	0.0138412
851.552	0.0138760
851.630	0.0136884
851.708	0.0138995
851.787	0.0137139
851.865	0.0138312
851.943	0.0136367
852.021	0.0136221
852.099	0.0135956
852.177	0.0136629
852.255	0.0135470
852.333	0.0135028
852.412	0.0136146
852.490	0.0135773
852.568	0.0134545
852.646	0.0134376
852.724	0.0135145
852.802	0.0135783
852.880	0.0134918
852.958	0.0135770
853.037	0.0135621
853.115	0.0135331
853.193	0.0135852
853.271	0.0135183
853.349	0.0135543
853.427	0.0135169
853.505	0.0135963
853.583	0.0135583
853.662	0.0134264
853.740	0.0133876
853.818	0.0134375
853.896	0.0134855
853.974	0.0134656
854.052	0.0134808
854.130	0.0134850
854.208	0.0134222
854.287	0.0135064
854.365	0.0133724
854.443	0.0134559
854.521	0.0135720
854.599	0.0136068
854.677	0.0135653
854.755	0.0135396
854.833	0.0136480
854.912	0.0136363
854.990	0.0134749
855.068	0.0137246
855.146	0.0136373
855.224	0.0136443
855.302	0.0135611
855.380	0.0134823
855.458	0.0135752
855.537	0.0137959
855.615	0.0135975
855.693	0.0136214
855.771	0.0134770
855.849	0.0135668
855.927	0.0135254
856.005	0.0136523
856.083	0.0135618
856.162	0.0135337
856.240	0.0135156
856.318	0.0137377
856.396	0.0136691
856.474	0.0136180
856.552	0.0135255
856.630	0.0136407
856.708	0.0136521
856.787	0.0136387
856.865	0.0136733
856.943	0.0136900
857.021	0.0137436
857.099	0.0136470
857.177	0.0137037
857.255	0.0137352
857.333	0.0136536
857.412	0.0136433
857.490	0.0136446
857.568	0.0136929
857.646	0.0133888
857.724	0.0135623
857.802	0.0136049
857.880	0.0135490
857.958	0.0136132
858.037	0.0136230
858.115	0.0135540
858.193	0.0136356
858.271	0.0137131
858.349	0.0135828
858.427	0.0135098
858.505	0.0135124
858.583	0.0136575
858.662	0.0137203
858.740	0.0135122
858.818	0.0135275
858.896	0.0136173
858.974	0.0135164
859.052	0.0133938
859.130	0.0134028
859.208	0.0135950
859.287	0.0134514
859.365	0.0135063
859.443	0.0135693
859.521	0.0134666
859.599	0.0134755
859.677	0.0135932
859.755	0.0136037
859.833	0.0136800
859.912	0.0136131
859.990	0.0136476
860.068	0.0136440
860.146	0.0136539
860.224	0.0136984
860.302	0.0136552
860.380	0.0135818
860.458	0.0134941
860.537	0.0135094
860.615	0.0134749
860.693	0.0134592
860.771	0.0135847
860.849	0.0135736
860.927	0.0135447
861.005	0.0134477
861.083	0.0136930
861.162	0.0134712
861.240	0.0134999
861.318	0.0135500
861.396	0.0136397
861.474	0.0136806
861.552	0.0135956
861.630	0.0136408
861.708	0.0135835
861.787	0.0136474
861.865	0.0136086
861.943	0.0135044
862.021	0.0135207
862.099	0.0135265
862.177	0.0135094
862.255	0.0135361
862.333	0.0136730
862.412	0.0135908
862.490	0.0136255
862.568	0.0135711
862.646	0.0135680
862.724	0.0136831
862.802	0.0137983
862.880	0.0136411
862.958	0.0138548
863.037	0.0137444
863.115	0.0138354
863.193	0.0137133
863.271	0.0137434
863.349	0.0139269
863.427	0.0137959
863.505	0.0138349
863.583	0.0137126
863.662	0.0137601
863.740	0.0138340
863.818	0.0135361
863.896	0.0136983
863.974	0.0135676
864.052	0.0136012
864.130	0.0136470
864.208	0.0135172
864.287	0.0135176
864.365	0.0134109
864.443	0.0133942
864.521	0.0133935
864.599	0.0132710
864.677	0.0133617
864.755	0.0134975
864.833	0.0135213
864.912	0.0134534
864.990	0.0135409
865.068	0.0135038
865.146	0.0136035
865.224	0.0136008
865.302	0.0136252
865.380	0.0136378
865.458	0.0137251
865.537	0.0137714
865.615	0.0136162
865.693	0.0136285
865.771	0.0136170
865.849	0.0136678
865.927	0.0136446
866.005	0.0136190
866.083	0.0136839
866.162	0.0137217
866.240	0.0137166
866.318	0.0136608
866.396	0.0136172
866.474	0.0133954
866.552	0.0134087
866.630	0.0134238
866.708	0.0133024
866.787	0.0133486
866.865	0.0132233
866.943	0.0131776
867.021	0.0132090
867.099	0.0132073
867.177	0.0131554
867.255	0.0132437
867.333	0.0131494
867.412	0.0132819
867.490	0.0131620
867.568	0.0130611
867.646	0.0132855
867.724	0.0134143
867.802	0.0133548
867.880	0.0134052
867.958	0.0134898
868.037	0.0133852
868.115	0.0134883
868.193	0.0135194
868.271	0.0137119
868.349	0.0138023
868.427	0.0138754
868.505	0.0139284
868.583	0.0139494
868.662	0.0138685
868.740	0.0140332
868.818	0.0139838
868.896	0.0141481
868.974	0.0141077
869.052	0.0138982
869.130	0.0139649
869.208	0.0139809
869.287	0.0139342
869.365	0.0139111
869.443	0.0138619
869.521	0.0138148
869.599	0.0137743
869.677	0.0138117
869.755	0.0138795
869.833	0.0136991
869.912	0.0136759
869.990	0.0136405
870.068	0.0136954
870.146	0.0136392
870.224	0.0135841
870.302	0.0134476
870.380	0.0134933
870.458	0.0133840
870.537	0.0132485
870.615	0.0132481
870.693	0.0131879
870.771	0.0131198
870.849	0.0131470
870.927	0.0130592
871.005	0.0129635
871.083	0.0131166
871.162	0.0131284
871.240	0.0131972
871.318	0.0131176
871.396	0.0131651
871.474	0.0134608
871.552	0.0134480
871.630	0.0133994
871.708	0.0134812
871.787	0.0136251
871.865	0.0136679
871.943	0.0137228
872.021	0.0136842
872.099	0.0137427
872.177	0.0137814
872.255	0.0137757
872.333	0.0139212
872.412	0.0139201
872.490	0.0137586
872.568	0.0138235
872.646	0.0137160
872.724	0.0139761
872.802	0.0139315
872.880	0.0139854
872.958	0.0138557
873.037	0.0139683
873.115	0.0139947
873.193	0.0139737
873.271	0.0138323
873.349	0.0138907
873.427	0.0138239
873.505	0.0138155
873.583	0.0136434
873.662	0.0136943
873.740	0.0137361
873.818	0.0136265
873.896	0.0135495
873.974	0.0134370
874.052	0.0133234
874.130	0.0133083
874.208	0.0133062
874.287	0.0132734
874.365	0.0133131
874.443	0.0131242
874.521	0.0130069
874.599	0.0130672
874.677	0.0130161
874.755	0.0130500
874.833	0.0130073
874.912	0.0128362
874.990	0.0131241
875.068	0.0130316
875.146	0.0131068
875.224	0.0131829
875.302	0.0131157
875.380	0.0131171
875.458	0.0131660
875.537	0.0132350
875.615	0.0133698
875.693	0.0134298
875.771	0.0134521
875.849	0.0135292
875.927	0.0135018
876.005	0.0136839
876.083	0.0137160
876.162	0.0137662
876.240	0.0138078
876.318	0.0138998
876.396	0.0139793
876.474	0.0141764
876.552	0.0141244
876.630	0.0140756
876.708	0.0142962
876.787	0.0142999
876.865	0.0143291
876.943	0.0143475
877.021	0.0142399
877.099	0.0142167
877.177	0.0141207
877.255	0.0140495
877.333	0.0141092
877.412	0.0139477
877.490	0.0138486
877.568	0.0137825
877.646	0.0135966
877.724	0.0133648
877.802	0.0133775
877.880	0.0132397
877.958	0.0132233
878.037	0.0132162
878.115	0.0128992
878.193	0.0130386
878.271	0.0130036
878.349	0.0130777
878.427	0.0130869
878.505	0.0129371
878.583	0.0129143
878.662	0.0129845
878.740	0.0129960
878.818	0.0131675
878.896	0.0131528
878.974	0.0130571
879.052	0.0132810
879.130	0.0132421
879.208	0.0133385
879.287	0.0133927
879.365	0.0135011
879.443	0.0136286
879.521	0.0135971
879.599	0.0137069
879.677	0.0137219
879.755	0.0137379
879.833	0.0138257
879.912	0.0137670
879.990	0.0137334
880.068	0.0136895
880.146	0.0136069
880.224	0.0137136
880.302	0.0137023
880.380	0.0136541
880.458	0.0135773
880.537	0.0136453
880.615	0.0135953
880.693	0.0135600
880.771	0.0135553
880.849	0.0135950
880.927	0.0135783
881.005	0.0135825
881.083	0.0135190
881.162	0.0134921
881.240	0.0135292
881.318	0.0136398
881.396	0.0135970
881.474	0.0135511
881.552	0.0135680
881.630	0.0135790
881.708	0.0136323
881.787	0.0135915
881.865	0.0135730
881.943	0.0136325
882.021	0.0136614
882.099	0.0137672
882.177	0.0137726
882.255	0.0138584
882.333	0.0136613
882.412	0.0137071
882.490	0.0138615
882.568	0.0138408
882.646	0.0138506
882.724	0.0137013
882.802	0.0137045
882.880	0.0137555
882.958	0.0137341
883.037	0.0135477
883.115	0.0135989
883.193	0.0137582
883.271	0.0135923
883.349	0.0136240
883.427	0.0134353
883.505	0.0135406
883.583	0.0135710
883.662	0.0136892
883.740	0.0136131
883.818	0.0137220
883.896	0.0137373
883.974	0.0137651
884.052	0.0137654
884.130	0.0137807
884.208	0.0136949
884.287	0.0137118
884.365	0.0136968
884.443	0.0136663
884.521	0.0136104
884.599	0.0135513
884.677	0.0134567
884.755	0.0134767
884.833	0.0136328
884.912	0.0134587
884.990	0.0134230
885.068	0.0133812
885.146	0.0134025
885.224	0.0133736
885.302	0.0133754
885.380	0.0133437
885.458	0.0132930
885.537	0.0132138
885.615	0.0131293
885.693	0.0131636
885.771	0.0131122
885.849	0.0130309
885.927	0.0130420
886.005	0.0131541
886.083	0.0133456
886.162	0.0133036
886.240	0.0132285
886.318	0.0133672
886.396	0.0134972
886.474	0.0137267
886.552	0.0137995
886.630	0.0139059
886.708	0.0138982
886.787	0.0138168
886.865	0.0139655
886.943	0.0138741
887.021	0.0138809
887.099	0.0140070
887.177	0.0139909
887.255	0.0137941
887.333	0.0139007
887.412	0.0139960
887.490	0.0139746
887.568	0.0138765
887.646	0.0137465
887.724	0.0136336
887.802	0.0136743
887.880	0.0137720
887.958	0.0138089
888.037	0.0135749
888.115	0.0134573
888.193	0.0133864
888.271	0.0135651
888.349	0.0134586
888.427	0.0132156
888.505	0.0131756
888.583	0.0131401
888.662	0.0132130
888.740	0.0131602
888.818	0.0131985
888.896	0.0131898
888.974	0.0131916
889.052	0.0131403
889.130	0.0132102
889.208	0.0134270
889.287	0.0133133
889.365	0.0132983
889.443	0.0135034
889.521	0.0133608
889.599	0.0133540
889.677	0.0135698
889.755	0.0136504
889.833	0.0137062
889.912	0.0138870
889.990	0.0139571
890.068	0.0138642
890.146	0.0138808
890.224	0.0140473
890.302	0.0139371
890.380	0.0139579
890.458	0.0140088
890.537	0.0140104
890.615	0.0139909
890.693	0.0137413
890.771	0.0136680
890.849	0.0137668
890.927	0.0136378
891.005	0.0136363
891.083	0.0135821
891.162	0.0136396
891.240	0.0135899
891.318	0.0134933
891.396	0.0133789
891.474	0.0133973
891.552	0.0133713
891.630	0.0133628
891.708	0.0134007
891.787	0.0131979
891.865	0.0133838
891.943	0.0133923
892.021	0.0134145
892.099	0.0132703
892.177	0.0133962
892.255	0.0133802
892.333	0.0133839
892.412	0.0132683
892.490	0.0134303
892.568	0.0135648
892.646	0.0135395
892.724	0.0134702
892.802	0.0135406
892.880	0.0135936
892.958	0.0136571
893.037	0.0137576
893.115	0.0137358
893.193	0.0136773
893.271	0.0139438
893.349	0.0138454
893.427	0.0138705
893.505	0.0137295
893.583	0.0137321
893.662	0.0136464
893.740	0.0137614
893.818	0.0136804
893.896	0.0136204
893.974	0.0137016
894.052	0.0135997
894.130	0.0134707
894.208	0.0135064
894.287	0.0134732
894.365	0.0133669
894.443	0.0134708
894.521	0.0134422
894.599	0.0135314
894.677	0.0135167
894.755	0.0133335
894.833	0.0135365
894.912	0.0136219
894.990	0.0134971
895.068	0.0135037
895.146	0.0134147
895.224	0.0136030
895.302	0.0136284
895.380	0.0136774
895.458	0.0135516
895.537	0.0136021
895.615	0.0136057
895.693	0.0136222
895.771	0.0136578
895.849	0.0135956
895.927	0.0134802
896.005	0.0135284
896.083	0.0135522
896.162	0.0135213
896.240	0.0133904
896.318	0.0134449
896.396	0.0133290
896.474	0.0133726
896.552	0.0133466
896.630	0.0134336
896.708	0.0134243
896.787	0.0135202
896.865	0.0133486
896.943	0.0134092
897.021	0.0135013
897.099	0.0135124
897.177	0.0136209
897.255	0.0136656
897.333	0.0135359
897.412	0.0134917
897.490	0.0135599
897.568	0.0136533
897.646	0.0136481
897.724	0.0136410
897.802	0.0136852
897.880	0.0138933
897.958	0.0137128
898.037	0.0138358
898.115	0.0140275
898.193	0.0138373
898.271	0.0138038
898.349	0.0138062
898.427	0.0139006
898.505	0.0138101
898.583	0.0138965
898.662	0.0138967
898.740	0.0138747
898.818	0.0138527
898.896	0.0138987
898.974	0.0137353
899.052	0.0137672
899.130	0.0137493
899.208	0.0136301
899.287	0.0136697
899.365	0.0135773
899.443	0.0134604
899.521	0.0132928
899.599	0.0133182
899.677	0.0132549
899.755	0.0132531
899.833	0.0130683
899.912	0.0132124
899.990	0.0130795
900.068	0.0131114
900.146	0.0131772
900.224	0.0132728
900.302	0.0134483
900.380	0.0132752
900.458	0.0133500
900.537	0.0132569
900.615	0.0134283
900.693	0.0134110
900.771	0.0135323
900.849	0.0134901
900.927	0.0134328
901.005	0.0134891
901.083	0.0134911
901.162	0.0135474
901.240	0.0136726
901.318	0.0136648
901.396	0.0137024
901.474	0.0136131
901.552	0.0137225
901.630	0.0137432
901.708	0.0138837
901.787	0.0136514
901.865	0.0137413
901.943	0.0137517
902.021	0.0138099
902.099	0.0138870
902.177	0.0137004
902.255	0.0137635
902.333	0.0138122
902.412	0.0136539
902.490	0.0135751
902.568	0.0136436
902.646	0.0137135
902.724	0.0136843
902.802	0.0135860
902.880	0.0134988
902.958	0.0135331
903.037	0.0133030
903.115	0.0133632
903.193	0.0133115
903.271	0.0130228
903.349	0.0133595
903.427	0.0134087
903.505	0.0133661
903.583	0.0134727
903.662	0.0134624
903.740	0.0134026
903.818	0.0134636
903.896	0.0134899
903.974	0.0135039
904.052	0.0136758
904.130	0.0137994
904.208	0.0136260
904.287	0.0137115
904.365	0.0137587
904.443	0.0135997
904.521	0.0135289
904.599	0.0136709
904.677	0.0137342
904.755	0.0136271
904.833	0.0136403
904.912	0.0137859
904.990	0.0136254
905.068	0.0135564
905.146	0.0137347
905.224	0.0137189
905.302	0.0136132
905.380	0.0135755
905.458	0.0134831
905.537	0.0134721
905.615	0.0136131
905.693	0.0134737
905.771	0.0133920
905.849	0.0133897
905.927	0.0133571
906.005	0.0133453
906.083	0.0132998
906.162	0.0132679
906.240	0.0132802
906.318	0.0131881
906.396	0.0134309
906.474	0.0133577
906.552	0.0133376
906.630	0.0133180
906.708	0.0133965
906.787	0.0133175
906.865	0.0132891
906.943	0.0132920
907.021	0.0132388
907.099	0.0132631
907.177	0.0133755
907.255	0.0132488
907.333	0.0132668
907.412	0.0133796
907.490	0.0133903
907.568	0.0133901
907.646	0.0135294
907.724	0.0135929
907.802	0.0135868
907.880	0.0136509
907.958	0.0136526
908.037	0.0137083
908.115	0.0137612
908.193	0.0139084
908.271	0.0138448
908.349	0.0140408
908.427	0.0139988
908.505	0.0139844
908.583	0.0139763
908.662	0.0139286
908.740	0.0140535
908.818	0.0141191
908.896	0.0141372
908.974	0.0140121
909.052	0.0138432
909.130	0.0137796
909.208	0.0137664
909.287	0.0137041
909.365	0.0139063
909.443	0.0137402
909.521	0.0135934
909.599	0.0136585
909.677	0.0135850
909.755	0.0135308
909.833	0.0134680
909.912	0.0134756
909.990	0.0134248
910.068	0.0134078
910.146	0.0133387
910.224	0.0133703
910.302	0.0133534
910.380	0.0134202
910.458	0.0134035
910.537	0.0132312
910.615	0.0132681
910.693	0.0132700
910.771	0.0132439
910.849	0.0134263
910.927	0.0134965
911.005	0.0134606
911.083	0.0134246
911.162	0.0135301
911.240	0.0135776
911.318	0.0135190
911.396	0.0136042
911.474	0.0135439
911.552	0.0135402
911.630	0.0135708
911.708	0.0134930
911.787	0.0135511
911.865	0.0134947
911.943	0.0134268
912.021	0.0134558
912.099	0.0135040
912.177	0.0135799
912.255	0.0134700
912.333	0.0134618
912.412	0.0136747
912.490	0.0136578
912.568	0.0136586
912.646	0.0136720
912.724	0.0136945
912.802	0.0135526
912.880	0.0136356
912.958	0.0135674
913.037	0.0135804
913.115	0.0135588
913.193	0.0134592
913.271	0.0135104
913.349	0.0134941
913.427	0.0136435
913.505	0.0135944
913.583	0.0134831
913.662	0.0134812
913.740	0.0135610
913.818	0.0136015
913.896	0.0136185
913.974	0.0136588
914.052	0.0136756
914.130	0.0137331
914.208	0.0138568
914.287	0.0138776
914.365	0.0137727
914.443	0.0137593
914.521	0.0138409
914.599	0.0136478
914.677	0.0137436
914.755	0.0137505
914.833	0.0135361
914.912	0.0135140
914.990	0.0135542
915.068	0.0136051
915.146	0.0136718
915.224	0.0134899
915.302	0.0134000
915.380	0.0134786
915.458	0.0133379
915.537	0.0134760
915.615	0.0134320
915.693	0.0134357
915.771	0.0133691
915.849	0.0134486
915.927	0.0134009
916.005	0.0134594
916.083	0.0135345
916.162	0.0135139
916.240	0.0135814
916.318	0.0136929
916.396	0.0136381
916.474	0.0136135
916.552	0.0137905
916.630	0.0135386
916.708	0.0135052
916.787	0.0135764
916.865	0.0136041
916.943	0.0136224
917.021	0.0135506
917.099	0.0136275
917.177	0.0135242
917.255	0.0134597
917.333	0.0135584
917.412	0.0136044
917.490	0.0135165
917.568	0.0135232
917.646	0.0134447
917.724	0.0133158
917.802	0.0133001
917.880	0.0133509
917.958	0.0133055
918.037	0.0133282
918.115	0.0132281
918.193	0.0131602
918.271	0.0131126
918.349	0.0132990
918.427	0.0132719
918.505	0.0131989
918.583	0.0132466
918.662	0.0131503
918.740	0.0132918
918.818	0.0135616
918.896	0.0134573
918.974	0.0135295
919.052	0.0136047
919.130	0.0136110
919.208	0.0136776
919.287	0.0136846
919.365	0.0138428
919.443	0.0138202
919.521	0.0137781
919.599	0.0139686
919.677	0.0140164
919.755	0.0139863
919.833	0.0139091
919.912	0.0139752
919.990	0.0140184
920.068	0.0139740
920.146	0.0140426
920.224	0.0140649
920.302	0.0140648
920.380	0.0140385
920.458	0.0139853
920.537	0.0140014
920.615	0.0139236
920.693	0.0138262
920.771	0.0138254
920.849	0.0137774
920.927	0.0137139
921.005	0.0136546
921.083	0.0134670
921.162	0.0135205
921.240	0.0134164
921.318	0.0134156
921.396	0.0133026
921.474	0.0133083
921.552	0.0132870
921.630	0.0132516
921.708	0.0132880
921.787	0.0132899
921.865	0.0133472
921.943	0.0132849
922.021	0.0133250
922.099	0.0132603
922.177	0.0132350
922.255	0.0133562
922.333	0.0134114
922.412	0.0133580
922.490	0.0134702
922.568	0.0133281
922.646	0.0134560
922.724	0.0135194
922.802	0.0134923
922.880	0.0135779
922.958	0.0135040
923.037	0.0134340
923.115	0.0135689
923.193	0.0136337
923.271	0.0135160
923.349	0.0135164
923.427	0.0135760
923.505	0.0135936
923.583	0.0136475
923.662	0.0136774
923.740	0.0137956
923.818	0.0137452
923.896	0.0138367
923.974	0.0135157
924.052	0.0138181
924.130	0.0139478
924.208	0.0139127
924.287	0.0139108
924.365	0.0137421
924.443	0.0137934
924.521	0.0139291
924.599	0.0137457
924.677	0.0137039
924.755	0.0137504
924.833	0.0136543
924.912	0.0136341
924.990	0.0136543
925.068	0.0134921
925.146	0.0134702
925.224	0.0135791
925.302	0.0135991
925.380	0.0136591
925.458	0.0135662
925.537	0.0135656
925.615	0.0136200
925.693	0.0135226
925.771	0.0136856
925.849	0.0134988
925.927	0.0135426
926.005	0.0136651
926.083	0.0135357
926.162	0.0134809
926.240	0.0136452
926.318	0.0135397
926.396	0.0136626
926.474	0.0134345
926.552	0.0136432
926.630	0.0134302
926.708	0.0134415
926.787	0.0135355
926.865	0.0134854
926.943	0.0133098
927.021	0.0135513
927.099	0.0134483
927.177	0.0135703
927.255	0.0134975
927.333	0.0133306
927.412	0.0134681
927.490	0.0136117
927.568	0.0134070
927.646	0.0135648
927.724	0.0135176
927.802	0.0135896
927.880	0.0136424
927.958	0.0136732
928.037	0.0135856
928.115	0.0136391
928.193	0.0136198
928.271	0.0135926
928.349	0.0134841
928.427	0.0135481
928.505	0.0134653
928.583	0.0136683
928.662	0.0136362
928.740	0.0136408
928.818	0.0135931
928.896	0.0136384
928.974	0.0136018
929.052	0.0135979
929.130	0.0134431
929.208	0.0136115
929.287	0.0135276
929.365	0.0136314
929.443	0.0135044
929.521	0.0133359
929.599	0.0135186
929.677	0.0135162
929.755	0.0134626
929.833	0.0135532
929.912	0.0134920
929.990	0.0133490
930.068	0.0132387
930.146	0.0133979
930.224	0.0134287
930.302	0.0134003
930.380	0.0133470
930.458	0.0132871
930.537	0.0133971
930.615	0.0134249
930.693	0.0134425
930.771	0.0133901
930.849	0.0135616
930.927	0.0134810
931.005	0.0136067
931.083	0.0135683
931.162	0.0134880
931.240	0.0136658
931.318	0.0136485
931.396	0.0137462
931.474	0.0137954
931.552	0.0137238
931.630	0.0136951
931.708	0.0137914
931.787	0.0138869
931.865	0.0139258
931.943	0.0138190
932.021	0.0137413
932.099	0.0137366
932.177	0.0137592
932.255	0.0137395
932.333	0.0137077
932.412	0.0136961
932.490	0.0136712
932.568	0.0136384
932.646	0.0135854
932.724	0.0136329
932.802	0.0136156
932.880	0.0135324
932.958	0.0134575
933.037	0.0135191
933.115	0.0133814
933.193	0.0134869
933.271	0.0135265
933.349	0.0132949
933.427	0.0134016
933.505	0.0133410
933.583	0.0133969
933.662	0.0134481
933.740	0.0134989
933.818	0.0134047
933.896	0.0135174
933.974	0.0135645
934.052	0.0134176
934.130	0.0133369
934.208	0.0134885
934.287	0.0136352
934.365	0.0135004
934.443	0.0133651
934.521	0.0133968
934.599	0.0134516
934.677	0.0133984
934.755	0.0133750
934.833	0.0133208
934.912	0.0134194
934.990	0.0135565
935.068	0.0134228
935.146	0.0135219
935.224	0.0134734
935.302	0.0133593
935.380	0.0135088
935.458	0.0134772
935.537	0.0135681
935.615	0.0135737
935.693	0.0136629
935.771	0.0134328
935.849	0.0135632
935.927	0.0136069
936.005	0.0135052
936.083	0.0135527
936.162	0.0135634
936.240	0.0134758
936.318	0.0134865
936.396	0.0134632
936.474	0.0134832
936.552	0.0134264
936.630	0.0135245
936.708	0.0136337
936.787	0.0135554
936.865	0.0136765
936.943	0.0137392
937.021	0.0137251
937.099	0.0137988
937.177	0.0138260
937.255	0.0137420
937.333	0.0136700
937.412	0.0139312
937.490	0.0137856
937.568	0.0137122
937.646	0.0137906
937.724	0.0138595
937.802	0.0138473
937.880	0.0136406
937.958	0.0137077
938.037	0.0136745
938.115	0.0135322
938.193	0.0136147
938.271	0.0135629
938.349	0.0135138
938.427	0.0134973
938.505	0.0133208
938.583	0.0134171
938.662	0.0132961
938.740	0.0133728
938.818	0.0132765
938.896	0.0134638
938.974	0.0134509
939.052	0.0133466
939.130	0.0134072
939.208	0.0133408
939.287	0.0135031
939.365	0.0134751
939.443	0.0134280
939.521	0.0134720
939.599	0.0135668
939.677	0.0134670
939.755	0.0135579
939.833	0.0135858
939.912	0.0135909
939.990	0.0135393
940.068	0.0136263
940.146	0.0136052
940.224	0.0136182
940.302	0.0135800
940.380	0.0137522
940.458	0.0136069
940.537	0.0136823
940.615	0.0136158
940.693	0.0135419
940.771	0.0136026
940.849	0.0136270
940.927	0.0134210
941.005	0.0133460
941.083	0.0133660
941.162	0.0135075
941.240	0.0135952
941.318	0.0133262
941.396	0.0133422
941.474	0.0135142
941.552	0.0134628
941.630	0.0134058
941.708	0.0133773
941.787	0.0134139
941.865	0.0137717
941.943	0.0134617
942.021	0.0134846
942.099	0.0134685
942.177	0.0134576
942.255	0.0137658
942.333	0.0137109
942.412	0.0136078
942.490	0.0137071
942.568	0.0137733
942.646	0.0138779
942.724	0.0138018
942.802	0.0139199
942.880	0.0140176
942.958	0.0138042
943.037	0.0138588
943.115	0.0138840
943.193	0.0139497
943.271	0.0137210
943.349	0.0137784
943.427	0.0137457
943.505	0.0137487
943.583	0.0136265
943.662	0.0136272
943.740	0.0137098
943.818	0.0134570
943.896	0.0135037
943.974	0.0136301
944.052	0.0134510
944.130	0.0134227
944.208	0.0134438
944.287	0.0135693
944.365	0.0134833
944.443	0.0133953
944.521	0.0134558
944.599	0.0135020
944.677	0.0136317
944.755	0.0135908
944.833	0.0135051
944.912	0.0136220
944.990	0.0136358
945.068	0.0136425
945.146	0.0136755
945.224	0.0138958
945.302	0.0136823
945.380	0.0137085
945.458	0.0137547
945.537	0.0136034
945.615	0.0136836
945.693	0.0138261
945.771	0.0137320
945.849	0.0136207
945.927	0.0136029
946.005	0.0136508
946.083	0.0136057
946.162	0.0134709
946.240	0.0136515
946.318	0.0135509
946.396	0.0135400
946.474	0.0134705
946.552	0.0134407
946.630	0.0134763
946.708	0.0134563
946.787	0.0134253
946.865	0.0134446
946.943	0.0134329
947.021	0.0135023
947.099	0.0133736
947.177	0.0134099
947.255	0.0133907
947.333	0.0135659
947.412	0.0135956
947.490	0.0133749
947.568	0.0134019
947.646	0.0135114
947.724	0.0133276
947.802	0.0134460
947.880	0.0135196
947.958	0.0136366
948.037	0.0135912
948.115	0.0136141
948.193	0.0135209
948.271	0.0136956
948.349	0.0136718
948.427	0.0137309
948.505	0.0136540
948.583	0.0137497
948.662	0.0137066
948.740	0.0137607
948.818	0.0137621
948.896	0.0137257
948.974	0.0136640
949.052	0.0136238
949.130	0.0137479
949.208	0.0137589
949.287	0.0136982
949.365	0.0136097
949.443	0.0136927
949.521	0.0137779
949.599	0.0136389
949.677	0.0135703
949.755	0.0136951
949.833	0.0135197
949.912	0.0134735
949.990	0.0136811
950.068	0.0135847
950.146	0.0134150
950.224	0.0135473
950.302	0.0134867
950.380	0.0134737
950.458	0.0135484
950.537	0.0134848
950.615	0.0135931
950.693	0.0135007
950.771	0.0134948
950.849	0.0136451
950.927	0.0135527
951.005	0.0135845
951.083	0.0137740
951.162	0.0135988
951.240	0.0135487
951.318	0.0137056
951.396	0.0138914
951.474	0.0139482
951.552	0.0137675
951.630	0.0136620
951.708	0.0137164
951.787	0.0136967
951.865	0.0136915
951.943	0.0137436
952.021	0.0134972
952.099	0.0134524
952.177	0.0135136
952.255	0.0135085
952.333	0.0133540
952.412	0.0133601
952.490	0.0134433
952.568	0.0134215
952.646	0.0133366
952.724	0.0133372
952.802	0.0133875
952.880	0.0132061
952.958	0.0133125
953.037	0.0133364
953.115	0.0131992
953.193	0.0133301
953.271	0.0133278
953.349	0.0133735
953.427	0.0133740
953.505	0.0132583
953.583	0.0133026
953.662	0.0132244
953.740	0.0132517
953.818	0.0134364
953.896	0.0135916
953.974	0.0134207
954.052	0.0134405
954.130	0.0135336
954.208	0.0136143
954.287	0.0136172
954.365	0.0137189
954.443	0.0136299
954.521	0.0137295
954.599	0.0136910
954.677	0.0136102
954.755	0.0136963
954.833	0.0138135
954.912	0.0137197
954.990	0.0138693
955.068	0.0139085
955.146	0.0138518
955.224	0.0138534
955.302	0.0137370
955.380	0.0137575
955.458	0.0138824
955.537	0.0137422
955.615	0.0138866
955.693	0.0137082
955.771	0.0137537
955.849	0.0137170
955.927	0.0138757
956.005	0.0136858
956.083	0.0136096
956.162	0.0135352
956.240	0.0136221
956.318	0.0135718
956.396	0.0134194
956.474	0.0134812
956.552	0.0134641
956.630	0.0136132
956.708	0.0134375
956.787	0.0134665
956.865	0.0134961
956.943	0.0135343
957.021	0.0136047
957.099	0.0134760
957.177	0.0134344
957.255	0.0135533
957.333	0.0136479
957.412	0.0135135
957.490	0.0134906
957.568	0.0135223
957.646	0.0135966
957.724	0.0135668
957.802	0.0136375
957.880	0.0135244
957.958	0.0134424
958.037	0.0134336
958.115	0.0134788
958.193	0.0132944
958.271	0.0133356
958.349	0.0133233
958.427	0.0133590
958.505	0.0134737
958.583	0.0134634
958.662	0.0134816
958.740	0.0134189
958.818	0.0135020
958.896	0.0136067
958.974	0.0135480
959.052	0.0134559
959.130	0.0135582
959.208	0.0136519
959.287	0.0135367
959.365	0.0135984
959.443	0.0136405
959.521	0.0136002
959.599	0.0134773
959.677	0.0135813
959.755	0.0135647
959.833	0.0137198
959.912	0.0135271
959.990	0.0134827
960.068	0.0135695
960.146	0.0135403
960.224	0.0136056
960.302	0.0135152
960.380	0.0135691
960.458	0.0135766
960.537	0.0134610
960.615	0.0135500
960.693	0.0135233
960.771	0.0135461
960.849	0.0135562
960.927	0.0135416
961.005	0.0136034
961.083	0.0135805
961.162	0.0135957
961.240	0.0135243
961.318	0.0134777
961.396	0.0134718
961.474	0.0135071
961.552	0.0134241
961.630	0.0134669
961.708	0.0134303
961.787	0.0134550
961.865	0.0134266
961.943	0.0135878
962.021	0.0135191
962.099	0.0136015
962.177	0.0136132
962.255	0.0137337
962.333	0.0137470
962.412	0.0138453
962.490	0.0138370
962.568	0.0136887
962.646	0.0137136
962.724	0.0137371
962.802	0.0137354
962.880	0.0136474
962.958	0.0136009
963.037	0.0136707
963.115	0.0136410
963.193	0.0137072
963.271	0.0136864
963.349	0.0135680
963.427	0.0136127
963.505	0.0136092
963.583	0.0136636
963.662	0.0137347
963.740	0.0136907
963.818	0.0136209
963.896	0.0135808
963.974	0.0136034
964.052	0.0135100
964.130	0.0134535
964.208	0.0135707
964.287	0.0135774
964.365	0.0134652
964.443	0.0134333
964.521	0.0134078
964.599	0.0133273
964.677	0.0134416
964.755	0.0134469
964.833	0.0133264
964.912	0.0134705
964.990	0.0133820
965.068	0.0134886
965.146	0.0133900
965.224	0.0134769
965.302	0.0135239
965.380	0.0136407
965.458	0.0137795
965.537	0.0136964
965.615	0.0137171
965.693	0.0137276
965.771	0.0137930
965.849	0.0138131
965.927	0.0138432
966.005	0.0138543
966.083	0.0139394
966.162	0.0138271
966.240	0.0138328
966.318	0.0140083
966.396	0.0138386
966.474	0.0138410
966.552	0.0138642
966.630	0.0138370
966.708	0.0138487
966.787	0.0137119
966.865	0.0137852
966.943	0.0136476
967.021	0.0137968
967.099	0.0137251
967.177	0.0136076
967.255	0.0136978
967.333	0.0134895
967.412	0.0135580
967.490	0.0135343
967.568	0.0134594
967.646	0.0133193
967.724	0.0132767
967.802	0.0131212
967.880	0.0132581
967.958	0.0133825
968.037	0.0132149
968.115	0.0132478
968.193	0.0130588
968.271	0.0131417
968.349	0.0132661
968.427	0.0132273
968.505	0.0133643
968.583	0.0133872
968.662	0.0134015
968.740	0.0135314
968.818	0.0135226
968.896	0.0136942
968.974	0.0136792
969.052	0.0136362
969.130	0.0138499
969.208	0.0137756
969.287	0.0137569
969.365	0.0137672
969.443	0.0139859
969.521	0.0140961
969.599	0.0140414
969.677	0.0140229
969.755	0.0139310
969.833	0.0139198
969.912	0.0141071
