05/08/2022	19:51:40	Ver.	4.1	UNKNOWN
Optical Delay	649.989667	Delta X		0.078125	Sweeps	1	Scan Rate	0/0
Coordinates	Axis 1	NaN	Axis 2	NaN	Axis 3	NaN	Axis 4	NaN	Axis 5	NaN	Axis 6	0.000000
TX Power	0.000000	RX Power	0.000000

649.990	0.0133985
650.068	0.0134245
650.146	0.0134978
650.224	0.0134469
650.302	0.0134040
650.380	0.0134448
650.458	0.0133749
650.537	0.0135379
650.615	0.0134370
650.693	0.0134953
650.771	0.0134791
650.849	0.0133406
650.927	0.0135954
651.005	0.0135125
651.083	0.0135779
651.162	0.0135532
651.240	0.0135777
651.318	0.0134554
651.396	0.0135774
651.474	0.0133978
651.552	0.0133710
651.630	0.0134278
651.708	0.0134926
651.787	0.0134009
651.865	0.0133580
651.943	0.0134734
652.021	0.0135480
652.099	0.0133980
652.177	0.0132999
652.255	0.0134171
652.333	0.0134814
652.412	0.0134254
652.490	0.0133962
652.568	0.0135078
652.646	0.0134489
652.724	0.0135049
652.802	0.0135391
652.880	0.0135278
652.958	0.0135349
653.037	0.0133794
653.115	0.0135419
653.193	0.0133880
653.271	0.0135331
653.349	0.0134695
653.427	0.0135209
653.505	0.0133915
653.583	0.0134435
653.662	0.0136533
653.740	0.0135149
653.818	0.0132869
653.896	0.0133765
653.974	0.0134804
654.052	0.0133942
654.130	0.0134332
654.208	0.0133262
654.287	0.0134048
654.365	0.0134532
654.443	0.0134070
654.521	0.0134506
654.599	0.0133834
654.677	0.0134539
654.755	0.0136551
654.833	0.0134972
654.912	0.0134895
654.990	0.0135851
655.068	0.0135027
655.146	0.0133849
655.224	0.0135641
655.302	0.0134326
655.380	0.0134470
655.458	0.0134325
655.537	0.0134263
655.615	0.0134792
655.693	0.0133804
655.771	0.0132939
655.849	0.0134476
655.927	0.0133345
656.005	0.0135426
656.083	0.0134669
656.162	0.0133665
656.240	0.0133379
656.318	0.0135018
656.396	0.0133732
656.474	0.0135590
656.552	0.0134274
656.630	0.0135574
656.708	0.0134962
656.787	0.0135210
656.865	0.0133928
656.943	0.0133186
657.021	0.0133950
657.099	0.0135275
657.177	0.0134196
657.255	0.0134665
657.333	0.0135810
657.412	0.0136092
657.490	0.0135907
657.568	0.0135164
657.646	0.0134793
657.724	0.0133941
657.802	0.0134052
657.880	0.0135466
657.958	0.0134471
658.037	0.0134787
658.115	0.0135329
658.193	0.0134233
658.271	0.0134524
658.349	0.0136105
658.427	0.0135786
658.505	0.0134209
658.583	0.0135281
658.662	0.0135441
658.740	0.0134650
658.818	0.0135474
658.896	0.0134761
658.974	0.0135178
659.052	0.0134669
659.130	0.0134194
659.208	0.0135011
659.287	0.0135213
659.365	0.0134475
659.443	0.0135162
659.521	0.0134408
659.599	0.0135059
659.677	0.0135172
659.755	0.0134798
659.833	0.0135567
659.912	0.0133587
659.990	0.0134908
660.068	0.0133717
660.146	0.0135780
660.224	0.0136793
660.302	0.0136189
660.380	0.0134255
660.458	0.0135273
660.537	0.0135526
660.615	0.0135262
660.693	0.0135825
660.771	0.0135471
660.849	0.0134485
660.927	0.0136700
661.005	0.0135024
661.083	0.0133954
661.162	0.0136700
661.240	0.0135274
661.318	0.0134124
661.396	0.0134492
661.474	0.0135208
661.552	0.0137006
661.630	0.0134991
661.708	0.0135089
661.787	0.0134896
661.865	0.0135045
661.943	0.0134834
662.021	0.0134853
662.099	0.0134877
662.177	0.0134512
662.255	0.0135419
662.333	0.0135969
662.412	0.0134914
662.490	0.0135049
662.568	0.0136629
662.646	0.0134856
662.724	0.0135652
662.802	0.0137792
662.880	0.0136280
662.958	0.0134588
663.037	0.0135015
663.115	0.0134029
663.193	0.0133762
663.271	0.0133423
663.349	0.0132176
663.427	0.0133598
663.505	0.0132794
663.583	0.0131884
663.662	0.0133135
663.740	0.0133604
663.818	0.0134419
663.896	0.0135737
663.974	0.0137529
664.052	0.0138659
664.130	0.0139409
664.208	0.0139184
664.287	0.0140012
664.365	0.0140276
664.443	0.0138949
664.521	0.0138802
664.599	0.0138322
664.677	0.0137477
664.755	0.0134754
664.833	0.0134656
664.912	0.0131980
664.990	0.0130748
665.068	0.0127823
665.146	0.0128079
665.224	0.0126974
665.302	0.0126439
665.380	0.0126651
665.458	0.0127285
665.537	0.0127622
665.615	0.0130965
665.693	0.0133357
665.771	0.0134770
665.849	0.0137273
665.927	0.0138043
666.005	0.0138554
666.083	0.0139592
666.162	0.0140256
666.240	0.0142454
666.318	0.0140526
666.396	0.0141099
666.474	0.0138467
666.552	0.0135954
666.630	0.0136150
666.708	0.0133765
666.787	0.0133243
666.865	0.0133778
666.943	0.0133440
667.021	0.0134312
667.099	0.0133960
667.177	0.0136214
667.255	0.0137346
667.333	0.0136047
667.412	0.0134156
667.490	0.0135190
667.568	0.0134667
667.646	0.0133490
667.724	0.0133262
667.802	0.0130252
667.880	0.0126569
667.958	0.0125385
668.037	0.0124274
668.115	0.0122343
668.193	0.0121648
668.271	0.0123129
668.349	0.0125583
668.427	0.0127689
668.505	0.0129545
668.583	0.0133345
668.662	0.0136623
668.740	0.0138917
668.818	0.0143488
668.896	0.0146478
668.974	0.0149010
669.052	0.0148820
669.130	0.0147504
669.208	0.0147494
669.287	0.0145828
669.365	0.0144115
669.443	0.0142500
669.521	0.0137704
669.599	0.0134446
669.677	0.0132838
669.755	0.0130864
669.833	0.0129501
669.912	0.0129381
669.990	0.0128416
670.068	0.0127881
670.146	0.0128962
670.224	0.0129899
670.302	0.0132441
670.380	0.0131900
670.458	0.0133183
670.537	0.0132953
670.615	0.0133919
670.693	0.0133754
670.771	0.0134851
670.849	0.0134254
670.927	0.0134899
671.005	0.0134637
671.083	0.0133546
671.162	0.0133622
671.240	0.0131936
671.318	0.0131640
671.396	0.0130711
671.474	0.0128670
671.552	0.0126816
671.630	0.0125256
671.708	0.0122021
671.787	0.0121371
671.865	0.0123081
671.943	0.0121526
672.021	0.0121487
672.099	0.0126648
672.177	0.0127539
672.255	0.0130337
672.333	0.0136520
672.412	0.0137805
672.490	0.0139478
672.568	0.0143132
672.646	0.0146628
672.724	0.0146737
672.802	0.0149369
672.880	0.0148198
672.958	0.0149600
673.037	0.0149402
673.115	0.0148473
673.193	0.0145287
673.271	0.0144543
673.349	0.0145122
673.427	0.0143497
673.505	0.0142212
673.583	0.0142419
673.662	0.0139173
673.740	0.0138593
673.818	0.0137453
673.896	0.0137730
673.974	0.0136266
674.052	0.0134483
674.130	0.0133047
674.208	0.0134400
674.287	0.0130622
674.365	0.0129420
674.443	0.0128363
674.521	0.0128069
674.599	0.0125375
674.677	0.0125894
674.755	0.0123650
674.833	0.0120719
674.912	0.0120400
674.990	0.0117534
675.068	0.0115555
675.146	0.0114758
675.224	0.0112568
675.302	0.0110519
675.380	0.0107573
675.458	0.0109077
675.537	0.0110097
675.615	0.0112495
675.693	0.0115601
675.771	0.0120344
675.849	0.0123696
675.927	0.0127176
676.005	0.0134352
676.083	0.0140308
676.162	0.0146526
676.240	0.0150607
676.318	0.0152686
676.396	0.0155008
676.474	0.0158323
676.552	0.0159069
676.630	0.0157783
676.708	0.0158376
676.787	0.0160291
676.865	0.0159700
676.943	0.0159595
677.021	0.0161463
677.099	0.0161944
677.177	0.0162849
677.255	0.0163483
677.333	0.0163546
677.412	0.0162515
677.490	0.0161690
677.568	0.0158536
677.646	0.0156424
677.724	0.0151855
677.802	0.0145613
677.880	0.0138185
677.958	0.0131569
678.037	0.0125052
678.115	0.0117297
678.193	0.0110688
678.271	0.0104651
678.349	0.00980942
678.427	0.00949806
678.505	0.00920013
678.583	0.00919907
678.662	0.00927765
678.740	0.00930824
678.818	0.00930588
678.896	0.00960670
678.974	0.00980766
679.052	0.0101227
679.130	0.0103989
679.208	0.0107469
679.287	0.0112614
679.365	0.0116457
679.443	0.0120286
679.521	0.0124605
679.599	0.0130537
679.677	0.0137350
679.755	0.0141472
679.833	0.0145506
679.912	0.0148315
679.990	0.0150897
680.068	0.0152203
680.146	0.0151711
680.224	0.0153563
680.302	0.0154233
680.380	0.0154141
680.458	0.0155343
680.537	0.0156846
680.615	0.0158721
680.693	0.0160890
680.771	0.0164403
680.849	0.0166722
680.927	0.0169967
681.005	0.0173871
681.083	0.0178367
681.162	0.0180452
681.240	0.0180315
681.318	0.0179416
681.396	0.0178658
681.474	0.0175869
681.552	0.0170559
681.630	0.0166172
681.708	0.0159152
681.787	0.0151418
681.865	0.0143715
681.943	0.0135444
682.021	0.0127509
682.099	0.0121032
682.177	0.0114859
682.255	0.0107608
682.333	0.0100149
682.412	0.00962456
682.490	0.00909279
682.568	0.00858688
682.646	0.00814537
682.724	0.00743591
682.802	0.00706383
682.880	0.00675179
682.958	0.00659805
683.037	0.00633575
683.115	0.00641968
683.193	0.00652077
683.271	0.00689957
683.349	0.00744263
683.427	0.00813263
683.505	0.00911224
683.583	0.0101670
683.662	0.0115524
683.740	0.0128410
683.818	0.0142852
683.896	0.0153886
683.974	0.0167629
684.052	0.0180190
684.130	0.0189158
684.208	0.0197153
684.287	0.0203954
684.365	0.0208667
684.443	0.0210442
684.521	0.0209599
684.599	0.0207526
684.677	0.0205231
684.755	0.0200711
684.833	0.0194347
684.912	0.0187342
684.990	0.0180296
685.068	0.0173009
685.146	0.0165706
685.224	0.0157830
685.302	0.0148331
685.380	0.0140097
685.458	0.0132858
685.537	0.0125490
685.615	0.0118501
685.693	0.0115707
685.771	0.0113123
685.849	0.0109221
685.927	0.0109224
686.005	0.0109777
686.083	0.0111217
686.162	0.0111811
686.240	0.0111564
686.318	0.0112747
686.396	0.0113970
686.474	0.0112984
686.552	0.0112403
686.630	0.0112010
686.708	0.0110825
686.787	0.0110318
686.865	0.0110025
686.943	0.0110228
687.021	0.0110313
687.099	0.0111837
687.177	0.0114090
687.255	0.0116008
687.333	0.0116341
687.412	0.0119262
687.490	0.0121385
687.568	0.0120798
687.646	0.0121411
687.724	0.0120666
687.802	0.0117336
687.880	0.0116032
687.958	0.0116023
688.037	0.0116119
688.115	0.0116157
688.193	0.0117960
688.271	0.0121569
688.349	0.0125312
688.427	0.0130306
688.505	0.0136438
688.583	0.0143707
688.662	0.0150787
688.740	0.0158141
688.818	0.0165092
688.896	0.0170000
688.974	0.0176396
689.052	0.0179832
689.130	0.0180946
689.208	0.0181462
689.287	0.0180755
689.365	0.0177834
689.443	0.0173941
689.521	0.0170837
689.599	0.0166939
689.677	0.0164806
689.755	0.0161657
689.833	0.0156748
689.912	0.0153613
689.990	0.0151447
690.068	0.0147111
690.146	0.0145514
690.224	0.0143283
690.302	0.0138698
690.380	0.0131938
690.458	0.0129767
690.537	0.0123328
690.615	0.0116507
690.693	0.0110842
690.771	0.0105141
690.849	0.0101311
690.927	0.00953552
691.005	0.00918945
691.083	0.00921005
691.162	0.00918945
691.240	0.00938164
691.318	0.00964050
691.396	0.0100777
691.474	0.0107212
691.552	0.0113887
691.630	0.0118591
691.708	0.0125431
691.787	0.0130593
691.865	0.0138538
691.943	0.0141920
692.021	0.0145530
692.099	0.0149886
692.177	0.0152361
692.255	0.0154167
692.333	0.0154215
692.412	0.0155689
692.490	0.0155397
692.568	0.0154394
692.646	0.0151762
692.724	0.0149149
692.802	0.0145238
692.880	0.0142008
692.958	0.0135925
693.037	0.0128970
693.115	0.0123993
693.193	0.0118920
693.271	0.0113894
693.349	0.0109645
693.427	0.0108018
693.505	0.0106056
693.583	0.0107423
693.662	0.0108286
693.740	0.0110735
693.818	0.0116121
693.896	0.0120739
693.974	0.0126547
694.052	0.0129005
694.130	0.0134606
694.208	0.0136846
694.287	0.0141066
694.365	0.0145576
694.443	0.0147784
694.521	0.0149235
694.599	0.0151460
694.677	0.0153410
694.755	0.0156694
694.833	0.0158566
694.912	0.0160651
694.990	0.0163657
695.068	0.0165218
695.146	0.0165548
695.224	0.0168535
695.302	0.0170309
695.380	0.0170290
695.458	0.0168395
695.537	0.0167764
695.615	0.0164750
695.693	0.0159146
695.771	0.0155221
695.849	0.0147422
695.927	0.0141031
696.005	0.0133983
696.083	0.0128282
696.162	0.0121140
696.240	0.0115458
696.318	0.0110036
696.396	0.0105140
696.474	0.0102033
696.552	0.00999237
696.630	0.00966827
696.708	0.00957077
696.787	0.00965805
696.865	0.00966949
696.943	0.00969055
697.021	0.00984299
697.099	0.0101270
697.177	0.0105000
697.255	0.0109370
697.333	0.0114628
697.412	0.0118882
697.490	0.0126221
697.568	0.0131845
697.646	0.0136196
697.724	0.0142026
697.802	0.0147299
697.880	0.0152603
697.958	0.0154942
698.037	0.0155206
698.115	0.0156608
698.193	0.0157432
698.271	0.0154765
698.349	0.0150996
698.427	0.0147392
698.505	0.0143311
698.583	0.0139256
698.662	0.0135854
698.740	0.0131333
698.818	0.0127692
698.896	0.0124062
698.974	0.0121028
699.052	0.0121797
699.130	0.0122189
699.208	0.0123177
699.287	0.0122816
699.365	0.0125008
699.443	0.0126463
699.521	0.0129955
699.599	0.0132534
699.677	0.0134023
699.755	0.0136084
699.833	0.0137082
699.912	0.0139475
699.990	0.0142144
700.068	0.0145052
700.146	0.0145776
700.224	0.0147807
700.302	0.0147615
700.380	0.0148872
700.458	0.0151624
700.537	0.0151609
700.615	0.0151624
700.693	0.0152036
700.771	0.0151782
700.849	0.0150455
700.927	0.0149341
701.005	0.0148348
701.083	0.0149123
701.162	0.0149587
701.240	0.0147904
701.318	0.0148043
701.396	0.0147902
701.474	0.0147400
701.552	0.0144652
701.630	0.0143871
701.708	0.0139892
701.787	0.0136844
701.865	0.0132982
701.943	0.0128199
702.021	0.0125668
702.099	0.0120741
702.177	0.0117355
702.255	0.0113692
702.333	0.0110162
702.412	0.0109698
702.490	0.0109190
702.568	0.0108604
702.646	0.0109976
702.724	0.0110756
702.802	0.0111716
702.880	0.0114224
702.958	0.0116795
703.037	0.0118878
703.115	0.0122209
703.193	0.0124493
703.271	0.0128316
703.349	0.0130901
703.427	0.0132704
703.505	0.0133668
703.583	0.0135825
703.662	0.0138564
703.740	0.0140553
703.818	0.0142088
703.896	0.0143771
703.974	0.0144915
704.052	0.0144981
704.130	0.0145965
704.208	0.0144699
704.287	0.0143236
704.365	0.0143632
704.443	0.0141334
704.521	0.0140151
704.599	0.0137154
704.677	0.0133399
704.755	0.0131188
704.833	0.0127357
704.912	0.0123722
704.990	0.0121035
705.068	0.0119183
705.146	0.0118839
705.224	0.0116326
705.302	0.0117271
705.380	0.0118270
705.458	0.0119682
705.537	0.0122000
705.615	0.0126922
705.693	0.0130685
705.771	0.0136793
705.849	0.0141273
705.927	0.0147950
706.005	0.0152988
706.083	0.0159508
706.162	0.0164190
706.240	0.0168995
706.318	0.0173093
706.396	0.0175276
706.474	0.0175809
706.552	0.0176733
706.630	0.0175211
706.708	0.0174371
706.787	0.0169405
706.865	0.0165684
706.943	0.0161684
707.021	0.0156243
707.099	0.0149635
707.177	0.0144027
707.255	0.0138620
707.333	0.0133504
707.412	0.0127894
707.490	0.0124583
707.568	0.0121549
707.646	0.0116619
707.724	0.0114878
707.802	0.0113087
707.880	0.0109489
707.958	0.0107446
708.037	0.0106078
708.115	0.0106497
708.193	0.0104816
708.271	0.0104135
708.349	0.0103593
708.427	0.0103023
708.505	0.0103204
708.583	0.0103640
708.662	0.0105780
708.740	0.0107069
708.818	0.0108191
708.896	0.0110249
708.974	0.0111272
709.052	0.0113754
709.130	0.0119859
709.208	0.0124433
709.287	0.0130459
709.365	0.0134063
709.443	0.0139378
709.521	0.0145563
709.599	0.0150876
709.677	0.0154887
709.755	0.0159718
709.833	0.0162002
709.912	0.0164764
709.990	0.0166425
710.068	0.0164742
710.146	0.0162031
710.224	0.0160846
710.302	0.0158157
710.380	0.0155330
710.458	0.0150581
710.537	0.0146425
710.615	0.0140441
710.693	0.0135704
710.771	0.0130751
710.849	0.0126133
710.927	0.0123287
711.005	0.0121822
711.083	0.0118793
711.162	0.0116945
711.240	0.0117198
711.318	0.0118404
711.396	0.0119856
711.474	0.0123875
711.552	0.0125071
711.630	0.0128875
711.708	0.0134462
711.787	0.0137787
711.865	0.0141679
711.943	0.0144008
712.021	0.0148234
712.099	0.0152039
712.177	0.0154868
712.255	0.0157441
712.333	0.0159561
712.412	0.0162336
712.490	0.0163274
712.568	0.0163882
712.646	0.0161931
712.724	0.0162682
712.802	0.0161069
712.880	0.0158297
712.958	0.0153364
713.037	0.0148817
713.115	0.0144595
713.193	0.0141261
713.271	0.0134714
713.349	0.0129041
713.427	0.0126794
713.505	0.0123630
713.583	0.0120564
713.662	0.0119249
713.740	0.0117717
713.818	0.0116759
713.896	0.0114000
713.974	0.0113972
714.052	0.0113197
714.130	0.0112226
714.208	0.0110101
714.287	0.0108453
714.365	0.0108240
714.443	0.0106177
714.521	0.0105325
714.599	0.0105192
714.677	0.0105395
714.755	0.0106342
714.833	0.0107864
714.912	0.0110704
714.990	0.0113968
715.068	0.0118670
715.146	0.0123370
715.224	0.0128696
715.302	0.0132854
715.380	0.0137325
715.458	0.0142336
715.537	0.0147972
715.615	0.0152591
715.693	0.0155267
715.771	0.0156406
715.849	0.0159380
715.927	0.0159605
716.005	0.0157841
716.083	0.0158221
716.162	0.0156136
716.240	0.0154102
716.318	0.0150500
716.396	0.0148404
716.474	0.0147408
716.552	0.0145256
716.630	0.0143535
716.708	0.0141207
716.787	0.0141142
716.865	0.0139346
716.943	0.0138493
717.021	0.0140247
717.099	0.0139180
717.177	0.0138857
717.255	0.0139347
717.333	0.0139418
717.412	0.0140451
717.490	0.0137836
717.568	0.0137132
717.646	0.0134932
717.724	0.0133820
717.802	0.0132175
717.880	0.0130729
717.958	0.0129391
718.037	0.0126727
718.115	0.0125984
718.193	0.0126219
718.271	0.0127296
718.349	0.0127570
718.427	0.0127567
718.505	0.0129648
718.583	0.0132738
718.662	0.0134848
718.740	0.0136657
718.818	0.0139217
718.896	0.0140513
718.974	0.0142102
719.052	0.0143365
719.130	0.0143883
719.208	0.0143757
719.287	0.0140789
719.365	0.0139451
719.443	0.0139414
719.521	0.0137789
719.599	0.0136302
719.677	0.0136744
719.755	0.0136821
719.833	0.0134875
719.912	0.0134120
719.990	0.0132102
720.068	0.0131520
720.146	0.0129369
720.224	0.0126745
720.302	0.0127039
720.380	0.0125156
720.458	0.0121490
720.537	0.0118920
720.615	0.0117683
720.693	0.0116252
720.771	0.0115849
720.849	0.0114423
720.927	0.0115123
721.005	0.0115440
721.083	0.0116177
721.162	0.0116718
721.240	0.0119710
721.318	0.0123845
721.396	0.0127454
721.474	0.0129688
721.552	0.0132626
721.630	0.0136350
721.708	0.0140497
721.787	0.0144395
721.865	0.0148938
721.943	0.0151317
722.021	0.0152660
722.099	0.0153800
722.177	0.0154538
722.255	0.0155197
722.333	0.0154208
722.412	0.0153753
722.490	0.0151817
722.568	0.0148191
722.646	0.0145776
722.724	0.0142892
722.802	0.0138383
722.880	0.0135400
722.958	0.0132771
723.037	0.0130885
723.115	0.0129066
723.193	0.0126378
723.271	0.0124546
723.349	0.0122759
723.427	0.0122205
723.505	0.0122893
723.583	0.0123115
723.662	0.0124457
723.740	0.0125611
723.818	0.0127732
723.896	0.0128679
723.974	0.0129718
724.052	0.0134173
724.130	0.0135583
724.208	0.0137363
724.287	0.0140264
724.365	0.0142879
724.443	0.0145426
724.521	0.0148215
724.599	0.0149769
724.677	0.0152467
724.755	0.0154635
724.833	0.0155241
724.912	0.0155788
724.990	0.0155051
725.068	0.0153958
725.146	0.0152265
725.224	0.0151842
725.302	0.0149825
725.380	0.0147355
725.458	0.0143893
725.537	0.0141581
725.615	0.0137381
725.693	0.0134193
725.771	0.0132165
725.849	0.0126924
725.927	0.0126158
726.005	0.0124019
726.083	0.0120113
726.162	0.0116902
726.240	0.0114743
726.318	0.0113658
726.396	0.0111507
726.474	0.0110638
726.552	0.0109483
726.630	0.0108907
726.708	0.0109299
726.787	0.0111151
726.865	0.0110160
726.943	0.0111652
727.021	0.0112996
727.099	0.0114852
727.177	0.0117478
727.255	0.0119231
727.333	0.0122876
727.412	0.0127715
727.490	0.0130908
727.568	0.0133121
727.646	0.0136647
727.724	0.0140984
727.802	0.0145227
727.880	0.0147526
727.958	0.0150596
728.037	0.0151937
728.115	0.0154686
728.193	0.0156947
728.271	0.0157368
728.349	0.0154183
728.427	0.0155550
728.505	0.0153163
728.583	0.0149931
728.662	0.0148505
728.740	0.0144629
728.818	0.0141341
728.896	0.0138006
728.974	0.0135206
729.052	0.0133750
729.130	0.0132690
729.208	0.0131102
729.287	0.0130535
729.365	0.0130184
729.443	0.0129510
729.521	0.0131683
729.599	0.0133683
729.677	0.0132725
729.755	0.0133382
729.833	0.0133868
729.912	0.0135508
729.990	0.0138033
730.068	0.0137640
730.146	0.0139461
730.224	0.0138976
730.302	0.0141343
730.380	0.0142088
730.458	0.0142099
730.537	0.0143253
730.615	0.0143560
730.693	0.0143781
730.771	0.0144434
730.849	0.0143768
730.927	0.0141888
731.005	0.0141483
731.083	0.0140173
731.162	0.0139252
731.240	0.0137118
731.318	0.0137241
731.396	0.0134725
731.474	0.0136042
731.552	0.0134454
731.630	0.0132816
731.708	0.0132928
731.787	0.0132990
731.865	0.0132874
731.943	0.0134713
732.021	0.0134035
732.099	0.0132787
732.177	0.0132561
732.255	0.0132843
732.333	0.0132362
732.412	0.0130171
732.490	0.0130444
732.568	0.0127843
732.646	0.0126324
732.724	0.0124348
732.802	0.0124052
732.880	0.0122980
732.958	0.0123277
733.037	0.0121748
733.115	0.0122292
733.193	0.0122530
733.271	0.0121939
733.349	0.0123225
733.427	0.0124626
733.505	0.0126331
733.583	0.0127528
733.662	0.0130038
733.740	0.0130644
733.818	0.0134385
733.896	0.0136400
733.974	0.0137255
734.052	0.0138938
734.130	0.0140942
734.208	0.0141811
734.287	0.0144700
734.365	0.0144674
734.443	0.0144221
734.521	0.0143572
734.599	0.0143102
734.677	0.0140450
734.755	0.0139620
734.833	0.0137363
734.912	0.0135258
734.990	0.0134122
735.068	0.0131233
735.146	0.0131136
735.224	0.0130415
735.302	0.0129326
735.380	0.0128782
735.458	0.0131531
735.537	0.0133387
735.615	0.0137430
735.693	0.0138379
735.771	0.0141653
735.849	0.0144498
735.927	0.0147277
736.005	0.0150636
736.083	0.0152061
736.162	0.0154404
736.240	0.0154635
736.318	0.0153273
736.396	0.0152460
736.474	0.0151048
736.552	0.0149265
736.630	0.0148018
736.708	0.0145288
736.787	0.0144276
736.865	0.0140031
736.943	0.0138258
737.021	0.0136435
737.099	0.0135273
737.177	0.0134306
737.255	0.0133264
737.333	0.0131978
737.412	0.0130785
737.490	0.0129633
737.568	0.0129924
737.646	0.0130145
737.724	0.0129352
737.802	0.0129627
737.880	0.0128822
737.958	0.0127334
738.037	0.0126656
738.115	0.0128648
738.193	0.0125515
738.271	0.0126867
738.349	0.0126125
738.427	0.0125782
738.505	0.0124064
738.583	0.0125050
738.662	0.0123204
738.740	0.0123292
738.818	0.0124501
738.896	0.0123988
738.974	0.0123315
739.052	0.0125620
739.130	0.0127083
739.208	0.0127081
739.287	0.0129050
739.365	0.0131256
739.443	0.0133297
739.521	0.0136422
739.599	0.0137208
739.677	0.0138741
739.755	0.0139363
739.833	0.0139259
739.912	0.0142783
739.990	0.0142300
740.068	0.0141728
740.146	0.0142250
740.224	0.0140661
740.302	0.0141600
740.380	0.0139474
740.458	0.0136910
740.537	0.0136452
740.615	0.0137091
740.693	0.0135019
740.771	0.0133680
740.849	0.0132906
740.927	0.0131738
741.005	0.0131925
741.083	0.0130657
741.162	0.0131805
741.240	0.0131178
741.318	0.0133006
741.396	0.0133333
741.474	0.0134671
741.552	0.0134745
741.630	0.0137218
741.708	0.0140274
741.787	0.0140784
741.865	0.0140781
741.943	0.0143094
742.021	0.0143299
742.099	0.0143470
742.177	0.0144282
742.255	0.0144311
742.333	0.0144489
742.412	0.0143544
742.490	0.0142753
742.568	0.0141949
742.646	0.0140603
742.724	0.0141341
742.802	0.0139748
742.880	0.0139779
742.958	0.0139187
743.037	0.0140765
743.115	0.0140147
743.193	0.0139491
743.271	0.0137759
743.349	0.0137634
743.427	0.0135626
743.505	0.0135903
743.583	0.0133366
743.662	0.0132879
743.740	0.0131010
743.818	0.0129368
743.896	0.0128623
743.974	0.0127767
744.052	0.0127118
744.130	0.0124339
744.208	0.0123262
744.287	0.0123949
744.365	0.0122429
744.443	0.0123322
744.521	0.0125493
744.599	0.0124587
744.677	0.0125160
744.755	0.0126281
744.833	0.0127085
744.912	0.0128142
744.990	0.0129066
745.068	0.0131422
745.146	0.0133192
745.224	0.0133807
745.302	0.0135418
745.380	0.0136321
745.458	0.0136468
745.537	0.0137766
745.615	0.0139447
745.693	0.0139596
745.771	0.0138511
745.849	0.0138811
745.927	0.0138904
746.005	0.0138221
746.083	0.0137926
746.162	0.0136366
746.240	0.0135040
746.318	0.0134927
746.396	0.0133975
746.474	0.0132661
746.552	0.0132496
746.630	0.0130782
746.708	0.0129878
746.787	0.0130992
746.865	0.0129956
746.943	0.0129864
747.021	0.0130001
747.099	0.0130177
747.177	0.0130796
747.255	0.0130887
747.333	0.0131609
747.412	0.0131917
747.490	0.0134263
747.568	0.0133472
747.646	0.0135394
747.724	0.0136158
747.802	0.0138416
747.880	0.0139758
747.958	0.0141808
748.037	0.0140984
748.115	0.0139927
748.193	0.0141032
748.271	0.0141455
748.349	0.0142374
748.427	0.0138876
748.505	0.0139557
748.583	0.0139384
748.662	0.0138248
748.740	0.0137657
748.818	0.0138905
748.896	0.0137647
748.974	0.0137438
749.052	0.0138786
749.130	0.0138260
749.208	0.0139629
749.287	0.0140354
749.365	0.0139412
749.443	0.0139164
749.521	0.0139381
749.599	0.0138464
749.677	0.0137110
749.755	0.0136833
749.833	0.0137424
749.912	0.0135336
749.990	0.0135245
750.068	0.0133990
750.146	0.0131403
750.224	0.0131796
750.302	0.0130376
750.380	0.0128428
750.458	0.0127699
750.537	0.0128681
750.615	0.0128260
750.693	0.0126315
750.771	0.0125307
750.849	0.0128486
750.927	0.0128029
751.005	0.0127349
751.083	0.0128171
751.162	0.0126685
751.240	0.0127666
751.318	0.0130973
751.396	0.0129333
751.474	0.0130670
751.552	0.0132825
751.630	0.0132876
751.708	0.0134361
751.787	0.0135593
751.865	0.0135185
751.943	0.0136899
752.021	0.0136337
752.099	0.0137511
752.177	0.0137691
752.255	0.0136794
752.333	0.0135877
752.412	0.0135230
752.490	0.0137466
752.568	0.0136024
752.646	0.0136762
752.724	0.0134603
752.802	0.0134929
752.880	0.0133822
752.958	0.0133865
753.037	0.0134457
753.115	0.0133269
753.193	0.0133337
753.271	0.0133694
753.349	0.0134148
753.427	0.0134550
753.505	0.0134143
753.583	0.0134074
753.662	0.0135574
753.740	0.0134441
753.818	0.0135242
753.896	0.0137068
753.974	0.0136806
754.052	0.0136220
754.130	0.0136806
754.208	0.0137669
754.287	0.0137404
754.365	0.0138911
754.443	0.0138534
754.521	0.0138144
754.599	0.0138030
754.677	0.0138225
754.755	0.0138852
754.833	0.0138023
754.912	0.0135806
754.990	0.0136476
755.068	0.0137418
755.146	0.0137520
755.224	0.0135590
755.302	0.0136099
755.380	0.0135062
755.458	0.0134853
755.537	0.0136401
755.615	0.0135602
755.693	0.0136142
755.771	0.0136779
755.849	0.0136383
755.927	0.0136546
756.005	0.0136796
756.083	0.0135408
756.162	0.0136747
756.240	0.0136472
756.318	0.0136140
756.396	0.0136794
756.474	0.0134282
756.552	0.0133344
756.630	0.0133094
756.708	0.0133719
756.787	0.0131440
756.865	0.0131075
756.943	0.0131312
757.021	0.0131178
757.099	0.0130568
757.177	0.0130566
757.255	0.0130106
757.333	0.0129948
757.412	0.0130415
757.490	0.0130295
757.568	0.0132529
757.646	0.0131747
757.724	0.0134004
757.802	0.0135064
757.880	0.0133365
757.958	0.0134400
758.037	0.0135346
758.115	0.0137562
758.193	0.0136910
758.271	0.0137083
758.349	0.0136709
758.427	0.0136546
758.505	0.0137410
758.583	0.0136581
758.662	0.0137576
758.740	0.0137930
758.818	0.0135685
758.896	0.0135728
758.974	0.0136567
759.052	0.0135255
759.130	0.0134722
759.208	0.0134866
759.287	0.0134811
759.365	0.0134676
759.443	0.0136520
759.521	0.0134741
759.599	0.0134724
759.677	0.0133686
759.755	0.0133590
759.833	0.0135144
759.912	0.0133823
759.990	0.0135567
760.068	0.0133963
760.146	0.0134422
760.224	0.0134826
760.302	0.0136332
760.380	0.0136100
760.458	0.0136694
760.537	0.0136198
760.615	0.0136552
760.693	0.0136703
760.771	0.0137756
760.849	0.0137385
760.927	0.0137563
761.005	0.0136459
761.083	0.0136784
761.162	0.0135693
761.240	0.0135430
761.318	0.0135234
761.396	0.0134715
761.474	0.0133808
761.552	0.0132905
761.630	0.0133961
761.708	0.0133894
761.787	0.0133753
761.865	0.0133949
761.943	0.0134247
762.021	0.0135485
762.099	0.0136577
762.177	0.0137901
762.255	0.0136613
762.333	0.0137019
762.412	0.0138972
762.490	0.0138900
762.568	0.0139324
762.646	0.0139198
762.724	0.0138314
762.802	0.0139359
762.880	0.0138532
762.958	0.0138562
763.037	0.0137968
763.115	0.0136455
763.193	0.0136864
763.271	0.0135892
763.349	0.0134415
763.427	0.0133523
763.505	0.0132978
763.583	0.0133537
763.662	0.0131166
763.740	0.0131908
763.818	0.0132184
763.896	0.0131461
763.974	0.0130043
764.052	0.0129699
764.130	0.0129220
764.208	0.0127317
764.287	0.0127415
764.365	0.0129155
764.443	0.0129958
764.521	0.0129933
764.599	0.0129327
764.677	0.0130029
764.755	0.0130732
764.833	0.0132775
764.912	0.0132981
764.990	0.0134561
765.068	0.0133832
765.146	0.0134384
765.224	0.0136339
765.302	0.0135663
765.380	0.0136016
765.458	0.0136397
765.537	0.0137670
765.615	0.0136720
765.693	0.0138148
765.771	0.0138264
765.849	0.0137212
765.927	0.0138254
766.005	0.0137466
766.083	0.0136568
766.162	0.0137704
766.240	0.0136517
766.318	0.0138132
766.396	0.0138853
766.474	0.0138271
766.552	0.0137536
766.630	0.0137838
766.708	0.0136031
766.787	0.0134991
766.865	0.0135559
766.943	0.0134452
767.021	0.0131734
767.099	0.0132104
767.177	0.0133071
767.255	0.0132574
767.333	0.0131778
767.412	0.0131639
767.490	0.0131622
767.568	0.0130960
767.646	0.0131931
767.724	0.0131099
767.802	0.0131444
767.880	0.0131995
767.958	0.0132571
768.037	0.0132793
768.115	0.0133459
768.193	0.0132671
768.271	0.0132938
768.349	0.0135031
768.427	0.0135040
768.505	0.0133656
768.583	0.0133873
768.662	0.0133994
768.740	0.0132917
768.818	0.0131579
768.896	0.0132536
768.974	0.0132507
769.052	0.0132180
769.130	0.0132978
769.208	0.0132719
769.287	0.0133076
769.365	0.0133051
769.443	0.0134179
769.521	0.0134315
769.599	0.0136003
769.677	0.0138049
769.755	0.0138956
769.833	0.0139500
769.912	0.0139706
769.990	0.0140068
770.068	0.0139621
770.146	0.0142828
770.224	0.0141805
770.302	0.0141359
770.380	0.0138391
770.458	0.0138742
770.537	0.0137654
770.615	0.0136692
770.693	0.0136282
770.771	0.0134814
770.849	0.0134796
770.927	0.0133521
771.005	0.0133174
771.083	0.0130788
771.162	0.0129877
771.240	0.0129534
771.318	0.0130177
771.396	0.0129500
771.474	0.0128334
771.552	0.0128008
771.630	0.0128386
771.708	0.0127871
771.787	0.0127289
771.865	0.0128902
771.943	0.0127573
772.021	0.0127952
772.099	0.0129946
772.177	0.0128303
772.255	0.0129485
772.333	0.0131444
772.412	0.0131421
772.490	0.0132422
772.568	0.0134040
772.646	0.0134467
772.724	0.0135017
772.802	0.0137431
772.880	0.0137739
772.958	0.0137852
773.037	0.0139364
773.115	0.0141081
773.193	0.0141527
773.271	0.0142123
773.349	0.0143365
773.427	0.0141131
773.505	0.0141061
773.583	0.0142591
773.662	0.0141634
773.740	0.0141941
773.818	0.0141441
773.896	0.0139780
773.974	0.0138354
774.052	0.0138248
774.130	0.0137936
774.208	0.0137383
774.287	0.0137470
774.365	0.0135625
774.443	0.0136164
774.521	0.0133883
774.599	0.0134550
774.677	0.0134168
774.755	0.0132521
774.833	0.0132424
774.912	0.0132048
774.990	0.0130871
775.068	0.0131895
775.146	0.0130666
775.224	0.0129865
775.302	0.0128564
775.380	0.0130154
775.458	0.0129076
775.537	0.0126876
775.615	0.0127811
775.693	0.0128188
775.771	0.0128986
775.849	0.0129079
775.927	0.0129709
776.005	0.0129854
776.083	0.0129518
776.162	0.0130680
776.240	0.0133498
776.318	0.0134168
776.396	0.0133008
776.474	0.0133174
776.552	0.0134195
776.630	0.0135412
776.708	0.0135075
776.787	0.0136049
776.865	0.0136208
776.943	0.0137251
777.021	0.0138839
777.099	0.0139076
777.177	0.0139438
777.255	0.0139970
777.333	0.0140551
777.412	0.0140457
777.490	0.0141059
777.568	0.0140880
777.646	0.0141847
777.724	0.0140945
777.802	0.0139964
777.880	0.0139793
777.958	0.0139041
778.037	0.0136584
778.115	0.0136797
778.193	0.0136568
778.271	0.0136111
778.349	0.0134983
778.427	0.0133604
778.505	0.0133595
778.583	0.0131776
778.662	0.0132697
778.740	0.0132213
778.818	0.0132774
778.896	0.0132554
778.974	0.0131136
779.052	0.0131970
779.130	0.0131512
779.208	0.0130958
779.287	0.0131438
779.365	0.0131624
779.443	0.0130017
779.521	0.0132325
779.599	0.0131354
779.677	0.0132361
779.755	0.0131999
779.833	0.0130435
779.912	0.0131210
779.990	0.0133789
780.068	0.0132203
780.146	0.0133128
780.224	0.0132818
780.302	0.0133632
780.380	0.0132184
780.458	0.0131727
780.537	0.0133347
780.615	0.0133244
780.693	0.0133836
780.771	0.0135305
780.849	0.0134212
780.927	0.0134586
781.005	0.0135606
781.083	0.0137132
781.162	0.0136578
781.240	0.0139125
781.318	0.0139279
781.396	0.0139711
781.474	0.0139985
781.552	0.0141426
781.630	0.0142084
781.708	0.0141623
781.787	0.0140756
781.865	0.0140985
781.943	0.0139857
782.021	0.0139800
782.099	0.0139973
782.177	0.0140292
782.255	0.0138719
782.333	0.0137616
782.412	0.0136787
782.490	0.0137668
782.568	0.0135963
782.646	0.0132355
782.724	0.0132973
782.802	0.0131760
782.880	0.0131676
782.958	0.0130976
783.037	0.0131667
783.115	0.0130186
783.193	0.0131632
783.271	0.0130624
783.349	0.0130527
783.427	0.0130157
783.505	0.0130851
783.583	0.0131541
783.662	0.0130059
783.740	0.0130608
783.818	0.0131788
783.896	0.0131524
783.974	0.0131278
784.052	0.0131097
784.130	0.0130936
784.208	0.0132368
784.287	0.0132749
784.365	0.0132399
784.443	0.0131734
784.521	0.0134117
784.599	0.0133413
784.677	0.0133256
784.755	0.0134593
784.833	0.0135172
784.912	0.0135586
784.990	0.0135767
785.068	0.0135289
785.146	0.0137571
785.224	0.0137405
785.302	0.0138602
785.380	0.0138063
785.458	0.0138388
785.537	0.0137492
785.615	0.0137239
785.693	0.0138553
785.771	0.0137521
785.849	0.0137148
785.927	0.0136537
786.005	0.0137807
786.083	0.0136951
786.162	0.0136551
786.240	0.0135564
786.318	0.0136671
786.396	0.0135070
786.474	0.0136465
786.552	0.0135654
786.630	0.0134830
786.708	0.0134775
786.787	0.0135880
786.865	0.0132998
786.943	0.0134425
787.021	0.0134055
787.099	0.0134352
787.177	0.0132805
787.255	0.0134643
787.333	0.0133557
787.412	0.0131496
787.490	0.0131782
787.568	0.0132565
787.646	0.0132195
787.724	0.0133439
787.802	0.0133156
787.880	0.0133276
787.958	0.0134792
788.037	0.0133529
788.115	0.0134554
788.193	0.0135312
788.271	0.0135010
788.349	0.0136893
788.427	0.0134965
788.505	0.0134935
788.583	0.0135835
788.662	0.0136034
788.740	0.0134473
788.818	0.0135416
788.896	0.0135320
788.974	0.0132652
789.052	0.0132322
789.130	0.0131413
789.208	0.0132992
789.287	0.0131562
789.365	0.0131241
789.443	0.0130732
789.521	0.0131825
789.599	0.0132021
789.677	0.0132735
789.755	0.0131770
789.833	0.0132627
789.912	0.0132879
789.990	0.0134241
790.068	0.0135962
790.146	0.0134974
790.224	0.0136286
790.302	0.0134155
790.380	0.0136298
790.458	0.0136176
790.537	0.0136406
790.615	0.0137564
790.693	0.0136711
790.771	0.0138212
790.849	0.0134991
790.927	0.0136723
791.005	0.0136175
791.083	0.0136762
791.162	0.0137737
791.240	0.0137499
791.318	0.0136288
791.396	0.0137155
791.474	0.0138792
791.552	0.0137070
791.630	0.0136566
791.708	0.0135326
791.787	0.0136176
791.865	0.0135089
791.943	0.0134373
792.021	0.0135119
792.099	0.0134453
792.177	0.0133710
792.255	0.0134689
792.333	0.0134400
792.412	0.0132779
792.490	0.0133211
792.568	0.0132211
792.646	0.0133479
792.724	0.0133479
792.802	0.0131424
792.880	0.0132198
792.958	0.0132441
793.037	0.0132969
793.115	0.0133283
793.193	0.0132646
793.271	0.0134303
793.349	0.0133013
793.427	0.0134065
793.505	0.0132732
793.583	0.0132864
793.662	0.0133671
793.740	0.0133739
793.818	0.0134608
793.896	0.0134358
793.974	0.0133608
794.052	0.0134013
794.130	0.0134763
794.208	0.0134407
794.287	0.0134483
794.365	0.0135410
794.443	0.0135495
794.521	0.0134736
794.599	0.0134044
794.677	0.0133764
794.755	0.0134200
794.833	0.0134295
794.912	0.0133891
794.990	0.0132085
795.068	0.0132442
795.146	0.0134745
795.224	0.0134978
795.302	0.0134368
795.380	0.0134403
795.458	0.0134752
795.537	0.0133935
795.615	0.0133063
795.693	0.0134400
795.771	0.0133944
795.849	0.0133782
795.927	0.0133099
796.005	0.0133398
796.083	0.0134287
796.162	0.0134360
796.240	0.0134206
796.318	0.0133511
796.396	0.0133193
796.474	0.0133578
796.552	0.0132717
796.630	0.0134074
796.708	0.0135188
796.787	0.0134505
796.865	0.0135387
796.943	0.0133578
797.021	0.0134242
797.099	0.0136781
797.177	0.0137109
797.255	0.0135695
797.333	0.0136800
797.412	0.0135750
797.490	0.0138172
797.568	0.0137469
797.646	0.0136469
797.724	0.0137694
797.802	0.0137506
797.880	0.0137741
797.958	0.0137995
798.037	0.0135072
798.115	0.0135780
798.193	0.0136092
798.271	0.0135863
798.349	0.0134978
798.427	0.0136540
798.505	0.0134858
798.583	0.0133973
798.662	0.0135053
798.740	0.0134248
798.818	0.0133618
798.896	0.0133652
798.974	0.0133913
799.052	0.0134375
799.130	0.0133649
799.208	0.0132201
799.287	0.0133858
799.365	0.0134532
799.443	0.0134187
799.521	0.0134338
799.599	0.0134143
799.677	0.0135458
799.755	0.0134688
799.833	0.0133977
799.912	0.0134747
799.990	0.0135205
800.068	0.0135370
800.146	0.0136343
800.224	0.0134904
800.302	0.0136391
800.380	0.0136797
800.458	0.0136634
800.537	0.0134542
800.615	0.0134904
800.693	0.0134712
800.771	0.0132908
800.849	0.0134531
800.927	0.0133978
801.005	0.0132348
801.083	0.0132929
801.162	0.0131853
801.240	0.0131560
801.318	0.0131934
801.396	0.0132938
801.474	0.0133042
801.552	0.0132459
801.630	0.0132717
801.708	0.0133775
801.787	0.0134959
801.865	0.0133954
801.943	0.0134415
802.021	0.0134407
802.099	0.0135342
802.177	0.0135921
802.255	0.0135464
802.333	0.0136480
802.412	0.0137993
802.490	0.0139084
802.568	0.0138259
802.646	0.0137739
802.724	0.0138483
802.802	0.0137547
802.880	0.0137585
802.958	0.0137830
803.037	0.0138051
803.115	0.0138110
803.193	0.0137860
803.271	0.0135925
803.349	0.0136964
803.427	0.0137743
803.505	0.0135221
803.583	0.0136954
803.662	0.0136545
803.740	0.0136221
803.818	0.0136448
803.896	0.0135349
803.974	0.0136658
804.052	0.0136555
804.130	0.0136787
804.208	0.0135548
804.287	0.0135394
804.365	0.0135845
804.443	0.0133391
804.521	0.0134686
804.599	0.0134279
804.677	0.0132900
804.755	0.0132439
804.833	0.0133218
804.912	0.0132496
804.990	0.0131025
805.068	0.0130619
805.146	0.0131470
805.224	0.0129890
805.302	0.0129914
805.380	0.0131094
805.458	0.0131413
805.537	0.0131292
805.615	0.0132197
805.693	0.0132298
805.771	0.0133500
805.849	0.0133605
805.927	0.0134663
806.005	0.0134145
806.083	0.0134702
806.162	0.0136739
806.240	0.0136316
806.318	0.0136666
806.396	0.0136795
806.474	0.0135182
806.552	0.0137395
806.630	0.0136765
806.708	0.0137990
806.787	0.0137038
806.865	0.0136728
806.943	0.0136761
807.021	0.0136515
807.099	0.0135971
807.177	0.0135189
807.255	0.0134486
807.333	0.0134940
807.412	0.0134891
807.490	0.0133587
807.568	0.0135540
807.646	0.0133706
807.724	0.0132829
807.802	0.0132561
807.880	0.0132924
807.958	0.0133640
808.037	0.0132121
808.115	0.0133089
808.193	0.0130996
808.271	0.0132985
808.349	0.0133044
808.427	0.0133427
808.505	0.0132890
808.583	0.0133572
808.662	0.0135365
808.740	0.0134562
808.818	0.0135427
808.896	0.0135703
808.974	0.0135957
809.052	0.0135458
809.130	0.0135806
809.208	0.0135654
809.287	0.0135075
809.365	0.0133995
809.443	0.0135730
809.521	0.0135484
809.599	0.0135263
809.677	0.0135047
809.755	0.0134283
809.833	0.0133064
809.912	0.0132911
809.990	0.0135077
810.068	0.0134001
810.146	0.0134017
810.224	0.0132784
810.302	0.0131809
810.380	0.0133939
810.458	0.0132864
810.537	0.0134026
810.615	0.0133023
810.693	0.0133385
810.771	0.0133472
810.849	0.0134246
810.927	0.0133620
811.005	0.0134044
811.083	0.0133611
811.162	0.0133553
811.240	0.0134431
811.318	0.0134154
811.396	0.0133598
811.474	0.0133537
811.552	0.0135005
811.630	0.0135628
811.708	0.0134427
811.787	0.0134225
811.865	0.0133588
811.943	0.0133710
812.021	0.0133321
812.099	0.0133752
812.177	0.0132657
812.255	0.0133261
812.333	0.0134505
812.412	0.0132610
812.490	0.0131502
812.568	0.0130906
812.646	0.0131693
812.724	0.0133568
812.802	0.0132638
812.880	0.0132073
812.958	0.0132278
813.037	0.0134644
813.115	0.0133276
813.193	0.0133837
813.271	0.0134655
813.349	0.0135818
813.427	0.0135741
813.505	0.0135770
813.583	0.0134769
813.662	0.0136980
813.740	0.0135590
813.818	0.0135643
813.896	0.0136624
813.974	0.0137595
814.052	0.0136025
814.130	0.0136076
814.208	0.0135185
814.287	0.0135152
814.365	0.0136165
814.443	0.0135870
814.521	0.0135827
814.599	0.0135604
814.677	0.0136014
814.755	0.0136722
814.833	0.0137534
814.912	0.0137746
814.990	0.0137102
815.068	0.0136913
815.146	0.0139103
815.224	0.0136284
815.302	0.0136960
815.380	0.0137177
815.458	0.0137467
815.537	0.0135556
815.615	0.0136826
815.693	0.0136252
815.771	0.0136896
815.849	0.0135091
815.927	0.0134464
816.005	0.0135039
816.083	0.0133590
816.162	0.0132840
816.240	0.0134328
816.318	0.0132409
816.396	0.0132642
816.474	0.0131365
816.552	0.0132412
816.630	0.0132600
816.708	0.0132171
816.787	0.0131872
816.865	0.0131269
816.943	0.0131953
817.021	0.0131231
817.099	0.0132642
817.177	0.0132848
817.255	0.0131939
817.333	0.0131387
817.412	0.0131973
817.490	0.0131908
817.568	0.0131691
817.646	0.0132817
817.724	0.0133438
817.802	0.0132471
817.880	0.0134036
817.958	0.0134022
818.037	0.0133729
818.115	0.0134406
818.193	0.0135625
818.271	0.0135167
818.349	0.0136190
818.427	0.0136900
818.505	0.0136013
818.583	0.0136513
818.662	0.0136595
818.740	0.0138282
818.818	0.0136963
818.896	0.0138366
818.974	0.0136020
819.052	0.0137199
819.130	0.0137127
819.208	0.0137547
819.287	0.0136730
819.365	0.0136033
819.443	0.0134884
819.521	0.0136363
819.599	0.0135118
819.677	0.0135915
819.755	0.0135876
819.833	0.0135397
819.912	0.0134787
819.990	0.0132273
820.068	0.0133720
820.146	0.0132631
820.224	0.0132610
820.302	0.0134316
820.380	0.0133986
820.458	0.0132856
820.537	0.0132621
820.615	0.0135155
820.693	0.0135755
820.771	0.0134853
820.849	0.0136435
820.927	0.0134148
821.005	0.0135310
821.083	0.0134675
821.162	0.0135890
821.240	0.0136126
821.318	0.0136227
821.396	0.0136394
821.474	0.0135923
821.552	0.0135802
821.630	0.0136603
821.708	0.0135900
821.787	0.0135435
821.865	0.0135352
821.943	0.0135512
822.021	0.0135596
822.099	0.0135935
822.177	0.0135155
822.255	0.0135153
822.333	0.0135160
822.412	0.0135295
822.490	0.0134322
822.568	0.0135211
822.646	0.0135152
822.724	0.0133603
822.802	0.0133681
822.880	0.0132403
822.958	0.0132774
823.037	0.0131797
823.115	0.0131927
823.193	0.0131061
823.271	0.0130458
823.349	0.0132142
823.427	0.0130740
823.505	0.0130477
823.583	0.0130077
823.662	0.0130087
823.740	0.0130547
823.818	0.0131343
823.896	0.0130154
823.974	0.0131002
824.052	0.0132449
824.130	0.0132272
824.208	0.0132430
824.287	0.0133587
824.365	0.0133353
824.443	0.0133744
824.521	0.0133946
824.599	0.0133972
824.677	0.0136190
824.755	0.0136112
824.833	0.0135390
824.912	0.0138660
824.990	0.0139957
825.068	0.0138184
825.146	0.0138428
825.224	0.0137891
825.302	0.0138602
825.380	0.0137372
825.458	0.0137791
825.537	0.0137764
825.615	0.0138063
825.693	0.0137536
825.771	0.0137098
825.849	0.0137025
825.927	0.0137323
826.005	0.0136967
826.083	0.0135064
826.162	0.0136857
826.240	0.0136684
826.318	0.0136355
826.396	0.0136455
826.474	0.0135974
826.552	0.0135500
826.630	0.0135872
826.708	0.0136353
826.787	0.0136898
826.865	0.0136546
826.943	0.0135778
827.021	0.0135447
827.099	0.0136050
827.177	0.0136648
827.255	0.0136037
827.333	0.0135285
827.412	0.0135369
827.490	0.0134865
827.568	0.0136159
827.646	0.0134982
827.724	0.0134862
827.802	0.0134475
827.880	0.0135031
827.958	0.0135067
828.037	0.0133635
828.115	0.0133296
828.193	0.0133508
828.271	0.0134850
828.349	0.0134064
828.427	0.0135313
828.505	0.0135526
828.583	0.0134400
828.662	0.0133607
828.740	0.0132846
828.818	0.0134227
828.896	0.0133643
828.974	0.0132715
829.052	0.0132866
829.130	0.0132693
829.208	0.0132883
829.287	0.0131784
829.365	0.0132037
829.443	0.0133025
829.521	0.0133375
829.599	0.0131889
829.677	0.0133075
829.755	0.0131528
829.833	0.0133015
829.912	0.0133089
829.990	0.0132700
830.068	0.0133038
830.146	0.0132273
830.224	0.0132846
830.302	0.0134210
830.380	0.0132926
830.458	0.0132496
830.537	0.0133273
830.615	0.0133468
830.693	0.0132732
830.771	0.0134535
830.849	0.0134327
830.927	0.0133480
831.005	0.0134392
831.083	0.0133024
831.162	0.0134828
831.240	0.0135132
831.318	0.0135021
831.396	0.0136388
831.474	0.0135552
831.552	0.0134811
831.630	0.0136165
831.708	0.0137864
831.787	0.0138567
831.865	0.0138136
831.943	0.0137321
832.021	0.0137756
832.099	0.0136124
832.177	0.0138137
832.255	0.0138291
832.333	0.0136617
832.412	0.0137298
832.490	0.0137446
832.568	0.0135879
832.646	0.0136120
832.724	0.0136003
832.802	0.0135993
832.880	0.0135185
832.958	0.0135320
833.037	0.0135609
833.115	0.0134447
833.193	0.0136055
833.271	0.0134756
833.349	0.0135390
833.427	0.0134706
833.505	0.0134645
833.583	0.0135075
833.662	0.0134489
833.740	0.0133831
833.818	0.0134870
833.896	0.0135073
833.974	0.0135690
834.052	0.0134312
834.130	0.0134911
834.208	0.0134258
834.287	0.0133169
834.365	0.0132430
834.443	0.0133785
834.521	0.0134927
834.599	0.0133771
834.677	0.0132629
834.755	0.0133490
834.833	0.0134470
834.912	0.0133820
834.990	0.0134393
835.068	0.0134882
835.146	0.0133329
835.224	0.0133187
835.302	0.0134894
835.380	0.0133923
835.458	0.0132705
835.537	0.0132133
835.615	0.0131686
835.693	0.0132813
835.771	0.0132791
835.849	0.0131763
835.927	0.0131092
836.005	0.0131432
836.083	0.0131864
836.162	0.0132114
836.240	0.0132195
836.318	0.0132590
836.396	0.0133311
836.474	0.0132856
836.552	0.0133075
836.630	0.0133584
836.708	0.0133749
836.787	0.0134109
836.865	0.0134573
836.943	0.0135448
837.021	0.0135793
837.099	0.0134982
837.177	0.0136389
837.255	0.0136368
837.333	0.0136305
837.412	0.0134903
837.490	0.0135205
837.568	0.0136225
837.646	0.0136739
837.724	0.0135800
837.802	0.0136175
837.880	0.0137677
837.958	0.0138094
838.037	0.0136878
838.115	0.0137270
838.193	0.0137202
838.271	0.0137020
838.349	0.0137624
838.427	0.0138023
838.505	0.0138127
838.583	0.0136796
838.662	0.0136071
838.740	0.0136804
838.818	0.0136976
838.896	0.0137010
838.974	0.0135545
839.052	0.0137402
839.130	0.0137151
839.208	0.0137048
839.287	0.0136934
839.365	0.0138161
839.443	0.0137218
839.521	0.0137355
839.599	0.0135168
839.677	0.0135762
839.755	0.0135516
839.833	0.0135899
839.912	0.0135136
839.990	0.0134358
840.068	0.0134549
840.146	0.0132643
840.224	0.0133909
840.302	0.0134409
840.380	0.0133454
840.458	0.0132409
840.537	0.0131097
840.615	0.0132176
840.693	0.0132250
840.771	0.0131561
840.849	0.0131554
840.927	0.0133663
841.005	0.0133237
841.083	0.0132571
841.162	0.0133495
841.240	0.0132522
841.318	0.0133500
841.396	0.0132922
841.474	0.0133475
841.552	0.0134148
841.630	0.0132838
841.708	0.0132230
841.787	0.0132495
841.865	0.0132941
841.943	0.0133696
842.021	0.0133453
842.099	0.0133762
842.177	0.0132812
842.255	0.0132860
842.333	0.0133070
842.412	0.0133342
842.490	0.0135052
842.568	0.0133949
842.646	0.0134486
842.724	0.0135665
842.802	0.0134172
842.880	0.0135881
842.958	0.0136113
843.037	0.0136214
843.115	0.0136928
843.193	0.0137301
843.271	0.0135560
843.349	0.0136454
843.427	0.0137373
843.505	0.0137595
843.583	0.0137126
843.662	0.0136179
843.740	0.0136629
843.818	0.0137352
843.896	0.0136350
843.974	0.0134981
844.052	0.0136916
844.130	0.0137366
844.208	0.0137062
844.287	0.0135799
844.365	0.0135508
844.443	0.0136133
844.521	0.0134158
844.599	0.0134071
844.677	0.0135194
844.755	0.0134444
844.833	0.0134936
844.912	0.0133672
844.990	0.0132814
845.068	0.0133791
845.146	0.0133542
845.224	0.0132748
845.302	0.0134790
845.380	0.0133577
845.458	0.0132498
845.537	0.0133791
845.615	0.0132492
845.693	0.0132223
845.771	0.0132561
845.849	0.0133365
845.927	0.0132867
846.005	0.0134464
846.083	0.0133900
846.162	0.0135735
846.240	0.0133660
846.318	0.0133198
846.396	0.0133862
846.474	0.0134907
846.552	0.0132944
846.630	0.0134818
846.708	0.0135283
846.787	0.0134521
846.865	0.0135936
846.943	0.0135253
847.021	0.0135427
847.099	0.0135523
847.177	0.0135703
847.255	0.0137182
847.333	0.0136073
847.412	0.0136776
847.490	0.0134849
847.568	0.0136951
847.646	0.0136209
847.724	0.0135651
847.802	0.0135383
847.880	0.0135352
847.958	0.0135509
848.037	0.0134135
848.115	0.0135835
848.193	0.0133325
848.271	0.0135030
848.349	0.0134290
848.427	0.0133087
848.505	0.0133705
848.583	0.0134503
848.662	0.0134157
848.740	0.0133533
848.818	0.0132502
848.896	0.0134572
848.974	0.0134168
849.052	0.0135199
849.130	0.0133942
849.208	0.0133800
849.287	0.0134663
849.365	0.0134109
849.443	0.0135054
849.521	0.0133551
849.599	0.0134525
849.677	0.0134462
849.755	0.0136091
849.833	0.0135522
849.912	0.0134637
849.990	0.0135612
850.068	0.0136545
850.146	0.0136279
850.224	0.0136877
850.302	0.0136669
850.380	0.0137952
850.458	0.0138016
850.537	0.0138226
850.615	0.0139008
850.693	0.0138551
850.771	0.0138035
850.849	0.0138194
850.927	0.0137482
851.005	0.0137643
851.083	0.0136928
851.162	0.0137218
851.240	0.0136419
851.318	0.0136780
851.396	0.0136256
851.474	0.0137897
851.552	0.0136180
851.630	0.0134534
851.708	0.0134904
851.787	0.0133743
851.865	0.0134354
851.943	0.0134515
852.021	0.0134477
852.099	0.0134853
852.177	0.0135620
852.255	0.0133526
852.333	0.0134961
852.412	0.0134992
852.490	0.0133477
852.568	0.0133658
852.646	0.0134293
852.724	0.0132385
852.802	0.0133678
852.880	0.0132709
852.958	0.0131886
853.037	0.0132330
853.115	0.0132104
853.193	0.0132838
853.271	0.0131601
853.349	0.0132233
853.427	0.0133102
853.505	0.0131960
853.583	0.0131744
853.662	0.0132504
853.740	0.0133043
853.818	0.0133960
853.896	0.0133047
853.974	0.0132948
854.052	0.0135297
854.130	0.0135141
854.208	0.0135134
854.287	0.0136513
854.365	0.0135021
854.443	0.0134908
854.521	0.0135008
854.599	0.0135139
854.677	0.0134953
854.755	0.0136062
854.833	0.0135093
854.912	0.0137704
854.990	0.0136014
855.068	0.0136211
855.146	0.0135337
855.224	0.0136862
855.302	0.0135041
855.380	0.0135473
855.458	0.0136691
855.537	0.0134850
855.615	0.0136291
855.693	0.0135948
855.771	0.0136786
855.849	0.0135058
855.927	0.0135867
856.005	0.0134796
856.083	0.0136562
856.162	0.0137556
856.240	0.0135746
856.318	0.0134781
856.396	0.0134044
856.474	0.0137019
856.552	0.0135578
856.630	0.0134452
856.708	0.0134698
856.787	0.0135103
856.865	0.0134858
856.943	0.0134158
857.021	0.0134411
857.099	0.0134128
857.177	0.0134507
857.255	0.0134144
857.333	0.0135142
857.412	0.0134480
857.490	0.0135452
857.568	0.0137182
857.646	0.0136227
857.724	0.0134600
857.802	0.0135079
857.880	0.0134233
857.958	0.0133469
858.037	0.0134901
858.115	0.0135149
858.193	0.0134908
858.271	0.0134423
858.349	0.0134670
858.427	0.0135701
858.505	0.0134772
858.583	0.0134457
858.662	0.0133604
858.740	0.0135572
858.818	0.0135026
858.896	0.0135645
858.974	0.0135913
859.052	0.0135452
859.130	0.0135224
859.208	0.0135754
859.287	0.0135471
859.365	0.0135889
859.443	0.0134180
859.521	0.0134449
859.599	0.0133944
859.677	0.0133607
859.755	0.0134129
859.833	0.0133460
859.912	0.0133768
859.990	0.0134373
860.068	0.0132927
860.146	0.0133157
860.224	0.0134106
860.302	0.0132413
860.380	0.0132928
860.458	0.0132000
860.537	0.0132704
860.615	0.0134294
860.693	0.0133935
860.771	0.0135014
860.849	0.0134267
860.927	0.0134569
861.005	0.0135854
861.083	0.0134161
861.162	0.0132867
861.240	0.0133053
861.318	0.0136038
861.396	0.0133866
861.474	0.0134199
861.552	0.0134371
861.630	0.0133924
861.708	0.0133781
861.787	0.0134608
861.865	0.0134528
861.943	0.0134510
862.021	0.0134431
862.099	0.0137023
862.177	0.0134119
862.255	0.0135806
862.333	0.0135346
862.412	0.0136379
862.490	0.0137297
862.568	0.0138814
862.646	0.0134303
862.724	0.0137679
862.802	0.0137439
862.880	0.0137774
862.958	0.0137633
863.037	0.0137744
863.115	0.0137878
863.193	0.0136688
863.271	0.0136967
863.349	0.0136213
863.427	0.0136745
863.505	0.0134204
863.583	0.0134030
863.662	0.0133420
863.740	0.0132336
863.818	0.0132176
863.896	0.0131705
863.974	0.0131449
864.052	0.0132826
864.130	0.0131692
864.208	0.0133340
864.287	0.0134178
864.365	0.0133777
864.443	0.0134859
864.521	0.0135669
864.599	0.0135481
864.677	0.0136411
864.755	0.0136369
864.833	0.0135978
864.912	0.0136932
864.990	0.0135110
865.068	0.0135038
865.146	0.0135685
865.224	0.0136533
865.302	0.0135132
865.380	0.0136883
865.458	0.0137234
865.537	0.0136314
865.615	0.0135828
865.693	0.0135640
865.771	0.0134915
865.849	0.0135596
865.927	0.0133112
866.005	0.0133231
866.083	0.0132685
866.162	0.0133179
866.240	0.0130885
866.318	0.0131620
866.396	0.0130145
866.474	0.0131139
866.552	0.0129532
866.630	0.0131551
866.708	0.0131279
866.787	0.0131464
866.865	0.0132347
866.943	0.0131476
867.021	0.0131954
867.099	0.0132986
867.177	0.0133549
867.255	0.0134010
867.333	0.0132569
867.412	0.0135262
867.490	0.0134426
867.568	0.0134189
867.646	0.0136160
867.724	0.0136540
867.802	0.0138200
867.880	0.0138200
867.958	0.0138011
868.037	0.0139177
868.115	0.0138380
868.193	0.0139505
868.271	0.0139214
868.349	0.0139494
868.427	0.0138366
868.505	0.0137475
868.583	0.0138076
868.662	0.0137294
868.740	0.0136919
868.818	0.0137479
868.896	0.0137578
868.974	0.0136752
869.052	0.0137767
869.130	0.0138126
869.208	0.0137099
869.287	0.0135329
869.365	0.0135194
869.443	0.0134196
869.521	0.0134650
869.599	0.0135479
869.677	0.0133963
869.755	0.0134509
869.833	0.0134573
869.912	0.0133604
869.990	0.0131606
870.068	0.0131920
870.146	0.0132659
870.224	0.0131946
870.302	0.0132274
870.380	0.0131979
870.458	0.0132059
870.537	0.0133012
870.615	0.0132063
870.693	0.0133289
870.771	0.0133468
870.849	0.0134763
870.927	0.0133112
871.005	0.0133803
871.083	0.0133984
871.162	0.0134885
871.240	0.0137004
871.318	0.0135688
871.396	0.0135912
871.474	0.0136544
871.552	0.0135992
871.630	0.0135651
871.708	0.0135752
871.787	0.0137114
871.865	0.0137298
871.943	0.0136352
872.021	0.0136671
872.099	0.0136623
872.177	0.0137226
872.255	0.0137297
872.333	0.0137290
872.412	0.0137756
872.490	0.0136292
872.568	0.0136655
872.646	0.0136879
872.724	0.0137408
872.802	0.0137918
872.880	0.0137492
872.958	0.0137920
873.037	0.0136256
873.115	0.0136845
873.193	0.0134563
873.271	0.0135383
873.349	0.0135773
873.427	0.0134946
873.505	0.0131507
873.583	0.0131522
873.662	0.0130515
873.740	0.0129251
873.818	0.0130080
873.896	0.0129865
873.974	0.0129262
874.052	0.0128780
874.130	0.0128464
874.208	0.0129255
874.287	0.0129153
874.365	0.0129504
874.443	0.0130808
874.521	0.0130114
874.599	0.0130422
874.677	0.0131064
874.755	0.0131708
874.833	0.0130157
874.912	0.0132283
874.990	0.0132011
875.068	0.0131977
875.146	0.0133610
875.224	0.0133099
875.302	0.0134354
875.380	0.0136292
875.458	0.0136298
875.537	0.0137415
875.615	0.0137354
875.693	0.0140724
875.771	0.0139441
875.849	0.0140620
875.927	0.0142113
876.005	0.0140811
876.083	0.0142271
876.162	0.0142757
876.240	0.0141914
876.318	0.0143822
876.396	0.0142203
876.474	0.0141866
876.552	0.0140771
876.630	0.0140502
876.708	0.0139558
876.787	0.0139257
876.865	0.0138499
876.943	0.0135717
877.021	0.0134459
877.099	0.0134027
877.177	0.0132301
877.255	0.0132226
877.333	0.0130178
877.412	0.0129736
877.490	0.0128710
877.568	0.0127124
877.646	0.0126913
877.724	0.0127206
877.802	0.0128501
877.880	0.0127976
877.958	0.0128850
878.037	0.0129017
878.115	0.0130407
878.193	0.0132082
878.271	0.0132716
878.349	0.0132220
878.427	0.0134982
878.505	0.0134434
878.583	0.0134722
878.662	0.0134144
878.740	0.0135368
878.818	0.0134223
878.896	0.0133859
878.974	0.0136655
879.052	0.0135886
879.130	0.0134818
879.208	0.0136258
879.287	0.0135069
879.365	0.0136015
879.443	0.0137831
879.521	0.0136759
879.599	0.0135265
879.677	0.0135504
879.755	0.0135094
879.833	0.0134641
879.912	0.0133919
879.990	0.0134654
880.068	0.0134187
880.146	0.0133176
880.224	0.0133894
880.302	0.0133922
880.380	0.0133930
880.458	0.0134603
880.537	0.0133478
880.615	0.0135664
880.693	0.0136281
880.771	0.0136550
880.849	0.0134772
880.927	0.0135577
881.005	0.0136100
881.083	0.0135585
881.162	0.0135588
881.240	0.0136370
881.318	0.0136192
881.396	0.0136658
881.474	0.0136811
881.552	0.0135727
881.630	0.0135396
881.708	0.0136466
881.787	0.0137213
881.865	0.0135435
881.943	0.0136555
882.021	0.0136752
882.099	0.0135871
882.177	0.0133845
882.255	0.0134687
882.333	0.0134225
882.412	0.0134589
882.490	0.0133463
882.568	0.0133682
882.646	0.0133906
882.724	0.0132352
882.802	0.0133070
882.880	0.0132771
882.958	0.0132713
883.037	0.0134826
883.115	0.0135313
883.193	0.0135151
883.271	0.0134810
883.349	0.0135440
883.427	0.0136574
883.505	0.0136367
883.583	0.0136126
883.662	0.0137132
883.740	0.0136758
883.818	0.0136366
883.896	0.0135258
883.974	0.0134018
884.052	0.0134637
884.130	0.0135741
884.208	0.0134422
884.287	0.0133762
884.365	0.0134756
884.443	0.0133298
884.521	0.0132801
884.599	0.0133397
884.677	0.0131434
884.755	0.0132011
884.833	0.0131786
884.912	0.0131971
884.990	0.0130972
885.068	0.0131133
885.146	0.0130550
885.224	0.0130887
885.302	0.0131463
885.380	0.0132021
885.458	0.0131734
885.537	0.0132600
885.615	0.0133721
885.693	0.0134041
885.771	0.0135329
885.849	0.0136684
885.927	0.0136879
886.005	0.0139809
886.083	0.0137738
886.162	0.0137331
886.240	0.0139734
886.318	0.0139539
886.396	0.0139288
886.474	0.0139697
886.552	0.0139744
886.630	0.0137756
886.708	0.0137011
886.787	0.0137273
886.865	0.0137843
886.943	0.0138138
887.021	0.0138318
887.099	0.0136720
887.177	0.0137703
887.255	0.0135973
887.333	0.0134889
887.412	0.0134302
887.490	0.0134343
887.568	0.0131358
887.646	0.0133205
887.724	0.0132266
887.802	0.0131004
887.880	0.0130701
887.958	0.0129891
888.037	0.0131453
888.115	0.0129354
888.193	0.0131084
888.271	0.0130335
888.349	0.0130800
888.427	0.0131013
888.505	0.0130892
888.583	0.0132786
888.662	0.0132117
888.740	0.0133095
888.818	0.0135297
888.896	0.0135148
888.974	0.0135947
889.052	0.0136464
889.130	0.0137623
889.208	0.0136500
889.287	0.0138419
889.365	0.0137909
889.443	0.0138284
889.521	0.0137607
889.599	0.0140120
889.677	0.0139237
889.755	0.0138738
889.833	0.0138767
889.912	0.0136186
889.990	0.0136822
890.068	0.0138734
890.146	0.0137068
890.224	0.0134380
890.302	0.0135420
890.380	0.0133327
890.458	0.0134539
890.537	0.0133590
890.615	0.0133849
890.693	0.0132964
890.771	0.0133541
890.849	0.0132587
890.927	0.0133270
891.005	0.0133967
891.083	0.0132990
891.162	0.0132041
891.240	0.0133022
891.318	0.0133176
891.396	0.0133349
891.474	0.0132990
891.552	0.0134468
891.630	0.0133252
891.708	0.0132674
891.787	0.0133984
891.865	0.0132371
891.943	0.0132812
892.021	0.0135689
892.099	0.0135097
892.177	0.0134469
892.255	0.0134226
892.333	0.0135198
892.412	0.0136872
892.490	0.0135178
892.568	0.0135579
892.646	0.0136886
892.724	0.0136121
892.802	0.0137366
892.880	0.0138016
892.958	0.0137156
893.037	0.0136208
893.115	0.0135233
893.193	0.0134519
893.271	0.0135011
893.349	0.0135902
893.427	0.0135208
893.505	0.0135133
893.583	0.0136221
893.662	0.0134944
893.740	0.0133585
893.818	0.0133837
893.896	0.0134872
893.974	0.0134553
894.052	0.0132887
894.130	0.0134864
894.208	0.0135087
894.287	0.0136032
894.365	0.0135750
894.443	0.0133731
894.521	0.0134741
894.599	0.0134776
894.677	0.0135023
894.755	0.0135487
894.833	0.0135963
894.912	0.0135020
894.990	0.0134819
895.068	0.0135011
895.146	0.0134119
895.224	0.0134934
895.302	0.0134365
895.380	0.0133844
895.458	0.0133383
895.537	0.0133160
895.615	0.0132248
895.693	0.0132545
895.771	0.0132664
895.849	0.0133806
895.927	0.0130576
896.005	0.0131683
896.083	0.0131570
896.162	0.0132888
896.240	0.0131837
896.318	0.0132715
896.396	0.0132624
896.474	0.0132658
896.552	0.0134042
896.630	0.0135017
896.708	0.0134887
896.787	0.0135174
896.865	0.0134484
896.943	0.0136523
897.021	0.0134223
897.099	0.0134888
897.177	0.0135980
897.255	0.0137283
897.333	0.0136833
897.412	0.0137659
897.490	0.0136907
897.568	0.0138559
897.646	0.0137470
897.724	0.0139128
897.802	0.0138381
897.880	0.0137920
897.958	0.0138094
898.037	0.0138811
898.115	0.0137734
898.193	0.0138092
898.271	0.0138783
898.349	0.0137240
898.427	0.0137713
898.505	0.0136485
898.583	0.0136679
898.662	0.0135273
898.740	0.0136665
898.818	0.0133981
898.896	0.0134541
898.974	0.0133505
899.052	0.0131903
899.130	0.0131952
899.208	0.0130593
899.287	0.0131541
899.365	0.0131377
899.443	0.0130559
899.521	0.0130140
899.599	0.0131486
899.677	0.0130045
899.755	0.0131606
899.833	0.0130729
899.912	0.0130712
899.990	0.0132603
900.068	0.0132182
900.146	0.0132342
900.224	0.0131810
900.302	0.0133033
900.380	0.0134759
900.458	0.0134057
900.537	0.0134142
900.615	0.0135164
900.693	0.0135292
900.771	0.0136237
900.849	0.0137370
900.927	0.0136814
901.005	0.0136195
901.083	0.0136609
901.162	0.0136265
901.240	0.0136160
901.318	0.0137305
901.396	0.0136816
901.474	0.0137639
901.552	0.0137752
901.630	0.0137875
901.708	0.0136098
901.787	0.0136941
901.865	0.0135968
901.943	0.0136741
902.021	0.0136309
902.099	0.0135223
902.177	0.0133555
902.255	0.0135613
902.333	0.0134270
902.412	0.0132676
902.490	0.0133732
902.568	0.0133193
902.646	0.0133182
902.724	0.0132936
902.802	0.0132874
902.880	0.0132298
902.958	0.0133133
903.037	0.0134914
903.115	0.0132059
903.193	0.0132417
903.271	0.0134290
903.349	0.0134181
903.427	0.0134816
903.505	0.0135407
903.583	0.0135757
903.662	0.0136083
903.740	0.0136576
903.818	0.0136118
903.896	0.0136811
903.974	0.0137539
904.052	0.0136720
904.130	0.0137114
904.208	0.0136603
904.287	0.0135854
904.365	0.0136422
904.443	0.0135342
904.521	0.0135784
904.599	0.0135312
904.677	0.0134329
904.755	0.0134545
904.833	0.0134752
904.912	0.0133375
904.990	0.0132075
905.068	0.0132765
905.146	0.0132879
905.224	0.0132984
905.302	0.0131733
905.380	0.0131681
905.458	0.0131353
905.537	0.0132710
905.615	0.0133373
905.693	0.0132722
905.771	0.0133098
905.849	0.0133967
905.927	0.0133775
906.005	0.0132188
906.083	0.0133058
906.162	0.0134513
906.240	0.0133061
906.318	0.0132639
906.396	0.0132360
906.474	0.0132261
906.552	0.0132876
906.630	0.0132370
906.708	0.0133131
906.787	0.0134036
906.865	0.0133214
906.943	0.0133321
907.021	0.0135356
907.099	0.0136685
907.177	0.0137005
907.255	0.0137495
907.333	0.0136723
907.412	0.0137908
907.490	0.0138062
907.568	0.0138334
907.646	0.0138846
907.724	0.0139468
907.802	0.0140561
907.880	0.0139340
907.958	0.0138355
908.037	0.0139127
908.115	0.0137641
908.193	0.0137058
908.271	0.0136668
908.349	0.0135157
908.427	0.0135560
908.505	0.0137759
908.583	0.0136866
908.662	0.0136847
908.740	0.0134901
908.818	0.0136495
908.896	0.0137151
908.974	0.0135663
909.052	0.0134276
909.130	0.0134184
909.208	0.0134300
909.287	0.0136080
909.365	0.0134048
909.443	0.0132778
909.521	0.0131521
909.599	0.0131121
909.677	0.0133171
909.755	0.0132277
909.833	0.0130703
909.912	0.0131192
909.990	0.0131625
910.068	0.0133005
910.146	0.0132589
910.224	0.0132310
910.302	0.0133218
910.380	0.0134806
910.458	0.0133628
910.537	0.0132627
910.615	0.0132766
910.693	0.0133817
910.771	0.0134398
910.849	0.0135165
910.927	0.0134603
911.005	0.0134441
911.083	0.0133609
911.162	0.0135448
911.240	0.0135384
911.318	0.0136421
911.396	0.0134935
911.474	0.0134828
911.552	0.0135709
911.630	0.0134989
911.708	0.0135420
911.787	0.0134072
911.865	0.0134902
911.943	0.0135883
912.021	0.0135376
912.099	0.0136045
912.177	0.0134830
912.255	0.0135451
912.333	0.0135355
912.412	0.0134885
912.490	0.0134962
912.568	0.0135007
912.646	0.0134457
912.724	0.0135076
912.802	0.0135342
912.880	0.0135841
912.958	0.0134970
913.037	0.0134802
913.115	0.0135141
913.193	0.0136353
913.271	0.0137230
913.349	0.0136557
913.427	0.0136842
913.505	0.0137328
913.583	0.0136092
913.662	0.0135681
913.740	0.0136060
913.818	0.0137541
913.896	0.0135830
913.974	0.0137157
914.052	0.0136398
914.130	0.0137626
914.208	0.0135264
914.287	0.0135076
914.365	0.0133012
914.443	0.0133897
914.521	0.0134222
914.599	0.0133402
914.677	0.0134216
914.755	0.0134384
914.833	0.0133798
914.912	0.0133688
914.990	0.0133443
915.068	0.0134344
915.146	0.0133741
915.224	0.0132549
915.302	0.0133287
915.380	0.0133514
915.458	0.0133804
915.537	0.0133942
915.615	0.0135203
915.693	0.0133352
915.771	0.0134449
915.849	0.0132805
915.927	0.0133785
916.005	0.0133582
916.083	0.0133990
916.162	0.0133150
916.240	0.0133580
916.318	0.0133404
916.396	0.0133986
916.474	0.0134726
916.552	0.0134718
916.630	0.0134302
916.708	0.0133873
916.787	0.0135343
916.865	0.0133722
916.943	0.0134030
917.021	0.0133363
917.099	0.0132026
917.177	0.0133292
917.255	0.0134013
917.333	0.0131868
917.412	0.0131968
917.490	0.0132858
917.568	0.0132256
917.646	0.0131007
917.724	0.0131811
917.802	0.0130927
917.880	0.0130967
917.958	0.0131885
918.037	0.0131910
918.115	0.0133761
918.193	0.0133373
918.271	0.0132481
918.349	0.0134537
918.427	0.0134854
918.505	0.0134303
918.583	0.0135656
918.662	0.0137455
918.740	0.0136985
918.818	0.0137324
918.896	0.0137022
918.974	0.0137295
919.052	0.0139085
919.130	0.0138921
919.208	0.0139129
919.287	0.0139351
919.365	0.0139585
919.443	0.0138074
919.521	0.0139175
919.599	0.0139171
919.677	0.0139093
919.755	0.0139093
919.833	0.0138271
919.912	0.0136853
919.990	0.0137365
920.068	0.0136946
920.146	0.0136135
920.224	0.0136445
920.302	0.0134747
920.380	0.0134126
920.458	0.0134998
920.537	0.0134297
920.615	0.0132639
920.693	0.0132153
920.771	0.0130270
920.849	0.0131910
920.927	0.0130730
921.005	0.0129667
921.083	0.0131183
921.162	0.0130209
921.240	0.0130750
921.318	0.0130639
921.396	0.0130374
921.474	0.0131336
921.552	0.0132366
921.630	0.0133486
921.708	0.0132182
921.787	0.0132873
921.865	0.0133984
921.943	0.0133581
922.021	0.0134013
922.099	0.0133653
922.177	0.0135966
922.255	0.0133951
922.333	0.0133951
922.412	0.0134679
922.490	0.0135260
922.568	0.0136418
922.646	0.0135541
922.724	0.0135611
922.802	0.0134573
922.880	0.0134041
922.958	0.0134776
923.037	0.0135783
923.115	0.0135203
923.193	0.0135069
923.271	0.0133891
923.349	0.0136841
923.427	0.0136439
923.505	0.0135485
923.583	0.0135578
923.662	0.0134850
923.740	0.0136121
923.818	0.0138067
923.896	0.0136274
923.974	0.0135370
924.052	0.0137395
924.130	0.0136822
924.208	0.0135683
924.287	0.0135262
924.365	0.0134389
924.443	0.0134207
924.521	0.0134454
924.599	0.0135213
924.677	0.0134873
924.755	0.0134229
924.833	0.0135494
924.912	0.0134148
924.990	0.0134967
925.068	0.0135300
925.146	0.0135356
925.224	0.0136079
925.302	0.0134779
925.380	0.0133186
925.458	0.0134901
925.537	0.0135600
925.615	0.0136395
925.693	0.0135308
925.771	0.0134570
925.849	0.0134026
925.927	0.0135886
926.005	0.0135196
926.083	0.0135790
926.162	0.0132953
926.240	0.0135174
926.318	0.0135954
926.396	0.0135678
926.474	0.0134994
926.552	0.0134802
926.630	0.0134599
926.708	0.0135173
926.787	0.0133556
926.865	0.0134035
926.943	0.0135782
927.021	0.0134396
927.099	0.0133525
927.177	0.0134590
927.255	0.0133710
927.333	0.0132773
927.412	0.0133526
927.490	0.0135748
927.568	0.0132253
927.646	0.0134850
927.724	0.0135046
927.802	0.0135215
927.880	0.0133978
927.958	0.0133575
928.037	0.0133537
928.115	0.0133418
928.193	0.0133286
928.271	0.0134147
928.349	0.0133739
928.427	0.0133830
928.505	0.0134515
928.583	0.0132139
928.662	0.0133152
928.740	0.0133211
928.818	0.0135143
928.896	0.0134705
928.974	0.0133755
929.052	0.0134904
929.130	0.0132571
929.208	0.0133775
929.287	0.0134544
929.365	0.0134695
929.443	0.0134859
929.521	0.0135242
929.599	0.0134337
929.677	0.0133430
929.755	0.0133679
929.833	0.0132787
929.912	0.0133384
929.990	0.0133056
930.068	0.0133339
930.146	0.0133561
930.224	0.0133448
930.302	0.0132420
930.380	0.0133521
930.458	0.0133276
930.537	0.0134589
930.615	0.0133224
930.693	0.0135484
930.771	0.0134953
930.849	0.0137052
930.927	0.0137275
931.005	0.0136592
931.083	0.0136694
931.162	0.0136648
931.240	0.0138031
931.318	0.0137514
931.396	0.0137247
931.474	0.0137752
931.552	0.0138376
931.630	0.0136745
931.708	0.0135798
931.787	0.0135625
931.865	0.0134750
931.943	0.0134816
932.021	0.0134595
932.099	0.0133259
932.177	0.0134319
932.255	0.0134268
932.333	0.0134949
932.412	0.0134543
932.490	0.0133755
932.568	0.0133554
932.646	0.0134128
932.724	0.0134672
932.802	0.0133734
932.880	0.0134218
932.958	0.0133532
933.037	0.0132860
933.115	0.0134268
933.193	0.0134796
933.271	0.0134340
933.349	0.0133099
933.427	0.0134013
933.505	0.0133055
933.583	0.0132978
933.662	0.0134100
933.740	0.0134193
933.818	0.0135129
933.896	0.0134071
933.974	0.0133952
934.052	0.0135114
934.130	0.0134496
934.208	0.0134177
934.287	0.0134310
934.365	0.0133589
934.443	0.0132938
934.521	0.0133870
934.599	0.0134798
934.677	0.0134788
934.755	0.0134032
934.833	0.0135073
934.912	0.0135033
934.990	0.0135538
935.068	0.0134659
935.146	0.0136759
935.224	0.0136166
935.302	0.0134880
935.380	0.0133234
935.458	0.0135801
935.537	0.0135482
935.615	0.0134805
935.693	0.0135276
935.771	0.0133780
935.849	0.0133756
935.927	0.0136562
936.005	0.0135849
936.083	0.0134548
936.162	0.0136211
936.240	0.0136058
936.318	0.0134879
936.396	0.0135216
936.474	0.0136051
936.552	0.0137029
936.630	0.0136237
936.708	0.0136201
936.787	0.0137135
936.865	0.0137282
936.943	0.0136524
937.021	0.0135145
937.099	0.0135710
937.177	0.0136156
937.255	0.0135052
937.333	0.0136372
937.412	0.0135008
937.490	0.0134814
937.568	0.0134212
937.646	0.0134096
937.724	0.0134542
937.802	0.0133998
937.880	0.0134605
937.958	0.0134133
938.037	0.0133707
938.115	0.0133482
938.193	0.0132763
938.271	0.0131858
938.349	0.0133332
938.427	0.0134079
938.505	0.0133037
938.583	0.0133908
938.662	0.0134086
938.740	0.0133301
938.818	0.0134093
938.896	0.0134254
938.974	0.0133476
939.052	0.0135075
939.130	0.0135675
939.208	0.0135858
939.287	0.0136519
939.365	0.0136283
939.443	0.0135952
939.521	0.0136745
939.599	0.0136554
939.677	0.0137537
939.755	0.0135008
939.833	0.0136676
939.912	0.0134821
939.990	0.0134499
940.068	0.0136029
940.146	0.0134434
940.224	0.0133985
940.302	0.0133421
940.380	0.0134091
940.458	0.0133887
940.537	0.0133288
940.615	0.0133699
940.693	0.0133206
940.771	0.0133690
940.849	0.0131631
940.927	0.0133315
941.005	0.0133770
941.083	0.0132341
941.162	0.0134931
941.240	0.0134441
941.318	0.0134240
941.396	0.0134752
941.474	0.0134890
941.552	0.0134564
941.630	0.0135267
941.708	0.0136631
941.787	0.0136229
941.865	0.0136374
941.943	0.0136486
942.021	0.0137556
942.099	0.0136355
942.177	0.0137505
942.255	0.0136884
942.333	0.0137168
942.412	0.0136186
942.490	0.0135603
942.568	0.0136725
942.646	0.0136401
942.724	0.0135616
942.802	0.0134528
942.880	0.0135852
942.958	0.0135101
943.037	0.0133892
943.115	0.0134538
943.193	0.0134986
943.271	0.0134959
943.349	0.0135059
943.427	0.0136051
943.505	0.0134972
943.583	0.0134355
943.662	0.0134264
943.740	0.0133640
943.818	0.0135016
943.896	0.0134632
943.974	0.0133923
944.052	0.0136579
944.130	0.0135220
944.208	0.0134671
944.287	0.0135457
944.365	0.0135253
944.443	0.0136519
944.521	0.0135641
944.599	0.0135795
944.677	0.0136701
944.755	0.0136358
944.833	0.0136735
944.912	0.0136417
944.990	0.0136427
945.068	0.0137081
945.146	0.0135182
945.224	0.0136469
945.302	0.0135293
945.380	0.0135235
945.458	0.0134907
945.537	0.0134370
945.615	0.0135080
945.693	0.0133935
945.771	0.0132978
945.849	0.0132458
945.927	0.0132701
946.005	0.0132306
946.083	0.0133313
946.162	0.0134296
946.240	0.0133444
946.318	0.0133448
946.396	0.0134093
946.474	0.0133854
946.552	0.0133950
946.630	0.0134034
946.708	0.0134619
946.787	0.0134224
946.865	0.0133946
946.943	0.0132545
947.021	0.0134606
947.099	0.0133912
947.177	0.0133533
947.255	0.0132839
947.333	0.0133746
947.412	0.0135705
947.490	0.0133863
947.568	0.0135215
947.646	0.0133655
947.724	0.0134191
947.802	0.0137391
947.880	0.0136143
947.958	0.0135448
948.037	0.0136328
948.115	0.0135866
948.193	0.0137260
948.271	0.0136376
948.349	0.0135471
948.427	0.0136150
948.505	0.0137132
948.583	0.0136308
948.662	0.0136967
948.740	0.0136118
948.818	0.0136526
948.896	0.0135007
948.974	0.0135489
949.052	0.0136643
949.130	0.0136334
949.208	0.0135274
949.287	0.0135827
949.365	0.0133374
949.443	0.0134902
949.521	0.0134371
949.599	0.0135024
949.677	0.0135869
949.755	0.0135154
949.833	0.0133626
949.912	0.0134902
949.990	0.0134401
950.068	0.0134763
950.146	0.0133733
950.224	0.0133804
950.302	0.0134843
950.380	0.0135187
950.458	0.0135484
950.537	0.0136140
950.615	0.0134554
950.693	0.0135672
950.771	0.0136223
950.849	0.0136810
950.927	0.0136501
951.005	0.0134811
951.083	0.0134669
951.162	0.0134406
951.240	0.0135428
951.318	0.0135859
951.396	0.0135667
951.474	0.0133876
951.552	0.0135217
951.630	0.0133617
951.708	0.0134107
951.787	0.0132250
951.865	0.0132638
951.943	0.0132813
952.021	0.0131911
952.099	0.0132867
952.177	0.0132780
952.255	0.0131423
952.333	0.0132684
952.412	0.0131400
952.490	0.0131340
952.568	0.0130199
952.646	0.0131739
952.724	0.0131657
952.802	0.0131913
952.880	0.0133308
952.958	0.0131966
953.037	0.0132278
953.115	0.0132497
953.193	0.0131352
953.271	0.0133413
953.349	0.0134826
953.427	0.0134425
953.505	0.0135588
953.583	0.0134402
953.662	0.0135629
953.740	0.0136160
953.818	0.0135719
953.896	0.0135967
953.974	0.0134999
954.052	0.0135920
954.130	0.0137550
954.208	0.0136622
954.287	0.0136220
954.365	0.0136771
954.443	0.0136373
954.521	0.0135466
954.599	0.0135606
954.677	0.0135302
954.755	0.0135783
954.833	0.0135664
954.912	0.0135825
954.990	0.0136366
955.068	0.0137749
955.146	0.0134602
955.224	0.0135158
955.302	0.0135135
955.380	0.0135573
955.458	0.0134955
955.537	0.0135413
955.615	0.0135519
955.693	0.0133984
955.771	0.0133043
955.849	0.0133723
955.927	0.0134351
956.005	0.0133383
956.083	0.0133122
956.162	0.0132632
956.240	0.0132664
956.318	0.0133609
956.396	0.0133337
956.474	0.0134029
956.552	0.0132509
956.630	0.0134699
956.708	0.0135603
956.787	0.0133772
956.865	0.0134679
956.943	0.0133786
957.021	0.0132883
957.099	0.0135412
957.177	0.0134258
957.255	0.0133555
957.333	0.0133649
957.412	0.0133399
957.490	0.0133021
957.568	0.0133157
957.646	0.0133684
957.724	0.0133674
957.802	0.0132728
957.880	0.0133578
957.958	0.0132862
958.037	0.0132899
958.115	0.0133616
958.193	0.0133889
958.271	0.0134131
958.349	0.0133930
958.427	0.0134969
958.505	0.0135693
958.583	0.0135492
958.662	0.0134558
958.740	0.0134208
958.818	0.0135830
958.896	0.0136008
958.974	0.0136172
959.052	0.0135669
959.130	0.0135894
959.208	0.0135146
959.287	0.0135811
959.365	0.0136167
959.443	0.0134480
959.521	0.0135983
959.599	0.0136735
959.677	0.0135285
959.755	0.0136312
959.833	0.0136100
959.912	0.0134358
959.990	0.0134780
960.068	0.0135236
960.146	0.0134608
960.224	0.0136322
960.302	0.0134731
960.380	0.0134896
960.458	0.0134816
960.537	0.0133910
960.615	0.0133787
960.693	0.0133342
960.771	0.0134328
960.849	0.0134551
960.927	0.0134406
961.005	0.0134541
961.083	0.0135131
961.162	0.0134257
961.240	0.0134909
961.318	0.0135764
961.396	0.0135436
961.474	0.0134742
961.552	0.0134518
961.630	0.0135687
961.708	0.0135710
961.787	0.0137152
961.865	0.0136849
961.943	0.0137118
962.021	0.0136510
962.099	0.0135158
962.177	0.0135909
962.255	0.0136668
962.333	0.0135850
962.412	0.0134445
962.490	0.0135931
962.568	0.0135467
962.646	0.0134742
962.724	0.0134479
962.802	0.0134689
962.880	0.0134348
962.958	0.0135453
963.037	0.0134045
963.115	0.0135263
963.193	0.0135486
963.271	0.0135095
963.349	0.0135161
963.427	0.0135121
963.505	0.0134769
963.583	0.0134406
963.662	0.0133616
963.740	0.0132639
963.818	0.0134556
963.896	0.0133510
963.974	0.0133566
964.052	0.0133528
964.130	0.0133920
964.208	0.0133148
964.287	0.0133107
964.365	0.0133034
964.443	0.0133774
964.521	0.0135020
964.599	0.0134631
964.677	0.0135876
964.755	0.0135840
964.833	0.0135041
964.912	0.0136702
964.990	0.0135851
965.068	0.0137135
965.146	0.0136887
965.224	0.0137484
965.302	0.0137241
965.380	0.0137634
965.458	0.0137344
965.537	0.0136058
965.615	0.0136651
965.693	0.0135923
965.771	0.0136716
965.849	0.0136628
965.927	0.0135345
966.005	0.0134524
966.083	0.0134268
966.162	0.0135693
966.240	0.0134467
966.318	0.0134476
966.396	0.0135358
966.474	0.0135113
966.552	0.0134385
966.630	0.0134544
966.708	0.0134611
966.787	0.0132793
966.865	0.0132346
966.943	0.0134536
967.021	0.0133778
967.099	0.0132697
967.177	0.0131655
967.255	0.0131490
967.333	0.0130478
967.412	0.0130966
967.490	0.0131185
967.568	0.0131419
967.646	0.0131673
967.724	0.0131320
967.802	0.0132672
967.880	0.0132752
967.958	0.0133266
968.037	0.0134794
968.115	0.0133628
968.193	0.0134650
968.271	0.0136460
968.349	0.0136499
968.427	0.0137534
968.505	0.0137676
968.583	0.0137425
968.662	0.0137717
968.740	0.0138931
968.818	0.0139378
968.896	0.0139497
968.974	0.0140701
969.052	0.0139034
969.130	0.0140675
969.208	0.0141062
969.287	0.0139500
969.365	0.0139521
969.443	0.0140865
969.521	0.0140187
969.599	0.0139492
969.677	0.0138601
969.755	0.0138985
969.833	0.0137740
969.912	0.0136892
