05/08/2022	19:52:45	Ver.	4.1	UNKNOWN
Optical Delay	649.989667	Delta X		0.078125	Sweeps	1	Scan Rate	0/0
Coordinates	Axis 1	NaN	Axis 2	NaN	Axis 3	NaN	Axis 4	NaN	Axis 5	NaN	Axis 6	0.000000
TX Power	0.000000	RX Power	0.000000

649.990	0.0138122
650.068	0.0139031
650.146	0.0137502
650.224	0.0138340
650.302	0.0137583
650.380	0.0137889
650.458	0.0138358
650.537	0.0137114
650.615	0.0137736
650.693	0.0137550
650.771	0.0138557
650.849	0.0138482
650.927	0.0136924
651.005	0.0136662
651.083	0.0136425
651.162	0.0137193
651.240	0.0138068
651.318	0.0137686
651.396	0.0138119
651.474	0.0136891
651.552	0.0137277
651.630	0.0137406
651.708	0.0138698
651.787	0.0136458
651.865	0.0138808
651.943	0.0138724
652.021	0.0136394
652.099	0.0138577
652.177	0.0137949
652.255	0.0137253
652.333	0.0137955
652.412	0.0137648
652.490	0.0137931
652.568	0.0138496
652.646	0.0138148
652.724	0.0137961
652.802	0.0137976
652.880	0.0138186
652.958	0.0137522
653.037	0.0139421
653.115	0.0138826
653.193	0.0138413
653.271	0.0137828
653.349	0.0138348
653.427	0.0138473
653.505	0.0138683
653.583	0.0137602
653.662	0.0136136
653.740	0.0138853
653.818	0.0137697
653.896	0.0137389
653.974	0.0137571
654.052	0.0137981
654.130	0.0138323
654.208	0.0139151
654.287	0.0139372
654.365	0.0137751
654.443	0.0137943
654.521	0.0138076
654.599	0.0139397
654.677	0.0139111
654.755	0.0137617
654.833	0.0136887
654.912	0.0136306
654.990	0.0139915
655.068	0.0139596
655.146	0.0138367
655.224	0.0138097
655.302	0.0137572
655.380	0.0139288
655.458	0.0137953
655.537	0.0139468
655.615	0.0137000
655.693	0.0137244
655.771	0.0137276
655.849	0.0138321
655.927	0.0137272
656.005	0.0138303
656.083	0.0138252
656.162	0.0138222
656.240	0.0137151
656.318	0.0137859
656.396	0.0138834
656.474	0.0137735
656.552	0.0138081
656.630	0.0138271
656.708	0.0137583
656.787	0.0137056
656.865	0.0137884
656.943	0.0137855
657.021	0.0137225
657.099	0.0137127
657.177	0.0137748
657.255	0.0137599
657.333	0.0137820
657.412	0.0138634
657.490	0.0137868
657.568	0.0137827
657.646	0.0136476
657.724	0.0137835
657.802	0.0138161
657.880	0.0137212
657.958	0.0138673
658.037	0.0138533
658.115	0.0138049
658.193	0.0138464
658.271	0.0138267
658.349	0.0138865
658.427	0.0138211
658.505	0.0137599
658.583	0.0137643
658.662	0.0137257
658.740	0.0138448
658.818	0.0136854
658.896	0.0138282
658.974	0.0138768
659.052	0.0137754
659.130	0.0138495
659.208	0.0138335
659.287	0.0137332
659.365	0.0136851
659.443	0.0137885
659.521	0.0138361
659.599	0.0137177
659.677	0.0137859
659.755	0.0137843
659.833	0.0136560
659.912	0.0138030
659.990	0.0138087
660.068	0.0138048
660.146	0.0137891
660.224	0.0138844
660.302	0.0138482
660.380	0.0139247
660.458	0.0138074
660.537	0.0138976
660.615	0.0139442
660.693	0.0138657
660.771	0.0138008
660.849	0.0137903
660.927	0.0137845
661.005	0.0136643
661.083	0.0135938
661.162	0.0136668
661.240	0.0135741
661.318	0.0136411
661.396	0.0136601
661.474	0.0137009
661.552	0.0136360
661.630	0.0138058
661.708	0.0138564
661.787	0.0138940
661.865	0.0140182
661.943	0.0141669
662.021	0.0141788
662.099	0.0142159
662.177	0.0143466
662.255	0.0142354
662.333	0.0142728
662.412	0.0140422
662.490	0.0139759
662.568	0.0139259
662.646	0.0138088
662.724	0.0136477
662.802	0.0134908
662.880	0.0132367
662.958	0.0132590
663.037	0.0132462
663.115	0.0130701
663.193	0.0131583
663.271	0.0131100
663.349	0.0131675
663.427	0.0133981
663.505	0.0134247
663.583	0.0137110
663.662	0.0139240
663.740	0.0141692
663.818	0.0143057
663.896	0.0145159
663.974	0.0146424
664.052	0.0147269
664.130	0.0145959
664.208	0.0146371
664.287	0.0145985
664.365	0.0142914
664.443	0.0143607
664.521	0.0142947
664.599	0.0141416
664.677	0.0141257
664.755	0.0139133
664.833	0.0139278
664.912	0.0138842
664.990	0.0138336
665.068	0.0139658
665.146	0.0137914
665.224	0.0136346
665.302	0.0135372
665.380	0.0136183
665.458	0.0135139
665.537	0.0132780
665.615	0.0130901
665.693	0.0128761
665.771	0.0127666
665.849	0.0126977
665.927	0.0126759
666.005	0.0126205
666.083	0.0128144
666.162	0.0130308
666.240	0.0133010
666.318	0.0134946
666.396	0.0139500
666.474	0.0141771
666.552	0.0145226
666.630	0.0150353
666.708	0.0151128
666.787	0.0151694
666.865	0.0152977
666.943	0.0154279
667.021	0.0152758
667.099	0.0152436
667.177	0.0149459
667.255	0.0146759
667.333	0.0146364
667.412	0.0142405
667.490	0.0138506
667.568	0.0138931
667.646	0.0136769
667.724	0.0134812
667.802	0.0134681
667.880	0.0133805
667.958	0.0134059
668.037	0.0134737
668.115	0.0134885
668.193	0.0134675
668.271	0.0132968
668.349	0.0130383
668.427	0.0128522
668.505	0.0128355
668.583	0.0126897
668.662	0.0126125
668.740	0.0123836
668.818	0.0124921
668.896	0.0124260
668.974	0.0126660
669.052	0.0127152
669.130	0.0129041
669.208	0.0132988
669.287	0.0134953
669.365	0.0139697
669.443	0.0142236
669.521	0.0145801
669.599	0.0148279
669.677	0.0149911
669.755	0.0150991
669.833	0.0152708
669.912	0.0154339
669.990	0.0154144
670.068	0.0152956
670.146	0.0151652
670.224	0.0151778
670.302	0.0150056
670.380	0.0146040
670.458	0.0143880
670.537	0.0140295
670.615	0.0136672
670.693	0.0134956
670.771	0.0130726
670.849	0.0128200
670.927	0.0125667
671.005	0.0124354
671.083	0.0124101
671.162	0.0123344
671.240	0.0124906
671.318	0.0127081
671.396	0.0128777
671.474	0.0131230
671.552	0.0135780
671.630	0.0139655
671.708	0.0143948
671.787	0.0147115
671.865	0.0150755
671.943	0.0151247
672.021	0.0152258
672.099	0.0153455
672.177	0.0152330
672.255	0.0152480
672.333	0.0148926
672.412	0.0146259
672.490	0.0144054
672.568	0.0140593
672.646	0.0138593
672.724	0.0135858
672.802	0.0131992
672.880	0.0128172
672.958	0.0125496
673.037	0.0123515
673.115	0.0119980
673.193	0.0117088
673.271	0.0114317
673.349	0.0115145
673.427	0.0114411
673.505	0.0113123
673.583	0.0115059
673.662	0.0115359
673.740	0.0118679
673.818	0.0123000
673.896	0.0126617
673.974	0.0128773
674.052	0.0132830
674.130	0.0138166
674.208	0.0141071
674.287	0.0146932
674.365	0.0150680
674.443	0.0154333
674.521	0.0158858
674.599	0.0161565
674.677	0.0164265
674.755	0.0168317
674.833	0.0171690
674.912	0.0173402
674.990	0.0174809
675.068	0.0175893
675.146	0.0176984
675.224	0.0174870
675.302	0.0173358
675.380	0.0171231
675.458	0.0165524
675.537	0.0159667
675.615	0.0151461
675.693	0.0144746
675.771	0.0138409
675.849	0.0128625
675.927	0.0120735
676.005	0.0112419
676.083	0.0104463
676.162	0.00994255
676.240	0.00968124
676.318	0.00943787
676.396	0.00927048
676.474	0.00950958
676.552	0.00976944
676.630	0.00999588
676.708	0.0102473
676.787	0.0106438
676.865	0.0112362
676.943	0.0115853
677.021	0.0117771
677.099	0.0123906
677.177	0.0125485
677.255	0.0128464
677.333	0.0130058
677.412	0.0132551
677.490	0.0133653
677.568	0.0137883
677.646	0.0142324
677.724	0.0146532
677.802	0.0152807
677.880	0.0156087
677.958	0.0162286
678.037	0.0165045
678.115	0.0170353
678.193	0.0172743
678.271	0.0173853
678.349	0.0174746
678.427	0.0173911
678.505	0.0171809
678.583	0.0168185
678.662	0.0164805
678.740	0.0159734
678.818	0.0155668
678.896	0.0152995
678.974	0.0148014
679.052	0.0146193
679.130	0.0144282
679.208	0.0141421
679.287	0.0138828
679.365	0.0140078
679.443	0.0139349
679.521	0.0139742
679.599	0.0139254
679.677	0.0138764
679.755	0.0139500
679.833	0.0137088
679.912	0.0138234
679.990	0.0137167
680.068	0.0136829
680.146	0.0133351
680.224	0.0132260
680.302	0.0129417
680.380	0.0126269
680.458	0.0124271
680.537	0.0120126
680.615	0.0117100
680.693	0.0114172
680.771	0.0111020
680.849	0.0106995
680.927	0.0104440
681.005	0.0104312
681.083	0.0101473
681.162	0.0102167
681.240	0.0101507
681.318	0.0102612
681.396	0.0104610
681.474	0.0107024
681.552	0.0109152
681.630	0.0115715
681.708	0.0120630
681.787	0.0125237
681.865	0.0132035
681.943	0.0138415
682.021	0.0147779
682.099	0.0152467
682.177	0.0158711
682.255	0.0166697
682.333	0.0170430
682.412	0.0174463
682.490	0.0175956
682.568	0.0177074
682.646	0.0177555
682.724	0.0175149
682.802	0.0173142
682.880	0.0170026
682.958	0.0167754
683.037	0.0165418
683.115	0.0162399
683.193	0.0157935
683.271	0.0156976
683.349	0.0156071
683.427	0.0155837
683.505	0.0154487
683.583	0.0154147
683.662	0.0153602
683.740	0.0153186
683.818	0.0153359
683.896	0.0151726
683.974	0.0149457
684.052	0.0147909
684.130	0.0143543
684.208	0.0139591
684.287	0.0135736
684.365	0.0132052
684.443	0.0127554
684.521	0.0123331
684.599	0.0119941
684.677	0.0115989
684.755	0.0115530
684.833	0.0112006
684.912	0.0111242
684.990	0.0111409
685.068	0.0110590
685.146	0.0109788
685.224	0.0109006
685.302	0.0106367
685.380	0.0105200
685.458	0.0104730
685.537	0.0100497
685.615	0.00979553
685.693	0.00964569
685.771	0.00958893
685.849	0.00954254
685.927	0.00989288
686.005	0.0101621
686.083	0.0106144
686.162	0.0112349
686.240	0.0118257
686.318	0.0126270
686.396	0.0135902
686.474	0.0142037
686.552	0.0148890
686.630	0.0154695
686.708	0.0161755
686.787	0.0167549
686.865	0.0170537
686.943	0.0174683
687.021	0.0178223
687.099	0.0181977
687.177	0.0184576
687.255	0.0185491
687.333	0.0187886
687.412	0.0189266
687.490	0.0191158
687.568	0.0189809
687.646	0.0188503
687.724	0.0186773
687.802	0.0183762
687.880	0.0179774
687.958	0.0172655
688.037	0.0166846
688.115	0.0161404
688.193	0.0151096
688.271	0.0143745
688.349	0.0137043
688.427	0.0128819
688.505	0.0123549
688.583	0.0119037
688.662	0.0112625
688.740	0.0110131
688.818	0.0107151
688.896	0.0104434
688.974	0.0103271
689.052	0.0103732
689.130	0.0104749
689.208	0.0106078
689.287	0.0106178
689.365	0.0110676
689.443	0.0110986
689.521	0.0114241
689.599	0.0117112
689.677	0.0118836
689.755	0.0122884
689.833	0.0124228
689.912	0.0125472
689.990	0.0126868
690.068	0.0129758
690.146	0.0129803
690.224	0.0129652
690.302	0.0130351
690.380	0.0129861
690.458	0.0129800
690.537	0.0131136
690.615	0.0131719
690.693	0.0132724
690.771	0.0133966
690.849	0.0134695
690.927	0.0135264
691.005	0.0135499
691.083	0.0136737
691.162	0.0137669
691.240	0.0137976
691.318	0.0138330
691.396	0.0139397
691.474	0.0139005
691.552	0.0140038
691.630	0.0139434
691.708	0.0140115
691.787	0.0144071
691.865	0.0145284
691.943	0.0147746
692.021	0.0151271
692.099	0.0155285
692.177	0.0157793
692.255	0.0162435
692.333	0.0163782
692.412	0.0165914
692.490	0.0168858
692.568	0.0169733
692.646	0.0168951
692.724	0.0169550
692.802	0.0167924
692.880	0.0165651
692.958	0.0163078
693.037	0.0161287
693.115	0.0158725
693.193	0.0154977
693.271	0.0154218
693.349	0.0150132
693.427	0.0147011
693.505	0.0146278
693.583	0.0144349
693.662	0.0140926
693.740	0.0137907
693.818	0.0137126
693.896	0.0134935
693.974	0.0130684
694.052	0.0125218
694.130	0.0123138
694.208	0.0118176
694.287	0.0114141
694.365	0.0109479
694.443	0.0104375
694.521	0.0102100
694.599	0.00993401
694.677	0.00972939
694.755	0.00940384
694.833	0.00936539
694.912	0.00974205
694.990	0.00981461
695.068	0.0101720
695.146	0.0107035
695.224	0.0113303
695.302	0.0119893
695.380	0.0125893
695.458	0.0132468
695.537	0.0140059
695.615	0.0148045
695.693	0.0153445
695.771	0.0158285
695.849	0.0162912
695.927	0.0165031
696.005	0.0166748
696.083	0.0168578
696.162	0.0167892
696.240	0.0166290
696.318	0.0165306
696.396	0.0162592
696.474	0.0158395
696.552	0.0153274
696.630	0.0151002
696.708	0.0146809
696.787	0.0142997
696.865	0.0138422
696.943	0.0134715
697.021	0.0133287
697.099	0.0128684
697.177	0.0126589
697.255	0.0127183
697.333	0.0126043
697.412	0.0125423
697.490	0.0127859
697.568	0.0129419
697.646	0.0132699
697.724	0.0135622
697.802	0.0139828
697.880	0.0144577
697.958	0.0149162
698.037	0.0151720
698.115	0.0155524
698.193	0.0157471
698.271	0.0159661
698.349	0.0160978
698.427	0.0160681
698.505	0.0161076
698.583	0.0160431
698.662	0.0156872
698.740	0.0156455
698.818	0.0154603
698.896	0.0152432
698.974	0.0149432
699.052	0.0146008
699.130	0.0142601
699.208	0.0139178
699.287	0.0138230
699.365	0.0135501
699.443	0.0131976
699.521	0.0128012
699.599	0.0125146
699.677	0.0121013
699.755	0.0115924
699.833	0.0113983
699.912	0.0112808
699.990	0.0109135
700.068	0.0106189
700.146	0.0106477
700.224	0.0106263
700.302	0.0108366
700.380	0.0108500
700.458	0.0110371
700.537	0.0113583
700.615	0.0118478
700.693	0.0123406
700.771	0.0127043
700.849	0.0134187
700.927	0.0138905
701.005	0.0143781
701.083	0.0148663
701.162	0.0151530
701.240	0.0155240
701.318	0.0157004
701.396	0.0158566
701.474	0.0159827
701.552	0.0160225
701.630	0.0157841
701.708	0.0158149
701.787	0.0155173
701.865	0.0153261
701.943	0.0151447
702.021	0.0148691
702.099	0.0145373
702.177	0.0141985
702.255	0.0139516
702.333	0.0137090
702.412	0.0134515
702.490	0.0132593
702.568	0.0130315
702.646	0.0128033
702.724	0.0126496
702.802	0.0125880
702.880	0.0126892
702.958	0.0127554
703.037	0.0128038
703.115	0.0128761
703.193	0.0129757
703.271	0.0130104
703.349	0.0133907
703.427	0.0135958
703.505	0.0137508
703.583	0.0138770
703.662	0.0140709
703.740	0.0141900
703.818	0.0143623
703.896	0.0145882
703.974	0.0148506
704.052	0.0148669
704.130	0.0151768
704.208	0.0150610
704.287	0.0150623
704.365	0.0149541
704.443	0.0149831
704.521	0.0150551
704.599	0.0149767
704.677	0.0149477
704.755	0.0148705
704.833	0.0147050
704.912	0.0146545
704.990	0.0145910
705.068	0.0142398
705.146	0.0141541
705.224	0.0141133
705.302	0.0139946
705.380	0.0137318
705.458	0.0135824
705.537	0.0133931
705.615	0.0132768
705.693	0.0130487
705.771	0.0127850
705.849	0.0126712
705.927	0.0125616
706.005	0.0123502
706.083	0.0122283
706.162	0.0120985
706.240	0.0121017
706.318	0.0121477
706.396	0.0122912
706.474	0.0123356
706.552	0.0125298
706.630	0.0126761
706.708	0.0129211
706.787	0.0130666
706.865	0.0132035
706.943	0.0133659
707.021	0.0135307
707.099	0.0136910
707.177	0.0139018
707.255	0.0138654
707.333	0.0141986
707.412	0.0144496
707.490	0.0146333
707.568	0.0148647
707.646	0.0148052
707.724	0.0150511
707.802	0.0149762
707.880	0.0148866
707.958	0.0147637
708.037	0.0146667
708.115	0.0144668
708.193	0.0140977
708.271	0.0138746
708.349	0.0137505
708.427	0.0133092
708.505	0.0132481
708.583	0.0130252
708.662	0.0128630
708.740	0.0128290
708.818	0.0126000
708.896	0.0127481
708.974	0.0128136
709.052	0.0129907
709.130	0.0131915
709.208	0.0132175
709.287	0.0133788
709.365	0.0136789
709.443	0.0139526
709.521	0.0138922
709.599	0.0139867
709.677	0.0142253
709.755	0.0141434
709.833	0.0141817
709.912	0.0143115
709.990	0.0142487
710.068	0.0143216
710.146	0.0145202
710.224	0.0147624
710.302	0.0148359
710.380	0.0150132
710.458	0.0152766
710.537	0.0155608
710.615	0.0156904
710.693	0.0157455
710.771	0.0158015
710.849	0.0158552
710.927	0.0156215
711.005	0.0155595
711.083	0.0155061
711.162	0.0151955
711.240	0.0149689
711.318	0.0147469
711.396	0.0145925
711.474	0.0144145
711.552	0.0141721
711.630	0.0139077
711.708	0.0136050
711.787	0.0134566
711.865	0.0131609
711.943	0.0128316
712.021	0.0126147
712.099	0.0124402
712.177	0.0120860
712.255	0.0118506
712.333	0.0116298
712.412	0.0114348
712.490	0.0113332
712.568	0.0112975
712.646	0.0112997
712.724	0.0111919
712.802	0.0112879
712.880	0.0113757
712.958	0.0115601
713.037	0.0116103
713.115	0.0116705
713.193	0.0121417
713.271	0.0123396
713.349	0.0125422
713.427	0.0127636
713.505	0.0132042
713.583	0.0133917
713.662	0.0138132
713.740	0.0141451
713.818	0.0143089
713.896	0.0147538
713.974	0.0150123
714.052	0.0151102
714.130	0.0153062
714.208	0.0153888
714.287	0.0156139
714.365	0.0155453
714.443	0.0155085
714.521	0.0154503
714.599	0.0152845
714.677	0.0153524
714.755	0.0151762
714.833	0.0150263
714.912	0.0147860
714.990	0.0146264
715.068	0.0146751
715.146	0.0143803
715.224	0.0141977
715.302	0.0141224
715.380	0.0140439
715.458	0.0138207
715.537	0.0137461
715.615	0.0136318
715.693	0.0134915
715.771	0.0134028
715.849	0.0133895
715.927	0.0135255
716.005	0.0135028
716.083	0.0136242
716.162	0.0137139
716.240	0.0139452
716.318	0.0142419
716.396	0.0145642
716.474	0.0149941
716.552	0.0152424
716.630	0.0152513
716.708	0.0153851
716.787	0.0155333
716.865	0.0155456
716.943	0.0154105
717.021	0.0153353
717.099	0.0151112
717.177	0.0150500
717.255	0.0145699
717.333	0.0142766
717.412	0.0139949
717.490	0.0136327
717.568	0.0134197
717.646	0.0132742
717.724	0.0128244
717.802	0.0124933
717.880	0.0123846
717.958	0.0122639
718.037	0.0120386
718.115	0.0116812
718.193	0.0115512
718.271	0.0115400
718.349	0.0113190
718.427	0.0113742
718.505	0.0113298
718.583	0.0114021
718.662	0.0114787
718.740	0.0117082
718.818	0.0119223
718.896	0.0119519
718.974	0.0121534
719.052	0.0125364
719.130	0.0128468
719.208	0.0131241
719.287	0.0132728
719.365	0.0135007
719.443	0.0138432
719.521	0.0140780
719.599	0.0142763
719.677	0.0146609
719.755	0.0146493
719.833	0.0150598
719.912	0.0152357
719.990	0.0153786
720.068	0.0153903
720.146	0.0155354
720.224	0.0156522
720.302	0.0157280
720.380	0.0158951
720.458	0.0158537
720.537	0.0158657
720.615	0.0158185
720.693	0.0156191
720.771	0.0155008
720.849	0.0153381
720.927	0.0151488
721.005	0.0149850
721.083	0.0148698
721.162	0.0147034
721.240	0.0143968
721.318	0.0142891
721.396	0.0140784
721.474	0.0137911
721.552	0.0134705
721.630	0.0132138
721.708	0.0130671
721.787	0.0130040
721.865	0.0126791
721.943	0.0125452
722.021	0.0125099
722.099	0.0125764
722.177	0.0126955
722.255	0.0126341
722.333	0.0128564
722.412	0.0130799
722.490	0.0132741
722.568	0.0134576
722.646	0.0136845
722.724	0.0139423
722.802	0.0143570
722.880	0.0144946
722.958	0.0145513
723.037	0.0146838
723.115	0.0150012
723.193	0.0150164
723.271	0.0149836
723.349	0.0148415
723.427	0.0147981
723.505	0.0145948
723.583	0.0143161
723.662	0.0141631
723.740	0.0140292
723.818	0.0138194
723.896	0.0134487
723.974	0.0133563
724.052	0.0132411
724.130	0.0130156
724.208	0.0128661
724.287	0.0127494
724.365	0.0127372
724.443	0.0126399
724.521	0.0126965
724.599	0.0126492
724.677	0.0125864
724.755	0.0128004
724.833	0.0127268
724.912	0.0128873
724.990	0.0128774
725.068	0.0129996
725.146	0.0130386
725.224	0.0131693
725.302	0.0131241
725.380	0.0131559
725.458	0.0131879
725.537	0.0131506
725.615	0.0130226
725.693	0.0131243
725.771	0.0132742
725.849	0.0133296
725.927	0.0135123
726.005	0.0138113
726.083	0.0138131
726.162	0.0140722
726.240	0.0141652
726.318	0.0143092
726.396	0.0144984
726.474	0.0146525
726.552	0.0148093
726.630	0.0148182
726.708	0.0147976
726.787	0.0148870
726.865	0.0148730
726.943	0.0148465
727.021	0.0148187
727.099	0.0147897
727.177	0.0146535
727.255	0.0146320
727.333	0.0146096
727.412	0.0145197
727.490	0.0145621
727.568	0.0145018
727.646	0.0145310
727.724	0.0145267
727.802	0.0144242
727.880	0.0144120
727.958	0.0142271
728.037	0.0141725
728.115	0.0140696
728.193	0.0140926
728.271	0.0138065
728.349	0.0137471
728.427	0.0135759
728.505	0.0134766
728.583	0.0134681
728.662	0.0131429
728.740	0.0129635
728.818	0.0128344
728.896	0.0126794
728.974	0.0126974
729.052	0.0126649
729.130	0.0126692
729.208	0.0127876
729.287	0.0128768
729.365	0.0131969
729.443	0.0132771
729.521	0.0138744
729.599	0.0139459
729.677	0.0143617
729.755	0.0144939
729.833	0.0148513
729.912	0.0146426
729.990	0.0148589
730.068	0.0148663
730.146	0.0147466
730.224	0.0146445
730.302	0.0144302
730.380	0.0141476
730.458	0.0140246
730.537	0.0136716
730.615	0.0134402
730.693	0.0133969
730.771	0.0130585
730.849	0.0131504
730.927	0.0131228
731.005	0.0129766
731.083	0.0129520
731.162	0.0129653
731.240	0.0130919
731.318	0.0131054
731.396	0.0130837
731.474	0.0131408
731.552	0.0130994
731.630	0.0130677
731.708	0.0131034
731.787	0.0131551
731.865	0.0131585
731.943	0.0134947
732.021	0.0135371
732.099	0.0135294
732.177	0.0135044
732.255	0.0138988
732.333	0.0140485
732.412	0.0141735
732.490	0.0143172
732.568	0.0143885
732.646	0.0145251
732.724	0.0146149
732.802	0.0146637
732.880	0.0147252
732.958	0.0147460
733.037	0.0147458
733.115	0.0146516
733.193	0.0145026
733.271	0.0145699
733.349	0.0143305
733.427	0.0141877
733.505	0.0142827
733.583	0.0143661
733.662	0.0143622
733.740	0.0143817
733.818	0.0144087
733.896	0.0144633
733.974	0.0144926
734.052	0.0145150
734.130	0.0143050
734.208	0.0143710
734.287	0.0143623
734.365	0.0141303
734.443	0.0140205
734.521	0.0137129
734.599	0.0133334
734.677	0.0133485
734.755	0.0132132
734.833	0.0129058
734.912	0.0125225
734.990	0.0125497
735.068	0.0123515
735.146	0.0124524
735.224	0.0124205
735.302	0.0124010
735.380	0.0125610
735.458	0.0126620
735.537	0.0128584
735.615	0.0131809
735.693	0.0135506
735.771	0.0138240
735.849	0.0141019
735.927	0.0146038
736.005	0.0147492
736.083	0.0151443
736.162	0.0150489
736.240	0.0153807
736.318	0.0155366
736.396	0.0154890
736.474	0.0153206
736.552	0.0152482
736.630	0.0150020
736.708	0.0147343
736.787	0.0145095
736.865	0.0144280
736.943	0.0140971
737.021	0.0137819
737.099	0.0136732
737.177	0.0134692
737.255	0.0131642
737.333	0.0130823
737.412	0.0130174
737.490	0.0128228
737.568	0.0126810
737.646	0.0126431
737.724	0.0126125
737.802	0.0125078
737.880	0.0124886
737.958	0.0125900
738.037	0.0124746
738.115	0.0125854
738.193	0.0126864
738.271	0.0128431
738.349	0.0129638
738.427	0.0130032
738.505	0.0131393
738.583	0.0133870
738.662	0.0134154
738.740	0.0136613
738.818	0.0138801
738.896	0.0139896
738.974	0.0140517
739.052	0.0141929
739.130	0.0141955
739.208	0.0144231
739.287	0.0144958
739.365	0.0146624
739.443	0.0145517
739.521	0.0144357
739.599	0.0144559
739.677	0.0145866
739.755	0.0145639
739.833	0.0144092
739.912	0.0144527
739.990	0.0143407
740.068	0.0144842
740.146	0.0145781
740.224	0.0144904
740.302	0.0145128
740.380	0.0146023
740.458	0.0144639
740.537	0.0144422
740.615	0.0145390
740.693	0.0143458
740.771	0.0144418
740.849	0.0143629
740.927	0.0139848
741.005	0.0138977
741.083	0.0138518
741.162	0.0135581
741.240	0.0134593
741.318	0.0131375
741.396	0.0129920
741.474	0.0130618
741.552	0.0129544
741.630	0.0129235
741.708	0.0129768
741.787	0.0129105
741.865	0.0129980
741.943	0.0131609
742.021	0.0132342
742.099	0.0133841
742.177	0.0134963
742.255	0.0138958
742.333	0.0140457
742.412	0.0141589
742.490	0.0143600
742.568	0.0143118
742.646	0.0145144
742.724	0.0148043
742.802	0.0147664
742.880	0.0147847
742.958	0.0147018
743.037	0.0146566
743.115	0.0144666
743.193	0.0144315
743.271	0.0142878
743.349	0.0141862
743.427	0.0140177
743.505	0.0137554
743.583	0.0136852
743.662	0.0134470
743.740	0.0133489
743.818	0.0133708
743.896	0.0132723
743.974	0.0131584
744.052	0.0131113
744.130	0.0131406
744.208	0.0130139
744.287	0.0131003
744.365	0.0130766
744.443	0.0132446
744.521	0.0131308
744.599	0.0131051
744.677	0.0132137
744.755	0.0133534
744.833	0.0132935
744.912	0.0134856
744.990	0.0135738
745.068	0.0135039
745.146	0.0135599
745.224	0.0136893
745.302	0.0136169
745.380	0.0136823
745.458	0.0136759
745.537	0.0137717
745.615	0.0138087
745.693	0.0138645
745.771	0.0137274
745.849	0.0139898
745.927	0.0140191
746.005	0.0140995
746.083	0.0141921
746.162	0.0142852
746.240	0.0144128
746.318	0.0143294
746.396	0.0145271
746.474	0.0144116
746.552	0.0145009
746.630	0.0143729
746.708	0.0143713
746.787	0.0145174
746.865	0.0144678
746.943	0.0143250
747.021	0.0142522
747.099	0.0141531
747.177	0.0142515
747.255	0.0141087
747.333	0.0141570
747.412	0.0141096
747.490	0.0140728
747.568	0.0140270
747.646	0.0137689
747.724	0.0138214
747.802	0.0137046
747.880	0.0136150
747.958	0.0135526
748.037	0.0135191
748.115	0.0133170
748.193	0.0132192
748.271	0.0133719
748.349	0.0134839
748.427	0.0134216
748.505	0.0134904
748.583	0.0137193
748.662	0.0138006
748.740	0.0140776
748.818	0.0141419
748.896	0.0145088
748.974	0.0144716
749.052	0.0145966
749.130	0.0146555
749.208	0.0146189
749.287	0.0145453
749.365	0.0143018
749.443	0.0142363
749.521	0.0138567
749.599	0.0137838
749.677	0.0137239
749.755	0.0133846
749.833	0.0133263
749.912	0.0132957
749.990	0.0130621
750.068	0.0130352
750.146	0.0130442
750.224	0.0128385
750.302	0.0129366
750.380	0.0130339
750.458	0.0127998
750.537	0.0129713
750.615	0.0131225
750.693	0.0131908
750.771	0.0132952
750.849	0.0133745
750.927	0.0135094
751.005	0.0136692
751.083	0.0135512
751.162	0.0136771
751.240	0.0138422
751.318	0.0137328
751.396	0.0139190
751.474	0.0139981
751.552	0.0140468
751.630	0.0141215
751.708	0.0139894
751.787	0.0141898
751.865	0.0141264
751.943	0.0141443
752.021	0.0142029
752.099	0.0140459
752.177	0.0140900
752.255	0.0141021
752.333	0.0140058
752.412	0.0140154
752.490	0.0139189
752.568	0.0139169
752.646	0.0140013
752.724	0.0137837
752.802	0.0138271
752.880	0.0139584
752.958	0.0138963
753.037	0.0137042
753.115	0.0137494
753.193	0.0137486
753.271	0.0136256
753.349	0.0136734
753.427	0.0138062
753.505	0.0137635
753.583	0.0140396
753.662	0.0138742
753.740	0.0138203
753.818	0.0138483
753.896	0.0139160
753.974	0.0137372
754.052	0.0139410
754.130	0.0140726
754.208	0.0139896
754.287	0.0140128
754.365	0.0139527
754.443	0.0139325
754.521	0.0139540
754.599	0.0139038
754.677	0.0139624
754.755	0.0139407
754.833	0.0138844
754.912	0.0137315
754.990	0.0137218
755.068	0.0138168
755.146	0.0138556
755.224	0.0139125
755.302	0.0137990
755.380	0.0139329
755.458	0.0139088
755.537	0.0141040
755.615	0.0138186
755.693	0.0138813
755.771	0.0138766
755.849	0.0139066
755.927	0.0137843
756.005	0.0137885
756.083	0.0137398
756.162	0.0137422
756.240	0.0137003
756.318	0.0134745
756.396	0.0135729
756.474	0.0135570
756.552	0.0134176
756.630	0.0135851
756.708	0.0136053
756.787	0.0133780
756.865	0.0136444
756.943	0.0136269
757.021	0.0136526
757.099	0.0135480
757.177	0.0136553
757.255	0.0137104
757.333	0.0136892
757.412	0.0136493
757.490	0.0138252
757.568	0.0137968
757.646	0.0138574
757.724	0.0139382
757.802	0.0137716
757.880	0.0137849
757.958	0.0140436
758.037	0.0138816
758.115	0.0137633
758.193	0.0137970
758.271	0.0138570
758.349	0.0136944
758.427	0.0138560
758.505	0.0136069
758.583	0.0135352
758.662	0.0135354
758.740	0.0136277
758.818	0.0135638
758.896	0.0134436
758.974	0.0136156
759.052	0.0134870
759.130	0.0135513
759.208	0.0134472
759.287	0.0134985
759.365	0.0136038
759.443	0.0135841
759.521	0.0137122
759.599	0.0137497
759.677	0.0138435
759.755	0.0140604
759.833	0.0139974
759.912	0.0141784
759.990	0.0142092
760.068	0.0143447
760.146	0.0143861
760.224	0.0144509
760.302	0.0144794
760.380	0.0143534
760.458	0.0142772
760.537	0.0142575
760.615	0.0142728
760.693	0.0141911
760.771	0.0140362
760.849	0.0140635
760.927	0.0141110
761.005	0.0139179
761.083	0.0138853
761.162	0.0138783
761.240	0.0138892
761.318	0.0138163
761.396	0.0137688
761.474	0.0137091
761.552	0.0136642
761.630	0.0138823
761.708	0.0137909
761.787	0.0137264
761.865	0.0139745
761.943	0.0140530
762.021	0.0139955
762.099	0.0138659
762.177	0.0139371
762.255	0.0140376
762.333	0.0139571
762.412	0.0138630
762.490	0.0137373
762.568	0.0136784
762.646	0.0135620
762.724	0.0135914
762.802	0.0134286
762.880	0.0133255
762.958	0.0132684
763.037	0.0132606
763.115	0.0133118
763.193	0.0132154
763.271	0.0134034
763.349	0.0134911
763.427	0.0135757
763.505	0.0134734
763.583	0.0135399
763.662	0.0138773
763.740	0.0139723
763.818	0.0138420
763.896	0.0140682
763.974	0.0141067
764.052	0.0141071
764.130	0.0141782
764.208	0.0140324
764.287	0.0139399
764.365	0.0139056
764.443	0.0138791
764.521	0.0137933
764.599	0.0137711
764.677	0.0135316
764.755	0.0135773
764.833	0.0133820
764.912	0.0132497
764.990	0.0133873
765.068	0.0135186
765.146	0.0134401
765.224	0.0134640
765.302	0.0134353
765.380	0.0135752
765.458	0.0136531
765.537	0.0135929
765.615	0.0136661
765.693	0.0136999
765.771	0.0136989
765.849	0.0137434
765.927	0.0137687
766.005	0.0138749
766.083	0.0139325
766.162	0.0139202
766.240	0.0140077
766.318	0.0139821
766.396	0.0141780
766.474	0.0143577
766.552	0.0142816
766.630	0.0143920
766.708	0.0142286
766.787	0.0143933
766.865	0.0142821
766.943	0.0143446
767.021	0.0143474
767.099	0.0141636
767.177	0.0141434
767.255	0.0140761
767.333	0.0141051
767.412	0.0140079
767.490	0.0139590
767.568	0.0139161
767.646	0.0138289
767.724	0.0138388
767.802	0.0139530
767.880	0.0139984
767.958	0.0139414
768.037	0.0141254
768.115	0.0140927
768.193	0.0141138
768.271	0.0143632
768.349	0.0142705
768.427	0.0143295
768.505	0.0143088
768.583	0.0142496
768.662	0.0141456
768.740	0.0139458
768.818	0.0139392
768.896	0.0138892
768.974	0.0136296
769.052	0.0135888
769.130	0.0135446
769.208	0.0133629
769.287	0.0133105
769.365	0.0131637
769.443	0.0130326
769.521	0.0131247
769.599	0.0130363
769.677	0.0130762
769.755	0.0130684
769.833	0.0130382
769.912	0.0130927
769.990	0.0131109
770.068	0.0130650
770.146	0.0133535
770.224	0.0134105
770.302	0.0134589
770.380	0.0134867
770.458	0.0136016
770.537	0.0136985
770.615	0.0138969
770.693	0.0139828
770.771	0.0139258
770.849	0.0140669
770.927	0.0141636
771.005	0.0143306
771.083	0.0143010
771.162	0.0144263
771.240	0.0143608
771.318	0.0142476
771.396	0.0144286
771.474	0.0142698
771.552	0.0142702
771.630	0.0141743
771.708	0.0142991
771.787	0.0140450
771.865	0.0138293
771.943	0.0140446
772.021	0.0138334
772.099	0.0138354
772.177	0.0137462
772.255	0.0136654
772.333	0.0136857
772.412	0.0136204
772.490	0.0135355
772.568	0.0135109
772.646	0.0136390
772.724	0.0134325
772.802	0.0135523
772.880	0.0135237
772.958	0.0136023
773.037	0.0136201
773.115	0.0136292
773.193	0.0136221
773.271	0.0137455
773.349	0.0137111
773.427	0.0136530
773.505	0.0136792
773.583	0.0136868
773.662	0.0137045
773.740	0.0135822
773.818	0.0136703
773.896	0.0136488
773.974	0.0136093
774.052	0.0135332
774.130	0.0136631
774.208	0.0136403
774.287	0.0137436
774.365	0.0137280
774.443	0.0138007
774.521	0.0140543
774.599	0.0140004
774.677	0.0141369
774.755	0.0141538
774.833	0.0143192
774.912	0.0142200
774.990	0.0144046
775.068	0.0143588
775.146	0.0144020
775.224	0.0144228
775.302	0.0145108
775.380	0.0143613
775.458	0.0142480
775.537	0.0141380
775.615	0.0141248
775.693	0.0141154
775.771	0.0140434
775.849	0.0140258
775.927	0.0139449
776.005	0.0139235
776.083	0.0137242
776.162	0.0138290
776.240	0.0136249
776.318	0.0136247
776.396	0.0136102
776.474	0.0137007
776.552	0.0136375
776.630	0.0134490
776.708	0.0135511
776.787	0.0134944
776.865	0.0134685
776.943	0.0134718
777.021	0.0136131
777.099	0.0136878
777.177	0.0136652
777.255	0.0136225
777.333	0.0137410
777.412	0.0136876
777.490	0.0137442
777.568	0.0137117
777.646	0.0135741
777.724	0.0135236
777.802	0.0136030
777.880	0.0135473
777.958	0.0135396
778.037	0.0134998
778.115	0.0132386
778.193	0.0131808
778.271	0.0133241
778.349	0.0132688
778.427	0.0132729
778.505	0.0134011
778.583	0.0132589
778.662	0.0132253
778.740	0.0133775
778.818	0.0133253
778.896	0.0134725
778.974	0.0137966
779.052	0.0138120
779.130	0.0138938
779.208	0.0142121
779.287	0.0142947
779.365	0.0142693
779.443	0.0142747
779.521	0.0145467
779.599	0.0146454
779.677	0.0146749
779.755	0.0147509
779.833	0.0147376
779.912	0.0148303
779.990	0.0146211
780.068	0.0145668
780.146	0.0147379
780.224	0.0144936
780.302	0.0145089
780.380	0.0142629
780.458	0.0142051
780.537	0.0140758
780.615	0.0141245
780.693	0.0140001
780.771	0.0138953
780.849	0.0137768
780.927	0.0138776
781.005	0.0137377
781.083	0.0136383
781.162	0.0136035
781.240	0.0135914
781.318	0.0135327
781.396	0.0133568
781.474	0.0133494
781.552	0.0133892
781.630	0.0133696
781.708	0.0133646
781.787	0.0135032
781.865	0.0135051
781.943	0.0134445
782.021	0.0133643
782.099	0.0133620
782.177	0.0134583
782.255	0.0134579
782.333	0.0134882
782.412	0.0133755
782.490	0.0133784
782.568	0.0134274
782.646	0.0134699
782.724	0.0135210
782.802	0.0136136
782.880	0.0134471
782.958	0.0134512
783.037	0.0134396
783.115	0.0135077
783.193	0.0136620
783.271	0.0137582
783.349	0.0137657
783.427	0.0138095
783.505	0.0137228
783.583	0.0137631
783.662	0.0138390
783.740	0.0140211
783.818	0.0141061
783.896	0.0140092
783.974	0.0141263
784.052	0.0142472
784.130	0.0140662
784.208	0.0142438
784.287	0.0142807
784.365	0.0142073
784.443	0.0141817
784.521	0.0140866
784.599	0.0140720
784.677	0.0140932
784.755	0.0141739
784.833	0.0139497
784.912	0.0139378
784.990	0.0139294
785.068	0.0139458
785.146	0.0138553
785.224	0.0137772
785.302	0.0136727
785.380	0.0137613
785.458	0.0136099
785.537	0.0135498
785.615	0.0136514
785.693	0.0135823
785.771	0.0135271
785.849	0.0136491
785.927	0.0136437
786.005	0.0135820
786.083	0.0136176
786.162	0.0135587
786.240	0.0134882
786.318	0.0136149
786.396	0.0136758
786.474	0.0137005
786.552	0.0136412
786.630	0.0137125
786.708	0.0136306
786.787	0.0136964
786.865	0.0138071
786.943	0.0135217
787.021	0.0137933
787.099	0.0135965
787.177	0.0136183
787.255	0.0136757
787.333	0.0136412
787.412	0.0136632
787.490	0.0135640
787.568	0.0135585
787.646	0.0136872
787.724	0.0136794
787.802	0.0136762
787.880	0.0137095
787.958	0.0135866
788.037	0.0137955
788.115	0.0137741
788.193	0.0138096
788.271	0.0137361
788.349	0.0138316
788.427	0.0139737
788.505	0.0140271
788.583	0.0142012
788.662	0.0141673
788.740	0.0141637
788.818	0.0142274
788.896	0.0142542
788.974	0.0142427
789.052	0.0141947
789.130	0.0143021
789.208	0.0143467
789.287	0.0143006
789.365	0.0142420
789.443	0.0141834
789.521	0.0141325
789.599	0.0141165
789.677	0.0141058
789.755	0.0140678
789.833	0.0140848
789.912	0.0139661
789.990	0.0139127
790.068	0.0139034
790.146	0.0137904
790.224	0.0137398
790.302	0.0135106
790.380	0.0136111
790.458	0.0135590
790.537	0.0135207
790.615	0.0135837
790.693	0.0134606
790.771	0.0133805
790.849	0.0134048
790.927	0.0135182
791.005	0.0133575
791.083	0.0135346
791.162	0.0134413
791.240	0.0133321
791.318	0.0135246
791.396	0.0136017
791.474	0.0136407
791.552	0.0136249
791.630	0.0137280
791.708	0.0137073
791.787	0.0138992
791.865	0.0140308
791.943	0.0138614
792.021	0.0138064
792.099	0.0140115
792.177	0.0140772
792.255	0.0140110
792.333	0.0141135
792.412	0.0140899
792.490	0.0138759
792.568	0.0140775
792.646	0.0142628
792.724	0.0140324
792.802	0.0141376
792.880	0.0140752
792.958	0.0140179
793.037	0.0140285
793.115	0.0140627
793.193	0.0138921
793.271	0.0139132
793.349	0.0139065
793.427	0.0138475
793.505	0.0137648
793.583	0.0137115
793.662	0.0137289
793.740	0.0137296
793.818	0.0137321
793.896	0.0136376
793.974	0.0136526
794.052	0.0135803
794.130	0.0136414
794.208	0.0136389
794.287	0.0136677
794.365	0.0138027
794.443	0.0137314
794.521	0.0136889
794.599	0.0137452
794.677	0.0138618
794.755	0.0139141
794.833	0.0139437
794.912	0.0139815
794.990	0.0138820
795.068	0.0140504
795.146	0.0140549
795.224	0.0140675
795.302	0.0139899
795.380	0.0139904
795.458	0.0141026
795.537	0.0141906
795.615	0.0139693
795.693	0.0140430
795.771	0.0140722
795.849	0.0140059
795.927	0.0140208
796.005	0.0138096
796.083	0.0138191
796.162	0.0138138
796.240	0.0137485
796.318	0.0136615
796.396	0.0136710
796.474	0.0136252
796.552	0.0135660
796.630	0.0135076
796.708	0.0133714
796.787	0.0132533
796.865	0.0134187
796.943	0.0135186
797.021	0.0133752
797.099	0.0134898
797.177	0.0135280
797.255	0.0134830
797.333	0.0136251
797.412	0.0137703
797.490	0.0137043
797.568	0.0139797
797.646	0.0139050
797.724	0.0138801
797.802	0.0139427
797.880	0.0140119
797.958	0.0140299
798.037	0.0140824
798.115	0.0141185
798.193	0.0141187
798.271	0.0140382
798.349	0.0141278
798.427	0.0140549
798.505	0.0140733
798.583	0.0140009
798.662	0.0139427
798.740	0.0138496
798.818	0.0138449
798.896	0.0139261
798.974	0.0137937
799.052	0.0136462
799.130	0.0135580
799.208	0.0135159
799.287	0.0135628
799.365	0.0135823
799.443	0.0136683
799.521	0.0136019
799.599	0.0136453
799.677	0.0135883
799.755	0.0134306
799.833	0.0135343
799.912	0.0137330
799.990	0.0136589
800.068	0.0136844
800.146	0.0136310
800.224	0.0137598
800.302	0.0137718
800.380	0.0137033
800.458	0.0137693
800.537	0.0138284
800.615	0.0138091
800.693	0.0139600
800.771	0.0140270
800.849	0.0139674
800.927	0.0139316
801.005	0.0141205
801.083	0.0142329
801.162	0.0141530
801.240	0.0141054
801.318	0.0141006
801.396	0.0141953
801.474	0.0141109
801.552	0.0140520
801.630	0.0140239
801.708	0.0140212
801.787	0.0139362
801.865	0.0141220
801.943	0.0139587
802.021	0.0138237
802.099	0.0139099
802.177	0.0138494
802.255	0.0138341
802.333	0.0138628
802.412	0.0139291
802.490	0.0138952
802.568	0.0135627
802.646	0.0136997
802.724	0.0138038
802.802	0.0137711
802.880	0.0138441
802.958	0.0137644
803.037	0.0136606
803.115	0.0136259
803.193	0.0135988
803.271	0.0136421
803.349	0.0134415
803.427	0.0136308
803.505	0.0135463
803.583	0.0135178
803.662	0.0136917
803.740	0.0135056
803.818	0.0135091
803.896	0.0135813
803.974	0.0135937
804.052	0.0136701
804.130	0.0136359
804.208	0.0136825
804.287	0.0137326
804.365	0.0137386
804.443	0.0138447
804.521	0.0138668
804.599	0.0138342
804.677	0.0138109
804.755	0.0139138
804.833	0.0139524
804.912	0.0139705
804.990	0.0139128
805.068	0.0139965
805.146	0.0140379
805.224	0.0140973
805.302	0.0140923
805.380	0.0139867
805.458	0.0139532
805.537	0.0140479
805.615	0.0140551
805.693	0.0140502
805.771	0.0139193
805.849	0.0137039
805.927	0.0138525
806.005	0.0138897
806.083	0.0137173
806.162	0.0135562
806.240	0.0137236
806.318	0.0135933
806.396	0.0137312
806.474	0.0138152
806.552	0.0136712
806.630	0.0136654
806.708	0.0135962
806.787	0.0137312
806.865	0.0137365
806.943	0.0137420
807.021	0.0138053
807.099	0.0138170
807.177	0.0136921
807.255	0.0138011
807.333	0.0137866
807.412	0.0137910
807.490	0.0138377
807.568	0.0138066
807.646	0.0137265
807.724	0.0136762
807.802	0.0137355
807.880	0.0138119
807.958	0.0138741
808.037	0.0136182
808.115	0.0139031
808.193	0.0138914
808.271	0.0138270
808.349	0.0139054
808.427	0.0138449
808.505	0.0138969
808.583	0.0139446
808.662	0.0139142
808.740	0.0139349
808.818	0.0139909
808.896	0.0137180
808.974	0.0137463
809.052	0.0138116
809.130	0.0137880
809.208	0.0137382
809.287	0.0137595
809.365	0.0136286
809.443	0.0136639
809.521	0.0135954
809.599	0.0134917
809.677	0.0135925
809.755	0.0135451
809.833	0.0136322
809.912	0.0136902
809.990	0.0136001
810.068	0.0135612
810.146	0.0136099
810.224	0.0136588
810.302	0.0136449
810.380	0.0136675
810.458	0.0137969
810.537	0.0138185
810.615	0.0138475
810.693	0.0138960
810.771	0.0137406
810.849	0.0138062
810.927	0.0138628
811.005	0.0138339
811.083	0.0138315
811.162	0.0139104
811.240	0.0139862
811.318	0.0140196
811.396	0.0139089
811.474	0.0137971
811.552	0.0137638
811.630	0.0138739
811.708	0.0139194
811.787	0.0138759
811.865	0.0138956
811.943	0.0139066
812.021	0.0137952
812.099	0.0138412
812.177	0.0137506
812.255	0.0137183
812.333	0.0139075
812.412	0.0136514
812.490	0.0137536
812.568	0.0138473
812.646	0.0138410
812.724	0.0138532
812.802	0.0137575
812.880	0.0138303
812.958	0.0139903
813.037	0.0140630
813.115	0.0140306
813.193	0.0140495
813.271	0.0140472
813.349	0.0140844
813.427	0.0141613
813.505	0.0141171
813.583	0.0141566
813.662	0.0140166
813.740	0.0139407
813.818	0.0139806
813.896	0.0140364
813.974	0.0138034
814.052	0.0137849
814.130	0.0138374
814.208	0.0137214
814.287	0.0137111
814.365	0.0137596
814.443	0.0136947
814.521	0.0136668
814.599	0.0136668
814.677	0.0136284
814.755	0.0137067
814.833	0.0137187
814.912	0.0135468
814.990	0.0136143
815.068	0.0136012
815.146	0.0136783
815.224	0.0135265
815.302	0.0136534
815.380	0.0136836
815.458	0.0135922
815.537	0.0137293
815.615	0.0137701
815.693	0.0137315
815.771	0.0136872
815.849	0.0135173
815.927	0.0136147
816.005	0.0138868
816.083	0.0139050
816.162	0.0137770
816.240	0.0137357
816.318	0.0138829
816.396	0.0140878
816.474	0.0140240
816.552	0.0140154
816.630	0.0140423
816.708	0.0139509
816.787	0.0141074
816.865	0.0141872
816.943	0.0141135
817.021	0.0140247
817.099	0.0141004
817.177	0.0141752
817.255	0.0140437
817.333	0.0141953
817.412	0.0140742
817.490	0.0141821
817.568	0.0140514
817.646	0.0140843
817.724	0.0140414
817.802	0.0139895
817.880	0.0141031
817.958	0.0141302
818.037	0.0140672
818.115	0.0140380
818.193	0.0139843
818.271	0.0139640
818.349	0.0138327
818.427	0.0138577
818.505	0.0139508
818.583	0.0138219
818.662	0.0137832
818.740	0.0137112
818.818	0.0136376
818.896	0.0136827
818.974	0.0136221
819.052	0.0135038
819.130	0.0134929
819.208	0.0134609
819.287	0.0134417
819.365	0.0136693
819.443	0.0134129
819.521	0.0136143
819.599	0.0136207
819.677	0.0135603
819.755	0.0135606
819.833	0.0136546
819.912	0.0136787
819.990	0.0138052
820.068	0.0138554
820.146	0.0139435
820.224	0.0138331
820.302	0.0139988
820.380	0.0140351
820.458	0.0139883
820.537	0.0140453
820.615	0.0139935
820.693	0.0139558
820.771	0.0138959
820.849	0.0140631
820.927	0.0141079
821.005	0.0138152
821.083	0.0139806
821.162	0.0139463
821.240	0.0139329
821.318	0.0140084
821.396	0.0137467
821.474	0.0136579
821.552	0.0137553
821.630	0.0137091
821.708	0.0137247
821.787	0.0136656
821.865	0.0136044
821.943	0.0135116
822.021	0.0135482
822.099	0.0135194
822.177	0.0135883
822.255	0.0135657
822.333	0.0135952
822.412	0.0135960
822.490	0.0136538
822.568	0.0137036
822.646	0.0137564
822.724	0.0136510
822.802	0.0138390
822.880	0.0138299
822.958	0.0137499
823.037	0.0137961
823.115	0.0139049
823.193	0.0138350
823.271	0.0137656
823.349	0.0138583
823.427	0.0139505
823.505	0.0139651
823.583	0.0140959
823.662	0.0141590
823.740	0.0141658
823.818	0.0141682
823.896	0.0141909
823.974	0.0141381
824.052	0.0142659
824.130	0.0142731
824.208	0.0143452
824.287	0.0144022
824.365	0.0141942
824.443	0.0140948
824.521	0.0141290
824.599	0.0141773
824.677	0.0142179
824.755	0.0141543
824.833	0.0141637
824.912	0.0140233
824.990	0.0140730
825.068	0.0139832
825.146	0.0138017
825.224	0.0137974
825.302	0.0137682
825.380	0.0138132
825.458	0.0137402
825.537	0.0135503
825.615	0.0135310
825.693	0.0137010
825.771	0.0135797
825.849	0.0137359
825.927	0.0135584
826.005	0.0136675
826.083	0.0137885
826.162	0.0138113
826.240	0.0137335
826.318	0.0137635
826.396	0.0136832
826.474	0.0137094
826.552	0.0138383
826.630	0.0138120
826.708	0.0137775
826.787	0.0137151
826.865	0.0136185
826.943	0.0137292
827.021	0.0135280
827.099	0.0135286
827.177	0.0135172
827.255	0.0133906
827.333	0.0134614
827.412	0.0134631
827.490	0.0134511
827.568	0.0135068
827.646	0.0135802
827.724	0.0135033
827.802	0.0134843
827.880	0.0135884
827.958	0.0135741
828.037	0.0135265
828.115	0.0137221
828.193	0.0137016
828.271	0.0137015
828.349	0.0138349
828.427	0.0137344
828.505	0.0137344
828.583	0.0136323
828.662	0.0138724
828.740	0.0138757
828.818	0.0137045
828.896	0.0139108
828.974	0.0141590
829.052	0.0139139
829.130	0.0140515
829.208	0.0141446
829.287	0.0141222
829.365	0.0139942
829.443	0.0139971
829.521	0.0141061
829.599	0.0141896
829.677	0.0141591
829.755	0.0140540
829.833	0.0140953
829.912	0.0140771
829.990	0.0140578
830.068	0.0141946
830.146	0.0139673
830.224	0.0140654
830.302	0.0141117
830.380	0.0141387
830.458	0.0142036
830.537	0.0141053
830.615	0.0139260
830.693	0.0140396
830.771	0.0140737
830.849	0.0139420
830.927	0.0139170
831.005	0.0139638
831.083	0.0140656
831.162	0.0138634
831.240	0.0137948
831.318	0.0138047
831.396	0.0138126
831.474	0.0138816
831.552	0.0135551
831.630	0.0138445
831.708	0.0137618
831.787	0.0137033
831.865	0.0137424
831.943	0.0137271
832.021	0.0137319
832.099	0.0137010
832.177	0.0137578
832.255	0.0138010
832.333	0.0139796
832.412	0.0137465
832.490	0.0138530
832.568	0.0138309
832.646	0.0137920
832.724	0.0137739
832.802	0.0138425
832.880	0.0138333
832.958	0.0136965
833.037	0.0136660
833.115	0.0135546
833.193	0.0135961
833.271	0.0134830
833.349	0.0135339
833.427	0.0135715
833.505	0.0135607
833.583	0.0136239
833.662	0.0136171
833.740	0.0135380
833.818	0.0136673
833.896	0.0135458
833.974	0.0136200
834.052	0.0136201
834.130	0.0135310
834.208	0.0136179
834.287	0.0137020
834.365	0.0136375
834.443	0.0135268
834.521	0.0136396
834.599	0.0136635
834.677	0.0137621
834.755	0.0138238
834.833	0.0136961
834.912	0.0138288
834.990	0.0140180
835.068	0.0139079
835.146	0.0139687
835.224	0.0139569
835.302	0.0138300
835.380	0.0139481
835.458	0.0139797
835.537	0.0139870
835.615	0.0139896
835.693	0.0140434
835.771	0.0141103
835.849	0.0140204
835.927	0.0141823
836.005	0.0139491
836.083	0.0141611
836.162	0.0140794
836.240	0.0141534
836.318	0.0141155
836.396	0.0141337
836.474	0.0141547
836.552	0.0140833
836.630	0.0139828
836.708	0.0139635
836.787	0.0140407
836.865	0.0141189
836.943	0.0141393
837.021	0.0142028
837.099	0.0141299
837.177	0.0139283
837.255	0.0139893
837.333	0.0138612
837.412	0.0138985
837.490	0.0138846
837.568	0.0137721
837.646	0.0138041
837.724	0.0137254
837.802	0.0137473
837.880	0.0134998
837.958	0.0135257
838.037	0.0135818
838.115	0.0134570
838.193	0.0135651
838.271	0.0133952
838.349	0.0134360
838.427	0.0135612
838.505	0.0135531
838.583	0.0135545
838.662	0.0134209
838.740	0.0135419
838.818	0.0135174
838.896	0.0135921
838.974	0.0136092
839.052	0.0136874
839.130	0.0136971
839.208	0.0137710
839.287	0.0137002
839.365	0.0138894
839.443	0.0139173
839.521	0.0139613
839.599	0.0140340
839.677	0.0139814
839.755	0.0141428
839.833	0.0140623
839.912	0.0140168
839.990	0.0139434
840.068	0.0137943
840.146	0.0139032
840.224	0.0138079
840.302	0.0137734
840.380	0.0137371
840.458	0.0137177
840.537	0.0136669
840.615	0.0136449
840.693	0.0136339
840.771	0.0136436
840.849	0.0136006
840.927	0.0136154
841.005	0.0136438
841.083	0.0137007
841.162	0.0136828
841.240	0.0137435
841.318	0.0137704
841.396	0.0138276
841.474	0.0138538
841.552	0.0138831
841.630	0.0138316
841.708	0.0138799
841.787	0.0138782
841.865	0.0140049
841.943	0.0140200
842.021	0.0139602
842.099	0.0139662
842.177	0.0140345
842.255	0.0139618
842.333	0.0140397
842.412	0.0140719
842.490	0.0140087
842.568	0.0138671
842.646	0.0138992
842.724	0.0139255
842.802	0.0139440
842.880	0.0139643
842.958	0.0139632
843.037	0.0138412
843.115	0.0138390
843.193	0.0138371
843.271	0.0139215
843.349	0.0136340
843.427	0.0138750
843.505	0.0137059
843.583	0.0136243
843.662	0.0138071
843.740	0.0137299
843.818	0.0136532
843.896	0.0135460
843.974	0.0137305
844.052	0.0138602
844.130	0.0137733
844.208	0.0136852
844.287	0.0137613
844.365	0.0138348
844.443	0.0137895
844.521	0.0138523
844.599	0.0138380
844.677	0.0138992
844.755	0.0138623
844.833	0.0139281
844.912	0.0139204
844.990	0.0140086
845.068	0.0139155
845.146	0.0140320
845.224	0.0141406
845.302	0.0139211
845.380	0.0138494
845.458	0.0139920
845.537	0.0139838
845.615	0.0138200
845.693	0.0138383
845.771	0.0139178
845.849	0.0138731
845.927	0.0138952
846.005	0.0139035
846.083	0.0138830
846.162	0.0135628
846.240	0.0137430
846.318	0.0137768
846.396	0.0136539
846.474	0.0135667
846.552	0.0134608
846.630	0.0135339
846.708	0.0135501
846.787	0.0134577
846.865	0.0135149
846.943	0.0136558
847.021	0.0136147
847.099	0.0134309
847.177	0.0136257
847.255	0.0137830
847.333	0.0137489
847.412	0.0137663
847.490	0.0137576
847.568	0.0137605
847.646	0.0137365
847.724	0.0137252
847.802	0.0138417
847.880	0.0140027
847.958	0.0139227
848.037	0.0137907
848.115	0.0139375
848.193	0.0139310
848.271	0.0138839
848.349	0.0138911
848.427	0.0138356
848.505	0.0138736
848.583	0.0138964
848.662	0.0138084
848.740	0.0139414
848.818	0.0137525
848.896	0.0138210
848.974	0.0138042
849.052	0.0139477
849.130	0.0140231
849.208	0.0139335
849.287	0.0139965
849.365	0.0138718
849.443	0.0139721
849.521	0.0140142
849.599	0.0140032
849.677	0.0141058
849.755	0.0140369
849.833	0.0139656
849.912	0.0141843
849.990	0.0140126
850.068	0.0140111
850.146	0.0140816
850.224	0.0139696
850.302	0.0140445
850.380	0.0140417
850.458	0.0138831
850.537	0.0139653
850.615	0.0141110
850.693	0.0139860
850.771	0.0139487
850.849	0.0138595
850.927	0.0138807
851.005	0.0138251
851.083	0.0138654
851.162	0.0137121
851.240	0.0136974
851.318	0.0138298
851.396	0.0138112
851.474	0.0137231
851.552	0.0135911
851.630	0.0137183
851.708	0.0137115
851.787	0.0136266
851.865	0.0137128
851.943	0.0137704
852.021	0.0135730
852.099	0.0137074
852.177	0.0137240
852.255	0.0136552
852.333	0.0137433
852.412	0.0138705
852.490	0.0138470
852.568	0.0138378
852.646	0.0138091
852.724	0.0139050
852.802	0.0139339
852.880	0.0138299
852.958	0.0138477
853.037	0.0138252
853.115	0.0138362
853.193	0.0138404
853.271	0.0139728
853.349	0.0137682
853.427	0.0140095
853.505	0.0139017
853.583	0.0141123
853.662	0.0138682
853.740	0.0139878
853.818	0.0140037
853.896	0.0138213
853.974	0.0140903
854.052	0.0139351
854.130	0.0139850
854.208	0.0140696
854.287	0.0139698
854.365	0.0140079
854.443	0.0139423
854.521	0.0139777
854.599	0.0139201
854.677	0.0139400
854.755	0.0138778
854.833	0.0138361
854.912	0.0138194
854.990	0.0139185
855.068	0.0138413
855.146	0.0138833
855.224	0.0136904
855.302	0.0137576
855.380	0.0138002
855.458	0.0138764
855.537	0.0138678
855.615	0.0137183
855.693	0.0137671
855.771	0.0138434
855.849	0.0137824
855.927	0.0137903
856.005	0.0137138
856.083	0.0137603
856.162	0.0136409
856.240	0.0135573
856.318	0.0136401
856.396	0.0138467
856.474	0.0136888
856.552	0.0136415
856.630	0.0137594
856.708	0.0137415
856.787	0.0138744
856.865	0.0139764
856.943	0.0137810
857.021	0.0137538
857.099	0.0139126
857.177	0.0139386
857.255	0.0139011
857.333	0.0139611
857.412	0.0139983
857.490	0.0139889
857.568	0.0139825
857.646	0.0139302
857.724	0.0138778
857.802	0.0139452
857.880	0.0138824
857.958	0.0139459
858.037	0.0138792
858.115	0.0139396
858.193	0.0140161
858.271	0.0140140
858.349	0.0141103
858.427	0.0140389
858.505	0.0138949
858.583	0.0140547
858.662	0.0140298
858.740	0.0140099
858.818	0.0139899
858.896	0.0140098
858.974	0.0139832
859.052	0.0137907
859.130	0.0137534
859.208	0.0137468
859.287	0.0136991
859.365	0.0136607
859.443	0.0137473
859.521	0.0137691
859.599	0.0136951
859.677	0.0137386
859.755	0.0137365
859.833	0.0135735
859.912	0.0137883
859.990	0.0136361
860.068	0.0137799
860.146	0.0139360
860.224	0.0137717
860.302	0.0136716
860.380	0.0137647
860.458	0.0139141
860.537	0.0137975
860.615	0.0137383
860.693	0.0138496
860.771	0.0140906
860.849	0.0138994
860.927	0.0138416
861.005	0.0140076
861.083	0.0139825
861.162	0.0140771
861.240	0.0139210
861.318	0.0140211
861.396	0.0141264
861.474	0.0138217
861.552	0.0140446
861.630	0.0139993
861.708	0.0139230
861.787	0.0138934
861.865	0.0138358
861.943	0.0138180
862.021	0.0138484
862.099	0.0138363
862.177	0.0137399
862.255	0.0138092
862.333	0.0137897
862.412	0.0137361
862.490	0.0136837
862.568	0.0137177
862.646	0.0134933
862.724	0.0137189
862.802	0.0137257
862.880	0.0138959
862.958	0.0139003
863.037	0.0138952
863.115	0.0138886
863.193	0.0139653
863.271	0.0140602
863.349	0.0140655
863.427	0.0141439
863.505	0.0141241
863.583	0.0141759
863.662	0.0141564
863.740	0.0141495
863.818	0.0141026
863.896	0.0139723
863.974	0.0139487
864.052	0.0140531
864.130	0.0138520
864.208	0.0139162
864.287	0.0138005
864.365	0.0136369
864.443	0.0136304
864.521	0.0136127
864.599	0.0136653
864.677	0.0133661
864.755	0.0134698
864.833	0.0135783
864.912	0.0134309
864.990	0.0134349
865.068	0.0134000
865.146	0.0133338
865.224	0.0133553
865.302	0.0134580
865.380	0.0134333
865.458	0.0135294
865.537	0.0137129
865.615	0.0137386
865.693	0.0137196
865.771	0.0137300
865.849	0.0138825
865.927	0.0139294
866.005	0.0141119
866.083	0.0140320
866.162	0.0138619
866.240	0.0140651
866.318	0.0141869
866.396	0.0140180
866.474	0.0140343
866.552	0.0139394
866.630	0.0141120
866.708	0.0140675
866.787	0.0140221
866.865	0.0140620
866.943	0.0139235
867.021	0.0139411
867.099	0.0139108
867.177	0.0139339
867.255	0.0138144
867.333	0.0137930
867.412	0.0137952
867.490	0.0137408
867.568	0.0135538
867.646	0.0135242
867.724	0.0134841
867.802	0.0136327
867.880	0.0134360
867.958	0.0133305
868.037	0.0133396
868.115	0.0134319
868.193	0.0134718
868.271	0.0137344
868.349	0.0135854
868.427	0.0137731
868.505	0.0138162
868.583	0.0138712
868.662	0.0139540
868.740	0.0142140
868.818	0.0140156
868.896	0.0142926
868.974	0.0141895
869.052	0.0142743
869.130	0.0142524
869.208	0.0142834
869.287	0.0142458
869.365	0.0140957
869.443	0.0141919
869.521	0.0142364
869.599	0.0141744
869.677	0.0139408
869.755	0.0140015
869.833	0.0140883
869.912	0.0139758
869.990	0.0140009
870.068	0.0139799
870.146	0.0139656
870.224	0.0138905
870.302	0.0140011
870.380	0.0140241
870.458	0.0139612
870.537	0.0138322
870.615	0.0137405
870.693	0.0138529
870.771	0.0138399
870.849	0.0137402
870.927	0.0137118
871.005	0.0138976
871.083	0.0136864
871.162	0.0137611
871.240	0.0139085
871.318	0.0137630
871.396	0.0136669
871.474	0.0137400
871.552	0.0138769
871.630	0.0137604
871.708	0.0137463
871.787	0.0137582
871.865	0.0137818
871.943	0.0136607
872.021	0.0137604
872.099	0.0137582
872.177	0.0135377
872.255	0.0137183
872.333	0.0136046
872.412	0.0136555
872.490	0.0136400
872.568	0.0136247
872.646	0.0135233
872.724	0.0135559
872.802	0.0135851
872.880	0.0136307
872.958	0.0135158
873.037	0.0135344
873.115	0.0135366
873.193	0.0136160
873.271	0.0135008
873.349	0.0135552
873.427	0.0135881
873.505	0.0136864
873.583	0.0138815
873.662	0.0140187
873.740	0.0141113
873.818	0.0139450
873.896	0.0142715
873.974	0.0143132
874.052	0.0143627
874.130	0.0143945
874.208	0.0144710
874.287	0.0144251
874.365	0.0146317
874.443	0.0144807
874.521	0.0142826
874.599	0.0144781
874.677	0.0143699
874.755	0.0141994
874.833	0.0141782
874.912	0.0140668
874.990	0.0140707
875.068	0.0139300
875.146	0.0139663
875.224	0.0139008
875.302	0.0137772
875.380	0.0137185
875.458	0.0135393
875.537	0.0136115
875.615	0.0137785
875.693	0.0137196
875.771	0.0136887
875.849	0.0136279
875.927	0.0138174
876.005	0.0137518
876.083	0.0137629
876.162	0.0137008
876.240	0.0137014
876.318	0.0138352
876.396	0.0138780
876.474	0.0137798
876.552	0.0138140
876.630	0.0137701
876.708	0.0138088
876.787	0.0137202
876.865	0.0138488
876.943	0.0138578
877.021	0.0136983
877.099	0.0138972
877.177	0.0137733
877.255	0.0137369
877.333	0.0138599
877.412	0.0138904
877.490	0.0136156
877.568	0.0135507
877.646	0.0137553
877.724	0.0136095
877.802	0.0134576
877.880	0.0135172
877.958	0.0134955
878.037	0.0136191
878.115	0.0137981
878.193	0.0136409
878.271	0.0135600
878.349	0.0136356
878.427	0.0137658
878.505	0.0138193
878.583	0.0138592
878.662	0.0139281
878.740	0.0140356
878.818	0.0139478
878.896	0.0141015
878.974	0.0141956
879.052	0.0142539
879.130	0.0143929
879.208	0.0143462
879.287	0.0144305
879.365	0.0144140
879.443	0.0143988
879.521	0.0146449
879.599	0.0144300
879.677	0.0143531
879.755	0.0143388
879.833	0.0142849
879.912	0.0141219
879.990	0.0139891
880.068	0.0139061
880.146	0.0138441
880.224	0.0136837
880.302	0.0136562
880.380	0.0135360
880.458	0.0134044
880.537	0.0135676
880.615	0.0135251
880.693	0.0133603
880.771	0.0134914
880.849	0.0135323
880.927	0.0136317
881.005	0.0134733
881.083	0.0136441
881.162	0.0138013
881.240	0.0137460
881.318	0.0137109
881.396	0.0138235
881.474	0.0138956
881.552	0.0137856
881.630	0.0137920
881.708	0.0139949
881.787	0.0139528
881.865	0.0138075
881.943	0.0140181
882.021	0.0140210
882.099	0.0139368
882.177	0.0139282
882.255	0.0140022
882.333	0.0138888
882.412	0.0139007
882.490	0.0138631
882.568	0.0139763
882.646	0.0138877
882.724	0.0138660
882.802	0.0139001
882.880	0.0139584
882.958	0.0137732
883.037	0.0137655
883.115	0.0138689
883.193	0.0138784
883.271	0.0137609
883.349	0.0137416
883.427	0.0138033
883.505	0.0139253
883.583	0.0138149
883.662	0.0138676
883.740	0.0138071
883.818	0.0138673
883.896	0.0140919
883.974	0.0140107
884.052	0.0141770
884.130	0.0140228
884.208	0.0141389
884.287	0.0140779
884.365	0.0141132
884.443	0.0141129
884.521	0.0140517
884.599	0.0141279
884.677	0.0139949
884.755	0.0139238
884.833	0.0138654
884.912	0.0138880
884.990	0.0138533
885.068	0.0137276
885.146	0.0137269
885.224	0.0138480
885.302	0.0137436
885.380	0.0138010
885.458	0.0137302
885.537	0.0134186
885.615	0.0137505
885.693	0.0135065
885.771	0.0136340
885.849	0.0135004
885.927	0.0135053
886.005	0.0135641
886.083	0.0135427
886.162	0.0135642
886.240	0.0135497
886.318	0.0134664
886.396	0.0136625
886.474	0.0137550
886.552	0.0136350
886.630	0.0137452
886.708	0.0139668
886.787	0.0140015
886.865	0.0139466
886.943	0.0141019
887.021	0.0140646
887.099	0.0142661
887.177	0.0142622
887.255	0.0143086
887.333	0.0143123
887.412	0.0145090
887.490	0.0143349
887.568	0.0143991
887.646	0.0142489
887.724	0.0143100
887.802	0.0141528
887.880	0.0141696
887.958	0.0141186
888.037	0.0140740
888.115	0.0140019
888.193	0.0139077
888.271	0.0138058
888.349	0.0138313
888.427	0.0137148
888.505	0.0136128
888.583	0.0136759
888.662	0.0135638
888.740	0.0134353
888.818	0.0134256
888.896	0.0134395
888.974	0.0133093
889.052	0.0134885
889.130	0.0133465
889.208	0.0134425
889.287	0.0135596
889.365	0.0135643
889.443	0.0135256
889.521	0.0136303
889.599	0.0135855
889.677	0.0139149
889.755	0.0138396
889.833	0.0137701
889.912	0.0139667
889.990	0.0137714
890.068	0.0141039
890.146	0.0140015
890.224	0.0141689
890.302	0.0139957
890.380	0.0140397
890.458	0.0140903
890.537	0.0140503
890.615	0.0139586
890.693	0.0141903
890.771	0.0141320
890.849	0.0139285
890.927	0.0139594
891.005	0.0139521
891.083	0.0137602
891.162	0.0138017
891.240	0.0139228
891.318	0.0137305
891.396	0.0136774
891.474	0.0137875
891.552	0.0136533
891.630	0.0136630
891.708	0.0137553
891.787	0.0136781
891.865	0.0135715
891.943	0.0136784
892.021	0.0136139
892.099	0.0136664
892.177	0.0137640
892.255	0.0138287
892.333	0.0140370
892.412	0.0140967
892.490	0.0140237
892.568	0.0141668
892.646	0.0141962
892.724	0.0142537
892.802	0.0142211
892.880	0.0142820
892.958	0.0143553
893.037	0.0143090
893.115	0.0141678
893.193	0.0141078
893.271	0.0140546
893.349	0.0141017
893.427	0.0139848
893.505	0.0139467
893.583	0.0137826
893.662	0.0137349
893.740	0.0135809
893.818	0.0136657
893.896	0.0134824
893.974	0.0134781
894.052	0.0135105
894.130	0.0136423
894.208	0.0136033
894.287	0.0135863
894.365	0.0134991
894.443	0.0135375
894.521	0.0135096
894.599	0.0136900
894.677	0.0137059
894.755	0.0137324
894.833	0.0138898
894.912	0.0139932
894.990	0.0139170
895.068	0.0140327
895.146	0.0141155
895.224	0.0140903
895.302	0.0141675
895.380	0.0141453
895.458	0.0141872
895.537	0.0142870
895.615	0.0143271
895.693	0.0142372
895.771	0.0141454
895.849	0.0141949
895.927	0.0140809
896.005	0.0142019
896.083	0.0139854
896.162	0.0140908
896.240	0.0139774
896.318	0.0138754
896.396	0.0138707
896.474	0.0138815
896.552	0.0136544
896.630	0.0136636
896.708	0.0136744
896.787	0.0136710
896.865	0.0136697
896.943	0.0135400
897.021	0.0134138
897.099	0.0133945
897.177	0.0134750
897.255	0.0136321
897.333	0.0136652
897.412	0.0137453
897.490	0.0136540
897.568	0.0137074
897.646	0.0137141
897.724	0.0136526
897.802	0.0137036
897.880	0.0137620
897.958	0.0137709
898.037	0.0137622
898.115	0.0138053
898.193	0.0139148
898.271	0.0138139
898.349	0.0139045
898.427	0.0139198
898.505	0.0139789
898.583	0.0139046
898.662	0.0139382
898.740	0.0139015
898.818	0.0139956
898.896	0.0140729
898.974	0.0139271
899.052	0.0138326
899.130	0.0139919
899.208	0.0139922
899.287	0.0139609
899.365	0.0141174
899.443	0.0140323
899.521	0.0140987
899.599	0.0140426
899.677	0.0139922
899.755	0.0139470
899.833	0.0140099
899.912	0.0139228
899.990	0.0138217
900.068	0.0139021
900.146	0.0139108
900.224	0.0137306
900.302	0.0138491
900.380	0.0138789
900.458	0.0139571
900.537	0.0138558
900.615	0.0138277
900.693	0.0138393
900.771	0.0138947
900.849	0.0137765
900.927	0.0136959
901.005	0.0137147
901.083	0.0137764
901.162	0.0138084
901.240	0.0137394
901.318	0.0136571
901.396	0.0137255
901.474	0.0138598
901.552	0.0138110
901.630	0.0136536
901.708	0.0136505
901.787	0.0136270
901.865	0.0137398
901.943	0.0136582
902.021	0.0137882
902.099	0.0138470
902.177	0.0139581
902.255	0.0138831
902.333	0.0139309
902.412	0.0139458
902.490	0.0140681
902.568	0.0138950
902.646	0.0139111
902.724	0.0138278
902.802	0.0139308
902.880	0.0140458
902.958	0.0138194
903.037	0.0139009
903.115	0.0137569
903.193	0.0138503
903.271	0.0136836
903.349	0.0137562
903.427	0.0139342
903.505	0.0138480
903.583	0.0137058
903.662	0.0137095
903.740	0.0138020
903.818	0.0137447
903.896	0.0136729
903.974	0.0136452
904.052	0.0138050
904.130	0.0136432
904.208	0.0134394
904.287	0.0136790
904.365	0.0136697
904.443	0.0135879
904.521	0.0136146
904.599	0.0133489
904.677	0.0136132
904.755	0.0135960
904.833	0.0136653
904.912	0.0136627
904.990	0.0139368
905.068	0.0137634
905.146	0.0138376
905.224	0.0139014
905.302	0.0141381
905.380	0.0140497
905.458	0.0140958
905.537	0.0142579
905.615	0.0141772
905.693	0.0143436
905.771	0.0143896
905.849	0.0142760
905.927	0.0143812
906.005	0.0144280
906.083	0.0144203
906.162	0.0143259
906.240	0.0144607
906.318	0.0141243
906.396	0.0140222
906.474	0.0140187
906.552	0.0139497
906.630	0.0139494
906.708	0.0139846
906.787	0.0138898
906.865	0.0140775
906.943	0.0139182
907.021	0.0137999
907.099	0.0138009
907.177	0.0137017
907.255	0.0136897
907.333	0.0136623
907.412	0.0136914
907.490	0.0135587
907.568	0.0135871
907.646	0.0134587
907.724	0.0136620
907.802	0.0135262
907.880	0.0136235
907.958	0.0134476
908.037	0.0135546
908.115	0.0136482
908.193	0.0136195
908.271	0.0135534
908.349	0.0137219
908.427	0.0137485
908.505	0.0138046
908.583	0.0138282
908.662	0.0136716
908.740	0.0136655
908.818	0.0137868
908.896	0.0137457
908.974	0.0138311
909.052	0.0136730
909.130	0.0137340
909.208	0.0136681
909.287	0.0136427
909.365	0.0136551
909.443	0.0136713
909.521	0.0136710
909.599	0.0137707
909.677	0.0136791
909.755	0.0137469
909.833	0.0135923
909.912	0.0136258
909.990	0.0136555
910.068	0.0135956
910.146	0.0136427
910.224	0.0136633
910.302	0.0137183
910.380	0.0138739
910.458	0.0137734
910.537	0.0138572
910.615	0.0138645
910.693	0.0138139
910.771	0.0138321
910.849	0.0140400
910.927	0.0139318
911.005	0.0139259
911.083	0.0140462
911.162	0.0140875
911.240	0.0140517
911.318	0.0141304
911.396	0.0141308
911.474	0.0141684
911.552	0.0140336
911.630	0.0139880
911.708	0.0139436
911.787	0.0138381
911.865	0.0139718
911.943	0.0138717
912.021	0.0138765
912.099	0.0139502
912.177	0.0139393
912.255	0.0137429
912.333	0.0138482
912.412	0.0137103
912.490	0.0136900
912.568	0.0138053
912.646	0.0138161
912.724	0.0137638
912.802	0.0136715
912.880	0.0136636
912.958	0.0138626
913.037	0.0137576
913.115	0.0137718
913.193	0.0138182
913.271	0.0136054
913.349	0.0137762
913.427	0.0137676
913.505	0.0137134
913.583	0.0136671
913.662	0.0137284
913.740	0.0136411
913.818	0.0137554
913.896	0.0137798
913.974	0.0137541
914.052	0.0138468
914.130	0.0136848
914.208	0.0137534
914.287	0.0137746
914.365	0.0137690
914.443	0.0138531
914.521	0.0138407
914.599	0.0138548
914.677	0.0138733
914.755	0.0139120
914.833	0.0138662
914.912	0.0138409
914.990	0.0139608
915.068	0.0138387
915.146	0.0138573
915.224	0.0138383
915.302	0.0137588
915.380	0.0135197
915.458	0.0136909
915.537	0.0137673
915.615	0.0138637
915.693	0.0135988
915.771	0.0135738
915.849	0.0136575
915.927	0.0137263
916.005	0.0136279
916.083	0.0138416
916.162	0.0138519
916.240	0.0137398
916.318	0.0139433
916.396	0.0138483
916.474	0.0139643
916.552	0.0139233
916.630	0.0139818
916.708	0.0139086
916.787	0.0137874
916.865	0.0139658
916.943	0.0139569
917.021	0.0138649
917.099	0.0139994
917.177	0.0139650
917.255	0.0138599
917.333	0.0137374
917.412	0.0140208
917.490	0.0140708
917.568	0.0138471
917.646	0.0139125
917.724	0.0139203
917.802	0.0138966
917.880	0.0140265
917.958	0.0139441
918.037	0.0139056
918.115	0.0140543
918.193	0.0140312
918.271	0.0140466
918.349	0.0139049
918.427	0.0139501
918.505	0.0139462
918.583	0.0139346
918.662	0.0140109
918.740	0.0139271
918.818	0.0139216
918.896	0.0139113
918.974	0.0137566
919.052	0.0138434
919.130	0.0137888
919.208	0.0138713
919.287	0.0137566
919.365	0.0137248
919.443	0.0138804
919.521	0.0137119
919.599	0.0136646
919.677	0.0138364
919.755	0.0136124
919.833	0.0137167
919.912	0.0136990
919.990	0.0137369
920.068	0.0135534
920.146	0.0135684
920.224	0.0135837
920.302	0.0136370
920.380	0.0136504
920.458	0.0136689
920.537	0.0135821
920.615	0.0136975
920.693	0.0137550
920.771	0.0137997
920.849	0.0136330
920.927	0.0137949
921.005	0.0138191
921.083	0.0138806
921.162	0.0138487
921.240	0.0138827
921.318	0.0140057
921.396	0.0141436
921.474	0.0140748
921.552	0.0142013
921.630	0.0141925
921.708	0.0141174
921.787	0.0140461
921.865	0.0140334
921.943	0.0141378
922.021	0.0139774
922.099	0.0139423
922.177	0.0139842
922.255	0.0140189
922.333	0.0138768
922.412	0.0138477
922.490	0.0137196
922.568	0.0136839
922.646	0.0137334
922.724	0.0138203
922.802	0.0137335
922.880	0.0137361
922.958	0.0137624
923.037	0.0136465
923.115	0.0136108
923.193	0.0137309
923.271	0.0136544
923.349	0.0136172
923.427	0.0136486
923.505	0.0136276
923.583	0.0136203
923.662	0.0136237
923.740	0.0137699
923.818	0.0135947
923.896	0.0135348
923.974	0.0135140
924.052	0.0135780
924.130	0.0137795
924.208	0.0137347
924.287	0.0137790
924.365	0.0138143
924.443	0.0136860
924.521	0.0138048
924.599	0.0139206
924.677	0.0139178
924.755	0.0139774
924.833	0.0139143
924.912	0.0138703
924.990	0.0139813
925.068	0.0139612
925.146	0.0138880
925.224	0.0138682
925.302	0.0139537
925.380	0.0137483
925.458	0.0137524
925.537	0.0137714
925.615	0.0137875
925.693	0.0136888
925.771	0.0136810
925.849	0.0137641
925.927	0.0136597
926.005	0.0137434
926.083	0.0136096
926.162	0.0135841
926.240	0.0136612
926.318	0.0136702
926.396	0.0136324
926.474	0.0134846
926.552	0.0135309
926.630	0.0136354
926.708	0.0135069
926.787	0.0134680
926.865	0.0136800
926.943	0.0136835
927.021	0.0135218
927.099	0.0138207
927.177	0.0136662
927.255	0.0137469
927.333	0.0139205
927.412	0.0139086
927.490	0.0138699
927.568	0.0139743
927.646	0.0138566
927.724	0.0140031
927.802	0.0140070
927.880	0.0140847
927.958	0.0140984
928.037	0.0141135
928.115	0.0139714
928.193	0.0138087
928.271	0.0139531
928.349	0.0139827
928.427	0.0139258
928.505	0.0139400
928.583	0.0139563
928.662	0.0139104
928.740	0.0137111
928.818	0.0137673
928.896	0.0137817
928.974	0.0136463
929.052	0.0137329
929.130	0.0137296
929.208	0.0136900
929.287	0.0137398
929.365	0.0136958
929.443	0.0137446
929.521	0.0137247
929.599	0.0136952
929.677	0.0137169
929.755	0.0137952
929.833	0.0137575
929.912	0.0139404
929.990	0.0139231
930.068	0.0138700
930.146	0.0138767
930.224	0.0138942
930.302	0.0138682
930.380	0.0138425
930.458	0.0139508
930.537	0.0139078
930.615	0.0139483
930.693	0.0139714
930.771	0.0141222
930.849	0.0138340
930.927	0.0139320
931.005	0.0138245
931.083	0.0138517
931.162	0.0137612
931.240	0.0138848
931.318	0.0137468
931.396	0.0137842
931.474	0.0137994
931.552	0.0138032
931.630	0.0138026
931.708	0.0137254
931.787	0.0136743
931.865	0.0137152
931.943	0.0136899
932.021	0.0136165
932.099	0.0137740
932.177	0.0136871
932.255	0.0136430
932.333	0.0137061
932.412	0.0137276
932.490	0.0136419
932.568	0.0137143
932.646	0.0135838
932.724	0.0137992
932.802	0.0137418
932.880	0.0137992
932.958	0.0138390
933.037	0.0137949
933.115	0.0138145
933.193	0.0138811
933.271	0.0139868
933.349	0.0136436
933.427	0.0139339
933.505	0.0138792
933.583	0.0140034
933.662	0.0140730
933.740	0.0139755
933.818	0.0139353
933.896	0.0139703
933.974	0.0140812
934.052	0.0140160
934.130	0.0139677
934.208	0.0139783
934.287	0.0142184
934.365	0.0140688
934.443	0.0140965
934.521	0.0140541
934.599	0.0141006
934.677	0.0139185
934.755	0.0140561
934.833	0.0139293
934.912	0.0139204
934.990	0.0140520
935.068	0.0139257
935.146	0.0140639
935.224	0.0139597
935.302	0.0138183
935.380	0.0137671
935.458	0.0137347
935.537	0.0136988
935.615	0.0137076
935.693	0.0136717
935.771	0.0135258
935.849	0.0136742
935.927	0.0135596
936.005	0.0136879
936.083	0.0135757
936.162	0.0135498
936.240	0.0135998
936.318	0.0138536
936.396	0.0139182
936.474	0.0138969
936.552	0.0137350
936.630	0.0138100
936.708	0.0137984
936.787	0.0138826
936.865	0.0138600
936.943	0.0138128
937.021	0.0136873
937.099	0.0138728
937.177	0.0138747
937.255	0.0137206
937.333	0.0138196
937.412	0.0138086
937.490	0.0138680
937.568	0.0137146
937.646	0.0137550
937.724	0.0138815
937.802	0.0137273
937.880	0.0136961
937.958	0.0136913
938.037	0.0136339
938.115	0.0138406
938.193	0.0136075
938.271	0.0137050
938.349	0.0137177
938.427	0.0136310
938.505	0.0137562
938.583	0.0137378
938.662	0.0136071
938.740	0.0136543
938.818	0.0136082
938.896	0.0138462
938.974	0.0137286
939.052	0.0137485
939.130	0.0137156
939.208	0.0139128
939.287	0.0138995
939.365	0.0138845
939.443	0.0139249
939.521	0.0139164
939.599	0.0137940
939.677	0.0139064
939.755	0.0140878
939.833	0.0139996
939.912	0.0140179
939.990	0.0140260
940.068	0.0139636
940.146	0.0139379
940.224	0.0140944
940.302	0.0139393
940.380	0.0138941
940.458	0.0139799
940.537	0.0140251
940.615	0.0140429
940.693	0.0141604
940.771	0.0140142
940.849	0.0140246
940.927	0.0139608
941.005	0.0138765
941.083	0.0139027
941.162	0.0139434
941.240	0.0138177
941.318	0.0137881
941.396	0.0137916
941.474	0.0135737
941.552	0.0136958
941.630	0.0137230
941.708	0.0136977
941.787	0.0136079
941.865	0.0137644
941.943	0.0136452
942.021	0.0137008
942.099	0.0136727
942.177	0.0137570
942.255	0.0139418
942.333	0.0138451
942.412	0.0139030
942.490	0.0136863
942.568	0.0139353
942.646	0.0139917
942.724	0.0139082
942.802	0.0139059
942.880	0.0140063
942.958	0.0139065
943.037	0.0137906
943.115	0.0138882
943.193	0.0138856
943.271	0.0138373
943.349	0.0138186
943.427	0.0138706
943.505	0.0137828
943.583	0.0137791
943.662	0.0138267
943.740	0.0138480
943.818	0.0138294
943.896	0.0137343
943.974	0.0136264
944.052	0.0135349
944.130	0.0136982
944.208	0.0136322
944.287	0.0136201
944.365	0.0136937
944.443	0.0137475
944.521	0.0136670
944.599	0.0136980
944.677	0.0137277
944.755	0.0137203
944.833	0.0135699
944.912	0.0137157
944.990	0.0137630
945.068	0.0138408
945.146	0.0137704
945.224	0.0137428
945.302	0.0138602
945.380	0.0138525
945.458	0.0137506
945.537	0.0138428
945.615	0.0140139
945.693	0.0139311
945.771	0.0138681
945.849	0.0140016
945.927	0.0139511
946.005	0.0140043
946.083	0.0139883
946.162	0.0139240
946.240	0.0140596
946.318	0.0139427
946.396	0.0140302
946.474	0.0139169
946.552	0.0138691
946.630	0.0139746
946.708	0.0138789
946.787	0.0138235
946.865	0.0138815
946.943	0.0137706
947.021	0.0137931
947.099	0.0138937
947.177	0.0139399
947.255	0.0139267
947.333	0.0138701
947.412	0.0138554
947.490	0.0138007
947.568	0.0137882
947.646	0.0136722
947.724	0.0138580
947.802	0.0138190
947.880	0.0137430
947.958	0.0138065
948.037	0.0139256
948.115	0.0137552
948.193	0.0137827
948.271	0.0138414
948.349	0.0138186
948.427	0.0138283
948.505	0.0137874
948.583	0.0138751
948.662	0.0138644
948.740	0.0139360
948.818	0.0139211
948.896	0.0137956
948.974	0.0139853
949.052	0.0140247
949.130	0.0138823
949.208	0.0139886
949.287	0.0140711
949.365	0.0139179
949.443	0.0139477
949.521	0.0139283
949.599	0.0139678
949.677	0.0138869
949.755	0.0140071
949.833	0.0140929
949.912	0.0139103
949.990	0.0137708
950.068	0.0138586
950.146	0.0137912
950.224	0.0137785
950.302	0.0137637
950.380	0.0136046
950.458	0.0137639
950.537	0.0138141
950.615	0.0136993
950.693	0.0136284
950.771	0.0136485
950.849	0.0137092
950.927	0.0137601
951.005	0.0135698
951.083	0.0135777
951.162	0.0137474
951.240	0.0137254
951.318	0.0139288
951.396	0.0139014
951.474	0.0138161
951.552	0.0138792
951.630	0.0138615
951.708	0.0139056
951.787	0.0138450
951.865	0.0139841
951.943	0.0141138
952.021	0.0139326
952.099	0.0140401
952.177	0.0140546
952.255	0.0139563
952.333	0.0140269
952.412	0.0140186
952.490	0.0140414
952.568	0.0139904
952.646	0.0140735
952.724	0.0139041
952.802	0.0140125
952.880	0.0141342
952.958	0.0138554
953.037	0.0139891
953.115	0.0139260
953.193	0.0139190
953.271	0.0139106
953.349	0.0137730
953.427	0.0137463
953.505	0.0139025
953.583	0.0138239
953.662	0.0138572
953.740	0.0140140
953.818	0.0138876
953.896	0.0139304
953.974	0.0138753
954.052	0.0139118
954.130	0.0138647
954.208	0.0139682
954.287	0.0139123
954.365	0.0140477
954.443	0.0140070
954.521	0.0139893
954.599	0.0139865
954.677	0.0139577
954.755	0.0137659
954.833	0.0137492
954.912	0.0136572
954.990	0.0137501
955.068	0.0138164
955.146	0.0136263
955.224	0.0138561
955.302	0.0136540
955.380	0.0138969
955.458	0.0137527
955.537	0.0137415
955.615	0.0137849
955.693	0.0137905
955.771	0.0138801
955.849	0.0138389
955.927	0.0138138
956.005	0.0140172
956.083	0.0137913
956.162	0.0138509
956.240	0.0138156
956.318	0.0139434
956.396	0.0138669
956.474	0.0138498
956.552	0.0137914
956.630	0.0139145
956.708	0.0140003
956.787	0.0138760
956.865	0.0139006
956.943	0.0137824
957.021	0.0139359
957.099	0.0140321
957.177	0.0140209
957.255	0.0140531
957.333	0.0139262
957.412	0.0139178
957.490	0.0138266
957.568	0.0138792
957.646	0.0140239
957.724	0.0139909
957.802	0.0140159
957.880	0.0140842
957.958	0.0141301
958.037	0.0140541
958.115	0.0139124
958.193	0.0139545
958.271	0.0139840
958.349	0.0139450
958.427	0.0139061
958.505	0.0138601
958.583	0.0138239
958.662	0.0137930
958.740	0.0138384
958.818	0.0137411
958.896	0.0137875
958.974	0.0138475
959.052	0.0138494
959.130	0.0136818
959.208	0.0139119
959.287	0.0138942
959.365	0.0137829
959.443	0.0138223
959.521	0.0138910
959.599	0.0139213
959.677	0.0139566
959.755	0.0138584
959.833	0.0138957
959.912	0.0139307
959.990	0.0138654
960.068	0.0138627
960.146	0.0138786
960.224	0.0138946
960.302	0.0137685
960.380	0.0138360
960.458	0.0137524
960.537	0.0138674
960.615	0.0137126
960.693	0.0137122
960.771	0.0137531
960.849	0.0137864
960.927	0.0137148
961.005	0.0136935
961.083	0.0138133
961.162	0.0138211
961.240	0.0136845
961.318	0.0137251
961.396	0.0137445
961.474	0.0139334
961.552	0.0138326
961.630	0.0139000
961.708	0.0138866
961.787	0.0138159
961.865	0.0139195
961.943	0.0139851
962.021	0.0137917
962.099	0.0137208
962.177	0.0138888
962.255	0.0139381
962.333	0.0137239
962.412	0.0137509
962.490	0.0138482
962.568	0.0138290
962.646	0.0139024
962.724	0.0139365
962.802	0.0140944
962.880	0.0141071
962.958	0.0140325
963.037	0.0141344
963.115	0.0140656
963.193	0.0140025
963.271	0.0141051
963.349	0.0139120
963.427	0.0140100
963.505	0.0139217
963.583	0.0137726
963.662	0.0137339
963.740	0.0136061
963.818	0.0136416
963.896	0.0137893
963.974	0.0137647
964.052	0.0136906
964.130	0.0136908
964.208	0.0136403
964.287	0.0135818
964.365	0.0137231
964.443	0.0136956
964.521	0.0137431
964.599	0.0137918
964.677	0.0137176
964.755	0.0138500
964.833	0.0137757
964.912	0.0138515
964.990	0.0139892
965.068	0.0138911
965.146	0.0139729
965.224	0.0137579
965.302	0.0137785
965.380	0.0138740
965.458	0.0137765
965.537	0.0137562
965.615	0.0138248
965.693	0.0136890
965.771	0.0137225
965.849	0.0136550
965.927	0.0136765
966.005	0.0138488
966.083	0.0137341
966.162	0.0136758
966.240	0.0137994
966.318	0.0138922
966.396	0.0138713
966.474	0.0137076
966.552	0.0139182
966.630	0.0139220
966.708	0.0138983
966.787	0.0140754
966.865	0.0141103
966.943	0.0139259
967.021	0.0139316
967.099	0.0139879
967.177	0.0140149
967.255	0.0140658
967.333	0.0140375
967.412	0.0141286
967.490	0.0141288
967.568	0.0139798
967.646	0.0140928
967.724	0.0140282
967.802	0.0141382
967.880	0.0139806
967.958	0.0141071
968.037	0.0141702
968.115	0.0140900
968.193	0.0139713
968.271	0.0139615
968.349	0.0139346
968.427	0.0139239
968.505	0.0139463
968.583	0.0137067
968.662	0.0137089
968.740	0.0137709
968.818	0.0137913
968.896	0.0137534
968.974	0.0137159
969.052	0.0135584
969.130	0.0135777
969.208	0.0136444
969.287	0.0136781
969.365	0.0135369
969.443	0.0135356
969.521	0.0136561
969.599	0.0135666
969.677	0.0135468
969.755	0.0136485
969.833	0.0137102
969.912	0.0138296
