05/08/2022	19:54:05	Ver.	4.1	UNKNOWN
Optical Delay	649.989667	Delta X		0.078125	Sweeps	1	Scan Rate	0/0
Coordinates	Axis 1	NaN	Axis 2	NaN	Axis 3	NaN	Axis 4	NaN	Axis 5	NaN	Axis 6	0.000000
TX Power	0.000000	RX Power	0.000000

649.990	0.0139249
650.068	0.0138076
650.146	0.0139603
650.224	0.0138804
650.302	0.0138019
650.380	0.0138089
650.458	0.0139002
650.537	0.0139931
650.615	0.0138683
650.693	0.0137252
650.771	0.0137994
650.849	0.0137753
650.927	0.0138853
651.005	0.0139832
651.083	0.0139938
651.162	0.0140604
651.240	0.0139521
651.318	0.0138301
651.396	0.0139085
651.474	0.0138853
651.552	0.0138752
651.630	0.0140213
651.708	0.0141128
651.787	0.0138445
651.865	0.0137371
651.943	0.0138948
652.021	0.0139613
652.099	0.0139254
652.177	0.0138451
652.255	0.0140128
652.333	0.0139442
652.412	0.0138101
652.490	0.0139402
652.568	0.0139117
652.646	0.0139531
652.724	0.0138995
652.802	0.0138662
652.880	0.0139320
652.958	0.0138205
653.037	0.0139852
653.115	0.0138611
653.193	0.0138309
653.271	0.0138080
653.349	0.0138138
653.427	0.0139973
653.505	0.0139586
653.583	0.0138747
653.662	0.0138643
653.740	0.0138091
653.818	0.0137540
653.896	0.0137977
653.974	0.0139424
654.052	0.0139379
654.130	0.0139252
654.208	0.0139278
654.287	0.0139716
654.365	0.0138960
654.443	0.0137982
654.521	0.0138029
654.599	0.0137555
654.677	0.0138930
654.755	0.0139192
654.833	0.0137547
654.912	0.0139542
654.990	0.0140241
655.068	0.0138498
655.146	0.0139011
655.224	0.0139400
655.302	0.0140957
655.380	0.0137548
655.458	0.0139953
655.537	0.0140077
655.615	0.0139664
655.693	0.0139419
655.771	0.0138815
655.849	0.0138216
655.927	0.0138204
656.005	0.0139980
656.083	0.0139034
656.162	0.0139911
656.240	0.0138383
656.318	0.0139661
656.396	0.0138648
656.474	0.0138831
656.552	0.0139415
656.630	0.0139336
656.708	0.0140589
656.787	0.0139690
656.865	0.0138098
656.943	0.0140079
657.021	0.0139468
657.099	0.0139575
657.177	0.0138841
657.255	0.0140056
657.333	0.0138724
657.412	0.0140041
657.490	0.0139858
657.568	0.0140128
657.646	0.0138715
657.724	0.0139076
657.802	0.0139537
657.880	0.0138866
657.958	0.0138447
658.037	0.0138262
658.115	0.0138147
658.193	0.0139027
658.271	0.0137702
658.349	0.0137729
658.427	0.0137947
658.505	0.0139985
658.583	0.0138428
658.662	0.0138388
658.740	0.0137904
658.818	0.0138940
658.896	0.0138956
658.974	0.0139568
659.052	0.0139789
659.130	0.0140300
659.208	0.0141681
659.287	0.0141900
659.365	0.0141803
659.443	0.0142236
659.521	0.0142188
659.599	0.0142381
659.677	0.0140871
659.755	0.0140012
659.833	0.0138555
659.912	0.0138322
659.990	0.0136893
660.068	0.0136069
660.146	0.0133894
660.224	0.0133249
660.302	0.0134293
660.380	0.0134492
660.458	0.0132990
660.537	0.0134024
660.615	0.0133636
660.693	0.0134763
660.771	0.0134666
660.849	0.0136715
660.927	0.0138221
661.005	0.0138364
661.083	0.0138361
661.162	0.0140583
661.240	0.0141671
661.318	0.0142404
661.396	0.0143163
661.474	0.0144734
661.552	0.0145108
661.630	0.0146434
661.708	0.0145591
661.787	0.0144868
661.865	0.0145399
661.943	0.0144495
662.021	0.0144060
662.099	0.0142239
662.177	0.0141322
662.255	0.0140752
662.333	0.0140831
662.412	0.0138950
662.490	0.0138225
662.568	0.0137151
662.646	0.0135567
662.724	0.0132481
662.802	0.0131313
662.880	0.0129395
662.958	0.0128580
663.037	0.0127878
663.115	0.0124784
663.193	0.0127306
663.271	0.0126991
663.349	0.0127454
663.427	0.0128432
663.505	0.0130006
663.583	0.0133315
663.662	0.0137142
663.740	0.0138853
663.818	0.0142070
663.896	0.0145431
663.974	0.0145277
664.052	0.0150957
664.130	0.0151186
664.208	0.0153172
664.287	0.0154956
664.365	0.0154875
664.443	0.0155145
664.521	0.0155170
664.599	0.0154531
664.677	0.0151962
664.755	0.0148888
664.833	0.0148820
664.912	0.0147018
664.990	0.0140473
665.068	0.0139038
665.146	0.0136890
665.224	0.0133199
665.302	0.0131778
665.380	0.0129440
665.458	0.0127309
665.537	0.0125101
665.615	0.0122569
665.693	0.0121745
665.771	0.0120553
665.849	0.0120871
665.927	0.0119530
666.005	0.0119199
666.083	0.0122672
666.162	0.0124573
666.240	0.0124752
666.318	0.0129259
666.396	0.0129662
666.474	0.0133231
666.552	0.0135414
666.630	0.0138443
666.708	0.0140816
666.787	0.0141327
666.865	0.0144346
666.943	0.0146523
667.021	0.0151754
667.099	0.0152848
667.177	0.0154818
667.255	0.0156178
667.333	0.0157710
667.412	0.0159594
667.490	0.0161896
667.568	0.0162259
667.646	0.0160542
667.724	0.0160806
667.802	0.0158566
667.880	0.0156917
667.958	0.0153336
668.037	0.0148914
668.115	0.0145224
668.193	0.0139553
668.271	0.0133871
668.349	0.0129955
668.427	0.0125224
668.505	0.0120712
668.583	0.0118448
668.662	0.0114413
668.740	0.0112266
668.818	0.0110954
668.896	0.0111233
668.974	0.0113773
669.052	0.0116705
669.130	0.0117394
669.208	0.0122536
669.287	0.0126141
669.365	0.0129057
669.443	0.0133636
669.521	0.0139243
669.599	0.0142022
669.677	0.0145937
669.755	0.0151176
669.833	0.0153844
669.912	0.0158061
669.990	0.0159933
670.068	0.0160889
670.146	0.0160794
670.224	0.0161188
670.302	0.0159158
670.380	0.0156403
670.458	0.0155031
670.537	0.0150207
670.615	0.0147390
670.693	0.0142870
670.771	0.0139673
670.849	0.0135688
670.927	0.0130653
671.005	0.0128442
671.083	0.0127927
671.162	0.0126660
671.240	0.0126689
671.318	0.0126437
671.396	0.0127513
671.474	0.0128155
671.552	0.0128819
671.630	0.0129880
671.708	0.0130619
671.787	0.0132394
671.865	0.0135648
671.943	0.0135476
672.021	0.0133933
672.099	0.0136424
672.177	0.0138623
672.255	0.0137779
672.333	0.0141528
672.412	0.0143339
672.490	0.0146131
672.568	0.0146687
672.646	0.0151288
672.724	0.0154505
672.802	0.0156033
672.880	0.0159371
672.958	0.0162745
673.037	0.0162424
673.115	0.0162743
673.193	0.0162401
673.271	0.0160715
673.349	0.0157784
673.427	0.0154839
673.505	0.0148734
673.583	0.0145348
673.662	0.0139784
673.740	0.0135055
673.818	0.0131679
673.896	0.0124989
673.974	0.0120660
674.052	0.0115755
674.130	0.0114325
674.208	0.0111147
674.287	0.0107921
674.365	0.0105534
674.443	0.0105498
674.521	0.0103656
674.599	0.0102721
674.677	0.0106222
674.755	0.0106647
674.833	0.0111297
674.912	0.0113425
674.990	0.0117860
675.068	0.0124552
675.146	0.0129230
675.224	0.0135506
675.302	0.0141082
675.380	0.0146014
675.458	0.0152077
675.537	0.0157418
675.615	0.0161626
675.693	0.0168218
675.771	0.0172700
675.849	0.0174812
675.927	0.0178024
676.005	0.0181193
676.083	0.0181435
676.162	0.0179520
676.240	0.0181197
676.318	0.0180949
676.396	0.0179420
676.474	0.0176026
676.552	0.0172803
676.630	0.0168571
676.708	0.0163223
676.787	0.0158435
676.865	0.0152007
676.943	0.0146283
677.021	0.0138377
677.099	0.0131477
677.177	0.0124493
677.255	0.0118176
677.333	0.0113509
677.412	0.0110180
677.490	0.0104745
677.568	0.0100319
677.646	0.00993767
677.724	0.00967644
677.802	0.00954063
677.880	0.00940872
677.958	0.00958549
678.037	0.00961220
678.115	0.00980202
678.193	0.0100797
678.271	0.0105946
678.349	0.0109286
678.427	0.0115603
678.505	0.0122105
678.583	0.0128016
678.662	0.0135903
678.740	0.0142358
678.818	0.0146868
678.896	0.0154612
678.974	0.0159109
679.052	0.0162986
679.130	0.0164896
679.208	0.0165981
679.287	0.0167108
679.365	0.0166051
679.443	0.0164382
679.521	0.0161366
679.599	0.0157796
679.677	0.0152884
679.755	0.0151318
679.833	0.0148243
679.912	0.0144273
679.990	0.0141493
680.068	0.0138635
680.146	0.0136870
680.224	0.0136920
680.302	0.0137629
680.380	0.0139830
680.458	0.0140395
680.537	0.0142552
680.615	0.0143864
680.693	0.0146324
680.771	0.0150166
680.849	0.0152232
680.927	0.0154880
681.005	0.0156270
681.083	0.0156707
681.162	0.0157789
681.240	0.0157214
681.318	0.0156736
681.396	0.0155984
681.474	0.0154006
681.552	0.0152367
681.630	0.0146753
681.708	0.0142652
681.787	0.0139031
681.865	0.0134300
681.943	0.0131924
682.021	0.0127556
682.099	0.0122396
682.177	0.0120251
682.255	0.0118184
682.333	0.0114759
682.412	0.0113413
682.490	0.0113454
682.568	0.0111091
682.646	0.0110663
682.724	0.0110561
682.802	0.0111504
682.880	0.0110491
682.958	0.0111997
683.037	0.0112563
683.115	0.0113878
683.193	0.0114852
683.271	0.0114876
683.349	0.0118831
683.427	0.0119347
683.505	0.0125807
683.583	0.0128905
683.662	0.0133669
683.740	0.0137239
683.818	0.0142892
683.896	0.0147617
683.974	0.0150526
684.052	0.0155009
684.130	0.0158172
684.208	0.0160646
684.287	0.0164204
684.365	0.0163902
684.443	0.0163688
684.521	0.0164330
684.599	0.0164297
684.677	0.0164861
684.755	0.0165361
684.833	0.0167144
684.912	0.0166809
684.990	0.0165717
685.068	0.0165907
685.146	0.0164642
685.224	0.0163412
685.302	0.0160750
685.380	0.0156075
685.458	0.0152371
685.537	0.0146912
685.615	0.0142123
685.693	0.0136425
685.771	0.0131484
685.849	0.0126973
685.927	0.0122492
686.005	0.0119299
686.083	0.0118677
686.162	0.0117482
686.240	0.0117661
686.318	0.0117580
686.396	0.0119019
686.474	0.0120668
686.552	0.0123542
686.630	0.0125203
686.708	0.0127678
686.787	0.0131828
686.865	0.0133516
686.943	0.0135343
687.021	0.0138229
687.099	0.0140569
687.177	0.0141837
687.255	0.0144170
687.333	0.0144900
687.412	0.0145007
687.490	0.0146062
687.568	0.0144534
687.646	0.0144575
687.724	0.0142753
687.802	0.0140408
687.880	0.0138091
687.958	0.0135080
688.037	0.0132652
688.115	0.0130056
688.193	0.0128351
688.271	0.0126858
688.349	0.0125518
688.427	0.0124159
688.505	0.0124234
688.583	0.0124089
688.662	0.0123605
688.740	0.0123849
688.818	0.0122209
688.896	0.0121577
688.974	0.0122440
689.052	0.0124407
689.130	0.0125041
689.208	0.0124285
689.287	0.0125801
689.365	0.0130047
689.443	0.0132255
689.521	0.0135372
689.599	0.0139308
689.677	0.0142038
689.755	0.0145104
689.833	0.0149708
689.912	0.0151891
689.990	0.0155231
690.068	0.0156678
690.146	0.0160321
690.224	0.0163291
690.302	0.0165958
690.380	0.0167289
690.458	0.0169197
690.537	0.0169348
690.615	0.0170677
690.693	0.0172674
690.771	0.0172791
690.849	0.0171750
690.927	0.0169517
691.005	0.0168204
691.083	0.0165994
691.162	0.0163906
691.240	0.0159819
691.318	0.0155669
691.396	0.0151271
691.474	0.0146744
691.552	0.0141212
691.630	0.0136040
691.708	0.0131554
691.787	0.0128014
691.865	0.0123550
691.943	0.0121296
692.021	0.0119768
692.099	0.0116476
692.177	0.0114561
692.255	0.0114877
692.333	0.0113561
692.412	0.0113070
692.490	0.0113657
692.568	0.0112304
692.646	0.0112553
692.724	0.0114394
692.802	0.0112718
692.880	0.0112193
692.958	0.0112736
693.037	0.0113871
693.115	0.0114943
693.193	0.0115492
693.271	0.0116165
693.349	0.0117731
693.427	0.0119483
693.505	0.0120122
693.583	0.0123335
693.662	0.0125299
693.740	0.0127200
693.818	0.0130053
693.896	0.0131499
693.974	0.0132322
694.052	0.0135361
694.130	0.0138058
694.208	0.0140328
694.287	0.0141637
694.365	0.0144594
694.443	0.0146864
694.521	0.0147480
694.599	0.0150378
694.677	0.0151234
694.755	0.0154983
694.833	0.0158469
694.912	0.0159377
694.990	0.0162150
695.068	0.0165569
695.146	0.0169666
695.224	0.0171444
695.302	0.0176897
695.380	0.0179076
695.458	0.0181911
695.537	0.0183975
695.615	0.0183432
695.693	0.0183776
695.771	0.0182330
695.849	0.0180624
695.927	0.0176141
696.005	0.0172913
696.083	0.0167276
696.162	0.0161396
696.240	0.0154916
696.318	0.0149279
696.396	0.0142088
696.474	0.0136012
696.552	0.0131155
696.630	0.0124758
696.708	0.0118825
696.787	0.0115946
696.865	0.0110683
696.943	0.0106130
697.021	0.0103033
697.099	0.00999763
697.177	0.00974258
697.255	0.00962120
697.333	0.00965309
697.412	0.00949684
697.490	0.00957932
697.568	0.00978043
697.646	0.00986755
697.724	0.0101188
697.802	0.0104744
697.880	0.0105637
697.958	0.0109952
698.037	0.0113661
698.115	0.0117154
698.193	0.0121257
698.271	0.0125887
698.349	0.0132785
698.427	0.0135659
698.505	0.0141103
698.583	0.0146375
698.662	0.0152417
698.740	0.0155113
698.818	0.0160130
698.896	0.0163568
698.974	0.0167100
699.052	0.0169443
699.130	0.0171833
699.208	0.0172262
699.287	0.0171143
699.365	0.0170798
699.443	0.0168118
699.521	0.0165595
699.599	0.0163268
699.677	0.0160432
699.755	0.0155647
699.833	0.0153184
699.912	0.0148877
699.990	0.0145607
700.068	0.0141714
700.146	0.0139133
700.224	0.0138531
700.302	0.0134338
700.380	0.0131611
700.458	0.0130788
700.537	0.0128594
700.615	0.0129411
700.693	0.0129842
700.771	0.0127603
700.849	0.0126733
700.927	0.0126973
701.005	0.0127877
701.083	0.0127959
701.162	0.0129117
701.240	0.0129888
701.318	0.0132487
701.396	0.0134915
701.474	0.0135317
701.552	0.0138031
701.630	0.0138768
701.708	0.0141985
701.787	0.0144585
701.865	0.0144367
701.943	0.0145908
702.021	0.0147703
702.099	0.0148670
702.177	0.0150538
702.255	0.0150959
702.333	0.0151044
702.412	0.0152179
702.490	0.0152820
702.568	0.0153580
702.646	0.0154166
702.724	0.0153619
702.802	0.0155235
702.880	0.0153437
702.958	0.0150585
703.037	0.0148839
703.115	0.0144534
703.193	0.0140190
703.271	0.0135822
703.349	0.0130021
703.427	0.0125872
703.505	0.0121920
703.583	0.0117329
703.662	0.0114224
703.740	0.0109686
703.818	0.0108692
703.896	0.0108082
703.974	0.0107689
704.052	0.0106661
704.130	0.0109267
704.208	0.0110600
704.287	0.0114217
704.365	0.0114476
704.443	0.0119438
704.521	0.0122569
704.599	0.0124822
704.677	0.0128622
704.755	0.0132434
704.833	0.0136630
704.912	0.0140768
704.990	0.0144801
705.068	0.0147822
705.146	0.0152147
705.224	0.0154570
705.302	0.0156969
705.380	0.0159801
705.458	0.0162573
705.537	0.0164605
705.615	0.0163484
705.693	0.0162802
705.771	0.0161816
705.849	0.0160799
705.927	0.0159574
706.005	0.0156712
706.083	0.0155193
706.162	0.0154244
706.240	0.0149345
706.318	0.0147575
706.396	0.0145970
706.474	0.0144104
706.552	0.0140842
706.630	0.0139129
706.708	0.0136393
706.787	0.0134850
706.865	0.0133595
706.943	0.0133746
707.021	0.0134253
707.099	0.0133884
707.177	0.0135682
707.255	0.0136964
707.333	0.0139349
707.412	0.0143068
707.490	0.0144600
707.568	0.0144974
707.646	0.0148209
707.724	0.0151913
707.802	0.0153459
707.880	0.0153607
707.958	0.0154472
708.037	0.0154415
708.115	0.0150743
708.193	0.0149193
708.271	0.0147378
708.349	0.0142146
708.427	0.0136648
708.505	0.0132925
708.583	0.0127615
708.662	0.0123563
708.740	0.0121149
708.818	0.0118621
708.896	0.0116752
708.974	0.0114108
709.052	0.0113228
709.130	0.0114056
709.208	0.0114336
709.287	0.0116483
709.365	0.0117519
709.443	0.0120165
709.521	0.0121585
709.599	0.0123564
709.677	0.0125620
709.755	0.0128722
709.833	0.0129523
709.912	0.0131791
709.990	0.0134180
710.068	0.0134243
710.146	0.0137759
710.224	0.0139277
710.302	0.0140761
710.380	0.0143649
710.458	0.0145295
710.537	0.0147721
710.615	0.0151250
710.693	0.0151320
710.771	0.0153741
710.849	0.0157594
710.927	0.0158607
711.005	0.0161448
711.083	0.0161770
711.162	0.0162682
711.240	0.0163116
711.318	0.0162292
711.396	0.0160670
711.474	0.0161052
711.552	0.0159242
711.630	0.0155936
711.708	0.0152457
711.787	0.0150731
711.865	0.0148569
711.943	0.0143945
712.021	0.0140226
712.099	0.0137245
712.177	0.0134614
712.255	0.0132333
712.333	0.0129034
712.412	0.0126381
712.490	0.0124586
712.568	0.0123898
712.646	0.0123263
712.724	0.0122180
712.802	0.0122906
712.880	0.0123245
712.958	0.0124590
713.037	0.0124590
713.115	0.0126704
713.193	0.0126629
713.271	0.0128115
713.349	0.0131187
713.427	0.0130561
713.505	0.0133220
713.583	0.0135262
713.662	0.0136434
713.740	0.0138167
713.818	0.0139837
713.896	0.0142974
713.974	0.0145865
714.052	0.0147827
714.130	0.0148859
714.208	0.0152087
714.287	0.0151518
714.365	0.0153300
714.443	0.0151686
714.521	0.0152209
714.599	0.0150476
714.677	0.0149651
714.755	0.0149171
714.833	0.0147501
714.912	0.0146648
714.990	0.0146995
715.068	0.0142860
715.146	0.0140733
715.224	0.0139948
715.302	0.0137902
715.380	0.0135399
715.458	0.0133379
715.537	0.0131842
715.615	0.0130518
715.693	0.0128227
715.771	0.0125974
715.849	0.0126374
715.927	0.0127802
716.005	0.0126546
716.083	0.0125941
716.162	0.0126445
716.240	0.0128148
716.318	0.0130757
716.396	0.0130891
716.474	0.0132981
716.552	0.0133627
716.630	0.0134773
716.708	0.0136591
716.787	0.0138293
716.865	0.0137903
716.943	0.0138364
717.021	0.0139131
717.099	0.0141246
717.177	0.0141210
717.255	0.0141093
717.333	0.0144214
717.412	0.0145059
717.490	0.0144445
717.568	0.0146064
717.646	0.0145891
717.724	0.0146103
717.802	0.0144823
717.880	0.0144614
717.958	0.0143128
718.037	0.0144740
718.115	0.0144299
718.193	0.0140824
718.271	0.0141145
718.349	0.0140992
718.427	0.0140849
718.505	0.0140755
718.583	0.0140105
718.662	0.0137611
718.740	0.0140175
718.818	0.0139902
718.896	0.0139477
718.974	0.0139226
719.052	0.0138387
719.130	0.0138424
719.208	0.0138771
719.287	0.0137928
719.365	0.0135606
719.443	0.0135821
719.521	0.0134510
719.599	0.0134377
719.677	0.0133813
719.755	0.0133992
719.833	0.0135104
719.912	0.0135359
719.990	0.0136475
720.068	0.0137760
720.146	0.0140861
720.224	0.0142839
720.302	0.0143161
720.380	0.0143435
720.458	0.0146138
720.537	0.0148486
720.615	0.0147836
720.693	0.0146943
720.771	0.0147874
720.849	0.0147663
720.927	0.0145697
721.005	0.0144633
721.083	0.0143735
721.162	0.0142763
721.240	0.0140887
721.318	0.0139900
721.396	0.0140491
721.474	0.0138519
721.552	0.0135738
721.630	0.0135957
721.708	0.0135210
721.787	0.0137049
721.865	0.0135529
721.943	0.0134776
722.021	0.0134547
722.099	0.0133778
722.177	0.0133650
722.255	0.0134539
722.333	0.0132531
722.412	0.0131845
722.490	0.0131918
722.568	0.0130444
722.646	0.0129542
722.724	0.0128931
722.802	0.0127878
722.880	0.0128192
722.958	0.0128495
723.037	0.0128613
723.115	0.0128143
723.193	0.0129752
723.271	0.0131501
723.349	0.0133936
723.427	0.0136295
723.505	0.0137965
723.583	0.0139735
723.662	0.0141268
723.740	0.0142246
723.818	0.0143697
723.896	0.0145552
723.974	0.0145761
724.052	0.0145123
724.130	0.0143007
724.208	0.0144672
724.287	0.0143100
724.365	0.0140390
724.443	0.0139490
724.521	0.0139442
724.599	0.0139081
724.677	0.0139043
724.755	0.0139449
724.833	0.0140125
724.912	0.0140371
724.990	0.0142488
725.068	0.0142605
725.146	0.0143666
725.224	0.0146000
725.302	0.0148280
725.380	0.0148688
725.458	0.0147911
725.537	0.0148134
725.615	0.0148171
725.693	0.0145406
725.771	0.0144413
725.849	0.0144483
725.927	0.0140181
726.005	0.0137686
726.083	0.0136091
726.162	0.0134178
726.240	0.0131635
726.318	0.0131916
726.396	0.0127906
726.474	0.0128421
726.552	0.0129100
726.630	0.0130769
726.708	0.0132655
726.787	0.0133663
726.865	0.0136729
726.943	0.0140995
727.021	0.0140815
727.099	0.0143792
727.177	0.0145435
727.255	0.0145856
727.333	0.0148154
727.412	0.0147604
727.490	0.0146502
727.568	0.0146412
727.646	0.0145946
727.724	0.0143043
727.802	0.0141251
727.880	0.0140545
727.958	0.0137495
728.037	0.0137453
728.115	0.0135162
728.193	0.0135785
728.271	0.0135058
728.349	0.0134093
728.427	0.0134427
728.505	0.0133576
728.583	0.0132349
728.662	0.0133919
728.740	0.0133147
728.818	0.0133508
728.896	0.0133202
728.974	0.0133089
729.052	0.0132588
729.130	0.0131487
729.208	0.0131569
729.287	0.0130053
729.365	0.0132047
729.443	0.0129898
729.521	0.0128612
729.599	0.0129951
729.677	0.0130074
729.755	0.0129368
729.833	0.0130445
729.912	0.0131115
729.990	0.0133698
730.068	0.0136768
730.146	0.0137238
730.224	0.0137499
730.302	0.0139041
730.380	0.0139907
730.458	0.0140434
730.537	0.0143972
730.615	0.0144561
730.693	0.0146724
730.771	0.0146520
730.849	0.0146282
730.927	0.0147057
731.005	0.0148471
731.083	0.0148824
731.162	0.0150470
731.240	0.0150043
731.318	0.0150831
731.396	0.0151113
731.474	0.0152412
731.552	0.0151743
731.630	0.0148473
731.708	0.0148051
731.787	0.0147238
731.865	0.0146854
731.943	0.0145386
732.021	0.0142759
732.099	0.0141227
732.177	0.0140423
732.255	0.0139264
732.333	0.0138065
732.412	0.0135745
732.490	0.0137161
732.568	0.0136561
732.646	0.0136938
732.724	0.0135740
732.802	0.0134734
732.880	0.0134481
732.958	0.0134452
733.037	0.0134944
733.115	0.0136659
733.193	0.0134532
733.271	0.0135971
733.349	0.0136163
733.427	0.0136468
733.505	0.0138137
733.583	0.0137981
733.662	0.0140156
733.740	0.0140162
733.818	0.0139172
733.896	0.0137893
733.974	0.0138851
734.052	0.0138210
734.130	0.0137700
734.208	0.0136584
734.287	0.0136212
734.365	0.0135244
734.443	0.0135969
734.521	0.0135531
734.599	0.0134831
734.677	0.0133205
734.755	0.0135128
734.833	0.0134414
734.912	0.0134792
734.990	0.0134824
735.068	0.0137537
735.146	0.0136791
735.224	0.0136015
735.302	0.0134811
735.380	0.0134912
735.458	0.0134344
735.537	0.0133571
735.615	0.0135149
735.693	0.0132719
735.771	0.0132786
735.849	0.0133337
735.927	0.0132372
736.005	0.0132863
736.083	0.0134480
736.162	0.0134301
736.240	0.0135673
736.318	0.0137264
736.396	0.0140068
736.474	0.0140665
736.552	0.0142283
736.630	0.0144328
736.708	0.0143557
736.787	0.0145521
736.865	0.0145169
736.943	0.0145595
737.021	0.0146162
737.099	0.0145657
737.177	0.0145478
737.255	0.0144864
737.333	0.0143478
737.412	0.0143385
737.490	0.0142844
737.568	0.0143590
737.646	0.0144131
737.724	0.0144115
737.802	0.0144335
737.880	0.0146947
737.958	0.0148432
738.037	0.0147353
738.115	0.0148394
738.193	0.0149561
738.271	0.0147289
738.349	0.0147490
738.427	0.0145085
738.505	0.0143742
738.583	0.0142814
738.662	0.0140261
738.740	0.0135107
738.818	0.0134307
738.896	0.0132998
738.974	0.0130630
739.052	0.0128770
739.130	0.0127898
739.208	0.0129263
739.287	0.0126938
739.365	0.0127343
739.443	0.0127661
739.521	0.0128355
739.599	0.0128766
739.677	0.0130561
739.755	0.0131132
739.833	0.0131872
739.912	0.0133414
739.990	0.0135832
740.068	0.0137520
740.146	0.0138286
740.224	0.0138614
740.302	0.0141835
740.380	0.0141393
740.458	0.0141135
740.537	0.0142126
740.615	0.0144028
740.693	0.0143799
740.771	0.0145645
740.849	0.0145405
740.927	0.0144673
741.005	0.0144021
741.083	0.0146516
741.162	0.0143951
741.240	0.0143977
741.318	0.0142425
741.396	0.0139864
741.474	0.0139629
741.552	0.0136142
741.630	0.0136848
741.708	0.0135920
741.787	0.0134827
741.865	0.0132742
741.943	0.0130428
742.021	0.0129622
742.099	0.0130437
742.177	0.0129958
742.255	0.0130074
742.333	0.0130220
742.412	0.0131485
742.490	0.0132703
742.568	0.0134081
742.646	0.0134518
742.724	0.0138456
742.802	0.0137612
742.880	0.0139153
742.958	0.0140330
743.037	0.0140504
743.115	0.0141085
743.193	0.0141336
743.271	0.0141016
743.349	0.0140340
743.427	0.0142599
743.505	0.0140688
743.583	0.0138721
743.662	0.0140114
743.740	0.0140398
743.818	0.0140054
743.896	0.0140599
743.974	0.0141212
744.052	0.0142390
744.130	0.0142948
744.208	0.0141520
744.287	0.0142561
744.365	0.0143729
744.443	0.0143122
744.521	0.0144776
744.599	0.0144817
744.677	0.0145261
744.755	0.0144654
744.833	0.0145303
744.912	0.0145782
744.990	0.0144720
745.068	0.0143172
745.146	0.0142805
745.224	0.0141458
745.302	0.0139804
745.380	0.0139788
745.458	0.0136765
745.537	0.0135352
745.615	0.0135040
745.693	0.0132872
745.771	0.0133144
745.849	0.0131651
745.927	0.0131100
746.005	0.0131905
746.083	0.0132315
746.162	0.0131907
746.240	0.0132410
746.318	0.0133380
746.396	0.0131893
746.474	0.0131802
746.552	0.0134914
746.630	0.0137166
746.708	0.0135937
746.787	0.0135770
746.865	0.0138565
746.943	0.0138620
747.021	0.0137276
747.099	0.0139774
747.177	0.0140166
747.255	0.0141290
747.333	0.0140967
747.412	0.0142361
747.490	0.0142644
747.568	0.0140867
747.646	0.0141922
747.724	0.0144067
747.802	0.0142449
747.880	0.0142296
747.958	0.0144154
748.037	0.0143178
748.115	0.0141468
748.193	0.0141867
748.271	0.0141329
748.349	0.0139323
748.427	0.0140434
748.505	0.0139796
748.583	0.0138780
748.662	0.0137807
748.740	0.0138055
748.818	0.0137387
748.896	0.0137441
748.974	0.0136835
749.052	0.0135738
749.130	0.0135916
749.208	0.0135055
749.287	0.0135354
749.365	0.0135658
749.443	0.0135085
749.521	0.0136627
749.599	0.0136433
749.677	0.0136633
749.755	0.0137861
749.833	0.0138539
749.912	0.0138781
749.990	0.0139397
750.068	0.0138773
750.146	0.0137215
750.224	0.0136588
750.302	0.0139236
750.380	0.0139126
750.458	0.0138866
750.537	0.0139339
750.615	0.0137495
750.693	0.0136913
750.771	0.0138017
750.849	0.0138493
750.927	0.0137727
751.005	0.0138583
751.083	0.0138670
751.162	0.0141473
751.240	0.0140778
751.318	0.0140675
751.396	0.0142539
751.474	0.0145260
751.552	0.0145840
751.630	0.0146040
751.708	0.0147983
751.787	0.0147647
751.865	0.0146850
751.943	0.0147672
752.021	0.0146774
752.099	0.0146037
752.177	0.0145130
752.255	0.0143860
752.333	0.0142423
752.412	0.0139549
752.490	0.0138242
752.568	0.0138824
752.646	0.0137430
752.724	0.0135921
752.802	0.0135732
752.880	0.0135062
752.958	0.0134505
753.037	0.0135372
753.115	0.0134165
753.193	0.0134782
753.271	0.0134472
753.349	0.0131690
753.427	0.0133384
753.505	0.0133700
753.583	0.0134383
753.662	0.0135083
753.740	0.0135895
753.818	0.0136407
753.896	0.0137060
753.974	0.0139771
754.052	0.0141914
754.130	0.0143080
754.208	0.0143637
754.287	0.0143650
754.365	0.0143114
754.443	0.0143552
754.521	0.0145354
754.599	0.0144527
754.677	0.0143148
754.755	0.0141846
754.833	0.0140987
754.912	0.0140599
754.990	0.0139455
755.068	0.0138679
755.146	0.0137680
755.224	0.0136147
755.302	0.0137673
755.380	0.0136406
755.458	0.0137905
755.537	0.0137588
755.615	0.0137785
755.693	0.0136251
755.771	0.0136758
755.849	0.0138023
755.927	0.0137047
756.005	0.0136906
756.083	0.0136853
756.162	0.0136877
756.240	0.0135921
756.318	0.0135984
756.396	0.0136803
756.474	0.0134936
756.552	0.0135130
756.630	0.0135770
756.708	0.0135970
756.787	0.0136802
756.865	0.0136190
756.943	0.0134898
757.021	0.0136627
757.099	0.0137843
757.177	0.0138810
757.255	0.0138674
757.333	0.0138672
757.412	0.0139660
757.490	0.0140419
757.568	0.0142454
757.646	0.0143210
757.724	0.0140283
757.802	0.0140765
757.880	0.0143101
757.958	0.0142384
758.037	0.0144392
758.115	0.0142901
758.193	0.0146159
758.271	0.0144659
758.349	0.0145399
758.427	0.0146630
758.505	0.0147164
758.583	0.0146512
758.662	0.0146107
758.740	0.0145964
758.818	0.0144056
758.896	0.0143870
758.974	0.0142681
759.052	0.0139702
759.130	0.0138969
759.208	0.0136720
759.287	0.0135905
759.365	0.0134052
759.443	0.0132659
759.521	0.0131828
759.599	0.0130917
759.677	0.0130059
759.755	0.0129560
759.833	0.0131935
759.912	0.0130719
759.990	0.0130257
760.068	0.0133698
760.146	0.0134455
760.224	0.0136034
760.302	0.0135918
760.380	0.0137689
760.458	0.0139262
760.537	0.0141951
760.615	0.0142522
760.693	0.0144027
760.771	0.0144183
760.849	0.0146115
760.927	0.0146674
761.005	0.0146178
761.083	0.0145291
761.162	0.0145757
761.240	0.0145260
761.318	0.0145548
761.396	0.0144853
761.474	0.0141692
761.552	0.0140749
761.630	0.0139272
761.708	0.0138757
761.787	0.0138394
761.865	0.0135722
761.943	0.0134023
762.021	0.0133768
762.099	0.0132896
762.177	0.0133479
762.255	0.0133967
762.333	0.0132145
762.412	0.0132991
762.490	0.0133138
762.568	0.0132487
762.646	0.0133679
762.724	0.0133935
762.802	0.0133385
762.880	0.0135875
762.958	0.0135518
763.037	0.0133544
763.115	0.0134044
763.193	0.0135721
763.271	0.0136128
763.349	0.0135555
763.427	0.0135750
763.505	0.0136479
763.583	0.0138945
763.662	0.0138443
763.740	0.0140422
763.818	0.0140269
763.896	0.0140753
763.974	0.0141041
764.052	0.0142216
764.130	0.0141252
764.208	0.0143732
764.287	0.0144529
764.365	0.0143729
764.443	0.0143595
764.521	0.0142543
764.599	0.0143247
764.677	0.0142397
764.755	0.0140198
764.833	0.0141415
764.912	0.0141339
764.990	0.0141824
765.068	0.0142483
765.146	0.0140694
765.224	0.0142290
765.302	0.0142805
765.380	0.0141751
765.458	0.0142229
765.537	0.0141290
765.615	0.0142405
765.693	0.0139881
765.771	0.0139736
765.849	0.0139543
765.927	0.0139298
766.005	0.0137178
766.083	0.0137252
766.162	0.0135686
766.240	0.0135095
766.318	0.0135876
766.396	0.0134074
766.474	0.0133929
766.552	0.0134274
766.630	0.0132135
766.708	0.0133714
766.787	0.0135176
766.865	0.0134261
766.943	0.0135201
767.021	0.0134774
767.099	0.0134682
767.177	0.0136416
767.255	0.0138120
767.333	0.0138904
767.412	0.0141002
767.490	0.0139256
767.568	0.0139532
767.646	0.0140825
767.724	0.0142630
767.802	0.0142580
767.880	0.0142690
767.958	0.0142559
768.037	0.0142686
768.115	0.0143483
768.193	0.0142165
768.271	0.0142786
768.349	0.0143466
768.427	0.0142371
768.505	0.0144350
768.583	0.0143748
768.662	0.0142983
768.740	0.0141033
768.818	0.0140350
768.896	0.0140984
768.974	0.0139603
769.052	0.0137370
769.130	0.0137482
769.208	0.0135976
769.287	0.0135207
769.365	0.0135184
769.443	0.0134728
769.521	0.0133823
769.599	0.0134496
769.677	0.0132760
769.755	0.0134248
769.833	0.0132438
769.912	0.0134359
769.990	0.0135451
770.068	0.0135506
770.146	0.0135755
770.224	0.0137113
770.302	0.0137083
770.380	0.0137389
770.458	0.0138377
770.537	0.0139624
770.615	0.0140646
770.693	0.0139656
770.771	0.0140479
770.849	0.0140072
770.927	0.0138640
771.005	0.0140128
771.083	0.0141999
771.162	0.0140564
771.240	0.0141321
771.318	0.0139617
771.396	0.0139105
771.474	0.0139820
771.552	0.0138404
771.630	0.0137258
771.708	0.0140207
771.787	0.0138489
771.865	0.0138761
771.943	0.0140196
772.021	0.0140603
772.099	0.0140617
772.177	0.0140891
772.255	0.0141353
772.333	0.0143342
772.412	0.0144477
772.490	0.0144585
772.568	0.0143513
772.646	0.0143684
772.724	0.0143071
772.802	0.0143581
772.880	0.0142743
772.958	0.0141087
773.037	0.0140845
773.115	0.0141554
773.193	0.0138824
773.271	0.0139047
773.349	0.0139577
773.427	0.0137910
773.505	0.0135934
773.583	0.0136871
773.662	0.0138319
773.740	0.0138023
773.818	0.0136752
773.896	0.0137770
773.974	0.0137924
774.052	0.0137126
774.130	0.0137295
774.208	0.0138566
774.287	0.0138420
774.365	0.0138547
774.443	0.0140154
774.521	0.0138341
774.599	0.0138893
774.677	0.0140437
774.755	0.0139314
774.833	0.0139333
774.912	0.0140768
774.990	0.0141051
775.068	0.0141123
775.146	0.0142535
775.224	0.0139912
775.302	0.0139803
775.380	0.0139243
775.458	0.0139248
775.537	0.0138433
775.615	0.0138949
775.693	0.0138164
775.771	0.0137920
775.849	0.0137833
775.927	0.0136495
776.005	0.0136243
776.083	0.0135927
776.162	0.0135869
776.240	0.0136793
776.318	0.0137770
776.396	0.0137674
776.474	0.0139425
776.552	0.0139264
776.630	0.0139743
776.708	0.0140536
776.787	0.0140211
776.865	0.0139117
776.943	0.0140060
777.021	0.0141180
777.099	0.0139259
777.177	0.0139537
777.255	0.0138071
777.333	0.0138031
777.412	0.0138513
777.490	0.0137104
777.568	0.0137586
777.646	0.0137676
777.724	0.0136275
777.802	0.0136116
777.880	0.0137391
777.958	0.0137698
778.037	0.0138572
778.115	0.0137956
778.193	0.0139397
778.271	0.0137844
778.349	0.0137526
778.427	0.0138829
778.505	0.0138228
778.583	0.0139822
778.662	0.0140308
778.740	0.0138457
778.818	0.0139906
778.896	0.0140654
778.974	0.0140746
779.052	0.0141154
779.130	0.0141264
779.208	0.0142092
779.287	0.0143533
779.365	0.0143346
779.443	0.0142765
779.521	0.0142316
779.599	0.0142645
779.677	0.0143126
779.755	0.0141465
779.833	0.0141332
779.912	0.0139635
779.990	0.0139645
780.068	0.0138896
780.146	0.0138461
780.224	0.0136802
780.302	0.0136671
780.380	0.0135622
780.458	0.0135172
780.537	0.0135152
780.615	0.0134440
780.693	0.0134333
780.771	0.0134876
780.849	0.0135220
780.927	0.0135307
781.005	0.0134885
781.083	0.0135206
781.162	0.0136191
781.240	0.0137895
781.318	0.0138290
781.396	0.0137953
781.474	0.0140516
781.552	0.0141493
781.630	0.0140368
781.708	0.0140954
781.787	0.0141841
781.865	0.0141837
781.943	0.0140112
782.021	0.0140895
782.099	0.0141267
782.177	0.0139984
782.255	0.0138955
782.333	0.0138865
782.412	0.0136929
782.490	0.0135218
782.568	0.0135667
782.646	0.0135117
782.724	0.0135917
782.802	0.0135124
782.880	0.0135038
782.958	0.0134396
783.037	0.0134570
783.115	0.0134311
783.193	0.0135968
783.271	0.0136012
783.349	0.0137733
783.427	0.0137737
783.505	0.0139013
783.583	0.0141610
783.662	0.0141586
783.740	0.0141103
783.818	0.0141841
783.896	0.0143572
783.974	0.0142232
784.052	0.0142430
784.130	0.0143901
784.208	0.0143041
784.287	0.0141099
784.365	0.0142577
784.443	0.0139808
784.521	0.0139561
784.599	0.0139540
784.677	0.0139293
784.755	0.0138300
784.833	0.0139001
784.912	0.0139355
784.990	0.0137675
785.068	0.0136359
785.146	0.0137498
785.224	0.0137535
785.302	0.0135278
785.380	0.0137393
785.458	0.0136391
785.537	0.0137859
785.615	0.0137026
785.693	0.0136726
785.771	0.0137326
785.849	0.0137769
785.927	0.0138534
786.005	0.0139193
786.083	0.0137460
786.162	0.0138473
786.240	0.0139558
786.318	0.0140717
786.396	0.0138981
786.474	0.0139043
786.552	0.0140490
786.630	0.0139632
786.708	0.0140087
786.787	0.0138889
786.865	0.0139874
786.943	0.0138626
787.021	0.0141235
787.099	0.0139504
787.177	0.0139843
787.255	0.0138493
787.333	0.0139777
787.412	0.0139514
787.490	0.0139781
787.568	0.0139227
787.646	0.0138976
787.724	0.0140246
787.802	0.0141448
787.880	0.0141953
787.958	0.0142523
788.037	0.0142529
788.115	0.0141789
788.193	0.0142899
788.271	0.0143925
788.349	0.0142577
788.427	0.0143684
788.505	0.0142478
788.583	0.0141872
788.662	0.0143408
788.740	0.0142002
788.818	0.0140264
788.896	0.0139384
788.974	0.0140084
789.052	0.0137877
789.130	0.0138141
789.208	0.0136512
789.287	0.0134090
789.365	0.0133707
789.443	0.0132761
789.521	0.0132361
789.599	0.0131908
789.677	0.0131586
789.755	0.0131833
789.833	0.0131005
789.912	0.0130984
789.990	0.0130843
790.068	0.0133469
790.146	0.0132851
790.224	0.0134539
790.302	0.0135213
790.380	0.0135133
790.458	0.0136867
790.537	0.0136993
790.615	0.0137402
790.693	0.0139787
790.771	0.0140175
790.849	0.0139398
790.927	0.0139093
791.005	0.0138989
791.083	0.0140234
791.162	0.0141270
791.240	0.0140074
791.318	0.0140668
791.396	0.0142031
791.474	0.0140796
791.552	0.0141911
791.630	0.0143108
791.708	0.0143562
791.787	0.0143833
791.865	0.0142651
791.943	0.0144067
792.021	0.0143371
792.099	0.0143529
792.177	0.0143117
792.255	0.0143615
792.333	0.0142135
792.412	0.0142871
792.490	0.0143246
792.568	0.0142574
792.646	0.0142635
792.724	0.0140937
792.802	0.0142259
792.880	0.0142163
792.958	0.0140829
793.037	0.0142324
793.115	0.0139683
793.193	0.0139428
793.271	0.0138626
793.349	0.0139852
793.427	0.0138959
793.505	0.0137740
793.583	0.0137234
793.662	0.0135291
793.740	0.0135574
793.818	0.0136147
793.896	0.0136598
793.974	0.0134901
794.052	0.0134740
794.130	0.0133823
794.208	0.0133881
794.287	0.0136369
794.365	0.0135950
794.443	0.0135594
794.521	0.0137214
794.599	0.0136743
794.677	0.0137080
794.755	0.0138639
794.833	0.0140523
794.912	0.0139740
794.990	0.0140208
795.068	0.0139532
795.146	0.0141211
795.224	0.0141526
795.302	0.0141122
795.380	0.0143118
795.458	0.0142749
795.537	0.0141350
795.615	0.0142464
795.693	0.0143210
795.771	0.0142642
795.849	0.0140831
795.927	0.0140495
796.005	0.0138806
796.083	0.0138884
796.162	0.0137602
796.240	0.0137081
796.318	0.0136958
796.396	0.0136346
796.474	0.0137630
796.552	0.0135448
796.630	0.0135441
796.708	0.0135751
796.787	0.0135966
796.865	0.0136282
796.943	0.0136875
797.021	0.0136512
797.099	0.0136855
797.177	0.0136858
797.255	0.0137245
797.333	0.0139670
797.412	0.0137654
797.490	0.0137846
797.568	0.0139083
797.646	0.0139091
797.724	0.0138745
797.802	0.0141003
797.880	0.0139297
797.958	0.0140049
798.037	0.0140830
798.115	0.0139426
798.193	0.0139324
798.271	0.0138369
798.349	0.0139467
798.427	0.0140292
798.505	0.0139262
798.583	0.0139793
798.662	0.0139278
798.740	0.0139760
798.818	0.0140497
798.896	0.0141681
798.974	0.0140661
799.052	0.0141802
799.130	0.0142580
799.208	0.0142167
799.287	0.0142994
799.365	0.0143304
799.443	0.0141362
799.521	0.0143679
799.599	0.0143900
799.677	0.0144613
799.755	0.0144637
799.833	0.0144450
799.912	0.0144110
799.990	0.0142291
800.068	0.0142476
800.146	0.0140091
800.224	0.0140226
800.302	0.0141570
800.380	0.0139129
800.458	0.0137577
800.537	0.0136657
800.615	0.0136129
800.693	0.0136018
800.771	0.0134195
800.849	0.0133817
800.927	0.0132651
801.005	0.0131878
801.083	0.0133772
801.162	0.0132172
801.240	0.0133543
801.318	0.0132782
801.396	0.0132811
801.474	0.0134640
801.552	0.0134472
801.630	0.0136648
801.708	0.0136742
801.787	0.0136678
801.865	0.0137781
801.943	0.0139251
802.021	0.0139767
802.099	0.0140358
802.177	0.0140570
802.255	0.0142397
802.333	0.0143985
802.412	0.0143256
802.490	0.0145354
802.568	0.0143561
802.646	0.0143297
802.724	0.0144942
802.802	0.0142673
802.880	0.0142419
802.958	0.0142691
803.037	0.0141182
803.115	0.0140663
803.193	0.0140421
803.271	0.0140907
803.349	0.0137663
803.427	0.0138538
803.505	0.0138778
803.583	0.0139432
803.662	0.0138198
803.740	0.0138600
803.818	0.0138705
803.896	0.0138319
803.974	0.0138867
804.052	0.0138408
804.130	0.0137845
804.208	0.0139091
804.287	0.0137836
804.365	0.0138087
804.443	0.0137708
804.521	0.0135094
804.599	0.0136869
804.677	0.0136594
804.755	0.0136944
804.833	0.0135069
804.912	0.0134019
804.990	0.0135062
805.068	0.0134834
805.146	0.0134828
805.224	0.0135606
805.302	0.0135961
805.380	0.0134661
805.458	0.0135889
805.537	0.0136189
805.615	0.0137238
805.693	0.0137299
805.771	0.0138734
805.849	0.0139233
805.927	0.0140293
806.005	0.0138970
806.083	0.0140087
806.162	0.0141051
806.240	0.0139692
806.318	0.0140305
806.396	0.0141332
806.474	0.0141618
806.552	0.0142017
806.630	0.0139787
806.708	0.0139423
806.787	0.0140509
806.865	0.0139886
806.943	0.0139961
807.021	0.0139155
807.099	0.0138182
807.177	0.0138531
807.255	0.0140166
807.333	0.0138806
807.412	0.0138483
807.490	0.0137723
807.568	0.0137394
807.646	0.0137517
807.724	0.0137672
807.802	0.0139299
807.880	0.0138508
807.958	0.0139671
808.037	0.0138663
808.115	0.0139935
808.193	0.0140482
808.271	0.0140504
808.349	0.0141534
808.427	0.0140862
808.505	0.0140482
808.583	0.0141708
808.662	0.0142173
808.740	0.0142052
808.818	0.0141350
808.896	0.0141324
808.974	0.0140955
809.052	0.0142018
809.130	0.0139740
809.208	0.0139032
809.287	0.0140701
809.365	0.0139225
809.443	0.0139588
809.521	0.0138406
809.599	0.0138169
809.677	0.0137177
809.755	0.0137691
809.833	0.0136190
809.912	0.0137189
809.990	0.0136774
810.068	0.0137667
810.146	0.0137354
810.224	0.0136101
810.302	0.0136868
810.380	0.0136518
810.458	0.0137371
810.537	0.0137194
810.615	0.0137317
810.693	0.0138707
810.771	0.0137435
810.849	0.0137195
810.927	0.0137975
811.005	0.0137179
811.083	0.0137928
811.162	0.0138588
811.240	0.0138287
811.318	0.0138274
811.396	0.0138866
811.474	0.0139500
811.552	0.0139558
811.630	0.0140437
811.708	0.0139569
811.787	0.0139240
811.865	0.0140143
811.943	0.0138246
812.021	0.0141068
812.099	0.0140214
812.177	0.0140493
812.255	0.0138594
812.333	0.0138393
812.412	0.0140083
812.490	0.0139504
812.568	0.0138695
812.646	0.0136691
812.724	0.0138286
812.802	0.0139166
812.880	0.0137170
812.958	0.0137102
813.037	0.0137450
813.115	0.0138549
813.193	0.0137468
813.271	0.0139178
813.349	0.0140123
813.427	0.0140205
813.505	0.0139700
813.583	0.0139729
813.662	0.0139502
813.740	0.0139733
813.818	0.0139132
813.896	0.0142318
813.974	0.0140872
814.052	0.0140868
814.130	0.0141003
814.208	0.0139840
814.287	0.0139960
814.365	0.0140461
814.443	0.0140492
814.521	0.0139853
814.599	0.0140643
814.677	0.0139841
814.755	0.0139505
814.833	0.0139854
814.912	0.0141031
814.990	0.0139579
815.068	0.0139072
815.146	0.0141061
815.224	0.0140412
815.302	0.0140945
815.380	0.0139276
815.458	0.0139075
815.537	0.0139975
815.615	0.0138330
815.693	0.0139192
815.771	0.0138206
815.849	0.0138769
815.927	0.0139561
816.005	0.0138562
816.083	0.0138566
816.162	0.0138465
816.240	0.0137351
816.318	0.0136692
816.396	0.0138024
816.474	0.0138564
816.552	0.0137567
816.630	0.0138248
816.708	0.0138836
816.787	0.0136803
816.865	0.0137474
816.943	0.0140079
817.021	0.0138004
817.099	0.0138496
817.177	0.0140040
817.255	0.0138684
817.333	0.0139671
817.412	0.0140784
817.490	0.0140307
817.568	0.0140251
817.646	0.0140867
817.724	0.0140227
817.802	0.0140298
817.880	0.0140337
817.958	0.0139482
818.037	0.0139131
818.115	0.0138016
818.193	0.0140031
818.271	0.0140805
818.349	0.0138846
818.427	0.0139323
818.505	0.0139368
818.583	0.0138525
818.662	0.0139743
818.740	0.0137838
818.818	0.0137802
818.896	0.0137671
818.974	0.0137315
819.052	0.0136977
819.130	0.0135949
819.208	0.0135365
819.287	0.0135275
819.365	0.0134912
819.443	0.0135400
819.521	0.0135933
819.599	0.0135336
819.677	0.0135329
819.755	0.0137449
819.833	0.0138021
819.912	0.0137459
819.990	0.0138326
820.068	0.0137009
820.146	0.0139159
820.224	0.0138451
820.302	0.0140047
820.380	0.0139423
820.458	0.0139520
820.537	0.0140691
820.615	0.0139774
820.693	0.0140228
820.771	0.0140385
820.849	0.0141697
820.927	0.0141853
821.005	0.0141154
821.083	0.0142548
821.162	0.0140493
821.240	0.0139984
821.318	0.0143095
821.396	0.0141730
821.474	0.0141753
821.552	0.0140379
821.630	0.0141476
821.708	0.0141476
821.787	0.0142986
821.865	0.0141322
821.943	0.0141299
822.021	0.0138768
822.099	0.0140379
822.177	0.0140087
822.255	0.0139738
822.333	0.0140210
822.412	0.0139706
822.490	0.0138712
822.568	0.0138071
822.646	0.0138377
822.724	0.0139378
822.802	0.0138367
822.880	0.0138810
822.958	0.0138899
823.037	0.0137946
823.115	0.0138392
823.193	0.0137872
823.271	0.0137935
823.349	0.0138019
823.427	0.0137744
823.505	0.0136462
823.583	0.0137696
823.662	0.0138076
823.740	0.0138119
823.818	0.0137399
823.896	0.0137630
823.974	0.0137054
824.052	0.0138734
824.130	0.0137412
824.208	0.0137355
824.287	0.0138010
824.365	0.0137368
824.443	0.0137477
824.521	0.0138046
824.599	0.0138329
824.677	0.0138912
824.755	0.0139152
824.833	0.0139806
824.912	0.0138035
824.990	0.0139673
825.068	0.0137644
825.146	0.0137816
825.224	0.0137955
825.302	0.0139460
825.380	0.0139134
825.458	0.0136629
825.537	0.0136549
825.615	0.0138708
825.693	0.0137767
825.771	0.0136754
825.849	0.0135973
825.927	0.0137034
826.005	0.0135842
826.083	0.0136603
826.162	0.0137352
826.240	0.0136456
826.318	0.0136320
826.396	0.0136268
826.474	0.0138155
826.552	0.0138769
826.630	0.0139253
826.708	0.0139410
826.787	0.0138316
826.865	0.0139476
826.943	0.0139872
827.021	0.0140155
827.099	0.0140938
827.177	0.0140923
827.255	0.0140894
827.333	0.0142299
827.412	0.0141795
827.490	0.0141462
827.568	0.0139921
827.646	0.0142278
827.724	0.0142075
827.802	0.0140717
827.880	0.0141238
827.958	0.0141039
828.037	0.0141062
828.115	0.0140106
828.193	0.0140740
828.271	0.0140740
828.349	0.0140438
828.427	0.0140949
828.505	0.0141235
828.583	0.0141640
828.662	0.0140764
828.740	0.0139516
828.818	0.0140253
828.896	0.0141180
828.974	0.0142257
829.052	0.0139712
829.130	0.0141158
829.208	0.0141331
829.287	0.0139661
829.365	0.0139894
829.443	0.0140702
829.521	0.0140734
829.599	0.0140404
829.677	0.0141501
829.755	0.0140312
829.833	0.0138995
829.912	0.0139722
829.990	0.0140375
830.068	0.0139072
830.146	0.0137991
830.224	0.0138808
830.302	0.0138835
830.380	0.0138354
830.458	0.0137080
830.537	0.0137856
830.615	0.0137920
830.693	0.0136640
830.771	0.0137356
830.849	0.0135352
830.927	0.0136555
831.005	0.0136349
831.083	0.0136884
831.162	0.0137015
831.240	0.0135896
831.318	0.0134986
831.396	0.0135899
831.474	0.0136781
831.552	0.0135652
831.630	0.0136298
831.708	0.0134934
831.787	0.0137139
831.865	0.0137827
831.943	0.0136853
832.021	0.0138435
832.099	0.0137733
832.177	0.0138905
832.255	0.0139709
832.333	0.0139294
832.412	0.0139124
832.490	0.0138680
832.568	0.0140508
832.646	0.0140374
832.724	0.0141029
832.802	0.0141103
832.880	0.0142320
832.958	0.0142220
833.037	0.0141997
833.115	0.0142207
833.193	0.0142690
833.271	0.0142828
833.349	0.0142101
833.427	0.0142284
833.505	0.0140614
833.583	0.0141444
833.662	0.0141795
833.740	0.0141673
833.818	0.0141383
833.896	0.0139172
833.974	0.0140658
834.052	0.0141675
834.130	0.0141068
834.208	0.0139793
834.287	0.0140298
834.365	0.0140442
834.443	0.0141137
834.521	0.0141010
834.599	0.0141175
834.677	0.0141093
834.755	0.0141065
834.833	0.0140228
834.912	0.0140161
834.990	0.0139989
835.068	0.0138654
835.146	0.0138390
835.224	0.0138780
835.302	0.0137766
835.380	0.0136269
835.458	0.0137382
835.537	0.0138053
835.615	0.0136065
835.693	0.0137999
835.771	0.0138979
835.849	0.0135838
835.927	0.0136700
836.005	0.0137209
836.083	0.0136327
836.162	0.0137572
836.240	0.0137222
836.318	0.0138541
836.396	0.0137182
836.474	0.0137231
836.552	0.0138253
836.630	0.0139628
836.708	0.0138891
836.787	0.0137733
836.865	0.0138337
836.943	0.0139285
837.021	0.0139738
837.099	0.0138973
837.177	0.0140005
837.255	0.0140765
837.333	0.0138586
837.412	0.0141018
837.490	0.0139162
837.568	0.0140109
837.646	0.0139455
837.724	0.0140887
837.802	0.0140054
837.880	0.0139442
837.958	0.0139677
838.037	0.0141014
838.115	0.0139024
838.193	0.0137771
838.271	0.0138817
838.349	0.0138418
838.427	0.0138876
838.505	0.0138267
838.583	0.0139067
838.662	0.0138286
838.740	0.0137162
838.818	0.0137955
838.896	0.0137111
838.974	0.0138077
839.052	0.0137932
839.130	0.0136921
839.208	0.0136893
839.287	0.0139666
839.365	0.0138750
839.443	0.0138853
839.521	0.0138198
839.599	0.0138581
839.677	0.0138534
839.755	0.0138600
839.833	0.0139326
839.912	0.0138513
839.990	0.0139934
840.068	0.0140825
840.146	0.0138554
840.224	0.0137816
840.302	0.0139264
840.380	0.0140698
840.458	0.0139204
840.537	0.0139593
840.615	0.0138361
840.693	0.0138043
840.771	0.0137305
840.849	0.0138094
840.927	0.0137067
841.005	0.0137383
841.083	0.0137321
841.162	0.0138233
841.240	0.0136805
841.318	0.0138112
841.396	0.0137514
841.474	0.0137887
841.552	0.0137046
841.630	0.0137043
841.708	0.0137223
841.787	0.0136427
841.865	0.0137660
841.943	0.0137153
842.021	0.0138923
842.099	0.0138550
842.177	0.0138299
842.255	0.0140811
842.333	0.0138289
842.412	0.0138127
842.490	0.0138831
842.568	0.0140235
842.646	0.0139188
842.724	0.0138127
842.802	0.0139149
842.880	0.0137534
842.958	0.0139779
843.037	0.0138940
843.115	0.0139397
843.193	0.0139459
843.271	0.0139604
843.349	0.0139568
843.427	0.0140685
843.505	0.0141055
843.583	0.0140873
843.662	0.0141195
843.740	0.0141097
843.818	0.0140845
843.896	0.0141086
843.974	0.0139575
844.052	0.0141209
844.130	0.0140070
844.208	0.0141925
844.287	0.0141187
844.365	0.0138840
844.443	0.0138972
844.521	0.0138428
844.599	0.0138707
844.677	0.0137431
844.755	0.0137872
844.833	0.0139320
844.912	0.0138395
844.990	0.0138631
845.068	0.0137118
845.146	0.0136642
845.224	0.0137206
845.302	0.0137887
845.380	0.0137325
845.458	0.0138529
845.537	0.0136790
845.615	0.0137270
845.693	0.0138309
845.771	0.0138985
845.849	0.0139216
845.927	0.0139548
846.005	0.0140669
846.083	0.0140318
846.162	0.0140508
846.240	0.0141376
846.318	0.0139563
846.396	0.0140987
846.474	0.0140530
846.552	0.0140334
846.630	0.0141047
846.708	0.0141454
846.787	0.0139658
846.865	0.0139528
846.943	0.0139820
847.021	0.0141070
847.099	0.0139502
847.177	0.0139181
847.255	0.0139551
847.333	0.0139136
847.412	0.0139070
847.490	0.0138901
847.568	0.0139197
847.646	0.0139222
847.724	0.0138451
847.802	0.0138078
847.880	0.0138517
847.958	0.0138706
848.037	0.0138824
848.115	0.0139769
848.193	0.0138361
848.271	0.0140063
848.349	0.0139449
848.427	0.0138869
848.505	0.0139131
848.583	0.0138570
848.662	0.0139986
848.740	0.0138640
848.818	0.0140497
848.896	0.0141142
848.974	0.0138083
849.052	0.0141132
849.130	0.0140693
849.208	0.0139307
849.287	0.0137856
849.365	0.0138084
849.443	0.0140836
849.521	0.0141251
849.599	0.0139864
849.677	0.0138392
849.755	0.0139105
849.833	0.0139073
849.912	0.0138824
849.990	0.0138934
850.068	0.0139564
850.146	0.0138589
850.224	0.0138761
850.302	0.0138206
850.380	0.0136585
850.458	0.0138668
850.537	0.0139113
850.615	0.0139461
850.693	0.0140115
850.771	0.0138468
850.849	0.0139763
850.927	0.0139727
851.005	0.0139391
851.083	0.0139832
851.162	0.0140257
851.240	0.0141641
851.318	0.0141321
851.396	0.0140695
851.474	0.0142528
851.552	0.0142211
851.630	0.0140709
851.708	0.0141611
851.787	0.0140903
851.865	0.0140672
851.943	0.0139494
852.021	0.0140160
852.099	0.0139754
852.177	0.0140562
852.255	0.0139450
852.333	0.0137898
852.412	0.0137765
852.490	0.0137369
852.568	0.0137173
852.646	0.0137874
852.724	0.0139111
852.802	0.0138403
852.880	0.0138150
852.958	0.0137206
853.037	0.0138555
853.115	0.0137531
853.193	0.0136767
853.271	0.0138631
853.349	0.0139178
853.427	0.0138586
853.505	0.0138385
853.583	0.0139670
853.662	0.0138506
853.740	0.0137658
853.818	0.0137241
853.896	0.0137781
853.974	0.0140617
854.052	0.0141096
854.130	0.0138666
854.208	0.0139506
854.287	0.0138853
854.365	0.0140020
854.443	0.0139080
854.521	0.0138501
854.599	0.0138325
854.677	0.0139828
854.755	0.0138819
854.833	0.0139738
854.912	0.0139077
854.990	0.0139989
855.068	0.0139088
855.146	0.0139197
855.224	0.0140383
855.302	0.0139561
855.380	0.0140552
855.458	0.0140786
855.537	0.0141029
855.615	0.0140213
855.693	0.0141154
855.771	0.0139889
855.849	0.0141081
855.927	0.0140937
856.005	0.0138822
856.083	0.0139365
856.162	0.0138361
856.240	0.0138217
856.318	0.0138668
856.396	0.0139442
856.474	0.0137787
856.552	0.0138108
856.630	0.0137247
856.708	0.0137359
856.787	0.0136572
856.865	0.0136935
856.943	0.0137114
857.021	0.0136720
857.099	0.0137328
857.177	0.0137333
857.255	0.0138549
857.333	0.0138486
857.412	0.0138214
857.490	0.0139034
857.568	0.0138393
857.646	0.0138696
857.724	0.0138113
857.802	0.0139211
857.880	0.0140055
857.958	0.0140311
858.037	0.0140136
858.115	0.0141270
858.193	0.0141730
858.271	0.0140488
858.349	0.0141847
858.427	0.0142250
858.505	0.0141478
858.583	0.0140223
858.662	0.0143481
858.740	0.0140400
858.818	0.0140125
858.896	0.0140828
858.974	0.0140211
859.052	0.0138324
859.130	0.0138327
859.208	0.0139248
859.287	0.0138037
859.365	0.0138737
859.443	0.0137855
859.521	0.0138070
859.599	0.0137010
859.677	0.0137399
859.755	0.0138049
859.833	0.0136372
859.912	0.0137201
859.990	0.0137411
860.068	0.0135580
860.146	0.0136472
860.224	0.0136513
860.302	0.0134762
860.380	0.0136636
860.458	0.0137621
860.537	0.0136644
860.615	0.0136924
860.693	0.0137093
860.771	0.0138651
860.849	0.0138992
860.927	0.0137755
861.005	0.0140099
861.083	0.0139880
861.162	0.0140466
861.240	0.0142262
861.318	0.0141400
861.396	0.0140567
861.474	0.0140645
861.552	0.0141044
861.630	0.0140801
861.708	0.0141502
861.787	0.0141530
861.865	0.0140597
861.943	0.0142007
862.021	0.0140884
862.099	0.0141267
862.177	0.0140827
862.255	0.0139754
862.333	0.0140174
862.412	0.0139716
862.490	0.0138762
862.568	0.0138108
862.646	0.0137467
862.724	0.0136752
862.802	0.0136976
862.880	0.0136105
862.958	0.0136929
863.037	0.0137302
863.115	0.0136826
863.193	0.0135881
863.271	0.0136646
863.349	0.0138881
863.427	0.0136905
863.505	0.0138643
863.583	0.0138185
863.662	0.0138983
863.740	0.0138256
863.818	0.0139713
863.896	0.0140853
863.974	0.0139381
864.052	0.0140276
864.130	0.0141326
864.208	0.0141021
864.287	0.0141574
864.365	0.0140884
864.443	0.0140536
864.521	0.0142941
864.599	0.0142114
864.677	0.0140763
864.755	0.0140435
864.833	0.0140167
864.912	0.0140839
864.990	0.0139362
865.068	0.0139727
865.146	0.0139986
865.224	0.0138774
865.302	0.0138142
865.380	0.0138343
865.458	0.0138010
865.537	0.0136945
865.615	0.0136535
865.693	0.0138099
865.771	0.0137181
865.849	0.0135764
865.927	0.0136301
866.005	0.0135796
866.083	0.0136832
866.162	0.0136874
866.240	0.0138251
866.318	0.0136578
866.396	0.0136990
866.474	0.0136922
866.552	0.0137925
866.630	0.0136255
866.708	0.0137228
866.787	0.0138224
866.865	0.0138245
866.943	0.0138424
867.021	0.0138979
867.099	0.0140105
867.177	0.0141203
867.255	0.0139606
867.333	0.0139033
867.412	0.0141813
867.490	0.0142027
867.568	0.0140891
867.646	0.0142663
867.724	0.0142809
867.802	0.0141402
867.880	0.0142042
867.958	0.0141457
868.037	0.0141374
868.115	0.0140485
868.193	0.0141195
868.271	0.0140600
868.349	0.0140295
868.427	0.0140107
868.505	0.0139526
868.583	0.0137940
868.662	0.0138348
868.740	0.0139117
868.818	0.0138937
868.896	0.0138611
868.974	0.0137378
869.052	0.0137103
869.130	0.0136841
869.208	0.0135541
869.287	0.0135580
869.365	0.0135300
869.443	0.0136109
869.521	0.0136479
869.599	0.0135003
869.677	0.0134641
869.755	0.0134750
869.833	0.0135943
869.912	0.0136079
869.990	0.0137532
870.068	0.0137084
870.146	0.0135956
870.224	0.0137830
870.302	0.0138454
870.380	0.0139059
870.458	0.0140324
870.537	0.0139651
870.615	0.0140198
870.693	0.0139320
870.771	0.0140295
870.849	0.0141540
870.927	0.0142200
871.005	0.0140598
871.083	0.0141557
871.162	0.0142892
871.240	0.0142353
871.318	0.0141747
871.396	0.0141734
871.474	0.0142014
871.552	0.0141824
871.630	0.0143078
871.708	0.0140653
871.787	0.0141387
871.865	0.0141850
871.943	0.0139688
872.021	0.0141552
872.099	0.0140436
872.177	0.0140716
872.255	0.0139558
872.333	0.0140221
872.412	0.0139001
872.490	0.0138927
872.568	0.0139611
872.646	0.0140062
872.724	0.0138643
872.802	0.0141360
872.880	0.0140635
872.958	0.0140546
873.037	0.0140753
873.115	0.0139686
873.193	0.0138779
873.271	0.0140543
873.349	0.0138923
873.427	0.0138304
873.505	0.0138782
873.583	0.0138074
873.662	0.0137577
873.740	0.0137380
873.818	0.0138042
873.896	0.0137482
873.974	0.0138838
874.052	0.0137379
874.130	0.0135550
874.208	0.0136871
874.287	0.0137878
874.365	0.0137872
874.443	0.0137981
874.521	0.0139948
874.599	0.0138673
874.677	0.0139534
874.755	0.0140070
874.833	0.0139690
874.912	0.0140672
874.990	0.0140636
875.068	0.0141356
875.146	0.0140669
875.224	0.0140007
875.302	0.0140752
875.380	0.0142008
875.458	0.0140413
875.537	0.0139728
875.615	0.0138995
875.693	0.0140169
875.771	0.0140110
875.849	0.0139357
875.927	0.0140485
876.005	0.0139826
876.083	0.0139887
876.162	0.0140179
876.240	0.0139307
876.318	0.0138863
876.396	0.0138835
876.474	0.0138467
876.552	0.0138423
876.630	0.0137235
876.708	0.0140806
876.787	0.0140577
876.865	0.0138715
876.943	0.0140240
877.021	0.0139494
877.099	0.0140349
877.177	0.0140376
877.255	0.0141081
877.333	0.0139729
877.412	0.0139941
877.490	0.0140548
877.568	0.0140112
877.646	0.0137830
877.724	0.0137515
877.802	0.0138089
877.880	0.0139148
877.958	0.0139455
878.037	0.0139124
878.115	0.0139371
878.193	0.0138755
878.271	0.0139040
878.349	0.0139655
878.427	0.0139761
878.505	0.0140067
878.583	0.0140402
878.662	0.0139075
878.740	0.0140144
878.818	0.0140345
878.896	0.0138377
878.974	0.0139455
879.052	0.0139548
879.130	0.0137874
879.208	0.0137853
879.287	0.0138573
879.365	0.0138975
879.443	0.0137276
879.521	0.0139218
879.599	0.0136409
879.677	0.0135477
879.755	0.0136270
879.833	0.0136780
879.912	0.0135607
879.990	0.0137104
880.068	0.0136736
880.146	0.0135923
880.224	0.0136698
880.302	0.0137206
880.380	0.0136536
880.458	0.0139537
880.537	0.0138531
880.615	0.0137633
880.693	0.0138317
880.771	0.0139648
880.849	0.0138528
880.927	0.0138513
881.005	0.0138203
881.083	0.0137945
881.162	0.0139656
881.240	0.0139470
881.318	0.0139422
881.396	0.0139275
881.474	0.0139101
881.552	0.0141630
881.630	0.0141862
881.708	0.0140602
881.787	0.0140707
881.865	0.0141109
881.943	0.0141328
882.021	0.0141046
882.099	0.0141468
882.177	0.0140250
882.255	0.0140855
882.333	0.0141013
882.412	0.0141553
882.490	0.0140808
882.568	0.0140558
882.646	0.0140423
882.724	0.0139487
882.802	0.0140413
882.880	0.0139980
882.958	0.0139474
883.037	0.0139594
883.115	0.0138846
883.193	0.0138856
883.271	0.0137305
883.349	0.0136527
883.427	0.0136384
883.505	0.0137773
883.583	0.0136951
883.662	0.0136715
883.740	0.0135783
883.818	0.0135328
883.896	0.0134656
883.974	0.0134365
884.052	0.0136992
884.130	0.0137000
884.208	0.0136766
884.287	0.0136364
884.365	0.0138548
884.443	0.0137863
884.521	0.0137988
884.599	0.0138302
884.677	0.0138837
884.755	0.0138281
884.833	0.0140439
884.912	0.0139573
884.990	0.0141006
885.068	0.0140481
885.146	0.0140430
885.224	0.0139992
885.302	0.0140928
885.380	0.0142840
885.458	0.0140411
885.537	0.0139677
885.615	0.0140963
885.693	0.0139971
885.771	0.0139957
885.849	0.0140675
885.927	0.0140727
886.005	0.0140838
886.083	0.0139110
886.162	0.0140462
886.240	0.0140493
886.318	0.0140781
886.396	0.0138988
886.474	0.0140209
886.552	0.0140552
886.630	0.0138110
886.708	0.0139690
886.787	0.0140674
886.865	0.0139085
886.943	0.0140707
887.021	0.0139652
887.099	0.0140244
887.177	0.0141173
887.255	0.0141531
887.333	0.0141412
887.412	0.0141566
887.490	0.0140628
887.568	0.0141587
887.646	0.0141636
887.724	0.0139706
887.802	0.0139918
887.880	0.0140598
887.958	0.0139390
888.037	0.0138844
888.115	0.0138674
888.193	0.0136487
888.271	0.0137563
888.349	0.0135788
888.427	0.0135519
888.505	0.0136175
888.583	0.0135795
888.662	0.0136601
888.740	0.0135769
888.818	0.0134065
888.896	0.0135503
888.974	0.0136169
889.052	0.0136355
889.130	0.0136542
889.208	0.0137489
889.287	0.0136202
889.365	0.0137498
889.443	0.0138790
889.521	0.0138569
889.599	0.0139453
889.677	0.0140385
889.755	0.0139571
889.833	0.0139110
889.912	0.0141452
889.990	0.0141297
890.068	0.0139417
890.146	0.0139084
890.224	0.0140255
890.302	0.0141540
890.380	0.0140588
890.458	0.0138443
890.537	0.0139404
890.615	0.0141042
890.693	0.0139604
890.771	0.0138377
890.849	0.0139725
890.927	0.0139539
891.005	0.0139554
891.083	0.0139884
891.162	0.0138552
891.240	0.0140172
891.318	0.0139333
891.396	0.0139413
891.474	0.0139812
891.552	0.0139026
891.630	0.0139011
891.708	0.0137766
891.787	0.0138906
891.865	0.0138584
891.943	0.0138190
892.021	0.0138506
892.099	0.0137664
892.177	0.0137987
892.255	0.0138461
892.333	0.0138336
892.412	0.0137702
892.490	0.0139043
892.568	0.0136953
892.646	0.0137419
892.724	0.0139623
892.802	0.0138342
892.880	0.0138707
892.958	0.0140275
893.037	0.0139999
893.115	0.0139200
893.193	0.0141006
893.271	0.0140432
893.349	0.0140308
893.427	0.0140939
893.505	0.0140833
893.583	0.0141021
893.662	0.0141229
893.740	0.0141172
893.818	0.0141152
893.896	0.0139990
893.974	0.0140491
894.052	0.0141290
894.130	0.0139809
894.208	0.0139448
894.287	0.0139734
894.365	0.0138635
894.443	0.0139013
894.521	0.0140338
894.599	0.0139753
894.677	0.0138006
894.755	0.0138068
894.833	0.0136639
894.912	0.0138148
894.990	0.0137384
895.068	0.0137222
895.146	0.0136319
895.224	0.0135213
895.302	0.0135602
895.380	0.0136255
895.458	0.0136221
895.537	0.0136735
895.615	0.0135345
895.693	0.0135530
895.771	0.0137141
895.849	0.0135345
895.927	0.0137032
896.005	0.0136288
896.083	0.0137769
896.162	0.0139906
896.240	0.0140317
896.318	0.0138210
896.396	0.0139394
896.474	0.0140343
896.552	0.0142033
896.630	0.0141315
896.708	0.0141541
896.787	0.0141974
896.865	0.0141719
896.943	0.0142567
897.021	0.0141496
897.099	0.0141695
897.177	0.0142798
897.255	0.0142237
897.333	0.0143002
897.412	0.0143230
897.490	0.0141331
897.568	0.0140836
897.646	0.0140407
897.724	0.0141956
897.802	0.0141073
897.880	0.0139908
897.958	0.0139905
898.037	0.0139071
898.115	0.0139340
898.193	0.0138931
898.271	0.0138322
898.349	0.0138329
898.427	0.0136915
898.505	0.0138770
898.583	0.0137806
898.662	0.0136689
898.740	0.0136887
898.818	0.0136617
898.896	0.0137009
898.974	0.0137609
899.052	0.0138173
899.130	0.0138162
899.208	0.0138049
899.287	0.0137668
899.365	0.0137524
899.443	0.0138636
899.521	0.0138891
899.599	0.0140170
899.677	0.0139497
899.755	0.0139395
899.833	0.0139354
899.912	0.0138132
899.990	0.0137722
900.068	0.0136877
900.146	0.0137669
900.224	0.0138096
900.302	0.0137348
900.380	0.0137400
900.458	0.0136818
900.537	0.0136224
900.615	0.0136301
900.693	0.0135824
900.771	0.0137245
900.849	0.0137572
900.927	0.0136587
901.005	0.0136439
901.083	0.0137772
901.162	0.0138479
901.240	0.0138813
901.318	0.0137192
901.396	0.0136765
901.474	0.0136478
901.552	0.0137400
901.630	0.0137401
901.708	0.0137715
901.787	0.0139007
901.865	0.0137193
901.943	0.0137892
902.021	0.0137584
902.099	0.0137173
902.177	0.0138525
902.255	0.0138432
902.333	0.0139450
902.412	0.0140497
902.490	0.0139734
902.568	0.0139431
902.646	0.0140848
902.724	0.0140450
902.802	0.0142130
902.880	0.0142200
902.958	0.0141316
903.037	0.0141208
903.115	0.0142068
903.193	0.0140727
903.271	0.0139295
903.349	0.0139213
903.427	0.0139544
903.505	0.0138895
903.583	0.0139153
903.662	0.0137737
903.740	0.0138235
903.818	0.0136754
903.896	0.0137033
903.974	0.0137442
904.052	0.0136140
904.130	0.0136977
904.208	0.0138159
904.287	0.0137981
904.365	0.0136680
904.443	0.0139218
904.521	0.0139991
904.599	0.0137186
904.677	0.0136890
904.755	0.0138411
904.833	0.0138233
904.912	0.0140997
904.990	0.0139088
905.068	0.0138507
905.146	0.0139628
905.224	0.0139190
905.302	0.0140138
905.380	0.0139986
905.458	0.0138855
905.537	0.0140327
905.615	0.0139034
905.693	0.0139933
905.771	0.0138997
905.849	0.0138867
905.927	0.0139541
906.005	0.0138254
906.083	0.0136552
906.162	0.0138202
906.240	0.0138045
906.318	0.0137428
906.396	0.0137643
906.474	0.0138404
906.552	0.0138737
906.630	0.0138647
906.708	0.0137887
906.787	0.0138914
906.865	0.0138661
906.943	0.0138377
907.021	0.0138492
907.099	0.0137879
907.177	0.0138629
907.255	0.0138210
907.333	0.0137705
907.412	0.0138029
907.490	0.0138503
907.568	0.0138032
907.646	0.0137727
907.724	0.0138678
907.802	0.0139029
907.880	0.0139397
907.958	0.0140981
908.037	0.0141405
908.115	0.0140561
908.193	0.0140419
908.271	0.0141387
908.349	0.0140501
908.427	0.0142108
908.505	0.0140099
908.583	0.0141745
908.662	0.0140869
908.740	0.0140695
908.818	0.0140865
908.896	0.0140614
908.974	0.0141410
909.052	0.0141251
909.130	0.0138949
909.208	0.0141190
909.287	0.0141395
909.365	0.0140284
909.443	0.0139665
909.521	0.0140075
909.599	0.0138704
909.677	0.0138914
909.755	0.0139336
909.833	0.0137724
909.912	0.0138002
909.990	0.0137565
910.068	0.0138332
910.146	0.0137884
910.224	0.0137950
910.302	0.0137119
910.380	0.0137772
910.458	0.0137276
910.537	0.0137522
910.615	0.0137662
910.693	0.0138941
910.771	0.0138705
910.849	0.0137842
910.927	0.0138203
911.005	0.0138352
911.083	0.0138634
911.162	0.0137166
911.240	0.0137878
911.318	0.0138043
911.396	0.0138453
911.474	0.0138427
911.552	0.0138674
911.630	0.0138489
911.708	0.0137962
911.787	0.0139282
911.865	0.0138924
911.943	0.0138229
912.021	0.0139013
912.099	0.0139224
912.177	0.0139600
912.255	0.0137897
912.333	0.0138445
912.412	0.0137866
912.490	0.0138245
912.568	0.0138548
912.646	0.0138828
912.724	0.0137591
912.802	0.0137423
912.880	0.0137941
912.958	0.0138554
913.037	0.0136950
913.115	0.0137483
913.193	0.0138805
913.271	0.0138557
913.349	0.0138029
913.427	0.0139120
913.505	0.0139457
913.583	0.0139329
913.662	0.0139745
913.740	0.0138833
913.818	0.0140258
913.896	0.0140246
913.974	0.0140788
914.052	0.0141003
914.130	0.0139947
914.208	0.0142087
914.287	0.0142590
914.365	0.0141360
914.443	0.0140903
914.521	0.0139998
914.599	0.0140535
914.677	0.0140679
914.755	0.0139832
914.833	0.0140793
914.912	0.0139644
914.990	0.0140704
915.068	0.0141730
915.146	0.0140748
915.224	0.0138544
915.302	0.0139783
915.380	0.0138808
915.458	0.0138850
915.537	0.0140736
915.615	0.0137402
915.693	0.0136591
915.771	0.0138199
915.849	0.0138337
915.927	0.0138271
916.005	0.0137431
916.083	0.0137280
916.162	0.0136787
916.240	0.0135955
916.318	0.0137890
916.396	0.0136111
916.474	0.0136288
916.552	0.0135835
916.630	0.0135672
916.708	0.0136181
916.787	0.0135468
916.865	0.0136394
916.943	0.0137345
917.021	0.0135686
917.099	0.0137973
917.177	0.0138827
917.255	0.0138509
917.333	0.0138035
917.412	0.0137578
917.490	0.0138327
917.568	0.0139245
917.646	0.0137665
917.724	0.0137392
917.802	0.0138651
917.880	0.0138729
917.958	0.0137775
918.037	0.0137962
918.115	0.0138814
918.193	0.0138294
918.271	0.0138514
918.349	0.0137457
918.427	0.0138311
918.505	0.0138161
918.583	0.0139175
918.662	0.0138234
918.740	0.0140583
918.818	0.0139255
918.896	0.0139137
918.974	0.0138623
919.052	0.0139672
919.130	0.0140806
919.208	0.0139593
919.287	0.0138818
919.365	0.0139997
919.443	0.0139500
919.521	0.0138576
919.599	0.0140542
919.677	0.0139715
919.755	0.0140277
919.833	0.0140343
919.912	0.0141210
919.990	0.0141634
920.068	0.0140931
920.146	0.0140032
920.224	0.0140801
920.302	0.0140939
920.380	0.0140488
920.458	0.0140987
920.537	0.0141306
920.615	0.0139550
920.693	0.0139344
920.771	0.0139459
920.849	0.0139843
920.927	0.0137769
921.005	0.0138542
921.083	0.0137199
921.162	0.0138822
921.240	0.0139019
921.318	0.0136080
921.396	0.0138795
921.474	0.0136986
921.552	0.0137666
921.630	0.0137598
921.708	0.0137612
921.787	0.0138541
921.865	0.0140464
921.943	0.0139776
922.021	0.0138406
922.099	0.0140724
922.177	0.0138985
922.255	0.0139245
922.333	0.0139213
922.412	0.0139076
922.490	0.0139561
922.568	0.0139307
922.646	0.0138223
922.724	0.0138417
922.802	0.0138358
922.880	0.0139158
922.958	0.0137374
923.037	0.0137243
923.115	0.0138525
923.193	0.0139356
923.271	0.0140012
923.349	0.0138893
923.427	0.0139518
923.505	0.0138214
923.583	0.0138556
923.662	0.0138647
923.740	0.0138934
923.818	0.0137812
923.896	0.0139170
923.974	0.0139436
924.052	0.0137365
924.130	0.0139957
924.208	0.0138515
924.287	0.0138239
924.365	0.0139584
924.443	0.0139837
924.521	0.0138116
924.599	0.0139162
924.677	0.0139156
924.755	0.0139635
924.833	0.0139099
924.912	0.0137491
924.990	0.0138371
925.068	0.0140331
925.146	0.0139587
925.224	0.0139192
925.302	0.0139884
925.380	0.0140867
925.458	0.0139837
925.537	0.0140065
925.615	0.0140963
925.693	0.0141521
925.771	0.0140969
925.849	0.0140032
925.927	0.0140438
926.005	0.0141810
926.083	0.0139825
926.162	0.0141255
926.240	0.0140968
926.318	0.0141042
926.396	0.0141393
926.474	0.0141830
926.552	0.0140331
926.630	0.0139799
926.708	0.0139829
926.787	0.0140917
926.865	0.0139831
926.943	0.0140527
927.021	0.0139563
927.099	0.0139329
927.177	0.0137244
927.255	0.0139259
927.333	0.0137916
927.412	0.0138267
927.490	0.0138120
927.568	0.0138439
927.646	0.0138648
927.724	0.0138287
927.802	0.0137860
927.880	0.0137514
927.958	0.0137945
928.037	0.0138689
928.115	0.0138628
928.193	0.0138679
928.271	0.0137943
928.349	0.0138673
928.427	0.0138088
928.505	0.0137737
928.583	0.0139914
928.662	0.0139127
928.740	0.0140437
928.818	0.0140535
928.896	0.0140749
928.974	0.0139290
929.052	0.0140355
929.130	0.0141554
929.208	0.0141536
929.287	0.0141312
929.365	0.0140325
929.443	0.0140897
929.521	0.0140910
929.599	0.0141156
929.677	0.0140156
929.755	0.0139626
929.833	0.0139598
929.912	0.0139622
929.990	0.0140283
930.068	0.0139498
930.146	0.0138789
930.224	0.0138722
930.302	0.0138507
930.380	0.0138605
930.458	0.0137098
930.537	0.0136979
930.615	0.0137490
930.693	0.0137860
930.771	0.0138789
930.849	0.0137895
930.927	0.0137801
931.005	0.0138298
931.083	0.0139155
931.162	0.0137250
931.240	0.0138892
931.318	0.0138481
931.396	0.0138273
931.474	0.0139474
931.552	0.0137328
931.630	0.0140040
931.708	0.0140083
931.787	0.0139568
931.865	0.0138934
931.943	0.0138509
932.021	0.0140179
932.099	0.0140216
932.177	0.0139166
932.255	0.0139391
932.333	0.0139777
932.412	0.0140144
932.490	0.0140954
932.568	0.0139301
932.646	0.0138794
932.724	0.0140014
932.802	0.0139371
932.880	0.0138348
932.958	0.0137749
933.037	0.0138374
933.115	0.0138314
933.193	0.0137896
933.271	0.0137215
933.349	0.0138564
933.427	0.0137971
933.505	0.0138548
933.583	0.0139897
933.662	0.0139655
933.740	0.0139154
933.818	0.0140006
933.896	0.0138690
933.974	0.0139439
934.052	0.0139727
934.130	0.0140678
934.208	0.0141388
934.287	0.0141093
934.365	0.0141549
934.443	0.0140942
934.521	0.0142130
934.599	0.0141633
934.677	0.0141476
934.755	0.0141653
934.833	0.0143424
934.912	0.0142145
934.990	0.0139588
935.068	0.0139804
935.146	0.0141029
935.224	0.0139110
935.302	0.0138984
935.380	0.0138493
935.458	0.0137541
935.537	0.0138268
935.615	0.0136234
935.693	0.0138235
935.771	0.0137575
935.849	0.0135876
935.927	0.0134360
936.005	0.0134966
936.083	0.0136174
936.162	0.0136204
936.240	0.0137308
936.318	0.0136552
936.396	0.0136388
936.474	0.0138144
936.552	0.0137411
936.630	0.0137705
936.708	0.0138405
936.787	0.0138754
936.865	0.0138975
936.943	0.0139036
937.021	0.0139597
937.099	0.0139901
937.177	0.0140797
937.255	0.0139472
937.333	0.0140579
937.412	0.0139703
937.490	0.0140154
937.568	0.0139658
937.646	0.0140129
937.724	0.0140411
937.802	0.0140671
937.880	0.0139910
937.958	0.0140048
938.037	0.0140142
938.115	0.0139383
938.193	0.0139623
938.271	0.0138719
938.349	0.0138360
938.427	0.0138546
938.505	0.0137062
938.583	0.0137648
938.662	0.0139422
938.740	0.0138078
938.818	0.0138869
938.896	0.0137351
938.974	0.0137878
939.052	0.0137999
939.130	0.0139080
939.208	0.0137610
939.287	0.0138329
939.365	0.0139408
939.443	0.0138284
939.521	0.0137546
939.599	0.0140176
939.677	0.0139511
939.755	0.0139632
939.833	0.0140308
939.912	0.0140261
939.990	0.0141139
940.068	0.0140858
940.146	0.0140121
940.224	0.0138889
940.302	0.0139475
940.380	0.0139833
940.458	0.0140127
940.537	0.0139495
940.615	0.0139113
940.693	0.0138452
940.771	0.0138558
940.849	0.0138437
940.927	0.0136828
941.005	0.0138416
941.083	0.0136814
941.162	0.0137168
941.240	0.0138830
941.318	0.0138216
941.396	0.0136976
941.474	0.0137802
941.552	0.0136486
941.630	0.0138178
941.708	0.0137540
941.787	0.0138126
941.865	0.0136980
941.943	0.0136542
942.021	0.0137322
942.099	0.0136797
942.177	0.0137772
942.255	0.0137764
942.333	0.0137376
942.412	0.0137555
942.490	0.0137874
942.568	0.0138556
942.646	0.0140337
942.724	0.0139471
942.802	0.0138200
942.880	0.0140025
942.958	0.0138474
943.037	0.0138339
943.115	0.0139472
943.193	0.0140741
943.271	0.0139954
943.349	0.0140295
943.427	0.0140965
943.505	0.0140859
943.583	0.0140974
943.662	0.0141533
943.740	0.0140070
943.818	0.0138929
943.896	0.0139277
943.974	0.0140324
944.052	0.0140132
944.130	0.0139572
944.208	0.0139762
944.287	0.0139711
944.365	0.0140578
944.443	0.0140427
944.521	0.0140039
944.599	0.0140618
944.677	0.0139766
944.755	0.0140111
944.833	0.0139423
944.912	0.0139703
944.990	0.0138691
945.068	0.0138657
945.146	0.0138749
945.224	0.0139707
945.302	0.0139408
945.380	0.0138759
945.458	0.0139494
945.537	0.0140158
945.615	0.0138288
945.693	0.0138012
945.771	0.0138563
945.849	0.0140274
945.927	0.0139631
946.005	0.0140558
946.083	0.0140733
946.162	0.0139548
946.240	0.0140240
946.318	0.0139750
946.396	0.0139619
946.474	0.0140218
946.552	0.0139478
946.630	0.0140059
946.708	0.0139435
946.787	0.0139957
946.865	0.0140010
946.943	0.0138542
947.021	0.0137501
947.099	0.0137948
947.177	0.0138692
947.255	0.0138240
947.333	0.0139006
947.412	0.0139109
947.490	0.0138486
947.568	0.0137811
947.646	0.0136916
947.724	0.0138920
947.802	0.0139135
947.880	0.0138873
947.958	0.0137863
948.037	0.0138271
948.115	0.0138570
948.193	0.0138635
948.271	0.0138700
948.349	0.0138680
948.427	0.0138821
948.505	0.0138827
948.583	0.0138149
948.662	0.0140527
948.740	0.0140426
948.818	0.0140258
948.896	0.0140379
948.974	0.0140073
949.052	0.0140667
949.130	0.0140848
949.208	0.0140668
949.287	0.0140742
949.365	0.0142520
949.443	0.0141930
949.521	0.0141079
949.599	0.0141277
949.677	0.0141296
949.755	0.0140871
949.833	0.0140527
949.912	0.0141497
949.990	0.0141801
950.068	0.0140796
950.146	0.0140787
950.224	0.0142528
950.302	0.0140718
950.380	0.0142263
950.458	0.0142497
950.537	0.0140612
950.615	0.0140195
950.693	0.0139908
950.771	0.0138721
950.849	0.0139564
950.927	0.0139932
951.005	0.0138729
951.083	0.0139626
951.162	0.0137759
951.240	0.0138187
951.318	0.0137815
951.396	0.0136871
951.474	0.0138441
951.552	0.0137916
951.630	0.0138191
951.708	0.0138615
951.787	0.0139088
951.865	0.0137857
951.943	0.0139030
952.021	0.0138895
952.099	0.0139238
952.177	0.0139785
952.255	0.0137737
952.333	0.0139335
952.412	0.0140649
952.490	0.0140039
952.568	0.0139766
952.646	0.0140647
952.724	0.0140819
952.802	0.0140193
952.880	0.0139070
952.958	0.0139899
953.037	0.0139901
953.115	0.0139085
953.193	0.0140572
953.271	0.0139840
953.349	0.0137611
953.427	0.0138058
953.505	0.0138866
953.583	0.0137878
953.662	0.0138414
953.740	0.0137970
953.818	0.0138187
953.896	0.0140106
953.974	0.0139086
954.052	0.0137873
954.130	0.0140577
954.208	0.0140104
954.287	0.0139709
954.365	0.0137801
954.443	0.0140979
954.521	0.0140134
954.599	0.0139273
954.677	0.0140955
954.755	0.0140297
954.833	0.0140326
954.912	0.0140263
954.990	0.0141772
955.068	0.0141276
955.146	0.0139912
955.224	0.0140928
955.302	0.0141409
955.380	0.0139558
955.458	0.0139735
955.537	0.0141222
955.615	0.0140359
955.693	0.0138751
955.771	0.0140762
955.849	0.0140560
955.927	0.0139347
956.005	0.0138962
956.083	0.0141154
956.162	0.0138496
956.240	0.0140238
956.318	0.0140299
956.396	0.0140593
956.474	0.0138951
956.552	0.0138809
956.630	0.0139749
956.708	0.0139748
956.787	0.0138844
956.865	0.0140120
956.943	0.0139848
957.021	0.0139029
957.099	0.0139702
957.177	0.0138128
957.255	0.0138870
957.333	0.0139394
957.412	0.0138710
957.490	0.0139865
957.568	0.0140356
957.646	0.0138742
957.724	0.0138492
957.802	0.0138668
957.880	0.0138615
957.958	0.0139286
958.037	0.0138467
958.115	0.0140999
958.193	0.0139227
958.271	0.0139074
958.349	0.0138882
958.427	0.0139826
958.505	0.0138893
958.583	0.0140020
958.662	0.0139483
958.740	0.0137926
958.818	0.0138117
958.896	0.0138877
958.974	0.0138779
959.052	0.0138250
959.130	0.0138294
959.208	0.0139136
959.287	0.0139093
959.365	0.0138306
959.443	0.0138953
959.521	0.0138019
959.599	0.0138333
959.677	0.0140329
959.755	0.0140158
959.833	0.0140025
959.912	0.0140052
959.990	0.0140650
960.068	0.0140146
960.146	0.0140958
960.224	0.0142100
960.302	0.0141514
960.380	0.0142704
960.458	0.0140633
960.537	0.0141463
960.615	0.0140300
960.693	0.0141771
960.771	0.0142154
960.849	0.0140299
960.927	0.0140053
961.005	0.0140328
961.083	0.0140643
961.162	0.0141251
961.240	0.0141325
961.318	0.0140534
961.396	0.0141720
961.474	0.0140579
961.552	0.0139970
961.630	0.0139119
961.708	0.0138506
961.787	0.0139643
961.865	0.0139077
961.943	0.0139672
962.021	0.0139015
962.099	0.0136844
962.177	0.0136915
962.255	0.0137878
962.333	0.0136396
962.412	0.0137959
962.490	0.0137732
962.568	0.0135888
962.646	0.0136948
962.724	0.0136176
962.802	0.0137728
962.880	0.0136787
962.958	0.0135668
963.037	0.0136594
963.115	0.0137344
963.193	0.0136004
963.271	0.0138340
963.349	0.0137692
963.427	0.0137076
963.505	0.0137402
963.583	0.0139382
963.662	0.0138023
963.740	0.0139732
963.818	0.0139256
963.896	0.0140404
963.974	0.0141236
964.052	0.0140779
964.130	0.0140818
964.208	0.0142041
964.287	0.0142636
964.365	0.0142001
964.443	0.0142127
964.521	0.0142326
964.599	0.0142261
964.677	0.0141528
964.755	0.0140445
964.833	0.0141043
964.912	0.0142794
964.990	0.0142145
965.068	0.0142705
965.146	0.0141779
965.224	0.0139471
965.302	0.0139730
965.380	0.0140784
965.458	0.0140065
965.537	0.0140639
965.615	0.0137995
965.693	0.0137967
965.771	0.0138509
965.849	0.0137920
965.927	0.0138418
966.005	0.0137199
966.083	0.0137823
966.162	0.0137769
966.240	0.0137622
966.318	0.0137227
966.396	0.0137456
966.474	0.0135124
966.552	0.0135867
966.630	0.0136150
966.708	0.0135027
966.787	0.0135816
966.865	0.0135840
966.943	0.0134443
967.021	0.0137060
967.099	0.0136047
967.177	0.0136040
967.255	0.0137308
967.333	0.0137422
967.412	0.0137859
967.490	0.0137155
967.568	0.0137988
967.646	0.0139119
967.724	0.0139326
967.802	0.0138651
967.880	0.0138267
967.958	0.0139945
968.037	0.0139083
968.115	0.0140444
968.193	0.0141180
968.271	0.0140288
968.349	0.0139054
968.427	0.0140562
968.505	0.0142496
968.583	0.0141570
968.662	0.0142120
968.740	0.0142780
968.818	0.0142576
968.896	0.0142326
968.974	0.0142217
969.052	0.0143198
969.130	0.0142883
969.208	0.0140974
969.287	0.0140418
969.365	0.0139165
969.443	0.0139369
969.521	0.0140186
969.599	0.0137745
969.677	0.0137350
969.755	0.0139100
969.833	0.0138439
969.912	0.0137871
