05/08/2022	19:54:35	Ver.	4.1	UNKNOWN
Optical Delay	649.989667	Delta X		0.078125	Sweeps	1	Scan Rate	0/0
Coordinates	Axis 1	NaN	Axis 2	NaN	Axis 3	NaN	Axis 4	NaN	Axis 5	NaN	Axis 6	0.000000
TX Power	0.000000	RX Power	0.000000

649.990	0.0136414
650.068	0.0136556
650.146	0.0136999
650.224	0.0136289
650.302	0.0134044
650.380	0.0136085
650.458	0.0137257
650.537	0.0135645
650.615	0.0136252
650.693	0.0136380
650.771	0.0138277
650.849	0.0135942
650.927	0.0136140
651.005	0.0136481
651.083	0.0136356
651.162	0.0135326
651.240	0.0136246
651.318	0.0135548
651.396	0.0136559
651.474	0.0134922
651.552	0.0137038
651.630	0.0135844
651.708	0.0136327
651.787	0.0135587
651.865	0.0135583
651.943	0.0136333
652.021	0.0134281
652.099	0.0136214
652.177	0.0135579
652.255	0.0135491
652.333	0.0135395
652.412	0.0137218
652.490	0.0137524
652.568	0.0137458
652.646	0.0135626
652.724	0.0136183
652.802	0.0135706
652.880	0.0136937
652.958	0.0136505
653.037	0.0135529
653.115	0.0135181
653.193	0.0135780
653.271	0.0137347
653.349	0.0135684
653.427	0.0135349
653.505	0.0134437
653.583	0.0135184
653.662	0.0136334
653.740	0.0134880
653.818	0.0136337
653.896	0.0135667
653.974	0.0136973
654.052	0.0135635
654.130	0.0135542
654.208	0.0135903
654.287	0.0136593
654.365	0.0136041
654.443	0.0135350
654.521	0.0136071
654.599	0.0136348
654.677	0.0135926
654.755	0.0135261
654.833	0.0136043
654.912	0.0136794
654.990	0.0135735
655.068	0.0135719
655.146	0.0135051
655.224	0.0134675
655.302	0.0135782
655.380	0.0135507
655.458	0.0135950
655.537	0.0134933
655.615	0.0134386
655.693	0.0136215
655.771	0.0135268
655.849	0.0134778
655.927	0.0134641
656.005	0.0137791
656.083	0.0135669
656.162	0.0136334
656.240	0.0136114
656.318	0.0135417
656.396	0.0135239
656.474	0.0135034
656.552	0.0135262
656.630	0.0136286
656.708	0.0134586
656.787	0.0134686
656.865	0.0134278
656.943	0.0135321
657.021	0.0135147
657.099	0.0136002
657.177	0.0135553
657.255	0.0135850
657.333	0.0134988
657.412	0.0135108
657.490	0.0136312
657.568	0.0135751
657.646	0.0135528
657.724	0.0134985
657.802	0.0136595
657.880	0.0137914
657.958	0.0138511
658.037	0.0137334
658.115	0.0137529
658.193	0.0137669
658.271	0.0136945
658.349	0.0138421
658.427	0.0136926
658.505	0.0137633
658.583	0.0135793
658.662	0.0134081
658.740	0.0134438
658.818	0.0132645
658.896	0.0132577
658.974	0.0132404
659.052	0.0131944
659.130	0.0131160
659.208	0.0131911
659.287	0.0131950
659.365	0.0132290
659.443	0.0132349
659.521	0.0133956
659.599	0.0134452
659.677	0.0134649
659.755	0.0135690
659.833	0.0136772
659.912	0.0136600
659.990	0.0138411
660.068	0.0139800
660.146	0.0140124
660.224	0.0141624
660.302	0.0140835
660.380	0.0143167
660.458	0.0143460
660.537	0.0142680
660.615	0.0141306
660.693	0.0141717
660.771	0.0140674
660.849	0.0141182
660.927	0.0140788
661.005	0.0138797
661.083	0.0136895
661.162	0.0137537
661.240	0.0134705
661.318	0.0133736
661.396	0.0134309
661.474	0.0131271
661.552	0.0130965
661.630	0.0127709
661.708	0.0127897
661.787	0.0125688
661.865	0.0123567
661.943	0.0123506
662.021	0.0124246
662.099	0.0124563
662.177	0.0126440
662.255	0.0129096
662.333	0.0130063
662.412	0.0133498
662.490	0.0137180
662.568	0.0141158
662.646	0.0143439
662.724	0.0147739
662.802	0.0148208
662.880	0.0150887
662.958	0.0151905
663.037	0.0153381
663.115	0.0155230
663.193	0.0153417
663.271	0.0152534
663.349	0.0152261
663.427	0.0150909
663.505	0.0148491
663.583	0.0144614
663.662	0.0144501
663.740	0.0141230
663.818	0.0137491
663.896	0.0136584
663.974	0.0134354
664.052	0.0130654
664.130	0.0130041
664.208	0.0127435
664.287	0.0123019
664.365	0.0122325
664.443	0.0119556
664.521	0.0117376
664.599	0.0115830
664.677	0.0115411
664.755	0.0114446
664.833	0.0114702
664.912	0.0116142
664.990	0.0118920
665.068	0.0120544
665.146	0.0124357
665.224	0.0127206
665.302	0.0132189
665.380	0.0135308
665.458	0.0140958
665.537	0.0145514
665.615	0.0147514
665.693	0.0151223
665.771	0.0154019
665.849	0.0158334
665.927	0.0159585
666.005	0.0160288
666.083	0.0160273
666.162	0.0161549
666.240	0.0162228
666.318	0.0161641
666.396	0.0158105
666.474	0.0157048
666.552	0.0154228
666.630	0.0151316
666.708	0.0146648
666.787	0.0144074
666.865	0.0140263
666.943	0.0135724
667.021	0.0131452
667.099	0.0125661
667.177	0.0121148
667.255	0.0116370
667.333	0.0113409
667.412	0.0112169
667.490	0.0110647
667.568	0.0109802
667.646	0.0110439
667.724	0.0109500
667.802	0.0112727
667.880	0.0113346
667.958	0.0116261
668.037	0.0121021
668.115	0.0122904
668.193	0.0127839
668.271	0.0129981
668.349	0.0134512
668.427	0.0138947
668.505	0.0144698
668.583	0.0148892
668.662	0.0150669
668.740	0.0152567
668.818	0.0154775
668.896	0.0157174
668.974	0.0156702
669.052	0.0155033
669.130	0.0154659
669.208	0.0156075
669.287	0.0152386
669.365	0.0149643
669.443	0.0146013
669.521	0.0143568
669.599	0.0140877
669.677	0.0140100
669.755	0.0135007
669.833	0.0132243
669.912	0.0129290
669.990	0.0128497
670.068	0.0125556
670.146	0.0126352
670.224	0.0128241
670.302	0.0126436
670.380	0.0126993
670.458	0.0128529
670.537	0.0128587
670.615	0.0129659
670.693	0.0130936
670.771	0.0130563
670.849	0.0133712
670.927	0.0134325
671.005	0.0134893
671.083	0.0136447
671.162	0.0136536
671.240	0.0136781
671.318	0.0135786
671.396	0.0138110
671.474	0.0139155
671.552	0.0138206
671.630	0.0138811
671.708	0.0140462
671.787	0.0141513
671.865	0.0141233
671.943	0.0142358
672.021	0.0143224
672.099	0.0144331
672.177	0.0144485
672.255	0.0142726
672.333	0.0143021
672.412	0.0141516
672.490	0.0142118
672.568	0.0140156
672.646	0.0140401
672.724	0.0136256
672.802	0.0134711
672.880	0.0132436
672.958	0.0131527
673.037	0.0128148
673.115	0.0124268
673.193	0.0121671
673.271	0.0119080
673.349	0.0117503
673.427	0.0114573
673.505	0.0113316
673.583	0.0112528
673.662	0.0111494
673.740	0.0112550
673.818	0.0114417
673.896	0.0116972
673.974	0.0120324
674.052	0.0123014
674.130	0.0128397
674.208	0.0132144
674.287	0.0138468
674.365	0.0142224
674.443	0.0147204
674.521	0.0150889
674.599	0.0156296
674.677	0.0159574
674.755	0.0162310
674.833	0.0163721
674.912	0.0166547
674.990	0.0167155
675.068	0.0165106
675.146	0.0165233
675.224	0.0164153
675.302	0.0164799
675.380	0.0163272
675.458	0.0160588
675.537	0.0161314
675.615	0.0160321
675.693	0.0156519
675.771	0.0152964
675.849	0.0150337
675.927	0.0145815
676.005	0.0141162
676.083	0.0134921
676.162	0.0130624
676.240	0.0126297
676.318	0.0118638
676.396	0.0112878
676.474	0.0108098
676.552	0.0102605
676.630	0.00980698
676.708	0.00958443
676.787	0.00937172
676.865	0.00921555
676.943	0.00915573
677.021	0.00915871
677.099	0.00959084
677.177	0.00997444
677.255	0.0103027
677.333	0.0108871
677.412	0.0114317
677.490	0.0119443
677.568	0.0125391
677.646	0.0131002
677.724	0.0135703
677.802	0.0138808
677.880	0.0143613
677.958	0.0149703
678.037	0.0153246
678.115	0.0156425
678.193	0.0162656
678.271	0.0165115
678.349	0.0168715
678.427	0.0170873
678.505	0.0173876
678.583	0.0174635
678.662	0.0175393
678.740	0.0173714
678.818	0.0171427
678.896	0.0167931
678.974	0.0164521
679.052	0.0157434
679.130	0.0152475
679.208	0.0146523
679.287	0.0141277
679.365	0.0135549
679.443	0.0130162
679.521	0.0126903
679.599	0.0123533
679.677	0.0121271
679.755	0.0121306
679.833	0.0125008
679.912	0.0125966
679.990	0.0128187
680.068	0.0130869
680.146	0.0134978
680.224	0.0136184
680.302	0.0138762
680.380	0.0140844
680.458	0.0142004
680.537	0.0141535
680.615	0.0140318
680.693	0.0139531
680.771	0.0138374
680.849	0.0135300
680.927	0.0132561
681.005	0.0129913
681.083	0.0127512
681.162	0.0125002
681.240	0.0121938
681.318	0.0120835
681.396	0.0118092
681.474	0.0114716
681.552	0.0114479
681.630	0.0115762
681.708	0.0115504
681.787	0.0117429
681.865	0.0117667
681.943	0.0119712
682.021	0.0123510
682.099	0.0124954
682.177	0.0126319
682.255	0.0127983
682.333	0.0131294
682.412	0.0132088
682.490	0.0133276
682.568	0.0136584
682.646	0.0136929
682.724	0.0137411
682.802	0.0139424
682.880	0.0138641
682.958	0.0138188
683.037	0.0138156
683.115	0.0137848
683.193	0.0141149
683.271	0.0143077
683.349	0.0144253
683.427	0.0149964
683.505	0.0153944
683.583	0.0159399
683.662	0.0164243
683.740	0.0170250
683.818	0.0173131
683.896	0.0177141
683.974	0.0179821
684.052	0.0179336
684.130	0.0176090
684.208	0.0174352
684.287	0.0167337
684.365	0.0161583
684.443	0.0157051
684.521	0.0149384
684.599	0.0142039
684.677	0.0134737
684.755	0.0127307
684.833	0.0120423
684.912	0.0116114
684.990	0.0111584
685.068	0.0107482
685.146	0.0104935
685.224	0.0103484
685.302	0.0102257
685.380	0.0103600
685.458	0.0102976
685.537	0.0103651
685.615	0.0107227
685.693	0.0110816
685.771	0.0115143
685.849	0.0117842
685.927	0.0120995
686.005	0.0126574
686.083	0.0130991
686.162	0.0135950
686.240	0.0139298
686.318	0.0142995
686.396	0.0145925
686.474	0.0147377
686.552	0.0149853
686.630	0.0151676
686.708	0.0151391
686.787	0.0152140
686.865	0.0149879
686.943	0.0149091
687.021	0.0148840
687.099	0.0146844
687.177	0.0143150
687.255	0.0141930
687.333	0.0139632
687.412	0.0136235
687.490	0.0132341
687.568	0.0131086
687.646	0.0128965
687.724	0.0127708
687.802	0.0124680
687.880	0.0121831
687.958	0.0121815
688.037	0.0121590
688.115	0.0120886
688.193	0.0122990
688.271	0.0124104
688.349	0.0125330
688.427	0.0126907
688.505	0.0130305
688.583	0.0132951
688.662	0.0135474
688.740	0.0139954
688.818	0.0143336
688.896	0.0147689
688.974	0.0151257
689.052	0.0153982
689.130	0.0157579
689.208	0.0159303
689.287	0.0159664
689.365	0.0160950
689.443	0.0160841
689.521	0.0160422
689.599	0.0159367
689.677	0.0158435
689.755	0.0156158
689.833	0.0154839
689.912	0.0153389
689.990	0.0150618
690.068	0.0147667
690.146	0.0145528
690.224	0.0143482
690.302	0.0139157
690.380	0.0136292
690.458	0.0132452
690.537	0.0128231
690.615	0.0128323
690.693	0.0125823
690.771	0.0125620
690.849	0.0125481
690.927	0.0124480
691.005	0.0125852
691.083	0.0126689
691.162	0.0128730
691.240	0.0129754
691.318	0.0129800
691.396	0.0128751
691.474	0.0128864
691.552	0.0128657
691.630	0.0126119
691.708	0.0125118
691.787	0.0124248
691.865	0.0124107
691.943	0.0124895
692.021	0.0122360
692.099	0.0123299
692.177	0.0123100
692.255	0.0123215
692.333	0.0123577
692.412	0.0125090
692.490	0.0124553
692.568	0.0126105
692.646	0.0124418
692.724	0.0123917
692.802	0.0125254
692.880	0.0124348
692.958	0.0125409
693.037	0.0123120
693.115	0.0124314
693.193	0.0124571
693.271	0.0124092
693.349	0.0122738
693.427	0.0126623
693.505	0.0128299
693.583	0.0130909
693.662	0.0132125
693.740	0.0136478
693.818	0.0141469
693.896	0.0145542
693.974	0.0147985
694.052	0.0151214
694.130	0.0154794
694.208	0.0161054
694.287	0.0165066
694.365	0.0167863
694.443	0.0170684
694.521	0.0172755
694.599	0.0176261
694.677	0.0178513
694.755	0.0179363
694.833	0.0180446
694.912	0.0180379
694.990	0.0180993
695.068	0.0178692
695.146	0.0176606
695.224	0.0173750
695.302	0.0168446
695.380	0.0162672
695.458	0.0155217
695.537	0.0148840
695.615	0.0141079
695.693	0.0135220
695.771	0.0126377
695.849	0.0118999
695.927	0.0111265
696.005	0.0106931
696.083	0.0100101
696.162	0.00950363
696.240	0.00910614
696.318	0.00879333
696.396	0.00849655
696.474	0.00836243
696.552	0.00834694
696.630	0.00842987
696.708	0.00879936
696.787	0.00876816
696.865	0.00892357
696.943	0.00941757
697.021	0.00987946
697.099	0.0104297
697.177	0.0110939
697.255	0.0116232
697.333	0.0122350
697.412	0.0128532
697.490	0.0133334
697.568	0.0138985
697.646	0.0142448
697.724	0.0147084
697.802	0.0150702
697.880	0.0153255
697.958	0.0155989
698.037	0.0157828
698.115	0.0159431
698.193	0.0159628
698.271	0.0160435
698.349	0.0160180
698.427	0.0160956
698.505	0.0161277
698.583	0.0160947
698.662	0.0161751
698.740	0.0161490
698.818	0.0159710
698.896	0.0158503
698.974	0.0156254
699.052	0.0153834
699.130	0.0151529
699.208	0.0148283
699.287	0.0146984
699.365	0.0143104
699.443	0.0139840
699.521	0.0136980
699.599	0.0135642
699.677	0.0135029
699.755	0.0132638
699.833	0.0133994
699.912	0.0134196
699.990	0.0135872
700.068	0.0137289
700.146	0.0138776
700.224	0.0142209
700.302	0.0142404
700.380	0.0143320
700.458	0.0144891
700.537	0.0144597
700.615	0.0145308
700.693	0.0143353
700.771	0.0139543
700.849	0.0137513
700.927	0.0132776
701.005	0.0131046
701.083	0.0127622
701.162	0.0125031
701.240	0.0125942
701.318	0.0124679
701.396	0.0124981
701.474	0.0123614
701.552	0.0125423
701.630	0.0125426
701.708	0.0127768
701.787	0.0129218
701.865	0.0129024
701.943	0.0132462
702.021	0.0131859
702.099	0.0131269
702.177	0.0132166
702.255	0.0132639
702.333	0.0132100
702.412	0.0130782
702.490	0.0130657
702.568	0.0128155
702.646	0.0126869
702.724	0.0127260
702.802	0.0127829
702.880	0.0128925
702.958	0.0129211
703.037	0.0129375
703.115	0.0130537
703.193	0.0130994
703.271	0.0131551
703.349	0.0132554
703.427	0.0133612
703.505	0.0136590
703.583	0.0136139
703.662	0.0137450
703.740	0.0139449
703.818	0.0139086
703.896	0.0139355
703.974	0.0138875
704.052	0.0139828
704.130	0.0140237
704.208	0.0141898
704.287	0.0141765
704.365	0.0140953
704.443	0.0140047
704.521	0.0140606
704.599	0.0142004
704.677	0.0141997
704.755	0.0141364
704.833	0.0142452
704.912	0.0144415
704.990	0.0144003
705.068	0.0146023
705.146	0.0146301
705.224	0.0146268
705.302	0.0145790
705.380	0.0146908
705.458	0.0146792
705.537	0.0144350
705.615	0.0143344
705.693	0.0142271
705.771	0.0140672
705.849	0.0141483
705.927	0.0139998
706.005	0.0139971
706.083	0.0140215
706.162	0.0139700
706.240	0.0141586
706.318	0.0142776
706.396	0.0144223
706.474	0.0145020
706.552	0.0146409
706.630	0.0147498
706.708	0.0147424
706.787	0.0149007
706.865	0.0149869
706.943	0.0146603
707.021	0.0145512
707.099	0.0143982
707.177	0.0141191
707.255	0.0140532
707.333	0.0136636
707.412	0.0133353
707.490	0.0131074
707.568	0.0127348
707.646	0.0123515
707.724	0.0119608
707.802	0.0115997
707.880	0.0111672
707.958	0.0107553
708.037	0.0105554
708.115	0.0103657
708.193	0.0102192
708.271	0.0100807
708.349	0.0101273
708.427	0.0103327
708.505	0.0104475
708.583	0.0107692
708.662	0.0111011
708.740	0.0113702
708.818	0.0117226
708.896	0.0121045
708.974	0.0125526
709.052	0.0129212
709.130	0.0131429
709.208	0.0133636
709.287	0.0136227
709.365	0.0139763
709.443	0.0142719
709.521	0.0146516
709.599	0.0149371
709.677	0.0151471
709.755	0.0154411
709.833	0.0158365
709.912	0.0160902
709.990	0.0162295
710.068	0.0164510
710.146	0.0164437
710.224	0.0165079
710.302	0.0166399
710.380	0.0164275
710.458	0.0164803
710.537	0.0162991
710.615	0.0161494
710.693	0.0160066
710.771	0.0156971
710.849	0.0154189
710.927	0.0150847
711.005	0.0146599
711.083	0.0144328
711.162	0.0139076
711.240	0.0134608
711.318	0.0130343
711.396	0.0124941
711.474	0.0122032
711.552	0.0117128
711.630	0.0115863
711.708	0.0112860
711.787	0.0111442
711.865	0.0110265
711.943	0.0111614
712.021	0.0112873
712.099	0.0114461
712.177	0.0116860
712.255	0.0120795
712.333	0.0123145
712.412	0.0127509
712.490	0.0133482
712.568	0.0135349
712.646	0.0136719
712.724	0.0142124
712.802	0.0143588
712.880	0.0143101
712.958	0.0144334
713.037	0.0143750
713.115	0.0144913
713.193	0.0144636
713.271	0.0142375
713.349	0.0142237
713.427	0.0141802
713.505	0.0141712
713.583	0.0140729
713.662	0.0140657
713.740	0.0139658
713.818	0.0139506
713.896	0.0139551
713.974	0.0137441
714.052	0.0137002
714.130	0.0135548
714.208	0.0132170
714.287	0.0131650
714.365	0.0130817
714.443	0.0130009
714.521	0.0130056
714.599	0.0127950
714.677	0.0126965
714.755	0.0126743
714.833	0.0127509
714.912	0.0127029
714.990	0.0126858
715.068	0.0126949
715.146	0.0128629
715.224	0.0127217
715.302	0.0127248
715.380	0.0129157
715.458	0.0130552
715.537	0.0132476
715.615	0.0133985
715.693	0.0135455
715.771	0.0139059
715.849	0.0141128
715.927	0.0143519
716.005	0.0145553
716.083	0.0148238
716.162	0.0148860
716.240	0.0148849
716.318	0.0150996
716.396	0.0151713
716.474	0.0151804
716.552	0.0148596
716.630	0.0146877
716.708	0.0145564
716.787	0.0144404
716.865	0.0141467
716.943	0.0140799
717.021	0.0137772
717.099	0.0136583
717.177	0.0135559
717.255	0.0134924
717.333	0.0132801
717.412	0.0132574
717.490	0.0132201
717.568	0.0133224
717.646	0.0131323
717.724	0.0129942
717.802	0.0131040
717.880	0.0131128
717.958	0.0131767
718.037	0.0130884
718.115	0.0129691
718.193	0.0130063
718.271	0.0129186
718.349	0.0129320
718.427	0.0128872
718.505	0.0127964
718.583	0.0128325
718.662	0.0130315
718.740	0.0129678
718.818	0.0131214
718.896	0.0135146
718.974	0.0134785
719.052	0.0135825
719.130	0.0138315
719.208	0.0140491
719.287	0.0142340
719.365	0.0142979
719.443	0.0143895
719.521	0.0144038
719.599	0.0144489
719.677	0.0145827
719.755	0.0144609
719.833	0.0145268
719.912	0.0145232
719.990	0.0144184
720.068	0.0142103
720.146	0.0142636
720.224	0.0139114
720.302	0.0136996
720.380	0.0136163
720.458	0.0134603
720.537	0.0131776
720.615	0.0131370
720.693	0.0129861
720.771	0.0129594
720.849	0.0128912
720.927	0.0126536
721.005	0.0128040
721.083	0.0127390
721.162	0.0128342
721.240	0.0129154
721.318	0.0130209
721.396	0.0129964
721.474	0.0131555
721.552	0.0132362
721.630	0.0132848
721.708	0.0134982
721.787	0.0134246
721.865	0.0136078
721.943	0.0135979
722.021	0.0136947
722.099	0.0137705
722.177	0.0138651
722.255	0.0139760
722.333	0.0138555
722.412	0.0139384
722.490	0.0140004
722.568	0.0138575
722.646	0.0137925
722.724	0.0137411
722.802	0.0136345
722.880	0.0137281
722.958	0.0137769
723.037	0.0137942
723.115	0.0138283
723.193	0.0138931
723.271	0.0140836
723.349	0.0141261
723.427	0.0141335
723.505	0.0143099
723.583	0.0144909
723.662	0.0144736
723.740	0.0144894
723.818	0.0144267
723.896	0.0144671
723.974	0.0141869
724.052	0.0138134
724.130	0.0136551
724.208	0.0134267
724.287	0.0131403
724.365	0.0129633
724.443	0.0126336
724.521	0.0125314
724.599	0.0127107
724.677	0.0127229
724.755	0.0127858
724.833	0.0127984
724.912	0.0128307
724.990	0.0130952
725.068	0.0132993
725.146	0.0134664
725.224	0.0138420
725.302	0.0140128
725.380	0.0142899
725.458	0.0144411
725.537	0.0145734
725.615	0.0144679
725.693	0.0145253
725.771	0.0146069
725.849	0.0145543
725.927	0.0144677
726.005	0.0141624
726.083	0.0141185
726.162	0.0139808
726.240	0.0138699
726.318	0.0137511
726.396	0.0133720
726.474	0.0132482
726.552	0.0132632
726.630	0.0132632
726.708	0.0131203
726.787	0.0132665
726.865	0.0131725
726.943	0.0131382
727.021	0.0132191
727.099	0.0133895
727.177	0.0134801
727.255	0.0134879
727.333	0.0135709
727.412	0.0136008
727.490	0.0136129
727.568	0.0136093
727.646	0.0133552
727.724	0.0134106
727.802	0.0132717
727.880	0.0132056
727.958	0.0132769
728.037	0.0130669
728.115	0.0131725
728.193	0.0131112
728.271	0.0130577
728.349	0.0131013
728.427	0.0132535
728.505	0.0131787
728.583	0.0133920
728.662	0.0134122
728.740	0.0134762
728.818	0.0137222
728.896	0.0136832
728.974	0.0138602
729.052	0.0138180
729.130	0.0138838
729.208	0.0137833
729.287	0.0136762
729.365	0.0135735
729.443	0.0135322
729.521	0.0135837
729.599	0.0134656
729.677	0.0133385
729.755	0.0132256
729.833	0.0133679
729.912	0.0133568
729.990	0.0135250
730.068	0.0137030
730.146	0.0137692
730.224	0.0138079
730.302	0.0141511
730.380	0.0142742
730.458	0.0143805
730.537	0.0144563
730.615	0.0144319
730.693	0.0143735
730.771	0.0144647
730.849	0.0145954
730.927	0.0144563
731.005	0.0142660
731.083	0.0142401
731.162	0.0138555
731.240	0.0136102
731.318	0.0134886
731.396	0.0134271
731.474	0.0133089
731.552	0.0132869
731.630	0.0130971
731.708	0.0132395
731.787	0.0133856
731.865	0.0130721
731.943	0.0132650
732.021	0.0135967
732.099	0.0135854
732.177	0.0137618
732.255	0.0140059
732.333	0.0142504
732.412	0.0141648
732.490	0.0142638
732.568	0.0143317
732.646	0.0143137
732.724	0.0142269
732.802	0.0143155
732.880	0.0139703
732.958	0.0139194
733.037	0.0137926
733.115	0.0136771
733.193	0.0134489
733.271	0.0132260
733.349	0.0130873
733.427	0.0127602
733.505	0.0128448
733.583	0.0126003
733.662	0.0125591
733.740	0.0125713
733.818	0.0124614
733.896	0.0125638
733.974	0.0127106
734.052	0.0126179
734.130	0.0126010
734.208	0.0127650
734.287	0.0127977
734.365	0.0129997
734.443	0.0130297
734.521	0.0132193
734.599	0.0132466
734.677	0.0131457
734.755	0.0133105
734.833	0.0133927
734.912	0.0132867
734.990	0.0133749
735.068	0.0133820
735.146	0.0135371
735.224	0.0133701
735.302	0.0133896
735.380	0.0136506
735.458	0.0134608
735.537	0.0135395
735.615	0.0135255
735.693	0.0135502
735.771	0.0138042
735.849	0.0137541
735.927	0.0137616
736.005	0.0139508
736.083	0.0139787
736.162	0.0139543
736.240	0.0141186
736.318	0.0142307
736.396	0.0143992
736.474	0.0144514
736.552	0.0144281
736.630	0.0145191
736.708	0.0145720
736.787	0.0146546
736.865	0.0147043
736.943	0.0145612
737.021	0.0146160
737.099	0.0145126
737.177	0.0145634
737.255	0.0142673
737.333	0.0141792
737.412	0.0140483
737.490	0.0138772
737.568	0.0136397
737.646	0.0132686
737.724	0.0131999
737.802	0.0131174
737.880	0.0128665
737.958	0.0128536
738.037	0.0127947
738.115	0.0127749
738.193	0.0126741
738.271	0.0127419
738.349	0.0128665
738.427	0.0127949
738.505	0.0129269
738.583	0.0130689
738.662	0.0131541
738.740	0.0133926
738.818	0.0134103
738.896	0.0136035
738.974	0.0136691
739.052	0.0137408
739.130	0.0138308
739.208	0.0138053
739.287	0.0138014
739.365	0.0137789
739.443	0.0138894
739.521	0.0138137
739.599	0.0139418
739.677	0.0137276
739.755	0.0137019
739.833	0.0135989
739.912	0.0137443
739.990	0.0137684
740.068	0.0135706
740.146	0.0135830
740.224	0.0136131
740.302	0.0137106
740.380	0.0136430
740.458	0.0137803
740.537	0.0137434
740.615	0.0136825
740.693	0.0135751
740.771	0.0136206
740.849	0.0135669
740.927	0.0135343
741.005	0.0133460
741.083	0.0133052
741.162	0.0130882
741.240	0.0129612
741.318	0.0128682
741.396	0.0128518
741.474	0.0127126
741.552	0.0128934
741.630	0.0127641
741.708	0.0127924
741.787	0.0128732
741.865	0.0130154
741.943	0.0133560
742.021	0.0134325
742.099	0.0137125
742.177	0.0138551
742.255	0.0140154
742.333	0.0142066
742.412	0.0142508
742.490	0.0142731
742.568	0.0143986
742.646	0.0144442
742.724	0.0143793
742.802	0.0143897
742.880	0.0141962
742.958	0.0141663
743.037	0.0141594
743.115	0.0140844
743.193	0.0139606
743.271	0.0138406
743.349	0.0139385
743.427	0.0140160
743.505	0.0138555
743.583	0.0140765
743.662	0.0140018
743.740	0.0139639
743.818	0.0138821
743.896	0.0138570
743.974	0.0138049
744.052	0.0137621
744.130	0.0137158
744.208	0.0135957
744.287	0.0134030
744.365	0.0131993
744.443	0.0132249
744.521	0.0131423
744.599	0.0131949
744.677	0.0132584
744.755	0.0130514
744.833	0.0129588
744.912	0.0131663
744.990	0.0130953
745.068	0.0131239
745.146	0.0131801
745.224	0.0132423
745.302	0.0132185
745.380	0.0132986
745.458	0.0134846
745.537	0.0135648
745.615	0.0136734
745.693	0.0137376
745.771	0.0136754
745.849	0.0137553
745.927	0.0138368
746.005	0.0138902
746.083	0.0138159
746.162	0.0138572
746.240	0.0140353
746.318	0.0141627
746.396	0.0138702
746.474	0.0138499
746.552	0.0138789
746.630	0.0137424
746.708	0.0136061
746.787	0.0136688
746.865	0.0137757
746.943	0.0136471
747.021	0.0135593
747.099	0.0133421
747.177	0.0135525
747.255	0.0132428
747.333	0.0135148
747.412	0.0132425
747.490	0.0132188
747.568	0.0133696
747.646	0.0130600
747.724	0.0132239
747.802	0.0132800
747.880	0.0132392
747.958	0.0131790
748.037	0.0132907
748.115	0.0133749
748.193	0.0133305
748.271	0.0134319
748.349	0.0136059
748.427	0.0134361
748.505	0.0135715
748.583	0.0135667
748.662	0.0136588
748.740	0.0135084
748.818	0.0135553
748.896	0.0134850
748.974	0.0134891
749.052	0.0135188
749.130	0.0135700
749.208	0.0136274
749.287	0.0136681
749.365	0.0137682
749.443	0.0138083
749.521	0.0136591
749.599	0.0136210
749.677	0.0137624
749.755	0.0139140
749.833	0.0140049
749.912	0.0139733
749.990	0.0139624
750.068	0.0139806
750.146	0.0141145
750.224	0.0141087
750.302	0.0142327
750.380	0.0140752
750.458	0.0142075
750.537	0.0142161
750.615	0.0141509
750.693	0.0139223
750.771	0.0140814
750.849	0.0139759
750.927	0.0139021
751.005	0.0138460
751.083	0.0136661
751.162	0.0135335
751.240	0.0135621
751.318	0.0134367
751.396	0.0133426
751.474	0.0132296
751.552	0.0132298
751.630	0.0132243
751.708	0.0131495
751.787	0.0130945
751.865	0.0131540
751.943	0.0130794
752.021	0.0132040
752.099	0.0131579
752.177	0.0132860
752.255	0.0131338
752.333	0.0130180
752.412	0.0131502
752.490	0.0134224
752.568	0.0133679
752.646	0.0133730
752.724	0.0135019
752.802	0.0135855
752.880	0.0134579
752.958	0.0135854
753.037	0.0137403
753.115	0.0138432
753.193	0.0139176
753.271	0.0140322
753.349	0.0140517
753.427	0.0139791
753.505	0.0139410
753.583	0.0140996
753.662	0.0141797
753.740	0.0140470
753.818	0.0139515
753.896	0.0138959
753.974	0.0138577
754.052	0.0137310
754.130	0.0133692
754.208	0.0134125
754.287	0.0132967
754.365	0.0132658
754.443	0.0130609
754.521	0.0131309
754.599	0.0131712
754.677	0.0132053
754.755	0.0130524
754.833	0.0132221
754.912	0.0130901
754.990	0.0132378
755.068	0.0131398
755.146	0.0132865
755.224	0.0132407
755.302	0.0133105
755.380	0.0132291
755.458	0.0135091
755.537	0.0135906
755.615	0.0135503
755.693	0.0135717
755.771	0.0136075
755.849	0.0135834
755.927	0.0136224
756.005	0.0136177
756.083	0.0137410
756.162	0.0136138
756.240	0.0136674
756.318	0.0137443
756.396	0.0137604
756.474	0.0137608
756.552	0.0138055
756.630	0.0137725
756.708	0.0137873
756.787	0.0139705
756.865	0.0140272
756.943	0.0139736
757.021	0.0138904
757.099	0.0139709
757.177	0.0140059
757.255	0.0141350
757.333	0.0142237
757.412	0.0142602
757.490	0.0142560
757.568	0.0141615
757.646	0.0141365
757.724	0.0139799
757.802	0.0139640
757.880	0.0139505
757.958	0.0138515
758.037	0.0138301
758.115	0.0138046
758.193	0.0136603
758.271	0.0135085
758.349	0.0133764
758.427	0.0135011
758.505	0.0132233
758.583	0.0132609
758.662	0.0132128
758.740	0.0131435
758.818	0.0131957
758.896	0.0131985
758.974	0.0131676
759.052	0.0131698
759.130	0.0130666
759.208	0.0130235
759.287	0.0130843
759.365	0.0131765
759.443	0.0132375
759.521	0.0134189
759.599	0.0134585
759.677	0.0135491
759.755	0.0137063
759.833	0.0138751
759.912	0.0140099
759.990	0.0141119
760.068	0.0140163
760.146	0.0141805
760.224	0.0143458
760.302	0.0141901
760.380	0.0140315
760.458	0.0140285
760.537	0.0140012
760.615	0.0138326
760.693	0.0136796
760.771	0.0136658
760.849	0.0134544
760.927	0.0134020
761.005	0.0133127
761.083	0.0131816
761.162	0.0132568
761.240	0.0131432
761.318	0.0131057
761.396	0.0131771
761.474	0.0132364
761.552	0.0133214
761.630	0.0132743
761.708	0.0133373
761.787	0.0133517
761.865	0.0135173
761.943	0.0136314
762.021	0.0135384
762.099	0.0135566
762.177	0.0136348
762.255	0.0136494
762.333	0.0135138
762.412	0.0136636
762.490	0.0138270
762.568	0.0138145
762.646	0.0137756
762.724	0.0138604
762.802	0.0139030
762.880	0.0138237
762.958	0.0137114
763.037	0.0139202
763.115	0.0140387
763.193	0.0139017
763.271	0.0139542
763.349	0.0139304
763.427	0.0140045
763.505	0.0140748
763.583	0.0141162
763.662	0.0139960
763.740	0.0139457
763.818	0.0140942
763.896	0.0141017
763.974	0.0142677
764.052	0.0140791
764.130	0.0141333
764.208	0.0141711
764.287	0.0140841
764.365	0.0141116
764.443	0.0140234
764.521	0.0139847
764.599	0.0139056
764.677	0.0137505
764.755	0.0138692
764.833	0.0134396
764.912	0.0132638
764.990	0.0132909
765.068	0.0134321
765.146	0.0132397
765.224	0.0131480
765.302	0.0130454
765.380	0.0129877
765.458	0.0130338
765.537	0.0130322
765.615	0.0129013
765.693	0.0129523
765.771	0.0129542
765.849	0.0130985
765.927	0.0131362
766.005	0.0131619
766.083	0.0132359
766.162	0.0132580
766.240	0.0134547
766.318	0.0135231
766.396	0.0135438
766.474	0.0136266
766.552	0.0136523
766.630	0.0138064
766.708	0.0138977
766.787	0.0140498
766.865	0.0140714
766.943	0.0142277
767.021	0.0142823
767.099	0.0142084
767.177	0.0142416
767.255	0.0143779
767.333	0.0142249
767.412	0.0141546
767.490	0.0141372
767.568	0.0139310
767.646	0.0139885
767.724	0.0137647
767.802	0.0136681
767.880	0.0138155
767.958	0.0138010
768.037	0.0136272
768.115	0.0137398
768.193	0.0135931
768.271	0.0135671
768.349	0.0135686
768.427	0.0137146
768.505	0.0134972
768.583	0.0134033
768.662	0.0135512
768.740	0.0134917
768.818	0.0135560
768.896	0.0134217
768.974	0.0133927
769.052	0.0134126
769.130	0.0132217
769.208	0.0133421
769.287	0.0133543
769.365	0.0132457
769.443	0.0130419
769.521	0.0133762
769.599	0.0131398
769.677	0.0130549
769.755	0.0132080
769.833	0.0132757
769.912	0.0133192
769.990	0.0134820
770.068	0.0134499
770.146	0.0134162
770.224	0.0135872
770.302	0.0136359
770.380	0.0137389
770.458	0.0135271
770.537	0.0136929
770.615	0.0137007
770.693	0.0136785
770.771	0.0138300
770.849	0.0137880
770.927	0.0137761
771.005	0.0137764
771.083	0.0140076
771.162	0.0139943
771.240	0.0139757
771.318	0.0140332
771.396	0.0139700
771.474	0.0139930
771.552	0.0138117
771.630	0.0139412
771.708	0.0139469
771.787	0.0139390
771.865	0.0137977
771.943	0.0136970
772.021	0.0138077
772.099	0.0136829
772.177	0.0137095
772.255	0.0137306
772.333	0.0134975
772.412	0.0135999
772.490	0.0134987
772.568	0.0136361
772.646	0.0136710
772.724	0.0135863
772.802	0.0135334
772.880	0.0134437
772.958	0.0133850
773.037	0.0134814
773.115	0.0133243
773.193	0.0134428
773.271	0.0133592
773.349	0.0134121
773.427	0.0133665
773.505	0.0133199
773.583	0.0133104
773.662	0.0134694
773.740	0.0133253
773.818	0.0133359
773.896	0.0134274
773.974	0.0133880
774.052	0.0133321
774.130	0.0132648
774.208	0.0133148
774.287	0.0132891
774.365	0.0133287
774.443	0.0134425
774.521	0.0134070
774.599	0.0134554
774.677	0.0135322
774.755	0.0135906
774.833	0.0136256
774.912	0.0136407
774.990	0.0135606
775.068	0.0136723
775.146	0.0139345
775.224	0.0138190
775.302	0.0138718
775.380	0.0139294
775.458	0.0138158
775.537	0.0139249
775.615	0.0138865
775.693	0.0138433
775.771	0.0138469
775.849	0.0139570
775.927	0.0138504
776.005	0.0139165
776.083	0.0139030
776.162	0.0136544
776.240	0.0138642
776.318	0.0139976
776.396	0.0138689
776.474	0.0137971
776.552	0.0136960
776.630	0.0135297
776.708	0.0135788
776.787	0.0134334
776.865	0.0134207
776.943	0.0133161
777.021	0.0133514
777.099	0.0131346
777.177	0.0131448
777.255	0.0133170
777.333	0.0131006
777.412	0.0130182
777.490	0.0133376
777.568	0.0133335
777.646	0.0132327
777.724	0.0132025
777.802	0.0134295
777.880	0.0134864
777.958	0.0134422
778.037	0.0134861
778.115	0.0135434
778.193	0.0137618
778.271	0.0137594
778.349	0.0137120
778.427	0.0137671
778.505	0.0137587
778.583	0.0138935
778.662	0.0137460
778.740	0.0136748
778.818	0.0135792
778.896	0.0136223
778.974	0.0137263
779.052	0.0135181
779.130	0.0134921
779.208	0.0135865
779.287	0.0135687
779.365	0.0135525
779.443	0.0135568
779.521	0.0135757
779.599	0.0136694
779.677	0.0137144
779.755	0.0139031
779.833	0.0138851
779.912	0.0136837
779.990	0.0138612
780.068	0.0138918
780.146	0.0138590
780.224	0.0139953
780.302	0.0140054
780.380	0.0140079
780.458	0.0139803
780.537	0.0139397
780.615	0.0138770
780.693	0.0139870
780.771	0.0140012
780.849	0.0139243
780.927	0.0137663
781.005	0.0136245
781.083	0.0138456
781.162	0.0136533
781.240	0.0138173
781.318	0.0138689
781.396	0.0137015
781.474	0.0136262
781.552	0.0135146
781.630	0.0133936
781.708	0.0134209
781.787	0.0134087
781.865	0.0131841
781.943	0.0134297
782.021	0.0132952
782.099	0.0130515
782.177	0.0131105
782.255	0.0131206
782.333	0.0130463
782.412	0.0130069
782.490	0.0131377
782.568	0.0129915
782.646	0.0131224
782.724	0.0132982
782.802	0.0132000
782.880	0.0132687
782.958	0.0133051
783.037	0.0134197
783.115	0.0134241
783.193	0.0135489
783.271	0.0136452
783.349	0.0137422
783.427	0.0137668
783.505	0.0137437
783.583	0.0138760
783.662	0.0137804
783.740	0.0139056
783.818	0.0140783
783.896	0.0140328
783.974	0.0140797
784.052	0.0139624
784.130	0.0139811
784.208	0.0141093
784.287	0.0141382
784.365	0.0139832
784.443	0.0140002
784.521	0.0138273
784.599	0.0138530
784.677	0.0138383
784.755	0.0136887
784.833	0.0137838
784.912	0.0138663
784.990	0.0137666
785.068	0.0136188
785.146	0.0137782
785.224	0.0138033
785.302	0.0138554
785.380	0.0137075
785.458	0.0136959
785.537	0.0134489
785.615	0.0135122
785.693	0.0135360
785.771	0.0134447
785.849	0.0134822
785.927	0.0134483
786.005	0.0134568
786.083	0.0133414
786.162	0.0133035
786.240	0.0132944
786.318	0.0133393
786.396	0.0134000
786.474	0.0133394
786.552	0.0134565
786.630	0.0134309
786.708	0.0136478
786.787	0.0136572
786.865	0.0135926
786.943	0.0136961
787.021	0.0139016
787.099	0.0138122
787.177	0.0139282
787.255	0.0139384
787.333	0.0139471
787.412	0.0139581
787.490	0.0138300
787.568	0.0138306
787.646	0.0138871
787.724	0.0139087
787.802	0.0138394
787.880	0.0139455
787.958	0.0139604
788.037	0.0138802
788.115	0.0137560
788.193	0.0136185
788.271	0.0137556
788.349	0.0137032
788.427	0.0135912
788.505	0.0136755
788.583	0.0134425
788.662	0.0134392
788.740	0.0131636
788.818	0.0132913
788.896	0.0131870
788.974	0.0131078
789.052	0.0130720
789.130	0.0128785
789.208	0.0130375
789.287	0.0130245
789.365	0.0131276
789.443	0.0129883
789.521	0.0129153
789.599	0.0130968
789.677	0.0132008
789.755	0.0131023
789.833	0.0130067
789.912	0.0131333
789.990	0.0133376
790.068	0.0133745
790.146	0.0133767
790.224	0.0134167
790.302	0.0136513
790.380	0.0137434
790.458	0.0138814
790.537	0.0138581
790.615	0.0139179
790.693	0.0140762
790.771	0.0142294
790.849	0.0142947
790.927	0.0143698
791.005	0.0143562
791.083	0.0143737
791.162	0.0144170
791.240	0.0143716
791.318	0.0142757
791.396	0.0143292
791.474	0.0142915
791.552	0.0141936
791.630	0.0142442
791.708	0.0140489
791.787	0.0140781
791.865	0.0140788
791.943	0.0139870
792.021	0.0137398
792.099	0.0139341
792.177	0.0137334
792.255	0.0136231
792.333	0.0136298
792.412	0.0137489
792.490	0.0134171
792.568	0.0134663
792.646	0.0134599
792.724	0.0133482
792.802	0.0133701
792.880	0.0131386
792.958	0.0130384
793.037	0.0130737
793.115	0.0129700
793.193	0.0130818
793.271	0.0128841
793.349	0.0130706
793.427	0.0129855
793.505	0.0131206
793.583	0.0132543
793.662	0.0131084
793.740	0.0132582
793.818	0.0133576
793.896	0.0133691
793.974	0.0134310
794.052	0.0133373
794.130	0.0134490
794.208	0.0135771
794.287	0.0134711
794.365	0.0136704
794.443	0.0138029
794.521	0.0137067
794.599	0.0138811
794.677	0.0138621
794.755	0.0138333
794.833	0.0138171
794.912	0.0137499
794.990	0.0138303
795.068	0.0137067
795.146	0.0137233
795.224	0.0138264
795.302	0.0137278
795.380	0.0136690
795.458	0.0136200
795.537	0.0134972
795.615	0.0135715
795.693	0.0137352
795.771	0.0134216
795.849	0.0133821
795.927	0.0135433
796.005	0.0134985
796.083	0.0133167
796.162	0.0134069
796.240	0.0134695
796.318	0.0134770
796.396	0.0133752
796.474	0.0135323
796.552	0.0135860
796.630	0.0135815
796.708	0.0135611
796.787	0.0136599
796.865	0.0136691
796.943	0.0136720
797.021	0.0135681
797.099	0.0137650
797.177	0.0139475
797.255	0.0137599
797.333	0.0136644
797.412	0.0137749
797.490	0.0137557
797.568	0.0138406
797.646	0.0138530
797.724	0.0137827
797.802	0.0136881
797.880	0.0137584
797.958	0.0137049
798.037	0.0137556
798.115	0.0137927
798.193	0.0137373
798.271	0.0137148
798.349	0.0138420
798.427	0.0137287
798.505	0.0136877
798.583	0.0136996
798.662	0.0137307
798.740	0.0137989
798.818	0.0137482
798.896	0.0138324
798.974	0.0137695
799.052	0.0136979
799.130	0.0138194
799.208	0.0136877
799.287	0.0137828
799.365	0.0135972
799.443	0.0135580
799.521	0.0135678
799.599	0.0136289
799.677	0.0134646
799.755	0.0134846
799.833	0.0134277
799.912	0.0132715
799.990	0.0133467
800.068	0.0131390
800.146	0.0130748
800.224	0.0130712
800.302	0.0131358
800.380	0.0130221
800.458	0.0130135
800.537	0.0130312
800.615	0.0130724
800.693	0.0131661
800.771	0.0133763
800.849	0.0134165
800.927	0.0135233
801.005	0.0135699
801.083	0.0136469
801.162	0.0137081
801.240	0.0138281
801.318	0.0139020
801.396	0.0138193
801.474	0.0138502
801.552	0.0140707
801.630	0.0140035
801.708	0.0141058
801.787	0.0141400
801.865	0.0140700
801.943	0.0139528
802.021	0.0138993
802.099	0.0139198
802.177	0.0138282
802.255	0.0138241
802.333	0.0136439
802.412	0.0136936
802.490	0.0137159
802.568	0.0136268
802.646	0.0135620
802.724	0.0135521
802.802	0.0135929
802.880	0.0134487
802.958	0.0135307
803.037	0.0135695
803.115	0.0134582
803.193	0.0135059
803.271	0.0135222
803.349	0.0134864
803.427	0.0134075
803.505	0.0133366
803.583	0.0134216
803.662	0.0134337
803.740	0.0133888
803.818	0.0135164
803.896	0.0135486
803.974	0.0133221
804.052	0.0135357
804.130	0.0135400
804.208	0.0135088
804.287	0.0134985
804.365	0.0134484
804.443	0.0136914
804.521	0.0135333
804.599	0.0136330
804.677	0.0137138
804.755	0.0135233
804.833	0.0135089
804.912	0.0135948
804.990	0.0136418
805.068	0.0135168
805.146	0.0135988
805.224	0.0135784
805.302	0.0136312
805.380	0.0135106
805.458	0.0135281
805.537	0.0134665
805.615	0.0135558
805.693	0.0134978
805.771	0.0134976
805.849	0.0135549
805.927	0.0134696
806.005	0.0134110
806.083	0.0134700
806.162	0.0134579
806.240	0.0135558
806.318	0.0133507
806.396	0.0133358
806.474	0.0133907
806.552	0.0136130
806.630	0.0136552
806.708	0.0136283
806.787	0.0136334
806.865	0.0135982
806.943	0.0136073
807.021	0.0138478
807.099	0.0137495
807.177	0.0139272
807.255	0.0136480
807.333	0.0137928
807.412	0.0138010
807.490	0.0137925
807.568	0.0138632
807.646	0.0139096
807.724	0.0138984
807.802	0.0138511
807.880	0.0139211
807.958	0.0138593
808.037	0.0139670
808.115	0.0138439
808.193	0.0138858
808.271	0.0138548
808.349	0.0138194
808.427	0.0139449
808.505	0.0137911
808.583	0.0136935
808.662	0.0136073
808.740	0.0136274
808.818	0.0135464
808.896	0.0135510
808.974	0.0134454
809.052	0.0133678
809.130	0.0133175
809.208	0.0133024
809.287	0.0132816
809.365	0.0132540
809.443	0.0132746
809.521	0.0132361
809.599	0.0133930
809.677	0.0134322
809.755	0.0134515
809.833	0.0133443
809.912	0.0133817
809.990	0.0133400
810.068	0.0134077
810.146	0.0134012
810.224	0.0136163
810.302	0.0136624
810.380	0.0133808
810.458	0.0134380
810.537	0.0134628
810.615	0.0136033
810.693	0.0136941
810.771	0.0137121
810.849	0.0135925
810.927	0.0135882
811.005	0.0135629
811.083	0.0134973
811.162	0.0134894
811.240	0.0135351
811.318	0.0134058
811.396	0.0134167
811.474	0.0134515
811.552	0.0135542
811.630	0.0136966
811.708	0.0135014
811.787	0.0134572
811.865	0.0134402
811.943	0.0134917
812.021	0.0136406
812.099	0.0134278
812.177	0.0135694
812.255	0.0135693
812.333	0.0135511
812.412	0.0136097
812.490	0.0136507
812.568	0.0136298
812.646	0.0135588
812.724	0.0135876
812.802	0.0138266
812.880	0.0137233
812.958	0.0136754
813.037	0.0136800
813.115	0.0137215
813.193	0.0138199
813.271	0.0139697
813.349	0.0139740
813.427	0.0139264
813.505	0.0138155
813.583	0.0140672
813.662	0.0138826
813.740	0.0138380
813.818	0.0137995
813.896	0.0138934
813.974	0.0138818
814.052	0.0137933
814.130	0.0136089
814.208	0.0136542
814.287	0.0136195
814.365	0.0134140
814.443	0.0134315
814.521	0.0134072
814.599	0.0133064
814.677	0.0131792
814.755	0.0133642
814.833	0.0132101
814.912	0.0133281
814.990	0.0132710
815.068	0.0132265
815.146	0.0131799
815.224	0.0132024
815.302	0.0133708
815.380	0.0133865
815.458	0.0134982
815.537	0.0135976
815.615	0.0135569
815.693	0.0133441
815.771	0.0136033
815.849	0.0135890
815.927	0.0136504
816.005	0.0135452
816.083	0.0136416
816.162	0.0135129
816.240	0.0136711
816.318	0.0136462
816.396	0.0136838
816.474	0.0136227
816.552	0.0134509
816.630	0.0134551
816.708	0.0137114
816.787	0.0135201
816.865	0.0136104
816.943	0.0136520
817.021	0.0134534
817.099	0.0135284
817.177	0.0136631
817.255	0.0136009
817.333	0.0135306
817.412	0.0135314
817.490	0.0136693
817.568	0.0135931
817.646	0.0136511
817.724	0.0136573
817.802	0.0136050
817.880	0.0135519
817.958	0.0135710
818.037	0.0136167
818.115	0.0134913
818.193	0.0134103
818.271	0.0134094
818.349	0.0134616
818.427	0.0133453
818.505	0.0134000
818.583	0.0134313
818.662	0.0134265
818.740	0.0132672
818.818	0.0133543
818.896	0.0133922
818.974	0.0135724
819.052	0.0134292
819.130	0.0135693
819.208	0.0136774
819.287	0.0136129
819.365	0.0135698
819.443	0.0137083
819.521	0.0138541
819.599	0.0138551
819.677	0.0140059
819.755	0.0137283
819.833	0.0139328
819.912	0.0139993
819.990	0.0139249
820.068	0.0140493
820.146	0.0140324
820.224	0.0139738
820.302	0.0138571
820.380	0.0138374
820.458	0.0139524
820.537	0.0138330
820.615	0.0137521
820.693	0.0138924
820.771	0.0138918
820.849	0.0136848
820.927	0.0137084
821.005	0.0136685
821.083	0.0136733
821.162	0.0137273
821.240	0.0135442
821.318	0.0137423
821.396	0.0136486
821.474	0.0136327
821.552	0.0136084
821.630	0.0135782
821.708	0.0135382
821.787	0.0136438
821.865	0.0137700
821.943	0.0135889
822.021	0.0135408
822.099	0.0136489
822.177	0.0135815
822.255	0.0135976
822.333	0.0136576
822.412	0.0135689
822.490	0.0135095
822.568	0.0135883
822.646	0.0136200
822.724	0.0134459
822.802	0.0134844
822.880	0.0136777
822.958	0.0135957
823.037	0.0133649
823.115	0.0135378
823.193	0.0135190
823.271	0.0134860
823.349	0.0133630
823.427	0.0134263
823.505	0.0133675
823.583	0.0135645
823.662	0.0135523
823.740	0.0135217
823.818	0.0134236
823.896	0.0134975
823.974	0.0136036
824.052	0.0135184
824.130	0.0134441
824.208	0.0135303
824.287	0.0136835
824.365	0.0135641
824.443	0.0137543
824.521	0.0136344
824.599	0.0136554
824.677	0.0136955
824.755	0.0137979
824.833	0.0136668
824.912	0.0137057
824.990	0.0138307
825.068	0.0136936
825.146	0.0135043
825.224	0.0137075
825.302	0.0136002
825.380	0.0136699
825.458	0.0136211
825.537	0.0136385
825.615	0.0136255
825.693	0.0137306
825.771	0.0137186
825.849	0.0138073
825.927	0.0137273
826.005	0.0137006
826.083	0.0138358
826.162	0.0137333
826.240	0.0137963
826.318	0.0137434
826.396	0.0137011
826.474	0.0138181
826.552	0.0137518
826.630	0.0137630
826.708	0.0137315
826.787	0.0138010
826.865	0.0137026
826.943	0.0137733
827.021	0.0137681
827.099	0.0137656
827.177	0.0136824
827.255	0.0136550
827.333	0.0136217
827.412	0.0137042
827.490	0.0135954
827.568	0.0137007
827.646	0.0137495
827.724	0.0135105
827.802	0.0137085
827.880	0.0136816
827.958	0.0137624
828.037	0.0135950
828.115	0.0136040
828.193	0.0136601
828.271	0.0137325
828.349	0.0136435
828.427	0.0137416
828.505	0.0136614
828.583	0.0139095
828.662	0.0137878
828.740	0.0136671
828.818	0.0136333
828.896	0.0136329
828.974	0.0137090
829.052	0.0136214
829.130	0.0135210
829.208	0.0136357
829.287	0.0136752
829.365	0.0136175
829.443	0.0135548
829.521	0.0134756
829.599	0.0133437
829.677	0.0134435
829.755	0.0134110
829.833	0.0134193
829.912	0.0135306
829.990	0.0132999
830.068	0.0133024
830.146	0.0133005
830.224	0.0133170
830.302	0.0133814
830.380	0.0134580
830.458	0.0133634
830.537	0.0131245
830.615	0.0132328
830.693	0.0133546
830.771	0.0132737
830.849	0.0132761
830.927	0.0132623
831.005	0.0133474
831.083	0.0133081
831.162	0.0133350
831.240	0.0133652
831.318	0.0134625
831.396	0.0134712
831.474	0.0135598
831.552	0.0135500
831.630	0.0136031
831.708	0.0136724
831.787	0.0137085
831.865	0.0136375
831.943	0.0139335
832.021	0.0137881
832.099	0.0137076
832.177	0.0139050
832.255	0.0138400
832.333	0.0139023
832.412	0.0138810
832.490	0.0139782
832.568	0.0137329
832.646	0.0138818
832.724	0.0138582
832.802	0.0139476
832.880	0.0138720
832.958	0.0138063
833.037	0.0138426
833.115	0.0137323
833.193	0.0137000
833.271	0.0136898
833.349	0.0135949
833.427	0.0136211
833.505	0.0136203
833.583	0.0134981
833.662	0.0136166
833.740	0.0136523
833.818	0.0134948
833.896	0.0134946
833.974	0.0134962
834.052	0.0134120
834.130	0.0135069
834.208	0.0133649
834.287	0.0133476
834.365	0.0134908
834.443	0.0133830
834.521	0.0132586
834.599	0.0133495
834.677	0.0133285
834.755	0.0133055
834.833	0.0131925
834.912	0.0133480
834.990	0.0133280
835.068	0.0134263
835.146	0.0132840
835.224	0.0132556
835.302	0.0134604
835.380	0.0134936
835.458	0.0134769
835.537	0.0135482
835.615	0.0134871
835.693	0.0136452
835.771	0.0135759
835.849	0.0136743
835.927	0.0136566
836.005	0.0136169
836.083	0.0137018
836.162	0.0137069
836.240	0.0136669
836.318	0.0137856
836.396	0.0137191
836.474	0.0135696
836.552	0.0137953
836.630	0.0135749
836.708	0.0137065
836.787	0.0136978
836.865	0.0135487
836.943	0.0137236
837.021	0.0136324
837.099	0.0135762
837.177	0.0136950
837.255	0.0136711
837.333	0.0136528
837.412	0.0135809
837.490	0.0135777
837.568	0.0135986
837.646	0.0136339
837.724	0.0137095
837.802	0.0137290
837.880	0.0137930
837.958	0.0135541
838.037	0.0135760
838.115	0.0135835
838.193	0.0135455
838.271	0.0135977
838.349	0.0136568
838.427	0.0138365
838.505	0.0135663
838.583	0.0138033
838.662	0.0137965
838.740	0.0136852
838.818	0.0136236
838.896	0.0136919
838.974	0.0136382
839.052	0.0136472
839.130	0.0137148
839.208	0.0135847
839.287	0.0137199
839.365	0.0136048
839.443	0.0136577
839.521	0.0136592
839.599	0.0136189
839.677	0.0135401
839.755	0.0135430
839.833	0.0135211
839.912	0.0134922
839.990	0.0135201
840.068	0.0136393
840.146	0.0135812
840.224	0.0135562
840.302	0.0136990
840.380	0.0136283
840.458	0.0136994
840.537	0.0136932
840.615	0.0135723
840.693	0.0136678
840.771	0.0136976
840.849	0.0137267
840.927	0.0136424
841.005	0.0137193
841.083	0.0138031
841.162	0.0138284
841.240	0.0138089
841.318	0.0137148
841.396	0.0137524
841.474	0.0138107
841.552	0.0138975
841.630	0.0139449
841.708	0.0138808
841.787	0.0137862
841.865	0.0137914
841.943	0.0138811
842.021	0.0137833
842.099	0.0136867
842.177	0.0137550
842.255	0.0138592
842.333	0.0137160
842.412	0.0137952
842.490	0.0137708
842.568	0.0135512
842.646	0.0137107
842.724	0.0136390
842.802	0.0138668
842.880	0.0137184
842.958	0.0136925
843.037	0.0137231
843.115	0.0137563
843.193	0.0137610
843.271	0.0138479
843.349	0.0138692
843.427	0.0137150
843.505	0.0136468
843.583	0.0137971
843.662	0.0137840
843.740	0.0136584
843.818	0.0137405
843.896	0.0136584
843.974	0.0136671
844.052	0.0138717
844.130	0.0135844
844.208	0.0135736
844.287	0.0136224
844.365	0.0135752
844.443	0.0135727
844.521	0.0134991
844.599	0.0135479
844.677	0.0136060
844.755	0.0135245
844.833	0.0134898
844.912	0.0135043
844.990	0.0134991
845.068	0.0136459
845.146	0.0134901
845.224	0.0135112
845.302	0.0136164
845.380	0.0136705
845.458	0.0136397
845.537	0.0136908
845.615	0.0136368
845.693	0.0136532
845.771	0.0136674
845.849	0.0135633
845.927	0.0135809
846.005	0.0137050
846.083	0.0136288
846.162	0.0137779
846.240	0.0136557
846.318	0.0136427
846.396	0.0136350
846.474	0.0135902
846.552	0.0136150
846.630	0.0137693
846.708	0.0136015
846.787	0.0136646
846.865	0.0135928
846.943	0.0135387
847.021	0.0136059
847.099	0.0136013
847.177	0.0136382
847.255	0.0136590
847.333	0.0137282
847.412	0.0136422
847.490	0.0137668
847.568	0.0138547
847.646	0.0137165
847.724	0.0136736
847.802	0.0137057
847.880	0.0136000
847.958	0.0135644
848.037	0.0137785
848.115	0.0136166
848.193	0.0135891
848.271	0.0136506
848.349	0.0136624
848.427	0.0135613
848.505	0.0136275
848.583	0.0136059
848.662	0.0135079
848.740	0.0135400
848.818	0.0136144
848.896	0.0134922
848.974	0.0135390
849.052	0.0135031
849.130	0.0135999
849.208	0.0134457
849.287	0.0133846
849.365	0.0135062
849.443	0.0135382
849.521	0.0135600
849.599	0.0136366
849.677	0.0135139
849.755	0.0135644
849.833	0.0134393
849.912	0.0135432
849.990	0.0138303
850.068	0.0136192
850.146	0.0135384
850.224	0.0137168
850.302	0.0136302
850.380	0.0138120
850.458	0.0138029
850.537	0.0138074
850.615	0.0136874
850.693	0.0136761
850.771	0.0137186
850.849	0.0136134
850.927	0.0135493
851.005	0.0135558
851.083	0.0138396
851.162	0.0136958
851.240	0.0136498
851.318	0.0135603
851.396	0.0135116
851.474	0.0135796
851.552	0.0136446
851.630	0.0136868
851.708	0.0136252
851.787	0.0136971
851.865	0.0136172
851.943	0.0136491
852.021	0.0134657
852.099	0.0135593
852.177	0.0136927
852.255	0.0136245
852.333	0.0135178
852.412	0.0135973
852.490	0.0135240
852.568	0.0134962
852.646	0.0137282
852.724	0.0134824
852.802	0.0135502
852.880	0.0134963
852.958	0.0135306
853.037	0.0137192
853.115	0.0137595
853.193	0.0136482
853.271	0.0136897
853.349	0.0136008
853.427	0.0137256
853.505	0.0136429
853.583	0.0135467
853.662	0.0135810
853.740	0.0137427
853.818	0.0136626
853.896	0.0136530
853.974	0.0137783
854.052	0.0136485
854.130	0.0136736
854.208	0.0136805
854.287	0.0136849
854.365	0.0137807
854.443	0.0137989
854.521	0.0137290
854.599	0.0137549
854.677	0.0139275
854.755	0.0136974
854.833	0.0137729
854.912	0.0138499
854.990	0.0138093
855.068	0.0138410
855.146	0.0136613
855.224	0.0135375
855.302	0.0136236
855.380	0.0135878
855.458	0.0134686
855.537	0.0134105
855.615	0.0133177
855.693	0.0133168
855.771	0.0134476
855.849	0.0133389
855.927	0.0134238
856.005	0.0133884
856.083	0.0133365
856.162	0.0133369
856.240	0.0134013
856.318	0.0133258
856.396	0.0135307
856.474	0.0135645
856.552	0.0135322
856.630	0.0136151
856.708	0.0136107
856.787	0.0136564
856.865	0.0137719
856.943	0.0137656
857.021	0.0137001
857.099	0.0139071
857.177	0.0139149
857.255	0.0138612
857.333	0.0139436
857.412	0.0139117
857.490	0.0140544
857.568	0.0138173
857.646	0.0138467
857.724	0.0138892
857.802	0.0137885
857.880	0.0136906
857.958	0.0137066
858.037	0.0136369
858.115	0.0134840
858.193	0.0135438
858.271	0.0134768
858.349	0.0134123
858.427	0.0135938
858.505	0.0134602
858.583	0.0133552
858.662	0.0133758
858.740	0.0133913
858.818	0.0133787
858.896	0.0134395
858.974	0.0134649
859.052	0.0134558
859.130	0.0135246
859.208	0.0135367
859.287	0.0136056
859.365	0.0136250
859.443	0.0136147
859.521	0.0135505
859.599	0.0136168
859.677	0.0138752
859.755	0.0136323
859.833	0.0138136
859.912	0.0137048
859.990	0.0138933
860.068	0.0138277
860.146	0.0138292
860.224	0.0138890
860.302	0.0138679
860.380	0.0137775
860.458	0.0139628
860.537	0.0138242
860.615	0.0138658
860.693	0.0138683
860.771	0.0140764
860.849	0.0139342
860.927	0.0138422
861.005	0.0137942
861.083	0.0137554
861.162	0.0136668
861.240	0.0136403
861.318	0.0136472
861.396	0.0135695
861.474	0.0135538
861.552	0.0135452
861.630	0.0135052
861.708	0.0134052
861.787	0.0133846
861.865	0.0133720
861.943	0.0135220
862.021	0.0132934
862.099	0.0134606
862.177	0.0134994
862.255	0.0134808
862.333	0.0135933
862.412	0.0135028
862.490	0.0136691
862.568	0.0134906
862.646	0.0136282
862.724	0.0136253
862.802	0.0137412
862.880	0.0137805
862.958	0.0138205
863.037	0.0137431
863.115	0.0137741
863.193	0.0137916
863.271	0.0136768
863.349	0.0137344
863.427	0.0138144
863.505	0.0137749
863.583	0.0137868
863.662	0.0137238
863.740	0.0137712
863.818	0.0135986
863.896	0.0136793
863.974	0.0138826
864.052	0.0137148
864.130	0.0137955
864.208	0.0136994
864.287	0.0137263
864.365	0.0136171
864.443	0.0136697
864.521	0.0136604
864.599	0.0137235
864.677	0.0136337
864.755	0.0136742
864.833	0.0136476
864.912	0.0135478
864.990	0.0136195
865.068	0.0134715
865.146	0.0135617
865.224	0.0136441
865.302	0.0135663
865.380	0.0135957
865.458	0.0134863
865.537	0.0134062
865.615	0.0135292
865.693	0.0136616
865.771	0.0137566
865.849	0.0137698
865.927	0.0136903
866.005	0.0138308
866.083	0.0137306
866.162	0.0136444
866.240	0.0137633
866.318	0.0137576
866.396	0.0138319
866.474	0.0137003
866.552	0.0138371
866.630	0.0138662
866.708	0.0137418
866.787	0.0138077
866.865	0.0138569
866.943	0.0136837
867.021	0.0136529
867.099	0.0136809
867.177	0.0136572
867.255	0.0136136
867.333	0.0135796
867.412	0.0136626
867.490	0.0136414
867.568	0.0135425
867.646	0.0135744
867.724	0.0136055
867.802	0.0135714
867.880	0.0135415
867.958	0.0135626
868.037	0.0134321
868.115	0.0134123
868.193	0.0132612
868.271	0.0131689
868.349	0.0131510
868.427	0.0132909
868.505	0.0132145
868.583	0.0132577
868.662	0.0132244
868.740	0.0131910
868.818	0.0132152
868.896	0.0133052
868.974	0.0132645
869.052	0.0132189
869.130	0.0134165
869.208	0.0135805
869.287	0.0135170
869.365	0.0135788
869.443	0.0135930
869.521	0.0136786
869.599	0.0138390
869.677	0.0138300
869.755	0.0139104
869.833	0.0137195
869.912	0.0140302
869.990	0.0140859
870.068	0.0140148
870.146	0.0141306
870.224	0.0141696
870.302	0.0141042
870.380	0.0141622
870.458	0.0141853
870.537	0.0142541
870.615	0.0142629
870.693	0.0141402
870.771	0.0140953
870.849	0.0139735
870.927	0.0137949
871.005	0.0137556
871.083	0.0137569
871.162	0.0136899
871.240	0.0134812
871.318	0.0135098
871.396	0.0133122
871.474	0.0134004
871.552	0.0133459
871.630	0.0133006
871.708	0.0133741
871.787	0.0133282
871.865	0.0132730
871.943	0.0132790
872.021	0.0134307
872.099	0.0134016
872.177	0.0135132
872.255	0.0136079
872.333	0.0132938
872.412	0.0133949
872.490	0.0135204
872.568	0.0135186
872.646	0.0135231
872.724	0.0135864
872.802	0.0134485
872.880	0.0134673
872.958	0.0134664
873.037	0.0134671
873.115	0.0134884
873.193	0.0134467
873.271	0.0134703
873.349	0.0134319
873.427	0.0134925
873.505	0.0135400
873.583	0.0135801
873.662	0.0135541
873.740	0.0136304
873.818	0.0136826
873.896	0.0137193
873.974	0.0137675
874.052	0.0136546
874.130	0.0136067
874.208	0.0137926
874.287	0.0136391
874.365	0.0136806
874.443	0.0138222
874.521	0.0137009
874.599	0.0136343
874.677	0.0136273
874.755	0.0137167
874.833	0.0137050
874.912	0.0136948
874.990	0.0137113
875.068	0.0136629
875.146	0.0136727
875.224	0.0137470
875.302	0.0138548
875.380	0.0137505
875.458	0.0137235
875.537	0.0137556
875.615	0.0137869
875.693	0.0139297
875.771	0.0139226
875.849	0.0138086
875.927	0.0138030
876.005	0.0138338
876.083	0.0136765
876.162	0.0134680
876.240	0.0135144
876.318	0.0135394
876.396	0.0134772
876.474	0.0134563
876.552	0.0134802
876.630	0.0134402
876.708	0.0132894
876.787	0.0133788
876.865	0.0134825
876.943	0.0134416
877.021	0.0134053
877.099	0.0133598
877.177	0.0134923
877.255	0.0134782
877.333	0.0134463
877.412	0.0135249
877.490	0.0135201
877.568	0.0136361
877.646	0.0135571
877.724	0.0136785
877.802	0.0135179
877.880	0.0136480
877.958	0.0135684
878.037	0.0137865
878.115	0.0138482
878.193	0.0136646
878.271	0.0136827
878.349	0.0137469
878.427	0.0137230
878.505	0.0137196
878.583	0.0137905
878.662	0.0137549
878.740	0.0136613
878.818	0.0136613
878.896	0.0136204
878.974	0.0136665
879.052	0.0135742
879.130	0.0135468
879.208	0.0135670
879.287	0.0134879
879.365	0.0134383
879.443	0.0134641
879.521	0.0134261
879.599	0.0135323
879.677	0.0134210
879.755	0.0132845
879.833	0.0133833
879.912	0.0136124
879.990	0.0134241
880.068	0.0135040
880.146	0.0135098
880.224	0.0135835
880.302	0.0136475
880.380	0.0135180
880.458	0.0135538
880.537	0.0137645
880.615	0.0138645
880.693	0.0137872
880.771	0.0137852
880.849	0.0137205
880.927	0.0137401
881.005	0.0137271
881.083	0.0137396
881.162	0.0137847
881.240	0.0136111
881.318	0.0135853
881.396	0.0137175
881.474	0.0136852
881.552	0.0136270
881.630	0.0136760
881.708	0.0135363
881.787	0.0135832
881.865	0.0135131
881.943	0.0135657
882.021	0.0135677
882.099	0.0136333
882.177	0.0135668
882.255	0.0134930
882.333	0.0135572
882.412	0.0135075
882.490	0.0135217
882.568	0.0134630
882.646	0.0134071
882.724	0.0135961
882.802	0.0136707
882.880	0.0138171
882.958	0.0137148
883.037	0.0136292
883.115	0.0137331
883.193	0.0136026
883.271	0.0135550
883.349	0.0136605
883.427	0.0137868
883.505	0.0135809
883.583	0.0136172
883.662	0.0136160
883.740	0.0135233
883.818	0.0135847
883.896	0.0135436
883.974	0.0136220
884.052	0.0134129
884.130	0.0134097
884.208	0.0134227
884.287	0.0135234
884.365	0.0135076
884.443	0.0134203
884.521	0.0134673
884.599	0.0135479
884.677	0.0134925
884.755	0.0135368
884.833	0.0136045
884.912	0.0135468
884.990	0.0134610
885.068	0.0135544
885.146	0.0135492
885.224	0.0136768
885.302	0.0135863
885.380	0.0136283
885.458	0.0135357
885.537	0.0136115
885.615	0.0137909
885.693	0.0137679
885.771	0.0138206
885.849	0.0139237
885.927	0.0138014
886.005	0.0139628
886.083	0.0139566
886.162	0.0139314
886.240	0.0138942
886.318	0.0139764
886.396	0.0138403
886.474	0.0138501
886.552	0.0138326
886.630	0.0138784
886.708	0.0138268
886.787	0.0139715
886.865	0.0138885
886.943	0.0138129
887.021	0.0138007
887.099	0.0138576
887.177	0.0138792
887.255	0.0137909
887.333	0.0137339
887.412	0.0136541
887.490	0.0134613
887.568	0.0134718
887.646	0.0134705
887.724	0.0133080
887.802	0.0132984
887.880	0.0132993
887.958	0.0131229
888.037	0.0130791
888.115	0.0133131
888.193	0.0131216
888.271	0.0133493
888.349	0.0134116
888.427	0.0134008
888.505	0.0134317
888.583	0.0134270
888.662	0.0135211
888.740	0.0135161
888.818	0.0137028
888.896	0.0135941
888.974	0.0135551
889.052	0.0136259
889.130	0.0136823
889.208	0.0137708
889.287	0.0137374
889.365	0.0136981
889.443	0.0137920
889.521	0.0138326
889.599	0.0137167
889.677	0.0137864
889.755	0.0137264
889.833	0.0135748
889.912	0.0137538
889.990	0.0137015
890.068	0.0136351
890.146	0.0135970
890.224	0.0135992
890.302	0.0135394
890.380	0.0135659
890.458	0.0135621
890.537	0.0135985
890.615	0.0135240
890.693	0.0135239
890.771	0.0135455
890.849	0.0136074
890.927	0.0135663
891.005	0.0136841
891.083	0.0135606
891.162	0.0135495
891.240	0.0135940
891.318	0.0136779
891.396	0.0135188
891.474	0.0136507
891.552	0.0137332
891.630	0.0138254
891.708	0.0136737
891.787	0.0136429
891.865	0.0136919
891.943	0.0138010
892.021	0.0136311
892.099	0.0138017
892.177	0.0137316
892.255	0.0136140
892.333	0.0136154
892.412	0.0136090
892.490	0.0136008
892.568	0.0135346
892.646	0.0133920
892.724	0.0134799
892.802	0.0134513
892.880	0.0133727
892.958	0.0134526
893.037	0.0134274
893.115	0.0133751
893.193	0.0132520
893.271	0.0134905
893.349	0.0134671
893.427	0.0135696
893.505	0.0135435
893.583	0.0135085
893.662	0.0135376
893.740	0.0135534
893.818	0.0136892
893.896	0.0136441
893.974	0.0136632
894.052	0.0134940
894.130	0.0134692
894.208	0.0135804
894.287	0.0134647
894.365	0.0134598
894.443	0.0135049
894.521	0.0134820
894.599	0.0134960
894.677	0.0133322
894.755	0.0134115
894.833	0.0135758
894.912	0.0134477
894.990	0.0133910
895.068	0.0133598
895.146	0.0134621
895.224	0.0134882
895.302	0.0134782
895.380	0.0136691
895.458	0.0136028
895.537	0.0136332
895.615	0.0135322
895.693	0.0135874
895.771	0.0135847
895.849	0.0136436
895.927	0.0135886
896.005	0.0137325
896.083	0.0137016
896.162	0.0136004
896.240	0.0135805
896.318	0.0136636
896.396	0.0137435
896.474	0.0137078
896.552	0.0135457
896.630	0.0137241
896.708	0.0137383
896.787	0.0137486
896.865	0.0137992
896.943	0.0138027
897.021	0.0137913
897.099	0.0137533
897.177	0.0138278
897.255	0.0138503
897.333	0.0136246
897.412	0.0136730
897.490	0.0136869
897.568	0.0136725
897.646	0.0136048
897.724	0.0135709
897.802	0.0135358
897.880	0.0135685
897.958	0.0133768
898.037	0.0134966
898.115	0.0136141
898.193	0.0136326
898.271	0.0137482
898.349	0.0136264
898.427	0.0134344
898.505	0.0136942
898.583	0.0136447
898.662	0.0134809
898.740	0.0135069
898.818	0.0135780
898.896	0.0135577
898.974	0.0135038
899.052	0.0135455
899.130	0.0134573
899.208	0.0134350
899.287	0.0135618
899.365	0.0134634
899.443	0.0134636
899.521	0.0134667
899.599	0.0134204
899.677	0.0133887
899.755	0.0136012
899.833	0.0135555
899.912	0.0134150
899.990	0.0132921
900.068	0.0134059
900.146	0.0135475
900.224	0.0135113
900.302	0.0134802
900.380	0.0134918
900.458	0.0135581
900.537	0.0135650
900.615	0.0135667
900.693	0.0137016
900.771	0.0138275
900.849	0.0136521
900.927	0.0136629
901.005	0.0137721
901.083	0.0139661
901.162	0.0138813
901.240	0.0138736
901.318	0.0139481
901.396	0.0138596
901.474	0.0139456
901.552	0.0139053
901.630	0.0140417
901.708	0.0139930
901.787	0.0139462
901.865	0.0139959
901.943	0.0138229
902.021	0.0139777
902.099	0.0138066
902.177	0.0138327
902.255	0.0138234
902.333	0.0137525
902.412	0.0136784
902.490	0.0135640
902.568	0.0135246
902.646	0.0134760
902.724	0.0134245
902.802	0.0135387
902.880	0.0134611
902.958	0.0134339
903.037	0.0132825
903.115	0.0133248
903.193	0.0133493
903.271	0.0133646
903.349	0.0133556
903.427	0.0131698
903.505	0.0131888
903.583	0.0133308
903.662	0.0133014
903.740	0.0134566
903.818	0.0134584
903.896	0.0134264
903.974	0.0136340
904.052	0.0135380
904.130	0.0136655
904.208	0.0135808
904.287	0.0136008
904.365	0.0135775
904.443	0.0137975
904.521	0.0136618
904.599	0.0136337
904.677	0.0136649
904.755	0.0136726
904.833	0.0135932
904.912	0.0136034
904.990	0.0136625
905.068	0.0137318
905.146	0.0136147
905.224	0.0136251
905.302	0.0136793
905.380	0.0136673
905.458	0.0136485
905.537	0.0136366
905.615	0.0135793
905.693	0.0134041
905.771	0.0134718
905.849	0.0135652
905.927	0.0135854
906.005	0.0134754
906.083	0.0134935
906.162	0.0133930
906.240	0.0133236
906.318	0.0133646
906.396	0.0133900
906.474	0.0135728
906.552	0.0135555
906.630	0.0134288
906.708	0.0134464
906.787	0.0135403
906.865	0.0137708
906.943	0.0136494
907.021	0.0136272
907.099	0.0138063
907.177	0.0138923
907.255	0.0138161
907.333	0.0137309
907.412	0.0138051
907.490	0.0137848
907.568	0.0138806
907.646	0.0138281
907.724	0.0138117
907.802	0.0138129
907.880	0.0137839
907.958	0.0138522
908.037	0.0137756
908.115	0.0136610
908.193	0.0138311
908.271	0.0138228
908.349	0.0136240
908.427	0.0136273
908.505	0.0135454
908.583	0.0135716
908.662	0.0134662
908.740	0.0134282
908.818	0.0133883
908.896	0.0133801
908.974	0.0134627
909.052	0.0133460
909.130	0.0134387
909.208	0.0133416
909.287	0.0133808
909.365	0.0135243
909.443	0.0134606
909.521	0.0134467
909.599	0.0135501
909.677	0.0134555
909.755	0.0135137
909.833	0.0135142
909.912	0.0135473
909.990	0.0134027
910.068	0.0135055
910.146	0.0134467
910.224	0.0135059
910.302	0.0135305
910.380	0.0136108
910.458	0.0134947
910.537	0.0136219
910.615	0.0136181
910.693	0.0135538
910.771	0.0135616
910.849	0.0136810
910.927	0.0136735
911.005	0.0135497
911.083	0.0135052
911.162	0.0136418
911.240	0.0136632
911.318	0.0135757
911.396	0.0134946
911.474	0.0135541
911.552	0.0135500
911.630	0.0135191
911.708	0.0135774
911.787	0.0135113
911.865	0.0134953
911.943	0.0135944
912.021	0.0134779
912.099	0.0134902
912.177	0.0135861
912.255	0.0134830
912.333	0.0135066
912.412	0.0135941
912.490	0.0136890
912.568	0.0137296
912.646	0.0137133
912.724	0.0136797
912.802	0.0137022
912.880	0.0137376
912.958	0.0138200
913.037	0.0139671
913.115	0.0139367
913.193	0.0138354
913.271	0.0138136
913.349	0.0138670
913.427	0.0139473
913.505	0.0137225
913.583	0.0138276
913.662	0.0138811
913.740	0.0137340
913.818	0.0137512
913.896	0.0138177
913.974	0.0137449
914.052	0.0136353
914.130	0.0135924
914.208	0.0136674
914.287	0.0136148
914.365	0.0136425
914.443	0.0136115
914.521	0.0135841
914.599	0.0135429
914.677	0.0135380
914.755	0.0134411
914.833	0.0134824
914.912	0.0134144
914.990	0.0135001
915.068	0.0134144
915.146	0.0134346
915.224	0.0133734
915.302	0.0134423
915.380	0.0133737
915.458	0.0134570
915.537	0.0134840
915.615	0.0133856
915.693	0.0134256
915.771	0.0134250
915.849	0.0133092
915.927	0.0133728
916.005	0.0133930
916.083	0.0133231
916.162	0.0133813
916.240	0.0134435
916.318	0.0133536
916.396	0.0133332
916.474	0.0134342
916.552	0.0135441
916.630	0.0135926
916.708	0.0136402
916.787	0.0137637
916.865	0.0136090
916.943	0.0136514
917.021	0.0138335
917.099	0.0137769
917.177	0.0136953
917.255	0.0137075
917.333	0.0135993
917.412	0.0136648
917.490	0.0137246
917.568	0.0137193
917.646	0.0136501
917.724	0.0136772
917.802	0.0136451
917.880	0.0135527
917.958	0.0136698
918.037	0.0134696
918.115	0.0134254
918.193	0.0136030
918.271	0.0136227
918.349	0.0136719
918.427	0.0136097
918.505	0.0135620
918.583	0.0136907
918.662	0.0137035
918.740	0.0137213
918.818	0.0137817
918.896	0.0137931
918.974	0.0136520
919.052	0.0137610
919.130	0.0137053
919.208	0.0136819
919.287	0.0137614
919.365	0.0137011
919.443	0.0136028
919.521	0.0135641
919.599	0.0135552
919.677	0.0136962
919.755	0.0134802
919.833	0.0136122
919.912	0.0135941
919.990	0.0135542
920.068	0.0132523
920.146	0.0134267
920.224	0.0136030
920.302	0.0134846
920.380	0.0134186
920.458	0.0136102
920.537	0.0137257
920.615	0.0134775
920.693	0.0135754
920.771	0.0135709
920.849	0.0135462
920.927	0.0136606
921.005	0.0137173
921.083	0.0135767
921.162	0.0136600
921.240	0.0137003
921.318	0.0135255
921.396	0.0136203
921.474	0.0135699
921.552	0.0137290
921.630	0.0137568
921.708	0.0135657
921.787	0.0137047
921.865	0.0137199
921.943	0.0136473
922.021	0.0136616
922.099	0.0136749
922.177	0.0136169
922.255	0.0135852
922.333	0.0136568
922.412	0.0136766
922.490	0.0137069
922.568	0.0137144
922.646	0.0138062
922.724	0.0137144
922.802	0.0136339
922.880	0.0136137
922.958	0.0135703
923.037	0.0136153
923.115	0.0137043
923.193	0.0135949
923.271	0.0135949
923.349	0.0136555
923.427	0.0137145
923.505	0.0136082
923.583	0.0136629
923.662	0.0137555
923.740	0.0136131
923.818	0.0135706
923.896	0.0138136
923.974	0.0136443
924.052	0.0134770
924.130	0.0136350
924.208	0.0135737
924.287	0.0137330
924.365	0.0137395
924.443	0.0135405
924.521	0.0136757
924.599	0.0137723
924.677	0.0136540
924.755	0.0138745
924.833	0.0138164
924.912	0.0135069
924.990	0.0136972
925.068	0.0136502
925.146	0.0137995
925.224	0.0136586
925.302	0.0137395
925.380	0.0137047
925.458	0.0135887
925.537	0.0137063
925.615	0.0136069
925.693	0.0135355
925.771	0.0136254
925.849	0.0135883
925.927	0.0135925
926.005	0.0134705
926.083	0.0135056
926.162	0.0134998
926.240	0.0137035
926.318	0.0135390
926.396	0.0135043
926.474	0.0134760
926.552	0.0135172
926.630	0.0135056
926.708	0.0133726
926.787	0.0134093
926.865	0.0135458
926.943	0.0136061
927.021	0.0134122
927.099	0.0134324
927.177	0.0133405
927.255	0.0135059
927.333	0.0136275
927.412	0.0135795
927.490	0.0137061
927.568	0.0135577
927.646	0.0135599
927.724	0.0136639
927.802	0.0137216
927.880	0.0136664
927.958	0.0138284
928.037	0.0138734
928.115	0.0137472
928.193	0.0135192
928.271	0.0136924
928.349	0.0136285
928.427	0.0136752
928.505	0.0137911
928.583	0.0136622
928.662	0.0136891
928.740	0.0136288
928.818	0.0135174
928.896	0.0136057
928.974	0.0137810
929.052	0.0138006
929.130	0.0136269
929.208	0.0136175
929.287	0.0136576
929.365	0.0136475
929.443	0.0134319
929.521	0.0136578
929.599	0.0136954
929.677	0.0135293
929.755	0.0134348
929.833	0.0134133
929.912	0.0136543
929.990	0.0135452
930.068	0.0135165
930.146	0.0135429
930.224	0.0135748
930.302	0.0135297
930.380	0.0134990
930.458	0.0134914
930.537	0.0134966
930.615	0.0136021
930.693	0.0134396
930.771	0.0136556
930.849	0.0135756
930.927	0.0134352
931.005	0.0133250
931.083	0.0136662
931.162	0.0134210
931.240	0.0135441
931.318	0.0135435
931.396	0.0135854
931.474	0.0133080
931.552	0.0133647
931.630	0.0133863
931.708	0.0134737
931.787	0.0134712
931.865	0.0133885
931.943	0.0132291
932.021	0.0134435
932.099	0.0132876
932.177	0.0133861
932.255	0.0134705
932.333	0.0134150
932.412	0.0135344
932.490	0.0134005
932.568	0.0132374
932.646	0.0133981
932.724	0.0135297
932.802	0.0135168
932.880	0.0135565
932.958	0.0135748
933.037	0.0136043
933.115	0.0136642
933.193	0.0135858
933.271	0.0136131
933.349	0.0137859
933.427	0.0138499
933.505	0.0138398
933.583	0.0138503
933.662	0.0138975
933.740	0.0138648
933.818	0.0139816
933.896	0.0138377
933.974	0.0138190
934.052	0.0137982
934.130	0.0138308
934.208	0.0138181
934.287	0.0137721
934.365	0.0137949
934.443	0.0137305
934.521	0.0136384
934.599	0.0136263
934.677	0.0134673
934.755	0.0134808
934.833	0.0134290
934.912	0.0133585
934.990	0.0133488
935.068	0.0133979
935.146	0.0134673
935.224	0.0133693
935.302	0.0135651
935.380	0.0134696
935.458	0.0135229
935.537	0.0134229
935.615	0.0135815
935.693	0.0134875
935.771	0.0136005
935.849	0.0136935
935.927	0.0135846
936.005	0.0135744
936.083	0.0136639
936.162	0.0137684
936.240	0.0136471
936.318	0.0136403
936.396	0.0136136
936.474	0.0137257
936.552	0.0137920
936.630	0.0137785
936.708	0.0138909
936.787	0.0138546
936.865	0.0137439
936.943	0.0137824
937.021	0.0137990
937.099	0.0138059
937.177	0.0138319
937.255	0.0136016
937.333	0.0137315
937.412	0.0137337
937.490	0.0137933
937.568	0.0135056
937.646	0.0135313
937.724	0.0136160
937.802	0.0135229
937.880	0.0136098
937.958	0.0134962
938.037	0.0135148
938.115	0.0135535
938.193	0.0135759
938.271	0.0135808
938.349	0.0136162
938.427	0.0137564
938.505	0.0136547
938.583	0.0136743
938.662	0.0137474
938.740	0.0136909
938.818	0.0136454
938.896	0.0137702
938.974	0.0138909
939.052	0.0137865
939.130	0.0139622
939.208	0.0138930
939.287	0.0136776
939.365	0.0138558
939.443	0.0139829
939.521	0.0137351
939.599	0.0136939
939.677	0.0137411
939.755	0.0137242
939.833	0.0138443
939.912	0.0137852
939.990	0.0136604
940.068	0.0136169
940.146	0.0136794
940.224	0.0135848
940.302	0.0137038
940.380	0.0136570
940.458	0.0136493
940.537	0.0134090
940.615	0.0133762
940.693	0.0134393
940.771	0.0134619
940.849	0.0134435
940.927	0.0134777
941.005	0.0134998
941.083	0.0134493
941.162	0.0135803
941.240	0.0135686
941.318	0.0135683
941.396	0.0135465
941.474	0.0136163
941.552	0.0136316
941.630	0.0137068
941.708	0.0136785
941.787	0.0137472
941.865	0.0136873
941.943	0.0138261
942.021	0.0138305
942.099	0.0137823
942.177	0.0138023
942.255	0.0137499
942.333	0.0137836
942.412	0.0138164
942.490	0.0138265
942.568	0.0138070
942.646	0.0137778
942.724	0.0137350
942.802	0.0136610
942.880	0.0136898
942.958	0.0136619
943.037	0.0137006
943.115	0.0136539
943.193	0.0137151
943.271	0.0136336
943.349	0.0136621
943.427	0.0135052
943.505	0.0136773
943.583	0.0135517
943.662	0.0136565
943.740	0.0135793
943.818	0.0135753
943.896	0.0136349
943.974	0.0136785
944.052	0.0135394
944.130	0.0136281
944.208	0.0137407
944.287	0.0136140
944.365	0.0135630
944.443	0.0136814
944.521	0.0136039
944.599	0.0136775
944.677	0.0136729
944.755	0.0135469
944.833	0.0136431
944.912	0.0136948
944.990	0.0136063
945.068	0.0137672
945.146	0.0137701
945.224	0.0136960
945.302	0.0137606
945.380	0.0139049
945.458	0.0136406
945.537	0.0135991
945.615	0.0135535
945.693	0.0135966
945.771	0.0136735
945.849	0.0134530
945.927	0.0135222
946.005	0.0136006
946.083	0.0134638
946.162	0.0134782
946.240	0.0135012
946.318	0.0135634
946.396	0.0135098
946.474	0.0132734
946.552	0.0134113
946.630	0.0135006
946.708	0.0133844
946.787	0.0132482
946.865	0.0133762
946.943	0.0133809
947.021	0.0134635
947.099	0.0133847
947.177	0.0135022
947.255	0.0135461
947.333	0.0136370
947.412	0.0137179
947.490	0.0136908
947.568	0.0135915
947.646	0.0137132
947.724	0.0136732
947.802	0.0136991
947.880	0.0136716
947.958	0.0137191
948.037	0.0138600
948.115	0.0137226
948.193	0.0138662
948.271	0.0137636
948.349	0.0138351
948.427	0.0139411
948.505	0.0139069
948.583	0.0138304
948.662	0.0138879
948.740	0.0138798
948.818	0.0139335
948.896	0.0140237
948.974	0.0139587
949.052	0.0138673
949.130	0.0139188
949.208	0.0138638
949.287	0.0139045
949.365	0.0137999
949.443	0.0138313
949.521	0.0137932
949.599	0.0138268
949.677	0.0136842
949.755	0.0136507
949.833	0.0136551
949.912	0.0137332
949.990	0.0135854
950.068	0.0136329
950.146	0.0136840
950.224	0.0136373
950.302	0.0136239
950.380	0.0135434
950.458	0.0134363
950.537	0.0135067
950.615	0.0135976
950.693	0.0135640
950.771	0.0135939
950.849	0.0135249
950.927	0.0135088
951.005	0.0134991
951.083	0.0135321
951.162	0.0135342
951.240	0.0135905
951.318	0.0135423
951.396	0.0135717
951.474	0.0135592
951.552	0.0136945
951.630	0.0135299
951.708	0.0136629
951.787	0.0136755
951.865	0.0137440
951.943	0.0137328
952.021	0.0136323
952.099	0.0136112
952.177	0.0136647
952.255	0.0137240
952.333	0.0135705
952.412	0.0136021
952.490	0.0135846
952.568	0.0136105
952.646	0.0136687
952.724	0.0136170
952.802	0.0136552
952.880	0.0137672
952.958	0.0135532
953.037	0.0136618
953.115	0.0136343
953.193	0.0136967
953.271	0.0138605
953.349	0.0138043
953.427	0.0137718
953.505	0.0139561
953.583	0.0137458
953.662	0.0137669
953.740	0.0138250
953.818	0.0137302
953.896	0.0137112
953.974	0.0137766
954.052	0.0137643
954.130	0.0137379
954.208	0.0136232
954.287	0.0136903
954.365	0.0136925
954.443	0.0137521
954.521	0.0137743
954.599	0.0135822
954.677	0.0135732
954.755	0.0135200
954.833	0.0136031
954.912	0.0135563
954.990	0.0135335
955.068	0.0134164
955.146	0.0135906
955.224	0.0135577
955.302	0.0134984
955.380	0.0135880
955.458	0.0135696
955.537	0.0135149
955.615	0.0134819
955.693	0.0134116
955.771	0.0133928
955.849	0.0134672
955.927	0.0134508
956.005	0.0133395
956.083	0.0133996
956.162	0.0135283
956.240	0.0134622
956.318	0.0133755
956.396	0.0135168
956.474	0.0134266
956.552	0.0135230
956.630	0.0135291
956.708	0.0136206
956.787	0.0135526
956.865	0.0135567
956.943	0.0133002
957.021	0.0134165
957.099	0.0137040
957.177	0.0134941
957.255	0.0134866
957.333	0.0136031
957.412	0.0134718
957.490	0.0136617
957.568	0.0138060
957.646	0.0136213
957.724	0.0136015
957.802	0.0137525
957.880	0.0137324
957.958	0.0136474
958.037	0.0135899
958.115	0.0136896
958.193	0.0137400
958.271	0.0136378
958.349	0.0138135
958.427	0.0136017
958.505	0.0136122
958.583	0.0136640
958.662	0.0137082
958.740	0.0135777
958.818	0.0136342
958.896	0.0134663
958.974	0.0135740
959.052	0.0135792
959.130	0.0136488
959.208	0.0135801
959.287	0.0135213
959.365	0.0136172
959.443	0.0136217
959.521	0.0134931
959.599	0.0135262
959.677	0.0135989
959.755	0.0134392
959.833	0.0134251
959.912	0.0136565
959.990	0.0136401
960.068	0.0135784
960.146	0.0135313
960.224	0.0136771
960.302	0.0136777
960.380	0.0136769
960.458	0.0135437
960.537	0.0135632
960.615	0.0138242
960.693	0.0137103
960.771	0.0135046
960.849	0.0135892
960.927	0.0135825
961.005	0.0136604
961.083	0.0135336
961.162	0.0136599
961.240	0.0137495
961.318	0.0136996
961.396	0.0135944
961.474	0.0135603
961.552	0.0135786
961.630	0.0135017
961.708	0.0135730
961.787	0.0134274
961.865	0.0135126
961.943	0.0134317
962.021	0.0135162
962.099	0.0135303
962.177	0.0135201
962.255	0.0134589
962.333	0.0133086
962.412	0.0133678
962.490	0.0135239
962.568	0.0135297
962.646	0.0134406
962.724	0.0135909
962.802	0.0136230
962.880	0.0136141
962.958	0.0137485
963.037	0.0137812
963.115	0.0138004
963.193	0.0137760
963.271	0.0139135
963.349	0.0139629
963.427	0.0139413
963.505	0.0139861
963.583	0.0141153
963.662	0.0139053
963.740	0.0138886
963.818	0.0140496
963.896	0.0139993
963.974	0.0140186
964.052	0.0139344
964.130	0.0139608
964.208	0.0139085
964.287	0.0139214
964.365	0.0137124
964.443	0.0137218
964.521	0.0138423
964.599	0.0136526
964.677	0.0136076
964.755	0.0134483
964.833	0.0135262
964.912	0.0134895
964.990	0.0133505
965.068	0.0134717
965.146	0.0135466
965.224	0.0134663
965.302	0.0133925
965.380	0.0133649
965.458	0.0133987
965.537	0.0134692
965.615	0.0133337
965.693	0.0134312
965.771	0.0133395
965.849	0.0134619
965.927	0.0133527
966.005	0.0135221
966.083	0.0135135
966.162	0.0135523
966.240	0.0135017
966.318	0.0135364
966.396	0.0137135
966.474	0.0136681
966.552	0.0137602
966.630	0.0138078
966.708	0.0137948
966.787	0.0138021
966.865	0.0136968
966.943	0.0138467
967.021	0.0136694
967.099	0.0136515
967.177	0.0137957
967.255	0.0137701
967.333	0.0136741
967.412	0.0135450
967.490	0.0136378
967.568	0.0136856
967.646	0.0135846
967.724	0.0136689
967.802	0.0138649
967.880	0.0136016
967.958	0.0136311
968.037	0.0136890
968.115	0.0136576
968.193	0.0136401
968.271	0.0137512
968.349	0.0136952
968.427	0.0136366
968.505	0.0137144
968.583	0.0135886
968.662	0.0137540
968.740	0.0135484
968.818	0.0135255
968.896	0.0135051
968.974	0.0135424
969.052	0.0135276
969.130	0.0136281
969.208	0.0135143
969.287	0.0135699
969.365	0.0135020
969.443	0.0135510
969.521	0.0136200
969.599	0.0135290
969.677	0.0136199
969.755	0.0135727
969.833	0.0135798
969.912	0.0136604
