05/08/2022	19:55:05	Ver.	4.1	UNKNOWN
Optical Delay	649.989667	Delta X		0.078125	Sweeps	1	Scan Rate	0/0
Coordinates	Axis 1	NaN	Axis 2	NaN	Axis 3	NaN	Axis 4	NaN	Axis 5	NaN	Axis 6	0.000000
TX Power	0.000000	RX Power	0.000000

649.990	0.0134403
650.068	0.0133286
650.146	0.0133250
650.224	0.0133811
650.302	0.0134896
650.380	0.0134775
650.458	0.0133929
650.537	0.0134089
650.615	0.0133699
650.693	0.0134143
650.771	0.0133747
650.849	0.0135099
650.927	0.0134257
651.005	0.0133525
651.083	0.0134561
651.162	0.0134068
651.240	0.0135301
651.318	0.0133612
651.396	0.0133354
651.474	0.0134167
651.552	0.0135059
651.630	0.0133583
651.708	0.0135090
651.787	0.0134991
651.865	0.0136195
651.943	0.0134148
652.021	0.0135121
652.099	0.0134655
652.177	0.0136063
652.255	0.0136179
652.333	0.0136244
652.412	0.0134143
652.490	0.0133723
652.568	0.0135696
652.646	0.0136533
652.724	0.0133686
652.802	0.0135413
652.880	0.0135213
652.958	0.0135687
653.037	0.0135332
653.115	0.0136011
653.193	0.0136176
653.271	0.0134751
653.349	0.0134635
653.427	0.0135682
653.505	0.0136739
653.583	0.0135216
653.662	0.0135545
653.740	0.0135072
653.818	0.0134604
653.896	0.0133952
653.974	0.0134529
654.052	0.0135448
654.130	0.0135606
654.208	0.0134028
654.287	0.0133581
654.365	0.0135689
654.443	0.0134569
654.521	0.0136052
654.599	0.0135206
654.677	0.0134362
654.755	0.0135404
654.833	0.0134792
654.912	0.0135410
654.990	0.0135393
655.068	0.0134554
655.146	0.0133775
655.224	0.0136942
655.302	0.0135881
655.380	0.0134833
655.458	0.0134987
655.537	0.0134706
655.615	0.0133939
655.693	0.0133761
655.771	0.0134690
655.849	0.0134520
655.927	0.0134660
656.005	0.0133292
656.083	0.0134161
656.162	0.0134534
656.240	0.0134300
656.318	0.0134519
656.396	0.0134603
656.474	0.0135781
656.552	0.0135342
656.630	0.0135807
656.708	0.0135611
656.787	0.0135552
656.865	0.0134756
656.943	0.0134380
657.021	0.0136777
657.099	0.0136713
657.177	0.0136533
657.255	0.0136306
657.333	0.0137398
657.412	0.0136353
657.490	0.0136996
657.568	0.0137446
657.646	0.0136804
657.724	0.0136407
657.802	0.0135207
657.880	0.0136094
657.958	0.0134515
658.037	0.0134901
658.115	0.0132588
658.193	0.0131767
658.271	0.0132245
658.349	0.0131935
658.427	0.0132035
658.505	0.0132269
658.583	0.0131527
658.662	0.0132578
658.740	0.0132504
658.818	0.0131478
658.896	0.0133019
658.974	0.0134325
659.052	0.0134072
659.130	0.0134431
659.208	0.0137133
659.287	0.0137098
659.365	0.0138308
659.443	0.0138515
659.521	0.0140083
659.599	0.0141122
659.677	0.0140987
659.755	0.0142273
659.833	0.0139904
659.912	0.0141332
659.990	0.0140070
660.068	0.0140517
660.146	0.0139620
660.224	0.0137408
660.302	0.0136047
660.380	0.0135013
660.458	0.0134965
660.537	0.0134518
660.615	0.0133138
660.693	0.0132604
660.771	0.0129652
660.849	0.0127857
660.927	0.0127314
661.005	0.0124271
661.083	0.0125034
661.162	0.0125698
661.240	0.0124427
661.318	0.0122056
661.396	0.0122691
661.474	0.0123069
661.552	0.0126671
661.630	0.0129349
661.708	0.0130623
661.787	0.0134136
661.865	0.0135915
661.943	0.0140156
662.021	0.0144178
662.099	0.0145537
662.177	0.0147403
662.255	0.0149810
662.333	0.0150372
662.412	0.0149944
662.490	0.0152444
662.568	0.0151517
662.646	0.0150631
662.724	0.0148494
662.802	0.0146253
662.880	0.0146334
662.958	0.0143765
663.037	0.0140369
663.115	0.0138446
663.193	0.0135406
663.271	0.0132732
663.349	0.0131995
663.427	0.0128046
663.505	0.0127039
663.583	0.0123312
663.662	0.0120868
663.740	0.0118407
663.818	0.0117461
663.896	0.0115685
663.974	0.0115334
664.052	0.0112887
664.130	0.0113344
664.208	0.0112585
664.287	0.0114852
664.365	0.0115463
664.443	0.0117480
664.521	0.0120795
664.599	0.0126513
664.677	0.0132122
664.755	0.0135661
664.833	0.0139867
664.912	0.0145349
664.990	0.0149091
665.068	0.0154250
665.146	0.0157193
665.224	0.0160395
665.302	0.0164457
665.380	0.0166174
665.458	0.0166657
665.537	0.0166695
665.615	0.0166216
665.693	0.0163987
665.771	0.0161402
665.849	0.0159110
665.927	0.0153961
666.005	0.0148050
666.083	0.0144112
666.162	0.0138691
666.240	0.0131861
666.318	0.0127235
666.396	0.0121576
666.474	0.0116245
666.552	0.0111392
666.630	0.0108925
666.708	0.0106777
666.787	0.0105447
666.865	0.0105919
666.943	0.0106162
667.021	0.0105338
667.099	0.0107215
667.177	0.0109709
667.255	0.0112439
667.333	0.0117435
667.412	0.0121017
667.490	0.0123552
667.568	0.0128944
667.646	0.0134592
667.724	0.0137588
667.802	0.0140894
667.880	0.0145177
667.958	0.0147591
668.037	0.0149763
668.115	0.0152194
668.193	0.0153089
668.271	0.0155235
668.349	0.0153772
668.427	0.0154500
668.505	0.0153387
668.583	0.0152193
668.662	0.0151113
668.740	0.0150793
668.818	0.0149579
668.896	0.0147419
668.974	0.0145526
669.052	0.0142681
669.130	0.0139328
669.208	0.0139389
669.287	0.0136051
669.365	0.0133190
669.443	0.0129060
669.521	0.0128146
669.599	0.0128081
669.677	0.0126291
669.755	0.0126396
669.833	0.0125436
669.912	0.0126121
669.990	0.0126460
670.068	0.0127263
670.146	0.0128954
670.224	0.0128618
670.302	0.0129883
670.380	0.0130161
670.458	0.0129488
670.537	0.0130624
670.615	0.0133191
670.693	0.0133791
670.771	0.0134422
670.849	0.0135169
670.927	0.0136328
671.005	0.0135767
671.083	0.0137749
671.162	0.0137767
671.240	0.0137724
671.318	0.0139125
671.396	0.0139364
671.474	0.0138805
671.552	0.0137783
671.630	0.0136552
671.708	0.0135083
671.787	0.0134639
671.865	0.0133498
671.943	0.0134553
672.021	0.0132604
672.099	0.0134718
672.177	0.0133322
672.255	0.0133438
672.333	0.0133568
672.412	0.0134430
672.490	0.0133987
672.568	0.0133717
672.646	0.0133749
672.724	0.0133485
672.802	0.0132697
672.880	0.0133064
672.958	0.0133452
673.037	0.0133622
673.115	0.0133275
673.193	0.0132808
673.271	0.0131697
673.349	0.0133116
673.427	0.0132685
673.505	0.0131905
673.583	0.0131420
673.662	0.0130962
673.740	0.0131660
673.818	0.0132652
673.896	0.0131525
673.974	0.0134255
674.052	0.0137164
674.130	0.0137985
674.208	0.0141254
674.287	0.0144678
674.365	0.0146275
674.443	0.0148991
674.521	0.0151655
674.599	0.0150680
674.677	0.0151615
674.755	0.0151433
674.833	0.0149823
674.912	0.0147490
674.990	0.0145803
675.068	0.0144151
675.146	0.0140880
675.224	0.0138862
675.302	0.0137441
675.380	0.0134856
675.458	0.0136002
675.537	0.0135992
675.615	0.0135188
675.693	0.0135448
675.771	0.0134127
675.849	0.0132737
675.927	0.0130745
676.005	0.0129489
676.083	0.0128451
676.162	0.0124885
676.240	0.0122196
676.318	0.0118984
676.396	0.0116077
676.474	0.0113853
676.552	0.0112975
676.630	0.0112039
676.708	0.0111137
676.787	0.0111102
676.865	0.0111965
676.943	0.0112841
677.021	0.0114732
677.099	0.0117202
677.177	0.0118789
677.255	0.0120403
677.333	0.0123528
677.412	0.0126129
677.490	0.0130235
677.568	0.0134237
677.646	0.0138366
677.724	0.0142224
677.802	0.0145673
677.880	0.0149582
677.958	0.0153806
678.037	0.0158618
678.115	0.0163503
678.193	0.0164725
678.271	0.0167548
678.349	0.0170773
678.427	0.0171692
678.505	0.0170542
678.583	0.0171593
678.662	0.0169952
678.740	0.0166249
678.818	0.0163924
678.896	0.0158167
678.974	0.0155521
679.052	0.0147365
679.130	0.0143342
679.208	0.0138188
679.287	0.0133333
679.365	0.0130447
679.443	0.0126740
679.521	0.0125438
679.599	0.0122569
679.677	0.0121470
679.755	0.0120796
679.833	0.0119200
679.912	0.0118626
679.990	0.0115932
680.068	0.0114504
680.146	0.0113268
680.224	0.0111296
680.302	0.0111486
680.380	0.0110280
680.458	0.0108131
680.537	0.0107980
680.615	0.0109380
680.693	0.0111205
680.771	0.0113453
680.849	0.0117305
680.927	0.0118102
681.005	0.0122125
681.083	0.0125327
681.162	0.0128720
681.240	0.0131381
681.318	0.0135614
681.396	0.0136995
681.474	0.0140229
681.552	0.0141773
681.630	0.0143066
681.708	0.0146104
681.787	0.0146704
681.865	0.0148380
681.943	0.0148739
682.021	0.0149847
682.099	0.0149887
682.177	0.0151100
682.255	0.0149550
682.333	0.0151097
682.412	0.0147984
682.490	0.0146091
682.568	0.0144907
682.646	0.0142850
682.724	0.0139560
682.802	0.0138466
682.880	0.0137550
682.958	0.0136122
683.037	0.0135271
683.115	0.0136369
683.193	0.0134528
683.271	0.0137210
683.349	0.0139703
683.427	0.0139838
683.505	0.0141246
683.583	0.0143184
683.662	0.0143368
683.740	0.0146797
683.818	0.0145323
683.896	0.0145605
683.974	0.0147376
684.052	0.0144241
684.130	0.0145040
684.208	0.0145528
684.287	0.0144601
684.365	0.0143421
684.443	0.0139931
684.521	0.0139404
684.599	0.0138290
684.677	0.0135932
684.755	0.0131622
684.833	0.0128948
684.912	0.0125189
684.990	0.0121969
685.068	0.0119701
685.146	0.0117066
685.224	0.0114163
685.302	0.0111562
685.380	0.0110668
685.458	0.0109850
685.537	0.0109225
685.615	0.0109983
685.693	0.0111478
685.771	0.0111893
685.849	0.0114429
685.927	0.0117574
686.005	0.0119172
686.083	0.0123804
686.162	0.0126678
686.240	0.0129422
686.318	0.0132698
686.396	0.0134474
686.474	0.0138655
686.552	0.0143253
686.630	0.0143824
686.708	0.0146759
686.787	0.0149536
686.865	0.0150207
686.943	0.0152577
687.021	0.0153262
687.099	0.0154131
687.177	0.0154211
687.255	0.0152336
687.333	0.0151328
687.412	0.0150776
687.490	0.0148573
687.568	0.0145456
687.646	0.0143282
687.724	0.0141353
687.802	0.0138902
687.880	0.0136136
687.958	0.0135004
688.037	0.0132763
688.115	0.0132651
688.193	0.0132435
688.271	0.0132986
688.349	0.0133051
688.427	0.0133375
688.505	0.0135279
688.583	0.0136311
688.662	0.0136204
688.740	0.0138210
688.818	0.0140786
688.896	0.0139299
688.974	0.0138438
689.052	0.0140262
689.130	0.0140594
689.208	0.0140520
689.287	0.0140504
689.365	0.0140061
689.443	0.0140546
689.521	0.0139722
689.599	0.0139667
689.677	0.0138586
689.755	0.0138657
689.833	0.0139235
689.912	0.0138026
689.990	0.0135722
690.068	0.0132714
690.146	0.0130997
690.224	0.0130463
690.302	0.0127535
690.380	0.0124073
690.458	0.0123203
690.537	0.0122622
690.615	0.0122422
690.693	0.0121835
690.771	0.0122543
690.849	0.0123881
690.927	0.0125278
691.005	0.0126464
691.083	0.0130284
691.162	0.0130835
691.240	0.0132250
691.318	0.0132028
691.396	0.0133554
691.474	0.0134602
691.552	0.0135265
691.630	0.0135400
691.708	0.0135929
691.787	0.0136248
691.865	0.0136441
691.943	0.0136892
692.021	0.0137400
692.099	0.0137861
692.177	0.0136479
692.255	0.0134882
692.333	0.0133792
692.412	0.0131216
692.490	0.0130333
692.568	0.0127371
692.646	0.0125847
692.724	0.0123736
692.802	0.0122849
692.880	0.0123670
692.958	0.0122964
693.037	0.0124017
693.115	0.0128603
693.193	0.0131240
693.271	0.0134621
693.349	0.0140377
693.427	0.0141451
693.505	0.0145424
693.583	0.0147162
693.662	0.0148775
693.740	0.0148308
693.818	0.0149015
693.896	0.0148215
693.974	0.0146476
694.052	0.0146225
694.130	0.0145399
694.208	0.0147160
694.287	0.0146130
694.365	0.0148656
694.443	0.0149927
694.521	0.0153349
694.599	0.0155614
694.677	0.0158961
694.755	0.0160818
694.833	0.0161911
694.912	0.0163438
694.990	0.0160699
695.068	0.0160519
695.146	0.0159390
695.224	0.0154972
695.302	0.0151494
695.380	0.0146598
695.458	0.0140482
695.537	0.0134824
695.615	0.0129544
695.693	0.0123763
695.771	0.0118063
695.849	0.0113673
695.927	0.0109825
696.005	0.0108219
696.083	0.0104760
696.162	0.0102764
696.240	0.0102925
696.318	0.0101884
696.396	0.0103217
696.474	0.0103672
696.552	0.0107674
696.630	0.0109090
696.708	0.0111023
696.787	0.0115474
696.865	0.0117596
696.943	0.0119752
697.021	0.0123353
697.099	0.0125352
697.177	0.0126103
697.255	0.0127721
697.333	0.0127933
697.412	0.0128833
697.490	0.0129333
697.568	0.0130840
697.646	0.0130763
697.724	0.0131549
697.802	0.0134155
697.880	0.0135499
697.958	0.0139667
698.037	0.0142166
698.115	0.0144307
698.193	0.0146805
698.271	0.0148891
698.349	0.0152535
698.427	0.0153391
698.505	0.0154964
698.583	0.0154448
698.662	0.0152383
698.740	0.0153548
698.818	0.0151132
698.896	0.0149081
698.974	0.0147316
699.052	0.0147885
699.130	0.0146359
699.208	0.0146826
699.287	0.0146507
699.365	0.0148591
699.443	0.0149307
699.521	0.0150104
699.599	0.0151562
699.677	0.0154469
699.755	0.0155767
699.833	0.0157591
699.912	0.0157717
699.990	0.0159536
700.068	0.0158768
700.146	0.0158603
700.224	0.0154772
700.302	0.0153413
700.380	0.0150974
700.458	0.0144513
700.537	0.0142561
700.615	0.0135284
700.693	0.0128122
700.771	0.0124119
700.849	0.0118172
700.927	0.0112041
701.005	0.0107818
701.083	0.0104506
701.162	0.0100114
701.240	0.00964737
701.318	0.00955467
701.396	0.00958015
701.474	0.00958244
701.552	0.00975784
701.630	0.00995819
701.708	0.0104021
701.787	0.0108533
701.865	0.0111189
701.943	0.0116525
702.021	0.0121187
702.099	0.0124638
702.177	0.0128782
702.255	0.0130054
702.333	0.0132747
702.412	0.0134912
702.490	0.0136750
702.568	0.0136747
702.646	0.0139161
702.724	0.0138683
702.802	0.0138446
702.880	0.0140665
702.958	0.0141998
703.037	0.0142502
703.115	0.0143061
703.193	0.0144093
703.271	0.0145164
703.349	0.0146068
703.427	0.0147230
703.505	0.0148141
703.583	0.0149280
703.662	0.0148723
703.740	0.0150078
703.818	0.0151639
703.896	0.0151401
703.974	0.0149734
704.052	0.0148139
704.130	0.0148243
704.208	0.0145987
704.287	0.0144360
704.365	0.0141114
704.443	0.0139471
704.521	0.0136729
704.599	0.0135200
704.677	0.0131287
704.755	0.0128129
704.833	0.0126601
704.912	0.0126349
704.990	0.0126303
705.068	0.0127229
705.146	0.0128999
705.224	0.0132504
705.302	0.0135147
705.380	0.0139122
705.458	0.0141228
705.537	0.0146860
705.615	0.0149747
705.693	0.0150490
705.771	0.0153690
705.849	0.0153040
705.927	0.0151730
706.005	0.0149999
706.083	0.0148066
706.162	0.0145249
706.240	0.0143443
706.318	0.0140002
706.396	0.0137830
706.474	0.0135059
706.552	0.0132082
706.630	0.0130119
706.708	0.0130101
706.787	0.0128663
706.865	0.0126781
706.943	0.0126003
707.021	0.0125069
707.099	0.0123424
707.177	0.0121470
707.255	0.0119886
707.333	0.0117619
707.412	0.0114895
707.490	0.0113384
707.568	0.0112419
707.646	0.0109834
707.724	0.0109781
707.802	0.0108710
707.880	0.0108268
707.958	0.0108558
708.037	0.0108952
708.115	0.0112077
708.193	0.0113129
708.271	0.0114618
708.349	0.0117924
708.427	0.0120946
708.505	0.0124239
708.583	0.0127155
708.662	0.0131525
708.740	0.0134084
708.818	0.0138106
708.896	0.0142078
708.974	0.0146332
709.052	0.0151246
709.130	0.0153230
709.208	0.0156736
709.287	0.0160667
709.365	0.0160142
709.443	0.0160472
709.521	0.0162309
709.599	0.0161078
709.677	0.0159270
709.755	0.0159962
709.833	0.0157975
709.912	0.0154621
709.990	0.0155135
710.068	0.0152081
710.146	0.0149837
710.224	0.0147376
710.302	0.0145825
710.380	0.0144498
710.458	0.0142554
710.537	0.0141959
710.615	0.0140771
710.693	0.0139590
710.771	0.0138576
710.849	0.0135972
710.927	0.0134601
711.005	0.0133145
711.083	0.0132138
711.162	0.0129070
711.240	0.0128091
711.318	0.0126225
711.396	0.0125262
711.474	0.0123936
711.552	0.0123417
711.630	0.0124080
711.708	0.0123779
711.787	0.0124858
711.865	0.0125090
711.943	0.0127297
712.021	0.0127452
712.099	0.0126404
712.177	0.0128414
712.255	0.0129822
712.333	0.0129951
712.412	0.0129969
712.490	0.0131815
712.568	0.0131745
712.646	0.0133709
712.724	0.0134453
712.802	0.0134812
712.880	0.0135474
712.958	0.0136885
713.037	0.0137159
713.115	0.0138224
713.193	0.0137789
713.271	0.0138201
713.349	0.0136685
713.427	0.0136590
713.505	0.0134815
713.583	0.0133865
713.662	0.0132873
713.740	0.0131953
713.818	0.0129984
713.896	0.0128866
713.974	0.0129373
714.052	0.0128265
714.130	0.0128291
714.208	0.0127983
714.287	0.0127490
714.365	0.0127396
714.443	0.0125483
714.521	0.0125581
714.599	0.0126474
714.677	0.0125207
714.755	0.0126096
714.833	0.0128130
714.912	0.0128398
714.990	0.0129622
715.068	0.0129551
715.146	0.0131581
715.224	0.0134600
715.302	0.0136983
715.380	0.0139787
715.458	0.0141689
715.537	0.0143668
715.615	0.0147488
715.693	0.0148604
715.771	0.0150500
715.849	0.0151337
715.927	0.0153038
716.005	0.0154348
716.083	0.0153665
716.162	0.0153476
716.240	0.0153970
716.318	0.0154179
716.396	0.0152823
716.474	0.0151419
716.552	0.0151151
716.630	0.0147810
716.708	0.0145490
716.787	0.0140662
716.865	0.0139372
716.943	0.0136835
717.021	0.0132314
717.099	0.0129391
717.177	0.0127610
717.255	0.0124205
717.333	0.0121046
717.412	0.0122866
717.490	0.0120349
717.568	0.0120340
717.646	0.0120440
717.724	0.0120933
717.802	0.0120770
717.880	0.0121973
717.958	0.0124090
718.037	0.0125011
718.115	0.0125827
718.193	0.0127031
718.271	0.0127026
718.349	0.0130152
718.427	0.0129742
718.505	0.0132579
718.583	0.0134037
718.662	0.0135414
718.740	0.0135510
718.818	0.0136422
718.896	0.0139877
718.974	0.0140503
719.052	0.0140475
719.130	0.0141376
719.208	0.0143223
719.287	0.0142548
719.365	0.0141694
719.443	0.0141979
719.521	0.0141288
719.599	0.0137660
719.677	0.0135545
719.755	0.0135097
719.833	0.0132258
719.912	0.0130104
719.990	0.0129177
720.068	0.0127863
720.146	0.0126675
720.224	0.0126514
720.302	0.0128231
720.380	0.0128185
720.458	0.0128872
720.537	0.0128150
720.615	0.0130888
720.693	0.0132650
720.771	0.0132423
720.849	0.0134070
720.927	0.0136275
721.005	0.0136762
721.083	0.0137244
721.162	0.0138395
721.240	0.0139300
721.318	0.0141062
721.396	0.0142688
721.474	0.0143278
721.552	0.0143523
721.630	0.0143362
721.708	0.0141342
721.787	0.0142857
721.865	0.0139055
721.943	0.0138996
722.021	0.0139326
722.099	0.0137719
722.177	0.0136427
722.255	0.0136224
722.333	0.0135315
722.412	0.0135511
722.490	0.0135106
722.568	0.0134037
722.646	0.0134120
722.724	0.0133281
722.802	0.0134249
722.880	0.0132678
722.958	0.0133311
723.037	0.0133785
723.115	0.0134269
723.193	0.0132832
723.271	0.0132848
723.349	0.0132423
723.427	0.0133035
723.505	0.0132424
723.583	0.0132291
723.662	0.0133146
723.740	0.0130950
723.818	0.0131546
723.896	0.0133340
723.974	0.0131525
724.052	0.0130912
724.130	0.0130701
724.208	0.0130729
724.287	0.0130820
724.365	0.0130305
724.443	0.0131120
724.521	0.0131490
724.599	0.0133244
724.677	0.0131480
724.755	0.0132835
724.833	0.0135650
724.912	0.0137273
724.990	0.0137057
725.068	0.0137028
725.146	0.0137182
725.224	0.0138662
725.302	0.0138825
725.380	0.0139192
725.458	0.0140526
725.537	0.0140881
725.615	0.0140971
725.693	0.0138811
725.771	0.0137681
725.849	0.0138615
725.927	0.0137114
726.005	0.0136121
726.083	0.0137003
726.162	0.0134254
726.240	0.0133655
726.318	0.0130460
726.396	0.0131377
726.474	0.0128992
726.552	0.0128665
726.630	0.0127490
726.708	0.0125909
726.787	0.0125713
726.865	0.0124426
726.943	0.0124476
727.021	0.0124791
727.099	0.0126643
727.177	0.0127385
727.255	0.0129800
727.333	0.0129893
727.412	0.0131483
727.490	0.0133649
727.568	0.0134580
727.646	0.0137600
727.724	0.0137721
727.802	0.0139163
727.880	0.0139590
727.958	0.0139027
728.037	0.0140865
728.115	0.0142128
728.193	0.0141843
728.271	0.0139537
728.349	0.0139823
728.427	0.0139632
728.505	0.0137975
728.583	0.0136672
728.662	0.0136531
728.740	0.0137760
728.818	0.0135650
728.896	0.0136747
728.974	0.0137801
729.052	0.0136015
729.130	0.0139210
729.208	0.0137242
729.287	0.0137787
729.365	0.0139187
729.443	0.0139040
729.521	0.0137751
729.599	0.0139342
729.677	0.0138067
729.755	0.0135284
729.833	0.0134879
729.912	0.0135506
729.990	0.0132197
730.068	0.0128677
730.146	0.0127823
730.224	0.0127759
730.302	0.0125791
730.380	0.0124400
730.458	0.0124273
730.537	0.0125297
730.615	0.0123753
730.693	0.0125026
730.771	0.0125539
730.849	0.0127248
730.927	0.0130741
731.005	0.0132366
731.083	0.0133625
731.162	0.0136025
731.240	0.0139274
731.318	0.0140937
731.396	0.0143328
731.474	0.0145757
731.552	0.0147917
731.630	0.0147592
731.708	0.0148573
731.787	0.0149306
731.865	0.0148955
731.943	0.0147253
732.021	0.0146787
732.099	0.0143845
732.177	0.0140770
732.255	0.0140981
732.333	0.0138818
732.412	0.0138156
732.490	0.0134749
732.568	0.0134101
732.646	0.0132772
732.724	0.0131529
732.802	0.0130038
732.880	0.0129220
732.958	0.0129404
733.037	0.0127926
733.115	0.0127462
733.193	0.0127467
733.271	0.0127281
733.349	0.0127402
733.427	0.0125723
733.505	0.0127243
733.583	0.0127670
733.662	0.0127145
733.740	0.0128241
733.818	0.0127853
733.896	0.0127744
733.974	0.0128427
734.052	0.0129092
734.130	0.0128580
734.208	0.0130939
734.287	0.0131096
734.365	0.0133035
734.443	0.0134059
734.521	0.0133819
734.599	0.0135501
734.677	0.0136508
734.755	0.0137673
734.833	0.0138908
734.912	0.0139305
734.990	0.0140443
735.068	0.0140933
735.146	0.0141198
735.224	0.0139963
735.302	0.0140936
735.380	0.0141176
735.458	0.0140124
735.537	0.0138948
735.615	0.0138823
735.693	0.0139299
735.771	0.0139440
735.849	0.0140363
735.927	0.0139235
736.005	0.0137646
736.083	0.0138938
736.162	0.0139953
736.240	0.0139111
736.318	0.0138945
736.396	0.0138535
736.474	0.0136938
736.552	0.0139552
736.630	0.0138589
736.708	0.0138650
736.787	0.0136443
736.865	0.0135871
736.943	0.0136034
737.021	0.0135352
737.099	0.0134464
737.177	0.0132690
737.255	0.0132858
737.333	0.0132056
737.412	0.0129977
737.490	0.0130503
737.568	0.0129440
737.646	0.0128421
737.724	0.0129266
737.802	0.0130968
737.880	0.0130775
737.958	0.0130673
738.037	0.0130644
738.115	0.0131431
738.193	0.0133215
738.271	0.0134718
738.349	0.0136226
738.427	0.0136250
738.505	0.0138046
738.583	0.0139098
738.662	0.0139600
738.740	0.0140084
738.818	0.0138910
738.896	0.0140714
738.974	0.0140992
739.052	0.0140251
739.130	0.0139984
739.208	0.0138145
739.287	0.0138712
739.365	0.0137519
739.443	0.0135213
739.521	0.0134409
739.599	0.0134628
739.677	0.0133736
739.755	0.0132841
739.833	0.0133008
739.912	0.0131559
739.990	0.0132545
740.068	0.0131184
740.146	0.0131882
740.224	0.0131450
740.302	0.0130167
740.380	0.0130090
740.458	0.0131585
740.537	0.0132273
740.615	0.0130798
740.693	0.0131684
740.771	0.0132458
740.849	0.0132472
740.927	0.0132154
741.005	0.0131699
741.083	0.0133931
741.162	0.0133479
741.240	0.0134894
741.318	0.0135310
741.396	0.0134369
741.474	0.0134799
741.552	0.0134730
741.630	0.0136338
741.708	0.0135294
741.787	0.0135069
741.865	0.0134641
741.943	0.0134486
742.021	0.0135023
742.099	0.0135442
742.177	0.0136035
742.255	0.0134572
742.333	0.0136365
742.412	0.0137266
742.490	0.0138287
742.568	0.0139412
742.646	0.0140334
742.724	0.0140919
742.802	0.0141129
742.880	0.0142538
742.958	0.0141627
743.037	0.0142074
743.115	0.0142403
743.193	0.0141489
743.271	0.0139325
743.349	0.0138515
743.427	0.0137805
743.505	0.0136417
743.583	0.0134015
743.662	0.0132494
743.740	0.0130272
743.818	0.0129689
743.896	0.0130895
743.974	0.0127792
744.052	0.0126566
744.130	0.0126815
744.208	0.0127699
744.287	0.0129147
744.365	0.0129560
744.443	0.0129822
744.521	0.0132915
744.599	0.0132930
744.677	0.0132494
744.755	0.0134267
744.833	0.0136436
744.912	0.0135228
744.990	0.0136860
745.068	0.0139166
745.146	0.0138092
745.224	0.0139021
745.302	0.0139758
745.380	0.0139642
745.458	0.0139476
745.537	0.0139805
745.615	0.0138190
745.693	0.0137862
745.771	0.0137086
745.849	0.0136972
745.927	0.0136083
746.005	0.0134908
746.083	0.0133212
746.162	0.0133027
746.240	0.0132874
746.318	0.0132920
746.396	0.0133685
746.474	0.0133126
746.552	0.0133561
746.630	0.0133717
746.708	0.0133805
746.787	0.0135399
746.865	0.0136400
746.943	0.0135133
747.021	0.0134048
747.099	0.0135786
747.177	0.0135606
747.255	0.0134402
747.333	0.0133379
747.412	0.0133856
747.490	0.0132256
747.568	0.0130353
747.646	0.0131312
747.724	0.0130277
747.802	0.0129168
747.880	0.0129218
747.958	0.0129829
748.037	0.0128392
748.115	0.0129004
748.193	0.0130358
748.271	0.0129395
748.349	0.0129860
748.427	0.0132878
748.505	0.0132568
748.583	0.0131947
748.662	0.0133717
748.740	0.0135720
748.818	0.0136802
748.896	0.0136802
748.974	0.0137366
749.052	0.0137724
749.130	0.0138406
749.208	0.0140412
749.287	0.0140217
749.365	0.0140844
749.443	0.0141074
749.521	0.0141637
749.599	0.0141531
749.677	0.0141256
749.755	0.0142004
749.833	0.0140936
749.912	0.0140478
749.990	0.0141426
750.068	0.0139829
750.146	0.0139430
750.224	0.0139577
750.302	0.0138467
750.380	0.0137965
750.458	0.0136760
750.537	0.0134807
750.615	0.0136333
750.693	0.0134860
750.771	0.0135075
750.849	0.0134647
750.927	0.0132281
751.005	0.0132780
751.083	0.0131911
751.162	0.0134232
751.240	0.0134387
751.318	0.0133884
751.396	0.0135692
751.474	0.0136772
751.552	0.0136438
751.630	0.0137031
751.708	0.0136317
751.787	0.0137009
751.865	0.0138318
751.943	0.0137842
752.021	0.0138171
752.099	0.0136263
752.177	0.0136133
752.255	0.0137253
752.333	0.0137492
752.412	0.0135250
752.490	0.0134309
752.568	0.0133723
752.646	0.0134068
752.724	0.0132697
752.802	0.0133896
752.880	0.0134067
752.958	0.0133746
753.037	0.0134840
753.115	0.0133839
753.193	0.0134523
753.271	0.0136233
753.349	0.0135490
753.427	0.0135220
753.505	0.0135397
753.583	0.0135126
753.662	0.0136292
753.740	0.0136056
753.818	0.0137209
753.896	0.0135363
753.974	0.0133593
754.052	0.0133269
754.130	0.0133091
754.208	0.0134782
754.287	0.0132836
754.365	0.0133086
754.443	0.0133474
754.521	0.0133430
754.599	0.0133166
754.677	0.0132858
754.755	0.0132552
754.833	0.0133670
754.912	0.0134864
754.990	0.0133458
755.068	0.0134052
755.146	0.0135241
755.224	0.0135865
755.302	0.0134300
755.380	0.0136187
755.458	0.0138154
755.537	0.0139130
755.615	0.0138548
755.693	0.0139851
755.771	0.0139037
755.849	0.0138863
755.927	0.0137717
756.005	0.0139520
756.083	0.0140359
756.162	0.0140457
756.240	0.0140423
756.318	0.0140851
756.396	0.0141006
756.474	0.0140414
756.552	0.0140257
756.630	0.0140350
756.708	0.0140114
756.787	0.0138478
756.865	0.0138380
756.943	0.0137469
757.021	0.0136912
757.099	0.0137173
757.177	0.0136156
757.255	0.0134924
757.333	0.0135126
757.412	0.0133371
757.490	0.0134164
757.568	0.0132178
757.646	0.0132670
757.724	0.0133160
757.802	0.0131872
757.880	0.0133594
757.958	0.0132563
758.037	0.0132030
758.115	0.0132210
758.193	0.0133258
758.271	0.0132024
758.349	0.0133457
758.427	0.0134262
758.505	0.0133761
758.583	0.0134814
758.662	0.0134733
758.740	0.0133938
758.818	0.0135046
758.896	0.0134803
758.974	0.0135691
759.052	0.0135243
759.130	0.0134488
759.208	0.0135560
759.287	0.0134620
759.365	0.0136654
759.443	0.0135793
759.521	0.0135777
759.599	0.0135816
759.677	0.0135738
759.755	0.0136567
759.833	0.0135867
759.912	0.0134956
759.990	0.0133817
760.068	0.0133795
760.146	0.0134755
760.224	0.0134349
760.302	0.0133646
760.380	0.0131839
760.458	0.0133666
760.537	0.0132776
760.615	0.0132644
760.693	0.0133630
760.771	0.0132037
760.849	0.0131562
760.927	0.0132098
761.005	0.0131542
761.083	0.0131838
761.162	0.0131386
761.240	0.0131362
761.318	0.0133114
761.396	0.0132864
761.474	0.0132450
761.552	0.0134460
761.630	0.0134692
761.708	0.0134909
761.787	0.0134459
761.865	0.0135827
761.943	0.0135838
762.021	0.0137711
762.099	0.0135406
762.177	0.0136348
762.255	0.0136892
762.333	0.0137832
762.412	0.0137679
762.490	0.0137053
762.568	0.0138139
762.646	0.0138360
762.724	0.0136110
762.802	0.0136584
762.880	0.0136909
762.958	0.0136705
763.037	0.0136672
763.115	0.0137023
763.193	0.0137657
763.271	0.0137969
763.349	0.0139490
763.427	0.0138477
763.505	0.0139541
763.583	0.0139325
763.662	0.0138612
763.740	0.0137892
763.818	0.0137862
763.896	0.0138159
763.974	0.0136562
764.052	0.0135852
764.130	0.0135106
764.208	0.0134341
764.287	0.0134509
764.365	0.0133920
764.443	0.0133869
764.521	0.0133760
764.599	0.0131754
764.677	0.0131698
764.755	0.0131837
764.833	0.0133144
764.912	0.0131942
764.990	0.0132590
765.068	0.0134428
765.146	0.0133347
765.224	0.0131225
765.302	0.0133266
765.380	0.0134599
765.458	0.0132774
765.537	0.0134060
765.615	0.0132949
765.693	0.0133395
765.771	0.0132233
765.849	0.0134505
765.927	0.0135377
766.005	0.0133714
766.083	0.0134682
766.162	0.0136092
766.240	0.0135345
766.318	0.0136228
766.396	0.0137516
766.474	0.0137896
766.552	0.0137799
766.630	0.0138375
766.708	0.0139227
766.787	0.0137492
766.865	0.0137872
766.943	0.0136900
767.021	0.0136898
767.099	0.0136094
767.177	0.0135558
767.255	0.0136160
767.333	0.0135264
767.412	0.0133790
767.490	0.0134644
767.568	0.0133916
767.646	0.0133688
767.724	0.0133646
767.802	0.0134636
767.880	0.0132600
767.958	0.0132107
768.037	0.0132696
768.115	0.0132028
768.193	0.0133122
768.271	0.0134679
768.349	0.0132832
768.427	0.0132261
768.505	0.0135406
768.583	0.0135185
768.662	0.0134592
768.740	0.0135384
768.818	0.0136757
768.896	0.0136623
768.974	0.0136749
769.052	0.0136988
769.130	0.0137171
769.208	0.0138499
769.287	0.0136346
769.365	0.0135757
769.443	0.0135928
769.521	0.0136784
769.599	0.0135246
769.677	0.0134195
769.755	0.0134414
769.833	0.0134013
769.912	0.0134643
769.990	0.0134873
770.068	0.0132925
770.146	0.0134462
770.224	0.0134833
770.302	0.0134737
770.380	0.0134756
770.458	0.0135523
770.537	0.0133835
770.615	0.0135663
770.693	0.0136507
770.771	0.0135136
770.849	0.0136192
770.927	0.0135374
771.005	0.0136465
771.083	0.0136555
771.162	0.0135764
771.240	0.0135927
771.318	0.0137963
771.396	0.0137842
771.474	0.0137373
771.552	0.0137653
771.630	0.0137577
771.708	0.0136330
771.787	0.0137741
771.865	0.0135733
771.943	0.0136707
772.021	0.0137663
772.099	0.0136762
772.177	0.0134911
772.255	0.0134950
772.333	0.0137386
772.412	0.0134101
772.490	0.0134714
772.568	0.0135615
772.646	0.0134676
772.724	0.0135334
772.802	0.0135503
772.880	0.0135014
772.958	0.0134904
773.037	0.0135371
773.115	0.0133975
773.193	0.0134933
773.271	0.0134606
773.349	0.0135007
773.427	0.0134295
773.505	0.0135027
773.583	0.0134344
773.662	0.0132403
773.740	0.0132584
773.818	0.0132863
773.896	0.0133763
773.974	0.0132891
774.052	0.0130617
774.130	0.0130444
774.208	0.0132411
774.287	0.0130895
774.365	0.0131178
774.443	0.0132113
774.521	0.0131618
774.599	0.0134276
774.677	0.0135439
774.755	0.0135744
774.833	0.0136973
774.912	0.0136841
774.990	0.0138001
775.068	0.0137313
775.146	0.0139644
775.224	0.0138693
775.302	0.0138961
775.380	0.0139057
775.458	0.0137519
775.537	0.0138218
775.615	0.0138174
775.693	0.0140128
775.771	0.0139173
775.849	0.0138449
775.927	0.0137514
776.005	0.0136412
776.083	0.0135694
776.162	0.0137717
776.240	0.0137092
776.318	0.0136739
776.396	0.0136122
776.474	0.0135769
776.552	0.0136579
776.630	0.0135933
776.708	0.0134589
776.787	0.0135984
776.865	0.0135063
776.943	0.0133743
777.021	0.0133829
777.099	0.0132236
777.177	0.0133932
777.255	0.0134212
777.333	0.0134470
777.412	0.0134557
777.490	0.0135131
777.568	0.0133571
777.646	0.0134484
777.724	0.0134303
777.802	0.0133640
777.880	0.0133994
777.958	0.0134534
778.037	0.0134640
778.115	0.0134637
778.193	0.0133937
778.271	0.0135287
778.349	0.0134799
778.427	0.0134193
778.505	0.0132726
778.583	0.0132943
778.662	0.0134113
778.740	0.0133781
778.818	0.0133072
778.896	0.0133430
778.974	0.0132015
779.052	0.0133415
779.130	0.0132419
779.208	0.0133024
779.287	0.0134279
779.365	0.0133126
779.443	0.0135448
779.521	0.0136473
779.599	0.0136326
779.677	0.0135857
779.755	0.0137326
779.833	0.0138950
779.912	0.0137841
779.990	0.0138946
780.068	0.0139931
780.146	0.0140241
780.224	0.0139494
780.302	0.0139507
780.380	0.0139698
780.458	0.0139870
780.537	0.0139293
780.615	0.0138363
780.693	0.0138328
780.771	0.0137090
780.849	0.0138352
780.927	0.0137186
781.005	0.0137637
781.083	0.0136893
781.162	0.0135316
781.240	0.0133594
781.318	0.0134926
781.396	0.0135627
781.474	0.0134414
781.552	0.0133009
781.630	0.0133224
781.708	0.0133001
781.787	0.0132960
781.865	0.0133609
781.943	0.0133294
782.021	0.0132682
782.099	0.0132867
782.177	0.0132893
782.255	0.0132199
782.333	0.0133033
782.412	0.0132233
782.490	0.0132257
782.568	0.0132861
782.646	0.0131736
782.724	0.0132764
782.802	0.0132447
782.880	0.0132275
782.958	0.0133545
783.037	0.0133026
783.115	0.0133689
783.193	0.0134064
783.271	0.0135744
783.349	0.0135460
783.427	0.0134868
783.505	0.0136605
783.583	0.0135217
783.662	0.0136280
783.740	0.0135851
783.818	0.0135439
783.896	0.0135713
783.974	0.0137362
784.052	0.0136147
784.130	0.0137549
784.208	0.0137612
784.287	0.0137563
784.365	0.0137494
784.443	0.0137451
784.521	0.0139205
784.599	0.0138133
784.677	0.0137378
784.755	0.0137777
784.833	0.0135275
784.912	0.0137452
784.990	0.0136277
785.068	0.0136731
785.146	0.0136376
785.224	0.0134741
785.302	0.0134837
785.380	0.0135008
785.458	0.0132740
785.537	0.0132612
785.615	0.0131300
785.693	0.0131996
785.771	0.0132170
785.849	0.0132842
785.927	0.0133427
786.005	0.0133251
786.083	0.0132558
786.162	0.0131622
786.240	0.0133798
786.318	0.0132743
786.396	0.0133301
786.474	0.0134889
786.552	0.0133157
786.630	0.0134421
786.708	0.0135966
786.787	0.0135952
786.865	0.0137622
786.943	0.0135798
787.021	0.0137895
787.099	0.0138052
787.177	0.0138338
787.255	0.0137766
787.333	0.0138817
787.412	0.0137524
787.490	0.0138467
787.568	0.0138100
787.646	0.0137971
787.724	0.0138164
787.802	0.0137891
787.880	0.0137144
787.958	0.0137585
788.037	0.0136761
788.115	0.0137104
788.193	0.0135851
788.271	0.0134647
788.349	0.0134660
788.427	0.0136169
788.505	0.0133026
788.583	0.0133053
788.662	0.0132903
788.740	0.0132478
788.818	0.0132828
788.896	0.0131409
788.974	0.0130727
789.052	0.0130350
789.130	0.0130952
789.208	0.0129923
789.287	0.0128705
789.365	0.0129182
789.443	0.0128726
789.521	0.0130485
789.599	0.0130342
789.677	0.0129721
789.755	0.0130704
789.833	0.0129317
789.912	0.0130389
789.990	0.0131330
790.068	0.0133801
790.146	0.0132335
790.224	0.0134591
790.302	0.0134899
790.380	0.0134512
790.458	0.0135726
790.537	0.0136529
790.615	0.0136026
790.693	0.0138017
790.771	0.0138716
790.849	0.0139768
790.927	0.0139242
791.005	0.0141075
791.083	0.0142513
791.162	0.0142513
791.240	0.0141390
791.318	0.0141821
791.396	0.0142332
791.474	0.0142304
791.552	0.0141945
791.630	0.0141106
791.708	0.0140115
791.787	0.0140974
791.865	0.0140399
791.943	0.0138714
792.021	0.0136853
792.099	0.0136472
792.177	0.0135783
792.255	0.0134612
792.333	0.0134090
792.412	0.0133643
792.490	0.0131395
792.568	0.0130837
792.646	0.0129845
792.724	0.0130949
792.802	0.0129171
792.880	0.0129482
792.958	0.0130784
793.037	0.0131300
793.115	0.0130476
793.193	0.0131084
793.271	0.0131419
793.349	0.0131219
793.427	0.0132188
793.505	0.0133108
793.583	0.0134937
793.662	0.0132667
793.740	0.0134077
793.818	0.0134245
793.896	0.0134815
793.974	0.0135394
794.052	0.0135077
794.130	0.0135497
794.208	0.0137727
794.287	0.0136377
794.365	0.0135583
794.443	0.0135445
794.521	0.0135961
794.599	0.0135282
794.677	0.0135806
794.755	0.0136836
794.833	0.0136516
794.912	0.0134785
794.990	0.0134532
795.068	0.0135536
795.146	0.0134016
795.224	0.0133655
795.302	0.0133529
795.380	0.0133655
795.458	0.0133320
795.537	0.0132757
795.615	0.0134754
795.693	0.0133997
795.771	0.0134559
795.849	0.0134253
795.927	0.0135742
796.005	0.0136013
796.083	0.0135629
796.162	0.0136659
796.240	0.0136015
796.318	0.0136978
796.396	0.0138298
796.474	0.0137900
796.552	0.0139972
796.630	0.0137585
796.708	0.0137171
796.787	0.0137691
796.865	0.0136649
796.943	0.0136965
797.021	0.0138435
797.099	0.0137209
797.177	0.0136961
797.255	0.0137192
797.333	0.0137438
797.412	0.0136105
797.490	0.0138170
797.568	0.0136256
797.646	0.0135713
797.724	0.0134729
797.802	0.0135535
797.880	0.0134553
797.958	0.0135305
798.037	0.0134732
798.115	0.0134123
798.193	0.0133501
798.271	0.0133963
798.349	0.0133237
798.427	0.0133770
798.505	0.0133047
798.583	0.0132861
798.662	0.0133348
798.740	0.0134064
798.818	0.0132941
798.896	0.0133423
798.974	0.0133419
799.052	0.0133157
799.130	0.0133936
799.208	0.0133590
799.287	0.0133368
799.365	0.0134607
799.443	0.0133262
799.521	0.0133076
799.599	0.0132433
799.677	0.0132646
799.755	0.0134118
799.833	0.0131544
799.912	0.0132840
799.990	0.0134076
800.068	0.0132243
800.146	0.0133477
800.224	0.0132352
800.302	0.0133782
800.380	0.0134052
800.458	0.0134764
800.537	0.0135924
800.615	0.0135022
800.693	0.0133817
800.771	0.0134001
800.849	0.0136662
800.927	0.0136586
801.005	0.0137328
801.083	0.0137627
801.162	0.0137395
801.240	0.0136308
801.318	0.0138634
801.396	0.0137719
801.474	0.0138633
801.552	0.0137840
801.630	0.0138258
801.708	0.0137453
801.787	0.0137328
801.865	0.0137775
801.943	0.0135802
802.021	0.0136112
802.099	0.0136348
802.177	0.0135503
802.255	0.0135442
802.333	0.0134599
802.412	0.0135162
802.490	0.0134756
802.568	0.0132462
802.646	0.0134200
802.724	0.0135439
802.802	0.0133882
802.880	0.0134119
802.958	0.0132710
803.037	0.0133498
803.115	0.0133553
803.193	0.0133155
803.271	0.0132648
803.349	0.0132068
803.427	0.0132063
803.505	0.0132810
803.583	0.0133635
803.662	0.0132154
803.740	0.0133168
803.818	0.0134616
803.896	0.0134292
803.974	0.0134033
804.052	0.0133747
804.130	0.0134449
804.208	0.0134318
804.287	0.0135175
804.365	0.0134143
804.443	0.0135632
804.521	0.0133618
804.599	0.0134534
804.677	0.0134807
804.755	0.0134891
804.833	0.0134876
804.912	0.0134367
804.990	0.0134856
805.068	0.0136054
805.146	0.0135039
805.224	0.0135645
805.302	0.0135802
805.380	0.0135071
805.458	0.0133161
805.537	0.0133025
805.615	0.0133612
805.693	0.0133275
805.771	0.0133160
805.849	0.0132861
805.927	0.0133518
806.005	0.0132633
806.083	0.0131398
806.162	0.0133140
806.240	0.0132597
806.318	0.0132024
806.396	0.0133091
806.474	0.0132805
806.552	0.0134571
806.630	0.0134219
806.708	0.0134552
806.787	0.0136713
806.865	0.0138195
806.943	0.0137651
807.021	0.0135912
807.099	0.0138187
807.177	0.0138719
807.255	0.0138802
807.333	0.0137962
807.412	0.0138759
807.490	0.0137437
807.568	0.0137406
807.646	0.0137791
807.724	0.0137113
807.802	0.0138137
807.880	0.0135400
807.958	0.0136366
808.037	0.0135773
808.115	0.0135043
808.193	0.0136239
808.271	0.0135298
808.349	0.0134968
808.427	0.0134634
808.505	0.0133996
808.583	0.0133670
808.662	0.0134151
808.740	0.0133039
808.818	0.0131641
808.896	0.0131626
808.974	0.0131587
809.052	0.0132528
809.130	0.0133366
809.208	0.0133387
809.287	0.0132733
809.365	0.0132644
809.443	0.0132836
809.521	0.0132901
809.599	0.0132404
809.677	0.0133369
809.755	0.0134023
809.833	0.0133620
809.912	0.0132988
809.990	0.0132574
810.068	0.0133430
810.146	0.0134219
810.224	0.0133595
810.302	0.0133876
810.380	0.0135048
810.458	0.0134282
810.537	0.0135336
810.615	0.0135649
810.693	0.0134254
810.771	0.0135232
810.849	0.0134259
810.927	0.0132867
811.005	0.0134974
811.083	0.0133874
811.162	0.0134329
811.240	0.0134859
811.318	0.0135607
811.396	0.0135154
811.474	0.0134600
811.552	0.0133417
811.630	0.0133630
811.708	0.0135432
811.787	0.0135767
811.865	0.0135359
811.943	0.0133882
812.021	0.0136156
812.099	0.0134454
812.177	0.0134888
812.255	0.0136021
812.333	0.0137390
812.412	0.0136102
812.490	0.0137119
812.568	0.0137583
812.646	0.0137482
812.724	0.0137496
812.802	0.0137520
812.880	0.0137883
812.958	0.0138041
813.037	0.0138567
813.115	0.0137045
813.193	0.0138370
813.271	0.0138191
813.349	0.0138190
813.427	0.0137928
813.505	0.0139065
813.583	0.0137629
813.662	0.0137336
813.740	0.0138242
813.818	0.0136774
813.896	0.0137363
813.974	0.0135983
814.052	0.0136611
814.130	0.0136458
814.208	0.0134024
814.287	0.0134399
814.365	0.0133911
814.443	0.0134122
814.521	0.0132790
814.599	0.0131902
814.677	0.0131957
814.755	0.0131478
814.833	0.0132287
814.912	0.0132404
814.990	0.0132223
815.068	0.0131681
815.146	0.0132657
815.224	0.0132692
815.302	0.0130978
815.380	0.0134225
815.458	0.0133749
815.537	0.0132770
815.615	0.0133181
815.693	0.0133529
815.771	0.0134268
815.849	0.0135109
815.927	0.0135994
816.005	0.0134619
816.083	0.0134430
816.162	0.0134677
816.240	0.0137019
816.318	0.0136330
816.396	0.0136807
816.474	0.0136829
816.552	0.0135647
816.630	0.0135110
816.708	0.0135577
816.787	0.0137060
816.865	0.0135651
816.943	0.0134810
817.021	0.0135780
817.099	0.0134774
817.177	0.0134351
817.255	0.0134465
817.333	0.0133839
817.412	0.0134241
817.490	0.0134216
817.568	0.0133648
817.646	0.0133810
817.724	0.0134144
817.802	0.0134285
817.880	0.0135567
817.958	0.0135441
818.037	0.0135944
818.115	0.0135444
818.193	0.0136620
818.271	0.0136234
818.349	0.0135100
818.427	0.0135005
818.505	0.0135517
818.583	0.0136958
818.662	0.0137025
818.740	0.0134673
818.818	0.0135889
818.896	0.0134660
818.974	0.0134951
819.052	0.0136307
819.130	0.0135526
819.208	0.0136662
819.287	0.0136328
819.365	0.0134686
819.443	0.0135081
819.521	0.0137079
819.599	0.0136767
819.677	0.0135220
819.755	0.0136205
819.833	0.0136398
819.912	0.0135308
819.990	0.0136182
820.068	0.0134746
820.146	0.0134616
820.224	0.0135046
820.302	0.0134648
820.380	0.0134875
820.458	0.0133385
820.537	0.0134121
820.615	0.0133868
820.693	0.0134837
820.771	0.0135059
820.849	0.0133827
820.927	0.0135502
821.005	0.0134337
821.083	0.0134265
821.162	0.0134487
821.240	0.0135081
821.318	0.0134489
821.396	0.0134798
821.474	0.0134042
821.552	0.0134209
821.630	0.0133588
821.708	0.0134506
821.787	0.0135172
821.865	0.0134310
821.943	0.0134011
822.021	0.0133599
822.099	0.0134715
822.177	0.0133418
822.255	0.0134034
822.333	0.0135514
822.412	0.0134357
822.490	0.0134383
822.568	0.0134351
822.646	0.0134918
822.724	0.0135025
822.802	0.0135021
822.880	0.0133767
822.958	0.0134166
823.037	0.0133572
823.115	0.0133681
823.193	0.0132965
823.271	0.0133788
823.349	0.0135030
823.427	0.0133141
823.505	0.0132657
823.583	0.0133408
823.662	0.0133928
823.740	0.0133057
823.818	0.0133958
823.896	0.0132845
823.974	0.0133191
824.052	0.0133809
824.130	0.0135037
824.208	0.0134746
824.287	0.0134170
824.365	0.0135456
824.443	0.0135075
824.521	0.0134961
824.599	0.0136730
824.677	0.0136472
824.755	0.0135956
824.833	0.0136613
824.912	0.0136134
824.990	0.0136712
825.068	0.0135870
825.146	0.0136822
825.224	0.0137690
825.302	0.0138070
825.380	0.0136826
825.458	0.0136462
825.537	0.0137509
825.615	0.0138018
825.693	0.0137303
825.771	0.0136996
825.849	0.0136693
825.927	0.0136246
826.005	0.0135807
826.083	0.0134817
826.162	0.0135114
826.240	0.0135043
826.318	0.0136581
826.396	0.0135262
826.474	0.0133424
826.552	0.0134119
826.630	0.0132858
826.708	0.0132820
826.787	0.0134664
826.865	0.0133581
826.943	0.0132111
827.021	0.0132936
827.099	0.0134661
827.177	0.0133694
827.255	0.0133670
827.333	0.0133832
827.412	0.0134882
827.490	0.0134577
827.568	0.0134698
827.646	0.0134122
827.724	0.0134829
827.802	0.0133686
827.880	0.0134742
827.958	0.0135104
828.037	0.0134498
828.115	0.0134709
828.193	0.0135729
828.271	0.0136479
828.349	0.0135489
828.427	0.0135773
828.505	0.0135092
828.583	0.0136679
828.662	0.0137286
828.740	0.0134946
828.818	0.0135728
828.896	0.0135664
828.974	0.0137232
829.052	0.0135747
829.130	0.0133862
829.208	0.0135048
829.287	0.0135849
829.365	0.0134805
829.443	0.0135258
829.521	0.0134450
829.599	0.0133636
829.677	0.0133871
829.755	0.0135029
829.833	0.0133904
829.912	0.0134842
829.990	0.0133866
830.068	0.0134031
830.146	0.0134343
830.224	0.0133353
830.302	0.0133466
830.380	0.0134603
830.458	0.0134664
830.537	0.0134265
830.615	0.0135212
830.693	0.0134172
830.771	0.0134225
830.849	0.0135041
830.927	0.0134884
831.005	0.0134251
831.083	0.0134973
831.162	0.0133466
831.240	0.0134275
831.318	0.0135555
831.396	0.0136990
831.474	0.0135961
831.552	0.0135881
831.630	0.0137519
831.708	0.0135577
831.787	0.0135792
831.865	0.0136851
831.943	0.0138347
832.021	0.0136874
832.099	0.0137415
832.177	0.0137501
832.255	0.0137006
832.333	0.0137439
832.412	0.0137357
832.490	0.0137268
832.568	0.0137802
832.646	0.0138034
832.724	0.0137337
832.802	0.0136961
832.880	0.0136552
832.958	0.0137418
833.037	0.0137317
833.115	0.0137672
833.193	0.0136912
833.271	0.0135867
833.349	0.0135577
833.427	0.0135081
833.505	0.0133376
833.583	0.0133560
833.662	0.0134744
833.740	0.0133372
833.818	0.0132050
833.896	0.0132260
833.974	0.0132127
834.052	0.0132287
834.130	0.0131403
834.208	0.0131987
834.287	0.0132124
834.365	0.0132104
834.443	0.0131950
834.521	0.0132890
834.599	0.0131856
834.677	0.0133047
834.755	0.0134161
834.833	0.0133600
834.912	0.0135024
834.990	0.0134374
835.068	0.0136201
835.146	0.0134203
835.224	0.0135236
835.302	0.0136127
835.380	0.0135407
835.458	0.0135767
835.537	0.0138897
835.615	0.0135991
835.693	0.0136716
835.771	0.0137469
835.849	0.0136707
835.927	0.0135754
836.005	0.0136690
836.083	0.0137079
836.162	0.0134916
836.240	0.0135205
836.318	0.0136596
836.396	0.0136662
836.474	0.0135591
836.552	0.0135830
836.630	0.0136779
836.708	0.0135863
836.787	0.0136753
836.865	0.0135858
836.943	0.0136140
837.021	0.0136861
837.099	0.0136370
837.177	0.0135632
837.255	0.0133701
837.333	0.0135534
837.412	0.0136323
837.490	0.0135712
837.568	0.0135500
837.646	0.0135365
837.724	0.0135875
837.802	0.0135522
837.880	0.0135577
837.958	0.0134628
838.037	0.0134065
838.115	0.0136353
838.193	0.0135280
838.271	0.0136005
838.349	0.0135606
838.427	0.0134883
838.505	0.0135421
838.583	0.0134975
838.662	0.0134317
838.740	0.0135624
838.818	0.0136176
838.896	0.0134751
838.974	0.0135473
839.052	0.0135102
839.130	0.0135033
839.208	0.0134083
839.287	0.0134807
839.365	0.0136013
839.443	0.0136512
839.521	0.0134748
839.599	0.0134962
839.677	0.0135342
839.755	0.0136328
839.833	0.0135278
839.912	0.0135752
839.990	0.0136034
840.068	0.0133388
840.146	0.0135126
840.224	0.0134595
840.302	0.0135383
840.380	0.0133613
840.458	0.0134634
840.537	0.0135589
840.615	0.0134489
840.693	0.0133564
840.771	0.0133791
840.849	0.0134915
840.927	0.0135638
841.005	0.0134692
841.083	0.0134897
841.162	0.0134669
841.240	0.0134654
841.318	0.0134750
841.396	0.0136691
841.474	0.0134715
841.552	0.0136603
841.630	0.0134809
841.708	0.0135157
841.787	0.0135370
841.865	0.0135706
841.943	0.0135233
842.021	0.0135128
842.099	0.0134518
842.177	0.0134963
842.255	0.0136411
842.333	0.0135497
842.412	0.0134846
842.490	0.0135502
842.568	0.0134811
842.646	0.0134440
842.724	0.0135780
842.802	0.0136433
842.880	0.0135875
842.958	0.0135635
843.037	0.0135229
843.115	0.0136334
843.193	0.0135305
843.271	0.0134837
843.349	0.0136392
843.427	0.0135174
843.505	0.0135911
843.583	0.0135448
843.662	0.0135120
843.740	0.0136446
843.818	0.0136324
843.896	0.0135034
843.974	0.0135353
844.052	0.0136599
844.130	0.0136055
844.208	0.0135635
844.287	0.0134583
844.365	0.0134941
844.443	0.0137350
844.521	0.0136388
844.599	0.0135694
844.677	0.0134819
844.755	0.0135361
844.833	0.0134117
844.912	0.0134687
844.990	0.0134752
845.068	0.0134615
845.146	0.0133060
845.224	0.0135030
845.302	0.0134270
845.380	0.0132493
845.458	0.0132557
845.537	0.0133421
845.615	0.0133314
845.693	0.0134911
845.771	0.0133405
845.849	0.0135056
845.927	0.0133635
846.005	0.0134011
846.083	0.0134307
846.162	0.0135221
846.240	0.0136309
846.318	0.0136984
846.396	0.0135168
846.474	0.0136006
846.552	0.0135709
846.630	0.0136179
846.708	0.0136275
846.787	0.0137204
846.865	0.0135934
846.943	0.0135937
847.021	0.0137104
847.099	0.0136951
847.177	0.0136076
847.255	0.0135526
847.333	0.0136009
847.412	0.0134642
847.490	0.0136559
847.568	0.0136404
847.646	0.0135690
847.724	0.0135966
847.802	0.0135902
847.880	0.0135389
847.958	0.0135692
848.037	0.0136362
848.115	0.0136887
848.193	0.0137846
848.271	0.0136186
848.349	0.0138112
848.427	0.0138363
848.505	0.0137437
848.583	0.0137558
848.662	0.0136227
848.740	0.0134875
848.818	0.0137157
848.896	0.0136727
848.974	0.0135265
849.052	0.0136111
849.130	0.0134993
849.208	0.0136273
849.287	0.0135639
849.365	0.0133595
849.443	0.0135622
849.521	0.0136250
849.599	0.0135024
849.677	0.0135244
849.755	0.0135188
849.833	0.0136115
849.912	0.0135060
849.990	0.0134864
850.068	0.0134257
850.146	0.0135117
850.224	0.0135933
850.302	0.0135011
850.380	0.0135580
850.458	0.0134578
850.537	0.0135686
850.615	0.0134410
850.693	0.0134424
850.771	0.0135774
850.849	0.0134585
850.927	0.0134468
851.005	0.0135069
851.083	0.0132753
851.162	0.0133530
851.240	0.0133553
851.318	0.0134938
851.396	0.0135316
851.474	0.0134973
851.552	0.0134243
851.630	0.0134471
851.708	0.0134243
851.787	0.0135127
851.865	0.0135522
851.943	0.0134015
852.021	0.0136668
852.099	0.0136883
852.177	0.0135294
852.255	0.0136558
852.333	0.0136729
852.412	0.0136322
852.490	0.0134161
852.568	0.0135740
852.646	0.0136017
852.724	0.0135143
852.802	0.0135373
852.880	0.0135632
852.958	0.0135502
853.037	0.0135302
853.115	0.0135687
853.193	0.0134276
853.271	0.0133620
853.349	0.0134364
853.427	0.0134889
853.505	0.0134831
853.583	0.0135018
853.662	0.0135076
853.740	0.0135915
853.818	0.0136242
853.896	0.0137129
853.974	0.0138165
854.052	0.0138169
854.130	0.0137172
854.208	0.0137021
854.287	0.0136703
854.365	0.0138278
854.443	0.0136710
854.521	0.0136748
854.599	0.0135527
854.677	0.0135295
854.755	0.0136268
854.833	0.0135343
854.912	0.0134811
854.990	0.0132876
855.068	0.0134189
855.146	0.0133279
855.224	0.0133672
855.302	0.0132166
855.380	0.0133375
855.458	0.0133682
855.537	0.0133611
855.615	0.0134612
855.693	0.0133459
855.771	0.0135086
855.849	0.0133566
855.927	0.0133485
856.005	0.0135137
856.083	0.0134850
856.162	0.0136460
856.240	0.0135993
856.318	0.0135406
856.396	0.0136732
856.474	0.0136787
856.552	0.0137144
856.630	0.0138364
856.708	0.0137977
856.787	0.0137170
856.865	0.0138153
856.943	0.0136713
857.021	0.0137400
857.099	0.0137623
857.177	0.0138956
857.255	0.0137960
857.333	0.0138673
857.412	0.0137152
857.490	0.0136813
857.568	0.0134792
857.646	0.0134716
857.724	0.0134563
857.802	0.0135362
857.880	0.0132581
857.958	0.0134081
858.037	0.0131989
858.115	0.0132417
858.193	0.0130762
858.271	0.0132543
858.349	0.0132066
858.427	0.0132135
858.505	0.0131183
858.583	0.0130574
858.662	0.0131972
858.740	0.0132584
858.818	0.0134193
858.896	0.0132623
858.974	0.0133593
859.052	0.0135030
859.130	0.0136432
859.208	0.0136123
859.287	0.0136234
859.365	0.0136323
859.443	0.0137227
859.521	0.0137856
859.599	0.0138306
859.677	0.0137486
859.755	0.0137872
859.833	0.0137840
859.912	0.0137455
859.990	0.0137247
860.068	0.0138621
860.146	0.0138003
860.224	0.0137566
860.302	0.0135617
860.380	0.0136586
860.458	0.0134748
860.537	0.0134620
860.615	0.0133951
860.693	0.0133836
860.771	0.0133926
860.849	0.0133337
860.927	0.0133177
861.005	0.0133356
861.083	0.0133861
861.162	0.0133649
861.240	0.0133748
861.318	0.0134949
861.396	0.0134339
861.474	0.0133099
861.552	0.0134958
861.630	0.0134807
861.708	0.0135028
861.787	0.0135679
861.865	0.0134538
861.943	0.0133766
862.021	0.0136331
862.099	0.0135442
862.177	0.0135498
862.255	0.0135776
862.333	0.0134605
862.412	0.0135625
862.490	0.0135059
862.568	0.0135320
862.646	0.0134498
862.724	0.0136050
862.802	0.0134843
862.880	0.0136903
862.958	0.0136333
863.037	0.0135976
863.115	0.0136134
863.193	0.0136057
863.271	0.0135098
863.349	0.0135403
863.427	0.0134934
863.505	0.0135014
863.583	0.0135323
863.662	0.0136844
863.740	0.0133978
863.818	0.0135027
863.896	0.0134312
863.974	0.0134459
864.052	0.0133707
864.130	0.0132536
864.208	0.0133624
864.287	0.0133662
864.365	0.0133475
864.443	0.0133891
864.521	0.0134822
864.599	0.0134850
864.677	0.0133546
864.755	0.0134904
864.833	0.0135443
864.912	0.0135901
864.990	0.0136037
865.068	0.0135960
865.146	0.0134970
865.224	0.0135384
865.302	0.0136365
865.380	0.0135261
865.458	0.0135038
865.537	0.0135267
865.615	0.0136497
865.693	0.0135597
865.771	0.0135432
865.849	0.0135584
865.927	0.0134863
866.005	0.0135822
866.083	0.0136686
866.162	0.0136849
866.240	0.0136765
866.318	0.0138185
866.396	0.0136835
866.474	0.0137818
866.552	0.0138017
866.630	0.0137484
866.708	0.0138609
866.787	0.0137045
866.865	0.0138334
866.943	0.0136158
867.021	0.0136169
867.099	0.0135639
867.177	0.0134711
867.255	0.0134061
867.333	0.0135443
867.412	0.0135323
867.490	0.0134316
867.568	0.0133979
867.646	0.0133177
867.724	0.0133698
867.802	0.0131985
867.880	0.0132156
867.958	0.0131367
868.037	0.0131353
868.115	0.0130856
868.193	0.0131354
868.271	0.0130794
868.349	0.0129939
868.427	0.0132397
868.505	0.0131519
868.583	0.0131953
868.662	0.0132485
868.740	0.0132224
868.818	0.0132323
868.896	0.0131869
868.974	0.0132951
869.052	0.0134119
869.130	0.0133772
869.208	0.0134216
869.287	0.0136568
869.365	0.0139014
869.443	0.0137730
869.521	0.0137653
869.599	0.0140166
869.677	0.0140490
869.755	0.0139289
869.833	0.0141461
869.912	0.0141166
869.990	0.0142557
870.068	0.0142976
870.146	0.0141996
870.224	0.0142053
870.302	0.0142779
870.380	0.0141267
870.458	0.0140384
870.537	0.0138216
870.615	0.0137863
870.693	0.0138101
870.771	0.0136472
870.849	0.0134760
870.927	0.0134333
871.005	0.0133847
871.083	0.0132597
871.162	0.0132948
871.240	0.0132545
871.318	0.0133027
871.396	0.0132222
871.474	0.0131502
871.552	0.0131992
871.630	0.0131498
871.708	0.0129951
871.787	0.0131901
871.865	0.0131998
871.943	0.0131962
872.021	0.0132176
872.099	0.0133353
872.177	0.0131968
872.255	0.0132584
872.333	0.0133215
872.412	0.0132769
872.490	0.0133520
872.568	0.0134737
872.646	0.0134683
872.724	0.0134548
872.802	0.0135143
872.880	0.0135074
872.958	0.0135540
873.037	0.0136159
873.115	0.0133753
873.193	0.0136591
873.271	0.0137669
873.349	0.0136258
873.427	0.0135269
873.505	0.0134783
873.583	0.0135171
873.662	0.0135382
873.740	0.0135703
873.818	0.0135284
873.896	0.0135834
873.974	0.0135812
874.052	0.0135298
874.130	0.0136741
874.208	0.0138357
874.287	0.0137471
874.365	0.0136770
874.443	0.0137923
874.521	0.0138782
874.599	0.0137986
874.677	0.0136839
874.755	0.0136343
874.833	0.0137283
874.912	0.0138061
874.990	0.0138963
875.068	0.0136650
875.146	0.0137289
875.224	0.0136088
875.302	0.0136714
875.380	0.0137901
875.458	0.0138063
875.537	0.0137291
875.615	0.0136604
875.693	0.0137074
875.771	0.0138342
875.849	0.0135815
875.927	0.0136326
876.005	0.0137479
876.083	0.0136575
876.162	0.0135579
876.240	0.0136867
876.318	0.0137399
876.396	0.0135281
876.474	0.0135392
876.552	0.0134454
876.630	0.0133361
876.708	0.0134872
876.787	0.0133289
876.865	0.0133591
876.943	0.0133956
877.021	0.0133539
877.099	0.0132442
877.177	0.0132790
877.255	0.0132417
877.333	0.0133469
877.412	0.0133602
877.490	0.0135135
877.568	0.0134888
877.646	0.0134711
877.724	0.0136308
877.802	0.0135792
877.880	0.0135860
877.958	0.0136107
878.037	0.0135287
878.115	0.0136887
878.193	0.0138412
878.271	0.0136819
878.349	0.0137453
878.427	0.0136847
878.505	0.0137087
878.583	0.0136852
878.662	0.0135860
878.740	0.0136777
878.818	0.0134862
878.896	0.0135406
878.974	0.0135951
879.052	0.0135823
879.130	0.0134367
879.208	0.0134708
879.287	0.0134057
879.365	0.0134367
879.443	0.0134568
879.521	0.0134690
879.599	0.0134527
879.677	0.0134669
879.755	0.0134500
879.833	0.0134175
879.912	0.0133603
879.990	0.0134499
880.068	0.0133795
880.146	0.0136323
880.224	0.0135908
880.302	0.0135271
880.380	0.0135332
880.458	0.0134783
880.537	0.0134166
880.615	0.0135212
880.693	0.0136019
880.771	0.0134615
880.849	0.0135420
880.927	0.0135514
881.005	0.0133054
881.083	0.0133715
881.162	0.0134482
881.240	0.0132927
881.318	0.0132989
881.396	0.0133822
881.474	0.0133887
881.552	0.0133100
881.630	0.0134109
881.708	0.0134621
881.787	0.0134227
881.865	0.0134341
881.943	0.0133866
882.021	0.0133102
882.099	0.0134713
882.177	0.0134637
882.255	0.0133678
882.333	0.0133759
882.412	0.0133948
882.490	0.0133863
882.568	0.0133819
882.646	0.0133820
882.724	0.0134862
882.802	0.0137157
882.880	0.0135487
882.958	0.0135958
883.037	0.0135587
883.115	0.0135417
883.193	0.0135343
883.271	0.0134999
883.349	0.0136302
883.427	0.0135238
883.505	0.0135136
883.583	0.0135345
883.662	0.0134656
883.740	0.0134274
883.818	0.0134879
883.896	0.0132877
883.974	0.0133390
884.052	0.0132500
884.130	0.0132403
884.208	0.0132107
884.287	0.0132088
884.365	0.0130264
884.443	0.0130817
884.521	0.0131181
884.599	0.0130628
884.677	0.0131688
884.755	0.0131741
884.833	0.0132674
884.912	0.0134232
884.990	0.0134267
885.068	0.0134476
885.146	0.0135716
885.224	0.0135966
885.302	0.0135848
885.380	0.0136434
885.458	0.0135702
885.537	0.0136739
885.615	0.0136076
885.693	0.0135072
885.771	0.0136176
885.849	0.0136301
885.927	0.0135783
886.005	0.0135568
886.083	0.0135331
886.162	0.0135715
886.240	0.0135155
886.318	0.0135157
886.396	0.0136124
886.474	0.0134688
886.552	0.0136328
886.630	0.0137764
886.708	0.0134747
886.787	0.0135847
886.865	0.0135160
886.943	0.0134870
887.021	0.0134728
887.099	0.0134313
887.177	0.0133515
887.255	0.0133868
887.333	0.0131300
887.412	0.0131511
887.490	0.0131721
887.568	0.0133188
887.646	0.0131560
887.724	0.0131017
887.802	0.0131788
887.880	0.0132001
887.958	0.0131821
888.037	0.0132416
888.115	0.0132898
888.193	0.0132632
888.271	0.0133652
888.349	0.0134850
888.427	0.0134463
888.505	0.0134171
888.583	0.0133990
888.662	0.0135378
888.740	0.0135708
888.818	0.0134805
888.896	0.0133723
888.974	0.0133805
889.052	0.0134711
889.130	0.0134122
889.208	0.0133777
889.287	0.0134656
889.365	0.0135493
889.443	0.0133286
889.521	0.0135011
889.599	0.0134119
889.677	0.0133377
889.755	0.0135433
889.833	0.0135342
889.912	0.0135347
889.990	0.0133161
890.068	0.0134075
890.146	0.0135018
890.224	0.0134908
890.302	0.0136457
890.380	0.0137187
890.458	0.0135715
890.537	0.0135574
890.615	0.0136011
890.693	0.0136487
890.771	0.0136287
890.849	0.0136844
890.927	0.0136950
891.005	0.0136395
891.083	0.0136575
891.162	0.0136714
891.240	0.0137464
891.318	0.0137932
891.396	0.0137526
891.474	0.0138471
891.552	0.0138562
891.630	0.0138761
891.708	0.0136391
891.787	0.0137202
891.865	0.0136701
891.943	0.0135686
892.021	0.0135090
892.099	0.0133978
892.177	0.0133575
892.255	0.0134495
892.333	0.0132581
892.412	0.0131250
892.490	0.0133056
892.568	0.0131607
892.646	0.0129206
892.724	0.0129801
892.802	0.0129255
892.880	0.0130727
892.958	0.0130412
893.037	0.0130903
893.115	0.0130020
893.193	0.0129941
893.271	0.0131516
893.349	0.0130860
893.427	0.0132778
893.505	0.0132806
893.583	0.0134926
893.662	0.0135567
893.740	0.0135992
893.818	0.0136310
893.896	0.0137029
893.974	0.0138774
894.052	0.0137297
894.130	0.0138892
894.208	0.0139783
894.287	0.0139128
894.365	0.0138649
894.443	0.0137354
894.521	0.0139813
894.599	0.0137916
894.677	0.0136234
894.755	0.0136631
894.833	0.0137324
894.912	0.0138378
894.990	0.0135955
895.068	0.0135671
895.146	0.0135172
895.224	0.0134927
895.302	0.0135808
895.380	0.0135256
895.458	0.0135895
895.537	0.0134898
895.615	0.0134418
895.693	0.0136154
895.771	0.0136096
895.849	0.0135734
895.927	0.0135975
896.005	0.0136343
896.083	0.0137326
896.162	0.0135123
896.240	0.0135206
896.318	0.0135506
896.396	0.0134370
896.474	0.0134375
896.552	0.0135440
896.630	0.0135287
896.708	0.0135038
896.787	0.0137275
896.865	0.0135881
896.943	0.0135064
897.021	0.0137263
897.099	0.0136913
897.177	0.0135838
897.255	0.0136350
897.333	0.0136481
897.412	0.0136902
897.490	0.0136333
897.568	0.0136240
897.646	0.0135632
897.724	0.0135485
897.802	0.0134198
897.880	0.0133921
897.958	0.0134135
898.037	0.0133073
898.115	0.0131772
898.193	0.0131970
898.271	0.0130603
898.349	0.0131660
898.427	0.0132178
898.505	0.0131654
898.583	0.0131242
898.662	0.0132724
898.740	0.0131985
898.818	0.0132349
898.896	0.0133319
898.974	0.0132803
899.052	0.0134120
899.130	0.0133142
899.208	0.0131912
899.287	0.0134451
899.365	0.0133886
899.443	0.0133337
899.521	0.0134321
899.599	0.0133770
899.677	0.0133581
899.755	0.0132902
899.833	0.0133805
899.912	0.0133278
899.990	0.0135378
900.068	0.0134774
900.146	0.0134967
900.224	0.0134970
900.302	0.0135200
900.380	0.0134945
900.458	0.0134123
900.537	0.0136324
900.615	0.0138049
900.693	0.0138264
900.771	0.0137725
900.849	0.0136694
900.927	0.0138614
901.005	0.0140073
901.083	0.0140237
901.162	0.0137740
901.240	0.0138572
901.318	0.0139268
901.396	0.0138233
901.474	0.0137689
901.552	0.0137981
901.630	0.0136827
901.708	0.0135600
901.787	0.0136193
901.865	0.0136575
901.943	0.0136915
902.021	0.0134119
902.099	0.0133686
902.177	0.0133266
902.255	0.0133947
902.333	0.0133176
902.412	0.0133572
902.490	0.0132801
902.568	0.0132017
902.646	0.0132190
902.724	0.0131535
902.802	0.0131445
902.880	0.0132024
902.958	0.0132030
903.037	0.0131658
903.115	0.0132105
903.193	0.0132611
903.271	0.0132108
903.349	0.0133092
903.427	0.0131886
903.505	0.0134335
903.583	0.0134695
903.662	0.0133694
903.740	0.0133579
903.818	0.0133266
903.896	0.0134408
903.974	0.0135468
904.052	0.0135245
904.130	0.0136068
904.208	0.0134868
904.287	0.0134926
904.365	0.0134919
904.443	0.0135436
904.521	0.0136009
904.599	0.0134815
904.677	0.0136297
904.755	0.0137806
904.833	0.0135224
904.912	0.0136231
904.990	0.0136774
905.068	0.0136570
905.146	0.0134818
905.224	0.0135207
905.302	0.0135033
905.380	0.0135538
905.458	0.0134992
905.537	0.0134717
905.615	0.0133054
905.693	0.0134087
905.771	0.0135835
905.849	0.0134952
905.927	0.0133942
906.005	0.0134605
906.083	0.0134833
906.162	0.0135059
906.240	0.0135168
906.318	0.0135093
906.396	0.0136009
906.474	0.0134183
906.552	0.0134136
906.630	0.0135778
906.708	0.0136462
906.787	0.0136835
906.865	0.0134996
906.943	0.0136337
907.021	0.0137471
907.099	0.0137234
907.177	0.0137759
907.255	0.0136481
907.333	0.0136400
907.412	0.0135885
907.490	0.0136717
907.568	0.0136662
907.646	0.0136473
907.724	0.0136610
907.802	0.0137634
907.880	0.0136574
907.958	0.0136492
908.037	0.0134982
908.115	0.0136101
908.193	0.0136888
908.271	0.0134689
908.349	0.0135667
908.427	0.0136216
908.505	0.0136436
908.583	0.0135239
908.662	0.0135402
908.740	0.0135917
908.818	0.0134627
908.896	0.0132813
908.974	0.0132537
909.052	0.0132726
909.130	0.0134695
909.208	0.0133244
909.287	0.0134085
909.365	0.0133014
909.443	0.0132780
909.521	0.0133749
909.599	0.0133152
909.677	0.0133972
909.755	0.0134967
909.833	0.0134692
909.912	0.0134778
909.990	0.0134317
910.068	0.0134451
910.146	0.0135110
910.224	0.0135507
910.302	0.0135167
910.380	0.0134489
910.458	0.0134129
910.537	0.0135088
910.615	0.0135401
910.693	0.0134397
910.771	0.0136552
910.849	0.0134954
910.927	0.0134781
911.005	0.0135093
911.083	0.0134359
911.162	0.0134721
911.240	0.0134545
911.318	0.0135793
911.396	0.0134863
911.474	0.0134264
911.552	0.0134008
911.630	0.0134829
911.708	0.0134188
911.787	0.0135059
911.865	0.0135236
911.943	0.0134825
912.021	0.0135856
912.099	0.0135947
912.177	0.0136047
912.255	0.0135490
912.333	0.0136164
912.412	0.0137312
912.490	0.0137074
912.568	0.0137814
912.646	0.0138158
912.724	0.0138045
912.802	0.0138008
912.880	0.0138692
912.958	0.0138233
913.037	0.0137631
913.115	0.0137209
913.193	0.0139175
913.271	0.0136065
913.349	0.0136153
913.427	0.0136584
913.505	0.0136152
913.583	0.0135994
913.662	0.0135045
913.740	0.0134873
913.818	0.0133235
913.896	0.0134142
913.974	0.0134495
914.052	0.0132838
914.130	0.0133430
914.208	0.0133776
914.287	0.0132642
914.365	0.0132415
914.443	0.0133325
914.521	0.0132911
914.599	0.0131535
914.677	0.0131536
914.755	0.0133208
914.833	0.0132726
914.912	0.0131889
914.990	0.0132523
915.068	0.0133741
915.146	0.0133504
915.224	0.0133299
915.302	0.0134200
915.380	0.0133270
915.458	0.0135031
915.537	0.0134618
915.615	0.0134945
915.693	0.0134644
915.771	0.0136716
915.849	0.0136238
915.927	0.0136752
916.005	0.0135931
916.083	0.0136395
916.162	0.0135118
916.240	0.0135732
916.318	0.0135406
916.396	0.0135616
916.474	0.0135500
916.552	0.0136641
916.630	0.0134315
916.708	0.0135987
916.787	0.0135660
916.865	0.0136715
916.943	0.0136855
917.021	0.0135230
917.099	0.0136126
917.177	0.0136864
917.255	0.0137057
917.333	0.0134101
917.412	0.0136591
917.490	0.0136858
917.568	0.0134924
917.646	0.0134759
917.724	0.0135081
917.802	0.0136504
917.880	0.0135446
917.958	0.0134245
918.037	0.0135493
918.115	0.0135555
918.193	0.0135629
918.271	0.0136015
918.349	0.0134921
918.427	0.0135018
918.505	0.0135162
918.583	0.0134410
918.662	0.0134760
918.740	0.0134508
918.818	0.0134106
918.896	0.0135072
918.974	0.0136303
919.052	0.0134623
919.130	0.0133766
919.208	0.0134660
919.287	0.0134165
919.365	0.0134388
919.443	0.0133925
919.521	0.0133301
919.599	0.0134477
919.677	0.0134366
919.755	0.0133179
919.833	0.0134206
919.912	0.0134581
919.990	0.0131979
920.068	0.0133656
920.146	0.0133081
920.224	0.0133981
920.302	0.0132837
920.380	0.0134010
920.458	0.0132902
920.537	0.0133918
920.615	0.0133412
920.693	0.0133540
920.771	0.0133920
920.849	0.0134824
920.927	0.0134829
921.005	0.0133414
921.083	0.0132859
921.162	0.0133691
921.240	0.0134263
921.318	0.0134221
921.396	0.0134262
921.474	0.0132875
921.552	0.0133007
921.630	0.0134212
921.708	0.0134016
921.787	0.0132809
921.865	0.0133763
921.943	0.0134110
922.021	0.0134681
922.099	0.0133805
922.177	0.0135378
922.255	0.0135369
922.333	0.0134380
922.412	0.0135506
922.490	0.0136218
922.568	0.0135966
922.646	0.0137930
922.724	0.0137888
922.802	0.0136125
922.880	0.0136578
922.958	0.0136811
923.037	0.0138582
923.115	0.0136786
923.193	0.0137156
923.271	0.0136427
923.349	0.0137842
923.427	0.0137272
923.505	0.0136845
923.583	0.0135805
923.662	0.0136359
923.740	0.0136902
923.818	0.0135419
923.896	0.0134036
923.974	0.0135185
924.052	0.0135866
924.130	0.0135236
924.208	0.0136159
924.287	0.0135538
924.365	0.0134755
924.443	0.0135910
924.521	0.0135693
924.599	0.0135764
924.677	0.0133759
924.755	0.0135141
924.833	0.0134082
924.912	0.0134811
924.990	0.0134760
925.068	0.0135387
925.146	0.0134470
925.224	0.0134351
925.302	0.0134760
925.380	0.0136047
925.458	0.0135168
925.537	0.0134471
925.615	0.0135888
925.693	0.0135307
925.771	0.0135406
925.849	0.0135252
925.927	0.0134164
926.005	0.0134850
926.083	0.0134716
926.162	0.0135281
926.240	0.0134980
926.318	0.0134618
926.396	0.0134380
926.474	0.0135036
926.552	0.0133462
926.630	0.0134820
926.708	0.0133695
926.787	0.0135654
926.865	0.0134696
926.943	0.0134342
927.021	0.0134915
927.099	0.0135265
927.177	0.0135773
927.255	0.0135397
927.333	0.0136168
927.412	0.0135710
927.490	0.0135884
927.568	0.0135966
927.646	0.0135200
927.724	0.0135947
927.802	0.0136983
927.880	0.0136594
927.958	0.0135982
928.037	0.0137156
928.115	0.0138260
928.193	0.0135858
928.271	0.0138754
928.349	0.0138156
928.427	0.0136848
928.505	0.0136768
928.583	0.0137558
928.662	0.0135743
928.740	0.0136203
928.818	0.0137824
928.896	0.0136832
928.974	0.0136928
929.052	0.0135130
929.130	0.0135445
929.208	0.0136227
929.287	0.0137659
929.365	0.0136610
929.443	0.0136877
929.521	0.0136735
929.599	0.0137357
929.677	0.0136553
929.755	0.0135609
929.833	0.0135257
929.912	0.0136725
929.990	0.0135872
930.068	0.0134978
930.146	0.0137541
930.224	0.0135448
930.302	0.0134473
930.380	0.0136215
930.458	0.0135703
930.537	0.0135538
930.615	0.0134317
930.693	0.0134586
930.771	0.0134598
930.849	0.0134039
930.927	0.0133893
931.005	0.0135349
931.083	0.0133485
931.162	0.0134349
931.240	0.0134686
931.318	0.0133665
931.396	0.0133860
931.474	0.0133230
931.552	0.0133914
931.630	0.0134770
931.708	0.0133547
931.787	0.0133687
931.865	0.0133012
931.943	0.0133450
932.021	0.0134083
932.099	0.0133593
932.177	0.0133858
932.255	0.0134248
932.333	0.0134583
932.412	0.0134946
932.490	0.0134384
932.568	0.0136721
932.646	0.0134206
932.724	0.0135752
932.802	0.0136154
932.880	0.0136521
932.958	0.0137553
933.037	0.0137488
933.115	0.0134828
933.193	0.0135854
933.271	0.0136164
933.349	0.0137135
933.427	0.0136180
933.505	0.0136692
933.583	0.0136508
933.662	0.0135812
933.740	0.0136881
933.818	0.0136688
933.896	0.0135677
933.974	0.0135540
934.052	0.0136742
934.130	0.0136368
934.208	0.0135798
934.287	0.0137264
934.365	0.0136292
934.443	0.0136343
934.521	0.0134727
934.599	0.0135033
934.677	0.0136413
934.755	0.0135526
934.833	0.0136149
934.912	0.0136569
934.990	0.0135971
935.068	0.0135252
935.146	0.0134081
935.224	0.0134852
935.302	0.0134172
935.380	0.0134864
935.458	0.0135987
935.537	0.0135991
935.615	0.0134811
935.693	0.0135806
935.771	0.0135663
935.849	0.0135844
935.927	0.0135965
936.005	0.0136203
936.083	0.0136736
936.162	0.0137451
936.240	0.0136356
936.318	0.0137363
936.396	0.0136790
936.474	0.0136281
936.552	0.0135096
936.630	0.0135780
936.708	0.0136168
936.787	0.0135876
936.865	0.0135374
936.943	0.0134882
937.021	0.0135683
937.099	0.0133553
937.177	0.0133492
937.255	0.0134610
937.333	0.0135550
937.412	0.0134539
937.490	0.0134216
937.568	0.0134263
937.646	0.0136136
937.724	0.0134986
937.802	0.0134102
937.880	0.0134455
937.958	0.0133886
938.037	0.0134800
938.115	0.0136605
938.193	0.0134768
938.271	0.0134968
938.349	0.0134624
938.427	0.0135485
938.505	0.0134913
938.583	0.0136630
938.662	0.0135136
938.740	0.0136054
938.818	0.0135205
938.896	0.0137201
938.974	0.0135198
939.052	0.0135886
939.130	0.0135159
939.208	0.0135469
939.287	0.0134746
939.365	0.0135273
939.443	0.0135228
939.521	0.0133747
939.599	0.0134602
939.677	0.0134620
939.755	0.0134260
939.833	0.0134167
939.912	0.0133759
939.990	0.0135010
940.068	0.0135017
940.146	0.0133710
940.224	0.0133754
940.302	0.0133443
940.380	0.0134147
940.458	0.0134960
940.537	0.0134521
940.615	0.0133122
940.693	0.0135223
940.771	0.0135588
940.849	0.0134341
940.927	0.0134534
941.005	0.0135002
941.083	0.0135282
941.162	0.0135496
941.240	0.0135827
941.318	0.0135543
941.396	0.0136044
941.474	0.0137196
941.552	0.0136625
941.630	0.0137590
941.708	0.0136496
941.787	0.0136559
941.865	0.0137066
941.943	0.0135869
942.021	0.0137804
942.099	0.0136916
942.177	0.0137108
942.255	0.0136509
942.333	0.0137076
942.412	0.0136528
942.490	0.0135970
942.568	0.0136280
942.646	0.0135297
942.724	0.0135734
942.802	0.0134697
942.880	0.0132866
942.958	0.0135395
943.037	0.0135420
943.115	0.0135294
943.193	0.0134241
943.271	0.0133951
943.349	0.0134994
943.427	0.0134164
943.505	0.0133871
943.583	0.0135301
943.662	0.0134470
943.740	0.0133808
943.818	0.0134904
943.896	0.0133573
943.974	0.0134264
944.052	0.0134897
944.130	0.0134082
944.208	0.0134189
944.287	0.0134959
944.365	0.0135756
944.443	0.0135336
944.521	0.0135941
944.599	0.0135159
944.677	0.0135368
944.755	0.0135820
944.833	0.0135783
944.912	0.0136507
944.990	0.0137074
945.068	0.0136491
945.146	0.0135914
945.224	0.0134471
945.302	0.0135505
945.380	0.0135273
945.458	0.0134000
945.537	0.0134981
945.615	0.0134886
945.693	0.0134162
945.771	0.0132774
945.849	0.0132066
945.927	0.0133245
946.005	0.0133395
946.083	0.0133221
946.162	0.0132786
946.240	0.0133259
946.318	0.0133437
946.396	0.0134303
946.474	0.0134253
946.552	0.0133154
946.630	0.0133645
946.708	0.0133471
946.787	0.0134840
946.865	0.0134866
946.943	0.0135806
947.021	0.0136782
947.099	0.0135939
947.177	0.0135686
947.255	0.0136665
947.333	0.0136168
947.412	0.0135889
947.490	0.0135796
947.568	0.0137541
947.646	0.0135880
947.724	0.0135628
947.802	0.0135512
947.880	0.0137649
947.958	0.0136678
948.037	0.0137054
948.115	0.0136697
948.193	0.0138312
948.271	0.0138448
948.349	0.0138737
948.427	0.0139097
948.505	0.0138618
948.583	0.0136682
948.662	0.0137777
948.740	0.0136578
948.818	0.0136254
948.896	0.0137151
948.974	0.0136070
949.052	0.0137132
949.130	0.0136057
949.208	0.0135217
949.287	0.0135914
949.365	0.0136511
949.443	0.0136004
949.521	0.0134897
949.599	0.0136893
949.677	0.0136095
949.755	0.0135685
949.833	0.0135911
949.912	0.0136216
949.990	0.0136342
950.068	0.0136637
950.146	0.0135962
950.224	0.0135366
950.302	0.0134772
950.380	0.0136863
950.458	0.0136534
950.537	0.0135381
950.615	0.0134465
950.693	0.0133950
950.771	0.0134297
950.849	0.0134376
950.927	0.0135122
951.005	0.0135192
951.083	0.0133459
951.162	0.0134650
951.240	0.0134245
951.318	0.0133661
951.396	0.0134786
951.474	0.0135355
951.552	0.0134127
951.630	0.0134060
951.708	0.0134351
951.787	0.0133362
951.865	0.0133780
951.943	0.0134604
952.021	0.0135030
952.099	0.0132979
952.177	0.0134529
952.255	0.0134609
952.333	0.0134050
952.412	0.0135638
952.490	0.0135380
952.568	0.0136145
952.646	0.0135335
952.724	0.0136890
952.802	0.0137426
952.880	0.0136147
952.958	0.0136747
953.037	0.0136564
953.115	0.0136708
953.193	0.0136411
953.271	0.0136087
953.349	0.0137478
953.427	0.0135956
953.505	0.0137316
953.583	0.0137882
953.662	0.0137712
953.740	0.0136115
953.818	0.0135853
953.896	0.0138084
953.974	0.0136710
954.052	0.0136596
954.130	0.0135608
954.208	0.0136201
954.287	0.0136794
954.365	0.0136937
954.443	0.0134888
954.521	0.0134042
954.599	0.0133908
954.677	0.0135828
954.755	0.0134548
954.833	0.0133757
954.912	0.0135178
954.990	0.0135297
955.068	0.0135089
955.146	0.0134804
955.224	0.0135237
955.302	0.0135940
955.380	0.0134572
955.458	0.0136266
955.537	0.0135691
955.615	0.0134602
955.693	0.0135233
955.771	0.0135724
955.849	0.0135503
955.927	0.0134103
956.005	0.0133862
956.083	0.0133698
956.162	0.0134590
956.240	0.0133698
956.318	0.0135476
956.396	0.0135387
956.474	0.0134765
956.552	0.0134579
956.630	0.0134137
956.708	0.0134700
956.787	0.0135928
956.865	0.0135703
956.943	0.0135899
957.021	0.0135550
957.099	0.0135722
957.177	0.0135598
957.255	0.0136019
957.333	0.0136554
957.412	0.0137012
957.490	0.0136794
957.568	0.0136963
957.646	0.0136244
957.724	0.0137029
957.802	0.0137283
957.880	0.0137970
957.958	0.0137048
958.037	0.0138123
958.115	0.0136907
958.193	0.0137239
958.271	0.0137069
958.349	0.0136752
958.427	0.0136600
958.505	0.0138528
958.583	0.0136737
958.662	0.0135184
958.740	0.0136461
958.818	0.0135144
958.896	0.0134972
958.974	0.0135557
959.052	0.0135281
959.130	0.0134579
959.208	0.0134869
959.287	0.0134312
959.365	0.0133728
959.443	0.0133951
959.521	0.0134304
959.599	0.0133560
959.677	0.0134702
959.755	0.0133668
959.833	0.0134389
959.912	0.0134702
959.990	0.0135020
960.068	0.0134584
960.146	0.0134827
960.224	0.0135609
960.302	0.0134371
960.380	0.0136231
960.458	0.0136993
960.537	0.0136325
960.615	0.0135168
960.693	0.0136265
960.771	0.0135948
960.849	0.0133693
960.927	0.0135425
961.005	0.0135075
961.083	0.0134242
961.162	0.0134853
961.240	0.0134887
961.318	0.0133054
961.396	0.0133002
961.474	0.0133638
961.552	0.0132292
961.630	0.0131847
961.708	0.0133492
961.787	0.0132839
961.865	0.0132874
961.943	0.0133117
962.021	0.0133631
962.099	0.0133576
962.177	0.0133118
962.255	0.0133353
962.333	0.0134343
962.412	0.0132367
962.490	0.0134609
962.568	0.0133175
962.646	0.0134167
962.724	0.0136262
962.802	0.0136045
962.880	0.0136954
962.958	0.0136760
963.037	0.0135839
963.115	0.0137351
963.193	0.0139040
963.271	0.0136086
963.349	0.0139058
963.427	0.0138322
963.505	0.0137656
963.583	0.0138394
963.662	0.0137298
963.740	0.0136993
963.818	0.0136790
963.896	0.0136809
963.974	0.0136640
964.052	0.0135662
964.130	0.0135061
964.208	0.0134832
964.287	0.0133699
964.365	0.0132007
964.443	0.0132027
964.521	0.0133550
964.599	0.0131742
964.677	0.0130163
964.755	0.0130766
964.833	0.0133206
964.912	0.0132698
964.990	0.0130191
965.068	0.0131747
965.146	0.0132304
965.224	0.0132410
965.302	0.0131624
965.380	0.0131725
965.458	0.0131792
965.537	0.0133543
965.615	0.0134361
965.693	0.0134164
965.771	0.0134458
965.849	0.0136221
965.927	0.0135434
966.005	0.0135400
966.083	0.0135265
966.162	0.0135653
966.240	0.0137557
966.318	0.0135761
966.396	0.0136415
966.474	0.0137989
966.552	0.0135359
966.630	0.0137054
966.708	0.0137421
966.787	0.0136349
966.865	0.0135656
966.943	0.0134023
967.021	0.0135977
967.099	0.0135889
967.177	0.0133631
967.255	0.0134205
967.333	0.0133968
967.412	0.0132064
967.490	0.0133460
967.568	0.0132491
967.646	0.0133464
967.724	0.0131921
967.802	0.0133204
967.880	0.0133080
967.958	0.0133119
968.037	0.0133293
968.115	0.0132217
968.193	0.0131911
968.271	0.0131435
968.349	0.0132992
968.427	0.0133221
968.505	0.0134306
968.583	0.0134617
968.662	0.0132877
968.740	0.0133166
968.818	0.0133820
968.896	0.0135351
968.974	0.0135335
969.052	0.0133505
969.130	0.0134772
969.208	0.0134299
969.287	0.0134834
969.365	0.0135564
969.443	0.0136003
969.521	0.0135793
969.599	0.0137591
969.677	0.0135726
969.755	0.0135533
969.833	0.0136291
969.912	0.0136957
