05/08/2022	19:56:11	Ver.	4.1	UNKNOWN
Optical Delay	649.989667	Delta X		0.078125	Sweeps	1	Scan Rate	0/0
Coordinates	Axis 1	NaN	Axis 2	NaN	Axis 3	NaN	Axis 4	NaN	Axis 5	NaN	Axis 6	0.000000
TX Power	0.000000	RX Power	0.000000

649.990	0.0135649
650.068	0.0134176
650.146	0.0135367
650.224	0.0135164
650.302	0.0134799
650.380	0.0135773
650.458	0.0136192
650.537	0.0135607
650.615	0.0134691
650.693	0.0135125
650.771	0.0135818
650.849	0.0136333
650.927	0.0136179
651.005	0.0133551
651.083	0.0134590
651.162	0.0135582
651.240	0.0136924
651.318	0.0134846
651.396	0.0135107
651.474	0.0136250
651.552	0.0136221
651.630	0.0136160
651.708	0.0134880
651.787	0.0135293
651.865	0.0135526
651.943	0.0135358
652.021	0.0136159
652.099	0.0136317
652.177	0.0135280
652.255	0.0136620
652.333	0.0135457
652.412	0.0135148
652.490	0.0135631
652.568	0.0134706
652.646	0.0133826
652.724	0.0135101
652.802	0.0136054
652.880	0.0135883
652.958	0.0134727
653.037	0.0134541
653.115	0.0134680
653.193	0.0135227
653.271	0.0136173
653.349	0.0136246
653.427	0.0137263
653.505	0.0137210
653.583	0.0136137
653.662	0.0136867
653.740	0.0135973
653.818	0.0135121
653.896	0.0136776
653.974	0.0135017
654.052	0.0134506
654.130	0.0134028
654.208	0.0135674
654.287	0.0135039
654.365	0.0135399
654.443	0.0135702
654.521	0.0133553
654.599	0.0136163
654.677	0.0136915
654.755	0.0136745
654.833	0.0136250
654.912	0.0136756
654.990	0.0136779
655.068	0.0136906
655.146	0.0137885
655.224	0.0136935
655.302	0.0137267
655.380	0.0137975
655.458	0.0136749
655.537	0.0137664
655.615	0.0136366
655.693	0.0135265
655.771	0.0136780
655.849	0.0137209
655.927	0.0136105
656.005	0.0136079
656.083	0.0135192
656.162	0.0135069
656.240	0.0135744
656.318	0.0133905
656.396	0.0134792
656.474	0.0134319
656.552	0.0134064
656.630	0.0133932
656.708	0.0133851
656.787	0.0135009
656.865	0.0133887
656.943	0.0133292
657.021	0.0134676
657.099	0.0132591
657.177	0.0132497
657.255	0.0133003
657.333	0.0135349
657.412	0.0135510
657.490	0.0137197
657.568	0.0136074
657.646	0.0136588
657.724	0.0138313
657.802	0.0138927
657.880	0.0140715
657.958	0.0142015
658.037	0.0140936
658.115	0.0140960
658.193	0.0141328
658.271	0.0141474
658.349	0.0140755
658.427	0.0140299
658.505	0.0138360
658.583	0.0139821
658.662	0.0138719
658.740	0.0137568
658.818	0.0136449
658.896	0.0134566
658.974	0.0132703
659.052	0.0131985
659.130	0.0129851
659.208	0.0130244
659.287	0.0128842
659.365	0.0127682
659.443	0.0127670
659.521	0.0126945
659.599	0.0126466
659.677	0.0125507
659.755	0.0125984
659.833	0.0127209
659.912	0.0127802
659.990	0.0130917
660.068	0.0131531
660.146	0.0133994
660.224	0.0136568
660.302	0.0139485
660.380	0.0142217
660.458	0.0143937
660.537	0.0146979
660.615	0.0150865
660.693	0.0149345
660.771	0.0151189
660.849	0.0151788
660.927	0.0151492
661.005	0.0150584
661.083	0.0150249
661.162	0.0148730
661.240	0.0146127
661.318	0.0143190
661.396	0.0141962
661.474	0.0140189
661.552	0.0138010
661.630	0.0135522
661.708	0.0133121
661.787	0.0131171
661.865	0.0127886
661.943	0.0125823
662.021	0.0123694
662.099	0.0120717
662.177	0.0119707
662.255	0.0116446
662.333	0.0114099
662.412	0.0112555
662.490	0.0111758
662.568	0.0111937
662.646	0.0113192
662.724	0.0115082
662.802	0.0117184
662.880	0.0121262
662.958	0.0124280
663.037	0.0128848
663.115	0.0133521
663.193	0.0137631
663.271	0.0143581
663.349	0.0148818
663.427	0.0152779
663.505	0.0156479
663.583	0.0157664
663.662	0.0161914
663.740	0.0163594
663.818	0.0165749
663.896	0.0165620
663.974	0.0167467
664.052	0.0166849
664.130	0.0166051
664.208	0.0163997
664.287	0.0159977
664.365	0.0158260
664.443	0.0154485
664.521	0.0148115
664.599	0.0141650
664.677	0.0135796
664.755	0.0130932
664.833	0.0122314
664.912	0.0117091
664.990	0.0110294
665.068	0.0104781
665.146	0.0101460
665.224	0.00978760
665.302	0.00953133
665.380	0.00951927
665.458	0.00982628
665.537	0.00996956
665.615	0.0102647
665.693	0.0105599
665.771	0.0111811
665.849	0.0115955
665.927	0.0121814
666.005	0.0126898
666.083	0.0132438
666.162	0.0138444
666.240	0.0141560
666.318	0.0147131
666.396	0.0149973
666.474	0.0153728
666.552	0.0157447
666.630	0.0160170
666.708	0.0162578
666.787	0.0162024
666.865	0.0163541
666.943	0.0163387
667.021	0.0160808
667.099	0.0159392
667.177	0.0155711
667.255	0.0153761
667.333	0.0149388
667.412	0.0145673
667.490	0.0143333
667.568	0.0139961
667.646	0.0136967
667.724	0.0133440
667.802	0.0133325
667.880	0.0132453
667.958	0.0131139
668.037	0.0128872
668.115	0.0126578
668.193	0.0125928
668.271	0.0124599
668.349	0.0125707
668.427	0.0125037
668.505	0.0122499
668.583	0.0122604
668.662	0.0121823
668.740	0.0120314
668.818	0.0119496
668.896	0.0119814
668.974	0.0122878
669.052	0.0123350
669.130	0.0124411
669.208	0.0126740
669.287	0.0128254
669.365	0.0130458
669.443	0.0132182
669.521	0.0135771
669.599	0.0136687
669.677	0.0137194
669.755	0.0137093
669.833	0.0138624
669.912	0.0139186
669.990	0.0138013
670.068	0.0137934
670.146	0.0138145
670.224	0.0138665
670.302	0.0138577
670.380	0.0138641
670.458	0.0139310
670.537	0.0140129
670.615	0.0139359
670.693	0.0140165
670.771	0.0139696
670.849	0.0139484
670.927	0.0138483
671.005	0.0137405
671.083	0.0135185
671.162	0.0133862
671.240	0.0132828
671.318	0.0132148
671.396	0.0131601
671.474	0.0131946
671.552	0.0132645
671.630	0.0135095
671.708	0.0136786
671.787	0.0138033
671.865	0.0140170
671.943	0.0142056
672.021	0.0145204
672.099	0.0146304
672.177	0.0148282
672.255	0.0148249
672.333	0.0147472
672.412	0.0148720
672.490	0.0147987
672.568	0.0145927
672.646	0.0142887
672.724	0.0141538
672.802	0.0138596
672.880	0.0136504
672.958	0.0132423
673.037	0.0130093
673.115	0.0128119
673.193	0.0124525
673.271	0.0124657
673.349	0.0122490
673.427	0.0120648
673.505	0.0118090
673.583	0.0118317
673.662	0.0117820
673.740	0.0118354
673.818	0.0119178
673.896	0.0120560
673.974	0.0121995
674.052	0.0123326
674.130	0.0125749
674.208	0.0129608
674.287	0.0131718
674.365	0.0135581
674.443	0.0137885
674.521	0.0143005
674.599	0.0145040
674.677	0.0146561
674.755	0.0148126
674.833	0.0150768
674.912	0.0152128
674.990	0.0152308
675.068	0.0153143
675.146	0.0153772
675.224	0.0150512
675.302	0.0149463
675.380	0.0147684
675.458	0.0144499
675.537	0.0140719
675.615	0.0137228
675.693	0.0133937
675.771	0.0129655
675.849	0.0126122
675.927	0.0120731
676.005	0.0120110
676.083	0.0116830
676.162	0.0114745
676.240	0.0112643
676.318	0.0114216
676.396	0.0116586
676.474	0.0116761
676.552	0.0118356
676.630	0.0123217
676.708	0.0125414
676.787	0.0130365
676.865	0.0134920
676.943	0.0139894
677.021	0.0145323
677.099	0.0148813
677.177	0.0152492
677.255	0.0154594
677.333	0.0157322
677.412	0.0159206
677.490	0.0160728
677.568	0.0160467
677.646	0.0161642
677.724	0.0159530
677.802	0.0158788
677.880	0.0157992
677.958	0.0156880
678.037	0.0153632
678.115	0.0150069
678.193	0.0147062
678.271	0.0142591
678.349	0.0140285
678.427	0.0135718
678.505	0.0131931
678.583	0.0128973
678.662	0.0124703
678.740	0.0119791
678.818	0.0118082
678.896	0.0115208
678.974	0.0111555
679.052	0.0108923
679.130	0.0106897
679.208	0.0105025
679.287	0.0103092
679.365	0.0102101
679.443	0.0104234
679.521	0.0106129
679.599	0.0107755
679.677	0.0109343
679.755	0.0113244
679.833	0.0117431
679.912	0.0122708
679.990	0.0125290
680.068	0.0129520
680.146	0.0135098
680.224	0.0139675
680.302	0.0141647
680.380	0.0144912
680.458	0.0147900
680.537	0.0149541
680.615	0.0152422
680.693	0.0154926
680.771	0.0155633
680.849	0.0157741
680.927	0.0158595
681.005	0.0161109
681.083	0.0161523
681.162	0.0163236
681.240	0.0164629
681.318	0.0164268
681.396	0.0163208
681.474	0.0163432
681.552	0.0161469
681.630	0.0159339
681.708	0.0157446
681.787	0.0152549
681.865	0.0148241
681.943	0.0146053
682.021	0.0138890
682.099	0.0133826
682.177	0.0130005
682.255	0.0126035
682.333	0.0122297
682.412	0.0120881
682.490	0.0116011
682.568	0.0112961
682.646	0.0112893
682.724	0.0110836
682.802	0.0111728
682.880	0.0111192
682.958	0.0112294
683.037	0.0115965
683.115	0.0118164
683.193	0.0120090
683.271	0.0123442
683.349	0.0128016
683.427	0.0131197
683.505	0.0134140
683.583	0.0137901
683.662	0.0139070
683.740	0.0143123
683.818	0.0143470
683.896	0.0143344
683.974	0.0144359
684.052	0.0144733
684.130	0.0142279
684.208	0.0139693
684.287	0.0137553
684.365	0.0135052
684.443	0.0132423
684.521	0.0130787
684.599	0.0128452
684.677	0.0125502
684.755	0.0123222
684.833	0.0122179
684.912	0.0121223
684.990	0.0122940
685.068	0.0124917
685.146	0.0125323
685.224	0.0126692
685.302	0.0130965
685.380	0.0130808
685.458	0.0132694
685.537	0.0135868
685.615	0.0137196
685.693	0.0139380
685.771	0.0139146
685.849	0.0139304
685.927	0.0141010
686.005	0.0141499
686.083	0.0141407
686.162	0.0142846
686.240	0.0140628
686.318	0.0143449
686.396	0.0145383
686.474	0.0145323
686.552	0.0145724
686.630	0.0147266
686.708	0.0147546
686.787	0.0148255
686.865	0.0148977
686.943	0.0148623
687.021	0.0150549
687.099	0.0151066
687.177	0.0150121
687.255	0.0150623
687.333	0.0147978
687.412	0.0146767
687.490	0.0145713
687.568	0.0144600
687.646	0.0141590
687.724	0.0141737
687.802	0.0138921
687.880	0.0136172
687.958	0.0134681
688.037	0.0133070
688.115	0.0131121
688.193	0.0127433
688.271	0.0126591
688.349	0.0123622
688.427	0.0123730
688.505	0.0124852
688.583	0.0123962
688.662	0.0122591
688.740	0.0122641
688.818	0.0122974
688.896	0.0122873
688.974	0.0123739
689.052	0.0123418
689.130	0.0124304
689.208	0.0124088
689.287	0.0122649
689.365	0.0123128
689.443	0.0121186
689.521	0.0119034
689.599	0.0119663
689.677	0.0119778
689.755	0.0119631
689.833	0.0119392
689.912	0.0121655
689.990	0.0124777
690.068	0.0128686
690.146	0.0130894
690.224	0.0135027
690.302	0.0142858
690.380	0.0145221
690.458	0.0148699
690.537	0.0152408
690.615	0.0156158
690.693	0.0156576
690.771	0.0156256
690.849	0.0156332
690.927	0.0154241
691.005	0.0152367
691.083	0.0147446
691.162	0.0144407
691.240	0.0140058
691.318	0.0138461
691.396	0.0135615
691.474	0.0134184
691.552	0.0132452
691.630	0.0130530
691.708	0.0131303
691.787	0.0131609
691.865	0.0133501
691.943	0.0134100
692.021	0.0136210
692.099	0.0137801
692.177	0.0138027
692.255	0.0139207
692.333	0.0137443
692.412	0.0137669
692.490	0.0138603
692.568	0.0139050
692.646	0.0140549
692.724	0.0141054
692.802	0.0142744
692.880	0.0143185
692.958	0.0142319
693.037	0.0145029
693.115	0.0143616
693.193	0.0143984
693.271	0.0143114
693.349	0.0140055
693.427	0.0138450
693.505	0.0136390
693.583	0.0132850
693.662	0.0130929
693.740	0.0126113
693.818	0.0124445
693.896	0.0124346
693.974	0.0121889
694.052	0.0123495
694.130	0.0123038
694.208	0.0121258
694.287	0.0121263
694.365	0.0121751
694.443	0.0121699
694.521	0.0122418
694.599	0.0122971
694.677	0.0123363
694.755	0.0124304
694.833	0.0126199
694.912	0.0128100
694.990	0.0130893
695.068	0.0133281
695.146	0.0136230
695.224	0.0138609
695.302	0.0143052
695.380	0.0144390
695.458	0.0145364
695.537	0.0146117
695.615	0.0146310
695.693	0.0145176
695.771	0.0145336
695.849	0.0143792
695.927	0.0141636
696.005	0.0138343
696.083	0.0135910
696.162	0.0132994
696.240	0.0130981
696.318	0.0129715
696.396	0.0127678
696.474	0.0124886
696.552	0.0124157
696.630	0.0122719
696.708	0.0124040
696.787	0.0123708
696.865	0.0123073
696.943	0.0122343
697.021	0.0122758
697.099	0.0123582
697.177	0.0124749
697.255	0.0125240
697.333	0.0128607
697.412	0.0129789
697.490	0.0131049
697.568	0.0136034
697.646	0.0137051
697.724	0.0141319
697.802	0.0144535
697.880	0.0146490
697.958	0.0149686
698.037	0.0152918
698.115	0.0154504
698.193	0.0154286
698.271	0.0156421
698.349	0.0157517
698.427	0.0156712
698.505	0.0155992
698.583	0.0155335
698.662	0.0154893
698.740	0.0154205
698.818	0.0151679
698.896	0.0150696
698.974	0.0148514
699.052	0.0149438
699.130	0.0146968
699.208	0.0146418
699.287	0.0144524
699.365	0.0145408
699.443	0.0142105
699.521	0.0141737
699.599	0.0138612
699.677	0.0134026
699.755	0.0132082
699.833	0.0128473
699.912	0.0124130
699.990	0.0120251
700.068	0.0116383
700.146	0.0111539
700.224	0.0108282
700.302	0.0104873
700.380	0.0103265
700.458	0.0101180
700.537	0.0103268
700.615	0.0106035
700.693	0.0109286
700.771	0.0111707
700.849	0.0116216
700.927	0.0121159
701.005	0.0125761
701.083	0.0129370
701.162	0.0132118
701.240	0.0135149
701.318	0.0136285
701.396	0.0139522
701.474	0.0138872
701.552	0.0138846
701.630	0.0137825
701.708	0.0137421
701.787	0.0135498
701.865	0.0136468
701.943	0.0135113
702.021	0.0133388
702.099	0.0136132
702.177	0.0137397
702.255	0.0136982
702.333	0.0138849
702.412	0.0140446
702.490	0.0141371
702.568	0.0139732
702.646	0.0142542
702.724	0.0143909
702.802	0.0144794
702.880	0.0144585
702.958	0.0145677
703.037	0.0145587
703.115	0.0144123
703.193	0.0144254
703.271	0.0143629
703.349	0.0141114
703.427	0.0142195
703.505	0.0143629
703.583	0.0141488
703.662	0.0142242
703.740	0.0143468
703.818	0.0144131
703.896	0.0145923
703.974	0.0148395
704.052	0.0149776
704.130	0.0151503
704.208	0.0152976
704.287	0.0154579
704.365	0.0154830
704.443	0.0155086
704.521	0.0154822
704.599	0.0156497
704.677	0.0155067
704.755	0.0152777
704.833	0.0151596
704.912	0.0148402
704.990	0.0144903
705.068	0.0142085
705.146	0.0137778
705.224	0.0134386
705.302	0.0130273
705.380	0.0124625
705.458	0.0119181
705.537	0.0115758
705.615	0.0112123
705.693	0.0109023
705.771	0.0105879
705.849	0.0104042
705.927	0.0103127
706.005	0.0102869
706.083	0.0102942
706.162	0.0103938
706.240	0.0104996
706.318	0.0107606
706.396	0.0109750
706.474	0.0111549
706.552	0.0117294
706.630	0.0116464
706.708	0.0118089
706.787	0.0120417
706.865	0.0123460
706.943	0.0124992
707.021	0.0126860
707.099	0.0127470
707.177	0.0128904
707.255	0.0130645
707.333	0.0131955
707.412	0.0134002
707.490	0.0137571
707.568	0.0139016
707.646	0.0142584
707.724	0.0146664
707.802	0.0148270
707.880	0.0150857
707.958	0.0153500
708.037	0.0156166
708.115	0.0157528
708.193	0.0159862
708.271	0.0162639
708.349	0.0164523
708.427	0.0164096
708.505	0.0164301
708.583	0.0164713
708.662	0.0163410
708.740	0.0162199
708.818	0.0159608
708.896	0.0156856
708.974	0.0152893
709.052	0.0151885
709.130	0.0147149
709.208	0.0144042
709.287	0.0140547
709.365	0.0136501
709.443	0.0134009
709.521	0.0130233
709.599	0.0127383
709.677	0.0125454
709.755	0.0122736
709.833	0.0123238
709.912	0.0121291
709.990	0.0122401
710.068	0.0122748
710.146	0.0123060
710.224	0.0122871
710.302	0.0126339
710.380	0.0125840
710.458	0.0126716
710.537	0.0127613
710.615	0.0128018
710.693	0.0128408
710.771	0.0128612
710.849	0.0127848
710.927	0.0129778
711.005	0.0129143
711.083	0.0129517
711.162	0.0128012
711.240	0.0129508
711.318	0.0129610
711.396	0.0128757
711.474	0.0129203
711.552	0.0128356
711.630	0.0128281
711.708	0.0127180
711.787	0.0126949
711.865	0.0126648
711.943	0.0126650
712.021	0.0127246
712.099	0.0126440
712.177	0.0125233
712.255	0.0127077
712.333	0.0128820
712.412	0.0129679
712.490	0.0130063
712.568	0.0132278
712.646	0.0134493
712.724	0.0136938
712.802	0.0138934
712.880	0.0139753
712.958	0.0139448
713.037	0.0142311
713.115	0.0142929
713.193	0.0142365
713.271	0.0141951
713.349	0.0140900
713.427	0.0141338
713.505	0.0141151
713.583	0.0140367
713.662	0.0139248
713.740	0.0138846
713.818	0.0140128
713.896	0.0139120
713.974	0.0139025
714.052	0.0139809
714.130	0.0138780
714.208	0.0138383
714.287	0.0138992
714.365	0.0138708
714.443	0.0139165
714.521	0.0138519
714.599	0.0138095
714.677	0.0137624
714.755	0.0139420
714.833	0.0137148
714.912	0.0135792
714.990	0.0137280
715.068	0.0138007
715.146	0.0136646
715.224	0.0136583
715.302	0.0135912
715.380	0.0136390
715.458	0.0135842
715.537	0.0135773
715.615	0.0135024
715.693	0.0134557
715.771	0.0133228
715.849	0.0134196
715.927	0.0134982
716.005	0.0134637
716.083	0.0134374
716.162	0.0135973
716.240	0.0136224
716.318	0.0137741
716.396	0.0137844
716.474	0.0138828
716.552	0.0139603
716.630	0.0139929
716.708	0.0140945
716.787	0.0141023
716.865	0.0139485
716.943	0.0138766
717.021	0.0135843
717.099	0.0136569
717.177	0.0133789
717.255	0.0132664
717.333	0.0132122
717.412	0.0130733
717.490	0.0129234
717.568	0.0130017
717.646	0.0128320
717.724	0.0127977
717.802	0.0126839
717.880	0.0126527
717.958	0.0127193
718.037	0.0127654
718.115	0.0126795
718.193	0.0126743
718.271	0.0126960
718.349	0.0126709
718.427	0.0125967
718.505	0.0127096
718.583	0.0129185
718.662	0.0130383
718.740	0.0129636
718.818	0.0129518
718.896	0.0132644
718.974	0.0131871
719.052	0.0132267
719.130	0.0133153
719.208	0.0134019
719.287	0.0133163
719.365	0.0132263
719.443	0.0132816
719.521	0.0133374
719.599	0.0133118
719.677	0.0135155
719.755	0.0135719
719.833	0.0138377
719.912	0.0139236
719.990	0.0139076
720.068	0.0142228
720.146	0.0143583
720.224	0.0145303
720.302	0.0146568
720.380	0.0148343
720.458	0.0150412
720.537	0.0151363
720.615	0.0152515
720.693	0.0153368
720.771	0.0152915
720.849	0.0151073
720.927	0.0150406
721.005	0.0149937
721.083	0.0148421
721.162	0.0145047
721.240	0.0144424
721.318	0.0142360
721.396	0.0139700
721.474	0.0137445
721.552	0.0134462
721.630	0.0133539
721.708	0.0132034
721.787	0.0129871
721.865	0.0130219
721.943	0.0128923
722.021	0.0125497
722.099	0.0124310
722.177	0.0125190
722.255	0.0123673
722.333	0.0124575
722.412	0.0124023
722.490	0.0124945
722.568	0.0124102
722.646	0.0126285
722.724	0.0126016
722.802	0.0126797
722.880	0.0128610
722.958	0.0129018
723.037	0.0129818
723.115	0.0130809
723.193	0.0132139
723.271	0.0132426
723.349	0.0133839
723.427	0.0133421
723.505	0.0135185
723.583	0.0134832
723.662	0.0137908
723.740	0.0137865
723.818	0.0140599
723.896	0.0143007
723.974	0.0145146
724.052	0.0146225
724.130	0.0146687
724.208	0.0148284
724.287	0.0148418
724.365	0.0147681
724.443	0.0146302
724.521	0.0145586
724.599	0.0142583
724.677	0.0140588
724.755	0.0137170
724.833	0.0132617
724.912	0.0129582
724.990	0.0126322
725.068	0.0123626
725.146	0.0120484
725.224	0.0119753
725.302	0.0119144
725.380	0.0119836
725.458	0.0119849
725.537	0.0121355
725.615	0.0124825
725.693	0.0125767
725.771	0.0129356
725.849	0.0130662
725.927	0.0133355
726.005	0.0135132
726.083	0.0136481
726.162	0.0137730
726.240	0.0138959
726.318	0.0140530
726.396	0.0140102
726.474	0.0140234
726.552	0.0139948
726.630	0.0139311
726.708	0.0138548
726.787	0.0137988
726.865	0.0136726
726.943	0.0137725
727.021	0.0137565
727.099	0.0136067
727.177	0.0138036
727.255	0.0139365
727.333	0.0139405
727.412	0.0141080
727.490	0.0143696
727.568	0.0144331
727.646	0.0146603
727.724	0.0146480
727.802	0.0146507
727.880	0.0146852
727.958	0.0147295
728.037	0.0148016
728.115	0.0144077
728.193	0.0143217
728.271	0.0139913
728.349	0.0139794
728.427	0.0137365
728.505	0.0133605
728.583	0.0131760
728.662	0.0129081
728.740	0.0127867
728.818	0.0125466
728.896	0.0124475
728.974	0.0123936
729.052	0.0122222
729.130	0.0122843
729.208	0.0120969
729.287	0.0121728
729.365	0.0122314
729.443	0.0122451
729.521	0.0126088
729.599	0.0125610
729.677	0.0126881
729.755	0.0127953
729.833	0.0130885
729.912	0.0131451
729.990	0.0132572
730.068	0.0134964
730.146	0.0135971
730.224	0.0137345
730.302	0.0138000
730.380	0.0139042
730.458	0.0140210
730.537	0.0140193
730.615	0.0140427
730.693	0.0141541
730.771	0.0141615
730.849	0.0142223
730.927	0.0142065
731.005	0.0141204
731.083	0.0142456
731.162	0.0141595
731.240	0.0139854
731.318	0.0138103
731.396	0.0137546
731.474	0.0136098
731.552	0.0135612
731.630	0.0135590
731.708	0.0135298
731.787	0.0134005
731.865	0.0132575
731.943	0.0132230
732.021	0.0130782
732.099	0.0130995
732.177	0.0131349
732.255	0.0131094
732.333	0.0128876
732.412	0.0128621
732.490	0.0129343
732.568	0.0128851
732.646	0.0129388
732.724	0.0127926
732.802	0.0129081
732.880	0.0129171
732.958	0.0129343
733.037	0.0131447
733.115	0.0131161
733.193	0.0134923
733.271	0.0136031
733.349	0.0137098
733.427	0.0138790
733.505	0.0140868
733.583	0.0143092
733.662	0.0143093
733.740	0.0144566
733.818	0.0146953
733.896	0.0144798
733.974	0.0145527
734.052	0.0144164
734.130	0.0143550
734.208	0.0142960
734.287	0.0140964
734.365	0.0140899
734.443	0.0138475
734.521	0.0137378
734.599	0.0135570
734.677	0.0135199
734.755	0.0135423
734.833	0.0135126
734.912	0.0134637
734.990	0.0134900
735.068	0.0135485
735.146	0.0135010
735.224	0.0135690
735.302	0.0134306
735.380	0.0135173
735.458	0.0133396
735.537	0.0133113
735.615	0.0133291
735.693	0.0132642
735.771	0.0132298
735.849	0.0130904
735.927	0.0129342
736.005	0.0129170
736.083	0.0129307
736.162	0.0130062
736.240	0.0129636
736.318	0.0130291
736.396	0.0132381
736.474	0.0134629
736.552	0.0135013
736.630	0.0136430
736.708	0.0138123
736.787	0.0138492
736.865	0.0140089
736.943	0.0140051
737.021	0.0140535
737.099	0.0141727
737.177	0.0141812
737.255	0.0140852
737.333	0.0139983
737.412	0.0140836
737.490	0.0140785
737.568	0.0139201
737.646	0.0136743
737.724	0.0137247
737.802	0.0134982
737.880	0.0135120
737.958	0.0134310
738.037	0.0133940
738.115	0.0132686
738.193	0.0132460
738.271	0.0132185
738.349	0.0132011
738.427	0.0133156
738.505	0.0131561
738.583	0.0132258
738.662	0.0132058
738.740	0.0133533
738.818	0.0132218
738.896	0.0131425
738.974	0.0131712
739.052	0.0131731
739.130	0.0131852
739.208	0.0132803
739.287	0.0133515
739.365	0.0133244
739.443	0.0134365
739.521	0.0135634
739.599	0.0137056
739.677	0.0137593
739.755	0.0138114
739.833	0.0137292
739.912	0.0138486
739.990	0.0139669
740.068	0.0138437
740.146	0.0137454
740.224	0.0138881
740.302	0.0138009
740.380	0.0137807
740.458	0.0137817
740.537	0.0138952
740.615	0.0138094
740.693	0.0136728
740.771	0.0138284
740.849	0.0139330
740.927	0.0139765
741.005	0.0138956
741.083	0.0140620
741.162	0.0140427
741.240	0.0141233
741.318	0.0141370
741.396	0.0139749
741.474	0.0139883
741.552	0.0139012
741.630	0.0138448
741.708	0.0135257
741.787	0.0134932
741.865	0.0132561
741.943	0.0130519
742.021	0.0129169
742.099	0.0126469
742.177	0.0125018
742.255	0.0125239
742.333	0.0125626
742.412	0.0124995
742.490	0.0125819
742.568	0.0125423
742.646	0.0126061
742.724	0.0128025
742.802	0.0130026
742.880	0.0130360
742.958	0.0131270
743.037	0.0134356
743.115	0.0134145
743.193	0.0134734
743.271	0.0135931
743.349	0.0137630
743.427	0.0138332
743.505	0.0139391
743.583	0.0141758
743.662	0.0142288
743.740	0.0143417
743.818	0.0142608
743.896	0.0141373
743.974	0.0143057
744.052	0.0142657
744.130	0.0142054
744.208	0.0141750
744.287	0.0141248
744.365	0.0141064
744.443	0.0139964
744.521	0.0137894
744.599	0.0137320
744.677	0.0136045
744.755	0.0135276
744.833	0.0135467
744.912	0.0133871
744.990	0.0133337
745.068	0.0133641
745.146	0.0131619
745.224	0.0132178
745.302	0.0131894
745.380	0.0131338
745.458	0.0130241
745.537	0.0129201
745.615	0.0131137
745.693	0.0132092
745.771	0.0130795
745.849	0.0132169
745.927	0.0132865
746.005	0.0133035
746.083	0.0133297
746.162	0.0134209
746.240	0.0135474
746.318	0.0134725
746.396	0.0134560
746.474	0.0135033
746.552	0.0134868
746.630	0.0135184
746.708	0.0133983
746.787	0.0133139
746.865	0.0131972
746.943	0.0133167
747.021	0.0132645
747.099	0.0133963
747.177	0.0132284
747.255	0.0132378
747.333	0.0132408
747.412	0.0131901
747.490	0.0132078
747.568	0.0133897
747.646	0.0134971
747.724	0.0134333
747.802	0.0135912
747.880	0.0135194
747.958	0.0134628
748.037	0.0135905
748.115	0.0135957
748.193	0.0136682
748.271	0.0136854
748.349	0.0138049
748.427	0.0138147
748.505	0.0138902
748.583	0.0139272
748.662	0.0139553
748.740	0.0139750
748.818	0.0141306
748.896	0.0138732
748.974	0.0137982
749.052	0.0137721
749.130	0.0137536
749.208	0.0138966
749.287	0.0135970
749.365	0.0135204
749.443	0.0133591
749.521	0.0133313
749.599	0.0133609
749.677	0.0132639
749.755	0.0134163
749.833	0.0133526
749.912	0.0133452
749.990	0.0133150
750.068	0.0135051
750.146	0.0136974
750.224	0.0136539
750.302	0.0137303
750.380	0.0139546
750.458	0.0138675
750.537	0.0138430
750.615	0.0137997
750.693	0.0138148
750.771	0.0137572
750.849	0.0137389
750.927	0.0138129
751.005	0.0135284
751.083	0.0134498
751.162	0.0134448
751.240	0.0135368
751.318	0.0134926
751.396	0.0133603
751.474	0.0132996
751.552	0.0135532
751.630	0.0134609
751.708	0.0131970
751.787	0.0133775
751.865	0.0133434
751.943	0.0133682
752.021	0.0132723
752.099	0.0132548
752.177	0.0133134
752.255	0.0132201
752.333	0.0132243
752.412	0.0132320
752.490	0.0130856
752.568	0.0131979
752.646	0.0132004
752.724	0.0130824
752.802	0.0132085
752.880	0.0131572
752.958	0.0130181
753.037	0.0131731
753.115	0.0133011
753.193	0.0131841
753.271	0.0132806
753.349	0.0131253
753.427	0.0132336
753.505	0.0132740
753.583	0.0133047
753.662	0.0133589
753.740	0.0134481
753.818	0.0135361
753.896	0.0136110
753.974	0.0137391
754.052	0.0136528
754.130	0.0138911
754.208	0.0137888
754.287	0.0138768
754.365	0.0138972
754.443	0.0138844
754.521	0.0139776
754.599	0.0139658
754.677	0.0139905
754.755	0.0140498
754.833	0.0142069
754.912	0.0141371
754.990	0.0139795
755.068	0.0139635
755.146	0.0140372
755.224	0.0139919
755.302	0.0138521
755.380	0.0138277
755.458	0.0138514
755.537	0.0135783
755.615	0.0135769
755.693	0.0135693
755.771	0.0133920
755.849	0.0132510
755.927	0.0133564
756.005	0.0135253
756.083	0.0132169
756.162	0.0132420
756.240	0.0133142
756.318	0.0134115
756.396	0.0134185
756.474	0.0133222
756.552	0.0133926
756.630	0.0132043
756.708	0.0134530
756.787	0.0135744
756.865	0.0133530
756.943	0.0133914
757.021	0.0134889
757.099	0.0134451
757.177	0.0135384
757.255	0.0136324
757.333	0.0136418
757.412	0.0135997
757.490	0.0137289
757.568	0.0137167
757.646	0.0138373
757.724	0.0138881
757.802	0.0138261
757.880	0.0138505
757.958	0.0137918
758.037	0.0138171
758.115	0.0135875
758.193	0.0134832
758.271	0.0133734
758.349	0.0134736
758.427	0.0132774
758.505	0.0131255
758.583	0.0131075
758.662	0.0132344
758.740	0.0130974
758.818	0.0130679
758.896	0.0131871
758.974	0.0130841
759.052	0.0132069
759.130	0.0132089
759.208	0.0133748
759.287	0.0133194
759.365	0.0133784
759.443	0.0135607
759.521	0.0136020
759.599	0.0136723
759.677	0.0135818
759.755	0.0135722
759.833	0.0136203
759.912	0.0137640
759.990	0.0137083
760.068	0.0137511
760.146	0.0136604
760.224	0.0135814
760.302	0.0138139
760.380	0.0136871
760.458	0.0137063
760.537	0.0136900
760.615	0.0137466
760.693	0.0136987
760.771	0.0137178
760.849	0.0139044
760.927	0.0136888
761.005	0.0136141
761.083	0.0136308
761.162	0.0138105
761.240	0.0136369
761.318	0.0137196
761.396	0.0138960
761.474	0.0137052
761.552	0.0136536
761.630	0.0139381
761.708	0.0138943
761.787	0.0137494
761.865	0.0138190
761.943	0.0136704
762.021	0.0138041
762.099	0.0138573
762.177	0.0137353
762.255	0.0135339
762.333	0.0136047
762.412	0.0134238
762.490	0.0136029
762.568	0.0132963
762.646	0.0133569
762.724	0.0133141
762.802	0.0131294
762.880	0.0132167
762.958	0.0131911
763.037	0.0133064
763.115	0.0132708
763.193	0.0132995
763.271	0.0133250
763.349	0.0133749
763.427	0.0136388
763.505	0.0137096
763.583	0.0136887
763.662	0.0136668
763.740	0.0137341
763.818	0.0138110
763.896	0.0136831
763.974	0.0136499
764.052	0.0136763
764.130	0.0136260
764.208	0.0137002
764.287	0.0134355
764.365	0.0137464
764.443	0.0135960
764.521	0.0135158
764.599	0.0135111
764.677	0.0135194
764.755	0.0136685
764.833	0.0137202
764.912	0.0136361
764.990	0.0136256
765.068	0.0136106
765.146	0.0135756
765.224	0.0134872
765.302	0.0134878
765.380	0.0135789
765.458	0.0133378
765.537	0.0133475
765.615	0.0132956
765.693	0.0133488
765.771	0.0134139
765.849	0.0132858
765.927	0.0132126
766.005	0.0134817
766.083	0.0133692
766.162	0.0132914
766.240	0.0134324
766.318	0.0134881
766.396	0.0135223
766.474	0.0135093
766.552	0.0136192
766.630	0.0136074
766.708	0.0135792
766.787	0.0136291
766.865	0.0135584
766.943	0.0136909
767.021	0.0136118
767.099	0.0136520
767.177	0.0134268
767.255	0.0136966
767.333	0.0136032
767.412	0.0137386
767.490	0.0135957
767.568	0.0136246
767.646	0.0136810
767.724	0.0135069
767.802	0.0134848
767.880	0.0136092
767.958	0.0135252
768.037	0.0134415
768.115	0.0134888
768.193	0.0138062
768.271	0.0136705
768.349	0.0135032
768.427	0.0134025
768.505	0.0134843
768.583	0.0135723
768.662	0.0136580
768.740	0.0136040
768.818	0.0135925
768.896	0.0136806
768.974	0.0136840
769.052	0.0137275
769.130	0.0136836
769.208	0.0136926
769.287	0.0136644
769.365	0.0135473
769.443	0.0135738
769.521	0.0135554
769.599	0.0134273
769.677	0.0134748
769.755	0.0134383
769.833	0.0134534
769.912	0.0133202
769.990	0.0133254
770.068	0.0132030
770.146	0.0131134
770.224	0.0132796
770.302	0.0133481
770.380	0.0133524
770.458	0.0132693
770.537	0.0132979
770.615	0.0134729
770.693	0.0134536
770.771	0.0135731
770.849	0.0134991
770.927	0.0135059
771.005	0.0136221
771.083	0.0137781
771.162	0.0138831
771.240	0.0136953
771.318	0.0137743
771.396	0.0138142
771.474	0.0137947
771.552	0.0138312
771.630	0.0136939
771.708	0.0137054
771.787	0.0136955
771.865	0.0137586
771.943	0.0135659
772.021	0.0135882
772.099	0.0134528
772.177	0.0132206
772.255	0.0132555
772.333	0.0133143
772.412	0.0133481
772.490	0.0133128
772.568	0.0133027
772.646	0.0133138
772.724	0.0133817
772.802	0.0132951
772.880	0.0132725
772.958	0.0132045
773.037	0.0134425
773.115	0.0134164
773.193	0.0133117
773.271	0.0134420
773.349	0.0134318
773.427	0.0136141
773.505	0.0136713
773.583	0.0135178
773.662	0.0135275
773.740	0.0136594
773.818	0.0136275
773.896	0.0136922
773.974	0.0137753
774.052	0.0138281
774.130	0.0138010
774.208	0.0137744
774.287	0.0137528
774.365	0.0137800
774.443	0.0138977
774.521	0.0139263
774.599	0.0138148
774.677	0.0136630
774.755	0.0138976
774.833	0.0137539
774.912	0.0137870
774.990	0.0136421
775.068	0.0138373
775.146	0.0137547
775.224	0.0137139
775.302	0.0137275
775.380	0.0136980
775.458	0.0136287
775.537	0.0137654
775.615	0.0138005
775.693	0.0137309
775.771	0.0137852
775.849	0.0136105
775.927	0.0137154
776.005	0.0136227
776.083	0.0136445
776.162	0.0136471
776.240	0.0133221
776.318	0.0135688
776.396	0.0135732
776.474	0.0133187
776.552	0.0133575
776.630	0.0135268
776.708	0.0134251
776.787	0.0134481
776.865	0.0133633
776.943	0.0134177
777.021	0.0134186
777.099	0.0134968
777.177	0.0134515
777.255	0.0134412
777.333	0.0133242
777.412	0.0132568
777.490	0.0133862
777.568	0.0133298
777.646	0.0134121
777.724	0.0133951
777.802	0.0134460
777.880	0.0135581
777.958	0.0137249
778.037	0.0135535
778.115	0.0135820
778.193	0.0136121
778.271	0.0136357
778.349	0.0136026
778.427	0.0136776
778.505	0.0136020
778.583	0.0136905
778.662	0.0135808
778.740	0.0135269
778.818	0.0134905
778.896	0.0136956
778.974	0.0137158
779.052	0.0135894
779.130	0.0136093
779.208	0.0136182
779.287	0.0137732
779.365	0.0136764
779.443	0.0137819
779.521	0.0136687
779.599	0.0135489
779.677	0.0136709
779.755	0.0137259
779.833	0.0136842
779.912	0.0136177
779.990	0.0135246
780.068	0.0135576
780.146	0.0134392
780.224	0.0133735
780.302	0.0134535
780.380	0.0132685
780.458	0.0132973
780.537	0.0134854
780.615	0.0133423
780.693	0.0134000
780.771	0.0133677
780.849	0.0133183
780.927	0.0132502
781.005	0.0131849
781.083	0.0132986
781.162	0.0132111
781.240	0.0132435
781.318	0.0134275
781.396	0.0134780
781.474	0.0135177
781.552	0.0134805
781.630	0.0134846
781.708	0.0137812
781.787	0.0136526
781.865	0.0137473
781.943	0.0138155
782.021	0.0138669
782.099	0.0138136
782.177	0.0139491
782.255	0.0138742
782.333	0.0138980
782.412	0.0140176
782.490	0.0139230
782.568	0.0140840
782.646	0.0140813
782.724	0.0139503
782.802	0.0140475
782.880	0.0139484
782.958	0.0138702
783.037	0.0138190
783.115	0.0139562
783.193	0.0137842
783.271	0.0136374
783.349	0.0136137
783.427	0.0136237
783.505	0.0134472
783.583	0.0132211
783.662	0.0132444
783.740	0.0131686
783.818	0.0130803
783.896	0.0132327
783.974	0.0131713
784.052	0.0132624
784.130	0.0132598
784.208	0.0132549
784.287	0.0134028
784.365	0.0133916
784.443	0.0133332
784.521	0.0135813
784.599	0.0134315
784.677	0.0135628
784.755	0.0136755
784.833	0.0135996
784.912	0.0136496
784.990	0.0134726
785.068	0.0134418
785.146	0.0133899
785.224	0.0133385
785.302	0.0133569
785.380	0.0133313
785.458	0.0134277
785.537	0.0134332
785.615	0.0133746
785.693	0.0131179
785.771	0.0133472
785.849	0.0133286
785.927	0.0133322
786.005	0.0133826
786.083	0.0133559
786.162	0.0133663
786.240	0.0133784
786.318	0.0134004
786.396	0.0134338
786.474	0.0134446
786.552	0.0134229
786.630	0.0133469
786.708	0.0134466
786.787	0.0135009
786.865	0.0135007
786.943	0.0134760
787.021	0.0136920
787.099	0.0135461
787.177	0.0134743
787.255	0.0138076
787.333	0.0135969
787.412	0.0135822
787.490	0.0135588
787.568	0.0137397
787.646	0.0138946
787.724	0.0137899
787.802	0.0135683
787.880	0.0135973
787.958	0.0137401
788.037	0.0136611
788.115	0.0136558
788.193	0.0136321
788.271	0.0135825
788.349	0.0135429
788.427	0.0134374
788.505	0.0136195
788.583	0.0135787
788.662	0.0134960
788.740	0.0135805
788.818	0.0135349
788.896	0.0137315
788.974	0.0135675
789.052	0.0135645
789.130	0.0135593
789.208	0.0133952
789.287	0.0134877
789.365	0.0134809
789.443	0.0134840
789.521	0.0134737
789.599	0.0135619
789.677	0.0135415
789.755	0.0135754
789.833	0.0134418
789.912	0.0134241
789.990	0.0136192
790.068	0.0136593
790.146	0.0135836
790.224	0.0135738
790.302	0.0136094
790.380	0.0135294
790.458	0.0138872
790.537	0.0136893
790.615	0.0136903
790.693	0.0137386
790.771	0.0135770
790.849	0.0136761
790.927	0.0135254
791.005	0.0136203
791.083	0.0135954
791.162	0.0136201
791.240	0.0133659
791.318	0.0134772
791.396	0.0134309
791.474	0.0135579
791.552	0.0133952
791.630	0.0133875
791.708	0.0134357
791.787	0.0134693
791.865	0.0134636
791.943	0.0134309
792.021	0.0134827
792.099	0.0134538
792.177	0.0133705
792.255	0.0135345
792.333	0.0135048
792.412	0.0135359
792.490	0.0135256
792.568	0.0135571
792.646	0.0135996
792.724	0.0135837
792.802	0.0137146
792.880	0.0136877
792.958	0.0136568
793.037	0.0137785
793.115	0.0135966
793.193	0.0135841
793.271	0.0135387
793.349	0.0136631
793.427	0.0135323
793.505	0.0135716
793.583	0.0135469
793.662	0.0135515
793.740	0.0133366
793.818	0.0134200
793.896	0.0134699
793.974	0.0134192
794.052	0.0132812
794.130	0.0134180
794.208	0.0134174
794.287	0.0134161
794.365	0.0133061
794.443	0.0133647
794.521	0.0133219
794.599	0.0133015
794.677	0.0133207
794.755	0.0133458
794.833	0.0133601
794.912	0.0133913
794.990	0.0133605
795.068	0.0133646
795.146	0.0135973
795.224	0.0137191
795.302	0.0138715
795.380	0.0137951
795.458	0.0138310
795.537	0.0139992
795.615	0.0139375
795.693	0.0140286
795.771	0.0141096
795.849	0.0140539
795.927	0.0140749
796.005	0.0139501
796.083	0.0140137
796.162	0.0140878
796.240	0.0139861
796.318	0.0139059
796.396	0.0138745
796.474	0.0138205
796.552	0.0138061
796.630	0.0137420
796.708	0.0136765
796.787	0.0135666
796.865	0.0135780
796.943	0.0135347
797.021	0.0133623
797.099	0.0135020
797.177	0.0133327
797.255	0.0133945
797.333	0.0135082
797.412	0.0133539
797.490	0.0133028
797.568	0.0133128
797.646	0.0132117
797.724	0.0133596
797.802	0.0134371
797.880	0.0132063
797.958	0.0131683
798.037	0.0133617
798.115	0.0131706
798.193	0.0133256
798.271	0.0133531
798.349	0.0132545
798.427	0.0132883
798.505	0.0134493
798.583	0.0135668
798.662	0.0133485
798.740	0.0136194
798.818	0.0136266
798.896	0.0136143
798.974	0.0135143
799.052	0.0136404
799.130	0.0135455
799.208	0.0135338
799.287	0.0136014
799.365	0.0136612
799.443	0.0135966
799.521	0.0137535
799.599	0.0135625
799.677	0.0135230
799.755	0.0136346
799.833	0.0136731
799.912	0.0136370
799.990	0.0137181
800.068	0.0135595
800.146	0.0136810
800.224	0.0137710
800.302	0.0136932
800.380	0.0136826
800.458	0.0137945
800.537	0.0137344
800.615	0.0137907
800.693	0.0137532
800.771	0.0137913
800.849	0.0139522
800.927	0.0138501
801.005	0.0137060
801.083	0.0137161
801.162	0.0136995
801.240	0.0136834
801.318	0.0136089
801.396	0.0134601
801.474	0.0133788
801.552	0.0134748
801.630	0.0134060
801.708	0.0134529
801.787	0.0134708
801.865	0.0134390
801.943	0.0134454
802.021	0.0133442
802.099	0.0134893
802.177	0.0133597
802.255	0.0133894
802.333	0.0134119
802.412	0.0134318
802.490	0.0133974
802.568	0.0134689
802.646	0.0134041
802.724	0.0133009
802.802	0.0132104
802.880	0.0133831
802.958	0.0134175
803.037	0.0133772
803.115	0.0134563
803.193	0.0133819
803.271	0.0133628
803.349	0.0134547
803.427	0.0135737
803.505	0.0134475
803.583	0.0133067
803.662	0.0134991
803.740	0.0134941
803.818	0.0133423
803.896	0.0134779
803.974	0.0135204
804.052	0.0133527
804.130	0.0133484
804.208	0.0132896
804.287	0.0133113
804.365	0.0132932
804.443	0.0134443
804.521	0.0134240
804.599	0.0134540
804.677	0.0133810
804.755	0.0134651
804.833	0.0136310
804.912	0.0135439
804.990	0.0134916
805.068	0.0135643
805.146	0.0136678
805.224	0.0135831
805.302	0.0135244
805.380	0.0135741
805.458	0.0135032
805.537	0.0134097
805.615	0.0134430
805.693	0.0135687
805.771	0.0133678
805.849	0.0134252
805.927	0.0135443
806.005	0.0135211
806.083	0.0135208
806.162	0.0135771
806.240	0.0133931
806.318	0.0134740
806.396	0.0135129
806.474	0.0136006
806.552	0.0134193
806.630	0.0135795
806.708	0.0135846
806.787	0.0134599
806.865	0.0134051
806.943	0.0134869
807.021	0.0135400
807.099	0.0133346
807.177	0.0133829
807.255	0.0135197
807.333	0.0132488
807.412	0.0133765
807.490	0.0134114
807.568	0.0134980
807.646	0.0133261
807.724	0.0133114
807.802	0.0134212
807.880	0.0134474
807.958	0.0134020
808.037	0.0133484
808.115	0.0134164
808.193	0.0133643
808.271	0.0133746
808.349	0.0135088
808.427	0.0132031
808.505	0.0133478
808.583	0.0132950
808.662	0.0132824
808.740	0.0133374
808.818	0.0133639
808.896	0.0132915
808.974	0.0133511
809.052	0.0131874
809.130	0.0134644
809.208	0.0135297
809.287	0.0134900
809.365	0.0134721
809.443	0.0135433
809.521	0.0136274
809.599	0.0135361
809.677	0.0134550
809.755	0.0136629
809.833	0.0136591
809.912	0.0136466
809.990	0.0134726
810.068	0.0136413
810.146	0.0135847
810.224	0.0134825
810.302	0.0135056
810.380	0.0134743
810.458	0.0134154
810.537	0.0134688
810.615	0.0134460
810.693	0.0133971
810.771	0.0134309
810.849	0.0134911
810.927	0.0135425
811.005	0.0133762
811.083	0.0135161
811.162	0.0135062
811.240	0.0134794
811.318	0.0134283
811.396	0.0136206
811.474	0.0135947
811.552	0.0134881
811.630	0.0135300
811.708	0.0136805
811.787	0.0136060
811.865	0.0135184
811.943	0.0135685
812.021	0.0137018
812.099	0.0137377
812.177	0.0137099
812.255	0.0136860
812.333	0.0137653
812.412	0.0137495
812.490	0.0137306
812.568	0.0137564
812.646	0.0135826
812.724	0.0136317
812.802	0.0137355
812.880	0.0137357
812.958	0.0136777
813.037	0.0136430
813.115	0.0136074
813.193	0.0137455
813.271	0.0136034
813.349	0.0136581
813.427	0.0136066
813.505	0.0133910
813.583	0.0134794
813.662	0.0134017
813.740	0.0134077
813.818	0.0133870
813.896	0.0134335
813.974	0.0133967
814.052	0.0134328
814.130	0.0135280
814.208	0.0133926
814.287	0.0134375
814.365	0.0135382
814.443	0.0134924
814.521	0.0135028
814.599	0.0136117
814.677	0.0135674
814.755	0.0134274
814.833	0.0133251
814.912	0.0133804
814.990	0.0135332
815.068	0.0134382
815.146	0.0134687
815.224	0.0134977
815.302	0.0135172
815.380	0.0133981
815.458	0.0134463
815.537	0.0134323
815.615	0.0135022
815.693	0.0134391
815.771	0.0134359
815.849	0.0133896
815.927	0.0135122
816.005	0.0135516
816.083	0.0134284
816.162	0.0137085
816.240	0.0136176
816.318	0.0134888
816.396	0.0135846
816.474	0.0136074
816.552	0.0135567
816.630	0.0136855
816.708	0.0137115
816.787	0.0137151
816.865	0.0137170
816.943	0.0137441
817.021	0.0137960
817.099	0.0138289
817.177	0.0139589
817.255	0.0138609
817.333	0.0138795
817.412	0.0138725
817.490	0.0139445
817.568	0.0139661
817.646	0.0138033
817.724	0.0139764
817.802	0.0138888
817.880	0.0139725
817.958	0.0138873
818.037	0.0139967
818.115	0.0138908
818.193	0.0138069
818.271	0.0138179
818.349	0.0137319
818.427	0.0137075
818.505	0.0136800
818.583	0.0135673
818.662	0.0136037
818.740	0.0135378
818.818	0.0133839
818.896	0.0135355
818.974	0.0134661
819.052	0.0134877
819.130	0.0134339
819.208	0.0134948
819.287	0.0133846
819.365	0.0133293
819.443	0.0133181
819.521	0.0133033
819.599	0.0133637
819.677	0.0132883
819.755	0.0132681
819.833	0.0133313
819.912	0.0132613
819.990	0.0134702
820.068	0.0133739
820.146	0.0135143
820.224	0.0137255
820.302	0.0136437
820.380	0.0137130
820.458	0.0137003
820.537	0.0136591
820.615	0.0136043
820.693	0.0135233
820.771	0.0136050
820.849	0.0135355
820.927	0.0134972
821.005	0.0135728
821.083	0.0136362
821.162	0.0135084
821.240	0.0134100
821.318	0.0133794
821.396	0.0133877
821.474	0.0132047
821.552	0.0133846
821.630	0.0134520
821.708	0.0134800
821.787	0.0133500
821.865	0.0134473
821.943	0.0133161
822.021	0.0133662
822.099	0.0133917
822.177	0.0133797
822.255	0.0134257
822.333	0.0132979
822.412	0.0134216
822.490	0.0132332
822.568	0.0133768
822.646	0.0134242
822.724	0.0136025
822.802	0.0133775
822.880	0.0133984
822.958	0.0135316
823.037	0.0134514
823.115	0.0134898
823.193	0.0136757
823.271	0.0137605
823.349	0.0137348
823.427	0.0136404
823.505	0.0137355
823.583	0.0139223
823.662	0.0138361
823.740	0.0139552
823.818	0.0138732
823.896	0.0138121
823.974	0.0139459
824.052	0.0139084
824.130	0.0138964
824.208	0.0138570
824.287	0.0137965
824.365	0.0137183
824.443	0.0137622
824.521	0.0137527
824.599	0.0136588
824.677	0.0135600
824.755	0.0135293
824.833	0.0135472
824.912	0.0134608
824.990	0.0135583
825.068	0.0134693
825.146	0.0134770
825.224	0.0133849
825.302	0.0134315
825.380	0.0136484
825.458	0.0137611
825.537	0.0135035
825.615	0.0135892
825.693	0.0135867
825.771	0.0134710
825.849	0.0135204
825.927	0.0135944
826.005	0.0134529
826.083	0.0134518
826.162	0.0133382
826.240	0.0133630
826.318	0.0134819
826.396	0.0133471
826.474	0.0132703
826.552	0.0131983
826.630	0.0132541
826.708	0.0131026
826.787	0.0132079
826.865	0.0132751
826.943	0.0133125
827.021	0.0132386
827.099	0.0133466
827.177	0.0132541
827.255	0.0132190
827.333	0.0133594
827.412	0.0134653
827.490	0.0134663
827.568	0.0135734
827.646	0.0135542
827.724	0.0136286
827.802	0.0136359
827.880	0.0136171
827.958	0.0138622
828.037	0.0136141
828.115	0.0136678
828.193	0.0137278
828.271	0.0135571
828.349	0.0136405
828.427	0.0137967
828.505	0.0137119
828.583	0.0137243
828.662	0.0136298
828.740	0.0135773
828.818	0.0135043
828.896	0.0136201
828.974	0.0136497
829.052	0.0135970
829.130	0.0137212
829.208	0.0135946
829.287	0.0135561
829.365	0.0135444
829.443	0.0135826
829.521	0.0136732
829.599	0.0134398
829.677	0.0136001
829.755	0.0135771
829.833	0.0136570
829.912	0.0136998
829.990	0.0135070
830.068	0.0135383
830.146	0.0136025
830.224	0.0136047
830.302	0.0135622
830.380	0.0135555
830.458	0.0135023
830.537	0.0135032
830.615	0.0134772
830.693	0.0135188
830.771	0.0133771
830.849	0.0135166
830.927	0.0135594
831.005	0.0135518
831.083	0.0135311
831.162	0.0137202
831.240	0.0135101
831.318	0.0136536
831.396	0.0135625
831.474	0.0135081
831.552	0.0136525
831.630	0.0137197
831.708	0.0135684
831.787	0.0134643
831.865	0.0136443
831.943	0.0136469
832.021	0.0134988
832.099	0.0135480
832.177	0.0134746
832.255	0.0134380
832.333	0.0133789
832.412	0.0134539
832.490	0.0133389
832.568	0.0132761
832.646	0.0133553
832.724	0.0133672
832.802	0.0134593
832.880	0.0132678
832.958	0.0133543
833.037	0.0134511
833.115	0.0133787
833.193	0.0134233
833.271	0.0133932
833.349	0.0135164
833.427	0.0135471
833.505	0.0134711
833.583	0.0135204
833.662	0.0134596
833.740	0.0134318
833.818	0.0135503
833.896	0.0136408
833.974	0.0135956
834.052	0.0136337
834.130	0.0136769
834.208	0.0136615
834.287	0.0135756
834.365	0.0136704
834.443	0.0138116
834.521	0.0136937
834.599	0.0137285
834.677	0.0137324
834.755	0.0136225
834.833	0.0137444
834.912	0.0136514
834.990	0.0137864
835.068	0.0137079
835.146	0.0136889
835.224	0.0137030
835.302	0.0136819
835.380	0.0136420
835.458	0.0135677
835.537	0.0137504
835.615	0.0137078
835.693	0.0135634
835.771	0.0136345
835.849	0.0136974
835.927	0.0134801
836.005	0.0136185
836.083	0.0136918
836.162	0.0135503
836.240	0.0137854
836.318	0.0136494
836.396	0.0135899
836.474	0.0136871
836.552	0.0137083
836.630	0.0135792
836.708	0.0136565
836.787	0.0135844
836.865	0.0136382
836.943	0.0135526
837.021	0.0135261
837.099	0.0135848
837.177	0.0135426
837.255	0.0136550
837.333	0.0136285
837.412	0.0134873
837.490	0.0134753
837.568	0.0134319
837.646	0.0133286
837.724	0.0134399
837.802	0.0135028
837.880	0.0135542
837.958	0.0135530
838.037	0.0135791
838.115	0.0134718
838.193	0.0134769
838.271	0.0135695
838.349	0.0136604
838.427	0.0135949
838.505	0.0135674
838.583	0.0135701
838.662	0.0136061
838.740	0.0135777
838.818	0.0135968
838.896	0.0135715
838.974	0.0135812
839.052	0.0134534
839.130	0.0134955
839.208	0.0137420
839.287	0.0136810
839.365	0.0137074
839.443	0.0135965
839.521	0.0135062
839.599	0.0136650
839.677	0.0135812
839.755	0.0137010
839.833	0.0137797
839.912	0.0137338
839.990	0.0136221
840.068	0.0137070
840.146	0.0138863
840.224	0.0138078
840.302	0.0138553
840.380	0.0137762
840.458	0.0137307
840.537	0.0136746
840.615	0.0136555
840.693	0.0137425
840.771	0.0136665
840.849	0.0137808
840.927	0.0135484
841.005	0.0135676
841.083	0.0137257
841.162	0.0135503
841.240	0.0136143
841.318	0.0137035
841.396	0.0136149
841.474	0.0135772
841.552	0.0134750
841.630	0.0135996
841.708	0.0134629
841.787	0.0134502
841.865	0.0135339
841.943	0.0136673
842.021	0.0136715
842.099	0.0137353
842.177	0.0137402
842.255	0.0135764
842.333	0.0137389
842.412	0.0137341
842.490	0.0137856
842.568	0.0137117
842.646	0.0137802
842.724	0.0138718
842.802	0.0137952
842.880	0.0138422
842.958	0.0138013
843.037	0.0137326
843.115	0.0136202
843.193	0.0137164
843.271	0.0135485
843.349	0.0136967
843.427	0.0137068
843.505	0.0136682
843.583	0.0135635
843.662	0.0134533
843.740	0.0134019
843.818	0.0133953
843.896	0.0133642
843.974	0.0133918
844.052	0.0134477
844.130	0.0134519
844.208	0.0133298
844.287	0.0133705
844.365	0.0134099
844.443	0.0132453
844.521	0.0134057
844.599	0.0134962
844.677	0.0134323
844.755	0.0135000
844.833	0.0135410
844.912	0.0136040
844.990	0.0136181
845.068	0.0135030
845.146	0.0135517
845.224	0.0137702
845.302	0.0136608
845.380	0.0135377
845.458	0.0134814
845.537	0.0137418
845.615	0.0136359
845.693	0.0136230
845.771	0.0136177
845.849	0.0136107
845.927	0.0135455
846.005	0.0135982
846.083	0.0135475
846.162	0.0135152
846.240	0.0133749
846.318	0.0133178
846.396	0.0135360
846.474	0.0135833
846.552	0.0135539
846.630	0.0135364
846.708	0.0136153
846.787	0.0135619
846.865	0.0134908
846.943	0.0136906
847.021	0.0136060
847.099	0.0135366
847.177	0.0137929
847.255	0.0135320
847.333	0.0135939
847.412	0.0137234
847.490	0.0136565
847.568	0.0137950
847.646	0.0136198
847.724	0.0137429
847.802	0.0137281
847.880	0.0137086
847.958	0.0135889
848.037	0.0135522
848.115	0.0137714
848.193	0.0136544
848.271	0.0135183
848.349	0.0135708
848.427	0.0134728
848.505	0.0133989
848.583	0.0134184
848.662	0.0134193
848.740	0.0135577
848.818	0.0135283
848.896	0.0133919
848.974	0.0132790
849.052	0.0134488
849.130	0.0133450
849.208	0.0134725
849.287	0.0133222
849.365	0.0133016
849.443	0.0135185
849.521	0.0135371
849.599	0.0133636
849.677	0.0133688
849.755	0.0134022
849.833	0.0133948
849.912	0.0135333
849.990	0.0133489
850.068	0.0136115
850.146	0.0134806
850.224	0.0135467
850.302	0.0135786
850.380	0.0133108
850.458	0.0133176
850.537	0.0134690
850.615	0.0134661
850.693	0.0134709
850.771	0.0135587
850.849	0.0134679
850.927	0.0135557
851.005	0.0135493
851.083	0.0134992
851.162	0.0134786
851.240	0.0134917
851.318	0.0135062
851.396	0.0134770
851.474	0.0134889
851.552	0.0135525
851.630	0.0134808
851.708	0.0136797
851.787	0.0136707
851.865	0.0137069
851.943	0.0135979
852.021	0.0135774
852.099	0.0136691
852.177	0.0135912
852.255	0.0134801
852.333	0.0135381
852.412	0.0136330
852.490	0.0134676
852.568	0.0137237
852.646	0.0136447
852.724	0.0136260
852.802	0.0135812
852.880	0.0135679
852.958	0.0134461
853.037	0.0133808
853.115	0.0135233
853.193	0.0134341
853.271	0.0132701
853.349	0.0134097
853.427	0.0133561
853.505	0.0134191
853.583	0.0135745
853.662	0.0134370
853.740	0.0134714
853.818	0.0133839
853.896	0.0134836
853.974	0.0134552
854.052	0.0134160
854.130	0.0135003
854.208	0.0134074
854.287	0.0135815
854.365	0.0134521
854.443	0.0134431
854.521	0.0135104
854.599	0.0135130
854.677	0.0134615
854.755	0.0135513
854.833	0.0136707
854.912	0.0135572
854.990	0.0136137
855.068	0.0136794
855.146	0.0137498
855.224	0.0136816
855.302	0.0136477
855.380	0.0136316
855.458	0.0136940
855.537	0.0137037
855.615	0.0136945
855.693	0.0136050
855.771	0.0138640
855.849	0.0137278
855.927	0.0136768
856.005	0.0136957
856.083	0.0135844
856.162	0.0135451
856.240	0.0135104
856.318	0.0136292
856.396	0.0136065
856.474	0.0135576
856.552	0.0134171
856.630	0.0133716
856.708	0.0133977
856.787	0.0134628
856.865	0.0133111
856.943	0.0133652
857.021	0.0133304
857.099	0.0132753
857.177	0.0133466
857.255	0.0133206
857.333	0.0135736
857.412	0.0135358
857.490	0.0135062
857.568	0.0135599
857.646	0.0135429
857.724	0.0136340
857.802	0.0137537
857.880	0.0137376
857.958	0.0138671
858.037	0.0138592
858.115	0.0139202
858.193	0.0137949
858.271	0.0138055
858.349	0.0138686
858.427	0.0140197
858.505	0.0138894
858.583	0.0138240
858.662	0.0137653
858.740	0.0136372
858.818	0.0135480
858.896	0.0135595
858.974	0.0133895
859.052	0.0134162
859.130	0.0135299
859.208	0.0134623
859.287	0.0133226
859.365	0.0134388
859.443	0.0133073
859.521	0.0131783
859.599	0.0132578
859.677	0.0132635
859.755	0.0133641
859.833	0.0132219
859.912	0.0133389
859.990	0.0134235
860.068	0.0133551
860.146	0.0135070
860.224	0.0136795
860.302	0.0137557
860.380	0.0137606
860.458	0.0136633
860.537	0.0136831
860.615	0.0138197
860.693	0.0137298
860.771	0.0138197
860.849	0.0139401
860.927	0.0138329
861.005	0.0140403
861.083	0.0139695
861.162	0.0138939
861.240	0.0140483
861.318	0.0138520
861.396	0.0139359
861.474	0.0139428
861.552	0.0139443
861.630	0.0138982
861.708	0.0138290
861.787	0.0137827
861.865	0.0136662
861.943	0.0137008
862.021	0.0136329
862.099	0.0136227
862.177	0.0136859
862.255	0.0137096
862.333	0.0137730
862.412	0.0136700
862.490	0.0136874
862.568	0.0136582
862.646	0.0137196
862.724	0.0135690
862.802	0.0136278
862.880	0.0136275
862.958	0.0135906
863.037	0.0135491
863.115	0.0136009
863.193	0.0135772
863.271	0.0134828
863.349	0.0135969
863.427	0.0136307
863.505	0.0136966
863.583	0.0136928
863.662	0.0136426
863.740	0.0137386
863.818	0.0137202
863.896	0.0137965
863.974	0.0135593
864.052	0.0137040
864.130	0.0136591
864.208	0.0136372
864.287	0.0137164
864.365	0.0135798
864.443	0.0135500
864.521	0.0136398
864.599	0.0135469
864.677	0.0133776
864.755	0.0134410
864.833	0.0134769
864.912	0.0135375
864.990	0.0134939
865.068	0.0136633
865.146	0.0135820
865.224	0.0135719
865.302	0.0135584
865.380	0.0135282
865.458	0.0136043
865.537	0.0135608
865.615	0.0137103
865.693	0.0136615
865.771	0.0136443
865.849	0.0135799
865.927	0.0136150
866.005	0.0134932
866.083	0.0135964
866.162	0.0137395
866.240	0.0136108
866.318	0.0135172
866.396	0.0134536
866.474	0.0135797
866.552	0.0134532
866.630	0.0133910
866.708	0.0134324
866.787	0.0134758
866.865	0.0134219
866.943	0.0133981
867.021	0.0135453
867.099	0.0134430
867.177	0.0133283
867.255	0.0133265
867.333	0.0133016
867.412	0.0134837
867.490	0.0132401
867.568	0.0133630
867.646	0.0132949
867.724	0.0131731
867.802	0.0132186
867.880	0.0133467
867.958	0.0133842
868.037	0.0130994
868.115	0.0133891
868.193	0.0134647
868.271	0.0134901
868.349	0.0135344
868.427	0.0135075
868.505	0.0137772
868.583	0.0136780
868.662	0.0137645
868.740	0.0137897
868.818	0.0139042
868.896	0.0139878
868.974	0.0138976
869.052	0.0139864
869.130	0.0138284
869.208	0.0140467
869.287	0.0139566
869.365	0.0139484
869.443	0.0138510
869.521	0.0139137
869.599	0.0137565
869.677	0.0138203
869.755	0.0137203
869.833	0.0135756
869.912	0.0137326
869.990	0.0134267
870.068	0.0133538
870.146	0.0134187
870.224	0.0132759
870.302	0.0130746
870.380	0.0130575
870.458	0.0130856
870.537	0.0130942
870.615	0.0131553
870.693	0.0129992
870.771	0.0129890
870.849	0.0130780
870.927	0.0130754
871.005	0.0131882
871.083	0.0132623
871.162	0.0130636
871.240	0.0132787
871.318	0.0131939
871.396	0.0133540
871.474	0.0134959
871.552	0.0134454
871.630	0.0133691
871.708	0.0134814
871.787	0.0137625
871.865	0.0136883
871.943	0.0137077
872.021	0.0136718
872.099	0.0135563
872.177	0.0136063
872.255	0.0137089
872.333	0.0136856
872.412	0.0136831
872.490	0.0136142
872.568	0.0136836
872.646	0.0136663
872.724	0.0135805
872.802	0.0137305
872.880	0.0136384
872.958	0.0136599
873.037	0.0136379
873.115	0.0136497
873.193	0.0137031
873.271	0.0135516
873.349	0.0137178
873.427	0.0137802
873.505	0.0136871
873.583	0.0136694
873.662	0.0136408
873.740	0.0136433
873.818	0.0134983
873.896	0.0134822
873.974	0.0135361
874.052	0.0135645
874.130	0.0133312
874.208	0.0135522
874.287	0.0135610
874.365	0.0134766
874.443	0.0135534
874.521	0.0137473
874.599	0.0134126
874.677	0.0137253
874.755	0.0136525
874.833	0.0134660
874.912	0.0134853
874.990	0.0135334
875.068	0.0135733
875.146	0.0135198
875.224	0.0135430
875.302	0.0135115
875.380	0.0134844
875.458	0.0135966
875.537	0.0136043
875.615	0.0134525
875.693	0.0134740
875.771	0.0134290
875.849	0.0134977
875.927	0.0134751
876.005	0.0135986
876.083	0.0135917
876.162	0.0134663
876.240	0.0135208
876.318	0.0135465
876.396	0.0135686
876.474	0.0134048
876.552	0.0134716
876.630	0.0135497
876.708	0.0135206
876.787	0.0134565
876.865	0.0135558
876.943	0.0136830
877.021	0.0135965
877.099	0.0136204
877.177	0.0135812
877.255	0.0136803
877.333	0.0136840
877.412	0.0135757
877.490	0.0136121
877.568	0.0136622
877.646	0.0136549
877.724	0.0135910
877.802	0.0135825
877.880	0.0136324
877.958	0.0134954
878.037	0.0134485
878.115	0.0136489
878.193	0.0136224
878.271	0.0134923
878.349	0.0135532
878.427	0.0134274
878.505	0.0135168
878.583	0.0133966
878.662	0.0133862
878.740	0.0134674
878.818	0.0133675
878.896	0.0133955
878.974	0.0133537
879.052	0.0134476
879.130	0.0134872
879.208	0.0135916
879.287	0.0135108
879.365	0.0135477
879.443	0.0137186
879.521	0.0135271
879.599	0.0135156
879.677	0.0136133
879.755	0.0135887
879.833	0.0136066
879.912	0.0135319
879.990	0.0136108
880.068	0.0136589
880.146	0.0135136
880.224	0.0134163
880.302	0.0135933
880.380	0.0134811
880.458	0.0134013
880.537	0.0134512
880.615	0.0135477
880.693	0.0134447
880.771	0.0133263
880.849	0.0135429
880.927	0.0135590
881.005	0.0134077
881.083	0.0133710
881.162	0.0133607
881.240	0.0134387
881.318	0.0135500
881.396	0.0135483
881.474	0.0133998
881.552	0.0135130
881.630	0.0134480
881.708	0.0134943
881.787	0.0136114
881.865	0.0134740
881.943	0.0135184
882.021	0.0136617
882.099	0.0136932
882.177	0.0136011
882.255	0.0137627
882.333	0.0136462
882.412	0.0135957
882.490	0.0136958
882.568	0.0136718
882.646	0.0137301
882.724	0.0136212
882.802	0.0136942
882.880	0.0135658
882.958	0.0135397
883.037	0.0135390
883.115	0.0134570
883.193	0.0134721
883.271	0.0134692
883.349	0.0132856
883.427	0.0134346
883.505	0.0134875
883.583	0.0134315
883.662	0.0134705
883.740	0.0134843
883.818	0.0134045
883.896	0.0135368
883.974	0.0135509
884.052	0.0136242
884.130	0.0134452
884.208	0.0134312
884.287	0.0135796
884.365	0.0135799
884.443	0.0136055
884.521	0.0135907
884.599	0.0136656
884.677	0.0135726
884.755	0.0137254
884.833	0.0137183
884.912	0.0136336
884.990	0.0137111
885.068	0.0136932
885.146	0.0136939
885.224	0.0136870
885.302	0.0135561
885.380	0.0135365
885.458	0.0136290
885.537	0.0136694
885.615	0.0134927
885.693	0.0135789
885.771	0.0135647
885.849	0.0135413
885.927	0.0136243
886.005	0.0136776
886.083	0.0136311
886.162	0.0135480
886.240	0.0136261
886.318	0.0135937
886.396	0.0136312
886.474	0.0136761
886.552	0.0136335
886.630	0.0135299
886.708	0.0133831
886.787	0.0134456
886.865	0.0135143
886.943	0.0135510
887.021	0.0134913
887.099	0.0135648
887.177	0.0135478
887.255	0.0136140
887.333	0.0136408
887.412	0.0135831
887.490	0.0137292
887.568	0.0135343
887.646	0.0135001
887.724	0.0136169
887.802	0.0136245
887.880	0.0136585
887.958	0.0134483
888.037	0.0133997
888.115	0.0134779
888.193	0.0134405
888.271	0.0135003
888.349	0.0134743
888.427	0.0135130
888.505	0.0134956
888.583	0.0134203
888.662	0.0135249
888.740	0.0134802
888.818	0.0135877
888.896	0.0134109
888.974	0.0136109
889.052	0.0135921
889.130	0.0134781
889.208	0.0135399
889.287	0.0137198
889.365	0.0137657
889.443	0.0137011
889.521	0.0138029
889.599	0.0136819
889.677	0.0138621
889.755	0.0139180
889.833	0.0138885
889.912	0.0139098
889.990	0.0139437
890.068	0.0138744
890.146	0.0138387
890.224	0.0138031
890.302	0.0137042
890.380	0.0136867
890.458	0.0136095
890.537	0.0136267
890.615	0.0134895
890.693	0.0134753
890.771	0.0134264
890.849	0.0132976
890.927	0.0133723
891.005	0.0134755
891.083	0.0133720
891.162	0.0131579
891.240	0.0131453
891.318	0.0133053
891.396	0.0133232
891.474	0.0132060
891.552	0.0131451
891.630	0.0130824
891.708	0.0131504
891.787	0.0132144
891.865	0.0131276
891.943	0.0131042
892.021	0.0131212
892.099	0.0131384
892.177	0.0132784
892.255	0.0132687
892.333	0.0134077
892.412	0.0134110
892.490	0.0133786
892.568	0.0135947
892.646	0.0135600
892.724	0.0136032
892.802	0.0137186
892.880	0.0137315
892.958	0.0137842
893.037	0.0136637
893.115	0.0137186
893.193	0.0138110
893.271	0.0137390
893.349	0.0137608
893.427	0.0138461
893.505	0.0137279
893.583	0.0136786
893.662	0.0136037
893.740	0.0136491
893.818	0.0136573
893.896	0.0136819
893.974	0.0137788
894.052	0.0138593
894.130	0.0137145
894.208	0.0136308
894.287	0.0137164
894.365	0.0137183
894.443	0.0136163
894.521	0.0135197
894.599	0.0134920
894.677	0.0134883
894.755	0.0136669
894.833	0.0134482
894.912	0.0134589
894.990	0.0135984
895.068	0.0134856
895.146	0.0134124
895.224	0.0134712
895.302	0.0134505
895.380	0.0135545
895.458	0.0135489
895.537	0.0136152
895.615	0.0135099
895.693	0.0134844
895.771	0.0136661
895.849	0.0134660
895.927	0.0133206
896.005	0.0135880
896.083	0.0135910
896.162	0.0135050
896.240	0.0135554
896.318	0.0135121
896.396	0.0135809
896.474	0.0134283
896.552	0.0134992
896.630	0.0135721
896.708	0.0134557
896.787	0.0135246
896.865	0.0134579
896.943	0.0135502
897.021	0.0133976
897.099	0.0135181
897.177	0.0134059
897.255	0.0133538
897.333	0.0134480
897.412	0.0134378
897.490	0.0133215
897.568	0.0132414
897.646	0.0133167
897.724	0.0133267
897.802	0.0133959
897.880	0.0132142
897.958	0.0132962
898.037	0.0132964
898.115	0.0134551
898.193	0.0134091
898.271	0.0134403
898.349	0.0134270
898.427	0.0134648
898.505	0.0132386
898.583	0.0134190
898.662	0.0134791
898.740	0.0133752
898.818	0.0135221
898.896	0.0135410
898.974	0.0135822
899.052	0.0136359
899.130	0.0135136
899.208	0.0136124
899.287	0.0135024
899.365	0.0136852
899.443	0.0137194
899.521	0.0136303
899.599	0.0137164
899.677	0.0137218
899.755	0.0137239
899.833	0.0137147
899.912	0.0137390
899.990	0.0138506
900.068	0.0137397
900.146	0.0136877
900.224	0.0138287
900.302	0.0137751
900.380	0.0136615
900.458	0.0135604
900.537	0.0135268
900.615	0.0135382
900.693	0.0135027
900.771	0.0136095
900.849	0.0136501
900.927	0.0136536
901.005	0.0135289
901.083	0.0133633
901.162	0.0134103
901.240	0.0135693
901.318	0.0134937
901.396	0.0133227
901.474	0.0134550
901.552	0.0133485
901.630	0.0132630
901.708	0.0133214
901.787	0.0133889
901.865	0.0133192
901.943	0.0132201
902.021	0.0133733
902.099	0.0134586
902.177	0.0134003
902.255	0.0134149
902.333	0.0133603
902.412	0.0132817
902.490	0.0133597
902.568	0.0133799
902.646	0.0133847
902.724	0.0134238
902.802	0.0134196
902.880	0.0134756
902.958	0.0135908
903.037	0.0135062
903.115	0.0135463
903.193	0.0135780
903.271	0.0136265
903.349	0.0136463
903.427	0.0135146
903.505	0.0135051
903.583	0.0137323
903.662	0.0135628
903.740	0.0135238
903.818	0.0136967
903.896	0.0136646
903.974	0.0137210
904.052	0.0135703
904.130	0.0136073
904.208	0.0136015
904.287	0.0136559
904.365	0.0137067
904.443	0.0135330
904.521	0.0136418
904.599	0.0137045
904.677	0.0137189
904.755	0.0136254
904.833	0.0137483
904.912	0.0135161
904.990	0.0135340
905.068	0.0135427
905.146	0.0135432
905.224	0.0134969
905.302	0.0135754
905.380	0.0134352
905.458	0.0133642
905.537	0.0134344
905.615	0.0133113
905.693	0.0134296
905.771	0.0134750
905.849	0.0134053
905.927	0.0133492
906.005	0.0133352
906.083	0.0133862
906.162	0.0133459
906.240	0.0133972
906.318	0.0133967
906.396	0.0133982
906.474	0.0133681
906.552	0.0134668
906.630	0.0134454
906.708	0.0134657
906.787	0.0134070
906.865	0.0134684
906.943	0.0133383
907.021	0.0135461
907.099	0.0134476
907.177	0.0135220
907.255	0.0135043
907.333	0.0135455
907.412	0.0135610
907.490	0.0135348
907.568	0.0135254
907.646	0.0134390
907.724	0.0135786
907.802	0.0135365
907.880	0.0134542
907.958	0.0133372
908.037	0.0134863
908.115	0.0134937
908.193	0.0135986
908.271	0.0134859
908.349	0.0131850
908.427	0.0133335
908.505	0.0134486
908.583	0.0135976
908.662	0.0134267
908.740	0.0134218
908.818	0.0133068
908.896	0.0136063
908.974	0.0133408
909.052	0.0134491
909.130	0.0135530
909.208	0.0134782
909.287	0.0134569
909.365	0.0134833
909.443	0.0134377
909.521	0.0132985
909.599	0.0134780
909.677	0.0135314
909.755	0.0134679
909.833	0.0135396
909.912	0.0133088
909.990	0.0134634
910.068	0.0134467
910.146	0.0134427
910.224	0.0135278
910.302	0.0135125
910.380	0.0135487
910.458	0.0135114
910.537	0.0136250
910.615	0.0135808
910.693	0.0136978
910.771	0.0137411
910.849	0.0137572
910.927	0.0137054
911.005	0.0136509
911.083	0.0136972
911.162	0.0138319
911.240	0.0137167
911.318	0.0138023
911.396	0.0138186
911.474	0.0139149
911.552	0.0138043
911.630	0.0137766
911.708	0.0137725
911.787	0.0137378
911.865	0.0137682
911.943	0.0138290
912.021	0.0137907
912.099	0.0137253
912.177	0.0137944
912.255	0.0138064
912.333	0.0137414
912.412	0.0137035
912.490	0.0136347
912.568	0.0135080
912.646	0.0134464
912.724	0.0135549
912.802	0.0134296
912.880	0.0135195
912.958	0.0135027
913.037	0.0134982
913.115	0.0133643
913.193	0.0134763
913.271	0.0134551
913.349	0.0134502
913.427	0.0133871
913.505	0.0134145
913.583	0.0132661
913.662	0.0134191
913.740	0.0133666
913.818	0.0133392
913.896	0.0133287
913.974	0.0133315
914.052	0.0133579
914.130	0.0134811
914.208	0.0134248
914.287	0.0133591
914.365	0.0134059
914.443	0.0133694
914.521	0.0134131
914.599	0.0135567
914.677	0.0135696
914.755	0.0135277
914.833	0.0136348
914.912	0.0135866
914.990	0.0134241
915.068	0.0136613
915.146	0.0137152
915.224	0.0136443
915.302	0.0135434
915.380	0.0137119
915.458	0.0135883
915.537	0.0135132
915.615	0.0136392
915.693	0.0137057
915.771	0.0137749
915.849	0.0138551
915.927	0.0136069
916.005	0.0136657
916.083	0.0137595
916.162	0.0137664
916.240	0.0137997
916.318	0.0137074
916.396	0.0137129
916.474	0.0138187
916.552	0.0137903
916.630	0.0136742
916.708	0.0136708
916.787	0.0136469
916.865	0.0136673
916.943	0.0136855
917.021	0.0135812
917.099	0.0135590
917.177	0.0135075
917.255	0.0137390
917.333	0.0136861
917.412	0.0135869
917.490	0.0135953
917.568	0.0136246
917.646	0.0135863
917.724	0.0135806
917.802	0.0136185
917.880	0.0136623
917.958	0.0135809
918.037	0.0137385
918.115	0.0135759
918.193	0.0135850
918.271	0.0134515
918.349	0.0134650
918.427	0.0136379
918.505	0.0135910
918.583	0.0135910
918.662	0.0137531
918.740	0.0134581
918.818	0.0134423
918.896	0.0134686
918.974	0.0135860
919.052	0.0137547
919.130	0.0137052
919.208	0.0136817
919.287	0.0135190
919.365	0.0134454
919.443	0.0134068
919.521	0.0135667
919.599	0.0137515
919.677	0.0135489
919.755	0.0136597
919.833	0.0135710
919.912	0.0136816
919.990	0.0134460
920.068	0.0133826
920.146	0.0134395
920.224	0.0135605
920.302	0.0135180
920.380	0.0133700
920.458	0.0134183
920.537	0.0134970
920.615	0.0134279
920.693	0.0133909
920.771	0.0133209
920.849	0.0135491
920.927	0.0135511
921.005	0.0133712
921.083	0.0135677
921.162	0.0135320
921.240	0.0134142
921.318	0.0134502
921.396	0.0135695
921.474	0.0136136
921.552	0.0135707
921.630	0.0135586
921.708	0.0137843
921.787	0.0137796
921.865	0.0136552
921.943	0.0137502
922.021	0.0138750
922.099	0.0137897
922.177	0.0137669
922.255	0.0138194
922.333	0.0137856
922.412	0.0138437
922.490	0.0139005
922.568	0.0138445
922.646	0.0136709
922.724	0.0138052
922.802	0.0138096
922.880	0.0138273
922.958	0.0136625
923.037	0.0137831
923.115	0.0136950
923.193	0.0135983
923.271	0.0134113
923.349	0.0134365
923.427	0.0135126
923.505	0.0134304
923.583	0.0134475
923.662	0.0134221
923.740	0.0133768
923.818	0.0132860
923.896	0.0133295
923.974	0.0133781
924.052	0.0133858
924.130	0.0133678
924.208	0.0134786
924.287	0.0132630
924.365	0.0133882
924.443	0.0134827
924.521	0.0135162
924.599	0.0134797
924.677	0.0137102
924.755	0.0135320
924.833	0.0134357
924.912	0.0136356
924.990	0.0135932
925.068	0.0136210
925.146	0.0135871
925.224	0.0137117
925.302	0.0137232
925.380	0.0137371
925.458	0.0137122
925.537	0.0136447
925.615	0.0136082
925.693	0.0136418
925.771	0.0136687
925.849	0.0136889
925.927	0.0135696
926.005	0.0136443
926.083	0.0135756
926.162	0.0135196
926.240	0.0133986
926.318	0.0134509
926.396	0.0134535
926.474	0.0132346
926.552	0.0132957
926.630	0.0134768
926.708	0.0134380
926.787	0.0134242
926.865	0.0134221
926.943	0.0135370
927.021	0.0135040
927.099	0.0134568
927.177	0.0136702
927.255	0.0137264
927.333	0.0136362
927.412	0.0137060
927.490	0.0136977
927.568	0.0136222
927.646	0.0136604
927.724	0.0137809
927.802	0.0138037
927.880	0.0137462
927.958	0.0137357
928.037	0.0135157
928.115	0.0137024
928.193	0.0137204
928.271	0.0138130
928.349	0.0137891
928.427	0.0137476
928.505	0.0137531
928.583	0.0138033
928.662	0.0136678
928.740	0.0135976
928.818	0.0136646
928.896	0.0136787
928.974	0.0135287
929.052	0.0134685
929.130	0.0135329
929.208	0.0135123
929.287	0.0133974
929.365	0.0133237
929.443	0.0135135
929.521	0.0133434
929.599	0.0133972
929.677	0.0133495
929.755	0.0133373
929.833	0.0132674
929.912	0.0133751
929.990	0.0133243
930.068	0.0133628
930.146	0.0133238
930.224	0.0131775
930.302	0.0133698
930.380	0.0134819
930.458	0.0133285
930.537	0.0132607
930.615	0.0132955
930.693	0.0133881
930.771	0.0134833
930.849	0.0134538
930.927	0.0135096
931.005	0.0133688
931.083	0.0134909
931.162	0.0135314
931.240	0.0136094
931.318	0.0134345
931.396	0.0135658
931.474	0.0135133
931.552	0.0134592
931.630	0.0135519
931.708	0.0135500
931.787	0.0135089
931.865	0.0133053
931.943	0.0132798
932.021	0.0134093
932.099	0.0133671
932.177	0.0133614
932.255	0.0135096
932.333	0.0134418
932.412	0.0134626
932.490	0.0133850
932.568	0.0135788
932.646	0.0135997
932.724	0.0136338
932.802	0.0137156
932.880	0.0136076
932.958	0.0135531
933.037	0.0136197
933.115	0.0135581
933.193	0.0138149
933.271	0.0137698
933.349	0.0135027
933.427	0.0136096
933.505	0.0136291
933.583	0.0136456
933.662	0.0136922
933.740	0.0136175
933.818	0.0135471
933.896	0.0135667
933.974	0.0136689
934.052	0.0135325
934.130	0.0134507
934.208	0.0135601
934.287	0.0134621
934.365	0.0135275
934.443	0.0135076
934.521	0.0135227
934.599	0.0135277
934.677	0.0134428
934.755	0.0135493
934.833	0.0135213
934.912	0.0135330
934.990	0.0135296
935.068	0.0135439
935.146	0.0135715
935.224	0.0136585
935.302	0.0136091
935.380	0.0135664
935.458	0.0136040
935.537	0.0136700
935.615	0.0137505
935.693	0.0136064
935.771	0.0136105
935.849	0.0135819
935.927	0.0135785
936.005	0.0135593
936.083	0.0136528
936.162	0.0136614
936.240	0.0136191
936.318	0.0136945
936.396	0.0135886
936.474	0.0135812
936.552	0.0135223
936.630	0.0135072
936.708	0.0135079
936.787	0.0136129
936.865	0.0134451
936.943	0.0134476
937.021	0.0135973
937.099	0.0134585
937.177	0.0135702
937.255	0.0134608
937.333	0.0135025
937.412	0.0135886
937.490	0.0135687
937.568	0.0135406
937.646	0.0134710
937.724	0.0134934
937.802	0.0135667
937.880	0.0136778
937.958	0.0134904
938.037	0.0134156
938.115	0.0135934
938.193	0.0135253
938.271	0.0135653
938.349	0.0133566
938.427	0.0133490
938.505	0.0134335
938.583	0.0133630
938.662	0.0134107
938.740	0.0133273
938.818	0.0133826
938.896	0.0134925
938.974	0.0134925
939.052	0.0134669
939.130	0.0135294
939.208	0.0135780
939.287	0.0136866
939.365	0.0136846
939.443	0.0137672
939.521	0.0136964
939.599	0.0135950
939.677	0.0137610
939.755	0.0136320
939.833	0.0137115
939.912	0.0137693
939.990	0.0139835
940.068	0.0139896
940.146	0.0137187
940.224	0.0138351
940.302	0.0139326
940.380	0.0138287
940.458	0.0137907
940.537	0.0138364
940.615	0.0138422
940.693	0.0138337
940.771	0.0137837
940.849	0.0137337
940.927	0.0137254
941.005	0.0137764
941.083	0.0137479
941.162	0.0135622
941.240	0.0134960
941.318	0.0135582
941.396	0.0134351
941.474	0.0134952
941.552	0.0133823
941.630	0.0135004
941.708	0.0135152
941.787	0.0134194
941.865	0.0134517
941.943	0.0134999
942.021	0.0134449
942.099	0.0134730
942.177	0.0135299
942.255	0.0133808
942.333	0.0134188
942.412	0.0135403
942.490	0.0135165
942.568	0.0134953
942.646	0.0136926
942.724	0.0136517
942.802	0.0136295
942.880	0.0136514
942.958	0.0135847
943.037	0.0136427
943.115	0.0136504
943.193	0.0136861
943.271	0.0137894
943.349	0.0136908
943.427	0.0136437
943.505	0.0137846
943.583	0.0136164
943.662	0.0135459
943.740	0.0136239
943.818	0.0135311
943.896	0.0135255
943.974	0.0136155
944.052	0.0134637
944.130	0.0135420
944.208	0.0135188
944.287	0.0135156
944.365	0.0133569
944.443	0.0133964
944.521	0.0134727
944.599	0.0134565
944.677	0.0132942
944.755	0.0134492
944.833	0.0133887
944.912	0.0135389
944.990	0.0135579
945.068	0.0135496
945.146	0.0134836
945.224	0.0134657
945.302	0.0135196
945.380	0.0134779
945.458	0.0135974
945.537	0.0137084
945.615	0.0134531
945.693	0.0134065
945.771	0.0135772
945.849	0.0136308
945.927	0.0134032
946.005	0.0135504
946.083	0.0135242
946.162	0.0135058
946.240	0.0136065
946.318	0.0134098
946.396	0.0134880
946.474	0.0135847
946.552	0.0136420
946.630	0.0136547
946.708	0.0136469
946.787	0.0137189
946.865	0.0136872
946.943	0.0136602
947.021	0.0136597
947.099	0.0136510
947.177	0.0136342
947.255	0.0135619
947.333	0.0136404
947.412	0.0135640
947.490	0.0134467
947.568	0.0136005
947.646	0.0136348
947.724	0.0135638
947.802	0.0136066
947.880	0.0136215
947.958	0.0135724
948.037	0.0136150
948.115	0.0136047
948.193	0.0135516
948.271	0.0135889
948.349	0.0137029
948.427	0.0136248
948.505	0.0136210
948.583	0.0135352
948.662	0.0135115
948.740	0.0135545
948.818	0.0134623
948.896	0.0134159
948.974	0.0135336
949.052	0.0134559
949.130	0.0136808
949.208	0.0135415
949.287	0.0133250
949.365	0.0134938
949.443	0.0135011
949.521	0.0134749
949.599	0.0134512
949.677	0.0134609
949.755	0.0134123
949.833	0.0133442
949.912	0.0134377
949.990	0.0134165
950.068	0.0133565
950.146	0.0132502
950.224	0.0134380
950.302	0.0133702
950.380	0.0133771
950.458	0.0133279
950.537	0.0132977
950.615	0.0134815
950.693	0.0135259
950.771	0.0136896
950.849	0.0135009
950.927	0.0135617
951.005	0.0136623
951.083	0.0135757
951.162	0.0136689
951.240	0.0136636
951.318	0.0136134
951.396	0.0136861
951.474	0.0136283
951.552	0.0135919
951.630	0.0136448
951.708	0.0137243
951.787	0.0136404
951.865	0.0136347
951.943	0.0136950
952.021	0.0136643
952.099	0.0135829
952.177	0.0136716
952.255	0.0134904
952.333	0.0135035
952.412	0.0136917
952.490	0.0136443
952.568	0.0136091
952.646	0.0134475
952.724	0.0136398
952.802	0.0136259
952.880	0.0134991
952.958	0.0134273
953.037	0.0134592
953.115	0.0134435
953.193	0.0134905
953.271	0.0134867
953.349	0.0134393
953.427	0.0134041
953.505	0.0133440
953.583	0.0132391
953.662	0.0133568
953.740	0.0133325
953.818	0.0133868
953.896	0.0133331
953.974	0.0133662
954.052	0.0133495
954.130	0.0134711
954.208	0.0134216
954.287	0.0135175
954.365	0.0133913
954.443	0.0135429
954.521	0.0136024
954.599	0.0135995
954.677	0.0135696
954.755	0.0135171
954.833	0.0135759
954.912	0.0133853
954.990	0.0134528
955.068	0.0135590
955.146	0.0134245
955.224	0.0135561
955.302	0.0135297
955.380	0.0133791
955.458	0.0133953
955.537	0.0134806
955.615	0.0135850
955.693	0.0135449
955.771	0.0136181
955.849	0.0136275
955.927	0.0135743
956.005	0.0135201
956.083	0.0135078
956.162	0.0136143
956.240	0.0135065
956.318	0.0137207
956.396	0.0135911
956.474	0.0135835
956.552	0.0135645
956.630	0.0136008
956.708	0.0136189
956.787	0.0135049
956.865	0.0135619
956.943	0.0135734
957.021	0.0135905
957.099	0.0135040
957.177	0.0134656
957.255	0.0134174
957.333	0.0133463
957.412	0.0134740
957.490	0.0134357
957.568	0.0134529
957.646	0.0134447
957.724	0.0133718
957.802	0.0134633
957.880	0.0133714
957.958	0.0135059
958.037	0.0135359
958.115	0.0135715
958.193	0.0135735
958.271	0.0135574
958.349	0.0134984
958.427	0.0134589
958.505	0.0136077
958.583	0.0135006
958.662	0.0136111
958.740	0.0136970
958.818	0.0135898
958.896	0.0134290
958.974	0.0136261
959.052	0.0135876
959.130	0.0135783
959.208	0.0136154
959.287	0.0135452
959.365	0.0136381
959.443	0.0136356
959.521	0.0135748
959.599	0.0135745
959.677	0.0133926
959.755	0.0136016
959.833	0.0134986
959.912	0.0133507
959.990	0.0135944
960.068	0.0135083
960.146	0.0133852
960.224	0.0133032
960.302	0.0134149
960.380	0.0134671
960.458	0.0135046
960.537	0.0134728
960.615	0.0134027
960.693	0.0133748
960.771	0.0134286
960.849	0.0135129
960.927	0.0134217
961.005	0.0134920
961.083	0.0134431
961.162	0.0135062
961.240	0.0134474
961.318	0.0134270
961.396	0.0133974
961.474	0.0136306
961.552	0.0136713
961.630	0.0134921
961.708	0.0136254
961.787	0.0135759
961.865	0.0137800
961.943	0.0137631
962.021	0.0137016
962.099	0.0137523
962.177	0.0136805
962.255	0.0136687
962.333	0.0136621
962.412	0.0135934
962.490	0.0136718
962.568	0.0137920
962.646	0.0136491
962.724	0.0136475
962.802	0.0135290
962.880	0.0136823
962.958	0.0137260
963.037	0.0136697
963.115	0.0136208
963.193	0.0135658
963.271	0.0136238
963.349	0.0135401
963.427	0.0134910
963.505	0.0134055
963.583	0.0134900
963.662	0.0134893
963.740	0.0134407
963.818	0.0133539
963.896	0.0134138
963.974	0.0132996
964.052	0.0132561
964.130	0.0132524
964.208	0.0133568
964.287	0.0134663
964.365	0.0133923
964.443	0.0134748
964.521	0.0135377
964.599	0.0134239
964.677	0.0136193
964.755	0.0137044
964.833	0.0136647
964.912	0.0136419
964.990	0.0136344
965.068	0.0137944
965.146	0.0136946
965.224	0.0137559
965.302	0.0136612
965.380	0.0135172
965.458	0.0137216
965.537	0.0137894
965.615	0.0136261
965.693	0.0135304
965.771	0.0136148
965.849	0.0135458
965.927	0.0134669
966.005	0.0134248
966.083	0.0133433
966.162	0.0134676
966.240	0.0133570
966.318	0.0133204
966.396	0.0133992
966.474	0.0133543
966.552	0.0133055
966.630	0.0132549
966.708	0.0131992
966.787	0.0134513
966.865	0.0134052
966.943	0.0133566
967.021	0.0135558
967.099	0.0135118
967.177	0.0134618
967.255	0.0133620
967.333	0.0134602
967.412	0.0134982
967.490	0.0135561
967.568	0.0135410
967.646	0.0135937
967.724	0.0136230
967.802	0.0135624
967.880	0.0135012
967.958	0.0136012
968.037	0.0134872
968.115	0.0135403
968.193	0.0136372
968.271	0.0136590
968.349	0.0136403
968.427	0.0136456
968.505	0.0134551
968.583	0.0135687
968.662	0.0136684
968.740	0.0137303
968.818	0.0136226
968.896	0.0133946
968.974	0.0134602
969.052	0.0134686
969.130	0.0136272
969.208	0.0134998
969.287	0.0135487
969.365	0.0136160
969.443	0.0134448
969.521	0.0136012
969.599	0.0135993
969.677	0.0136657
969.755	0.0136903
969.833	0.0136796
969.912	0.0136532
