05/08/2022	19:56:31	Ver.	4.1	UNKNOWN
Optical Delay	649.989667	Delta X		0.078125	Sweeps	1	Scan Rate	0/0
Coordinates	Axis 1	NaN	Axis 2	NaN	Axis 3	NaN	Axis 4	NaN	Axis 5	NaN	Axis 6	0.000000
TX Power	0.000000	RX Power	0.000000

649.990	0.0135122
650.068	0.0134840
650.146	0.0135141
650.224	0.0134534
650.302	0.0134939
650.380	0.0136343
650.458	0.0135960
650.537	0.0135779
650.615	0.0136073
650.693	0.0135249
650.771	0.0135188
650.849	0.0135705
650.927	0.0135452
651.005	0.0135016
651.083	0.0135914
651.162	0.0134354
651.240	0.0135496
651.318	0.0136349
651.396	0.0135522
651.474	0.0134380
651.552	0.0134106
651.630	0.0136684
651.708	0.0136060
651.787	0.0135440
651.865	0.0135342
651.943	0.0135599
652.021	0.0135397
652.099	0.0135665
652.177	0.0135806
652.255	0.0135344
652.333	0.0135350
652.412	0.0134522
652.490	0.0135468
652.568	0.0136212
652.646	0.0135026
652.724	0.0135770
652.802	0.0135213
652.880	0.0136014
652.958	0.0135772
653.037	0.0135558
653.115	0.0135426
653.193	0.0134621
653.271	0.0136295
653.349	0.0133913
653.427	0.0134857
653.505	0.0134726
653.583	0.0134956
653.662	0.0134335
653.740	0.0134525
653.818	0.0135770
653.896	0.0135415
653.974	0.0133286
654.052	0.0133955
654.130	0.0135441
654.208	0.0136581
654.287	0.0135623
654.365	0.0135561
654.443	0.0135562
654.521	0.0135739
654.599	0.0135847
654.677	0.0135680
654.755	0.0136228
654.833	0.0136476
654.912	0.0135082
654.990	0.0135557
655.068	0.0136176
655.146	0.0136832
655.224	0.0135752
655.302	0.0137464
655.380	0.0135506
655.458	0.0135806
655.537	0.0136091
655.615	0.0135749
655.693	0.0135197
655.771	0.0135345
655.849	0.0134716
655.927	0.0134983
656.005	0.0134035
656.083	0.0135213
656.162	0.0133982
656.240	0.0134452
656.318	0.0134153
656.396	0.0133003
656.474	0.0133018
656.552	0.0134175
656.630	0.0133536
656.708	0.0133234
656.787	0.0134543
656.865	0.0134700
656.943	0.0134635
657.021	0.0135653
657.099	0.0135939
657.177	0.0137633
657.255	0.0137276
657.333	0.0139927
657.412	0.0139644
657.490	0.0139941
657.568	0.0140937
657.646	0.0142055
657.724	0.0140999
657.802	0.0140786
657.880	0.0141044
657.958	0.0140218
658.037	0.0137975
658.115	0.0138793
658.193	0.0137903
658.271	0.0137337
658.349	0.0137006
658.427	0.0135334
658.505	0.0133179
658.583	0.0131281
658.662	0.0131369
658.740	0.0131449
658.818	0.0130275
658.896	0.0129352
658.974	0.0128732
659.052	0.0126389
659.130	0.0127025
659.208	0.0127052
659.287	0.0126810
659.365	0.0126107
659.443	0.0126066
659.521	0.0127775
659.599	0.0130608
659.677	0.0132588
659.755	0.0134843
659.833	0.0136155
659.912	0.0139173
659.990	0.0142019
660.068	0.0145738
660.146	0.0147979
660.224	0.0150359
660.302	0.0151513
660.380	0.0152971
660.458	0.0151387
660.537	0.0151057
660.615	0.0150317
660.693	0.0149300
660.771	0.0146133
660.849	0.0145116
660.927	0.0144251
661.005	0.0140417
661.083	0.0137801
661.162	0.0137959
661.240	0.0133649
661.318	0.0132180
661.396	0.0129570
661.474	0.0126870
661.552	0.0125243
661.630	0.0123457
661.708	0.0121241
661.787	0.0118073
661.865	0.0113952
661.943	0.0114034
662.021	0.0114366
662.099	0.0111333
662.177	0.0112209
662.255	0.0113704
662.333	0.0115163
662.412	0.0117687
662.490	0.0121468
662.568	0.0124978
662.646	0.0131986
662.724	0.0135522
662.802	0.0139794
662.880	0.0145162
662.958	0.0149892
663.037	0.0153609
663.115	0.0157343
663.193	0.0159695
663.271	0.0161902
663.349	0.0163905
663.427	0.0165283
663.505	0.0164787
663.583	0.0165050
663.662	0.0163225
663.740	0.0163107
663.818	0.0161174
663.896	0.0159749
663.974	0.0155830
664.052	0.0152683
664.130	0.0146123
664.208	0.0142086
664.287	0.0135885
664.365	0.0130484
664.443	0.0122653
664.521	0.0115792
664.599	0.0110696
664.677	0.0105019
664.755	0.0101611
664.833	0.00974182
664.912	0.00945946
664.990	0.00948685
665.068	0.00969040
665.146	0.00976593
665.224	0.00999794
665.302	0.0103818
665.380	0.0109838
665.458	0.0114591
665.537	0.0120372
665.615	0.0126392
665.693	0.0132626
665.771	0.0137087
665.849	0.0142789
665.927	0.0146465
666.005	0.0152149
666.083	0.0155392
666.162	0.0158829
666.240	0.0161086
666.318	0.0162016
666.396	0.0165751
666.474	0.0164968
666.552	0.0163827
666.630	0.0163486
666.708	0.0161937
666.787	0.0160309
666.865	0.0158382
666.943	0.0153726
667.021	0.0149883
667.099	0.0146107
667.177	0.0142628
667.255	0.0138786
667.333	0.0134154
667.412	0.0133086
667.490	0.0130882
667.568	0.0127140
667.646	0.0125875
667.724	0.0125301
667.802	0.0125010
667.880	0.0123956
667.958	0.0124104
668.037	0.0124406
668.115	0.0123763
668.193	0.0121857
668.271	0.0121803
668.349	0.0120615
668.427	0.0120293
668.505	0.0119540
668.583	0.0119648
668.662	0.0121722
668.740	0.0123031
668.818	0.0123443
668.896	0.0127139
668.974	0.0129889
669.052	0.0131380
669.130	0.0133311
669.208	0.0136566
669.287	0.0138968
669.365	0.0139613
669.443	0.0141574
669.521	0.0141402
669.599	0.0142291
669.677	0.0142325
669.755	0.0141885
669.833	0.0142205
669.912	0.0142003
669.990	0.0140523
670.068	0.0139909
670.146	0.0141124
670.224	0.0140759
670.302	0.0140922
670.380	0.0139471
670.458	0.0139800
670.537	0.0139162
670.615	0.0138320
670.693	0.0138261
670.771	0.0137285
670.849	0.0135265
670.927	0.0136134
671.005	0.0134404
671.083	0.0133862
671.162	0.0134801
671.240	0.0133491
671.318	0.0135557
671.396	0.0136018
671.474	0.0138742
671.552	0.0139066
671.630	0.0140708
671.708	0.0143529
671.787	0.0144620
671.865	0.0146238
671.943	0.0146891
672.021	0.0146690
672.099	0.0146873
672.177	0.0146424
672.255	0.0146326
672.333	0.0144299
672.412	0.0142028
672.490	0.0139682
672.568	0.0137613
672.646	0.0133097
672.724	0.0131062
672.802	0.0128073
672.880	0.0123895
672.958	0.0120683
673.037	0.0118545
673.115	0.0117912
673.193	0.0114641
673.271	0.0113342
673.349	0.0113969
673.427	0.0113606
673.505	0.0113617
673.583	0.0114719
673.662	0.0117858
673.740	0.0121812
673.818	0.0124818
673.896	0.0126112
673.974	0.0130806
674.052	0.0136243
674.130	0.0139960
674.208	0.0145202
674.287	0.0149095
674.365	0.0152196
674.443	0.0154831
674.521	0.0156980
674.599	0.0157867
674.677	0.0159880
674.755	0.0158887
674.833	0.0158411
674.912	0.0156732
674.990	0.0155644
675.068	0.0151778
675.146	0.0147188
675.224	0.0144570
675.302	0.0140311
675.380	0.0139167
675.458	0.0134016
675.537	0.0130380
675.615	0.0126709
675.693	0.0122657
675.771	0.0120045
675.849	0.0117007
675.927	0.0114062
676.005	0.0114281
676.083	0.0111878
676.162	0.0112923
676.240	0.0114610
676.318	0.0117523
676.396	0.0118295
676.474	0.0122086
676.552	0.0125696
676.630	0.0131001
676.708	0.0135423
676.787	0.0141538
676.865	0.0144756
676.943	0.0149409
677.021	0.0151987
677.099	0.0154365
677.177	0.0156945
677.255	0.0159447
677.333	0.0160818
677.412	0.0160600
677.490	0.0160361
677.568	0.0158557
677.646	0.0156039
677.724	0.0154171
677.802	0.0151054
677.880	0.0147558
677.958	0.0144160
678.037	0.0141137
678.115	0.0136759
678.193	0.0131918
678.271	0.0128422
678.349	0.0125793
678.427	0.0122208
678.505	0.0120576
678.583	0.0117421
678.662	0.0115619
678.740	0.0114559
678.818	0.0112148
678.896	0.0111255
678.974	0.0111235
679.052	0.0110294
679.130	0.0113039
679.208	0.0110333
679.287	0.0112870
679.365	0.0113655
679.443	0.0115561
679.521	0.0117668
679.599	0.0119679
679.677	0.0122742
679.755	0.0126397
679.833	0.0128719
679.912	0.0131467
679.990	0.0136036
680.068	0.0139001
680.146	0.0141561
680.224	0.0143604
680.302	0.0146468
680.380	0.0148942
680.458	0.0150451
680.537	0.0152691
680.615	0.0154861
680.693	0.0155450
680.771	0.0158843
680.849	0.0161423
680.927	0.0162517
681.005	0.0163010
681.083	0.0164298
681.162	0.0164084
681.240	0.0163598
681.318	0.0161624
681.396	0.0160093
681.474	0.0156903
681.552	0.0153845
681.630	0.0147787
681.708	0.0142992
681.787	0.0139487
681.865	0.0132299
681.943	0.0125262
682.021	0.0122352
682.099	0.0119226
682.177	0.0116518
682.255	0.0116676
682.333	0.0115791
682.412	0.0113736
682.490	0.0114298
682.568	0.0115363
682.646	0.0116034
682.724	0.0118010
682.802	0.0118074
682.880	0.0119884
682.958	0.0120291
683.037	0.0123677
683.115	0.0124387
683.193	0.0126596
683.271	0.0129269
683.349	0.0129762
683.427	0.0133823
683.505	0.0133652
683.583	0.0135082
683.662	0.0136779
683.740	0.0136592
683.818	0.0139625
683.896	0.0137643
683.974	0.0139203
684.052	0.0139788
684.130	0.0138979
684.208	0.0137895
684.287	0.0137392
684.365	0.0135532
684.443	0.0137151
684.521	0.0134377
684.599	0.0133250
684.677	0.0133034
684.755	0.0133385
684.833	0.0132143
684.912	0.0132764
684.990	0.0132828
685.068	0.0134299
685.146	0.0134282
685.224	0.0136314
685.302	0.0136926
685.380	0.0139053
685.458	0.0139703
685.537	0.0139097
685.615	0.0140717
685.693	0.0141785
685.771	0.0141337
685.849	0.0140318
685.927	0.0141487
686.005	0.0142339
686.083	0.0141666
686.162	0.0140743
686.240	0.0140415
686.318	0.0139867
686.396	0.0140302
686.474	0.0142091
686.552	0.0142821
686.630	0.0143862
686.708	0.0142947
686.787	0.0143781
686.865	0.0141372
686.943	0.0142140
687.021	0.0141100
687.099	0.0142488
687.177	0.0140656
687.255	0.0140711
687.333	0.0139398
687.412	0.0138854
687.490	0.0140311
687.568	0.0139742
687.646	0.0138409
687.724	0.0138943
687.802	0.0139542
687.880	0.0138865
687.958	0.0136017
688.037	0.0135233
688.115	0.0135284
688.193	0.0131906
688.271	0.0128742
688.349	0.0127412
688.427	0.0126082
688.505	0.0122978
688.583	0.0122163
688.662	0.0120134
688.740	0.0119613
688.818	0.0118606
688.896	0.0117860
688.974	0.0117313
689.052	0.0117330
689.130	0.0117147
689.208	0.0115812
689.287	0.0114488
689.365	0.0116656
689.443	0.0116565
689.521	0.0117946
689.599	0.0118256
689.677	0.0122300
689.755	0.0122417
689.833	0.0126509
689.912	0.0129412
689.990	0.0134443
690.068	0.0139230
690.146	0.0141835
690.224	0.0147214
690.302	0.0151784
690.380	0.0154488
690.458	0.0157285
690.537	0.0159624
690.615	0.0159811
690.693	0.0159753
690.771	0.0158979
690.849	0.0157197
690.927	0.0154411
691.005	0.0151364
691.083	0.0147859
691.162	0.0144118
691.240	0.0141349
691.318	0.0138094
691.396	0.0135609
691.474	0.0135648
691.552	0.0132539
691.630	0.0132626
691.708	0.0131506
691.787	0.0133223
691.865	0.0132428
691.943	0.0133384
692.021	0.0134258
692.099	0.0134309
692.177	0.0137797
692.255	0.0139404
692.333	0.0139101
692.412	0.0140717
692.490	0.0140895
692.568	0.0140221
692.646	0.0139939
692.724	0.0139066
692.802	0.0138531
692.880	0.0136406
692.958	0.0134933
693.037	0.0133679
693.115	0.0131921
693.193	0.0129661
693.271	0.0128982
693.349	0.0126843
693.427	0.0127842
693.505	0.0124982
693.583	0.0124722
693.662	0.0125407
693.740	0.0124867
693.818	0.0123852
693.896	0.0124207
693.974	0.0123097
694.052	0.0124517
694.130	0.0124087
694.208	0.0123596
694.287	0.0125307
694.365	0.0126224
694.443	0.0127547
694.521	0.0129513
694.599	0.0131637
694.677	0.0132430
694.755	0.0133244
694.833	0.0134560
694.912	0.0135641
694.990	0.0138364
695.068	0.0140726
695.146	0.0143970
695.224	0.0144673
695.302	0.0145748
695.380	0.0145672
695.458	0.0147504
695.537	0.0147407
695.615	0.0145253
695.693	0.0145911
695.771	0.0145596
695.849	0.0142043
695.927	0.0140012
696.005	0.0137827
696.083	0.0135749
696.162	0.0134401
696.240	0.0133434
696.318	0.0130890
696.396	0.0128094
696.474	0.0128698
696.552	0.0126482
696.630	0.0125105
696.708	0.0125636
696.787	0.0123779
696.865	0.0123934
696.943	0.0125072
697.021	0.0126090
697.099	0.0125506
697.177	0.0128624
697.255	0.0129748
697.333	0.0133131
697.412	0.0136877
697.490	0.0140203
697.568	0.0141501
697.646	0.0145523
697.724	0.0147293
697.802	0.0149383
697.880	0.0150600
697.958	0.0153898
698.037	0.0154218
698.115	0.0153307
698.193	0.0152824
698.271	0.0152737
698.349	0.0152599
698.427	0.0151670
698.505	0.0150472
698.583	0.0148026
698.662	0.0147910
698.740	0.0145074
698.818	0.0143970
698.896	0.0141969
698.974	0.0141428
699.052	0.0138506
699.130	0.0137035
699.208	0.0137701
699.287	0.0135538
699.365	0.0134329
699.443	0.0132889
699.521	0.0131917
699.599	0.0127906
699.677	0.0126788
699.755	0.0126283
699.833	0.0121819
699.912	0.0119379
699.990	0.0117839
700.068	0.0115676
700.146	0.0114019
700.224	0.0113213
700.302	0.0112550
700.380	0.0113910
700.458	0.0114918
700.537	0.0116615
700.615	0.0117732
700.693	0.0122775
700.771	0.0126280
700.849	0.0128693
700.927	0.0132800
701.005	0.0135619
701.083	0.0137304
701.162	0.0138477
701.240	0.0140191
701.318	0.0142535
701.396	0.0142367
701.474	0.0142492
701.552	0.0140941
701.630	0.0141931
701.708	0.0140084
701.787	0.0139829
701.865	0.0137899
701.943	0.0136907
702.021	0.0135619
702.099	0.0134508
702.177	0.0134798
702.255	0.0133192
702.333	0.0132693
702.412	0.0134029
702.490	0.0132764
702.568	0.0133678
702.646	0.0135854
702.724	0.0136283
702.802	0.0137136
702.880	0.0137392
702.958	0.0140334
703.037	0.0142405
703.115	0.0142622
703.193	0.0143858
703.271	0.0144302
703.349	0.0146539
703.427	0.0146442
703.505	0.0148077
703.583	0.0149600
703.662	0.0149300
703.740	0.0152077
703.818	0.0152698
703.896	0.0152287
703.974	0.0151950
704.052	0.0154041
704.130	0.0152509
704.208	0.0152127
704.287	0.0151965
704.365	0.0152782
704.443	0.0151816
704.521	0.0149686
704.599	0.0149560
704.677	0.0147415
704.755	0.0144543
704.833	0.0142030
704.912	0.0137720
704.990	0.0133445
705.068	0.0129439
705.146	0.0125644
705.224	0.0120389
705.302	0.0117284
705.380	0.0113756
705.458	0.0109715
705.537	0.0107073
705.615	0.0102605
705.693	0.0103456
705.771	0.0102988
705.849	0.0101500
705.927	0.0102111
706.005	0.0104318
706.083	0.0106557
706.162	0.0108613
706.240	0.0111025
706.318	0.0114364
706.396	0.0116385
706.474	0.0119514
706.552	0.0120240
706.630	0.0123759
706.708	0.0126459
706.787	0.0126003
706.865	0.0129749
706.943	0.0131752
707.021	0.0132948
707.099	0.0133957
707.177	0.0136494
707.255	0.0137157
707.333	0.0139482
707.412	0.0141774
707.490	0.0145170
707.568	0.0146693
707.646	0.0150026
707.724	0.0152008
707.802	0.0152543
707.880	0.0155791
707.958	0.0157498
708.037	0.0158118
708.115	0.0159193
708.193	0.0159943
708.271	0.0160853
708.349	0.0158501
708.427	0.0158870
708.505	0.0159102
708.583	0.0155923
708.662	0.0154696
708.740	0.0152395
708.818	0.0150402
708.896	0.0147574
708.974	0.0143643
709.052	0.0140317
709.130	0.0140999
709.208	0.0138944
709.287	0.0136957
709.365	0.0134574
709.443	0.0132657
709.521	0.0131526
709.599	0.0130353
709.677	0.0129220
709.755	0.0130067
709.833	0.0129875
709.912	0.0130695
709.990	0.0127978
710.068	0.0128784
710.146	0.0127242
710.224	0.0127762
710.302	0.0126745
710.380	0.0126286
710.458	0.0124823
710.537	0.0125738
710.615	0.0123861
710.693	0.0124333
710.771	0.0122647
710.849	0.0125224
710.927	0.0124751
711.005	0.0124128
711.083	0.0126023
711.162	0.0125829
711.240	0.0125121
711.318	0.0124350
711.396	0.0124506
711.474	0.0125599
711.552	0.0123766
711.630	0.0124348
711.708	0.0125290
711.787	0.0123689
711.865	0.0124622
711.943	0.0125449
712.021	0.0127091
712.099	0.0127934
712.177	0.0129373
712.255	0.0131669
712.333	0.0134709
712.412	0.0137750
712.490	0.0139143
712.568	0.0140170
712.646	0.0142541
712.724	0.0143317
712.802	0.0142924
712.880	0.0144392
712.958	0.0144424
713.037	0.0145410
713.115	0.0145652
713.193	0.0144092
713.271	0.0144611
713.349	0.0145706
713.427	0.0145628
713.505	0.0145827
713.583	0.0144611
713.662	0.0144754
713.740	0.0144487
713.818	0.0145037
713.896	0.0144254
713.974	0.0143255
714.052	0.0143212
714.130	0.0142754
714.208	0.0140623
714.287	0.0140393
714.365	0.0138315
714.443	0.0136021
714.521	0.0134813
714.599	0.0134692
714.677	0.0135994
714.755	0.0133496
714.833	0.0132185
714.912	0.0132727
714.990	0.0131522
715.068	0.0130740
715.146	0.0131098
715.224	0.0132684
715.302	0.0130550
715.380	0.0131255
715.458	0.0131092
715.537	0.0132548
715.615	0.0131007
715.693	0.0130882
715.771	0.0132936
715.849	0.0132162
715.927	0.0133429
716.005	0.0135397
716.083	0.0138757
716.162	0.0138963
716.240	0.0141911
716.318	0.0144176
716.396	0.0143998
716.474	0.0144480
716.552	0.0147395
716.630	0.0146495
716.708	0.0145601
716.787	0.0144359
716.865	0.0142728
716.943	0.0141589
717.021	0.0137250
717.099	0.0136661
717.177	0.0134148
717.255	0.0133311
717.333	0.0129871
717.412	0.0129337
717.490	0.0128690
717.568	0.0126509
717.646	0.0125747
717.724	0.0125126
717.802	0.0124098
717.880	0.0124431
717.958	0.0123772
718.037	0.0123683
718.115	0.0122406
718.193	0.0124512
718.271	0.0123644
718.349	0.0124582
718.427	0.0124764
718.505	0.0124194
718.583	0.0126516
718.662	0.0127812
718.740	0.0127718
718.818	0.0128392
718.896	0.0128191
718.974	0.0129681
719.052	0.0131503
719.130	0.0133225
719.208	0.0133459
719.287	0.0135498
719.365	0.0135176
719.443	0.0136398
719.521	0.0137869
719.599	0.0138201
719.677	0.0139381
719.755	0.0140889
719.833	0.0141754
719.912	0.0143179
719.990	0.0144617
720.068	0.0146445
720.146	0.0148177
720.224	0.0148935
720.302	0.0150504
720.380	0.0151192
720.458	0.0151929
720.537	0.0153610
720.615	0.0154034
720.693	0.0154541
720.771	0.0152097
720.849	0.0148782
720.927	0.0147852
721.005	0.0146421
721.083	0.0144135
721.162	0.0140953
721.240	0.0138725
721.318	0.0135999
721.396	0.0132996
721.474	0.0129514
721.552	0.0129341
721.630	0.0125930
721.708	0.0125013
721.787	0.0123817
721.865	0.0122020
721.943	0.0122127
722.021	0.0121844
722.099	0.0120454
722.177	0.0121644
722.255	0.0124165
722.333	0.0124899
722.412	0.0126367
722.490	0.0128152
722.568	0.0128368
722.646	0.0129475
722.724	0.0132073
722.802	0.0132822
722.880	0.0133408
722.958	0.0134207
723.037	0.0133355
723.115	0.0133867
723.193	0.0133215
723.271	0.0133305
723.349	0.0132465
723.427	0.0133708
723.505	0.0133074
723.583	0.0133436
723.662	0.0135449
723.740	0.0135947
723.818	0.0138401
723.896	0.0138685
723.974	0.0139272
724.052	0.0141327
724.130	0.0142648
724.208	0.0141889
724.287	0.0142532
724.365	0.0143173
724.443	0.0140694
724.521	0.0139477
724.599	0.0139490
724.677	0.0135051
724.755	0.0134351
724.833	0.0131847
724.912	0.0129340
724.990	0.0126570
725.068	0.0124585
725.146	0.0123518
725.224	0.0122948
725.302	0.0123542
725.380	0.0122668
725.458	0.0123487
725.537	0.0126326
725.615	0.0128484
725.693	0.0131789
725.771	0.0132430
725.849	0.0134357
725.927	0.0137037
726.005	0.0138162
726.083	0.0139480
726.162	0.0140228
726.240	0.0141545
726.318	0.0141066
726.396	0.0141038
726.474	0.0141628
726.552	0.0140012
726.630	0.0138755
726.708	0.0139336
726.787	0.0137295
726.865	0.0136040
726.943	0.0137090
727.021	0.0137709
727.099	0.0136850
727.177	0.0137714
727.255	0.0138186
727.333	0.0137936
727.412	0.0139180
727.490	0.0141721
727.568	0.0142764
727.646	0.0145404
727.724	0.0144473
727.802	0.0143985
727.880	0.0144650
727.958	0.0146534
728.037	0.0143552
728.115	0.0141544
728.193	0.0141743
728.271	0.0139312
728.349	0.0137069
728.427	0.0136003
728.505	0.0131970
728.583	0.0128569
728.662	0.0127545
728.740	0.0125220
728.818	0.0123853
728.896	0.0122439
728.974	0.0120185
729.052	0.0121218
729.130	0.0121845
729.208	0.0121748
729.287	0.0122412
729.365	0.0125956
729.443	0.0128035
729.521	0.0127748
729.599	0.0129129
729.677	0.0133244
729.755	0.0135077
729.833	0.0135297
729.912	0.0137245
729.990	0.0140172
730.068	0.0141049
730.146	0.0140678
730.224	0.0141582
730.302	0.0141872
730.380	0.0142714
730.458	0.0142322
730.537	0.0140192
730.615	0.0140113
730.693	0.0140036
730.771	0.0139545
730.849	0.0138161
730.927	0.0136185
731.005	0.0135697
731.083	0.0134764
731.162	0.0134519
731.240	0.0133385
731.318	0.0134677
731.396	0.0133666
731.474	0.0133211
731.552	0.0135680
731.630	0.0133292
731.708	0.0133312
731.787	0.0135711
731.865	0.0136461
731.943	0.0135422
732.021	0.0135461
732.099	0.0135469
732.177	0.0134618
732.255	0.0134261
732.333	0.0133613
732.412	0.0134988
732.490	0.0131683
732.568	0.0132058
732.646	0.0133693
732.724	0.0132177
732.802	0.0131905
732.880	0.0132278
732.958	0.0132075
733.037	0.0133891
733.115	0.0135287
733.193	0.0135390
733.271	0.0138923
733.349	0.0139172
733.427	0.0141664
733.505	0.0142858
733.583	0.0142857
733.662	0.0146493
733.740	0.0146858
733.818	0.0146770
733.896	0.0145691
733.974	0.0145050
734.052	0.0144173
734.130	0.0143888
734.208	0.0140787
734.287	0.0140208
734.365	0.0137344
734.443	0.0135617
734.521	0.0132931
734.599	0.0131096
734.677	0.0130022
734.755	0.0129563
734.833	0.0128283
734.912	0.0128000
734.990	0.0128275
735.068	0.0128005
735.146	0.0128823
735.224	0.0128928
735.302	0.0130518
735.380	0.0130732
735.458	0.0132017
735.537	0.0133470
735.615	0.0133662
735.693	0.0133400
735.771	0.0134957
735.849	0.0134533
735.927	0.0133828
736.005	0.0136382
736.083	0.0137186
736.162	0.0137369
736.240	0.0137212
736.318	0.0136840
736.396	0.0137490
736.474	0.0138236
736.552	0.0138445
736.630	0.0138497
736.708	0.0138699
736.787	0.0138978
736.865	0.0140334
736.943	0.0138916
737.021	0.0138943
737.099	0.0139041
737.177	0.0138194
737.255	0.0137025
737.333	0.0136453
737.412	0.0135696
737.490	0.0135796
737.568	0.0135278
737.646	0.0132607
737.724	0.0132263
737.802	0.0130623
737.880	0.0131177
737.958	0.0130492
738.037	0.0130457
738.115	0.0130093
738.193	0.0129130
738.271	0.0129578
738.349	0.0127792
738.427	0.0129005
738.505	0.0130018
738.583	0.0128812
738.662	0.0127470
738.740	0.0127840
738.818	0.0131297
738.896	0.0131003
738.974	0.0130251
739.052	0.0132960
739.130	0.0134050
739.208	0.0135565
739.287	0.0137193
739.365	0.0137769
739.443	0.0139284
739.521	0.0140748
739.599	0.0142050
739.677	0.0141430
739.755	0.0142580
739.833	0.0142051
739.912	0.0140262
739.990	0.0141329
740.068	0.0141158
740.146	0.0140173
740.224	0.0140096
740.302	0.0140878
740.380	0.0138489
740.458	0.0139375
740.537	0.0138814
740.615	0.0138742
740.693	0.0137980
740.771	0.0138573
740.849	0.0138963
740.927	0.0138748
741.005	0.0138251
741.083	0.0137637
741.162	0.0137894
741.240	0.0136794
741.318	0.0136759
741.396	0.0135504
741.474	0.0132272
741.552	0.0131927
741.630	0.0131730
741.708	0.0128941
741.787	0.0126252
741.865	0.0123479
741.943	0.0124393
742.021	0.0121525
742.099	0.0122964
742.177	0.0123593
742.255	0.0121861
742.333	0.0123404
742.412	0.0124765
742.490	0.0126328
742.568	0.0126301
742.646	0.0128513
742.724	0.0130719
742.802	0.0133309
742.880	0.0134829
742.958	0.0136205
743.037	0.0137119
743.115	0.0138225
743.193	0.0140192
743.271	0.0140401
743.349	0.0141949
743.427	0.0142435
743.505	0.0142991
743.583	0.0141899
743.662	0.0140471
743.740	0.0141765
743.818	0.0139812
743.896	0.0141429
743.974	0.0141159
744.052	0.0139923
744.130	0.0137436
744.208	0.0138084
744.287	0.0137411
744.365	0.0136742
744.443	0.0137495
744.521	0.0137286
744.599	0.0136482
744.677	0.0135604
744.755	0.0135078
744.833	0.0134777
744.912	0.0134074
744.990	0.0133910
745.068	0.0132854
745.146	0.0131802
745.224	0.0132576
745.302	0.0132355
745.380	0.0130610
745.458	0.0131775
745.537	0.0131742
745.615	0.0132690
745.693	0.0133001
745.771	0.0131339
745.849	0.0132406
745.927	0.0132992
746.005	0.0133706
746.083	0.0133658
746.162	0.0133658
746.240	0.0133845
746.318	0.0133936
746.396	0.0133784
746.474	0.0135685
746.552	0.0133641
746.630	0.0133897
746.708	0.0133974
746.787	0.0136098
746.865	0.0134946
746.943	0.0135782
747.021	0.0134985
747.099	0.0135918
747.177	0.0134897
747.255	0.0135622
747.333	0.0137451
747.412	0.0138023
747.490	0.0137460
747.568	0.0137420
747.646	0.0137428
747.724	0.0138113
747.802	0.0137828
747.880	0.0139795
747.958	0.0137641
748.037	0.0139273
748.115	0.0137746
748.193	0.0137881
748.271	0.0137578
748.349	0.0137829
748.427	0.0137337
748.505	0.0136459
748.583	0.0137201
748.662	0.0136083
748.740	0.0135784
748.818	0.0137201
748.896	0.0137093
748.974	0.0135682
749.052	0.0136439
749.130	0.0135605
749.208	0.0136282
749.287	0.0135748
749.365	0.0134467
749.443	0.0133489
749.521	0.0134172
749.599	0.0132623
749.677	0.0132323
749.755	0.0131836
749.833	0.0131259
749.912	0.0131097
749.990	0.0133929
750.068	0.0134019
750.146	0.0134839
750.224	0.0136564
750.302	0.0138123
750.380	0.0136964
750.458	0.0137683
750.537	0.0137669
750.615	0.0138988
750.693	0.0138590
750.771	0.0138369
750.849	0.0138543
750.927	0.0135989
751.005	0.0136576
751.083	0.0135650
751.162	0.0134409
751.240	0.0133687
751.318	0.0132522
751.396	0.0132011
751.474	0.0130737
751.552	0.0132729
751.630	0.0132827
751.708	0.0131854
751.787	0.0133451
751.865	0.0133459
751.943	0.0133782
752.021	0.0133761
752.099	0.0135228
752.177	0.0134181
752.255	0.0133714
752.333	0.0134271
752.412	0.0134393
752.490	0.0133758
752.568	0.0134815
752.646	0.0135091
752.724	0.0135295
752.802	0.0133893
752.880	0.0136025
752.958	0.0134459
753.037	0.0133982
753.115	0.0135046
753.193	0.0134601
753.271	0.0134730
753.349	0.0133797
753.427	0.0133408
753.505	0.0135157
753.583	0.0134439
753.662	0.0133362
753.740	0.0135295
753.818	0.0134509
753.896	0.0135757
753.974	0.0135168
754.052	0.0136244
754.130	0.0137939
754.208	0.0138998
754.287	0.0138893
754.365	0.0139964
754.443	0.0140951
754.521	0.0140864
754.599	0.0140659
754.677	0.0139619
754.755	0.0139239
754.833	0.0139539
754.912	0.0139142
754.990	0.0136771
755.068	0.0136005
755.146	0.0135825
755.224	0.0135897
755.302	0.0135011
755.380	0.0134216
755.458	0.0134470
755.537	0.0134212
755.615	0.0134162
755.693	0.0132575
755.771	0.0132851
755.849	0.0132951
755.927	0.0133755
756.005	0.0132774
756.083	0.0134046
756.162	0.0134304
756.240	0.0134903
756.318	0.0135883
756.396	0.0136567
756.474	0.0136090
756.552	0.0137424
756.630	0.0137675
756.708	0.0138668
756.787	0.0137927
756.865	0.0138198
756.943	0.0139445
757.021	0.0138528
757.099	0.0138159
757.177	0.0138601
757.255	0.0138639
757.333	0.0136686
757.412	0.0137190
757.490	0.0135647
757.568	0.0135046
757.646	0.0134755
757.724	0.0134831
757.802	0.0133293
757.880	0.0132215
757.958	0.0132398
758.037	0.0130984
758.115	0.0131824
758.193	0.0133287
758.271	0.0130870
758.349	0.0131898
758.427	0.0132225
758.505	0.0131291
758.583	0.0129752
758.662	0.0130245
758.740	0.0131418
758.818	0.0131203
758.896	0.0129865
758.974	0.0131141
759.052	0.0134071
759.130	0.0132503
759.208	0.0133695
759.287	0.0135313
759.365	0.0135103
759.443	0.0136218
759.521	0.0138201
759.599	0.0137652
759.677	0.0137574
759.755	0.0138054
759.833	0.0138770
759.912	0.0138320
759.990	0.0139882
760.068	0.0139362
760.146	0.0138662
760.224	0.0139566
760.302	0.0138253
760.380	0.0138747
760.458	0.0138154
760.537	0.0138478
760.615	0.0137520
760.693	0.0137827
760.771	0.0136768
760.849	0.0136449
760.927	0.0137654
761.005	0.0137313
761.083	0.0136874
761.162	0.0137064
761.240	0.0136047
761.318	0.0136886
761.396	0.0136680
761.474	0.0136196
761.552	0.0135104
761.630	0.0136066
761.708	0.0136196
761.787	0.0135832
761.865	0.0135430
761.943	0.0134243
762.021	0.0135097
762.099	0.0134815
762.177	0.0135341
762.255	0.0132803
762.333	0.0133776
762.412	0.0134647
762.490	0.0134604
762.568	0.0134340
762.646	0.0132622
762.724	0.0131827
762.802	0.0133662
762.880	0.0134758
762.958	0.0134969
763.037	0.0133871
763.115	0.0134376
763.193	0.0135374
763.271	0.0136116
763.349	0.0137202
763.427	0.0138379
763.505	0.0138352
763.583	0.0138698
763.662	0.0140134
763.740	0.0141460
763.818	0.0140688
763.896	0.0140038
763.974	0.0139614
764.052	0.0138911
764.130	0.0139169
764.208	0.0136893
764.287	0.0135383
764.365	0.0134576
764.443	0.0135709
764.521	0.0134160
764.599	0.0132716
764.677	0.0130927
764.755	0.0132005
764.833	0.0132750
764.912	0.0132034
764.990	0.0130472
765.068	0.0132503
765.146	0.0132095
765.224	0.0133064
765.302	0.0131178
765.380	0.0131902
765.458	0.0130995
765.537	0.0130599
765.615	0.0131141
765.693	0.0130122
765.771	0.0130116
765.849	0.0131040
765.927	0.0131331
766.005	0.0132327
766.083	0.0131815
766.162	0.0132815
766.240	0.0134329
766.318	0.0133241
766.396	0.0133928
766.474	0.0133744
766.552	0.0133418
766.630	0.0134357
766.708	0.0133439
766.787	0.0134863
766.865	0.0135760
766.943	0.0135606
767.021	0.0137367
767.099	0.0136947
767.177	0.0135776
767.255	0.0136416
767.333	0.0135580
767.412	0.0137523
767.490	0.0135382
767.568	0.0136727
767.646	0.0137231
767.724	0.0136008
767.802	0.0136245
767.880	0.0135929
767.958	0.0137166
768.037	0.0138531
768.115	0.0138795
768.193	0.0138322
768.271	0.0137994
768.349	0.0137176
768.427	0.0137434
768.505	0.0138007
768.583	0.0139859
768.662	0.0138612
768.740	0.0137315
768.818	0.0136376
768.896	0.0138934
768.974	0.0137248
769.052	0.0136241
769.130	0.0136012
769.208	0.0136967
769.287	0.0135884
769.365	0.0135421
769.443	0.0134895
769.521	0.0135489
769.599	0.0133563
769.677	0.0133589
769.755	0.0135422
769.833	0.0133819
769.912	0.0133213
769.990	0.0134768
770.068	0.0134412
770.146	0.0132762
770.224	0.0134452
770.302	0.0134586
770.380	0.0136034
770.458	0.0134587
770.537	0.0134903
770.615	0.0135686
770.693	0.0135392
770.771	0.0136253
770.849	0.0136751
770.927	0.0136816
771.005	0.0137040
771.083	0.0136210
771.162	0.0137379
771.240	0.0138039
771.318	0.0137556
771.396	0.0138632
771.474	0.0137857
771.552	0.0137653
771.630	0.0135389
771.708	0.0137290
771.787	0.0135474
771.865	0.0136468
771.943	0.0135586
772.021	0.0133382
772.099	0.0133385
772.177	0.0132523
772.255	0.0131397
772.333	0.0131432
772.412	0.0130830
772.490	0.0132242
772.568	0.0131596
772.646	0.0132349
772.724	0.0132477
772.802	0.0133188
772.880	0.0134120
772.958	0.0135735
773.037	0.0132737
773.115	0.0133323
773.193	0.0135236
773.271	0.0135852
773.349	0.0136786
773.427	0.0135556
773.505	0.0136845
773.583	0.0137747
773.662	0.0138047
773.740	0.0137392
773.818	0.0138092
773.896	0.0137467
773.974	0.0137728
774.052	0.0137926
774.130	0.0139391
774.208	0.0138204
774.287	0.0138097
774.365	0.0136900
774.443	0.0136896
774.521	0.0137897
774.599	0.0137276
774.677	0.0135659
774.755	0.0138046
774.833	0.0135934
774.912	0.0135406
774.990	0.0135978
775.068	0.0136040
775.146	0.0136050
775.224	0.0136050
775.302	0.0135400
775.380	0.0135737
775.458	0.0137947
775.537	0.0135664
775.615	0.0136697
775.693	0.0136129
775.771	0.0135606
775.849	0.0135028
775.927	0.0136158
776.005	0.0134647
776.083	0.0135387
776.162	0.0132856
776.240	0.0132922
776.318	0.0133942
776.396	0.0133878
776.474	0.0133529
776.552	0.0133512
776.630	0.0132262
776.708	0.0133917
776.787	0.0133334
776.865	0.0133920
776.943	0.0136115
777.021	0.0135548
777.099	0.0134854
777.177	0.0135318
777.255	0.0134832
777.333	0.0136493
777.412	0.0136729
777.490	0.0135094
777.568	0.0135343
777.646	0.0135757
777.724	0.0135363
777.802	0.0135553
777.880	0.0135410
777.958	0.0135784
778.037	0.0137090
778.115	0.0135394
778.193	0.0136410
778.271	0.0136706
778.349	0.0135342
778.427	0.0137427
778.505	0.0137450
778.583	0.0137577
778.662	0.0137782
778.740	0.0136765
778.818	0.0137328
778.896	0.0136851
778.974	0.0137938
779.052	0.0136039
779.130	0.0136446
779.208	0.0137198
779.287	0.0135529
779.365	0.0135448
779.443	0.0135373
779.521	0.0135027
779.599	0.0134864
779.677	0.0135659
779.755	0.0132838
779.833	0.0133579
779.912	0.0134317
779.990	0.0133302
780.068	0.0131874
780.146	0.0132630
780.224	0.0132269
780.302	0.0132271
780.380	0.0131516
780.458	0.0131210
780.537	0.0132779
780.615	0.0131908
780.693	0.0133029
780.771	0.0131812
780.849	0.0131662
780.927	0.0131776
781.005	0.0132981
781.083	0.0133236
781.162	0.0132985
781.240	0.0134601
781.318	0.0134028
781.396	0.0132829
781.474	0.0133229
781.552	0.0136113
781.630	0.0136740
781.708	0.0134586
781.787	0.0136682
781.865	0.0136681
781.943	0.0137046
782.021	0.0137901
782.099	0.0137373
782.177	0.0137561
782.255	0.0139462
782.333	0.0140365
782.412	0.0138402
782.490	0.0138425
782.568	0.0138799
782.646	0.0138547
782.724	0.0136579
782.802	0.0138245
782.880	0.0138541
782.958	0.0137126
783.037	0.0136410
783.115	0.0136896
783.193	0.0134877
783.271	0.0135244
783.349	0.0135401
783.427	0.0133187
783.505	0.0133974
783.583	0.0133385
783.662	0.0132564
783.740	0.0131981
783.818	0.0130154
783.896	0.0131657
783.974	0.0130466
784.052	0.0132352
784.130	0.0131862
784.208	0.0132678
784.287	0.0134299
784.365	0.0136093
784.443	0.0135072
784.521	0.0136156
784.599	0.0138387
784.677	0.0135969
784.755	0.0136701
784.833	0.0137531
784.912	0.0136166
784.990	0.0136920
785.068	0.0135239
785.146	0.0135052
785.224	0.0133221
785.302	0.0133443
785.380	0.0133494
785.458	0.0133049
785.537	0.0132791
785.615	0.0131285
785.693	0.0131554
785.771	0.0129713
785.849	0.0132262
785.927	0.0131925
786.005	0.0131274
786.083	0.0131759
786.162	0.0131952
786.240	0.0131969
786.318	0.0133498
786.396	0.0132764
786.474	0.0134171
786.552	0.0133532
786.630	0.0135786
786.708	0.0134951
786.787	0.0134653
786.865	0.0135040
786.943	0.0134203
787.021	0.0135367
787.099	0.0134122
787.177	0.0133910
787.255	0.0134770
787.333	0.0135756
787.412	0.0136163
787.490	0.0135921
787.568	0.0136047
787.646	0.0136515
787.724	0.0137134
787.802	0.0137314
787.880	0.0136836
787.958	0.0137678
788.037	0.0137292
788.115	0.0135133
788.193	0.0136736
788.271	0.0137782
788.349	0.0136217
788.427	0.0135950
788.505	0.0136451
788.583	0.0135271
788.662	0.0136401
788.740	0.0135780
788.818	0.0135281
788.896	0.0135506
788.974	0.0135958
789.052	0.0134701
789.130	0.0136062
789.208	0.0135178
789.287	0.0135532
789.365	0.0136218
789.443	0.0135329
789.521	0.0136079
789.599	0.0135883
789.677	0.0135997
789.755	0.0136616
789.833	0.0135331
789.912	0.0135915
789.990	0.0136829
790.068	0.0137139
790.146	0.0135152
790.224	0.0135926
790.302	0.0136301
790.380	0.0136057
790.458	0.0135720
790.537	0.0136151
790.615	0.0135574
790.693	0.0135618
790.771	0.0135527
790.849	0.0135699
790.927	0.0134087
791.005	0.0134508
791.083	0.0135468
791.162	0.0134831
791.240	0.0134077
791.318	0.0134764
791.396	0.0135450
791.474	0.0134939
791.552	0.0135383
791.630	0.0135572
791.708	0.0134850
791.787	0.0134779
791.865	0.0135075
791.943	0.0134463
792.021	0.0134892
792.099	0.0134787
792.177	0.0136266
792.255	0.0136614
792.333	0.0137009
792.412	0.0136394
792.490	0.0136879
792.568	0.0136971
792.646	0.0136609
792.724	0.0136921
792.802	0.0137311
792.880	0.0137116
792.958	0.0135177
793.037	0.0135818
793.115	0.0136620
793.193	0.0134752
793.271	0.0134329
793.349	0.0135194
793.427	0.0135005
793.505	0.0135916
793.583	0.0134400
793.662	0.0135528
793.740	0.0134841
793.818	0.0134818
793.896	0.0133451
793.974	0.0135275
794.052	0.0134834
794.130	0.0134788
794.208	0.0134120
794.287	0.0133920
794.365	0.0134189
794.443	0.0133462
794.521	0.0134197
794.599	0.0134552
794.677	0.0133411
794.755	0.0134816
794.833	0.0134657
794.912	0.0135582
794.990	0.0135146
795.068	0.0136572
795.146	0.0137253
795.224	0.0137232
795.302	0.0139253
795.380	0.0138434
795.458	0.0139783
795.537	0.0140444
795.615	0.0140527
795.693	0.0139552
795.771	0.0139420
795.849	0.0140110
795.927	0.0139529
796.005	0.0139724
796.083	0.0138096
796.162	0.0137409
796.240	0.0137002
796.318	0.0137023
796.396	0.0135014
796.474	0.0136897
796.552	0.0134871
796.630	0.0133777
796.708	0.0134420
796.787	0.0134631
796.865	0.0134093
796.943	0.0132924
797.021	0.0134394
797.099	0.0133070
797.177	0.0133318
797.255	0.0132136
797.333	0.0134189
797.412	0.0131644
797.490	0.0131680
797.568	0.0133150
797.646	0.0132954
797.724	0.0131608
797.802	0.0132102
797.880	0.0132887
797.958	0.0133584
798.037	0.0133400
798.115	0.0133717
798.193	0.0134200
798.271	0.0133524
798.349	0.0135584
798.427	0.0135062
798.505	0.0133568
798.583	0.0135030
798.662	0.0135455
798.740	0.0135075
798.818	0.0134859
798.896	0.0134637
798.974	0.0134465
799.052	0.0134292
799.130	0.0134749
799.208	0.0134798
799.287	0.0133574
799.365	0.0133895
799.443	0.0134487
799.521	0.0134898
799.599	0.0135888
799.677	0.0134032
799.755	0.0134633
799.833	0.0135254
799.912	0.0135215
799.990	0.0134196
800.068	0.0133728
800.146	0.0133836
800.224	0.0135981
800.302	0.0135331
800.380	0.0134403
800.458	0.0133712
800.537	0.0135246
800.615	0.0136327
800.693	0.0135902
800.771	0.0136292
800.849	0.0135346
800.927	0.0135207
801.005	0.0136040
801.083	0.0136271
801.162	0.0136546
801.240	0.0134882
801.318	0.0134913
801.396	0.0135439
801.474	0.0135809
801.552	0.0133409
801.630	0.0133748
801.708	0.0133274
801.787	0.0134517
801.865	0.0134044
801.943	0.0131770
802.021	0.0132550
802.099	0.0132593
802.177	0.0132076
802.255	0.0132693
802.333	0.0132645
802.412	0.0133203
802.490	0.0133179
802.568	0.0132706
802.646	0.0132899
802.724	0.0133037
802.802	0.0132947
802.880	0.0132387
802.958	0.0133009
803.037	0.0133189
803.115	0.0131810
803.193	0.0133180
803.271	0.0133721
803.349	0.0133309
803.427	0.0133711
803.505	0.0133593
803.583	0.0134403
803.662	0.0134525
803.740	0.0135007
803.818	0.0133936
803.896	0.0135013
803.974	0.0136352
804.052	0.0137263
804.130	0.0135623
804.208	0.0134992
804.287	0.0136003
804.365	0.0135600
804.443	0.0134660
804.521	0.0135113
804.599	0.0136824
804.677	0.0136437
804.755	0.0136501
804.833	0.0134988
804.912	0.0136230
804.990	0.0135905
805.068	0.0136535
805.146	0.0135921
805.224	0.0135178
805.302	0.0135999
805.380	0.0135334
805.458	0.0134164
805.537	0.0135564
805.615	0.0135896
805.693	0.0134888
805.771	0.0134979
805.849	0.0134898
805.927	0.0135621
806.005	0.0135925
806.083	0.0135112
806.162	0.0136342
806.240	0.0135421
806.318	0.0134815
806.396	0.0134548
806.474	0.0135651
806.552	0.0134892
806.630	0.0134297
806.708	0.0134751
806.787	0.0135442
806.865	0.0134858
806.943	0.0132858
807.021	0.0134042
807.099	0.0133860
807.177	0.0134546
807.255	0.0132114
807.333	0.0131260
807.412	0.0132799
807.490	0.0134525
807.568	0.0133368
807.646	0.0132080
807.724	0.0133340
807.802	0.0131863
807.880	0.0132390
807.958	0.0132149
808.037	0.0133115
808.115	0.0132935
808.193	0.0131952
808.271	0.0132926
808.349	0.0132749
808.427	0.0132943
808.505	0.0132853
808.583	0.0134138
808.662	0.0134186
808.740	0.0134006
808.818	0.0133716
808.896	0.0135270
808.974	0.0135007
809.052	0.0134541
809.130	0.0134841
809.208	0.0135578
809.287	0.0136709
809.365	0.0135210
809.443	0.0136526
809.521	0.0137106
809.599	0.0137683
809.677	0.0135997
809.755	0.0137157
809.833	0.0136734
809.912	0.0136874
809.990	0.0137231
810.068	0.0136046
810.146	0.0135649
810.224	0.0135002
810.302	0.0135857
810.380	0.0134236
810.458	0.0136781
810.537	0.0135397
810.615	0.0136196
810.693	0.0136295
810.771	0.0137029
810.849	0.0135438
810.927	0.0136388
811.005	0.0135970
811.083	0.0135841
811.162	0.0136503
811.240	0.0135046
811.318	0.0135381
811.396	0.0137029
811.474	0.0137276
811.552	0.0136848
811.630	0.0137654
811.708	0.0137852
811.787	0.0136790
811.865	0.0136993
811.943	0.0137157
812.021	0.0137032
812.099	0.0136639
812.177	0.0136409
812.255	0.0137278
812.333	0.0135407
812.412	0.0136527
812.490	0.0136839
812.568	0.0135668
812.646	0.0136074
812.724	0.0136167
812.802	0.0136797
812.880	0.0137597
812.958	0.0136786
813.037	0.0136254
813.115	0.0136382
813.193	0.0137240
813.271	0.0136175
813.349	0.0134603
813.427	0.0135667
813.505	0.0134306
813.583	0.0134016
813.662	0.0135100
813.740	0.0133975
813.818	0.0134777
813.896	0.0134667
813.974	0.0134112
814.052	0.0135236
814.130	0.0135955
814.208	0.0135012
814.287	0.0134849
814.365	0.0136019
814.443	0.0135256
814.521	0.0136617
814.599	0.0136005
814.677	0.0135863
814.755	0.0135676
814.833	0.0134795
814.912	0.0135165
814.990	0.0135879
815.068	0.0134934
815.146	0.0133897
815.224	0.0133626
815.302	0.0134425
815.380	0.0135124
815.458	0.0133643
815.537	0.0135270
815.615	0.0134458
815.693	0.0134334
815.771	0.0134315
815.849	0.0133360
815.927	0.0134888
816.005	0.0134396
816.083	0.0134203
816.162	0.0136072
816.240	0.0135867
816.318	0.0136695
816.396	0.0136422
816.474	0.0136417
816.552	0.0138249
816.630	0.0137506
816.708	0.0137106
816.787	0.0138204
816.865	0.0139062
816.943	0.0138009
817.021	0.0138424
817.099	0.0137038
817.177	0.0139388
817.255	0.0138327
817.333	0.0136366
817.412	0.0137643
817.490	0.0137384
817.568	0.0137315
817.646	0.0138138
817.724	0.0135683
817.802	0.0136430
817.880	0.0136434
817.958	0.0135644
818.037	0.0135684
818.115	0.0134552
818.193	0.0136618
818.271	0.0135577
818.349	0.0134226
818.427	0.0134713
818.505	0.0134312
818.583	0.0134466
818.662	0.0134634
818.740	0.0133257
818.818	0.0133527
818.896	0.0132815
818.974	0.0132359
819.052	0.0133257
819.130	0.0132918
819.208	0.0133807
819.287	0.0133360
819.365	0.0133504
819.443	0.0132864
819.521	0.0132292
819.599	0.0134512
819.677	0.0134212
819.755	0.0133227
819.833	0.0133843
819.912	0.0133691
819.990	0.0132336
820.068	0.0135120
820.146	0.0135228
820.224	0.0136189
820.302	0.0135253
820.380	0.0134878
820.458	0.0135217
820.537	0.0135883
820.615	0.0135302
820.693	0.0135965
820.771	0.0135492
820.849	0.0135789
820.927	0.0135631
821.005	0.0133745
821.083	0.0135094
821.162	0.0135290
821.240	0.0133238
821.318	0.0132654
821.396	0.0134041
821.474	0.0133775
821.552	0.0134149
821.630	0.0133022
821.708	0.0133078
821.787	0.0132989
821.865	0.0133355
821.943	0.0133710
822.021	0.0133674
822.099	0.0133561
822.177	0.0132551
822.255	0.0133252
822.333	0.0134788
822.412	0.0133812
822.490	0.0135001
822.568	0.0133259
822.646	0.0135197
822.724	0.0134723
822.802	0.0135038
822.880	0.0134856
822.958	0.0134555
823.037	0.0136891
823.115	0.0136362
823.193	0.0136634
823.271	0.0137560
823.349	0.0137871
823.427	0.0137275
823.505	0.0137679
823.583	0.0137574
823.662	0.0137874
823.740	0.0137041
823.818	0.0137208
823.896	0.0137406
823.974	0.0136736
824.052	0.0136050
824.130	0.0136591
824.208	0.0137909
824.287	0.0136303
824.365	0.0134998
824.443	0.0135392
824.521	0.0136110
824.599	0.0135378
824.677	0.0135478
824.755	0.0134088
824.833	0.0135892
824.912	0.0134284
824.990	0.0134264
825.068	0.0135722
825.146	0.0135054
825.224	0.0134173
825.302	0.0134808
825.380	0.0136491
825.458	0.0134292
825.537	0.0134847
825.615	0.0135891
825.693	0.0135754
825.771	0.0135112
825.849	0.0133150
825.927	0.0135294
826.005	0.0134824
826.083	0.0133720
826.162	0.0135910
826.240	0.0134161
826.318	0.0133290
826.396	0.0134538
826.474	0.0134765
826.552	0.0132451
826.630	0.0131929
826.708	0.0132659
826.787	0.0131240
826.865	0.0131336
826.943	0.0131876
827.021	0.0131981
827.099	0.0132516
827.177	0.0130772
827.255	0.0132624
827.333	0.0132603
827.412	0.0133994
827.490	0.0134530
827.568	0.0134072
827.646	0.0134478
827.724	0.0134337
827.802	0.0134516
827.880	0.0135020
827.958	0.0135630
828.037	0.0137630
828.115	0.0136401
828.193	0.0137198
828.271	0.0136356
828.349	0.0136513
828.427	0.0137493
828.505	0.0136391
828.583	0.0138085
828.662	0.0136472
828.740	0.0136150
828.818	0.0136612
828.896	0.0136489
828.974	0.0136058
829.052	0.0135560
829.130	0.0136680
829.208	0.0135934
829.287	0.0135901
829.365	0.0137572
829.443	0.0135400
829.521	0.0136560
829.599	0.0137347
829.677	0.0136488
829.755	0.0134969
829.833	0.0135944
829.912	0.0135870
829.990	0.0136968
830.068	0.0135670
830.146	0.0136260
830.224	0.0135151
830.302	0.0134535
830.380	0.0134601
830.458	0.0135418
830.537	0.0135561
830.615	0.0135009
830.693	0.0136017
830.771	0.0135188
830.849	0.0136276
830.927	0.0136015
831.005	0.0136671
831.083	0.0137120
831.162	0.0135614
831.240	0.0136111
831.318	0.0137782
831.396	0.0134797
831.474	0.0135854
831.552	0.0136334
831.630	0.0134624
831.708	0.0135014
831.787	0.0135141
831.865	0.0134428
831.943	0.0134616
832.021	0.0133748
832.099	0.0134795
832.177	0.0134174
832.255	0.0134239
832.333	0.0132827
832.412	0.0133595
832.490	0.0133597
832.568	0.0134418
832.646	0.0131966
832.724	0.0133089
832.802	0.0133372
832.880	0.0133962
832.958	0.0134297
833.037	0.0133809
833.115	0.0134774
833.193	0.0134564
833.271	0.0135072
833.349	0.0135464
833.427	0.0135481
833.505	0.0135204
833.583	0.0136563
833.662	0.0136578
833.740	0.0136265
833.818	0.0137072
833.896	0.0136663
833.974	0.0135950
834.052	0.0135343
834.130	0.0136376
834.208	0.0136716
834.287	0.0135268
834.365	0.0135547
834.443	0.0135370
834.521	0.0135558
834.599	0.0134091
834.677	0.0135545
834.755	0.0135207
834.833	0.0135409
834.912	0.0134852
834.990	0.0136735
835.068	0.0136182
835.146	0.0135673
835.224	0.0137257
835.302	0.0137425
835.380	0.0136771
835.458	0.0135932
835.537	0.0137246
835.615	0.0136715
835.693	0.0137911
835.771	0.0138276
835.849	0.0136803
835.927	0.0137636
836.005	0.0138263
836.083	0.0137126
836.162	0.0137074
836.240	0.0137524
836.318	0.0136898
836.396	0.0137080
836.474	0.0134995
836.552	0.0136427
836.630	0.0135442
836.708	0.0136469
836.787	0.0136538
836.865	0.0136961
836.943	0.0135439
837.021	0.0137041
837.099	0.0136018
837.177	0.0135654
837.255	0.0135036
837.333	0.0133978
837.412	0.0134396
837.490	0.0133925
837.568	0.0134381
837.646	0.0134176
837.724	0.0134327
837.802	0.0134566
837.880	0.0136942
837.958	0.0135703
838.037	0.0134855
838.115	0.0133912
838.193	0.0132513
838.271	0.0133354
838.349	0.0134658
838.427	0.0133563
838.505	0.0134238
838.583	0.0134213
838.662	0.0133537
838.740	0.0135537
838.818	0.0134007
838.896	0.0135175
838.974	0.0134452
839.052	0.0134409
839.130	0.0135374
839.208	0.0137067
839.287	0.0136440
839.365	0.0136259
839.443	0.0135455
839.521	0.0136915
839.599	0.0135250
839.677	0.0134928
839.755	0.0137484
839.833	0.0135910
839.912	0.0135914
839.990	0.0136412
840.068	0.0137907
840.146	0.0135350
840.224	0.0135523
840.302	0.0134879
840.380	0.0135764
840.458	0.0137197
840.537	0.0137483
840.615	0.0136413
840.693	0.0137332
840.771	0.0136733
840.849	0.0135653
840.927	0.0135918
841.005	0.0134396
841.083	0.0135311
841.162	0.0136430
841.240	0.0135014
841.318	0.0134968
841.396	0.0135349
841.474	0.0134106
841.552	0.0135336
841.630	0.0134744
841.708	0.0135029
841.787	0.0134925
841.865	0.0134467
841.943	0.0136074
842.021	0.0135878
842.099	0.0135490
842.177	0.0136497
842.255	0.0136803
842.333	0.0135900
842.412	0.0136733
842.490	0.0135856
842.568	0.0138385
842.646	0.0138033
842.724	0.0137105
842.802	0.0137575
842.880	0.0137377
842.958	0.0136641
843.037	0.0136436
843.115	0.0135925
843.193	0.0134364
843.271	0.0135281
843.349	0.0135099
843.427	0.0134176
843.505	0.0132760
843.583	0.0133806
843.662	0.0133383
843.740	0.0132913
843.818	0.0130757
843.896	0.0131724
843.974	0.0133250
844.052	0.0132132
844.130	0.0131424
844.208	0.0132643
844.287	0.0131881
844.365	0.0133711
844.443	0.0133714
844.521	0.0134264
844.599	0.0133308
844.677	0.0133978
844.755	0.0135645
844.833	0.0135025
844.912	0.0135606
844.990	0.0135162
845.068	0.0135283
845.146	0.0136401
845.224	0.0135557
845.302	0.0135045
845.380	0.0135287
845.458	0.0134473
845.537	0.0135717
845.615	0.0135643
845.693	0.0136078
845.771	0.0133087
845.849	0.0135796
845.927	0.0135838
846.005	0.0135302
846.083	0.0135810
846.162	0.0134818
846.240	0.0134141
846.318	0.0136136
846.396	0.0136139
846.474	0.0136177
846.552	0.0134149
846.630	0.0135722
846.708	0.0136533
846.787	0.0136130
846.865	0.0135619
846.943	0.0136617
847.021	0.0136315
847.099	0.0135609
847.177	0.0136319
847.255	0.0136505
847.333	0.0136151
847.412	0.0136484
847.490	0.0136414
847.568	0.0135640
847.646	0.0136262
847.724	0.0136920
847.802	0.0134509
847.880	0.0135457
847.958	0.0135189
848.037	0.0134975
848.115	0.0134985
848.193	0.0134758
848.271	0.0134546
848.349	0.0134254
848.427	0.0133619
848.505	0.0132685
848.583	0.0133537
848.662	0.0133225
848.740	0.0134455
848.818	0.0134260
848.896	0.0132899
848.974	0.0133772
849.052	0.0133549
849.130	0.0133493
849.208	0.0135023
849.287	0.0135255
849.365	0.0132843
849.443	0.0132498
849.521	0.0134185
849.599	0.0135278
849.677	0.0133768
849.755	0.0133865
849.833	0.0134421
849.912	0.0134543
849.990	0.0132375
850.068	0.0134629
850.146	0.0132777
850.224	0.0134718
850.302	0.0133932
850.380	0.0134185
850.458	0.0135052
850.537	0.0134926
850.615	0.0135359
850.693	0.0135323
850.771	0.0136347
850.849	0.0135065
850.927	0.0134302
851.005	0.0135664
851.083	0.0135117
851.162	0.0135057
851.240	0.0135515
851.318	0.0134885
851.396	0.0135072
851.474	0.0136685
851.552	0.0134442
851.630	0.0134837
851.708	0.0136576
851.787	0.0137704
851.865	0.0136623
851.943	0.0136780
852.021	0.0136562
852.099	0.0136210
852.177	0.0137212
852.255	0.0136473
852.333	0.0136145
852.412	0.0135139
852.490	0.0135848
852.568	0.0135833
852.646	0.0133117
852.724	0.0135202
852.802	0.0133739
852.880	0.0133270
852.958	0.0133848
853.037	0.0133740
853.115	0.0133610
853.193	0.0135126
853.271	0.0135236
853.349	0.0133660
853.427	0.0133356
853.505	0.0134444
853.583	0.0135859
853.662	0.0135623
853.740	0.0135908
853.818	0.0136224
853.896	0.0135442
853.974	0.0136366
854.052	0.0136417
854.130	0.0137106
854.208	0.0136031
854.287	0.0136373
854.365	0.0137162
854.443	0.0137088
854.521	0.0137185
854.599	0.0138042
854.677	0.0137412
854.755	0.0138177
854.833	0.0138753
854.912	0.0135928
854.990	0.0137337
855.068	0.0136853
855.146	0.0137262
855.224	0.0136498
855.302	0.0135321
855.380	0.0136570
855.458	0.0136699
855.537	0.0135855
855.615	0.0134973
855.693	0.0135441
855.771	0.0134079
855.849	0.0134845
855.927	0.0135169
856.005	0.0134620
856.083	0.0133694
856.162	0.0133630
856.240	0.0134042
856.318	0.0132436
856.396	0.0133370
856.474	0.0133559
856.552	0.0132599
856.630	0.0132011
856.708	0.0132414
856.787	0.0132731
856.865	0.0134616
856.943	0.0133237
857.021	0.0134709
857.099	0.0135830
857.177	0.0135426
857.255	0.0135619
857.333	0.0136111
857.412	0.0137244
857.490	0.0139617
857.568	0.0137797
857.646	0.0139503
857.724	0.0139512
857.802	0.0139729
857.880	0.0139993
857.958	0.0140435
858.037	0.0140556
858.115	0.0140175
858.193	0.0139249
858.271	0.0139957
858.349	0.0139979
858.427	0.0138177
858.505	0.0136896
858.583	0.0136095
858.662	0.0135872
858.740	0.0135432
858.818	0.0134151
858.896	0.0134267
858.974	0.0132664
859.052	0.0132597
859.130	0.0130702
859.208	0.0132307
859.287	0.0131820
859.365	0.0132607
859.443	0.0131834
859.521	0.0131699
859.599	0.0132769
859.677	0.0134300
859.755	0.0134541
859.833	0.0135196
859.912	0.0135072
859.990	0.0136830
860.068	0.0136681
860.146	0.0136734
860.224	0.0137086
860.302	0.0137621
860.380	0.0137444
860.458	0.0139962
860.537	0.0138598
860.615	0.0138397
860.693	0.0138773
860.771	0.0139652
860.849	0.0139215
860.927	0.0138062
861.005	0.0139536
861.083	0.0140305
861.162	0.0138710
861.240	0.0139632
861.318	0.0138303
861.396	0.0138023
861.474	0.0137344
861.552	0.0137707
861.630	0.0136559
861.708	0.0135683
861.787	0.0135434
861.865	0.0135559
861.943	0.0135481
862.021	0.0136503
862.099	0.0135625
862.177	0.0135410
862.255	0.0136489
862.333	0.0136027
862.412	0.0136027
862.490	0.0133955
862.568	0.0135578
862.646	0.0136533
862.724	0.0135389
862.802	0.0136102
862.880	0.0134816
862.958	0.0134802
863.037	0.0135692
863.115	0.0135364
863.193	0.0135863
863.271	0.0135023
863.349	0.0134300
863.427	0.0135406
863.505	0.0135044
863.583	0.0134586
863.662	0.0135787
863.740	0.0134751
863.818	0.0136331
863.896	0.0135048
863.974	0.0134510
864.052	0.0134234
864.130	0.0135436
864.208	0.0133692
864.287	0.0133864
864.365	0.0134254
864.443	0.0133590
864.521	0.0133959
864.599	0.0133495
864.677	0.0133303
864.755	0.0132938
864.833	0.0134219
864.912	0.0134911
864.990	0.0135708
865.068	0.0134438
865.146	0.0133042
865.224	0.0133794
865.302	0.0133681
865.380	0.0134487
865.458	0.0134770
865.537	0.0132933
865.615	0.0134817
865.693	0.0134992
865.771	0.0135852
865.849	0.0135283
865.927	0.0135488
866.005	0.0135262
866.083	0.0135886
866.162	0.0135946
866.240	0.0135900
866.318	0.0135365
866.396	0.0135099
866.474	0.0134513
866.552	0.0134113
866.630	0.0133516
866.708	0.0134475
866.787	0.0134206
866.865	0.0134254
866.943	0.0136900
867.021	0.0134718
867.099	0.0133502
867.177	0.0134682
867.255	0.0134523
867.333	0.0134164
867.412	0.0133648
867.490	0.0132909
867.568	0.0134959
867.646	0.0133308
867.724	0.0134116
867.802	0.0134805
867.880	0.0134576
867.958	0.0133022
868.037	0.0133893
868.115	0.0136256
868.193	0.0136816
868.271	0.0136935
868.349	0.0138206
868.427	0.0138155
868.505	0.0138084
868.583	0.0137271
868.662	0.0137442
868.740	0.0139000
868.818	0.0140212
868.896	0.0138916
868.974	0.0139868
869.052	0.0139857
869.130	0.0138131
869.208	0.0137852
869.287	0.0138052
869.365	0.0137394
869.443	0.0137776
869.521	0.0136348
869.599	0.0135435
869.677	0.0133677
869.755	0.0133728
869.833	0.0133286
869.912	0.0133007
869.990	0.0131596
870.068	0.0131365
870.146	0.0130667
870.224	0.0128786
870.302	0.0129751
870.380	0.0130254
870.458	0.0128853
870.537	0.0129738
870.615	0.0128854
870.693	0.0131300
870.771	0.0132145
870.849	0.0131613
870.927	0.0132777
871.005	0.0133771
871.083	0.0133118
871.162	0.0134052
871.240	0.0133501
871.318	0.0134005
871.396	0.0135345
871.474	0.0134148
871.552	0.0136799
871.630	0.0135865
871.708	0.0135485
871.787	0.0136137
871.865	0.0137235
871.943	0.0137300
872.021	0.0137962
872.099	0.0137518
872.177	0.0136065
872.255	0.0135796
872.333	0.0136861
872.412	0.0138060
872.490	0.0136687
872.568	0.0137569
872.646	0.0136289
872.724	0.0136306
872.802	0.0136875
872.880	0.0136320
872.958	0.0136257
873.037	0.0136990
873.115	0.0134982
873.193	0.0135997
873.271	0.0136723
873.349	0.0136267
873.427	0.0135938
873.505	0.0135820
873.583	0.0135957
873.662	0.0135485
873.740	0.0134930
873.818	0.0133402
873.896	0.0134851
873.974	0.0134851
874.052	0.0134069
874.130	0.0134283
874.208	0.0134198
874.287	0.0134248
874.365	0.0135138
874.443	0.0134475
874.521	0.0135419
874.599	0.0134206
874.677	0.0132707
874.755	0.0133490
874.833	0.0135101
874.912	0.0134775
874.990	0.0135078
875.068	0.0134198
875.146	0.0133680
875.224	0.0134739
875.302	0.0135042
875.380	0.0133669
875.458	0.0135449
875.537	0.0135013
875.615	0.0134700
875.693	0.0135295
875.771	0.0136718
875.849	0.0135870
875.927	0.0136878
876.005	0.0134794
876.083	0.0135649
876.162	0.0137083
876.240	0.0134355
876.318	0.0134943
876.396	0.0136253
876.474	0.0134566
876.552	0.0137196
876.630	0.0136631
876.708	0.0135409
876.787	0.0135984
876.865	0.0135863
876.943	0.0135567
877.021	0.0135245
877.099	0.0137383
877.177	0.0137141
877.255	0.0137637
877.333	0.0136200
877.412	0.0135590
877.490	0.0136075
877.568	0.0135988
877.646	0.0136398
877.724	0.0134998
877.802	0.0135036
877.880	0.0134245
877.958	0.0134483
878.037	0.0134062
878.115	0.0133754
878.193	0.0134766
878.271	0.0134116
878.349	0.0134310
878.427	0.0133858
878.505	0.0133239
878.583	0.0133205
878.662	0.0134884
878.740	0.0134466
878.818	0.0133811
878.896	0.0134886
878.974	0.0134293
879.052	0.0135168
879.130	0.0134325
879.208	0.0134906
879.287	0.0135875
879.365	0.0134980
879.443	0.0135296
879.521	0.0135061
879.599	0.0134878
879.677	0.0135645
879.755	0.0136388
879.833	0.0134987
879.912	0.0136418
879.990	0.0135728
880.068	0.0134087
880.146	0.0136362
880.224	0.0134609
880.302	0.0135444
880.380	0.0133761
880.458	0.0135196
880.537	0.0135378
880.615	0.0134876
880.693	0.0134293
880.771	0.0133626
880.849	0.0133974
880.927	0.0133453
881.005	0.0134011
881.083	0.0132854
881.162	0.0134548
881.240	0.0133904
881.318	0.0133501
881.396	0.0133593
881.474	0.0134512
881.552	0.0134241
881.630	0.0133739
881.708	0.0134853
881.787	0.0136116
881.865	0.0136375
881.943	0.0135895
882.021	0.0135848
882.099	0.0136563
882.177	0.0136385
882.255	0.0136126
882.333	0.0136843
882.412	0.0137222
882.490	0.0136984
882.568	0.0136768
882.646	0.0136486
882.724	0.0137769
882.802	0.0136926
882.880	0.0136531
882.958	0.0136189
883.037	0.0135261
883.115	0.0137242
883.193	0.0136030
883.271	0.0135704
883.349	0.0135451
883.427	0.0136160
883.505	0.0135978
883.583	0.0136234
883.662	0.0135824
883.740	0.0134987
883.818	0.0136952
883.896	0.0135104
883.974	0.0136691
884.052	0.0135847
884.130	0.0134929
884.208	0.0135866
884.287	0.0134836
884.365	0.0135834
884.443	0.0136295
884.521	0.0135661
884.599	0.0137418
884.677	0.0134647
884.755	0.0135500
884.833	0.0137460
884.912	0.0134800
884.990	0.0134558
885.068	0.0135089
885.146	0.0136723
885.224	0.0135387
885.302	0.0134959
885.380	0.0135464
885.458	0.0136604
885.537	0.0135973
885.615	0.0136343
885.693	0.0136446
885.771	0.0136369
885.849	0.0137260
885.927	0.0136806
886.005	0.0136036
886.083	0.0135494
886.162	0.0135777
886.240	0.0138085
886.318	0.0137451
886.396	0.0136922
886.474	0.0135570
886.552	0.0134512
886.630	0.0135741
886.708	0.0136510
886.787	0.0137114
886.865	0.0137162
886.943	0.0136082
887.021	0.0134684
887.099	0.0135161
887.177	0.0136508
887.255	0.0135925
887.333	0.0135156
887.412	0.0135457
887.490	0.0136695
887.568	0.0135255
887.646	0.0135737
887.724	0.0135889
887.802	0.0134432
887.880	0.0135060
887.958	0.0134745
888.037	0.0135624
888.115	0.0134808
888.193	0.0134003
888.271	0.0134303
888.349	0.0133865
888.427	0.0134398
888.505	0.0135090
888.583	0.0134385
888.662	0.0134612
888.740	0.0136287
888.818	0.0136091
888.896	0.0135233
888.974	0.0136109
889.052	0.0136758
889.130	0.0136819
889.208	0.0137495
889.287	0.0137914
889.365	0.0138315
889.443	0.0138645
889.521	0.0139445
889.599	0.0138295
889.677	0.0137734
889.755	0.0137373
889.833	0.0137644
889.912	0.0138554
889.990	0.0137103
890.068	0.0137239
890.146	0.0137836
890.224	0.0134837
890.302	0.0134692
890.380	0.0134947
890.458	0.0135767
890.537	0.0134547
890.615	0.0133100
890.693	0.0133179
890.771	0.0133887
890.849	0.0132410
890.927	0.0132631
891.005	0.0131666
891.083	0.0130764
891.162	0.0133218
891.240	0.0132397
891.318	0.0131787
891.396	0.0132046
891.474	0.0130987
891.552	0.0131145
891.630	0.0132735
891.708	0.0133432
891.787	0.0134471
891.865	0.0132988
891.943	0.0133053
892.021	0.0134396
892.099	0.0134112
892.177	0.0134825
892.255	0.0135353
892.333	0.0135925
892.412	0.0136206
892.490	0.0135384
892.568	0.0137093
892.646	0.0138328
892.724	0.0137107
892.802	0.0136909
892.880	0.0137881
892.958	0.0137122
893.037	0.0138008
893.115	0.0137863
893.193	0.0136142
893.271	0.0136265
893.349	0.0136189
893.427	0.0136803
893.505	0.0135655
893.583	0.0134304
893.662	0.0136016
893.740	0.0135051
893.818	0.0133527
893.896	0.0132928
893.974	0.0135332
894.052	0.0133740
894.130	0.0133581
894.208	0.0133578
894.287	0.0135001
894.365	0.0135645
894.443	0.0135970
894.521	0.0134400
894.599	0.0134103
894.677	0.0135564
894.755	0.0135040
894.833	0.0134224
894.912	0.0134139
894.990	0.0133990
895.068	0.0134441
895.146	0.0134877
895.224	0.0135785
895.302	0.0135547
895.380	0.0133876
895.458	0.0132444
895.537	0.0133094
895.615	0.0134873
895.693	0.0134756
895.771	0.0134524
895.849	0.0134006
895.927	0.0133675
896.005	0.0133926
896.083	0.0133504
896.162	0.0133825
896.240	0.0133862
896.318	0.0134940
896.396	0.0134010
896.474	0.0133717
896.552	0.0133752
896.630	0.0135791
896.708	0.0134840
896.787	0.0133739
896.865	0.0134737
896.943	0.0134875
897.021	0.0134388
897.099	0.0134080
897.177	0.0134277
897.255	0.0133900
897.333	0.0134670
897.412	0.0134228
897.490	0.0133993
897.568	0.0133321
897.646	0.0134079
897.724	0.0132883
897.802	0.0134547
897.880	0.0136341
897.958	0.0134737
898.037	0.0134312
898.115	0.0134785
898.193	0.0136431
898.271	0.0136585
898.349	0.0135464
898.427	0.0135236
898.505	0.0136111
898.583	0.0137132
898.662	0.0136609
898.740	0.0135638
898.818	0.0135108
898.896	0.0135045
898.974	0.0136000
899.052	0.0135096
899.130	0.0136835
899.208	0.0136501
899.287	0.0136037
899.365	0.0135885
899.443	0.0136965
899.521	0.0136328
899.599	0.0136826
899.677	0.0136798
899.755	0.0135983
899.833	0.0136143
899.912	0.0136342
899.990	0.0136781
900.068	0.0137168
900.146	0.0135213
900.224	0.0137556
900.302	0.0137003
900.380	0.0135053
900.458	0.0133881
900.537	0.0134999
900.615	0.0134878
900.693	0.0134424
900.771	0.0134191
900.849	0.0133607
900.927	0.0133058
901.005	0.0132915
901.083	0.0134295
901.162	0.0134007
901.240	0.0131853
901.318	0.0133923
901.396	0.0131918
901.474	0.0132178
901.552	0.0133070
901.630	0.0132898
901.708	0.0131525
901.787	0.0131053
901.865	0.0131347
901.943	0.0132044
902.021	0.0132188
902.099	0.0132977
902.177	0.0132558
902.255	0.0132613
902.333	0.0133427
902.412	0.0134129
902.490	0.0134464
902.568	0.0134371
902.646	0.0135080
902.724	0.0133228
902.802	0.0134692
902.880	0.0136328
902.958	0.0134624
903.037	0.0133778
903.115	0.0134180
903.193	0.0135059
903.271	0.0134489
903.349	0.0134885
903.427	0.0134430
903.505	0.0135205
903.583	0.0133829
903.662	0.0134577
903.740	0.0136906
903.818	0.0135676
903.896	0.0135772
903.974	0.0138035
904.052	0.0135487
904.130	0.0137451
904.208	0.0137436
904.287	0.0138237
904.365	0.0136702
904.443	0.0137846
904.521	0.0137706
904.599	0.0138463
904.677	0.0137629
904.755	0.0137439
904.833	0.0137153
904.912	0.0136903
904.990	0.0137583
905.068	0.0136156
905.146	0.0137368
905.224	0.0136254
905.302	0.0135444
905.380	0.0136048
905.458	0.0136430
905.537	0.0135075
905.615	0.0134123
905.693	0.0135145
905.771	0.0135339
905.849	0.0135340
905.927	0.0134758
906.005	0.0133925
906.083	0.0134389
906.162	0.0133970
906.240	0.0134351
906.318	0.0133842
906.396	0.0134927
906.474	0.0133454
906.552	0.0133427
906.630	0.0133107
906.708	0.0133797
906.787	0.0134557
906.865	0.0134341
906.943	0.0133831
907.021	0.0134584
907.099	0.0135526
907.177	0.0133450
907.255	0.0133798
907.333	0.0136530
907.412	0.0136177
907.490	0.0135304
907.568	0.0134577
907.646	0.0135770
907.724	0.0136404
907.802	0.0136402
907.880	0.0136519
907.958	0.0137251
908.037	0.0136347
908.115	0.0137347
908.193	0.0137034
908.271	0.0136684
908.349	0.0137442
908.427	0.0136850
908.505	0.0135761
908.583	0.0135524
908.662	0.0136363
908.740	0.0135976
908.818	0.0136821
908.896	0.0136874
908.974	0.0133890
909.052	0.0135760
909.130	0.0135445
909.208	0.0136687
909.287	0.0134541
909.365	0.0135106
909.443	0.0135876
909.521	0.0135526
909.599	0.0136929
909.677	0.0136058
909.755	0.0135313
909.833	0.0137209
909.912	0.0136426
909.990	0.0137291
910.068	0.0135679
910.146	0.0136214
910.224	0.0136671
910.302	0.0136954
910.380	0.0137202
910.458	0.0138483
910.537	0.0135754
910.615	0.0136403
910.693	0.0136127
910.771	0.0135775
910.849	0.0136948
910.927	0.0138310
911.005	0.0137345
911.083	0.0137347
911.162	0.0139068
911.240	0.0137253
911.318	0.0136637
911.396	0.0136430
911.474	0.0135798
911.552	0.0136522
911.630	0.0137423
911.708	0.0135588
911.787	0.0136910
911.865	0.0136383
911.943	0.0135287
912.021	0.0135272
912.099	0.0134543
912.177	0.0135503
912.255	0.0136021
912.333	0.0136279
912.412	0.0135463
912.490	0.0133850
912.568	0.0134464
912.646	0.0134623
912.724	0.0133788
912.802	0.0134544
912.880	0.0134438
912.958	0.0134365
913.037	0.0134311
913.115	0.0135417
913.193	0.0135257
913.271	0.0134187
913.349	0.0132250
913.427	0.0132822
913.505	0.0133985
913.583	0.0134427
913.662	0.0134401
913.740	0.0134389
913.818	0.0132969
913.896	0.0132658
913.974	0.0135133
914.052	0.0134409
914.130	0.0134194
914.208	0.0134395
914.287	0.0135967
914.365	0.0135954
914.443	0.0135015
914.521	0.0133678
914.599	0.0135530
914.677	0.0135778
914.755	0.0134608
914.833	0.0136460
914.912	0.0134917
914.990	0.0135394
915.068	0.0135555
915.146	0.0137329
915.224	0.0135801
915.302	0.0136234
915.380	0.0137356
915.458	0.0136317
915.537	0.0136787
915.615	0.0139106
915.693	0.0137514
915.771	0.0138071
915.849	0.0136459
915.927	0.0137237
916.005	0.0138675
916.083	0.0138383
916.162	0.0137772
916.240	0.0137547
916.318	0.0137795
916.396	0.0137713
916.474	0.0136136
916.552	0.0136132
916.630	0.0136726
916.708	0.0136744
916.787	0.0136642
916.865	0.0134609
916.943	0.0134782
917.021	0.0136232
917.099	0.0136583
917.177	0.0134681
917.255	0.0134044
917.333	0.0135589
917.412	0.0136366
917.490	0.0135011
917.568	0.0134700
917.646	0.0135432
917.724	0.0135533
917.802	0.0135378
917.880	0.0136713
917.958	0.0134951
918.037	0.0135034
918.115	0.0134327
918.193	0.0135406
918.271	0.0134914
918.349	0.0134862
918.427	0.0133647
918.505	0.0134042
918.583	0.0133971
918.662	0.0133372
918.740	0.0134097
918.818	0.0133413
918.896	0.0134239
918.974	0.0135014
919.052	0.0134003
919.130	0.0134326
919.208	0.0134626
919.287	0.0134917
919.365	0.0133574
919.443	0.0134341
919.521	0.0134663
919.599	0.0135838
919.677	0.0135144
919.755	0.0135205
919.833	0.0134455
919.912	0.0134995
919.990	0.0134583
920.068	0.0134712
920.146	0.0134867
920.224	0.0136037
920.302	0.0134713
920.380	0.0133941
920.458	0.0135172
920.537	0.0134168
920.615	0.0134360
920.693	0.0134317
920.771	0.0133235
920.849	0.0135625
920.927	0.0134363
921.005	0.0135070
921.083	0.0134280
921.162	0.0135387
921.240	0.0136294
921.318	0.0135398
921.396	0.0137181
921.474	0.0138268
921.552	0.0139250
921.630	0.0136855
921.708	0.0138257
921.787	0.0138252
921.865	0.0137854
921.943	0.0139284
922.021	0.0138192
922.099	0.0137772
922.177	0.0138783
922.255	0.0137476
922.333	0.0136825
922.412	0.0137870
922.490	0.0137309
922.568	0.0138134
922.646	0.0137725
922.724	0.0134699
922.802	0.0135061
922.880	0.0134226
922.958	0.0134717
923.037	0.0134325
923.115	0.0133896
923.193	0.0134140
923.271	0.0134536
923.349	0.0133728
923.427	0.0134582
923.505	0.0134546
923.583	0.0134568
923.662	0.0133326
923.740	0.0135007
923.818	0.0133293
923.896	0.0134109
923.974	0.0133148
924.052	0.0134005
924.130	0.0133150
924.208	0.0133601
924.287	0.0135814
924.365	0.0135005
924.443	0.0135139
924.521	0.0136533
924.599	0.0134422
924.677	0.0134691
924.755	0.0134886
924.833	0.0136019
924.912	0.0135992
924.990	0.0135101
925.068	0.0134995
925.146	0.0136578
925.224	0.0135657
925.302	0.0134781
925.380	0.0135543
925.458	0.0135789
925.537	0.0135077
925.615	0.0135023
925.693	0.0135342
925.771	0.0134700
925.849	0.0135141
925.927	0.0132952
926.005	0.0133573
926.083	0.0133701
926.162	0.0133320
926.240	0.0134755
926.318	0.0133389
926.396	0.0133348
926.474	0.0134012
926.552	0.0133851
926.630	0.0133451
926.708	0.0134487
926.787	0.0135274
926.865	0.0133880
926.943	0.0134428
927.021	0.0134491
927.099	0.0134804
927.177	0.0136830
927.255	0.0135751
927.333	0.0136156
927.412	0.0135600
927.490	0.0136687
927.568	0.0137290
927.646	0.0137643
927.724	0.0134610
927.802	0.0136540
927.880	0.0137144
927.958	0.0135921
928.037	0.0137510
928.115	0.0138231
928.193	0.0137291
928.271	0.0136536
928.349	0.0137004
928.427	0.0135552
928.505	0.0136440
928.583	0.0137663
928.662	0.0136684
928.740	0.0135909
928.818	0.0136148
928.896	0.0135462
928.974	0.0135668
929.052	0.0134173
929.130	0.0134708
929.208	0.0133483
929.287	0.0134158
929.365	0.0132944
929.443	0.0133797
929.521	0.0133448
929.599	0.0134622
929.677	0.0133619
929.755	0.0132098
929.833	0.0133842
929.912	0.0133363
929.990	0.0133879
930.068	0.0133171
930.146	0.0134506
930.224	0.0134048
930.302	0.0134185
930.380	0.0134347
930.458	0.0134857
930.537	0.0135238
930.615	0.0136288
930.693	0.0135216
930.771	0.0135021
930.849	0.0135896
930.927	0.0134727
931.005	0.0135341
931.083	0.0135466
931.162	0.0135177
931.240	0.0135479
931.318	0.0135181
931.396	0.0135091
931.474	0.0134952
931.552	0.0133858
931.630	0.0135567
931.708	0.0135923
931.787	0.0133813
931.865	0.0134696
931.943	0.0134571
932.021	0.0134525
932.099	0.0134605
932.177	0.0133955
932.255	0.0135079
932.333	0.0134298
932.412	0.0135498
932.490	0.0135716
932.568	0.0133816
932.646	0.0136357
932.724	0.0138352
932.802	0.0135093
932.880	0.0135484
932.958	0.0138113
933.037	0.0137332
933.115	0.0135829
933.193	0.0135932
933.271	0.0135954
933.349	0.0135837
933.427	0.0136526
933.505	0.0137334
933.583	0.0137421
933.662	0.0136137
933.740	0.0137518
933.818	0.0136072
933.896	0.0136768
933.974	0.0137286
934.052	0.0135374
934.130	0.0137058
934.208	0.0135976
934.287	0.0134975
934.365	0.0136520
934.443	0.0135127
934.521	0.0135050
934.599	0.0137315
934.677	0.0134466
934.755	0.0135552
934.833	0.0135866
934.912	0.0136552
934.990	0.0134922
935.068	0.0137762
935.146	0.0136196
935.224	0.0136829
935.302	0.0135841
935.380	0.0135330
935.458	0.0135187
935.537	0.0135857
935.615	0.0135532
935.693	0.0135578
935.771	0.0137125
935.849	0.0136057
935.927	0.0135526
936.005	0.0136194
936.083	0.0135944
936.162	0.0137246
936.240	0.0135249
936.318	0.0135757
936.396	0.0136828
936.474	0.0136300
936.552	0.0135935
936.630	0.0137164
936.708	0.0135712
936.787	0.0136031
936.865	0.0138041
936.943	0.0137677
937.021	0.0135379
937.099	0.0135652
937.177	0.0136201
937.255	0.0136493
937.333	0.0136905
937.412	0.0135495
937.490	0.0135510
937.568	0.0137128
937.646	0.0135581
937.724	0.0135125
937.802	0.0135580
937.880	0.0137009
937.958	0.0135416
938.037	0.0135928
938.115	0.0136320
938.193	0.0134252
938.271	0.0135596
938.349	0.0134011
938.427	0.0134317
938.505	0.0134227
938.583	0.0133598
938.662	0.0134839
938.740	0.0136436
938.818	0.0135069
938.896	0.0135972
938.974	0.0134666
939.052	0.0135146
939.130	0.0134687
939.208	0.0137481
939.287	0.0139106
939.365	0.0138066
939.443	0.0138643
939.521	0.0137890
939.599	0.0137347
939.677	0.0137118
939.755	0.0138495
939.833	0.0138557
939.912	0.0139115
939.990	0.0138564
940.068	0.0137129
940.146	0.0137887
940.224	0.0137920
940.302	0.0136519
940.380	0.0137377
940.458	0.0137475
940.537	0.0136179
940.615	0.0137103
940.693	0.0137180
940.771	0.0136137
940.849	0.0138186
940.927	0.0136945
941.005	0.0135230
941.083	0.0135628
941.162	0.0135136
941.240	0.0134559
941.318	0.0134247
941.396	0.0133685
941.474	0.0134263
941.552	0.0133084
941.630	0.0132981
941.708	0.0132884
941.787	0.0134349
941.865	0.0134924
941.943	0.0135090
942.021	0.0135863
942.099	0.0134591
942.177	0.0135394
942.255	0.0135452
942.333	0.0134557
942.412	0.0135777
942.490	0.0135670
942.568	0.0136292
942.646	0.0137218
942.724	0.0137402
942.802	0.0135424
942.880	0.0136414
942.958	0.0136366
943.037	0.0134566
943.115	0.0135125
943.193	0.0136065
943.271	0.0136031
943.349	0.0135741
943.427	0.0134881
943.505	0.0134544
943.583	0.0135972
943.662	0.0135343
943.740	0.0135707
943.818	0.0134077
943.896	0.0134820
943.974	0.0134126
944.052	0.0134497
944.130	0.0134807
944.208	0.0135296
944.287	0.0135448
944.365	0.0134074
944.443	0.0132833
944.521	0.0134859
944.599	0.0134934
944.677	0.0133256
944.755	0.0136485
944.833	0.0135210
944.912	0.0133018
944.990	0.0134227
945.068	0.0133498
945.146	0.0135793
945.224	0.0133922
945.302	0.0135268
945.380	0.0134766
945.458	0.0134834
945.537	0.0135380
945.615	0.0134908
945.693	0.0133653
945.771	0.0135031
945.849	0.0137114
945.927	0.0135462
946.005	0.0135294
946.083	0.0135334
946.162	0.0135446
946.240	0.0136099
946.318	0.0135252
946.396	0.0136185
946.474	0.0135267
946.552	0.0135482
946.630	0.0135610
946.708	0.0137424
946.787	0.0136141
946.865	0.0135642
946.943	0.0135110
947.021	0.0135423
947.099	0.0135332
947.177	0.0134671
947.255	0.0134810
947.333	0.0135572
947.412	0.0135538
947.490	0.0135535
947.568	0.0135953
947.646	0.0137216
947.724	0.0135811
947.802	0.0135636
947.880	0.0134976
947.958	0.0135648
948.037	0.0135358
948.115	0.0135564
948.193	0.0136244
948.271	0.0135014
948.349	0.0136059
948.427	0.0136811
948.505	0.0135051
948.583	0.0134726
948.662	0.0135667
948.740	0.0134727
948.818	0.0134750
948.896	0.0136467
948.974	0.0134245
949.052	0.0134295
949.130	0.0134654
949.208	0.0135091
949.287	0.0134636
949.365	0.0134688
949.443	0.0133424
949.521	0.0133994
949.599	0.0133737
949.677	0.0133039
949.755	0.0133687
949.833	0.0133306
949.912	0.0131306
949.990	0.0133694
950.068	0.0132725
950.146	0.0132294
950.224	0.0133229
950.302	0.0132767
950.380	0.0134327
950.458	0.0134866
950.537	0.0135217
950.615	0.0136099
950.693	0.0135612
950.771	0.0137243
950.849	0.0136885
950.927	0.0135873
951.005	0.0136423
951.083	0.0136419
951.162	0.0136424
951.240	0.0138648
951.318	0.0137695
951.396	0.0137182
951.474	0.0137821
951.552	0.0137113
951.630	0.0137003
951.708	0.0138395
951.787	0.0136864
951.865	0.0136537
951.943	0.0136126
952.021	0.0138493
952.099	0.0136888
952.177	0.0137225
952.255	0.0136209
952.333	0.0136112
952.412	0.0135314
952.490	0.0135342
952.568	0.0135491
952.646	0.0135375
952.724	0.0135340
952.802	0.0133797
952.880	0.0135741
952.958	0.0133502
953.037	0.0132530
953.115	0.0132864
953.193	0.0133569
953.271	0.0132166
953.349	0.0134187
953.427	0.0135017
953.505	0.0133710
953.583	0.0132035
953.662	0.0134284
953.740	0.0134757
953.818	0.0134245
953.896	0.0134966
953.974	0.0134267
954.052	0.0136234
954.130	0.0136653
954.208	0.0134864
954.287	0.0135086
954.365	0.0134972
954.443	0.0136067
954.521	0.0136053
954.599	0.0135485
954.677	0.0134292
954.755	0.0135371
954.833	0.0136723
954.912	0.0134897
954.990	0.0134156
955.068	0.0135482
955.146	0.0136466
955.224	0.0136400
955.302	0.0136852
955.380	0.0135066
955.458	0.0137111
955.537	0.0136024
955.615	0.0135195
955.693	0.0137365
955.771	0.0136689
955.849	0.0136527
955.927	0.0136140
956.005	0.0135619
956.083	0.0136141
956.162	0.0137099
956.240	0.0136091
956.318	0.0137872
956.396	0.0136591
956.474	0.0136530
956.552	0.0136244
956.630	0.0136361
956.708	0.0136936
956.787	0.0135369
956.865	0.0136151
956.943	0.0134508
957.021	0.0136324
957.099	0.0134239
957.177	0.0134073
957.255	0.0135236
957.333	0.0134684
957.412	0.0134521
957.490	0.0134843
957.568	0.0134691
957.646	0.0134184
957.724	0.0134034
957.802	0.0135165
957.880	0.0133978
957.958	0.0134778
958.037	0.0135757
958.115	0.0135516
958.193	0.0134862
958.271	0.0134486
958.349	0.0134403
958.427	0.0134720
958.505	0.0137338
958.583	0.0137116
958.662	0.0136600
958.740	0.0135954
958.818	0.0137183
958.896	0.0137170
958.974	0.0136821
959.052	0.0136550
959.130	0.0136926
959.208	0.0135461
959.287	0.0135294
959.365	0.0136302
959.443	0.0136678
959.521	0.0136323
959.599	0.0134738
959.677	0.0134698
959.755	0.0135735
959.833	0.0134211
959.912	0.0135434
959.990	0.0135445
960.068	0.0135979
960.146	0.0134215
960.224	0.0134194
960.302	0.0134516
960.380	0.0135101
960.458	0.0135199
960.537	0.0134611
960.615	0.0134783
960.693	0.0136323
960.771	0.0135505
960.849	0.0133410
960.927	0.0135230
961.005	0.0135416
961.083	0.0134931
961.162	0.0135620
961.240	0.0134074
961.318	0.0134060
961.396	0.0134333
961.474	0.0136575
961.552	0.0135014
961.630	0.0135895
961.708	0.0136081
961.787	0.0134712
961.865	0.0136137
961.943	0.0135790
962.021	0.0136193
962.099	0.0135947
962.177	0.0135374
962.255	0.0134309
962.333	0.0135149
962.412	0.0137159
962.490	0.0136173
962.568	0.0135757
962.646	0.0137223
962.724	0.0135472
962.802	0.0135922
962.880	0.0135384
962.958	0.0136111
963.037	0.0136621
963.115	0.0136477
963.193	0.0137387
963.271	0.0136241
963.349	0.0134422
963.427	0.0135185
963.505	0.0134855
963.583	0.0134987
963.662	0.0135095
963.740	0.0134734
963.818	0.0134486
963.896	0.0134914
963.974	0.0134137
964.052	0.0133900
964.130	0.0133904
964.208	0.0135506
964.287	0.0135340
964.365	0.0136332
964.443	0.0135100
964.521	0.0135500
964.599	0.0135796
964.677	0.0136186
964.755	0.0136098
964.833	0.0135719
964.912	0.0136980
964.990	0.0137086
965.068	0.0137231
965.146	0.0134158
965.224	0.0135406
965.302	0.0135722
965.380	0.0136237
965.458	0.0134849
965.537	0.0134562
965.615	0.0134629
965.693	0.0133948
965.771	0.0134203
965.849	0.0134084
965.927	0.0135201
966.005	0.0134354
966.083	0.0133998
966.162	0.0133486
966.240	0.0134192
966.318	0.0132620
966.396	0.0133916
966.474	0.0134064
966.552	0.0134442
966.630	0.0134605
966.708	0.0136143
966.787	0.0134415
966.865	0.0134118
966.943	0.0134935
967.021	0.0135178
967.099	0.0134326
967.177	0.0134838
967.255	0.0136085
967.333	0.0137006
967.412	0.0136083
967.490	0.0134851
967.568	0.0137024
967.646	0.0135609
967.724	0.0134918
967.802	0.0136604
967.880	0.0136435
967.958	0.0134825
968.037	0.0134594
968.115	0.0135316
968.193	0.0134764
968.271	0.0135554
968.349	0.0135101
968.427	0.0135444
968.505	0.0136802
968.583	0.0136319
968.662	0.0136511
968.740	0.0135936
968.818	0.0135275
968.896	0.0135083
968.974	0.0135442
969.052	0.0135457
969.130	0.0135622
969.208	0.0134663
969.287	0.0134295
969.365	0.0136084
969.443	0.0136361
969.521	0.0135441
969.599	0.0134991
969.677	0.0136105
969.755	0.0135733
969.833	0.0134238
969.912	0.0135799
