05/08/2022	19:58:06	Ver.	4.1	UNKNOWN
Optical Delay	649.989667	Delta X		0.078125	Sweeps	1	Scan Rate	0/0
Coordinates	Axis 1	NaN	Axis 2	NaN	Axis 3	NaN	Axis 4	NaN	Axis 5	NaN	Axis 6	0.000000
TX Power	0.000000	RX Power	0.000000

649.990	0.0134715
650.068	0.0134301
650.146	0.0134984
650.224	0.0135674
650.302	0.0134333
650.380	0.0134798
650.458	0.0134759
650.537	0.0134158
650.615	0.0132945
650.693	0.0134141
650.771	0.0133350
650.849	0.0131796
650.927	0.0133012
651.005	0.0131967
651.083	0.0133701
651.162	0.0133741
651.240	0.0134222
651.318	0.0132500
651.396	0.0134648
651.474	0.0134058
651.552	0.0136165
651.630	0.0135633
651.708	0.0134667
651.787	0.0135518
651.865	0.0134755
651.943	0.0135378
652.021	0.0135307
652.099	0.0133652
652.177	0.0133753
652.255	0.0134820
652.333	0.0134212
652.412	0.0133733
652.490	0.0132700
652.568	0.0134188
652.646	0.0132912
652.724	0.0133037
652.802	0.0132983
652.880	0.0132449
652.958	0.0134167
653.037	0.0134463
653.115	0.0134404
653.193	0.0133968
653.271	0.0134917
653.349	0.0134695
653.427	0.0135410
653.505	0.0135133
653.583	0.0134766
653.662	0.0135673
653.740	0.0133641
653.818	0.0132524
653.896	0.0133348
653.974	0.0131553
654.052	0.0131659
654.130	0.0132673
654.208	0.0132539
654.287	0.0132935
654.365	0.0133695
654.443	0.0134860
654.521	0.0134705
654.599	0.0136198
654.677	0.0137894
654.755	0.0138084
654.833	0.0138116
654.912	0.0138130
654.990	0.0139153
655.068	0.0139521
655.146	0.0138898
655.224	0.0138309
655.302	0.0136240
655.380	0.0135354
655.458	0.0134033
655.537	0.0134165
655.615	0.0133067
655.693	0.0132159
655.771	0.0132459
655.849	0.0129627
655.927	0.0130566
656.005	0.0130936
656.083	0.0130114
656.162	0.0130530
656.240	0.0130894
656.318	0.0129816
656.396	0.0128604
656.474	0.0129683
656.552	0.0129822
656.630	0.0129289
656.708	0.0131811
656.787	0.0130141
656.865	0.0129122
656.943	0.0129299
657.021	0.0131947
657.099	0.0132484
657.177	0.0133775
657.255	0.0135081
657.333	0.0137466
657.412	0.0139991
657.490	0.0140644
657.568	0.0141146
657.646	0.0144384
657.724	0.0144944
657.802	0.0144590
657.880	0.0144745
657.958	0.0145366
658.037	0.0145177
658.115	0.0142874
658.193	0.0141779
658.271	0.0142717
658.349	0.0138877
658.427	0.0136608
658.505	0.0134116
658.583	0.0130753
658.662	0.0130583
658.740	0.0128251
658.818	0.0126089
658.896	0.0124616
658.974	0.0123405
659.052	0.0121115
659.130	0.0119534
659.208	0.0119547
659.287	0.0119785
659.365	0.0118426
659.443	0.0117236
659.521	0.0117570
659.599	0.0119767
659.677	0.0120240
659.755	0.0120877
659.833	0.0123535
659.912	0.0127412
659.990	0.0129051
660.068	0.0133683
660.146	0.0136724
660.224	0.0139799
660.302	0.0142467
660.380	0.0146171
660.458	0.0151558
660.537	0.0153565
660.615	0.0155238
660.693	0.0159560
660.771	0.0159605
660.849	0.0160313
660.927	0.0160684
661.005	0.0159290
661.083	0.0161234
661.162	0.0157479
661.240	0.0154564
661.318	0.0152590
661.396	0.0149883
661.474	0.0146937
661.552	0.0142709
661.630	0.0136933
661.708	0.0130920
661.787	0.0129002
661.865	0.0123706
661.943	0.0118816
662.021	0.0114879
662.099	0.0112147
662.177	0.0107674
662.255	0.0106113
662.333	0.0102961
662.412	0.0101878
662.490	0.0101421
662.568	0.0102969
662.646	0.0104142
662.724	0.0107629
662.802	0.0108006
662.880	0.0110602
662.958	0.0113029
663.037	0.0117166
663.115	0.0119410
663.193	0.0124251
663.271	0.0128782
663.349	0.0133600
663.427	0.0137448
663.505	0.0143698
663.583	0.0146775
663.662	0.0150946
663.740	0.0155856
663.818	0.0159768
663.896	0.0162659
663.974	0.0168826
664.052	0.0169592
664.130	0.0171735
664.208	0.0174603
664.287	0.0175519
664.365	0.0173907
664.443	0.0172888
664.521	0.0170198
664.599	0.0165298
664.677	0.0161341
664.755	0.0157027
664.833	0.0151748
664.912	0.0146709
664.990	0.0140914
665.068	0.0133558
665.146	0.0129451
665.224	0.0124165
665.302	0.0119377
665.380	0.0113732
665.458	0.0111598
665.537	0.0106586
665.615	0.0102486
665.693	0.0100867
665.771	0.00992126
665.849	0.00979897
665.927	0.00972939
666.005	0.00988281
666.083	0.0100990
666.162	0.0102544
666.240	0.0105022
666.318	0.0106519
666.396	0.0111145
666.474	0.0115833
666.552	0.0118750
666.630	0.0123215
666.708	0.0129033
666.787	0.0133558
666.865	0.0136443
666.943	0.0141154
667.021	0.0144562
667.099	0.0147999
667.177	0.0154102
667.255	0.0156257
667.333	0.0158054
667.412	0.0160407
667.490	0.0161823
667.568	0.0162719
667.646	0.0164088
667.724	0.0164620
667.802	0.0163477
667.880	0.0161450
667.958	0.0160374
668.037	0.0157413
668.115	0.0154388
668.193	0.0150659
668.271	0.0146122
668.349	0.0143827
668.427	0.0141219
668.505	0.0135905
668.583	0.0134661
668.662	0.0131092
668.740	0.0129957
668.818	0.0128612
668.896	0.0127267
668.974	0.0127090
669.052	0.0125438
669.130	0.0125655
669.208	0.0126198
669.287	0.0126455
669.365	0.0127399
669.443	0.0126283
669.521	0.0126641
669.599	0.0127754
669.677	0.0126147
669.755	0.0126785
669.833	0.0126629
669.912	0.0126089
669.990	0.0127088
670.068	0.0128625
670.146	0.0128416
670.224	0.0126801
670.302	0.0129105
670.380	0.0127294
670.458	0.0127859
670.537	0.0126414
670.615	0.0126810
670.693	0.0125573
670.771	0.0124937
670.849	0.0123056
670.927	0.0123901
671.005	0.0124487
671.083	0.0124297
671.162	0.0124828
671.240	0.0125475
671.318	0.0127209
671.396	0.0130728
671.474	0.0132393
671.552	0.0135486
671.630	0.0140071
671.708	0.0142976
671.787	0.0146106
671.865	0.0148238
671.943	0.0151399
672.021	0.0154592
672.099	0.0154014
672.177	0.0155151
672.255	0.0154966
672.333	0.0153445
672.412	0.0153310
672.490	0.0151208
672.568	0.0150278
672.646	0.0148215
672.724	0.0143850
672.802	0.0144090
672.880	0.0141636
672.958	0.0139675
673.037	0.0137206
673.115	0.0136983
673.193	0.0136111
673.271	0.0135474
673.349	0.0134576
673.427	0.0135268
673.505	0.0132485
673.583	0.0132389
673.662	0.0133183
673.740	0.0132300
673.818	0.0131779
673.896	0.0130405
673.974	0.0128253
674.052	0.0127704
674.130	0.0126672
674.208	0.0125729
674.287	0.0124317
674.365	0.0123428
674.443	0.0124067
674.521	0.0121567
674.599	0.0122969
674.677	0.0123795
674.755	0.0124544
674.833	0.0125181
674.912	0.0126542
674.990	0.0127514
675.068	0.0128840
675.146	0.0128142
675.224	0.0128626
675.302	0.0127814
675.380	0.0125598
675.458	0.0124750
675.537	0.0124261
675.615	0.0123529
675.693	0.0122202
675.771	0.0121499
675.849	0.0121169
675.927	0.0121272
676.005	0.0120602
676.083	0.0122813
676.162	0.0124822
676.240	0.0127689
676.318	0.0128398
676.396	0.0133045
676.474	0.0135327
676.552	0.0138210
676.630	0.0141454
676.708	0.0143980
676.787	0.0149380
676.865	0.0152299
676.943	0.0154288
677.021	0.0157557
677.099	0.0158450
677.177	0.0160291
677.255	0.0161886
677.333	0.0163306
677.412	0.0162270
677.490	0.0160458
677.568	0.0159029
677.646	0.0155739
677.724	0.0152755
677.802	0.0147976
677.880	0.0144084
677.958	0.0139484
678.037	0.0136657
678.115	0.0132435
678.193	0.0125793
678.271	0.0122313
678.349	0.0120039
678.427	0.0115594
678.505	0.0110959
678.583	0.0108842
678.662	0.0106902
678.740	0.0105505
678.818	0.0102568
678.896	0.0100874
678.974	0.0102698
679.052	0.0102946
679.130	0.0103818
679.208	0.0107294
679.287	0.0110039
679.365	0.0112907
679.443	0.0119491
679.521	0.0124025
679.599	0.0128018
679.677	0.0134290
679.755	0.0137606
679.833	0.0145027
679.912	0.0149682
679.990	0.0151937
680.068	0.0156660
680.146	0.0157577
680.224	0.0158456
680.302	0.0160722
680.380	0.0159358
680.458	0.0157956
680.537	0.0155054
680.615	0.0154393
680.693	0.0151807
680.771	0.0148091
680.849	0.0147048
680.927	0.0142687
681.005	0.0139861
681.083	0.0138029
681.162	0.0132991
681.240	0.0131895
681.318	0.0130264
681.396	0.0128951
681.474	0.0128307
681.552	0.0127755
681.630	0.0127435
681.708	0.0127191
681.787	0.0130181
681.865	0.0129852
681.943	0.0129516
682.021	0.0133431
682.099	0.0133454
682.177	0.0132908
682.255	0.0134210
682.333	0.0135775
682.412	0.0133556
682.490	0.0133524
682.568	0.0132222
682.646	0.0129800
682.724	0.0128900
682.802	0.0128700
682.880	0.0125803
682.958	0.0124665
683.037	0.0123303
683.115	0.0124573
683.193	0.0124551
683.271	0.0122926
683.349	0.0125025
683.427	0.0125865
683.505	0.0126505
683.583	0.0128588
683.662	0.0131928
683.740	0.0131165
683.818	0.0133718
683.896	0.0136161
683.974	0.0139334
684.052	0.0140534
684.130	0.0141907
684.208	0.0144740
684.287	0.0144949
684.365	0.0146917
684.443	0.0148238
684.521	0.0150346
684.599	0.0151047
684.677	0.0150330
684.755	0.0151093
684.833	0.0152784
684.912	0.0151919
684.990	0.0150957
685.068	0.0149746
685.146	0.0149805
685.224	0.0149761
685.302	0.0147878
685.380	0.0146449
685.458	0.0145779
685.537	0.0142564
685.615	0.0141038
685.693	0.0139291
685.771	0.0138586
685.849	0.0136266
685.927	0.0133723
686.005	0.0131806
686.083	0.0129765
686.162	0.0125986
686.240	0.0123726
686.318	0.0120629
686.396	0.0118833
686.474	0.0115205
686.552	0.0114857
686.630	0.0110776
686.708	0.0109391
686.787	0.0108456
686.865	0.0105654
686.943	0.0106203
687.021	0.0106419
687.099	0.0108280
687.177	0.0110352
687.255	0.0112729
687.333	0.0114632
687.412	0.0118916
687.490	0.0122543
687.568	0.0127032
687.646	0.0131410
687.724	0.0138045
687.802	0.0141682
687.880	0.0143894
687.958	0.0149293
688.037	0.0152766
688.115	0.0154964
688.193	0.0156694
688.271	0.0159512
688.349	0.0159832
688.427	0.0160083
688.505	0.0159705
688.583	0.0158227
688.662	0.0156622
688.740	0.0155547
688.818	0.0154060
688.896	0.0152705
688.974	0.0151614
689.052	0.0148903
689.130	0.0146607
689.208	0.0146459
689.287	0.0145078
689.365	0.0144075
689.443	0.0142344
689.521	0.0140752
689.599	0.0137856
689.677	0.0136124
689.755	0.0134702
689.833	0.0131521
689.912	0.0129716
689.990	0.0127975
690.068	0.0127586
690.146	0.0126649
690.224	0.0125639
690.302	0.0125631
690.380	0.0126395
690.458	0.0124947
690.537	0.0125217
690.615	0.0125687
690.693	0.0125701
690.771	0.0126583
690.849	0.0127290
690.927	0.0128176
691.005	0.0128643
691.083	0.0128677
691.162	0.0128592
691.240	0.0129212
691.318	0.0128743
691.396	0.0130017
691.474	0.0130228
691.552	0.0129682
691.630	0.0131113
691.708	0.0131597
691.787	0.0131000
691.865	0.0132523
691.943	0.0134159
692.021	0.0133381
692.099	0.0134058
692.177	0.0133698
692.255	0.0134112
692.333	0.0134615
692.412	0.0131815
692.490	0.0130824
692.568	0.0129624
692.646	0.0128429
692.724	0.0126810
692.802	0.0125194
692.880	0.0125449
692.958	0.0125027
693.037	0.0124574
693.115	0.0125074
693.193	0.0126286
693.271	0.0127042
693.349	0.0126847
693.427	0.0129647
693.505	0.0132167
693.583	0.0132059
693.662	0.0135992
693.740	0.0137607
693.818	0.0138223
693.896	0.0140812
693.974	0.0142693
694.052	0.0145538
694.130	0.0146785
694.208	0.0149154
694.287	0.0148847
694.365	0.0150513
694.443	0.0150702
694.521	0.0152628
694.599	0.0151126
694.677	0.0149599
694.755	0.0151187
694.833	0.0148609
694.912	0.0146383
694.990	0.0143433
695.068	0.0142168
695.146	0.0140085
695.224	0.0139576
695.302	0.0136739
695.380	0.0135744
695.458	0.0136188
695.537	0.0134315
695.615	0.0134410
695.693	0.0134821
695.771	0.0135585
695.849	0.0136513
695.927	0.0135221
696.005	0.0134799
696.083	0.0133895
696.162	0.0133649
696.240	0.0132670
696.318	0.0129073
696.396	0.0126847
696.474	0.0124677
696.552	0.0120370
696.630	0.0117843
696.708	0.0114768
696.787	0.0112008
696.865	0.0110809
696.943	0.0110467
697.021	0.0109350
697.099	0.0108926
697.177	0.0110833
697.255	0.0112436
697.333	0.0113892
697.412	0.0118645
697.490	0.0120331
697.568	0.0123906
697.646	0.0127468
697.724	0.0130884
697.802	0.0134114
697.880	0.0136843
697.958	0.0139490
698.037	0.0141476
698.115	0.0141864
698.193	0.0142930
698.271	0.0143840
698.349	0.0141918
698.427	0.0140714
698.505	0.0138808
698.583	0.0138274
698.662	0.0137629
698.740	0.0136823
698.818	0.0135539
698.896	0.0136218
698.974	0.0135284
699.052	0.0138770
699.130	0.0139599
699.208	0.0142134
699.287	0.0142651
699.365	0.0146636
699.443	0.0148260
699.521	0.0149495
699.599	0.0149179
699.677	0.0150340
699.755	0.0150092
699.833	0.0147699
699.912	0.0148154
699.990	0.0147392
700.068	0.0146364
700.146	0.0144749
700.224	0.0143054
700.302	0.0142532
700.380	0.0140900
700.458	0.0139848
700.537	0.0137636
700.615	0.0135741
700.693	0.0134940
700.771	0.0135682
700.849	0.0133099
700.927	0.0131779
701.005	0.0131819
701.083	0.0130370
701.162	0.0130432
701.240	0.0130347
701.318	0.0129196
701.396	0.0129755
701.474	0.0129955
701.552	0.0128867
701.630	0.0128330
701.708	0.0128167
701.787	0.0128168
701.865	0.0127254
701.943	0.0125812
702.021	0.0126435
702.099	0.0125909
702.177	0.0125407
702.255	0.0125214
702.333	0.0125437
702.412	0.0124033
702.490	0.0124570
702.568	0.0125516
702.646	0.0124933
702.724	0.0124832
702.802	0.0126155
702.880	0.0126859
702.958	0.0127361
703.037	0.0128954
703.115	0.0131723
703.193	0.0131934
703.271	0.0133014
703.349	0.0134677
703.427	0.0138776
703.505	0.0140429
703.583	0.0141962
703.662	0.0142722
703.740	0.0145258
703.818	0.0144508
703.896	0.0144999
703.974	0.0145898
704.052	0.0145552
704.130	0.0145152
704.208	0.0144872
704.287	0.0144763
704.365	0.0143062
704.443	0.0140764
704.521	0.0140192
704.599	0.0139558
704.677	0.0138044
704.755	0.0138229
704.833	0.0137569
704.912	0.0138145
704.990	0.0137220
705.068	0.0137083
705.146	0.0138080
705.224	0.0137094
705.302	0.0137065
705.380	0.0137395
705.458	0.0138013
705.537	0.0139272
705.615	0.0138345
705.693	0.0138398
705.771	0.0137750
705.849	0.0137648
705.927	0.0138370
706.005	0.0136662
706.083	0.0136310
706.162	0.0135213
706.240	0.0135618
706.318	0.0131856
706.396	0.0130605
706.474	0.0130223
706.552	0.0127838
706.630	0.0126272
706.708	0.0125445
706.787	0.0123811
706.865	0.0121844
706.943	0.0122342
707.021	0.0122823
707.099	0.0123991
707.177	0.0121860
707.255	0.0124280
707.333	0.0123857
707.412	0.0126574
707.490	0.0128821
707.568	0.0129440
707.646	0.0131348
707.724	0.0133874
707.802	0.0136267
707.880	0.0137736
707.958	0.0139124
708.037	0.0140524
708.115	0.0142447
708.193	0.0143597
708.271	0.0144505
708.349	0.0145062
708.427	0.0146003
708.505	0.0145325
708.583	0.0145226
708.662	0.0145384
708.740	0.0144384
708.818	0.0143871
708.896	0.0141811
708.974	0.0141174
709.052	0.0141627
709.130	0.0139251
709.208	0.0137808
709.287	0.0137195
709.365	0.0134995
709.443	0.0135494
709.521	0.0135693
709.599	0.0134657
709.677	0.0134179
709.755	0.0133472
709.833	0.0133724
709.912	0.0132918
709.990	0.0132288
710.068	0.0131469
710.146	0.0131080
710.224	0.0129716
710.302	0.0127393
710.380	0.0126129
710.458	0.0124705
710.537	0.0123200
710.615	0.0121434
710.693	0.0120920
710.771	0.0119698
710.849	0.0118845
710.927	0.0119296
711.005	0.0120736
711.083	0.0123805
711.162	0.0123523
711.240	0.0126795
711.318	0.0130968
711.396	0.0134411
711.474	0.0137153
711.552	0.0140857
711.630	0.0143530
711.708	0.0145495
711.787	0.0146767
711.865	0.0148030
711.943	0.0149296
712.021	0.0149487
712.099	0.0147197
712.177	0.0145243
712.255	0.0144782
712.333	0.0141618
712.412	0.0138474
712.490	0.0134991
712.568	0.0134736
712.646	0.0131794
712.724	0.0127587
712.802	0.0129477
712.880	0.0129037
712.958	0.0129998
713.037	0.0130016
713.115	0.0130467
713.193	0.0133382
713.271	0.0136947
713.349	0.0136127
713.427	0.0138789
713.505	0.0138996
713.583	0.0142081
713.662	0.0142746
713.740	0.0140872
713.818	0.0139948
713.896	0.0140682
713.974	0.0137785
714.052	0.0138788
714.130	0.0135520
714.208	0.0133372
714.287	0.0135178
714.365	0.0133179
714.443	0.0131447
714.521	0.0130798
714.599	0.0129827
714.677	0.0131606
714.755	0.0131390
714.833	0.0131348
714.912	0.0131561
714.990	0.0134850
715.068	0.0132973
715.146	0.0134939
715.224	0.0134057
715.302	0.0133242
715.380	0.0133537
715.458	0.0132341
715.537	0.0130698
715.615	0.0130802
715.693	0.0128942
715.771	0.0127216
715.849	0.0126951
715.927	0.0125006
716.005	0.0125827
716.083	0.0124216
716.162	0.0124284
716.240	0.0123642
716.318	0.0125081
716.396	0.0125809
716.474	0.0125783
716.552	0.0127511
716.630	0.0128171
716.708	0.0129288
716.787	0.0131940
716.865	0.0132117
716.943	0.0133708
717.021	0.0135021
717.099	0.0138384
717.177	0.0138148
717.255	0.0139644
717.333	0.0139725
717.412	0.0139346
717.490	0.0141425
717.568	0.0141117
717.646	0.0139475
717.724	0.0141208
717.802	0.0140100
717.880	0.0139201
717.958	0.0138336
718.037	0.0137688
718.115	0.0135784
718.193	0.0135168
718.271	0.0135024
718.349	0.0135158
718.427	0.0133443
718.505	0.0133284
718.583	0.0133053
718.662	0.0129974
718.740	0.0130145
718.818	0.0131349
718.896	0.0131476
718.974	0.0130920
719.052	0.0133405
719.130	0.0133220
719.208	0.0133080
719.287	0.0135958
719.365	0.0136475
719.443	0.0137888
719.521	0.0138716
719.599	0.0139175
719.677	0.0141730
719.755	0.0143559
719.833	0.0144510
719.912	0.0143696
719.990	0.0144381
720.068	0.0147066
720.146	0.0144508
720.224	0.0142786
720.302	0.0140563
720.380	0.0137801
720.458	0.0137012
720.537	0.0133658
720.615	0.0132838
720.693	0.0131823
720.771	0.0129389
720.849	0.0128712
720.927	0.0127082
721.005	0.0128086
721.083	0.0127882
721.162	0.0128583
721.240	0.0127686
721.318	0.0129282
721.396	0.0129873
721.474	0.0129364
721.552	0.0129486
721.630	0.0130829
721.708	0.0132359
721.787	0.0131273
721.865	0.0131820
721.943	0.0133128
722.021	0.0131763
722.099	0.0131032
722.177	0.0131107
722.255	0.0129883
722.333	0.0129058
722.412	0.0128665
722.490	0.0128033
722.568	0.0127043
722.646	0.0129187
722.724	0.0127908
722.802	0.0127856
722.880	0.0127496
722.958	0.0128507
723.037	0.0130383
723.115	0.0130894
723.193	0.0130772
723.271	0.0133273
723.349	0.0131895
723.427	0.0133836
723.505	0.0135009
723.583	0.0135199
723.662	0.0135271
723.740	0.0136899
723.818	0.0136179
723.896	0.0136614
723.974	0.0137191
724.052	0.0137772
724.130	0.0140770
724.208	0.0140940
724.287	0.0143044
724.365	0.0142553
724.443	0.0142592
724.521	0.0143349
724.599	0.0144266
724.677	0.0144965
724.755	0.0144837
724.833	0.0144837
724.912	0.0144141
724.990	0.0143750
725.068	0.0140662
725.146	0.0141028
725.224	0.0140351
725.302	0.0139781
725.380	0.0138318
725.458	0.0136790
725.537	0.0136246
725.615	0.0135680
725.693	0.0135931
725.771	0.0136195
725.849	0.0134631
725.927	0.0134311
726.005	0.0133022
726.083	0.0134205
726.162	0.0134793
726.240	0.0132095
726.318	0.0132388
726.396	0.0133228
726.474	0.0130994
726.552	0.0131711
726.630	0.0132207
726.708	0.0134080
726.787	0.0134581
726.865	0.0133982
726.943	0.0132982
727.021	0.0135680
727.099	0.0136334
727.177	0.0136066
727.255	0.0136117
727.333	0.0136337
727.412	0.0135989
727.490	0.0136749
727.568	0.0135193
727.646	0.0135893
727.724	0.0135001
727.802	0.0134228
727.880	0.0134306
727.958	0.0134328
728.037	0.0133371
728.115	0.0133778
728.193	0.0133195
728.271	0.0130423
728.349	0.0130608
728.427	0.0128952
728.505	0.0128138
728.583	0.0126178
728.662	0.0125215
728.740	0.0125484
728.818	0.0124594
728.896	0.0124318
728.974	0.0124834
729.052	0.0125586
729.130	0.0125588
729.208	0.0126015
729.287	0.0127338
729.365	0.0127643
729.443	0.0131407
729.521	0.0132111
729.599	0.0132153
729.677	0.0134608
729.755	0.0136817
729.833	0.0136680
729.912	0.0138854
729.990	0.0138336
730.068	0.0140489
730.146	0.0142156
730.224	0.0140517
730.302	0.0140580
730.380	0.0140373
730.458	0.0142399
730.537	0.0143563
730.615	0.0144532
730.693	0.0144397
730.771	0.0143566
730.849	0.0144129
730.927	0.0145902
731.005	0.0145203
731.083	0.0146105
731.162	0.0146098
731.240	0.0146057
731.318	0.0144611
731.396	0.0142661
731.474	0.0142025
731.552	0.0140416
731.630	0.0137431
731.708	0.0136931
731.787	0.0135789
731.865	0.0133881
731.943	0.0132648
732.021	0.0131924
732.099	0.0132072
732.177	0.0131623
732.255	0.0130743
732.333	0.0130459
732.412	0.0130961
732.490	0.0132946
732.568	0.0131976
732.646	0.0132844
732.724	0.0130775
732.802	0.0130724
732.880	0.0132847
732.958	0.0133196
733.037	0.0131644
733.115	0.0131741
733.193	0.0130206
733.271	0.0130494
733.349	0.0129060
733.427	0.0130915
733.505	0.0131039
733.583	0.0129163
733.662	0.0129318
733.740	0.0130520
733.818	0.0130798
733.896	0.0130554
733.974	0.0131660
734.052	0.0131998
734.130	0.0134943
734.208	0.0135979
734.287	0.0136053
734.365	0.0138007
734.443	0.0140895
734.521	0.0140756
734.599	0.0140370
734.677	0.0140108
734.755	0.0139545
734.833	0.0139223
734.912	0.0139254
734.990	0.0139164
735.068	0.0137867
735.146	0.0134695
735.224	0.0134734
735.302	0.0133280
735.380	0.0132079
735.458	0.0131602
735.537	0.0130688
735.615	0.0130456
735.693	0.0128401
735.771	0.0129374
735.849	0.0128670
735.927	0.0128383
736.005	0.0128133
736.083	0.0128176
736.162	0.0129839
736.240	0.0130478
736.318	0.0129547
736.396	0.0130498
736.474	0.0130350
736.552	0.0132119
736.630	0.0133060
736.708	0.0134576
736.787	0.0134342
736.865	0.0135043
736.943	0.0134174
737.021	0.0136818
737.099	0.0136971
737.177	0.0138711
737.255	0.0139085
737.333	0.0138365
737.412	0.0140092
737.490	0.0141309
737.568	0.0140781
737.646	0.0141146
737.724	0.0141183
737.802	0.0141336
737.880	0.0141946
737.958	0.0142685
738.037	0.0139852
738.115	0.0139780
738.193	0.0138692
738.271	0.0138955
738.349	0.0138504
738.427	0.0136315
738.505	0.0136755
738.583	0.0137191
738.662	0.0134842
738.740	0.0134685
738.818	0.0135461
738.896	0.0134723
738.974	0.0133254
739.052	0.0134246
739.130	0.0133907
739.208	0.0132210
739.287	0.0132887
739.365	0.0133424
739.443	0.0131564
739.521	0.0132151
739.599	0.0130849
739.677	0.0131710
739.755	0.0133678
739.833	0.0132507
739.912	0.0133055
739.990	0.0132697
740.068	0.0132236
740.146	0.0132858
740.224	0.0135873
740.302	0.0137045
740.380	0.0135271
740.458	0.0136334
740.537	0.0136189
740.615	0.0136814
740.693	0.0136952
740.771	0.0137777
740.849	0.0137087
740.927	0.0134311
741.005	0.0134309
741.083	0.0131804
741.162	0.0131465
741.240	0.0132370
741.318	0.0131698
741.396	0.0132097
741.474	0.0132123
741.552	0.0131673
741.630	0.0133022
741.708	0.0134557
741.787	0.0135910
741.865	0.0135114
741.943	0.0135052
742.021	0.0135540
742.099	0.0135201
742.177	0.0134499
742.255	0.0133469
742.333	0.0134522
742.412	0.0133451
742.490	0.0133953
742.568	0.0133070
742.646	0.0131774
742.724	0.0131617
742.802	0.0131311
742.880	0.0131936
742.958	0.0130988
743.037	0.0131844
743.115	0.0131596
743.193	0.0131517
743.271	0.0132271
743.349	0.0132222
743.427	0.0133055
743.505	0.0134244
743.583	0.0134010
743.662	0.0133508
743.740	0.0134940
743.818	0.0133763
743.896	0.0134496
743.974	0.0135961
744.052	0.0136153
744.130	0.0134424
744.208	0.0135818
744.287	0.0136723
744.365	0.0135510
744.443	0.0136154
744.521	0.0135785
744.599	0.0136380
744.677	0.0136546
744.755	0.0138139
744.833	0.0136037
744.912	0.0135910
744.990	0.0135966
745.068	0.0135758
745.146	0.0136235
745.224	0.0136274
745.302	0.0136288
745.380	0.0136237
745.458	0.0134470
745.537	0.0135287
745.615	0.0136978
745.693	0.0136313
745.771	0.0136312
745.849	0.0134710
745.927	0.0136252
746.005	0.0135902
746.083	0.0136136
746.162	0.0136702
746.240	0.0136309
746.318	0.0135371
746.396	0.0135858
746.474	0.0134633
746.552	0.0132388
746.630	0.0131956
746.708	0.0131698
746.787	0.0133240
746.865	0.0132944
746.943	0.0131090
747.021	0.0131751
747.099	0.0131688
747.177	0.0131422
747.255	0.0133575
747.333	0.0133414
747.412	0.0134052
747.490	0.0135229
747.568	0.0135793
747.646	0.0136153
747.724	0.0135107
747.802	0.0135935
747.880	0.0135379
747.958	0.0136773
748.037	0.0136059
748.115	0.0134822
748.193	0.0134200
748.271	0.0134207
748.349	0.0136074
748.427	0.0134057
748.505	0.0134850
748.583	0.0133798
748.662	0.0132287
748.740	0.0132860
748.818	0.0132176
748.896	0.0132009
748.974	0.0130520
749.052	0.0130363
749.130	0.0130869
749.208	0.0129583
749.287	0.0130583
749.365	0.0132338
749.443	0.0132648
749.521	0.0131950
749.599	0.0133947
749.677	0.0133662
749.755	0.0134626
749.833	0.0134903
749.912	0.0135636
749.990	0.0134510
750.068	0.0134770
750.146	0.0135962
750.224	0.0137196
750.302	0.0137415
750.380	0.0135671
750.458	0.0134928
750.537	0.0135853
750.615	0.0134667
750.693	0.0134339
750.771	0.0134792
750.849	0.0134563
750.927	0.0133739
751.005	0.0132575
751.083	0.0132816
751.162	0.0133378
751.240	0.0133018
751.318	0.0134347
751.396	0.0135464
751.474	0.0133883
751.552	0.0133907
751.630	0.0136082
751.708	0.0135430
751.787	0.0134906
751.865	0.0136005
751.943	0.0135787
752.021	0.0136792
752.099	0.0137028
752.177	0.0137577
752.255	0.0136526
752.333	0.0135026
752.412	0.0135873
752.490	0.0134995
752.568	0.0134089
752.646	0.0134769
752.724	0.0133409
752.802	0.0134164
752.880	0.0132832
752.958	0.0132471
753.037	0.0130907
753.115	0.0133189
753.193	0.0133827
753.271	0.0133975
753.349	0.0133875
753.427	0.0132780
753.505	0.0133929
753.583	0.0134645
753.662	0.0132700
753.740	0.0132595
753.818	0.0132631
753.896	0.0133725
753.974	0.0132406
754.052	0.0133122
754.130	0.0133132
754.208	0.0132372
754.287	0.0132379
754.365	0.0133274
754.443	0.0132854
754.521	0.0132806
754.599	0.0132529
754.677	0.0133853
754.755	0.0130972
754.833	0.0131520
754.912	0.0132246
754.990	0.0132504
755.068	0.0132843
755.146	0.0133166
755.224	0.0132533
755.302	0.0132632
755.380	0.0132507
755.458	0.0132671
755.537	0.0133220
755.615	0.0133741
755.693	0.0132195
755.771	0.0132360
755.849	0.0132927
755.927	0.0131697
756.005	0.0132171
756.083	0.0131141
756.162	0.0131546
756.240	0.0132285
756.318	0.0133271
756.396	0.0133495
756.474	0.0132344
756.552	0.0134802
756.630	0.0134084
756.708	0.0134357
756.787	0.0135319
756.865	0.0136461
756.943	0.0137944
757.021	0.0136565
757.099	0.0136886
757.177	0.0137056
757.255	0.0136662
757.333	0.0138103
757.412	0.0139542
757.490	0.0137971
757.568	0.0137611
757.646	0.0137809
757.724	0.0136937
757.802	0.0138934
757.880	0.0138548
757.958	0.0138116
758.037	0.0138068
758.115	0.0138557
758.193	0.0138197
758.271	0.0139095
758.349	0.0139037
758.427	0.0138530
758.505	0.0138253
758.583	0.0138306
758.662	0.0139362
758.740	0.0136366
758.818	0.0137901
758.896	0.0136020
758.974	0.0136130
759.052	0.0135956
759.130	0.0135104
759.208	0.0133342
759.287	0.0132871
759.365	0.0131263
759.443	0.0132433
759.521	0.0132866
759.599	0.0130457
759.677	0.0131139
759.755	0.0130129
759.833	0.0128963
759.912	0.0130204
759.990	0.0128590
760.068	0.0130910
760.146	0.0130975
760.224	0.0129903
760.302	0.0130803
760.380	0.0131213
760.458	0.0133147
760.537	0.0134474
760.615	0.0135106
760.693	0.0135969
760.771	0.0137546
760.849	0.0138057
760.927	0.0137975
761.005	0.0138609
761.083	0.0138096
761.162	0.0140179
761.240	0.0140688
761.318	0.0139394
761.396	0.0142182
761.474	0.0139758
761.552	0.0139734
761.630	0.0140263
761.708	0.0139282
761.787	0.0137915
761.865	0.0137959
761.943	0.0136826
762.021	0.0136115
762.099	0.0135113
762.177	0.0136124
762.255	0.0134874
762.333	0.0132491
762.412	0.0133241
762.490	0.0133338
762.568	0.0132732
762.646	0.0133794
762.724	0.0131638
762.802	0.0132510
762.880	0.0132423
762.958	0.0131720
763.037	0.0132312
763.115	0.0131551
763.193	0.0133102
763.271	0.0132088
763.349	0.0131833
763.427	0.0134010
763.505	0.0132427
763.583	0.0132731
763.662	0.0133078
763.740	0.0133268
763.818	0.0134949
763.896	0.0135931
763.974	0.0136400
764.052	0.0136835
764.130	0.0136903
764.208	0.0139441
764.287	0.0138226
764.365	0.0138292
764.443	0.0140187
764.521	0.0140897
764.599	0.0140607
764.677	0.0140054
764.755	0.0141225
764.833	0.0140583
764.912	0.0140527
764.990	0.0139585
765.068	0.0139416
765.146	0.0137566
765.224	0.0138017
765.302	0.0137420
765.380	0.0135713
765.458	0.0135381
765.537	0.0135152
765.615	0.0134135
765.693	0.0134667
765.771	0.0132362
765.849	0.0131898
765.927	0.0131858
766.005	0.0131903
766.083	0.0132642
766.162	0.0131882
766.240	0.0131104
766.318	0.0132716
766.396	0.0131636
766.474	0.0132080
766.552	0.0132194
766.630	0.0131941
766.708	0.0133738
766.787	0.0133169
766.865	0.0133118
766.943	0.0133254
767.021	0.0134305
767.099	0.0133894
767.177	0.0133710
767.255	0.0133553
767.333	0.0133633
767.412	0.0133894
767.490	0.0133238
767.568	0.0133694
767.646	0.0133437
767.724	0.0132208
767.802	0.0133088
767.880	0.0132686
767.958	0.0132457
768.037	0.0132738
768.115	0.0133791
768.193	0.0134070
768.271	0.0135305
768.349	0.0134647
768.427	0.0134925
768.505	0.0134675
768.583	0.0135925
768.662	0.0136556
768.740	0.0136388
768.818	0.0135963
768.896	0.0134732
768.974	0.0136183
769.052	0.0135645
769.130	0.0134119
769.208	0.0134658
769.287	0.0133521
769.365	0.0133378
769.443	0.0134631
769.521	0.0134435
769.599	0.0133760
769.677	0.0133028
769.755	0.0133289
769.833	0.0133248
769.912	0.0134407
769.990	0.0133968
770.068	0.0133289
770.146	0.0134995
770.224	0.0133427
770.302	0.0132409
770.380	0.0132693
770.458	0.0133189
770.537	0.0132265
770.615	0.0132603
770.693	0.0130608
770.771	0.0131731
770.849	0.0131724
770.927	0.0130762
771.005	0.0129174
771.083	0.0131940
771.162	0.0130283
771.240	0.0129813
771.318	0.0130038
771.396	0.0130793
771.474	0.0131197
771.552	0.0131361
771.630	0.0130004
771.708	0.0130349
771.787	0.0131614
771.865	0.0131815
771.943	0.0132543
772.021	0.0133267
772.099	0.0134561
772.177	0.0134402
772.255	0.0134140
772.333	0.0135088
772.412	0.0136123
772.490	0.0136999
772.568	0.0136845
772.646	0.0136356
772.724	0.0136556
772.802	0.0136828
772.880	0.0135872
772.958	0.0135884
773.037	0.0135239
773.115	0.0133909
773.193	0.0133881
773.271	0.0134018
773.349	0.0134155
773.427	0.0133170
773.505	0.0135519
773.583	0.0135138
773.662	0.0137404
773.740	0.0134969
773.818	0.0135202
773.896	0.0135532
773.974	0.0135011
774.052	0.0136111
774.130	0.0136946
774.208	0.0135499
774.287	0.0135638
774.365	0.0137527
774.443	0.0134990
774.521	0.0135311
774.599	0.0134535
774.677	0.0131973
774.755	0.0131721
774.833	0.0132333
774.912	0.0130718
774.990	0.0133308
775.068	0.0132790
775.146	0.0132870
775.224	0.0132548
775.302	0.0132450
775.380	0.0133275
775.458	0.0131717
775.537	0.0133493
775.615	0.0133880
775.693	0.0133562
775.771	0.0133708
775.849	0.0134226
775.927	0.0133488
776.005	0.0133276
776.083	0.0133639
776.162	0.0133191
776.240	0.0133668
776.318	0.0134300
776.396	0.0134150
776.474	0.0134404
776.552	0.0133459
776.630	0.0133407
776.708	0.0132929
776.787	0.0133185
776.865	0.0132676
776.943	0.0133450
777.021	0.0132766
777.099	0.0133472
777.177	0.0133016
777.255	0.0133784
777.333	0.0133598
777.412	0.0134099
777.490	0.0133421
777.568	0.0134594
777.646	0.0134511
777.724	0.0135552
777.802	0.0135627
777.880	0.0135946
777.958	0.0135532
778.037	0.0134391
778.115	0.0134601
778.193	0.0135873
778.271	0.0134700
778.349	0.0135130
778.427	0.0134428
778.505	0.0133143
778.583	0.0132886
778.662	0.0133942
778.740	0.0132796
778.818	0.0134571
778.896	0.0133914
778.974	0.0134248
779.052	0.0135928
779.130	0.0134442
779.208	0.0134823
779.287	0.0134498
779.365	0.0135664
779.443	0.0135631
779.521	0.0134460
779.599	0.0135680
779.677	0.0134731
779.755	0.0135279
779.833	0.0135030
779.912	0.0133802
779.990	0.0134330
780.068	0.0134966
780.146	0.0133932
780.224	0.0134259
780.302	0.0134361
780.380	0.0135358
780.458	0.0136511
780.537	0.0135328
780.615	0.0134113
780.693	0.0134219
780.771	0.0135233
780.849	0.0134306
780.927	0.0133257
781.005	0.0132140
781.083	0.0134306
781.162	0.0134018
781.240	0.0132890
781.318	0.0134279
781.396	0.0135040
781.474	0.0134268
781.552	0.0136583
781.630	0.0135118
781.708	0.0135374
781.787	0.0135617
781.865	0.0138024
781.943	0.0137699
782.021	0.0138869
782.099	0.0140013
782.177	0.0140440
782.255	0.0140958
782.333	0.0140752
782.412	0.0140247
782.490	0.0140525
782.568	0.0138882
782.646	0.0137588
782.724	0.0138938
782.802	0.0136858
782.880	0.0136591
782.958	0.0135722
783.037	0.0135063
783.115	0.0132694
783.193	0.0133643
783.271	0.0133895
783.349	0.0133170
783.427	0.0131947
783.505	0.0132040
783.583	0.0132198
783.662	0.0132401
783.740	0.0132941
783.818	0.0132459
783.896	0.0133486
783.974	0.0132597
784.052	0.0133089
784.130	0.0133974
784.208	0.0134043
784.287	0.0133186
784.365	0.0133297
784.443	0.0133794
784.521	0.0134801
784.599	0.0135233
784.677	0.0134030
784.755	0.0134163
784.833	0.0135333
784.912	0.0134818
784.990	0.0135691
785.068	0.0134649
785.146	0.0137605
785.224	0.0136076
785.302	0.0137067
785.380	0.0136993
785.458	0.0137595
785.537	0.0138817
785.615	0.0138915
785.693	0.0136835
785.771	0.0137749
785.849	0.0138963
785.927	0.0136674
786.005	0.0138092
786.083	0.0136845
786.162	0.0135959
786.240	0.0135698
786.318	0.0134761
786.396	0.0133231
786.474	0.0133910
786.552	0.0134503
786.630	0.0134183
786.708	0.0133105
786.787	0.0134002
786.865	0.0134187
786.943	0.0135067
787.021	0.0133958
787.099	0.0133112
787.177	0.0136748
787.255	0.0134989
787.333	0.0134650
787.412	0.0135122
787.490	0.0135829
787.568	0.0135341
787.646	0.0135468
787.724	0.0134822
787.802	0.0135236
787.880	0.0135083
787.958	0.0136658
788.037	0.0135132
788.115	0.0135107
788.193	0.0134023
788.271	0.0134235
788.349	0.0133125
788.427	0.0132841
788.505	0.0132137
788.583	0.0132449
788.662	0.0132902
788.740	0.0131873
788.818	0.0131367
788.896	0.0131132
788.974	0.0133038
789.052	0.0132979
789.130	0.0133883
789.208	0.0133630
789.287	0.0134518
789.365	0.0133277
789.443	0.0134692
789.521	0.0134367
789.599	0.0136180
789.677	0.0135398
789.755	0.0136458
789.833	0.0136476
789.912	0.0135008
789.990	0.0134734
790.068	0.0135261
790.146	0.0136446
790.224	0.0135027
790.302	0.0136132
790.380	0.0135297
790.458	0.0136038
790.537	0.0135395
790.615	0.0134648
790.693	0.0133145
790.771	0.0134908
790.849	0.0134944
790.927	0.0132604
791.005	0.0133464
791.083	0.0132327
791.162	0.0131501
791.240	0.0132735
791.318	0.0133037
791.396	0.0132315
791.474	0.0132887
791.552	0.0131649
791.630	0.0133134
791.708	0.0131785
791.787	0.0131072
791.865	0.0132290
791.943	0.0131583
792.021	0.0131947
792.099	0.0131882
792.177	0.0132131
792.255	0.0132503
792.333	0.0133472
792.412	0.0132829
792.490	0.0132321
792.568	0.0134070
792.646	0.0132778
792.724	0.0135140
792.802	0.0134581
792.880	0.0136003
792.958	0.0136256
793.037	0.0135456
793.115	0.0136263
793.193	0.0135964
793.271	0.0134717
793.349	0.0137115
793.427	0.0136458
793.505	0.0135514
793.583	0.0135692
793.662	0.0135085
793.740	0.0136855
793.818	0.0138506
793.896	0.0136784
793.974	0.0135326
794.052	0.0136058
794.130	0.0134672
794.208	0.0134291
794.287	0.0134417
794.365	0.0132386
794.443	0.0133256
794.521	0.0132299
794.599	0.0130921
794.677	0.0132570
794.755	0.0133066
794.833	0.0133083
794.912	0.0132313
794.990	0.0131376
795.068	0.0132433
795.146	0.0133527
795.224	0.0132097
795.302	0.0133301
795.380	0.0130786
795.458	0.0132538
795.537	0.0133344
795.615	0.0131707
795.693	0.0133331
795.771	0.0133427
795.849	0.0132687
795.927	0.0132748
796.005	0.0134653
796.083	0.0133495
796.162	0.0133349
796.240	0.0133784
796.318	0.0135211
796.396	0.0135361
796.474	0.0136314
796.552	0.0136466
796.630	0.0135937
796.708	0.0136863
796.787	0.0136385
796.865	0.0136899
796.943	0.0136356
797.021	0.0137962
797.099	0.0137537
797.177	0.0137441
797.255	0.0137765
797.333	0.0136403
797.412	0.0135978
797.490	0.0135903
797.568	0.0134749
797.646	0.0134092
797.724	0.0133432
797.802	0.0132312
797.880	0.0131713
797.958	0.0132388
798.037	0.0132536
798.115	0.0131355
798.193	0.0130521
798.271	0.0130701
798.349	0.0133698
798.427	0.0132630
798.505	0.0130598
798.583	0.0132866
798.662	0.0132259
798.740	0.0132457
798.818	0.0132298
798.896	0.0133505
798.974	0.0132420
799.052	0.0135054
799.130	0.0133560
799.208	0.0133783
799.287	0.0136068
799.365	0.0136225
799.443	0.0135091
799.521	0.0137434
799.599	0.0137061
799.677	0.0136394
799.755	0.0137492
799.833	0.0136799
799.912	0.0135495
799.990	0.0137077
800.068	0.0136367
800.146	0.0135741
800.224	0.0137128
800.302	0.0135588
800.380	0.0135087
800.458	0.0133443
800.537	0.0134680
800.615	0.0133952
800.693	0.0134537
800.771	0.0133383
800.849	0.0134909
800.927	0.0134487
801.005	0.0133820
801.083	0.0132807
801.162	0.0132954
801.240	0.0134403
801.318	0.0135149
801.396	0.0133527
801.474	0.0134385
801.552	0.0135220
801.630	0.0135107
801.708	0.0134250
801.787	0.0135400
801.865	0.0135284
801.943	0.0135863
802.021	0.0134377
802.099	0.0135829
802.177	0.0137324
802.255	0.0136997
802.333	0.0137584
802.412	0.0138560
802.490	0.0137480
802.568	0.0137363
802.646	0.0138038
802.724	0.0137817
802.802	0.0136768
802.880	0.0137273
802.958	0.0138123
803.037	0.0136096
803.115	0.0136256
803.193	0.0137357
803.271	0.0135684
803.349	0.0135230
803.427	0.0133248
803.505	0.0133466
803.583	0.0134698
803.662	0.0132687
803.740	0.0131005
803.818	0.0133001
803.896	0.0132942
803.974	0.0130548
804.052	0.0132603
804.130	0.0130569
804.208	0.0133518
804.287	0.0131219
804.365	0.0132068
804.443	0.0133714
804.521	0.0133798
804.599	0.0134985
804.677	0.0134091
804.755	0.0135029
804.833	0.0136125
804.912	0.0135142
804.990	0.0135713
805.068	0.0136854
805.146	0.0136716
805.224	0.0137782
805.302	0.0137631
805.380	0.0137862
805.458	0.0138403
805.537	0.0138811
805.615	0.0138607
805.693	0.0138486
805.771	0.0137775
805.849	0.0138020
805.927	0.0138103
806.005	0.0137019
806.083	0.0136519
806.162	0.0137566
806.240	0.0135976
806.318	0.0136447
806.396	0.0135928
806.474	0.0136374
806.552	0.0134003
806.630	0.0134702
806.708	0.0134304
806.787	0.0134482
806.865	0.0133412
806.943	0.0132987
807.021	0.0133129
807.099	0.0134740
807.177	0.0133590
807.255	0.0132301
807.333	0.0132510
807.412	0.0133753
807.490	0.0133736
807.568	0.0135619
807.646	0.0135999
807.724	0.0133749
807.802	0.0136772
807.880	0.0136443
807.958	0.0137094
808.037	0.0137577
808.115	0.0136711
808.193	0.0137708
808.271	0.0137498
808.349	0.0138943
808.427	0.0139031
808.505	0.0138663
808.583	0.0138876
808.662	0.0137540
808.740	0.0138211
808.818	0.0137142
808.896	0.0137389
808.974	0.0136988
809.052	0.0136723
809.130	0.0136739
809.208	0.0136683
809.287	0.0134333
809.365	0.0134968
809.443	0.0134909
809.521	0.0133291
809.599	0.0134644
809.677	0.0133123
809.755	0.0132734
809.833	0.0132537
809.912	0.0131822
809.990	0.0133055
810.068	0.0132928
810.146	0.0133401
810.224	0.0133158
810.302	0.0133005
810.380	0.0132360
810.458	0.0134154
810.537	0.0134248
810.615	0.0135300
810.693	0.0135618
810.771	0.0135529
810.849	0.0134388
810.927	0.0135934
811.005	0.0136222
811.083	0.0135000
811.162	0.0134735
811.240	0.0134573
811.318	0.0134887
811.396	0.0135066
811.474	0.0132677
811.552	0.0133246
811.630	0.0132771
811.708	0.0131615
811.787	0.0132904
811.865	0.0130138
811.943	0.0130904
812.021	0.0131557
812.099	0.0131908
812.177	0.0130563
812.255	0.0131159
812.333	0.0131154
812.412	0.0130810
812.490	0.0131857
812.568	0.0131721
812.646	0.0133073
812.724	0.0133038
812.802	0.0132423
812.880	0.0133356
812.958	0.0133875
813.037	0.0132612
813.115	0.0131850
813.193	0.0132924
813.271	0.0133929
813.349	0.0134496
813.427	0.0133318
813.505	0.0134042
813.583	0.0133966
813.662	0.0133903
813.740	0.0134393
813.818	0.0134160
813.896	0.0134784
813.974	0.0137006
814.052	0.0135104
814.130	0.0135744
814.208	0.0134815
814.287	0.0136226
814.365	0.0136190
814.443	0.0135812
814.521	0.0135194
814.599	0.0135852
814.677	0.0135230
814.755	0.0134882
814.833	0.0135098
814.912	0.0135422
814.990	0.0135835
815.068	0.0134937
815.146	0.0134739
815.224	0.0135171
815.302	0.0135853
815.380	0.0135509
815.458	0.0134776
815.537	0.0133422
815.615	0.0134869
815.693	0.0134853
815.771	0.0134261
815.849	0.0134025
815.927	0.0135152
816.005	0.0135365
816.083	0.0133826
816.162	0.0134117
816.240	0.0134039
816.318	0.0135649
816.396	0.0134735
816.474	0.0132568
816.552	0.0132048
816.630	0.0132697
816.708	0.0134075
816.787	0.0133105
816.865	0.0132574
816.943	0.0131541
817.021	0.0133685
817.099	0.0133570
817.177	0.0132453
817.255	0.0132411
817.333	0.0132867
817.412	0.0131927
817.490	0.0131192
817.568	0.0133347
817.646	0.0132393
817.724	0.0131866
817.802	0.0132307
817.880	0.0132474
817.958	0.0132751
818.037	0.0133408
818.115	0.0132907
818.193	0.0132191
818.271	0.0131908
818.349	0.0133475
818.427	0.0132996
818.505	0.0132353
818.583	0.0135290
818.662	0.0134045
818.740	0.0132728
818.818	0.0134615
818.896	0.0133602
818.974	0.0132776
819.052	0.0134148
819.130	0.0132838
819.208	0.0134407
819.287	0.0131840
819.365	0.0132502
819.443	0.0133590
819.521	0.0132285
819.599	0.0132966
819.677	0.0132086
819.755	0.0132509
819.833	0.0133099
819.912	0.0133217
819.990	0.0133375
820.068	0.0133269
820.146	0.0133441
820.224	0.0134281
820.302	0.0134067
820.380	0.0133404
820.458	0.0133363
820.537	0.0135234
820.615	0.0136004
820.693	0.0137479
820.771	0.0135900
820.849	0.0136654
820.927	0.0137510
821.005	0.0136703
821.083	0.0137383
821.162	0.0138407
821.240	0.0138654
821.318	0.0137532
821.396	0.0135993
821.474	0.0137526
821.552	0.0138751
821.630	0.0138088
821.708	0.0136361
821.787	0.0134835
821.865	0.0137426
821.943	0.0136806
822.021	0.0135957
822.099	0.0137233
822.177	0.0136998
822.255	0.0136655
822.333	0.0135159
822.412	0.0135735
822.490	0.0136845
822.568	0.0136799
822.646	0.0136364
822.724	0.0136729
822.802	0.0135770
822.880	0.0136488
822.958	0.0136002
823.037	0.0136905
823.115	0.0136402
823.193	0.0137407
823.271	0.0135800
823.349	0.0134960
823.427	0.0134522
823.505	0.0136175
823.583	0.0134379
823.662	0.0134726
823.740	0.0133902
823.818	0.0133034
823.896	0.0132996
823.974	0.0132927
824.052	0.0132065
824.130	0.0133392
824.208	0.0132162
824.287	0.0132490
824.365	0.0132172
824.443	0.0130929
824.521	0.0131944
824.599	0.0132961
824.677	0.0130719
824.755	0.0132657
824.833	0.0132763
824.912	0.0131633
824.990	0.0132427
825.068	0.0132434
825.146	0.0130528
825.224	0.0132659
825.302	0.0132130
825.380	0.0134386
825.458	0.0133891
825.537	0.0134570
825.615	0.0134676
825.693	0.0134499
825.771	0.0134966
825.849	0.0135835
825.927	0.0136174
826.005	0.0134996
826.083	0.0136474
826.162	0.0136880
826.240	0.0137554
826.318	0.0137028
826.396	0.0137421
826.474	0.0136716
826.552	0.0136019
826.630	0.0137298
826.708	0.0138483
826.787	0.0138438
826.865	0.0136549
826.943	0.0137167
827.021	0.0137666
827.099	0.0137885
827.177	0.0137463
827.255	0.0138408
827.333	0.0138832
827.412	0.0137701
827.490	0.0136784
827.568	0.0138071
827.646	0.0136500
827.724	0.0136726
827.802	0.0135838
827.880	0.0134893
827.958	0.0135075
828.037	0.0136411
828.115	0.0135115
828.193	0.0135930
828.271	0.0135949
828.349	0.0135977
828.427	0.0135586
828.505	0.0135110
828.583	0.0136681
828.662	0.0135862
828.740	0.0136995
828.818	0.0135449
828.896	0.0135580
828.974	0.0136545
829.052	0.0133936
829.130	0.0135198
829.208	0.0134878
829.287	0.0134565
829.365	0.0132849
829.443	0.0133845
829.521	0.0133892
829.599	0.0134274
829.677	0.0134113
829.755	0.0132314
829.833	0.0133602
829.912	0.0134966
829.990	0.0133240
830.068	0.0133324
830.146	0.0134991
830.224	0.0134234
830.302	0.0136033
830.380	0.0133852
830.458	0.0134254
830.537	0.0134074
830.615	0.0133008
830.693	0.0135281
830.771	0.0135526
830.849	0.0135270
830.927	0.0134417
831.005	0.0136524
831.083	0.0135886
831.162	0.0135596
831.240	0.0135040
831.318	0.0135729
831.396	0.0135874
831.474	0.0138361
831.552	0.0136086
831.630	0.0135492
831.708	0.0135869
831.787	0.0137244
831.865	0.0137066
831.943	0.0136981
832.021	0.0135509
832.099	0.0135292
832.177	0.0136507
832.255	0.0136097
832.333	0.0136976
832.412	0.0135658
832.490	0.0134431
832.568	0.0134975
832.646	0.0134342
832.724	0.0135176
832.802	0.0133637
832.880	0.0135085
832.958	0.0134810
833.037	0.0134186
833.115	0.0134229
833.193	0.0132880
833.271	0.0134463
833.349	0.0134333
833.427	0.0130934
833.505	0.0133165
833.583	0.0134953
833.662	0.0134222
833.740	0.0133316
833.818	0.0133688
833.896	0.0133865
833.974	0.0134089
834.052	0.0132905
834.130	0.0132001
834.208	0.0132047
834.287	0.0133198
834.365	0.0133976
834.443	0.0134650
834.521	0.0134288
834.599	0.0134178
834.677	0.0134272
834.755	0.0133780
834.833	0.0133311
834.912	0.0133528
834.990	0.0134501
835.068	0.0133739
835.146	0.0133414
835.224	0.0133057
835.302	0.0134532
835.380	0.0133385
835.458	0.0132756
835.537	0.0132904
835.615	0.0133302
835.693	0.0132645
835.771	0.0132987
835.849	0.0132546
835.927	0.0132596
836.005	0.0133568
836.083	0.0133308
836.162	0.0132034
836.240	0.0133302
836.318	0.0132805
836.396	0.0133048
836.474	0.0134095
836.552	0.0133225
836.630	0.0133398
836.708	0.0133282
836.787	0.0134531
836.865	0.0134871
836.943	0.0133944
837.021	0.0134540
837.099	0.0134412
837.177	0.0134314
837.255	0.0133418
837.333	0.0133998
837.412	0.0132861
837.490	0.0134089
837.568	0.0133766
837.646	0.0133205
837.724	0.0133443
837.802	0.0135471
837.880	0.0135963
837.958	0.0136393
838.037	0.0135710
838.115	0.0136176
838.193	0.0135305
838.271	0.0136783
838.349	0.0136333
838.427	0.0135409
838.505	0.0133412
838.583	0.0133667
838.662	0.0135151
838.740	0.0135056
838.818	0.0134405
838.896	0.0134615
838.974	0.0133871
839.052	0.0132011
839.130	0.0134444
839.208	0.0132661
839.287	0.0132583
839.365	0.0132463
839.443	0.0131819
839.521	0.0131496
839.599	0.0132542
839.677	0.0134772
839.755	0.0133821
839.833	0.0133038
839.912	0.0134295
839.990	0.0133271
840.068	0.0134616
840.146	0.0135647
840.224	0.0134718
840.302	0.0134629
840.380	0.0134336
840.458	0.0136006
840.537	0.0134660
840.615	0.0135641
840.693	0.0134122
840.771	0.0133150
840.849	0.0134010
840.927	0.0134716
841.005	0.0134100
841.083	0.0132969
841.162	0.0133618
841.240	0.0132784
841.318	0.0132916
841.396	0.0132449
841.474	0.0132232
841.552	0.0131758
841.630	0.0134109
841.708	0.0132879
841.787	0.0132471
841.865	0.0133910
841.943	0.0132995
842.021	0.0133574
842.099	0.0133955
842.177	0.0134441
842.255	0.0133434
842.333	0.0133820
842.412	0.0134536
842.490	0.0136134
842.568	0.0134763
842.646	0.0135228
842.724	0.0134706
842.802	0.0134486
842.880	0.0134752
842.958	0.0136607
843.037	0.0135546
843.115	0.0135867
843.193	0.0135106
843.271	0.0135758
843.349	0.0136477
843.427	0.0135268
843.505	0.0135553
843.583	0.0134636
843.662	0.0136237
843.740	0.0135996
843.818	0.0134051
843.896	0.0134322
843.974	0.0135308
844.052	0.0135187
844.130	0.0134646
844.208	0.0133138
844.287	0.0133938
844.365	0.0133900
844.443	0.0134635
844.521	0.0133891
844.599	0.0133567
844.677	0.0135558
844.755	0.0133532
844.833	0.0133349
844.912	0.0133588
844.990	0.0133919
845.068	0.0134385
845.146	0.0134795
845.224	0.0133614
845.302	0.0134269
845.380	0.0134200
845.458	0.0134832
845.537	0.0134720
845.615	0.0134722
845.693	0.0133150
845.771	0.0134913
845.849	0.0135542
845.927	0.0133106
846.005	0.0134946
846.083	0.0135401
846.162	0.0135535
846.240	0.0134823
846.318	0.0135194
846.396	0.0134978
846.474	0.0135435
846.552	0.0136967
846.630	0.0134652
846.708	0.0135474
846.787	0.0136438
846.865	0.0134583
846.943	0.0134010
847.021	0.0134986
847.099	0.0134930
847.177	0.0135641
847.255	0.0135950
847.333	0.0135187
847.412	0.0134930
847.490	0.0135699
847.568	0.0133783
847.646	0.0134690
847.724	0.0135639
847.802	0.0134568
847.880	0.0134763
847.958	0.0135043
848.037	0.0134428
848.115	0.0134772
848.193	0.0134263
848.271	0.0134824
848.349	0.0133773
848.427	0.0133757
848.505	0.0133183
848.583	0.0134721
848.662	0.0132670
848.740	0.0132723
848.818	0.0132768
848.896	0.0134221
848.974	0.0135257
849.052	0.0133741
849.130	0.0133673
849.208	0.0135204
849.287	0.0135284
849.365	0.0135835
849.443	0.0135256
849.521	0.0134497
849.599	0.0134486
849.677	0.0135375
849.755	0.0135454
849.833	0.0135772
849.912	0.0134735
849.990	0.0134315
850.068	0.0134113
850.146	0.0133800
850.224	0.0133360
850.302	0.0133393
850.380	0.0132137
850.458	0.0133022
850.537	0.0133647
850.615	0.0135038
850.693	0.0133947
850.771	0.0134103
850.849	0.0134211
850.927	0.0134771
851.005	0.0133044
851.083	0.0132768
851.162	0.0134126
851.240	0.0134216
851.318	0.0133432
851.396	0.0132980
851.474	0.0133994
851.552	0.0134904
851.630	0.0134650
851.708	0.0135526
851.787	0.0135828
851.865	0.0136118
851.943	0.0135644
852.021	0.0137109
852.099	0.0137383
852.177	0.0136217
852.255	0.0135426
852.333	0.0135703
852.412	0.0135904
852.490	0.0137518
852.568	0.0135243
852.646	0.0136840
852.724	0.0136877
852.802	0.0136629
852.880	0.0134817
852.958	0.0133997
853.037	0.0135255
853.115	0.0135008
853.193	0.0133688
853.271	0.0132631
853.349	0.0132394
853.427	0.0132633
853.505	0.0133283
853.583	0.0132063
853.662	0.0131289
853.740	0.0131806
853.818	0.0132089
853.896	0.0130856
853.974	0.0131745
854.052	0.0131902
854.130	0.0131728
854.208	0.0129817
854.287	0.0131422
854.365	0.0131735
854.443	0.0132909
854.521	0.0134219
854.599	0.0135242
854.677	0.0135400
854.755	0.0135035
854.833	0.0135240
854.912	0.0136691
854.990	0.0137394
855.068	0.0136690
855.146	0.0136045
855.224	0.0137119
855.302	0.0137894
855.380	0.0137409
855.458	0.0137686
855.537	0.0137746
855.615	0.0135870
855.693	0.0136788
855.771	0.0136833
855.849	0.0135855
855.927	0.0136243
856.005	0.0137936
856.083	0.0136257
856.162	0.0135545
856.240	0.0135629
856.318	0.0135275
856.396	0.0132846
856.474	0.0132137
856.552	0.0132471
856.630	0.0133179
856.708	0.0133318
856.787	0.0131723
856.865	0.0131934
856.943	0.0133109
857.021	0.0131512
857.099	0.0131282
857.177	0.0130627
857.255	0.0132423
857.333	0.0131532
857.412	0.0131118
857.490	0.0130602
857.568	0.0131046
857.646	0.0131861
857.724	0.0132353
857.802	0.0132358
857.880	0.0132070
857.958	0.0134121
858.037	0.0134515
858.115	0.0134747
858.193	0.0135685
858.271	0.0135809
858.349	0.0135940
858.427	0.0136635
858.505	0.0137376
858.583	0.0138362
858.662	0.0138801
858.740	0.0139014
858.818	0.0137875
858.896	0.0138587
858.974	0.0138148
859.052	0.0139851
859.130	0.0138123
859.208	0.0137474
859.287	0.0137285
859.365	0.0138046
859.443	0.0137428
859.521	0.0136082
859.599	0.0138274
859.677	0.0137721
859.755	0.0136823
859.833	0.0134053
859.912	0.0133912
859.990	0.0135390
860.068	0.0134450
860.146	0.0132931
860.224	0.0133302
860.302	0.0132289
860.380	0.0132136
860.458	0.0132420
860.537	0.0131905
860.615	0.0131050
860.693	0.0131289
860.771	0.0132523
860.849	0.0133257
860.927	0.0133685
861.005	0.0133232
861.083	0.0132358
861.162	0.0132857
861.240	0.0132458
861.318	0.0133473
861.396	0.0133649
861.474	0.0133452
861.552	0.0134497
861.630	0.0134177
861.708	0.0133364
861.787	0.0133628
861.865	0.0134475
861.943	0.0135159
862.021	0.0135128
862.099	0.0136022
862.177	0.0136868
862.255	0.0135428
862.333	0.0135280
862.412	0.0135587
862.490	0.0134976
862.568	0.0136545
862.646	0.0134029
862.724	0.0133916
862.802	0.0134757
862.880	0.0134918
862.958	0.0134844
863.037	0.0134223
863.115	0.0134774
863.193	0.0133654
863.271	0.0133894
863.349	0.0135291
863.427	0.0133752
863.505	0.0133697
863.583	0.0134296
863.662	0.0136154
863.740	0.0136246
863.818	0.0135133
863.896	0.0134367
863.974	0.0136313
864.052	0.0135381
864.130	0.0135204
864.208	0.0136337
864.287	0.0135445
864.365	0.0134612
864.443	0.0134943
864.521	0.0135426
864.599	0.0134552
864.677	0.0134334
864.755	0.0135120
864.833	0.0134686
864.912	0.0133665
864.990	0.0133508
865.068	0.0134186
865.146	0.0133383
865.224	0.0133172
865.302	0.0134333
865.380	0.0133047
865.458	0.0134805
865.537	0.0134624
865.615	0.0133125
865.693	0.0133709
865.771	0.0132521
865.849	0.0134406
865.927	0.0134090
866.005	0.0133728
866.083	0.0134172
866.162	0.0133118
866.240	0.0134688
866.318	0.0134456
866.396	0.0134061
866.474	0.0134872
866.552	0.0134418
866.630	0.0134023
866.708	0.0134248
866.787	0.0134597
866.865	0.0133999
866.943	0.0133572
867.021	0.0133248
867.099	0.0132917
867.177	0.0132706
867.255	0.0132496
867.333	0.0132279
867.412	0.0133469
867.490	0.0132465
867.568	0.0132903
867.646	0.0132769
867.724	0.0132674
867.802	0.0133583
867.880	0.0131931
867.958	0.0134065
868.037	0.0135318
868.115	0.0134338
868.193	0.0134107
868.271	0.0134840
868.349	0.0136382
868.427	0.0135148
868.505	0.0134850
868.583	0.0135911
868.662	0.0137262
868.740	0.0137251
868.818	0.0136718
868.896	0.0137466
868.974	0.0137513
869.052	0.0137798
869.130	0.0137676
869.208	0.0137048
869.287	0.0137884
869.365	0.0138065
869.443	0.0136391
869.521	0.0135472
869.599	0.0134975
869.677	0.0133789
869.755	0.0133952
869.833	0.0132923
869.912	0.0131542
869.990	0.0131002
870.068	0.0129648
870.146	0.0130499
870.224	0.0130099
870.302	0.0130651
870.380	0.0130227
870.458	0.0130164
870.537	0.0129274
870.615	0.0129064
870.693	0.0129828
870.771	0.0130130
870.849	0.0132095
870.927	0.0131593
871.005	0.0131911
871.083	0.0131797
871.162	0.0133298
871.240	0.0133174
871.318	0.0133982
871.396	0.0134538
871.474	0.0135155
871.552	0.0134969
871.630	0.0136001
871.708	0.0136491
871.787	0.0136947
871.865	0.0137398
871.943	0.0137193
872.021	0.0136654
872.099	0.0135596
872.177	0.0137424
872.255	0.0137267
872.333	0.0136265
872.412	0.0135546
872.490	0.0136115
872.568	0.0135476
872.646	0.0133559
872.724	0.0133407
872.802	0.0134534
872.880	0.0133556
872.958	0.0133441
873.037	0.0131512
873.115	0.0131095
873.193	0.0131814
873.271	0.0131002
873.349	0.0131234
873.427	0.0131675
873.505	0.0131718
873.583	0.0131410
873.662	0.0133058
873.740	0.0133070
873.818	0.0133792
873.896	0.0133286
873.974	0.0133949
874.052	0.0134053
874.130	0.0134824
874.208	0.0133665
874.287	0.0133623
874.365	0.0133835
874.443	0.0133097
874.521	0.0132967
874.599	0.0134667
874.677	0.0132877
874.755	0.0131464
874.833	0.0133926
874.912	0.0133025
874.990	0.0133076
875.068	0.0131763
875.146	0.0132233
875.224	0.0132753
875.302	0.0132159
875.380	0.0131588
875.458	0.0132216
875.537	0.0133214
875.615	0.0135184
875.693	0.0134236
875.771	0.0133612
875.849	0.0135288
875.927	0.0135004
876.005	0.0136264
876.083	0.0135995
876.162	0.0136990
876.240	0.0137077
876.318	0.0135303
876.396	0.0137961
876.474	0.0138213
876.552	0.0138409
876.630	0.0136829
876.708	0.0136830
876.787	0.0137034
876.865	0.0135390
876.943	0.0136217
877.021	0.0135457
877.099	0.0134804
877.177	0.0134557
877.255	0.0135059
877.333	0.0134824
877.412	0.0134383
877.490	0.0133449
877.568	0.0135329
877.646	0.0133791
877.724	0.0135744
877.802	0.0134167
877.880	0.0134880
877.958	0.0133871
878.037	0.0133059
878.115	0.0134926
878.193	0.0134172
878.271	0.0134526
878.349	0.0133121
878.427	0.0133707
878.505	0.0134515
878.583	0.0134690
878.662	0.0133397
878.740	0.0134476
878.818	0.0134348
878.896	0.0136086
878.974	0.0134997
879.052	0.0135848
879.130	0.0136521
879.208	0.0135978
879.287	0.0136418
879.365	0.0136561
879.443	0.0137045
879.521	0.0136898
879.599	0.0137706
879.677	0.0138113
879.755	0.0137621
879.833	0.0137428
879.912	0.0138094
879.990	0.0137334
880.068	0.0134467
880.146	0.0135935
880.224	0.0136879
880.302	0.0136700
880.380	0.0136217
880.458	0.0136115
880.537	0.0136401
880.615	0.0134742
880.693	0.0134154
880.771	0.0134235
880.849	0.0133979
880.927	0.0132897
881.005	0.0133966
881.083	0.0133653
881.162	0.0131731
881.240	0.0132918
881.318	0.0132253
881.396	0.0132459
881.474	0.0132785
881.552	0.0133161
881.630	0.0133075
881.708	0.0133653
881.787	0.0131594
881.865	0.0131818
881.943	0.0131792
882.021	0.0132707
882.099	0.0133333
882.177	0.0134116
882.255	0.0133833
882.333	0.0134325
882.412	0.0134617
882.490	0.0133433
882.568	0.0135419
882.646	0.0135517
882.724	0.0136756
882.802	0.0135211
882.880	0.0136501
882.958	0.0137969
883.037	0.0137856
883.115	0.0136256
883.193	0.0135989
883.271	0.0135986
883.349	0.0136952
883.427	0.0135928
883.505	0.0136185
883.583	0.0136564
883.662	0.0135836
883.740	0.0135986
883.818	0.0136182
883.896	0.0136195
883.974	0.0134231
884.052	0.0135447
884.130	0.0135239
884.208	0.0134782
884.287	0.0134441
884.365	0.0135262
884.443	0.0134444
884.521	0.0134998
884.599	0.0134229
884.677	0.0134761
884.755	0.0135270
884.833	0.0134360
884.912	0.0134353
884.990	0.0133395
885.068	0.0134918
885.146	0.0133685
885.224	0.0134033
885.302	0.0135695
885.380	0.0134669
885.458	0.0135390
885.537	0.0133996
885.615	0.0135027
885.693	0.0135141
885.771	0.0134367
885.849	0.0134274
885.927	0.0135952
886.005	0.0136137
886.083	0.0134229
886.162	0.0135924
886.240	0.0136196
886.318	0.0136067
886.396	0.0135178
886.474	0.0136598
886.552	0.0136015
886.630	0.0136940
886.708	0.0136846
886.787	0.0136579
886.865	0.0136945
886.943	0.0135774
887.021	0.0135583
887.099	0.0136028
887.177	0.0135369
887.255	0.0136196
887.333	0.0135876
887.412	0.0135725
887.490	0.0134251
887.568	0.0133436
887.646	0.0133050
887.724	0.0133942
887.802	0.0132746
887.880	0.0132658
887.958	0.0133328
888.037	0.0132573
888.115	0.0132140
888.193	0.0130612
888.271	0.0131296
888.349	0.0131541
888.427	0.0131241
888.505	0.0131654
888.583	0.0132261
888.662	0.0131052
888.740	0.0131416
888.818	0.0131867
888.896	0.0132434
888.974	0.0132204
889.052	0.0132567
889.130	0.0133240
889.208	0.0133916
889.287	0.0134316
889.365	0.0134737
889.443	0.0135005
889.521	0.0136297
889.599	0.0136793
889.677	0.0135841
889.755	0.0136929
889.833	0.0137788
889.912	0.0136968
889.990	0.0138376
890.068	0.0137950
890.146	0.0138083
890.224	0.0137934
890.302	0.0136954
890.380	0.0135992
890.458	0.0136033
890.537	0.0135085
890.615	0.0134571
890.693	0.0135927
890.771	0.0136161
890.849	0.0134553
890.927	0.0136538
891.005	0.0134497
891.083	0.0135645
891.162	0.0137405
891.240	0.0134660
891.318	0.0134937
891.396	0.0134682
891.474	0.0134386
891.552	0.0135473
891.630	0.0135514
891.708	0.0134721
891.787	0.0134808
891.865	0.0135428
891.943	0.0135703
892.021	0.0135036
892.099	0.0134071
892.177	0.0134007
892.255	0.0135760
892.333	0.0133146
892.412	0.0133618
892.490	0.0135713
892.568	0.0134912
892.646	0.0132723
892.724	0.0132124
892.802	0.0132503
892.880	0.0132513
892.958	0.0133031
893.037	0.0132554
893.115	0.0132428
893.193	0.0133628
893.271	0.0132000
893.349	0.0131123
893.427	0.0132263
893.505	0.0132832
893.583	0.0131670
893.662	0.0132114
893.740	0.0133064
893.818	0.0132391
893.896	0.0131107
893.974	0.0132682
894.052	0.0133287
894.130	0.0131953
894.208	0.0132431
894.287	0.0133115
894.365	0.0132510
894.443	0.0131969
894.521	0.0133009
894.599	0.0131692
894.677	0.0133611
894.755	0.0133258
894.833	0.0132478
894.912	0.0133640
894.990	0.0134533
895.068	0.0133643
895.146	0.0132613
895.224	0.0134836
895.302	0.0134370
895.380	0.0133260
895.458	0.0133795
895.537	0.0134309
895.615	0.0134240
895.693	0.0135314
895.771	0.0134621
895.849	0.0135109
895.927	0.0135147
896.005	0.0134326
896.083	0.0133356
896.162	0.0135577
896.240	0.0133213
896.318	0.0132858
896.396	0.0134814
896.474	0.0134627
896.552	0.0132893
896.630	0.0134142
896.708	0.0134832
896.787	0.0133581
896.865	0.0134483
896.943	0.0133016
897.021	0.0132321
897.099	0.0133356
897.177	0.0134866
897.255	0.0133190
897.333	0.0133249
897.412	0.0133913
897.490	0.0133231
897.568	0.0134400
897.646	0.0133307
897.724	0.0132451
897.802	0.0132605
897.880	0.0132988
897.958	0.0134239
898.037	0.0132951
898.115	0.0133671
898.193	0.0134371
898.271	0.0133144
898.349	0.0132331
898.427	0.0132880
898.505	0.0132780
898.583	0.0134038
898.662	0.0134622
898.740	0.0131064
898.818	0.0132336
898.896	0.0133826
898.974	0.0132919
899.052	0.0132433
899.130	0.0132780
899.208	0.0134970
899.287	0.0132784
899.365	0.0132455
899.443	0.0133345
899.521	0.0133130
899.599	0.0132763
899.677	0.0134993
899.755	0.0133820
899.833	0.0133585
899.912	0.0136088
899.990	0.0134501
900.068	0.0133887
900.146	0.0134560
900.224	0.0135444
900.302	0.0134270
900.380	0.0133822
900.458	0.0133317
900.537	0.0133494
900.615	0.0134161
900.693	0.0134118
900.771	0.0133325
900.849	0.0135352
900.927	0.0134299
901.005	0.0133763
901.083	0.0133666
901.162	0.0133327
901.240	0.0135070
901.318	0.0134975
901.396	0.0133701
901.474	0.0132944
901.552	0.0133833
901.630	0.0135421
901.708	0.0134812
901.787	0.0133434
901.865	0.0133782
901.943	0.0134343
902.021	0.0134399
902.099	0.0134601
902.177	0.0134775
902.255	0.0135420
902.333	0.0134672
902.412	0.0134419
902.490	0.0133954
902.568	0.0136103
902.646	0.0135098
902.724	0.0133794
902.802	0.0136353
902.880	0.0135533
902.958	0.0136845
903.037	0.0137080
903.115	0.0136192
903.193	0.0135477
903.271	0.0136945
903.349	0.0138319
903.427	0.0136977
903.505	0.0136208
903.583	0.0136765
903.662	0.0135378
903.740	0.0135178
903.818	0.0135876
903.896	0.0133860
903.974	0.0135321
904.052	0.0133811
904.130	0.0132401
904.208	0.0132748
904.287	0.0132583
904.365	0.0132808
904.443	0.0132432
904.521	0.0132298
904.599	0.0133367
904.677	0.0133131
904.755	0.0135090
904.833	0.0133942
904.912	0.0134435
904.990	0.0134962
905.068	0.0134174
905.146	0.0135158
905.224	0.0135355
905.302	0.0135703
905.380	0.0134106
905.458	0.0134490
905.537	0.0135456
905.615	0.0135806
905.693	0.0137931
905.771	0.0136845
905.849	0.0136749
905.927	0.0136723
906.005	0.0135773
906.083	0.0136984
906.162	0.0137098
906.240	0.0138116
906.318	0.0137218
906.396	0.0137711
906.474	0.0136848
906.552	0.0137600
906.630	0.0137744
906.708	0.0137219
906.787	0.0138771
906.865	0.0138221
906.943	0.0135584
907.021	0.0138182
907.099	0.0135546
907.177	0.0136916
907.255	0.0137473
907.333	0.0135965
907.412	0.0136788
907.490	0.0137475
907.568	0.0135891
907.646	0.0136403
907.724	0.0136065
907.802	0.0135464
907.880	0.0137402
907.958	0.0136722
908.037	0.0136867
908.115	0.0136952
908.193	0.0136249
908.271	0.0137112
908.349	0.0136370
908.427	0.0136020
908.505	0.0136149
908.583	0.0137286
908.662	0.0134807
908.740	0.0134216
908.818	0.0135374
908.896	0.0133833
908.974	0.0134541
909.052	0.0134589
909.130	0.0133140
909.208	0.0134180
909.287	0.0133421
909.365	0.0134705
909.443	0.0134476
909.521	0.0133428
909.599	0.0133893
909.677	0.0133804
909.755	0.0133189
909.833	0.0135523
909.912	0.0135087
909.990	0.0134600
910.068	0.0134870
910.146	0.0136642
910.224	0.0136813
910.302	0.0136521
910.380	0.0136044
910.458	0.0137254
910.537	0.0136590
910.615	0.0137218
910.693	0.0138042
910.771	0.0136752
910.849	0.0137547
910.927	0.0136771
911.005	0.0137765
911.083	0.0138690
911.162	0.0137783
911.240	0.0137383
911.318	0.0138387
911.396	0.0138040
911.474	0.0137921
911.552	0.0138284
911.630	0.0137167
911.708	0.0138013
911.787	0.0136858
911.865	0.0136524
911.943	0.0135472
912.021	0.0136070
912.099	0.0136419
912.177	0.0133675
912.255	0.0134246
912.333	0.0133877
912.412	0.0134097
912.490	0.0133118
912.568	0.0133626
912.646	0.0132681
912.724	0.0131556
912.802	0.0132021
912.880	0.0132202
912.958	0.0133979
913.037	0.0131727
913.115	0.0132656
913.193	0.0132780
913.271	0.0134100
913.349	0.0134818
913.427	0.0133241
913.505	0.0132951
913.583	0.0133234
913.662	0.0134943
913.740	0.0133438
913.818	0.0133683
913.896	0.0132651
913.974	0.0132613
914.052	0.0134266
914.130	0.0133447
914.208	0.0133414
914.287	0.0133208
914.365	0.0133226
914.443	0.0132364
914.521	0.0133587
914.599	0.0134019
914.677	0.0133370
914.755	0.0134936
914.833	0.0134558
914.912	0.0134776
914.990	0.0134050
915.068	0.0132357
915.146	0.0134034
915.224	0.0132295
915.302	0.0133154
915.380	0.0133186
915.458	0.0133929
915.537	0.0133440
915.615	0.0134066
915.693	0.0134300
915.771	0.0133422
915.849	0.0135693
915.927	0.0135941
916.005	0.0134159
916.083	0.0133723
916.162	0.0133308
916.240	0.0134260
916.318	0.0135746
916.396	0.0133958
916.474	0.0134504
916.552	0.0134132
916.630	0.0135482
916.708	0.0134933
916.787	0.0133458
916.865	0.0134435
916.943	0.0134435
917.021	0.0133450
917.099	0.0132619
917.177	0.0132424
917.255	0.0131847
917.333	0.0133161
917.412	0.0133347
917.490	0.0132963
917.568	0.0133153
917.646	0.0132317
917.724	0.0133109
917.802	0.0132884
917.880	0.0133508
917.958	0.0131916
918.037	0.0132430
918.115	0.0132336
918.193	0.0133254
918.271	0.0133421
918.349	0.0133348
918.427	0.0133327
918.505	0.0132840
918.583	0.0133037
918.662	0.0133982
918.740	0.0134528
918.818	0.0135471
918.896	0.0136070
918.974	0.0135019
919.052	0.0135297
919.130	0.0134011
919.208	0.0134958
919.287	0.0136341
919.365	0.0136165
919.443	0.0136479
919.521	0.0134517
919.599	0.0134631
919.677	0.0135565
919.755	0.0135630
919.833	0.0133347
919.912	0.0133177
919.990	0.0135261
920.068	0.0134765
920.146	0.0133273
920.224	0.0134786
920.302	0.0134650
920.380	0.0134153
920.458	0.0134364
920.537	0.0134597
920.615	0.0134038
920.693	0.0132945
920.771	0.0133499
920.849	0.0134677
920.927	0.0133508
921.005	0.0134117
921.083	0.0136022
921.162	0.0133690
921.240	0.0134935
921.318	0.0133974
921.396	0.0133405
921.474	0.0133389
921.552	0.0135291
921.630	0.0133322
921.708	0.0133430
921.787	0.0133395
921.865	0.0133863
921.943	0.0134879
922.021	0.0134490
922.099	0.0134137
922.177	0.0133813
922.255	0.0133549
922.333	0.0134234
922.412	0.0134667
922.490	0.0133909
922.568	0.0133138
922.646	0.0133678
922.724	0.0132447
922.802	0.0135214
922.880	0.0134208
922.958	0.0132899
923.037	0.0134377
923.115	0.0133215
923.193	0.0132854
923.271	0.0133613
923.349	0.0133691
923.427	0.0132922
923.505	0.0132993
923.583	0.0133263
923.662	0.0133769
923.740	0.0132650
923.818	0.0132745
923.896	0.0134480
923.974	0.0134045
924.052	0.0133006
924.130	0.0134061
924.208	0.0135748
924.287	0.0135548
924.365	0.0135236
924.443	0.0135302
924.521	0.0136197
924.599	0.0135130
924.677	0.0135181
924.755	0.0135478
924.833	0.0135591
924.912	0.0135800
924.990	0.0135373
925.068	0.0135791
925.146	0.0134461
925.224	0.0134879
925.302	0.0135613
925.380	0.0134971
925.458	0.0133458
925.537	0.0134846
925.615	0.0136787
925.693	0.0135348
925.771	0.0134801
925.849	0.0135169
925.927	0.0134862
926.005	0.0135181
926.083	0.0136438
926.162	0.0136726
926.240	0.0135453
926.318	0.0133975
926.396	0.0135545
926.474	0.0134769
926.552	0.0134673
926.630	0.0135019
926.708	0.0135627
926.787	0.0135685
926.865	0.0133688
926.943	0.0134234
927.021	0.0133678
927.099	0.0134243
927.177	0.0135023
927.255	0.0134609
927.333	0.0133939
927.412	0.0133914
927.490	0.0133439
927.568	0.0134202
927.646	0.0134113
927.724	0.0134174
927.802	0.0134148
927.880	0.0133688
927.958	0.0133694
928.037	0.0134360
928.115	0.0134593
928.193	0.0133591
928.271	0.0134264
928.349	0.0134114
928.427	0.0134602
928.505	0.0134879
928.583	0.0133781
928.662	0.0134364
928.740	0.0136385
928.818	0.0135308
928.896	0.0134719
928.974	0.0134594
929.052	0.0135925
929.130	0.0135172
929.208	0.0136154
929.287	0.0134715
929.365	0.0134914
929.443	0.0135032
929.521	0.0134137
929.599	0.0135612
929.677	0.0135761
929.755	0.0134591
929.833	0.0136652
929.912	0.0135062
929.990	0.0134859
930.068	0.0135448
930.146	0.0134274
930.224	0.0134561
930.302	0.0135359
930.380	0.0134087
930.458	0.0136150
930.537	0.0134103
930.615	0.0134975
930.693	0.0134365
930.771	0.0134727
930.849	0.0135510
930.927	0.0134872
931.005	0.0134855
931.083	0.0135124
931.162	0.0134620
931.240	0.0134535
931.318	0.0134423
931.396	0.0136488
931.474	0.0135477
931.552	0.0135165
931.630	0.0133304
931.708	0.0134211
931.787	0.0135246
931.865	0.0134923
931.943	0.0134515
932.021	0.0134354
932.099	0.0136483
932.177	0.0135352
932.255	0.0135146
932.333	0.0135906
932.412	0.0136315
932.490	0.0134396
932.568	0.0134316
932.646	0.0135573
932.724	0.0136070
932.802	0.0135303
932.880	0.0134730
932.958	0.0136227
933.037	0.0136611
933.115	0.0135587
933.193	0.0135679
933.271	0.0134727
933.349	0.0134713
933.427	0.0134670
933.505	0.0135119
933.583	0.0133486
933.662	0.0134643
933.740	0.0135061
933.818	0.0134106
933.896	0.0134554
933.974	0.0134910
934.052	0.0134490
934.130	0.0132953
934.208	0.0132247
934.287	0.0134303
934.365	0.0133942
934.443	0.0133505
934.521	0.0134082
934.599	0.0133718
934.677	0.0134150
934.755	0.0134045
934.833	0.0135139
934.912	0.0133854
934.990	0.0135019
935.068	0.0134111
935.146	0.0134394
935.224	0.0135491
935.302	0.0134984
935.380	0.0135159
935.458	0.0135212
935.537	0.0135848
935.615	0.0135555
935.693	0.0135822
935.771	0.0134213
935.849	0.0134692
935.927	0.0135184
936.005	0.0133897
936.083	0.0134194
936.162	0.0135158
936.240	0.0134977
936.318	0.0133509
936.396	0.0133733
936.474	0.0134462
936.552	0.0134503
936.630	0.0135411
936.708	0.0133670
936.787	0.0134819
936.865	0.0134361
936.943	0.0134470
937.021	0.0134201
937.099	0.0134760
937.177	0.0135043
937.255	0.0135600
937.333	0.0134386
937.412	0.0135399
937.490	0.0134937
937.568	0.0135694
937.646	0.0136286
937.724	0.0135948
937.802	0.0136536
937.880	0.0137379
937.958	0.0137263
938.037	0.0136501
938.115	0.0136436
938.193	0.0135538
938.271	0.0136022
938.349	0.0135624
938.427	0.0136518
938.505	0.0136491
938.583	0.0134737
938.662	0.0134858
938.740	0.0135854
938.818	0.0135464
938.896	0.0135073
938.974	0.0133710
939.052	0.0134213
939.130	0.0135406
939.208	0.0134605
939.287	0.0133559
939.365	0.0133802
939.443	0.0133171
939.521	0.0134990
939.599	0.0135261
939.677	0.0133651
939.755	0.0133379
939.833	0.0133285
939.912	0.0133410
939.990	0.0134237
940.068	0.0132108
940.146	0.0131219
940.224	0.0132777
940.302	0.0133022
940.380	0.0132838
940.458	0.0132957
940.537	0.0132590
940.615	0.0132457
940.693	0.0133598
940.771	0.0132578
940.849	0.0133420
940.927	0.0132279
941.005	0.0132900
941.083	0.0132732
941.162	0.0133424
941.240	0.0132692
941.318	0.0133372
941.396	0.0132990
941.474	0.0132523
941.552	0.0133855
941.630	0.0133160
941.708	0.0133588
941.787	0.0132920
941.865	0.0134322
941.943	0.0134482
942.021	0.0135205
942.099	0.0133713
942.177	0.0133298
942.255	0.0135179
942.333	0.0134689
942.412	0.0132838
942.490	0.0134414
942.568	0.0134676
942.646	0.0134608
942.724	0.0135385
942.802	0.0135870
942.880	0.0135515
942.958	0.0134744
943.037	0.0133829
943.115	0.0134400
943.193	0.0135631
943.271	0.0135015
943.349	0.0134148
943.427	0.0133324
943.505	0.0135265
943.583	0.0134863
943.662	0.0134531
943.740	0.0134583
943.818	0.0135219
943.896	0.0134345
943.974	0.0134378
944.052	0.0135535
944.130	0.0135419
944.208	0.0134567
944.287	0.0135225
944.365	0.0135361
944.443	0.0135648
944.521	0.0134062
944.599	0.0134173
944.677	0.0133815
944.755	0.0133961
944.833	0.0133880
944.912	0.0134850
944.990	0.0131987
945.068	0.0133829
945.146	0.0133313
945.224	0.0134472
945.302	0.0134559
945.380	0.0133429
945.458	0.0133451
945.537	0.0133364
945.615	0.0134065
945.693	0.0133839
945.771	0.0134874
945.849	0.0135341
945.927	0.0134454
946.005	0.0133846
946.083	0.0133542
946.162	0.0134780
946.240	0.0134362
946.318	0.0134650
946.396	0.0136333
946.474	0.0134996
946.552	0.0134447
946.630	0.0134056
946.708	0.0134461
946.787	0.0133628
946.865	0.0134844
946.943	0.0135806
947.021	0.0135215
947.099	0.0134921
947.177	0.0135198
947.255	0.0135308
947.333	0.0133500
947.412	0.0134801
947.490	0.0134898
947.568	0.0133539
947.646	0.0133885
947.724	0.0133408
947.802	0.0133841
947.880	0.0134748
947.958	0.0134541
948.037	0.0133780
948.115	0.0133352
948.193	0.0133589
948.271	0.0132938
948.349	0.0134659
948.427	0.0134132
948.505	0.0134092
948.583	0.0134772
948.662	0.0134796
948.740	0.0134802
948.818	0.0136310
948.896	0.0136131
948.974	0.0135261
949.052	0.0135129
949.130	0.0134135
949.208	0.0134333
949.287	0.0133504
949.365	0.0134930
949.443	0.0133403
949.521	0.0134950
949.599	0.0133087
949.677	0.0133632
949.755	0.0134923
949.833	0.0133825
949.912	0.0133262
949.990	0.0132458
950.068	0.0133020
950.146	0.0133963
950.224	0.0133575
950.302	0.0133371
950.380	0.0134850
950.458	0.0133416
950.537	0.0134060
950.615	0.0134592
950.693	0.0135106
950.771	0.0134173
950.849	0.0133858
950.927	0.0134198
951.005	0.0134076
951.083	0.0133241
951.162	0.0133965
951.240	0.0134583
951.318	0.0133490
951.396	0.0133656
951.474	0.0134258
951.552	0.0134569
951.630	0.0132706
951.708	0.0135268
951.787	0.0134998
951.865	0.0134508
951.943	0.0133141
952.021	0.0133189
952.099	0.0134258
952.177	0.0133808
952.255	0.0134964
952.333	0.0134104
952.412	0.0136418
952.490	0.0135003
952.568	0.0134638
952.646	0.0135253
952.724	0.0136687
952.802	0.0134650
952.880	0.0135201
952.958	0.0136151
953.037	0.0137256
953.115	0.0135097
953.193	0.0135931
953.271	0.0135633
953.349	0.0136436
953.427	0.0135983
953.505	0.0134961
953.583	0.0134730
953.662	0.0135236
953.740	0.0134782
953.818	0.0135950
953.896	0.0134504
953.974	0.0134401
954.052	0.0134674
954.130	0.0135022
954.208	0.0134058
954.287	0.0134818
954.365	0.0133389
954.443	0.0133984
954.521	0.0135059
954.599	0.0132594
954.677	0.0133972
954.755	0.0133262
954.833	0.0133833
954.912	0.0133737
954.990	0.0134633
955.068	0.0134091
955.146	0.0133602
955.224	0.0134335
955.302	0.0134713
955.380	0.0134135
955.458	0.0133669
955.537	0.0134772
955.615	0.0134957
955.693	0.0135172
955.771	0.0134636
955.849	0.0135520
955.927	0.0135085
956.005	0.0133954
956.083	0.0134442
956.162	0.0135160
956.240	0.0137286
956.318	0.0135975
956.396	0.0134795
956.474	0.0136111
956.552	0.0136482
956.630	0.0135742
956.708	0.0134700
956.787	0.0134706
956.865	0.0134874
956.943	0.0133636
957.021	0.0134906
957.099	0.0134119
957.177	0.0133881
957.255	0.0133694
957.333	0.0133302
957.412	0.0132511
957.490	0.0134155
957.568	0.0133060
957.646	0.0133314
957.724	0.0134199
957.802	0.0133925
957.880	0.0131603
957.958	0.0132527
958.037	0.0133483
958.115	0.0134908
958.193	0.0133739
958.271	0.0133624
958.349	0.0135107
958.427	0.0134250
958.505	0.0134544
958.583	0.0133704
958.662	0.0132715
958.740	0.0135030
958.818	0.0133888
958.896	0.0133701
958.974	0.0133150
959.052	0.0134686
959.130	0.0134797
959.208	0.0133924
959.287	0.0133630
959.365	0.0135854
959.443	0.0133675
959.521	0.0134652
959.599	0.0134552
959.677	0.0135405
959.755	0.0133823
959.833	0.0135938
959.912	0.0134231
959.990	0.0135096
960.068	0.0134674
960.146	0.0134560
960.224	0.0136115
960.302	0.0133510
960.380	0.0134209
960.458	0.0134627
960.537	0.0135258
960.615	0.0133083
960.693	0.0133965
960.771	0.0135529
960.849	0.0135323
960.927	0.0135023
961.005	0.0133940
961.083	0.0136991
961.162	0.0134574
961.240	0.0134082
961.318	0.0136139
961.396	0.0136386
961.474	0.0134362
961.552	0.0134844
961.630	0.0135468
961.708	0.0135339
961.787	0.0134401
961.865	0.0134299
961.943	0.0135689
962.021	0.0135558
962.099	0.0134327
962.177	0.0134285
962.255	0.0134999
962.333	0.0134419
962.412	0.0134648
962.490	0.0133330
962.568	0.0134163
962.646	0.0133994
962.724	0.0134609
962.802	0.0132117
962.880	0.0133833
962.958	0.0133091
963.037	0.0132104
963.115	0.0133795
963.193	0.0133687
963.271	0.0134388
963.349	0.0135013
963.427	0.0133864
963.505	0.0133211
963.583	0.0133259
963.662	0.0134061
963.740	0.0134130
963.818	0.0135074
963.896	0.0134156
963.974	0.0134799
964.052	0.0134369
964.130	0.0134174
964.208	0.0135112
964.287	0.0135558
964.365	0.0135678
964.443	0.0135331
964.521	0.0135203
964.599	0.0135764
964.677	0.0135669
964.755	0.0136025
964.833	0.0135940
964.912	0.0137686
964.990	0.0136749
965.068	0.0136841
965.146	0.0137783
965.224	0.0136857
965.302	0.0136544
965.380	0.0137050
965.458	0.0137021
965.537	0.0134590
965.615	0.0134966
965.693	0.0135163
965.771	0.0135692
965.849	0.0135184
965.927	0.0134069
966.005	0.0133474
966.083	0.0132516
966.162	0.0133141
966.240	0.0132286
966.318	0.0131074
966.396	0.0131791
966.474	0.0130225
966.552	0.0131405
966.630	0.0130753
966.708	0.0130358
966.787	0.0131042
966.865	0.0130496
966.943	0.0130338
967.021	0.0130931
967.099	0.0131498
967.177	0.0131229
967.255	0.0131068
967.333	0.0131535
967.412	0.0132043
967.490	0.0130809
967.568	0.0130802
967.646	0.0131474
967.724	0.0134348
967.802	0.0134451
967.880	0.0134438
967.958	0.0134557
968.037	0.0134985
968.115	0.0134749
968.193	0.0133382
968.271	0.0135514
968.349	0.0134747
968.427	0.0134385
968.505	0.0135616
968.583	0.0135586
968.662	0.0134370
968.740	0.0135606
968.818	0.0136211
968.896	0.0134975
968.974	0.0135981
969.052	0.0136528
969.130	0.0134944
969.208	0.0135626
969.287	0.0136004
969.365	0.0135743
969.443	0.0135440
969.521	0.0136236
969.599	0.0135806
969.677	0.0135444
969.755	0.0134813
969.833	0.0135488
969.912	0.0135342
