05/08/2022	20:04:06	Ver.	4.1	UNKNOWN
Optical Delay	649.982996	Delta X		0.078125	Sweeps	1	Scan Rate	0/0
Coordinates	Axis 1	NaN	Axis 2	NaN	Axis 3	NaN	Axis 4	NaN	Axis 5	NaN	Axis 6	0.000000
TX Power	0.000000	RX Power	0.000000

649.983	0.0138217
650.061	0.0137818
650.139	0.0137030
650.217	0.0137353
650.295	0.0138774
650.374	0.0139113
650.452	0.0138512
650.530	0.0139079
650.608	0.0139904
650.686	0.0138675
650.764	0.0139692
650.842	0.0139448
650.920	0.0139437
650.999	0.0137244
651.077	0.0138316
651.155	0.0137526
651.233	0.0136826
651.311	0.0136241
651.389	0.0136715
651.467	0.0137697
651.545	0.0136556
651.624	0.0137359
651.702	0.0137283
651.780	0.0138229
651.858	0.0139362
651.936	0.0140117
652.014	0.0140857
652.092	0.0140913
652.170	0.0141867
652.249	0.0141208
652.327	0.0141489
652.405	0.0141970
652.483	0.0139291
652.561	0.0138377
652.639	0.0139030
652.717	0.0138036
652.795	0.0138808
652.874	0.0137885
652.952	0.0137122
653.030	0.0136115
653.108	0.0135836
653.186	0.0136123
653.264	0.0135246
653.342	0.0135270
653.420	0.0136041
653.499	0.0133868
653.577	0.0133749
653.655	0.0136110
653.733	0.0136166
653.811	0.0136174
653.889	0.0135104
653.967	0.0135641
654.045	0.0136129
654.124	0.0136864
654.202	0.0137195
654.280	0.0135585
654.358	0.0137936
654.436	0.0140362
654.514	0.0138957
654.592	0.0139719
654.670	0.0142902
654.749	0.0142967
654.827	0.0144366
654.905	0.0145345
654.983	0.0145834
655.061	0.0145837
655.139	0.0147531
655.217	0.0146358
655.295	0.0146522
655.374	0.0145817
655.452	0.0145365
655.530	0.0144022
655.608	0.0141644
655.686	0.0139749
655.764	0.0139566
655.842	0.0137819
655.920	0.0134656
655.999	0.0133567
656.077	0.0129678
656.155	0.0127453
656.233	0.0126870
656.311	0.0124957
656.389	0.0125190
656.467	0.0124525
656.545	0.0124911
656.624	0.0125589
656.702	0.0125817
656.780	0.0126138
656.858	0.0128582
656.936	0.0130655
657.014	0.0131940
657.092	0.0132726
657.170	0.0134622
657.249	0.0136872
657.327	0.0138613
657.405	0.0139706
657.483	0.0140810
657.561	0.0143347
657.639	0.0144830
657.717	0.0146820
657.795	0.0148320
657.874	0.0152441
657.952	0.0153979
658.030	0.0153780
658.108	0.0157136
658.186	0.0156917
658.264	0.0158592
658.342	0.0159470
658.420	0.0157280
658.499	0.0158743
658.577	0.0156581
658.655	0.0155553
658.733	0.0152352
658.811	0.0150553
658.889	0.0144943
658.967	0.0141592
659.045	0.0137286
659.124	0.0133872
659.202	0.0130102
659.280	0.0125850
659.358	0.0122903
659.436	0.0120431
659.514	0.0118047
659.592	0.0117735
659.670	0.0114427
659.749	0.0110742
659.827	0.0110528
659.905	0.0110125
659.983	0.0110544
660.061	0.0110946
660.139	0.0110183
660.217	0.0112145
660.295	0.0116097
660.374	0.0118933
660.452	0.0121348
660.530	0.0125677
660.608	0.0130904
660.686	0.0135410
660.764	0.0140306
660.842	0.0143346
660.920	0.0151015
660.999	0.0154232
661.077	0.0158343
661.155	0.0164034
661.233	0.0166204
661.311	0.0168612
661.389	0.0170746
661.467	0.0175121
661.545	0.0175783
661.624	0.0173499
661.702	0.0173214
661.780	0.0172848
661.858	0.0171042
661.936	0.0168111
662.014	0.0163856
662.092	0.0161887
662.170	0.0158470
662.249	0.0154355
662.327	0.0149909
662.405	0.0145600
662.483	0.0138933
662.561	0.0136148
662.639	0.0131725
662.717	0.0126738
662.795	0.0120692
662.874	0.0117187
662.952	0.0114423
663.030	0.0112048
663.108	0.0105218
663.186	0.0102686
663.264	0.0101646
663.342	0.0100275
663.420	0.00989540
663.499	0.00988991
663.577	0.00999313
663.655	0.0101591
663.733	0.0105624
663.811	0.0108784
663.889	0.0112401
663.967	0.0115751
664.045	0.0120241
664.124	0.0125310
664.202	0.0130254
664.280	0.0134994
664.358	0.0139861
664.436	0.0145416
664.514	0.0150289
664.592	0.0155241
664.670	0.0158740
664.749	0.0164123
664.827	0.0166877
664.905	0.0170121
664.983	0.0173238
665.061	0.0174887
665.139	0.0175603
665.217	0.0175034
665.295	0.0174049
665.374	0.0173203
665.452	0.0171265
665.530	0.0168150
665.608	0.0165002
665.686	0.0162506
665.764	0.0159315
665.842	0.0153020
665.920	0.0151769
665.999	0.0147028
666.077	0.0143516
666.155	0.0140477
666.233	0.0134509
666.311	0.0132951
666.389	0.0130342
666.467	0.0126808
666.545	0.0123679
666.624	0.0121461
666.702	0.0117942
666.780	0.0117602
666.858	0.0115475
666.936	0.0113473
667.014	0.0111514
667.092	0.0110145
667.170	0.0110633
667.249	0.0110606
667.327	0.0111247
667.405	0.0111716
667.483	0.0114429
667.561	0.0116883
667.639	0.0117303
667.717	0.0121062
667.795	0.0123360
667.874	0.0125624
667.952	0.0129144
668.030	0.0132954
668.108	0.0135741
668.186	0.0137720
668.264	0.0139947
668.342	0.0143254
668.420	0.0144650
668.499	0.0147000
668.577	0.0149415
668.655	0.0148722
668.733	0.0150348
668.811	0.0152006
668.889	0.0153840
668.967	0.0155421
669.045	0.0156909
669.124	0.0157664
669.202	0.0158206
669.280	0.0158687
669.358	0.0159241
669.436	0.0160405
669.514	0.0160333
669.592	0.0159165
669.670	0.0156782
669.749	0.0156057
669.827	0.0153081
669.905	0.0150727
669.983	0.0147777
670.061	0.0143832
670.139	0.0143308
670.217	0.0139906
670.295	0.0137854
670.374	0.0135369
670.452	0.0133096
670.530	0.0132315
670.608	0.0130248
670.686	0.0130123
670.764	0.0129079
670.842	0.0129923
670.920	0.0128551
670.999	0.0129330
671.077	0.0128546
671.155	0.0128419
671.233	0.0127936
671.311	0.0128915
671.389	0.0128690
671.467	0.0128542
671.545	0.0129243
671.624	0.0127461
671.702	0.0130048
671.780	0.0130428
671.858	0.0130940
671.936	0.0130496
672.014	0.0132204
672.092	0.0132822
672.170	0.0133397
672.249	0.0134920
672.327	0.0137244
672.405	0.0137286
672.483	0.0136744
672.561	0.0138156
672.639	0.0138074
672.717	0.0139310
672.795	0.0136496
672.874	0.0136899
672.952	0.0137054
673.030	0.0134406
673.108	0.0135183
673.186	0.0134429
673.264	0.0135387
673.342	0.0134264
673.420	0.0132796
673.499	0.0132422
673.577	0.0135411
673.655	0.0135105
673.733	0.0136630
673.811	0.0139274
673.889	0.0140273
673.967	0.0140674
674.045	0.0143691
674.124	0.0145834
674.202	0.0145695
674.280	0.0148377
674.358	0.0147829
674.436	0.0147610
674.514	0.0149252
674.592	0.0149153
674.670	0.0146259
674.749	0.0146903
674.827	0.0147501
674.905	0.0146520
674.983	0.0146767
675.061	0.0147269
675.139	0.0147324
675.217	0.0147968
675.295	0.0149791
675.374	0.0150559
675.452	0.0152766
675.530	0.0152061
675.608	0.0153001
675.686	0.0154400
675.764	0.0154083
675.842	0.0152228
675.920	0.0151366
675.999	0.0147622
676.077	0.0144357
676.155	0.0140997
676.233	0.0135931
676.311	0.0130970
676.389	0.0126987
676.467	0.0122592
676.545	0.0118752
676.624	0.0114867
676.702	0.0112955
676.780	0.0110461
676.858	0.0109199
676.936	0.0108542
677.014	0.0109002
677.092	0.0110091
677.170	0.0110944
677.249	0.0114664
677.327	0.0117367
677.405	0.0117928
677.483	0.0120632
677.561	0.0123147
677.639	0.0126295
677.717	0.0127763
677.795	0.0129449
677.874	0.0133922
677.952	0.0135212
678.030	0.0136062
678.108	0.0138896
678.186	0.0140973
678.264	0.0142278
678.342	0.0145199
678.420	0.0148497
678.499	0.0149671
678.577	0.0151785
678.655	0.0154094
678.733	0.0157002
678.811	0.0158994
678.889	0.0160386
678.967	0.0162583
679.045	0.0165102
679.124	0.0166346
679.202	0.0167326
679.280	0.0167552
679.358	0.0169122
679.436	0.0168112
679.514	0.0167189
679.592	0.0166805
679.670	0.0164928
679.749	0.0162159
679.827	0.0158497
679.905	0.0154977
679.983	0.0150587
680.061	0.0146494
680.139	0.0142038
680.217	0.0137707
680.295	0.0132509
680.374	0.0129441
680.452	0.0125779
680.530	0.0121354
680.608	0.0119515
680.686	0.0116781
680.764	0.0114592
680.842	0.0115355
680.920	0.0112502
680.999	0.0109733
681.077	0.0108338
681.155	0.0107162
681.233	0.0106474
681.311	0.0105790
681.389	0.0105717
681.467	0.0105484
681.545	0.0104449
681.624	0.0106641
681.702	0.0107449
681.780	0.0110550
681.858	0.0113921
681.936	0.0118572
682.014	0.0124114
682.092	0.0130052
682.170	0.0135870
682.249	0.0141529
682.327	0.0147228
682.405	0.0154631
682.483	0.0159918
682.561	0.0166642
682.639	0.0170631
682.717	0.0174615
682.795	0.0176902
682.874	0.0178528
682.952	0.0178593
683.030	0.0179259
683.108	0.0178094
683.186	0.0177901
683.264	0.0175945
683.342	0.0172159
683.420	0.0167811
683.499	0.0163492
683.577	0.0159283
683.655	0.0153773
683.733	0.0148551
683.811	0.0143739
683.889	0.0139817
683.967	0.0132701
684.045	0.0129154
684.124	0.0124876
684.202	0.0120914
684.280	0.0117535
684.358	0.0114985
684.436	0.0113795
684.514	0.0112236
684.592	0.0111387
684.670	0.0111559
684.749	0.0112084
684.827	0.0111252
684.905	0.0113391
684.983	0.0115865
685.061	0.0118116
685.139	0.0120408
685.217	0.0120534
685.295	0.0121971
685.374	0.0125234
685.452	0.0126971
685.530	0.0128490
685.608	0.0129210
685.686	0.0129586
685.764	0.0132703
685.842	0.0133341
685.920	0.0134658
685.999	0.0135899
686.077	0.0137407
686.155	0.0140120
686.233	0.0142042
686.311	0.0143508
686.389	0.0145507
686.467	0.0148026
686.545	0.0148811
686.624	0.0151332
686.702	0.0152752
686.780	0.0154743
686.858	0.0155690
686.936	0.0156866
687.014	0.0158132
687.092	0.0158305
687.170	0.0159771
687.249	0.0161819
687.327	0.0160979
687.405	0.0159838
687.483	0.0160949
687.561	0.0160699
687.639	0.0156984
687.717	0.0155947
687.795	0.0154758
687.874	0.0151626
687.952	0.0149761
688.030	0.0147071
688.108	0.0142643
688.186	0.0139134
688.264	0.0137653
688.342	0.0134158
688.420	0.0131142
688.499	0.0128088
688.577	0.0126482
688.655	0.0125186
688.733	0.0122269
688.811	0.0122300
688.889	0.0119073
688.967	0.0118117
689.045	0.0119534
689.124	0.0119095
689.202	0.0120020
689.280	0.0119781
689.358	0.0121046
689.436	0.0122570
689.514	0.0123853
689.592	0.0124803
689.670	0.0124403
689.749	0.0125408
689.827	0.0123424
689.905	0.0124818
689.983	0.0125839
690.061	0.0125526
690.139	0.0125480
690.217	0.0127400
690.295	0.0129623
690.374	0.0131287
690.452	0.0134326
690.530	0.0136360
690.608	0.0138235
690.686	0.0141636
690.764	0.0145871
690.842	0.0147932
690.920	0.0149952
690.999	0.0151685
691.077	0.0153732
691.155	0.0154900
691.233	0.0154005
691.311	0.0156896
691.389	0.0158216
691.467	0.0157563
691.545	0.0157168
691.624	0.0157670
691.702	0.0158221
691.780	0.0157027
691.858	0.0156671
691.936	0.0156675
692.014	0.0155592
692.092	0.0153645
692.170	0.0151482
692.249	0.0148972
692.327	0.0146442
692.405	0.0144543
692.483	0.0139548
692.561	0.0137299
692.639	0.0132908
692.717	0.0131182
692.795	0.0129778
692.874	0.0126457
692.952	0.0125011
693.030	0.0126530
693.108	0.0126313
693.186	0.0127036
693.264	0.0129834
693.342	0.0131520
693.420	0.0130343
693.499	0.0133317
693.577	0.0134270
693.655	0.0136408
693.733	0.0136247
693.811	0.0136851
693.889	0.0136166
693.967	0.0134694
694.045	0.0135164
694.124	0.0134615
694.202	0.0134085
694.280	0.0132992
694.358	0.0131760
694.436	0.0130428
694.514	0.0131135
694.592	0.0130977
694.670	0.0130572
694.749	0.0130757
694.827	0.0130854
694.905	0.0130332
694.983	0.0130479
695.061	0.0129474
695.139	0.0130360
695.217	0.0130743
695.295	0.0130828
695.374	0.0131419
695.452	0.0133224
695.530	0.0134046
695.608	0.0133781
695.686	0.0135525
695.764	0.0137421
695.842	0.0137630
695.920	0.0138637
695.999	0.0139710
696.077	0.0139979
696.155	0.0143739
696.233	0.0143729
696.311	0.0144074
696.389	0.0143920
696.467	0.0145617
696.545	0.0146145
696.624	0.0146682
696.702	0.0145228
696.780	0.0146420
696.858	0.0146184
696.936	0.0145970
697.014	0.0145390
697.092	0.0145181
697.170	0.0145011
697.249	0.0143597
697.327	0.0143584
697.405	0.0145768
697.483	0.0146080
697.561	0.0145665
697.639	0.0144728
697.717	0.0146866
697.795	0.0149849
697.874	0.0148799
697.952	0.0150531
698.030	0.0150971
698.108	0.0149649
698.186	0.0150135
698.264	0.0151959
698.342	0.0150667
698.420	0.0149633
698.499	0.0148123
698.577	0.0147248
698.655	0.0146652
698.733	0.0144209
698.811	0.0141375
698.889	0.0139304
698.967	0.0137127
699.045	0.0134097
699.124	0.0131339
699.202	0.0127655
699.280	0.0127148
699.358	0.0124987
699.436	0.0123347
699.514	0.0121639
699.592	0.0120023
699.670	0.0118749
699.749	0.0118298
699.827	0.0117378
699.905	0.0117923
699.983	0.0116531
700.061	0.0116273
700.139	0.0116958
700.217	0.0118787
700.295	0.0121310
700.374	0.0121899
700.452	0.0123614
700.530	0.0126214
700.608	0.0129272
700.686	0.0131535
700.764	0.0132365
700.842	0.0134823
700.920	0.0137436
700.999	0.0140081
701.077	0.0141810
701.155	0.0142962
701.233	0.0145072
701.311	0.0147890
701.389	0.0148665
701.467	0.0151038
701.545	0.0153521
701.624	0.0155676
701.702	0.0155070
701.780	0.0154542
701.858	0.0155566
701.936	0.0156732
702.014	0.0155358
702.092	0.0155193
702.170	0.0152940
702.249	0.0149995
702.327	0.0149560
702.405	0.0148265
702.483	0.0144820
702.561	0.0144190
702.639	0.0142332
702.717	0.0141285
702.795	0.0141029
702.874	0.0139919
702.952	0.0140378
703.030	0.0139392
703.108	0.0139541
703.186	0.0139895
703.264	0.0138256
703.342	0.0139006
703.420	0.0140457
703.499	0.0137543
703.577	0.0136840
703.655	0.0136541
703.733	0.0136218
703.811	0.0135655
703.889	0.0133920
703.967	0.0133521
704.045	0.0133779
704.124	0.0133447
704.202	0.0134372
704.280	0.0133496
704.358	0.0133185
704.436	0.0134139
704.514	0.0134737
704.592	0.0134804
704.670	0.0134741
704.749	0.0135735
704.827	0.0135667
704.905	0.0135845
704.983	0.0137624
705.061	0.0136189
705.139	0.0136922
705.217	0.0136731
705.295	0.0136623
705.374	0.0138492
705.452	0.0137784
705.530	0.0137843
705.608	0.0136997
705.686	0.0135027
705.764	0.0134865
705.842	0.0133775
705.920	0.0133132
705.999	0.0130358
706.077	0.0131386
706.155	0.0132806
706.233	0.0130103
706.311	0.0129712
706.389	0.0130575
706.467	0.0129854
706.545	0.0131703
706.624	0.0133035
706.702	0.0134928
706.780	0.0136276
706.858	0.0137466
706.936	0.0139755
707.014	0.0142400
707.092	0.0143284
707.170	0.0144588
707.249	0.0144048
707.327	0.0147162
707.405	0.0146857
707.483	0.0147810
707.561	0.0148949
707.639	0.0148775
707.717	0.0149667
707.795	0.0147849
707.874	0.0146541
707.952	0.0147836
708.030	0.0146500
708.108	0.0144401
708.186	0.0141384
708.264	0.0138593
708.342	0.0138261
708.420	0.0135731
708.499	0.0134073
708.577	0.0132610
708.655	0.0131393
708.733	0.0132545
708.811	0.0131856
708.889	0.0132336
708.967	0.0134375
709.045	0.0135008
709.124	0.0136741
709.202	0.0138280
709.280	0.0138429
709.358	0.0139950
709.436	0.0142575
709.514	0.0143610
709.592	0.0142992
709.670	0.0144261
709.749	0.0144714
709.827	0.0143522
709.905	0.0143661
709.983	0.0143620
710.061	0.0143985
710.139	0.0141051
710.217	0.0142786
710.295	0.0141833
710.374	0.0141161
710.452	0.0139320
710.530	0.0141447
710.608	0.0141547
710.686	0.0140238
710.764	0.0139143
710.842	0.0139685
710.920	0.0138813
710.999	0.0137482
711.077	0.0137876
711.155	0.0134919
711.233	0.0134673
711.311	0.0133077
711.389	0.0128210
711.467	0.0127493
711.545	0.0127499
711.624	0.0125952
711.702	0.0126454
711.780	0.0124696
711.858	0.0125711
711.936	0.0125153
712.014	0.0126017
712.092	0.0128753
712.170	0.0129210
712.249	0.0131327
712.327	0.0131730
712.405	0.0135087
712.483	0.0138191
712.561	0.0140710
712.639	0.0144682
712.717	0.0145848
712.795	0.0147227
712.874	0.0147974
712.952	0.0150665
713.030	0.0150907
713.108	0.0152349
713.186	0.0150999
713.264	0.0150271
713.342	0.0149850
713.420	0.0150254
713.499	0.0148525
713.577	0.0144451
713.655	0.0143306
713.733	0.0143047
713.811	0.0141290
713.889	0.0139582
713.967	0.0137751
714.045	0.0136311
714.124	0.0135277
714.202	0.0134365
714.280	0.0132580
714.358	0.0131448
714.436	0.0131317
714.514	0.0131337
714.592	0.0130416
714.670	0.0129979
714.749	0.0131631
714.827	0.0131834
714.905	0.0132911
714.983	0.0131744
715.061	0.0131874
715.139	0.0132954
715.217	0.0134534
715.295	0.0133661
715.374	0.0134676
715.452	0.0134378
715.530	0.0135498
715.608	0.0135699
715.686	0.0134058
715.764	0.0134306
715.842	0.0134711
715.920	0.0133675
715.999	0.0136067
716.077	0.0134378
716.155	0.0135606
716.233	0.0138438
716.311	0.0138922
716.389	0.0138869
716.467	0.0141528
716.545	0.0142761
716.624	0.0143442
716.702	0.0144431
716.780	0.0143931
716.858	0.0144900
716.936	0.0145429
717.014	0.0145012
717.092	0.0143987
717.170	0.0144835
717.249	0.0143961
717.327	0.0142442
717.405	0.0141508
717.483	0.0139793
717.561	0.0139991
717.639	0.0136974
717.717	0.0136513
717.795	0.0137204
717.874	0.0137678
717.952	0.0137165
718.030	0.0137241
718.108	0.0137433
718.186	0.0138770
718.264	0.0138814
718.342	0.0140504
718.420	0.0139587
718.499	0.0141656
718.577	0.0142186
718.655	0.0142239
718.733	0.0143043
718.811	0.0143317
718.889	0.0141591
718.967	0.0142316
719.045	0.0140495
719.124	0.0139561
719.202	0.0137737
719.280	0.0138432
719.358	0.0137151
719.436	0.0134477
719.514	0.0134978
719.592	0.0134505
719.670	0.0131506
719.749	0.0132775
719.827	0.0132862
719.905	0.0133064
719.983	0.0134303
720.061	0.0134914
720.139	0.0134078
720.217	0.0135783
720.295	0.0136860
720.374	0.0138042
720.452	0.0136540
720.530	0.0136993
720.608	0.0139278
720.686	0.0138783
720.764	0.0140255
720.842	0.0139483
720.920	0.0136990
720.999	0.0136618
721.077	0.0137067
721.155	0.0137839
721.233	0.0138894
721.311	0.0138245
721.389	0.0138766
721.467	0.0138233
721.545	0.0139835
721.624	0.0141248
721.702	0.0139788
721.780	0.0139178
721.858	0.0140697
721.936	0.0139458
722.014	0.0140982
722.092	0.0139681
722.170	0.0139657
722.249	0.0138462
722.327	0.0136968
722.405	0.0135808
722.483	0.0134888
722.561	0.0134374
722.639	0.0135236
722.717	0.0133652
722.795	0.0133189
722.874	0.0131941
722.952	0.0131844
723.030	0.0130075
723.108	0.0132515
723.186	0.0132803
723.264	0.0132996
723.342	0.0134470
723.420	0.0135673
723.499	0.0136684
723.577	0.0137936
723.655	0.0139439
723.733	0.0140719
723.811	0.0142238
723.889	0.0143278
723.967	0.0143187
724.045	0.0143388
724.124	0.0145741
724.202	0.0145454
724.280	0.0145562
724.358	0.0144664
724.436	0.0145216
724.514	0.0144604
724.592	0.0143546
724.670	0.0142428
724.749	0.0143269
724.827	0.0144281
724.905	0.0143736
724.983	0.0142316
725.061	0.0141920
725.139	0.0143171
725.217	0.0143961
725.295	0.0143320
725.374	0.0143533
725.452	0.0142416
725.530	0.0141351
725.608	0.0142825
725.686	0.0141187
725.764	0.0139326
725.842	0.0138460
725.920	0.0136614
725.999	0.0134264
726.077	0.0130582
726.155	0.0128785
726.233	0.0130952
726.311	0.0126102
726.389	0.0125233
726.467	0.0124399
726.545	0.0125644
726.624	0.0126354
726.702	0.0126660
726.780	0.0125848
726.858	0.0127635
726.936	0.0128886
727.014	0.0128284
727.092	0.0131944
727.170	0.0132897
727.249	0.0133982
727.327	0.0133842
727.405	0.0136302
727.483	0.0135722
727.561	0.0136589
727.639	0.0137331
727.717	0.0136964
727.795	0.0138834
727.874	0.0139293
727.952	0.0140757
728.030	0.0140783
728.108	0.0141729
728.186	0.0142866
728.264	0.0145628
728.342	0.0144299
728.420	0.0145421
728.499	0.0146856
728.577	0.0148022
728.655	0.0148008
728.733	0.0148329
728.811	0.0146966
728.889	0.0146807
728.967	0.0146162
729.045	0.0143735
729.124	0.0143211
729.202	0.0142648
729.280	0.0142137
729.358	0.0140756
729.436	0.0138248
729.514	0.0137907
729.592	0.0139122
729.670	0.0137531
729.749	0.0137595
729.827	0.0136091
729.905	0.0137951
729.983	0.0138153
730.061	0.0137743
730.139	0.0136836
730.217	0.0136926
730.295	0.0136395
730.374	0.0136209
730.452	0.0136362
730.530	0.0135065
730.608	0.0135069
730.686	0.0133089
730.764	0.0134167
730.842	0.0134774
730.920	0.0134834
730.999	0.0136557
731.077	0.0135320
731.155	0.0134849
731.233	0.0134845
731.311	0.0136275
731.389	0.0136354
731.467	0.0135283
731.545	0.0136919
731.624	0.0136817
731.702	0.0136884
731.780	0.0136144
731.858	0.0137720
731.936	0.0137624
732.014	0.0136539
732.092	0.0138255
732.170	0.0137714
732.249	0.0137287
732.327	0.0137531
732.405	0.0138059
732.483	0.0137717
732.561	0.0137786
732.639	0.0136736
732.717	0.0137981
732.795	0.0137397
732.874	0.0139115
732.952	0.0139133
733.030	0.0137624
733.108	0.0138075
733.186	0.0137671
733.264	0.0138515
733.342	0.0137556
733.420	0.0137136
733.499	0.0137268
733.577	0.0137374
733.655	0.0136602
733.733	0.0136913
733.811	0.0135697
733.889	0.0133982
733.967	0.0134603
734.045	0.0135075
734.124	0.0135349
734.202	0.0136362
734.280	0.0137331
734.358	0.0136497
734.436	0.0137048
734.514	0.0138107
734.592	0.0138416
734.670	0.0138696
734.749	0.0139667
734.827	0.0140074
734.905	0.0139677
734.983	0.0139994
735.061	0.0140637
735.139	0.0141870
735.217	0.0142158
735.295	0.0140679
735.374	0.0142279
735.452	0.0141608
735.530	0.0140908
735.608	0.0140762
735.686	0.0141553
735.764	0.0140099
735.842	0.0139667
735.920	0.0140283
735.999	0.0140358
736.077	0.0141588
736.155	0.0140059
736.233	0.0140826
736.311	0.0140927
736.389	0.0140163
736.467	0.0141787
736.545	0.0141982
736.624	0.0139836
736.702	0.0139455
736.780	0.0140472
736.858	0.0138390
736.936	0.0138681
737.014	0.0138041
737.092	0.0136859
737.170	0.0136552
737.249	0.0137620
737.327	0.0138260
737.405	0.0136997
737.483	0.0138918
737.561	0.0138234
737.639	0.0140061
737.717	0.0139583
737.795	0.0141164
737.874	0.0140314
737.952	0.0140044
738.030	0.0141277
738.108	0.0142305
738.186	0.0142482
738.264	0.0139684
738.342	0.0140010
738.420	0.0138938
738.499	0.0139317
738.577	0.0138599
738.655	0.0137171
738.733	0.0137044
738.811	0.0136794
738.889	0.0136634
738.967	0.0136102
739.045	0.0137306
739.124	0.0136026
739.202	0.0135104
739.280	0.0135794
739.358	0.0135912
739.436	0.0134698
739.514	0.0134609
739.592	0.0134484
739.670	0.0135448
739.749	0.0135921
739.827	0.0135370
739.905	0.0135549
739.983	0.0135249
740.061	0.0134803
740.139	0.0137325
740.217	0.0137516
740.295	0.0137862
740.374	0.0136196
740.452	0.0137634
740.530	0.0137349
740.608	0.0136062
740.686	0.0137787
740.764	0.0138232
740.842	0.0138931
740.920	0.0138863
740.999	0.0137913
741.077	0.0138783
741.155	0.0139458
741.233	0.0138934
741.311	0.0140029
741.389	0.0140727
741.467	0.0140347
741.545	0.0142237
741.624	0.0143618
741.702	0.0143125
741.780	0.0143896
741.858	0.0144956
741.936	0.0144178
742.014	0.0144729
742.092	0.0145589
742.170	0.0145195
742.249	0.0144261
742.327	0.0143138
742.405	0.0144167
742.483	0.0143724
742.561	0.0141993
742.639	0.0142032
742.717	0.0141571
742.795	0.0142325
742.874	0.0140981
742.952	0.0142139
743.030	0.0140964
743.108	0.0139418
743.186	0.0138892
743.264	0.0138276
743.342	0.0137747
743.420	0.0137947
743.499	0.0138349
743.577	0.0139006
743.655	0.0137269
743.733	0.0136299
743.811	0.0136536
743.889	0.0137476
743.967	0.0136730
744.045	0.0137611
744.124	0.0138147
744.202	0.0139059
744.280	0.0139545
744.358	0.0139114
744.436	0.0139779
744.514	0.0138776
744.592	0.0140521
744.670	0.0141051
744.749	0.0138068
744.827	0.0139336
744.905	0.0139799
744.983	0.0138267
745.061	0.0138330
745.139	0.0138525
745.217	0.0137366
745.295	0.0137070
745.374	0.0137381
745.452	0.0137057
745.530	0.0136643
745.608	0.0138800
745.686	0.0137954
745.764	0.0137688
745.842	0.0139017
745.920	0.0139878
745.999	0.0139968
746.077	0.0139474
746.155	0.0140083
746.233	0.0140183
746.311	0.0138879
746.389	0.0137615
746.467	0.0138788
746.545	0.0138425
746.624	0.0137408
746.702	0.0136819
746.780	0.0135017
746.858	0.0134678
746.936	0.0135474
747.014	0.0135563
747.092	0.0134859
747.170	0.0133187
747.249	0.0133974
747.327	0.0134793
747.405	0.0134224
747.483	0.0135349
747.561	0.0133485
747.639	0.0135022
747.717	0.0134370
747.795	0.0133972
747.874	0.0134726
747.952	0.0135162
748.030	0.0136401
748.108	0.0135288
748.186	0.0136971
748.264	0.0137434
748.342	0.0138421
748.420	0.0138909
748.499	0.0139669
748.577	0.0141348
748.655	0.0142535
748.733	0.0144176
748.811	0.0145859
748.889	0.0145316
748.967	0.0145531
749.045	0.0145580
749.124	0.0144311
749.202	0.0145607
749.280	0.0143446
749.358	0.0142944
749.436	0.0141143
749.514	0.0138555
749.592	0.0137086
749.670	0.0136907
749.749	0.0134842
749.827	0.0135332
749.905	0.0134122
749.983	0.0132926
750.061	0.0133916
750.139	0.0134768
750.217	0.0134827
750.295	0.0135300
750.374	0.0136352
750.452	0.0137473
750.530	0.0137128
750.608	0.0137897
750.686	0.0138483
750.764	0.0139703
750.842	0.0139323
750.920	0.0139713
750.999	0.0139996
751.077	0.0139413
751.155	0.0139146
751.233	0.0138351
751.311	0.0137671
751.389	0.0137055
751.467	0.0137757
751.545	0.0137836
751.624	0.0137335
751.702	0.0135201
751.780	0.0137148
751.858	0.0137498
751.936	0.0135824
752.014	0.0136581
752.092	0.0135445
752.170	0.0135843
752.249	0.0136198
752.327	0.0135876
752.405	0.0136322
752.483	0.0135448
752.561	0.0137387
752.639	0.0136318
752.717	0.0134824
752.795	0.0136163
752.874	0.0137642
752.952	0.0136890
753.030	0.0137328
753.108	0.0136246
753.186	0.0135104
753.264	0.0135786
753.342	0.0136388
753.420	0.0135884
753.499	0.0138742
753.577	0.0136928
753.655	0.0136664
753.733	0.0136417
753.811	0.0136994
753.889	0.0137924
753.967	0.0136480
754.045	0.0136751
754.124	0.0137813
754.202	0.0138652
754.280	0.0137466
754.358	0.0137542
754.436	0.0139213
754.514	0.0137379
754.592	0.0140166
754.670	0.0139357
754.749	0.0140094
754.827	0.0142954
754.905	0.0144040
754.983	0.0144548
755.061	0.0142664
755.139	0.0144242
755.217	0.0143567
755.295	0.0144992
755.374	0.0144746
755.452	0.0143359
755.530	0.0143351
755.608	0.0143544
755.686	0.0140829
755.764	0.0140553
755.842	0.0140279
755.920	0.0139373
755.999	0.0138177
756.077	0.0138222
756.155	0.0136674
756.233	0.0136307
756.311	0.0133398
756.389	0.0134274
756.467	0.0133905
756.545	0.0133350
756.624	0.0132491
756.702	0.0132323
756.780	0.0131618
756.858	0.0134367
756.936	0.0133453
757.014	0.0134744
757.092	0.0135913
757.170	0.0137809
757.249	0.0138199
757.327	0.0137851
757.405	0.0137634
757.483	0.0139613
757.561	0.0139720
757.639	0.0138511
757.717	0.0139792
757.795	0.0140514
757.874	0.0139288
757.952	0.0139526
758.030	0.0139693
758.108	0.0139713
758.186	0.0140854
758.264	0.0140642
758.342	0.0140375
758.420	0.0141260
758.499	0.0141604
758.577	0.0141846
758.655	0.0141547
758.733	0.0141602
758.811	0.0140831
758.889	0.0142340
758.967	0.0141382
759.045	0.0140077
759.124	0.0140343
759.202	0.0139923
759.280	0.0138391
759.358	0.0137911
759.436	0.0136543
759.514	0.0134167
759.592	0.0134692
759.670	0.0133688
759.749	0.0134682
759.827	0.0134383
759.905	0.0134306
759.983	0.0132703
760.061	0.0135435
760.139	0.0133241
760.217	0.0134153
760.295	0.0134460
760.374	0.0134664
760.452	0.0135163
760.530	0.0134692
760.608	0.0135416
760.686	0.0137576
760.764	0.0136649
760.842	0.0136994
760.920	0.0137133
760.999	0.0137371
761.077	0.0137878
761.155	0.0140426
761.233	0.0140821
761.311	0.0139854
761.389	0.0141588
761.467	0.0142596
761.545	0.0142674
761.624	0.0143439
761.702	0.0145006
761.780	0.0146411
761.858	0.0147669
761.936	0.0147627
762.014	0.0148328
762.092	0.0147750
762.170	0.0147695
762.249	0.0147758
762.327	0.0147655
762.405	0.0146919
762.483	0.0145005
762.561	0.0145681
762.639	0.0143208
762.717	0.0141479
762.795	0.0140796
762.874	0.0139692
762.952	0.0138573
763.030	0.0137232
763.108	0.0135797
763.186	0.0133967
763.264	0.0133386
763.342	0.0133907
763.420	0.0133658
763.499	0.0133198
763.577	0.0133936
763.655	0.0133782
763.733	0.0133719
763.811	0.0134241
763.889	0.0135527
763.967	0.0136226
764.045	0.0137427
764.124	0.0137159
764.202	0.0137540
764.280	0.0137238
764.358	0.0136533
764.436	0.0137705
764.514	0.0138508
764.592	0.0137743
764.670	0.0138192
764.749	0.0137678
764.827	0.0139616
764.905	0.0137572
764.983	0.0139056
765.061	0.0138850
765.139	0.0138405
765.217	0.0138403
765.295	0.0139951
765.374	0.0139497
765.452	0.0139976
765.530	0.0140087
765.608	0.0138766
765.686	0.0139809
765.764	0.0139745
765.842	0.0138663
765.920	0.0140132
765.999	0.0141924
766.077	0.0140016
766.155	0.0139615
766.233	0.0140769
766.311	0.0139894
766.389	0.0140223
766.467	0.0140158
766.545	0.0139961
766.624	0.0140317
766.702	0.0140191
766.780	0.0141208
766.858	0.0139159
766.936	0.0137956
767.014	0.0137524
767.092	0.0136962
767.170	0.0136701
767.249	0.0137173
767.327	0.0137235
767.405	0.0135735
767.483	0.0135403
767.561	0.0133564
767.639	0.0135911
767.717	0.0135979
767.795	0.0136329
767.874	0.0136595
767.952	0.0136941
768.030	0.0138094
768.108	0.0140364
768.186	0.0140582
768.264	0.0140828
768.342	0.0140628
768.420	0.0141461
768.499	0.0141685
768.577	0.0141208
768.655	0.0141824
768.733	0.0141651
768.811	0.0139357
768.889	0.0140896
768.967	0.0140721
769.045	0.0139071
769.124	0.0137940
769.202	0.0138289
769.280	0.0136886
769.358	0.0137210
769.436	0.0136750
769.514	0.0135899
769.592	0.0135533
769.670	0.0136599
769.749	0.0136720
769.827	0.0136415
769.905	0.0135541
769.983	0.0135752
770.061	0.0136229
770.139	0.0136566
770.217	0.0137212
770.295	0.0137267
770.374	0.0138049
770.452	0.0137663
770.530	0.0138022
770.608	0.0138866
770.686	0.0139223
770.764	0.0139076
770.842	0.0140071
770.920	0.0138329
770.999	0.0138386
771.077	0.0138439
771.155	0.0139439
771.233	0.0138760
771.311	0.0136996
771.389	0.0136486
771.467	0.0138131
771.545	0.0137399
771.624	0.0138186
771.702	0.0137276
771.780	0.0137501
771.858	0.0138971
771.936	0.0138665
772.014	0.0137932
772.092	0.0138175
772.170	0.0138324
772.249	0.0137676
772.327	0.0137450
772.405	0.0136398
772.483	0.0137929
772.561	0.0139004
772.639	0.0138380
772.717	0.0137479
772.795	0.0136018
772.874	0.0136629
772.952	0.0138416
773.030	0.0137756
773.108	0.0139468
773.186	0.0138117
773.264	0.0138270
773.342	0.0137698
773.420	0.0139667
773.499	0.0140025
773.577	0.0138493
773.655	0.0137407
773.733	0.0136351
773.811	0.0137514
773.889	0.0137032
773.967	0.0135580
774.045	0.0135117
774.124	0.0132966
774.202	0.0133072
774.280	0.0131805
774.358	0.0132227
774.436	0.0131813
774.514	0.0133486
774.592	0.0133448
774.670	0.0132916
774.749	0.0132986
774.827	0.0133718
774.905	0.0134715
774.983	0.0135462
775.061	0.0135730
775.139	0.0136761
775.217	0.0139587
775.295	0.0139931
775.374	0.0140080
775.452	0.0141996
775.530	0.0141600
775.608	0.0142686
775.686	0.0142535
775.764	0.0142630
775.842	0.0142461
775.920	0.0144014
775.999	0.0142675
776.077	0.0144648
776.155	0.0145014
776.233	0.0142886
776.311	0.0143944
776.389	0.0142840
776.467	0.0143083
776.545	0.0143782
776.624	0.0142357
776.702	0.0142007
776.780	0.0139924
776.858	0.0140339
776.936	0.0139785
777.014	0.0140122
777.092	0.0139190
777.170	0.0138598
777.249	0.0136579
777.327	0.0137363
777.405	0.0136874
777.483	0.0135702
777.561	0.0135136
777.639	0.0134821
777.717	0.0135109
777.795	0.0134113
777.874	0.0134322
777.952	0.0133336
778.030	0.0133437
778.108	0.0134290
778.186	0.0134763
778.264	0.0134164
778.342	0.0133567
778.420	0.0134791
778.499	0.0135579
778.577	0.0134814
778.655	0.0135868
778.733	0.0135602
778.811	0.0135390
778.889	0.0136707
778.967	0.0136942
779.045	0.0138644
779.124	0.0139803
779.202	0.0140051
779.280	0.0140583
779.358	0.0140900
779.436	0.0139803
779.514	0.0142146
779.592	0.0141740
779.670	0.0142639
779.749	0.0142367
779.827	0.0143211
779.905	0.0142520
779.983	0.0143379
780.061	0.0143306
780.139	0.0143121
780.217	0.0142310
780.295	0.0140968
780.374	0.0141763
780.452	0.0141374
780.530	0.0140332
780.608	0.0139776
780.686	0.0139024
780.764	0.0138910
780.842	0.0139515
780.920	0.0137742
780.999	0.0136528
781.077	0.0137821
781.155	0.0136414
781.233	0.0135995
781.311	0.0136279
781.389	0.0135339
781.467	0.0137268
781.545	0.0135796
781.624	0.0135509
781.702	0.0135088
781.780	0.0137347
781.858	0.0134753
781.936	0.0136099
782.014	0.0134846
782.092	0.0136146
782.170	0.0136092
782.249	0.0137582
782.327	0.0136272
782.405	0.0136990
782.483	0.0137492
782.561	0.0140298
782.639	0.0138268
782.717	0.0138064
782.795	0.0138887
782.874	0.0138808
782.952	0.0140838
783.030	0.0141274
783.108	0.0141979
783.186	0.0143865
783.264	0.0143243
783.342	0.0142226
783.420	0.0143586
783.499	0.0143005
783.577	0.0143459
783.655	0.0143152
783.733	0.0142979
783.811	0.0143352
783.889	0.0143060
783.967	0.0143726
784.045	0.0143170
784.124	0.0144057
784.202	0.0142254
784.280	0.0143539
784.358	0.0142767
784.436	0.0142664
784.514	0.0141435
784.592	0.0139366
784.670	0.0138892
784.749	0.0138910
784.827	0.0138211
784.905	0.0137232
784.983	0.0136938
785.061	0.0135987
785.139	0.0136040
785.217	0.0137183
785.295	0.0136327
785.374	0.0136977
785.452	0.0134509
785.530	0.0135030
785.608	0.0135116
785.686	0.0134904
785.764	0.0135087
785.842	0.0134896
785.920	0.0135493
785.999	0.0137017
786.077	0.0136092
786.155	0.0137599
786.233	0.0138177
786.311	0.0138157
786.389	0.0137811
786.467	0.0138779
786.545	0.0138621
786.624	0.0138924
786.702	0.0138654
786.780	0.0138575
786.858	0.0140334
786.936	0.0139482
787.014	0.0139361
787.092	0.0139082
787.170	0.0140526
787.249	0.0139473
787.327	0.0140025
787.405	0.0140503
787.483	0.0140208
787.561	0.0141142
787.639	0.0140529
787.717	0.0139349
787.795	0.0142126
787.874	0.0140958
787.952	0.0139232
788.030	0.0139983
788.108	0.0139114
788.186	0.0138696
788.264	0.0137348
788.342	0.0137806
788.420	0.0138526
788.499	0.0137391
788.577	0.0137472
788.655	0.0136977
788.733	0.0136565
788.811	0.0136396
788.889	0.0139321
788.967	0.0138619
789.045	0.0137505
789.124	0.0138316
789.202	0.0139058
789.280	0.0138268
789.358	0.0138898
789.436	0.0138542
789.514	0.0137904
789.592	0.0138956
789.670	0.0136549
789.749	0.0137682
789.827	0.0137455
789.905	0.0137348
789.983	0.0137668
790.061	0.0137841
790.139	0.0136140
790.217	0.0136128
790.295	0.0136984
790.374	0.0136456
790.452	0.0136897
790.530	0.0134269
790.608	0.0136705
790.686	0.0138555
790.764	0.0137781
790.842	0.0137826
790.920	0.0135775
790.999	0.0137763
791.077	0.0138300
791.155	0.0137965
791.233	0.0137978
791.311	0.0138430
791.389	0.0139716
791.467	0.0140276
791.545	0.0140874
791.624	0.0138518
791.702	0.0139007
791.780	0.0139656
791.858	0.0139510
791.936	0.0138622
792.014	0.0139809
792.092	0.0139930
792.170	0.0137556
792.249	0.0138918
792.327	0.0138728
792.405	0.0138457
792.483	0.0137549
792.561	0.0138489
792.639	0.0137706
792.717	0.0137067
792.795	0.0136119
792.874	0.0136810
792.952	0.0134863
793.030	0.0137595
793.108	0.0135943
793.186	0.0135504
793.264	0.0135500
793.342	0.0136472
793.420	0.0135320
793.499	0.0135207
793.577	0.0136201
793.655	0.0135507
793.733	0.0135670
793.811	0.0137640
793.889	0.0137000
793.967	0.0136053
794.045	0.0137200
794.124	0.0136993
794.202	0.0137104
794.280	0.0139932
794.358	0.0139111
794.436	0.0139770
794.514	0.0141042
794.592	0.0138760
794.670	0.0140147
794.749	0.0141095
794.827	0.0140203
794.905	0.0139066
794.983	0.0139306
795.061	0.0138971
795.139	0.0140150
795.217	0.0139110
795.295	0.0138775
795.374	0.0138631
795.452	0.0136838
795.530	0.0137397
795.608	0.0138876
795.686	0.0136087
795.764	0.0136750
795.842	0.0136412
795.920	0.0137667
795.999	0.0137534
796.077	0.0137141
796.155	0.0136913
796.233	0.0135764
796.311	0.0136473
796.389	0.0136590
796.467	0.0137106
796.545	0.0136040
796.624	0.0136024
796.702	0.0135728
796.780	0.0136448
796.858	0.0136277
796.936	0.0134960
797.014	0.0135998
797.092	0.0135175
797.170	0.0136072
797.249	0.0135677
797.327	0.0135193
797.405	0.0138087
797.483	0.0135603
797.561	0.0137505
797.639	0.0137785
797.717	0.0137037
797.795	0.0137064
797.874	0.0137916
797.952	0.0138899
798.030	0.0140808
798.108	0.0140682
798.186	0.0140316
798.264	0.0140483
798.342	0.0139809
798.420	0.0141322
798.499	0.0142645
798.577	0.0140354
798.655	0.0141238
798.733	0.0140978
798.811	0.0140260
798.889	0.0140289
798.967	0.0138583
799.045	0.0138245
799.124	0.0137711
799.202	0.0137023
799.280	0.0137769
799.358	0.0137341
799.436	0.0138042
799.514	0.0137283
799.592	0.0137181
799.670	0.0137762
799.749	0.0137617
799.827	0.0137878
799.905	0.0138809
799.983	0.0138977
800.061	0.0139616
800.139	0.0139430
800.217	0.0140079
800.295	0.0140425
800.374	0.0141161
800.452	0.0142884
800.530	0.0141550
800.608	0.0141980
800.686	0.0142381
800.764	0.0142001
800.842	0.0141712
800.920	0.0142963
800.999	0.0142707
801.077	0.0143310
801.155	0.0141786
801.233	0.0141050
801.311	0.0139760
801.389	0.0140685
801.467	0.0140923
801.545	0.0138328
801.624	0.0139687
801.702	0.0138949
801.780	0.0137997
801.858	0.0136966
801.936	0.0135650
802.014	0.0134608
802.092	0.0135070
802.170	0.0135677
802.249	0.0133833
802.327	0.0133812
802.405	0.0135503
802.483	0.0136295
802.561	0.0135217
802.639	0.0134296
802.717	0.0135355
802.795	0.0136023
802.874	0.0136066
802.952	0.0137212
803.030	0.0137431
803.108	0.0138898
803.186	0.0136800
803.264	0.0139869
803.342	0.0139749
803.420	0.0140431
803.499	0.0140373
803.577	0.0140742
803.655	0.0141935
803.733	0.0142617
803.811	0.0142525
803.889	0.0142756
803.967	0.0143475
804.045	0.0142914
804.124	0.0141039
804.202	0.0141638
804.280	0.0141966
804.358	0.0141399
804.436	0.0138583
804.514	0.0139661
804.592	0.0141103
804.670	0.0139389
804.749	0.0138826
804.827	0.0138888
804.905	0.0138991
804.983	0.0137411
805.061	0.0137483
805.139	0.0139301
805.217	0.0139400
805.295	0.0138325
805.374	0.0137955
805.452	0.0137661
805.530	0.0139806
805.608	0.0138880
805.686	0.0138135
805.764	0.0138080
805.842	0.0137894
805.920	0.0136810
805.999	0.0139281
806.077	0.0140413
806.155	0.0139275
806.233	0.0138512
806.311	0.0139849
806.389	0.0139674
806.467	0.0140248
806.545	0.0140710
806.624	0.0140314
806.702	0.0140636
806.780	0.0140794
806.858	0.0140701
806.936	0.0141708
807.014	0.0141557
807.092	0.0139827
807.170	0.0140457
807.249	0.0139297
807.327	0.0139503
807.405	0.0139211
807.483	0.0138564
807.561	0.0137351
807.639	0.0138070
807.717	0.0138650
807.795	0.0137089
807.874	0.0137500
807.952	0.0137717
808.030	0.0137863
808.108	0.0138107
808.186	0.0136596
808.264	0.0138265
808.342	0.0137236
808.420	0.0138265
808.499	0.0138485
808.577	0.0138622
808.655	0.0138764
808.733	0.0138205
808.811	0.0138528
808.889	0.0138742
808.967	0.0139397
809.045	0.0140338
809.124	0.0141572
809.202	0.0140104
809.280	0.0142201
809.358	0.0141852
809.436	0.0140006
809.514	0.0141288
809.592	0.0142506
809.670	0.0141637
809.749	0.0141133
809.827	0.0142017
809.905	0.0141651
809.983	0.0141021
810.061	0.0141325
810.139	0.0140594
810.217	0.0139131
810.295	0.0140720
810.374	0.0140463
810.452	0.0139874
810.530	0.0138585
810.608	0.0136667
810.686	0.0138346
810.764	0.0139318
810.842	0.0138691
810.920	0.0137382
810.999	0.0138794
811.077	0.0137558
811.155	0.0136846
811.233	0.0137991
811.311	0.0134969
811.389	0.0136558
811.467	0.0136849
811.545	0.0137867
811.624	0.0137704
811.702	0.0137531
811.780	0.0138332
811.858	0.0137061
811.936	0.0136816
812.014	0.0137985
812.092	0.0140271
812.170	0.0139560
812.249	0.0140609
812.327	0.0139083
812.405	0.0139528
812.483	0.0140103
812.561	0.0138599
812.639	0.0139133
812.717	0.0139099
812.795	0.0139169
812.874	0.0139931
812.952	0.0138566
813.030	0.0137227
813.108	0.0137347
813.186	0.0136316
813.264	0.0136546
813.342	0.0135803
813.420	0.0135861
813.499	0.0135034
813.577	0.0136426
813.655	0.0136390
813.733	0.0134184
813.811	0.0134394
813.889	0.0135299
813.967	0.0134919
814.045	0.0135925
814.124	0.0135287
814.202	0.0135367
814.280	0.0136073
814.358	0.0137322
814.436	0.0137168
814.514	0.0136568
814.592	0.0136883
814.670	0.0136328
814.749	0.0138841
814.827	0.0138673
814.905	0.0138351
814.983	0.0138573
815.061	0.0138966
815.139	0.0139384
815.217	0.0138821
815.295	0.0138670
815.374	0.0138399
815.452	0.0136885
815.530	0.0137265
815.608	0.0135374
815.686	0.0136304
815.764	0.0138216
815.842	0.0136859
815.920	0.0136575
815.999	0.0137060
816.077	0.0137451
816.155	0.0136600
816.233	0.0137538
816.311	0.0137898
816.389	0.0138326
816.467	0.0136022
816.545	0.0138178
816.624	0.0138799
816.702	0.0138000
816.780	0.0137825
816.858	0.0138037
816.936	0.0137888
817.014	0.0138190
817.092	0.0136806
817.170	0.0138127
817.249	0.0138749
817.327	0.0139692
817.405	0.0138130
817.483	0.0139005
817.561	0.0138680
817.639	0.0139902
817.717	0.0139959
817.795	0.0138613
817.874	0.0140230
817.952	0.0139454
818.030	0.0139899
818.108	0.0140717
818.186	0.0138723
818.264	0.0139726
818.342	0.0139174
818.420	0.0137889
818.499	0.0137437
818.577	0.0136242
818.655	0.0135528
818.733	0.0135938
818.811	0.0135043
818.889	0.0134461
818.967	0.0135589
819.045	0.0133944
819.124	0.0135931
819.202	0.0135931
819.280	0.0136093
819.358	0.0136432
819.436	0.0135523
819.514	0.0136333
819.592	0.0137078
819.670	0.0136272
819.749	0.0138235
819.827	0.0138924
819.905	0.0139671
819.983	0.0139887
820.061	0.0138762
820.139	0.0138842
820.217	0.0140563
820.295	0.0141203
820.374	0.0139036
820.452	0.0139923
820.530	0.0139262
820.608	0.0140364
820.686	0.0139994
820.764	0.0139169
820.842	0.0140242
820.920	0.0139407
820.999	0.0139993
821.077	0.0139506
821.155	0.0138787
821.233	0.0139361
821.311	0.0137358
821.389	0.0137163
821.467	0.0136486
821.545	0.0137399
821.624	0.0136782
821.702	0.0136391
821.780	0.0136477
821.858	0.0134432
821.936	0.0135708
822.014	0.0136898
822.092	0.0134641
822.170	0.0136486
822.249	0.0135017
822.327	0.0135828
822.405	0.0136376
822.483	0.0136203
822.561	0.0136957
822.639	0.0135231
822.717	0.0137167
822.795	0.0138088
822.874	0.0140028
822.952	0.0137740
823.030	0.0138149
823.108	0.0138337
823.186	0.0139190
823.264	0.0138322
823.342	0.0139719
823.420	0.0140188
823.499	0.0140661
823.577	0.0140038
823.655	0.0139787
823.733	0.0138989
823.811	0.0140432
823.889	0.0139022
823.967	0.0138166
824.045	0.0140060
824.124	0.0139784
824.202	0.0140629
824.280	0.0139577
824.358	0.0138229
824.436	0.0139479
824.514	0.0138352
824.592	0.0139868
824.670	0.0139154
824.749	0.0139944
824.827	0.0139468
824.905	0.0139523
824.983	0.0138346
825.061	0.0138013
825.139	0.0137138
825.217	0.0138721
825.295	0.0140102
825.374	0.0140607
825.452	0.0137574
825.530	0.0139580
825.608	0.0138716
825.686	0.0137963
825.764	0.0138294
825.842	0.0139293
825.920	0.0139867
825.999	0.0140675
826.077	0.0141315
826.155	0.0140834
826.233	0.0140296
826.311	0.0141109
826.389	0.0140198
826.467	0.0140279
826.545	0.0140398
826.624	0.0140334
826.702	0.0140865
826.780	0.0140133
826.858	0.0139420
826.936	0.0140607
827.014	0.0138213
827.092	0.0138739
827.170	0.0137719
827.249	0.0137476
827.327	0.0138441
827.405	0.0139699
827.483	0.0137133
827.561	0.0136636
827.639	0.0139380
827.717	0.0138337
827.795	0.0137426
827.874	0.0139298
827.952	0.0138550
828.030	0.0138432
828.108	0.0137574
828.186	0.0136911
828.264	0.0138400
828.342	0.0139250
828.420	0.0139134
828.499	0.0137747
828.577	0.0139377
828.655	0.0139879
828.733	0.0140178
828.811	0.0139867
828.889	0.0139697
828.967	0.0140030
829.045	0.0140198
829.124	0.0139507
829.202	0.0139758
829.280	0.0139576
829.358	0.0140170
829.436	0.0140451
829.514	0.0140685
829.592	0.0138911
829.670	0.0139648
829.749	0.0138255
829.827	0.0137897
829.905	0.0138177
829.983	0.0136935
830.061	0.0137585
830.139	0.0136783
830.217	0.0137675
830.295	0.0137983
830.374	0.0138699
830.452	0.0137948
830.530	0.0137685
830.608	0.0138020
830.686	0.0137276
830.764	0.0137024
830.842	0.0138625
830.920	0.0139153
830.999	0.0138426
831.077	0.0139396
831.155	0.0139245
831.233	0.0138782
831.311	0.0139918
831.389	0.0140823
831.467	0.0141986
831.545	0.0140770
831.624	0.0141520
831.702	0.0141647
831.780	0.0141078
831.858	0.0142978
831.936	0.0141656
832.014	0.0142902
832.092	0.0142393
832.170	0.0141332
832.249	0.0140894
832.327	0.0140903
832.405	0.0140572
832.483	0.0142008
832.561	0.0139624
832.639	0.0140019
832.717	0.0139194
832.795	0.0138313
832.874	0.0139725
832.952	0.0138612
833.030	0.0138950
833.108	0.0139497
833.186	0.0139202
833.264	0.0137974
833.342	0.0137233
833.420	0.0137307
833.499	0.0137849
833.577	0.0139812
833.655	0.0138714
833.733	0.0139793
833.811	0.0139837
833.889	0.0139714
833.967	0.0140499
834.045	0.0139677
834.124	0.0140205
834.202	0.0140120
834.280	0.0139285
834.358	0.0140015
834.436	0.0139867
834.514	0.0139680
834.592	0.0139326
834.670	0.0138108
834.749	0.0137994
834.827	0.0139242
834.905	0.0139146
834.983	0.0137975
835.061	0.0136538
835.139	0.0137049
835.217	0.0138335
835.295	0.0137357
835.374	0.0137213
835.452	0.0137901
835.530	0.0137926
835.608	0.0137408
835.686	0.0137818
835.764	0.0137942
835.842	0.0137875
835.920	0.0138189
835.999	0.0137852
836.077	0.0137433
836.155	0.0138096
836.233	0.0137884
836.311	0.0136866
836.389	0.0139384
836.467	0.0137979
836.545	0.0138915
836.624	0.0138829
836.702	0.0137220
836.780	0.0137368
836.858	0.0137532
836.936	0.0139053
837.014	0.0138092
837.092	0.0139454
837.170	0.0139307
837.249	0.0138219
837.327	0.0138396
837.405	0.0140022
837.483	0.0140055
837.561	0.0139200
837.639	0.0140267
837.717	0.0139230
837.795	0.0139571
837.874	0.0139980
837.952	0.0139422
838.030	0.0140041
838.108	0.0139462
838.186	0.0139246
838.264	0.0138390
838.342	0.0138808
838.420	0.0139096
838.499	0.0139175
838.577	0.0140286
838.655	0.0139896
838.733	0.0138657
838.811	0.0139520
838.889	0.0139064
838.967	0.0139699
839.045	0.0139701
839.124	0.0139708
839.202	0.0139078
839.280	0.0140369
839.358	0.0139269
839.436	0.0139044
839.514	0.0138522
839.592	0.0138092
839.670	0.0138822
839.749	0.0140209
839.827	0.0138670
839.905	0.0139981
839.983	0.0139645
840.061	0.0138976
840.139	0.0138737
840.217	0.0140405
840.295	0.0139885
840.374	0.0138784
840.452	0.0138625
840.530	0.0138091
840.608	0.0138436
840.686	0.0140385
840.764	0.0139606
840.842	0.0140927
840.920	0.0138740
840.999	0.0139293
841.077	0.0138631
841.155	0.0138814
841.233	0.0138091
841.311	0.0139154
841.389	0.0138254
841.467	0.0137631
841.545	0.0138937
841.624	0.0138407
841.702	0.0138909
841.780	0.0137473
841.858	0.0138694
841.936	0.0138568
842.014	0.0137411
842.092	0.0137473
842.170	0.0136678
842.249	0.0137611
842.327	0.0138645
842.405	0.0137333
842.483	0.0138164
842.561	0.0138367
842.639	0.0138666
842.717	0.0137230
842.795	0.0137605
842.874	0.0138418
842.952	0.0137299
843.030	0.0137975
843.108	0.0136947
843.186	0.0139497
843.264	0.0137700
843.342	0.0136447
843.420	0.0136984
843.499	0.0136485
843.577	0.0136198
843.655	0.0135310
843.733	0.0136391
843.811	0.0137238
843.889	0.0137381
843.967	0.0137180
844.045	0.0137499
844.124	0.0138616
844.202	0.0137331
844.280	0.0136948
844.358	0.0137744
844.436	0.0137576
844.514	0.0138629
844.592	0.0138269
844.670	0.0140414
844.749	0.0139435
844.827	0.0137977
844.905	0.0138092
844.983	0.0138539
845.061	0.0138854
845.139	0.0139084
845.217	0.0139801
845.295	0.0139717
845.374	0.0141998
845.452	0.0140739
845.530	0.0140282
845.608	0.0138803
845.686	0.0139685
845.764	0.0140147
845.842	0.0140543
845.920	0.0138729
845.999	0.0140452
846.077	0.0139727
846.155	0.0138235
846.233	0.0139273
846.311	0.0138239
846.389	0.0138981
846.467	0.0138717
846.545	0.0139441
846.624	0.0138979
846.702	0.0137198
846.780	0.0137337
846.858	0.0136425
846.936	0.0136603
847.014	0.0136575
847.092	0.0138205
847.170	0.0136537
847.249	0.0136252
847.327	0.0135685
847.405	0.0137209
847.483	0.0135536
847.561	0.0136993
847.639	0.0136073
847.717	0.0137054
847.795	0.0136953
847.874	0.0136948
847.952	0.0136610
848.030	0.0136176
848.108	0.0136465
848.186	0.0135641
848.264	0.0137104
848.342	0.0136213
848.420	0.0137060
848.499	0.0137266
848.577	0.0137679
848.655	0.0136707
848.733	0.0136654
848.811	0.0138221
848.889	0.0138386
848.967	0.0137682
849.045	0.0139129
849.124	0.0137874
849.202	0.0138656
849.280	0.0139075
849.358	0.0138739
849.436	0.0138741
849.514	0.0139260
849.592	0.0137949
849.670	0.0138302
849.749	0.0139806
849.827	0.0140038
849.905	0.0137666
849.983	0.0138068
850.061	0.0140788
850.139	0.0139961
850.217	0.0140073
850.295	0.0139542
850.374	0.0139954
850.452	0.0139136
850.530	0.0138329
850.608	0.0139587
850.686	0.0139348
850.764	0.0137553
850.842	0.0136203
850.920	0.0136678
850.999	0.0135816
851.077	0.0135656
851.155	0.0136221
851.233	0.0135491
851.311	0.0136202
851.389	0.0136478
851.467	0.0134323
851.545	0.0135524
851.624	0.0136837
851.702	0.0134624
851.780	0.0135139
851.858	0.0136358
851.936	0.0136341
852.014	0.0136846
852.092	0.0137243
852.170	0.0138389
852.249	0.0139169
852.327	0.0138347
852.405	0.0137898
852.483	0.0140138
852.561	0.0141000
852.639	0.0141088
852.717	0.0141108
852.795	0.0139916
852.874	0.0140889
852.952	0.0142205
853.030	0.0142738
853.108	0.0142220
853.186	0.0142056
853.264	0.0141937
853.342	0.0141350
853.420	0.0143604
853.499	0.0141315
853.577	0.0140555
853.655	0.0139846
853.733	0.0138966
853.811	0.0138390
853.889	0.0138458
853.967	0.0137683
854.045	0.0137335
854.124	0.0137006
854.202	0.0136950
854.280	0.0135289
854.358	0.0136206
854.436	0.0133315
854.514	0.0133910
854.592	0.0133173
854.670	0.0136011
854.749	0.0133829
854.827	0.0135475
854.905	0.0135726
854.983	0.0134038
855.061	0.0132719
855.139	0.0135761
855.217	0.0135964
855.295	0.0136792
855.374	0.0134802
855.452	0.0136905
855.530	0.0138441
855.608	0.0137458
855.686	0.0138386
855.764	0.0139155
855.842	0.0140254
855.920	0.0140515
855.999	0.0140973
856.077	0.0141713
856.155	0.0140719
856.233	0.0141421
856.311	0.0142984
856.389	0.0142774
856.467	0.0141768
856.545	0.0142758
856.624	0.0141872
856.702	0.0142681
856.780	0.0143633
856.858	0.0143925
856.936	0.0143187
857.014	0.0142933
857.092	0.0141570
857.170	0.0142532
857.249	0.0142447
857.327	0.0140990
857.405	0.0140757
857.483	0.0141038
857.561	0.0140778
857.639	0.0139359
857.717	0.0139545
857.795	0.0137782
857.874	0.0139898
857.952	0.0138050
858.030	0.0137733
858.108	0.0135922
858.186	0.0136829
858.264	0.0137156
858.342	0.0136722
858.420	0.0137312
858.499	0.0136517
858.577	0.0135954
858.655	0.0137383
858.733	0.0137138
858.811	0.0137023
858.889	0.0136829
858.967	0.0136472
859.045	0.0138573
859.124	0.0137137
859.202	0.0136721
859.280	0.0136993
859.358	0.0138074
859.436	0.0137787
859.514	0.0138018
859.592	0.0136710
859.670	0.0139140
859.749	0.0139372
859.827	0.0137801
859.905	0.0137721
859.983	0.0139458
860.061	0.0138490
860.139	0.0139809
860.217	0.0139611
860.295	0.0139095
860.374	0.0140102
860.452	0.0138284
860.530	0.0139330
860.608	0.0138885
860.686	0.0139245
860.764	0.0139355
860.842	0.0139233
860.920	0.0140136
860.999	0.0139481
861.077	0.0139124
861.155	0.0139890
861.233	0.0140008
861.311	0.0141323
861.389	0.0139934
861.467	0.0138898
861.545	0.0139668
861.624	0.0138755
861.702	0.0137263
861.780	0.0138691
861.858	0.0138478
861.936	0.0137939
862.014	0.0136718
862.092	0.0137394
862.170	0.0139182
862.249	0.0137493
862.327	0.0137763
862.405	0.0139536
862.483	0.0136791
862.561	0.0138039
862.639	0.0137376
862.717	0.0139948
862.795	0.0138164
862.874	0.0137772
862.952	0.0138448
863.030	0.0139806
863.108	0.0139473
863.186	0.0139314
863.264	0.0138969
863.342	0.0141035
863.420	0.0140821
863.499	0.0140414
863.577	0.0140102
863.655	0.0140824
863.733	0.0141891
863.811	0.0141328
863.889	0.0141552
863.967	0.0139937
864.045	0.0140623
864.124	0.0140372
864.202	0.0139677
864.280	0.0140362
864.358	0.0140353
864.436	0.0138929
864.514	0.0138892
864.592	0.0138821
864.670	0.0137785
864.749	0.0137099
864.827	0.0137605
864.905	0.0136919
864.983	0.0135325
865.061	0.0135632
865.139	0.0136773
865.217	0.0136220
865.295	0.0135398
865.374	0.0137257
865.452	0.0136053
865.530	0.0135809
865.608	0.0137889
865.686	0.0138962
865.764	0.0138958
865.842	0.0138104
865.920	0.0137660
865.999	0.0139536
866.077	0.0140559
866.155	0.0140032
866.233	0.0141145
866.311	0.0142363
866.389	0.0141747
866.467	0.0140718
866.545	0.0141976
866.624	0.0141566
866.702	0.0140254
866.780	0.0141011
866.858	0.0140517
866.936	0.0139819
867.014	0.0140804
867.092	0.0140034
867.170	0.0139737
867.249	0.0138601
867.327	0.0138663
867.405	0.0137310
867.483	0.0138422
867.561	0.0137197
867.639	0.0137334
867.717	0.0137867
867.795	0.0136375
867.874	0.0136361
867.952	0.0136118
868.030	0.0134534
868.108	0.0135254
868.186	0.0135654
868.264	0.0135187
868.342	0.0135766
868.420	0.0135838
868.499	0.0134169
868.577	0.0135717
868.655	0.0135481
868.733	0.0136378
868.811	0.0136430
868.889	0.0136348
868.967	0.0137943
869.045	0.0137933
869.124	0.0139410
869.202	0.0137801
869.280	0.0138466
869.358	0.0139318
869.436	0.0140368
869.514	0.0140313
869.592	0.0139722
869.670	0.0140733
869.749	0.0140282
869.827	0.0140788
869.905	0.0141378
869.983	0.0142020
870.061	0.0141391
870.139	0.0141938
870.217	0.0142319
870.295	0.0142181
870.374	0.0140823
870.452	0.0141756
870.530	0.0140859
870.608	0.0139842
870.686	0.0141927
870.764	0.0139733
870.842	0.0140716
870.920	0.0140322
870.999	0.0140185
871.077	0.0139250
871.155	0.0138976
871.233	0.0140147
871.311	0.0140298
871.389	0.0139913
871.467	0.0139496
871.545	0.0138267
871.624	0.0138475
871.702	0.0137949
871.780	0.0138266
871.858	0.0137741
871.936	0.0137308
872.014	0.0135646
872.092	0.0136716
872.170	0.0135757
872.249	0.0135123
872.327	0.0134946
872.405	0.0133672
872.483	0.0134020
872.561	0.0133414
872.639	0.0132878
872.717	0.0132525
872.795	0.0133752
872.874	0.0133921
872.952	0.0134129
873.030	0.0133531
873.108	0.0133472
873.186	0.0133890
873.264	0.0132518
873.342	0.0133576
873.420	0.0133918
873.499	0.0134899
873.577	0.0135283
873.655	0.0136814
873.733	0.0138004
873.811	0.0137245
873.889	0.0137075
873.967	0.0138614
874.045	0.0141484
874.124	0.0140231
874.202	0.0140569
874.280	0.0140705
874.358	0.0141324
874.436	0.0142628
874.514	0.0142538
874.592	0.0140944
874.670	0.0141447
874.749	0.0141222
874.827	0.0140158
874.905	0.0141271
874.983	0.0140160
875.061	0.0139460
875.139	0.0139819
875.217	0.0138670
875.295	0.0137298
875.374	0.0137077
875.452	0.0136434
875.530	0.0134135
875.608	0.0132819
875.686	0.0135500
875.764	0.0133250
875.842	0.0132330
875.920	0.0132814
875.999	0.0132269
876.077	0.0132581
876.155	0.0131894
876.233	0.0132800
876.311	0.0133275
876.389	0.0132857
876.467	0.0133847
876.545	0.0134234
876.624	0.0134727
876.702	0.0137742
876.780	0.0137789
876.858	0.0137093
876.936	0.0138699
877.014	0.0139677
877.092	0.0141313
877.170	0.0141218
877.249	0.0141628
877.327	0.0142429
877.405	0.0141241
877.483	0.0142635
877.561	0.0139795
877.639	0.0141077
877.717	0.0141293
877.795	0.0140326
877.874	0.0139948
877.952	0.0140627
878.030	0.0140701
878.108	0.0139254
878.186	0.0140426
878.264	0.0138991
878.342	0.0139186
878.420	0.0138602
878.499	0.0138110
878.577	0.0138888
878.655	0.0138186
878.733	0.0137263
878.811	0.0138702
878.889	0.0138453
878.967	0.0138495
879.045	0.0138129
879.124	0.0138248
879.202	0.0138016
879.280	0.0138570
879.358	0.0137242
879.436	0.0137184
879.514	0.0136959
879.592	0.0137782
879.670	0.0139081
879.749	0.0136175
879.827	0.0136632
879.905	0.0136722
879.983	0.0136619
880.061	0.0137973
880.139	0.0137918
880.217	0.0136831
880.295	0.0137571
880.374	0.0137081
880.452	0.0135760
880.530	0.0136925
880.608	0.0136224
880.686	0.0136716
880.764	0.0138196
880.842	0.0136678
880.920	0.0137569
880.999	0.0137257
881.077	0.0136843
881.155	0.0138142
881.233	0.0138412
881.311	0.0138326
881.389	0.0138911
881.467	0.0140856
881.545	0.0138570
881.624	0.0138933
881.702	0.0138550
881.780	0.0139566
881.858	0.0138918
881.936	0.0138996
882.014	0.0139150
882.092	0.0140705
882.170	0.0138493
882.249	0.0139738
882.327	0.0139805
882.405	0.0140785
882.483	0.0141773
882.561	0.0141371
882.639	0.0142146
882.717	0.0140225
882.795	0.0140508
882.874	0.0141936
882.952	0.0141353
883.030	0.0140708
883.108	0.0140190
883.186	0.0140582
883.264	0.0138539
883.342	0.0140614
883.420	0.0139370
883.499	0.0138633
883.577	0.0139698
883.655	0.0139392
883.733	0.0140598
883.811	0.0139857
883.889	0.0140123
883.967	0.0141717
884.045	0.0140013
884.124	0.0138602
884.202	0.0140071
884.280	0.0140345
884.358	0.0138884
884.436	0.0138805
884.514	0.0139890
884.592	0.0140997
884.670	0.0140498
884.749	0.0140600
884.827	0.0139556
884.905	0.0139361
884.983	0.0139807
885.061	0.0140825
885.139	0.0140251
885.217	0.0141637
885.295	0.0138885
885.374	0.0138850
885.452	0.0140237
885.530	0.0139888
885.608	0.0141898
885.686	0.0139618
885.764	0.0138018
885.842	0.0138098
885.920	0.0137820
885.999	0.0138536
886.077	0.0138506
886.155	0.0138476
886.233	0.0137265
886.311	0.0138297
886.389	0.0136919
886.467	0.0137224
886.545	0.0138348
886.624	0.0137043
886.702	0.0137282
886.780	0.0137788
886.858	0.0138078
886.936	0.0137785
887.014	0.0137061
887.092	0.0137027
887.170	0.0136906
887.249	0.0138281
887.327	0.0140225
887.405	0.0137715
887.483	0.0137498
887.561	0.0139139
887.639	0.0139176
887.717	0.0138789
887.795	0.0139069
887.874	0.0139729
887.952	0.0140614
888.030	0.0139748
888.108	0.0141255
888.186	0.0140665
888.264	0.0139841
888.342	0.0140367
888.420	0.0138283
888.499	0.0139667
888.577	0.0139872
888.655	0.0140092
888.733	0.0139541
888.811	0.0141076
888.889	0.0139793
888.967	0.0139700
889.045	0.0139494
889.124	0.0137634
889.202	0.0138692
889.280	0.0139731
889.358	0.0138989
889.436	0.0139268
889.514	0.0137965
889.592	0.0138685
889.670	0.0138806
889.749	0.0138603
889.827	0.0138369
889.905	0.0137801
889.983	0.0138559
890.061	0.0139576
890.139	0.0137670
890.217	0.0138303
890.295	0.0138083
890.374	0.0137133
890.452	0.0136582
890.530	0.0137890
890.608	0.0135830
890.686	0.0137048
890.764	0.0138244
890.842	0.0135921
890.920	0.0136875
890.999	0.0137016
891.077	0.0136425
891.155	0.0135208
891.233	0.0135574
891.311	0.0136681
891.389	0.0137965
891.467	0.0137370
891.545	0.0136483
891.624	0.0135454
891.702	0.0136050
891.780	0.0136907
891.858	0.0137097
891.936	0.0138106
892.014	0.0137616
892.092	0.0137235
892.170	0.0139156
892.249	0.0139735
892.327	0.0137746
892.405	0.0137035
892.483	0.0139040
892.561	0.0139140
892.639	0.0138299
892.717	0.0140229
892.795	0.0139259
892.874	0.0139487
892.952	0.0138764
893.030	0.0139803
893.108	0.0139589
893.186	0.0140025
893.264	0.0139417
893.342	0.0140186
893.420	0.0140601
893.499	0.0140298
893.577	0.0139748
893.655	0.0138879
893.733	0.0139555
893.811	0.0139317
893.889	0.0137301
893.967	0.0138279
894.045	0.0138382
894.124	0.0137434
894.202	0.0136662
894.280	0.0136706
894.358	0.0136389
894.436	0.0136325
894.514	0.0136152
894.592	0.0136687
894.670	0.0135691
894.749	0.0137006
894.827	0.0137910
894.905	0.0136543
894.983	0.0137590
895.061	0.0137708
895.139	0.0137659
895.217	0.0137202
895.295	0.0137170
895.374	0.0136968
895.452	0.0138016
895.530	0.0137964
895.608	0.0138211
895.686	0.0137202
895.764	0.0138237
895.842	0.0139389
895.920	0.0139085
895.999	0.0137971
896.077	0.0136420
896.155	0.0137896
896.233	0.0139064
896.311	0.0138380
896.389	0.0138564
896.467	0.0139481
896.545	0.0137547
896.624	0.0138039
896.702	0.0138277
896.780	0.0136240
896.858	0.0137888
896.936	0.0138093
897.014	0.0136474
897.092	0.0137324
897.170	0.0138225
897.249	0.0136829
897.327	0.0137258
897.405	0.0137212
897.483	0.0136345
897.561	0.0136875
897.639	0.0137018
897.717	0.0137471
897.795	0.0136606
897.874	0.0136485
897.952	0.0136564
898.030	0.0136880
898.108	0.0137376
898.186	0.0137275
898.264	0.0137411
898.342	0.0138482
898.420	0.0138902
898.499	0.0139625
898.577	0.0138946
898.655	0.0139644
898.733	0.0138746
898.811	0.0140495
898.889	0.0140821
898.967	0.0141874
899.045	0.0140977
899.124	0.0141003
899.202	0.0140030
899.280	0.0140523
899.358	0.0141550
899.436	0.0140276
899.514	0.0140639
899.592	0.0140193
899.670	0.0139619
899.749	0.0140138
899.827	0.0140009
899.905	0.0139500
899.983	0.0139127
900.061	0.0138513
900.139	0.0138706
900.217	0.0138425
900.295	0.0138029
900.374	0.0138002
900.452	0.0138441
900.530	0.0138415
900.608	0.0138519
900.686	0.0139156
900.764	0.0139580
900.842	0.0139202
900.920	0.0137754
900.999	0.0140005
901.077	0.0138982
901.155	0.0140440
901.233	0.0138515
901.311	0.0139888
901.389	0.0139734
901.467	0.0138998
901.545	0.0139738
901.624	0.0139548
901.702	0.0138673
901.780	0.0137520
901.858	0.0137138
901.936	0.0139583
902.014	0.0138577
902.092	0.0138718
902.170	0.0138024
902.249	0.0137950
902.327	0.0138147
902.405	0.0137690
902.483	0.0137468
902.561	0.0137025
902.639	0.0138705
902.717	0.0137723
902.795	0.0137431
902.874	0.0136374
902.952	0.0136004
903.030	0.0139108
903.108	0.0137285
903.186	0.0137748
903.264	0.0136848
903.342	0.0136968
903.420	0.0138241
903.499	0.0138210
903.577	0.0138531
903.655	0.0139046
903.733	0.0139095
903.811	0.0137453
903.889	0.0138390
903.967	0.0139692
904.045	0.0138569
904.124	0.0140941
904.202	0.0139293
904.280	0.0140594
904.358	0.0141600
904.436	0.0142181
904.514	0.0141787
904.592	0.0141619
904.670	0.0141302
904.749	0.0142487
904.827	0.0141166
904.905	0.0141621
904.983	0.0140938
905.061	0.0141743
905.139	0.0141740
905.217	0.0140972
905.295	0.0141019
905.374	0.0141454
905.452	0.0141027
905.530	0.0140588
905.608	0.0139317
905.686	0.0139268
905.764	0.0140573
905.842	0.0139608
905.920	0.0138263
905.999	0.0137203
906.077	0.0138472
906.155	0.0137948
906.233	0.0137489
906.311	0.0136641
906.389	0.0138219
906.467	0.0137595
906.545	0.0136256
906.624	0.0135980
906.702	0.0136681
906.780	0.0138368
906.858	0.0137299
906.936	0.0135509
907.014	0.0138447
907.092	0.0136951
907.170	0.0136649
907.249	0.0137469
907.327	0.0136608
907.405	0.0137009
907.483	0.0137454
907.561	0.0138406
907.639	0.0137100
907.717	0.0138257
907.795	0.0136497
907.874	0.0136996
907.952	0.0137665
908.030	0.0137135
908.108	0.0138622
908.186	0.0138948
908.264	0.0139017
908.342	0.0139442
908.420	0.0139739
908.499	0.0140900
908.577	0.0138954
908.655	0.0139193
908.733	0.0139150
908.811	0.0138539
908.889	0.0139082
908.967	0.0139102
909.045	0.0140427
909.124	0.0139238
909.202	0.0140551
909.280	0.0139755
909.358	0.0139574
909.436	0.0139297
909.514	0.0140549
909.592	0.0140093
909.670	0.0140449
909.749	0.0138290
909.827	0.0139899
909.905	0.0139207
909.983	0.0139655
910.061	0.0141226
910.139	0.0138718
910.217	0.0138115
910.295	0.0138496
910.374	0.0140101
910.452	0.0139965
910.530	0.0137571
910.608	0.0138567
910.686	0.0137201
910.764	0.0136388
910.842	0.0137254
910.920	0.0137495
910.999	0.0137478
911.077	0.0137006
911.155	0.0137163
911.233	0.0136250
911.311	0.0135842
911.389	0.0136303
911.467	0.0138098
911.545	0.0136517
911.624	0.0137097
911.702	0.0136594
911.780	0.0139127
911.858	0.0138390
911.936	0.0137564
912.014	0.0137901
912.092	0.0138895
912.170	0.0140000
912.249	0.0139082
912.327	0.0140377
912.405	0.0139015
912.483	0.0140099
912.561	0.0139748
912.639	0.0138785
912.717	0.0137897
912.795	0.0139951
912.874	0.0140562
912.952	0.0138677
913.030	0.0139412
913.108	0.0140012
913.186	0.0139921
913.264	0.0139038
913.342	0.0139153
913.420	0.0138533
913.499	0.0138799
913.577	0.0139047
913.655	0.0138357
913.733	0.0140221
913.811	0.0139060
913.889	0.0138730
913.967	0.0138691
914.045	0.0137502
914.124	0.0138646
914.202	0.0137849
914.280	0.0136449
914.358	0.0138423
914.436	0.0138049
914.514	0.0136647
914.592	0.0136538
914.670	0.0137894
914.749	0.0136930
914.827	0.0137247
914.905	0.0137272
914.983	0.0137423
915.061	0.0138092
915.139	0.0137791
915.217	0.0137911
915.295	0.0137807
915.374	0.0138136
915.452	0.0138038
915.530	0.0138877
915.608	0.0137601
915.686	0.0137506
915.764	0.0139555
915.842	0.0138287
915.920	0.0137903
915.999	0.0139602
916.077	0.0138213
916.155	0.0137447
916.233	0.0138867
916.311	0.0138036
916.389	0.0138809
916.467	0.0139081
916.545	0.0139018
916.624	0.0139646
916.702	0.0140295
916.780	0.0138931
916.858	0.0139823
916.936	0.0139917
917.014	0.0139193
917.092	0.0139693
917.170	0.0138960
917.249	0.0140088
917.327	0.0140512
917.405	0.0139271
917.483	0.0139424
917.561	0.0139246
917.639	0.0138639
917.717	0.0138057
917.795	0.0140085
917.874	0.0138969
917.952	0.0138656
918.030	0.0137648
918.108	0.0137807
918.186	0.0136232
918.264	0.0137827
918.342	0.0136909
918.420	0.0136988
918.499	0.0137155
918.577	0.0135475
918.655	0.0136673
918.733	0.0136730
918.811	0.0137448
918.889	0.0135379
918.967	0.0136774
919.045	0.0136822
919.124	0.0138565
919.202	0.0137614
919.280	0.0136082
919.358	0.0136497
919.436	0.0137963
919.514	0.0136357
919.592	0.0138111
919.670	0.0137038
919.749	0.0137927
919.827	0.0137827
919.905	0.0136552
919.983	0.0136899
920.061	0.0137634
920.139	0.0138229
920.217	0.0140314
920.295	0.0139991
920.374	0.0140359
920.452	0.0140015
920.530	0.0139039
920.608	0.0140433
920.686	0.0140569
920.764	0.0138692
920.842	0.0138802
920.920	0.0140665
920.999	0.0139503
921.077	0.0139303
921.155	0.0139223
921.233	0.0139624
921.311	0.0138354
921.389	0.0138599
921.467	0.0139731
921.545	0.0140395
921.624	0.0139915
921.702	0.0139670
921.780	0.0138546
921.858	0.0140418
921.936	0.0139391
922.014	0.0138219
922.092	0.0139442
922.170	0.0139503
922.249	0.0139585
922.327	0.0138629
922.405	0.0139520
922.483	0.0137585
922.561	0.0139534
922.639	0.0138642
922.717	0.0138107
922.795	0.0137207
922.874	0.0138487
922.952	0.0137285
923.030	0.0138441
923.108	0.0136920
923.186	0.0138409
923.264	0.0139061
923.342	0.0137560
923.420	0.0137505
923.499	0.0136955
923.577	0.0137485
923.655	0.0138942
923.733	0.0138197
923.811	0.0139332
923.889	0.0137592
923.967	0.0138776
924.045	0.0137933
924.124	0.0137585
924.202	0.0138323
924.280	0.0139513
924.358	0.0138338
924.436	0.0138612
924.514	0.0138160
924.592	0.0137447
924.670	0.0139954
924.749	0.0139178
924.827	0.0139825
924.905	0.0140582
924.983	0.0139491
925.061	0.0139251
925.139	0.0140459
925.217	0.0139313
925.295	0.0139400
925.374	0.0141054
925.452	0.0141507
925.530	0.0140259
925.608	0.0141611
925.686	0.0139970
925.764	0.0139680
925.842	0.0139585
925.920	0.0141181
925.999	0.0140735
926.077	0.0139033
926.155	0.0139552
926.233	0.0140926
926.311	0.0140231
926.389	0.0138943
926.467	0.0140278
926.545	0.0140134
926.624	0.0138805
926.702	0.0139391
926.780	0.0139325
926.858	0.0139390
926.936	0.0139149
927.014	0.0139487
927.092	0.0138913
927.170	0.0140080
927.249	0.0140384
927.327	0.0139640
927.405	0.0140038
927.483	0.0138007
927.561	0.0138919
927.639	0.0139901
927.717	0.0138293
927.795	0.0140212
927.874	0.0138886
927.952	0.0138103
928.030	0.0137774
928.108	0.0138455
928.186	0.0136958
928.264	0.0136804
928.342	0.0137320
928.420	0.0138184
928.499	0.0137398
928.577	0.0137112
928.655	0.0136752
928.733	0.0137234
928.811	0.0137392
928.889	0.0136546
928.967	0.0136949
929.045	0.0136976
929.124	0.0138348
929.202	0.0138287
929.280	0.0136826
929.358	0.0136935
929.436	0.0137620
929.514	0.0136671
929.592	0.0137327
929.670	0.0138612
929.749	0.0138232
929.827	0.0139331
929.905	0.0139758
929.983	0.0139719
930.061	0.0137605
930.139	0.0138514
930.217	0.0138081
930.295	0.0139632
930.374	0.0139247
930.452	0.0138732
930.530	0.0139349
930.608	0.0139400
930.686	0.0137511
930.764	0.0138582
930.842	0.0138633
930.920	0.0138425
930.999	0.0139464
931.077	0.0140356
931.155	0.0138484
931.233	0.0139458
931.311	0.0138789
931.389	0.0138655
931.467	0.0139162
931.545	0.0138441
931.624	0.0138139
931.702	0.0139061
931.780	0.0140195
931.858	0.0140163
931.936	0.0138615
932.014	0.0140119
932.092	0.0139246
932.170	0.0138696
932.249	0.0138889
932.327	0.0140349
932.405	0.0138427
932.483	0.0138638
932.561	0.0138927
932.639	0.0138560
932.717	0.0138665
932.795	0.0137630
932.874	0.0138692
932.952	0.0138670
933.030	0.0138375
933.108	0.0138754
933.186	0.0138697
933.264	0.0138931
933.342	0.0138328
933.420	0.0137289
933.499	0.0137938
933.577	0.0138218
933.655	0.0138827
933.733	0.0137926
933.811	0.0138405
933.889	0.0137576
933.967	0.0138431
934.045	0.0136743
934.124	0.0136684
934.202	0.0136672
934.280	0.0138072
934.358	0.0138001
934.436	0.0136878
934.514	0.0137747
934.592	0.0136832
934.670	0.0137575
934.749	0.0138283
934.827	0.0137673
934.905	0.0135308
934.983	0.0138110
935.061	0.0136668
935.139	0.0137487
935.217	0.0138008
935.295	0.0137092
935.374	0.0136888
935.452	0.0137591
935.530	0.0138260
935.608	0.0138944
935.686	0.0137868
935.764	0.0137572
935.842	0.0138559
935.920	0.0138540
935.999	0.0137087
936.077	0.0138599
936.155	0.0139660
936.233	0.0139326
936.311	0.0137860
936.389	0.0138509
936.467	0.0137968
936.545	0.0138583
936.624	0.0137813
936.702	0.0139070
936.780	0.0138331
936.858	0.0136970
936.936	0.0137048
937.014	0.0138351
937.092	0.0138226
937.170	0.0138300
937.249	0.0137574
937.327	0.0138510
937.405	0.0137803
937.483	0.0137738
937.561	0.0137762
937.639	0.0138999
937.717	0.0138088
937.795	0.0137234
937.874	0.0138893
937.952	0.0138194
938.030	0.0139367
938.108	0.0138735
938.186	0.0138807
938.264	0.0136929
938.342	0.0136871
938.420	0.0137947
938.499	0.0138874
938.577	0.0138534
938.655	0.0136610
938.733	0.0138243
938.811	0.0137410
938.889	0.0137178
938.967	0.0137221
939.045	0.0137397
939.124	0.0138927
939.202	0.0138818
939.280	0.0139740
939.358	0.0138447
939.436	0.0138004
939.514	0.0138339
939.592	0.0138874
939.670	0.0138049
939.749	0.0138876
939.827	0.0138712
939.905	0.0139389
939.983	0.0138463
940.061	0.0138677
940.139	0.0138217
940.217	0.0138416
940.295	0.0139088
940.374	0.0139668
940.452	0.0139780
940.530	0.0139671
940.608	0.0140607
940.686	0.0140836
940.764	0.0141450
940.842	0.0139796
940.920	0.0140295
940.999	0.0140971
941.077	0.0140487
941.155	0.0140295
941.233	0.0139545
941.311	0.0139842
941.389	0.0139487
941.467	0.0138912
941.545	0.0139806
941.624	0.0138469
941.702	0.0138093
941.780	0.0138643
941.858	0.0138577
941.936	0.0139715
942.014	0.0137939
942.092	0.0137859
942.170	0.0138940
942.249	0.0138550
942.327	0.0136880
942.405	0.0137432
942.483	0.0137677
942.561	0.0139262
942.639	0.0138792
942.717	0.0138088
942.795	0.0136857
942.874	0.0138070
942.952	0.0138645
943.030	0.0137738
943.108	0.0137782
943.186	0.0138398
943.264	0.0137270
943.342	0.0136996
943.420	0.0137616
943.499	0.0138983
943.577	0.0139582
943.655	0.0138048
943.733	0.0138313
943.811	0.0139404
943.889	0.0139283
943.967	0.0138221
944.045	0.0137971
944.124	0.0137992
944.202	0.0138989
944.280	0.0137947
944.358	0.0138255
944.436	0.0139120
944.514	0.0138229
944.592	0.0139362
944.670	0.0139529
944.749	0.0137132
944.827	0.0138943
944.905	0.0139843
944.983	0.0137817
945.061	0.0137630
945.139	0.0138544
945.217	0.0139918
945.295	0.0139354
945.374	0.0138005
945.452	0.0137737
945.530	0.0137944
945.608	0.0138663
945.686	0.0139148
945.764	0.0138502
945.842	0.0138984
945.920	0.0140128
945.999	0.0139969
946.077	0.0138818
946.155	0.0138971
946.233	0.0137191
946.311	0.0138178
946.389	0.0137644
946.467	0.0138832
946.545	0.0139888
946.624	0.0139704
946.702	0.0139039
946.780	0.0137468
946.858	0.0138629
946.936	0.0138217
947.014	0.0138784
947.092	0.0138937
947.170	0.0139099
947.249	0.0138458
947.327	0.0137994
947.405	0.0137334
947.483	0.0137138
947.561	0.0136832
947.639	0.0138914
947.717	0.0137423
947.795	0.0137777
947.874	0.0137777
947.952	0.0137078
948.030	0.0136518
948.108	0.0137675
948.186	0.0136466
948.264	0.0137780
948.342	0.0136807
948.420	0.0137433
948.499	0.0136705
948.577	0.0137399
948.655	0.0137115
948.733	0.0137918
948.811	0.0138818
948.889	0.0138897
948.967	0.0138408
949.045	0.0138444
949.124	0.0138866
949.202	0.0140143
949.280	0.0138477
949.358	0.0139175
949.436	0.0139463
949.514	0.0139170
949.592	0.0138017
949.670	0.0138492
949.749	0.0140892
949.827	0.0140321
949.905	0.0140391
949.983	0.0140535
950.061	0.0139779
950.139	0.0139252
950.217	0.0138858
950.295	0.0138813
950.374	0.0140135
950.452	0.0140094
950.530	0.0140003
950.608	0.0139880
950.686	0.0138483
950.764	0.0139067
950.842	0.0139661
950.920	0.0138342
950.999	0.0139500
951.077	0.0138654
951.155	0.0138785
951.233	0.0138924
951.311	0.0137116
951.389	0.0136483
951.467	0.0137836
951.545	0.0137260
951.624	0.0136996
951.702	0.0136455
951.780	0.0135805
951.858	0.0136749
951.936	0.0135813
952.014	0.0136011
952.092	0.0137074
952.170	0.0137199
952.249	0.0136222
952.327	0.0137408
952.405	0.0136609
952.483	0.0136974
952.561	0.0138670
952.639	0.0136771
952.717	0.0136654
952.795	0.0137256
952.874	0.0139285
952.952	0.0137955
953.030	0.0136374
953.108	0.0137135
953.186	0.0139982
953.264	0.0138305
953.342	0.0138284
953.420	0.0140157
953.499	0.0140182
953.577	0.0139857
953.655	0.0139056
953.733	0.0139336
953.811	0.0138910
953.889	0.0140019
953.967	0.0139706
954.045	0.0137670
954.124	0.0140028
954.202	0.0139336
954.280	0.0137768
954.358	0.0138036
954.436	0.0138355
954.514	0.0137351
954.592	0.0137445
954.670	0.0138884
954.749	0.0136986
954.827	0.0135927
954.905	0.0134996
954.983	0.0136629
955.061	0.0136203
955.139	0.0136883
955.217	0.0136997
955.295	0.0135952
955.374	0.0135758
955.452	0.0136288
955.530	0.0138015
955.608	0.0136784
955.686	0.0136871
955.764	0.0136925
955.842	0.0137035
955.920	0.0138191
955.999	0.0138710
956.077	0.0137413
956.155	0.0137836
956.233	0.0138271
956.311	0.0138791
956.389	0.0139074
956.467	0.0139084
956.545	0.0139439
956.624	0.0139561
956.702	0.0141298
956.780	0.0140637
956.858	0.0140053
956.936	0.0139760
957.014	0.0140038
957.092	0.0139198
957.170	0.0140553
957.249	0.0141124
957.327	0.0139927
957.405	0.0140742
957.483	0.0138947
957.561	0.0139461
957.639	0.0140505
957.717	0.0140896
957.795	0.0140237
957.874	0.0139427
957.952	0.0139794
958.030	0.0138637
958.108	0.0137617
958.186	0.0139111
958.264	0.0138811
958.342	0.0138860
958.420	0.0138934
958.499	0.0138343
958.577	0.0138556
958.655	0.0139043
958.733	0.0138596
958.811	0.0137778
958.889	0.0137424
958.967	0.0137024
959.045	0.0137694
959.124	0.0137909
959.202	0.0137937
959.280	0.0137062
959.358	0.0139051
959.436	0.0138830
959.514	0.0137608
959.592	0.0136832
959.670	0.0137686
959.749	0.0136987
959.827	0.0137289
959.905	0.0135993
959.983	0.0138846
960.061	0.0138430
960.139	0.0138682
960.217	0.0138423
960.295	0.0137555
960.374	0.0138466
960.452	0.0137963
960.530	0.0138071
960.608	0.0138110
960.686	0.0137166
960.764	0.0136068
960.842	0.0138490
960.920	0.0137117
960.999	0.0136665
961.077	0.0136478
961.155	0.0136726
961.233	0.0137751
961.311	0.0137199
961.389	0.0137340
961.467	0.0138316
961.545	0.0138295
961.624	0.0138953
961.702	0.0138963
961.780	0.0137752
961.858	0.0138165
961.936	0.0138976
962.014	0.0139686
962.092	0.0139297
962.170	0.0140073
962.249	0.0140903
962.327	0.0140237
962.405	0.0141167
962.483	0.0139742
962.561	0.0141978
962.639	0.0140240
962.717	0.0138922
962.795	0.0138605
962.874	0.0138829
962.952	0.0139671
963.030	0.0138332
963.108	0.0138068
963.186	0.0139677
963.264	0.0140970
963.342	0.0140623
963.420	0.0139849
963.499	0.0140229
963.577	0.0139909
963.655	0.0141275
963.733	0.0140314
963.811	0.0138450
963.889	0.0139569
963.967	0.0139983
964.045	0.0138940
964.124	0.0137702
964.202	0.0137911
964.280	0.0138485
964.358	0.0137133
964.436	0.0136620
964.514	0.0137818
964.592	0.0137215
964.670	0.0136281
964.749	0.0136411
964.827	0.0135909
964.905	0.0135638
964.983	0.0135899
965.061	0.0136173
965.139	0.0135666
965.217	0.0136687
965.295	0.0135892
965.374	0.0137065
965.452	0.0136304
965.530	0.0137086
965.608	0.0136919
965.686	0.0136143
965.764	0.0137865
965.842	0.0138145
965.920	0.0138194
965.999	0.0137688
966.077	0.0140137
966.155	0.0138155
966.233	0.0139215
966.311	0.0138520
966.389	0.0140025
966.467	0.0138702
966.545	0.0139264
966.624	0.0138649
966.702	0.0139277
966.780	0.0140170
966.858	0.0139301
966.936	0.0138887
967.014	0.0140328
967.092	0.0140136
967.170	0.0139702
967.249	0.0139450
967.327	0.0139426
967.405	0.0140744
967.483	0.0140726
967.561	0.0139694
967.639	0.0139328
967.717	0.0139365
967.795	0.0139649
967.874	0.0138699
967.952	0.0140308
968.030	0.0138251
968.108	0.0139164
968.186	0.0137226
968.264	0.0137953
968.342	0.0138369
968.420	0.0138095
968.499	0.0137206
968.577	0.0138096
968.655	0.0137327
968.733	0.0138358
968.811	0.0136805
968.889	0.0137457
968.967	0.0138111
969.045	0.0136318
969.124	0.0136730
969.202	0.0137308
969.280	0.0136433
969.358	0.0137515
969.436	0.0135965
969.514	0.0136364
969.592	0.0136344
969.670	0.0138315
969.749	0.0137154
969.827	0.0138013
969.905	0.0136349
