05/08/2022	20:09:36	Ver.	4.1	UNKNOWN
Optical Delay	600.015094	Delta X		0.078125	Sweeps	1	Scan Rate	0/0
Coordinates	Axis 1	NaN	Axis 2	NaN	Axis 3	NaN	Axis 4	NaN	Axis 5	NaN	Axis 6	0.000000
TX Power	0.000000	RX Power	0.000000

600.015	0.0137988
600.093	0.0136459
600.171	0.0138428
600.249	0.0138676
600.328	0.0138274
600.406	0.0138067
600.484	0.0138401
600.562	0.0137962
600.640	0.0137759
600.718	0.0137724
600.796	0.0138609
600.874	0.0138527
600.953	0.0137885
601.031	0.0137280
601.109	0.0137598
601.187	0.0137732
601.265	0.0138255
601.343	0.0138274
601.421	0.0137865
601.499	0.0139590
601.578	0.0137525
601.656	0.0138494
601.734	0.0138235
601.812	0.0139655
601.890	0.0138670
601.968	0.0137885
602.046	0.0139162
602.124	0.0138470
602.203	0.0138890
602.281	0.0138436
602.359	0.0138517
602.437	0.0138921
602.515	0.0138963
602.593	0.0138657
602.671	0.0137868
602.749	0.0137749
602.828	0.0138190
602.906	0.0138344
602.984	0.0139777
603.062	0.0137981
603.140	0.0138808
603.218	0.0138760
603.296	0.0138033
603.374	0.0138718
603.453	0.0136868
603.531	0.0138638
603.609	0.0138203
603.687	0.0138802
603.765	0.0139430
603.843	0.0138539
603.921	0.0137592
603.999	0.0137003
604.078	0.0138378
604.156	0.0137716
604.234	0.0138924
604.312	0.0137653
604.390	0.0137170
604.468	0.0137358
604.546	0.0137671
604.624	0.0138594
604.703	0.0137030
604.781	0.0136723
604.859	0.0137202
604.937	0.0136983
605.015	0.0138544
605.093	0.0138101
605.171	0.0137420
605.249	0.0136903
605.328	0.0137699
605.406	0.0137794
605.484	0.0137314
605.562	0.0137733
605.640	0.0138557
605.718	0.0136595
605.796	0.0138479
605.874	0.0136538
605.953	0.0136977
606.031	0.0136423
606.109	0.0137832
606.187	0.0137540
606.265	0.0137347
606.343	0.0136247
606.421	0.0139738
606.499	0.0137473
606.578	0.0136710
606.656	0.0137480
606.734	0.0136688
606.812	0.0138237
606.890	0.0138851
606.968	0.0136836
607.046	0.0137623
607.124	0.0138275
607.203	0.0137525
607.281	0.0137898
607.359	0.0137939
607.437	0.0137760
607.515	0.0139288
607.593	0.0136429
607.671	0.0138339
607.749	0.0139404
607.828	0.0137593
607.906	0.0137275
607.984	0.0137260
608.062	0.0137518
608.140	0.0139140
608.218	0.0138859
608.296	0.0137830
608.374	0.0138266
608.453	0.0138735
608.531	0.0138074
608.609	0.0138998
608.687	0.0137955
608.765	0.0137835
608.843	0.0139323
608.921	0.0139333
608.999	0.0139252
609.078	0.0138605
609.156	0.0137611
609.234	0.0137669
609.312	0.0138645
609.390	0.0137476
609.468	0.0138319
609.546	0.0138651
609.624	0.0139277
609.703	0.0138961
609.781	0.0137759
609.859	0.0138652
609.937	0.0137944
610.015	0.0138153
610.093	0.0137605
610.171	0.0136568
610.249	0.0138194
610.328	0.0139038
610.406	0.0138478
610.484	0.0138939
610.562	0.0138393
610.640	0.0139827
610.718	0.0138251
610.796	0.0138702
610.874	0.0138786
610.953	0.0139108
611.031	0.0139588
611.109	0.0139141
611.187	0.0138101
611.265	0.0139827
611.343	0.0139346
611.421	0.0140146
611.499	0.0137863
611.578	0.0139037
611.656	0.0138728
611.734	0.0139498
611.812	0.0140960
611.890	0.0139504
611.968	0.0138235
612.046	0.0139362
612.124	0.0139152
612.203	0.0139716
612.281	0.0138851
612.359	0.0139125
612.437	0.0139091
612.515	0.0139265
612.593	0.0140060
612.671	0.0138407
612.749	0.0138458
612.828	0.0138837
612.906	0.0138496
612.984	0.0137636
613.062	0.0138737
613.140	0.0137638
613.218	0.0138830
613.296	0.0138380
613.374	0.0137899
613.453	0.0138493
613.531	0.0139590
613.609	0.0138736
613.687	0.0138596
613.765	0.0139651
613.843	0.0138624
613.921	0.0138699
613.999	0.0138690
614.078	0.0138693
614.156	0.0140414
614.234	0.0140614
614.312	0.0139241
614.390	0.0139350
614.468	0.0138194
614.546	0.0139491
614.624	0.0139320
614.703	0.0138996
614.781	0.0138992
614.859	0.0139032
614.937	0.0138371
615.015	0.0138987
615.093	0.0138722
615.171	0.0138106
615.249	0.0138593
615.328	0.0137757
615.406	0.0138975
615.484	0.0138617
615.562	0.0138548
615.640	0.0138444
615.718	0.0139112
615.796	0.0137942
615.874	0.0137106
615.953	0.0138629
616.031	0.0137704
616.109	0.0136254
616.187	0.0136812
616.265	0.0136266
616.343	0.0137790
616.421	0.0138095
616.499	0.0138982
616.578	0.0136848
616.656	0.0137905
616.734	0.0137698
616.812	0.0137375
616.890	0.0137531
616.968	0.0139318
617.046	0.0137544
617.124	0.0138451
617.203	0.0137638
617.281	0.0138489
617.359	0.0138899
617.437	0.0138354
617.515	0.0136954
617.593	0.0137453
617.671	0.0139184
617.749	0.0139129
617.828	0.0138689
617.906	0.0136787
617.984	0.0139725
618.062	0.0137836
618.140	0.0137328
618.218	0.0137856
618.296	0.0139253
618.374	0.0138641
618.453	0.0138851
618.531	0.0137943
618.609	0.0137828
618.687	0.0138294
618.765	0.0137849
618.843	0.0137890
618.921	0.0138726
618.999	0.0138127
619.078	0.0139027
619.156	0.0139336
619.234	0.0138957
619.312	0.0138234
619.390	0.0137534
619.468	0.0138330
619.546	0.0138216
619.624	0.0138094
619.703	0.0137666
619.781	0.0138016
619.859	0.0138156
619.937	0.0139499
620.015	0.0138876
620.093	0.0138720
620.171	0.0138721
620.249	0.0137519
620.328	0.0138277
620.406	0.0138503
620.484	0.0138519
620.562	0.0137099
620.640	0.0138793
620.718	0.0138327
620.796	0.0137747
620.874	0.0137779
620.953	0.0137675
621.031	0.0138678
621.109	0.0137992
621.187	0.0137624
621.265	0.0138792
621.343	0.0138364
621.421	0.0137719
621.499	0.0137684
621.578	0.0137749
621.656	0.0137983
621.734	0.0138485
621.812	0.0138237
621.890	0.0137821
621.968	0.0136523
622.046	0.0139020
622.124	0.0138316
622.203	0.0138721
622.281	0.0139133
622.359	0.0137481
622.437	0.0137387
622.515	0.0139113
622.593	0.0138969
622.671	0.0138606
622.749	0.0137756
622.828	0.0138328
622.906	0.0138235
622.984	0.0137480
623.062	0.0136662
623.140	0.0137601
623.218	0.0137080
623.296	0.0139463
623.374	0.0139326
623.453	0.0137920
623.531	0.0137656
623.609	0.0138584
623.687	0.0139974
623.765	0.0137945
623.843	0.0138733
623.921	0.0137846
623.999	0.0140338
624.078	0.0136808
624.156	0.0138664
624.234	0.0139157
624.312	0.0137173
624.390	0.0138042
624.468	0.0138579
624.546	0.0138264
624.624	0.0138898
624.703	0.0136856
624.781	0.0137808
624.859	0.0138657
624.937	0.0137387
625.015	0.0137266
625.093	0.0139168
625.171	0.0138396
625.249	0.0137726
625.328	0.0138834
625.406	0.0138426
625.484	0.0137781
625.562	0.0137968
625.640	0.0138081
625.718	0.0137323
625.796	0.0137980
625.874	0.0138780
625.953	0.0136973
626.031	0.0137556
626.109	0.0139675
626.187	0.0138277
626.265	0.0138308
626.343	0.0139355
626.421	0.0138343
626.499	0.0139967
626.578	0.0137812
626.656	0.0136888
626.734	0.0138436
626.812	0.0139236
626.890	0.0137058
626.968	0.0137216
627.046	0.0137888
627.124	0.0138762
627.203	0.0138462
627.281	0.0137350
627.359	0.0137820
627.437	0.0138881
627.515	0.0138461
627.593	0.0138733
627.671	0.0139502
627.749	0.0139773
627.828	0.0139072
627.906	0.0139709
627.984	0.0139876
628.062	0.0139410
628.140	0.0137818
628.218	0.0138654
628.296	0.0139179
628.374	0.0137740
628.453	0.0139668
628.531	0.0138602
628.609	0.0138582
628.687	0.0139402
628.765	0.0139441
628.843	0.0140197
628.921	0.0139169
628.999	0.0138799
629.078	0.0140704
629.156	0.0138641
629.234	0.0139484
629.312	0.0139180
629.390	0.0139315
629.468	0.0138850
629.546	0.0138956
629.624	0.0138681
629.703	0.0139023
629.781	0.0139667
629.859	0.0140031
629.937	0.0139758
630.015	0.0139376
630.093	0.0140005
630.171	0.0140344
630.249	0.0139182
630.328	0.0138454
630.406	0.0138787
630.484	0.0139232
630.562	0.0140022
630.640	0.0139027
630.718	0.0138166
630.796	0.0137726
630.874	0.0138435
630.953	0.0138934
631.031	0.0137971
631.109	0.0139982
631.187	0.0138917
631.265	0.0138206
631.343	0.0140552
631.421	0.0138326
631.499	0.0139710
631.578	0.0139963
631.656	0.0139915
631.734	0.0139699
631.812	0.0138849
631.890	0.0138353
631.968	0.0140206
632.046	0.0139349
632.124	0.0138216
632.203	0.0139451
632.281	0.0138956
632.359	0.0137154
632.437	0.0138387
632.515	0.0139997
632.593	0.0140388
632.671	0.0137439
632.749	0.0138158
632.828	0.0140161
632.906	0.0138056
632.984	0.0139544
633.062	0.0139666
633.140	0.0138154
633.218	0.0137348
633.296	0.0139316
633.374	0.0138266
633.453	0.0138525
633.531	0.0139514
633.609	0.0138532
633.687	0.0138313
633.765	0.0138422
633.843	0.0138435
633.921	0.0137431
633.999	0.0138869
634.078	0.0139972
634.156	0.0139742
634.234	0.0139321
634.312	0.0138707
634.390	0.0139172
634.468	0.0138475
634.546	0.0139429
634.624	0.0138151
634.703	0.0138178
634.781	0.0139097
634.859	0.0139671
634.937	0.0139480
635.015	0.0138062
635.093	0.0138818
635.171	0.0139252
635.249	0.0139716
635.328	0.0139291
635.406	0.0138174
635.484	0.0138106
635.562	0.0140008
635.640	0.0139854
635.718	0.0138519
635.796	0.0138761
635.874	0.0138739
635.953	0.0139243
636.031	0.0137803
636.109	0.0138269
636.187	0.0138058
636.265	0.0138551
636.343	0.0138549
636.421	0.0138604
636.499	0.0138625
636.578	0.0138572
636.656	0.0138678
636.734	0.0138680
636.812	0.0137389
636.890	0.0136111
636.968	0.0136961
637.046	0.0137239
637.124	0.0137549
637.203	0.0137462
637.281	0.0138304
637.359	0.0137771
637.437	0.0138020
637.515	0.0138201
637.593	0.0138827
637.671	0.0137005
637.749	0.0136941
637.828	0.0138728
637.906	0.0136727
637.984	0.0137942
638.062	0.0137399
638.140	0.0138520
638.218	0.0137595
638.296	0.0138316
638.374	0.0137569
638.453	0.0137726
638.531	0.0138242
638.609	0.0137320
638.687	0.0138209
638.765	0.0138277
638.843	0.0137630
638.921	0.0137231
638.999	0.0136501
639.078	0.0138236
639.156	0.0137965
639.234	0.0138256
639.312	0.0137033
639.390	0.0137368
639.468	0.0139707
639.546	0.0139355
639.624	0.0138722
639.703	0.0138260
639.781	0.0137746
639.859	0.0138911
639.937	0.0137153
640.015	0.0137424
640.093	0.0138908
640.171	0.0137471
640.249	0.0139198
640.328	0.0139701
640.406	0.0137228
640.484	0.0137887
640.562	0.0138564
640.640	0.0139439
640.718	0.0138084
640.796	0.0137933
640.874	0.0137655
640.953	0.0137865
641.031	0.0138544
641.109	0.0139355
641.187	0.0138200
641.265	0.0137380
641.343	0.0136605
641.421	0.0137298
641.499	0.0137980
641.578	0.0138387
641.656	0.0137093
641.734	0.0137623
641.812	0.0136793
641.890	0.0137849
641.968	0.0138577
642.046	0.0137853
642.124	0.0137855
642.203	0.0137718
642.281	0.0137590
642.359	0.0138231
642.437	0.0137791
642.515	0.0137858
642.593	0.0138225
642.671	0.0137938
642.749	0.0137202
642.828	0.0137036
642.906	0.0138649
642.984	0.0139268
643.062	0.0138960
643.140	0.0137138
643.218	0.0136692
643.296	0.0137626
643.374	0.0136854
643.453	0.0136956
643.531	0.0138204
643.609	0.0138475
643.687	0.0138341
643.765	0.0138882
643.843	0.0137038
643.921	0.0138163
643.999	0.0138081
644.078	0.0138387
644.156	0.0137971
644.234	0.0137447
644.312	0.0138853
644.390	0.0138114
644.468	0.0137752
644.546	0.0138631
644.624	0.0138885
644.703	0.0138992
644.781	0.0139514
644.859	0.0137812
644.937	0.0139012
645.015	0.0139235
645.093	0.0138361
645.171	0.0137974
645.249	0.0138729
645.328	0.0138937
645.406	0.0139540
645.484	0.0139030
645.562	0.0138831
645.640	0.0138860
645.718	0.0140637
645.796	0.0140318
645.874	0.0139798
645.953	0.0139136
646.031	0.0139003
646.109	0.0139009
646.187	0.0139520
646.265	0.0140247
646.343	0.0138911
646.421	0.0137413
646.499	0.0138390
646.578	0.0138165
646.656	0.0137836
646.734	0.0137855
646.812	0.0138301
646.890	0.0136845
646.968	0.0136526
647.046	0.0136595
647.124	0.0136611
647.203	0.0136143
647.281	0.0139327
647.359	0.0138352
647.437	0.0137940
647.515	0.0138898
647.593	0.0139246
647.671	0.0139428
647.749	0.0141154
647.828	0.0140720
647.906	0.0140268
647.984	0.0141619
648.062	0.0140141
648.140	0.0140136
648.218	0.0139931
648.296	0.0139157
648.374	0.0140209
648.453	0.0138802
648.531	0.0139281
648.609	0.0139401
648.687	0.0138935
648.765	0.0138193
648.843	0.0137392
648.921	0.0137713
648.999	0.0139041
649.078	0.0138554
649.156	0.0138629
649.234	0.0139112
649.312	0.0139148
649.390	0.0138677
649.468	0.0138271
649.546	0.0138783
649.624	0.0139867
649.703	0.0140366
649.781	0.0139527
649.859	0.0139571
649.937	0.0138799
650.015	0.0139320
650.093	0.0139834
650.171	0.0139922
650.249	0.0140714
650.328	0.0139731
650.406	0.0140149
650.484	0.0139259
650.562	0.0139047
650.640	0.0138508
650.718	0.0138422
650.796	0.0138811
650.874	0.0136895
650.953	0.0137081
651.031	0.0137770
651.109	0.0135428
651.187	0.0135338
651.265	0.0134951
651.343	0.0135349
651.421	0.0133333
651.499	0.0136686
651.578	0.0135870
651.656	0.0135494
651.734	0.0137752
651.812	0.0138000
651.890	0.0138490
651.968	0.0139990
652.046	0.0140484
652.124	0.0142116
652.203	0.0142174
652.281	0.0144293
652.359	0.0144250
652.437	0.0143452
652.515	0.0142792
652.593	0.0145459
652.671	0.0144650
652.749	0.0143533
652.828	0.0141882
652.906	0.0141839
652.984	0.0140438
653.062	0.0139232
653.140	0.0137606
653.218	0.0136054
653.296	0.0133640
653.374	0.0133578
653.453	0.0132798
653.531	0.0133849
653.609	0.0130897
653.687	0.0131095
653.765	0.0129750
653.843	0.0129740
653.921	0.0130467
653.999	0.0129429
654.078	0.0130822
654.156	0.0131496
654.234	0.0133356
654.312	0.0133611
654.390	0.0135597
654.468	0.0136080
654.546	0.0138464
654.624	0.0140181
654.703	0.0141690
654.781	0.0142965
654.859	0.0143842
654.937	0.0145271
655.015	0.0145177
655.093	0.0146027
655.171	0.0146041
655.249	0.0146513
655.328	0.0148154
655.406	0.0148582
655.484	0.0148758
655.562	0.0149861
655.640	0.0149564
655.718	0.0149082
655.796	0.0149205
655.874	0.0151255
655.953	0.0148644
656.031	0.0149367
656.109	0.0147068
656.187	0.0147488
656.265	0.0145521
656.343	0.0144685
656.421	0.0142411
656.499	0.0138071
656.578	0.0135155
656.656	0.0133852
656.734	0.0132227
656.812	0.0128351
656.890	0.0126227
656.968	0.0122330
657.046	0.0121188
657.124	0.0118851
657.203	0.0119287
657.281	0.0117013
657.359	0.0117490
657.437	0.0118475
657.515	0.0119662
657.593	0.0119582
657.671	0.0120490
657.749	0.0120412
657.828	0.0126000
657.906	0.0127173
657.984	0.0129437
658.062	0.0133088
658.140	0.0134811
658.218	0.0137974
658.296	0.0141251
658.374	0.0144402
658.453	0.0146095
658.531	0.0150478
658.609	0.0152988
658.687	0.0156096
658.765	0.0158132
658.843	0.0160619
658.921	0.0162288
658.999	0.0164938
659.078	0.0166486
659.156	0.0165071
659.234	0.0165108
659.312	0.0165855
659.390	0.0165015
659.468	0.0165733
659.546	0.0162122
659.624	0.0161954
659.703	0.0158466
659.781	0.0153323
659.859	0.0150423
659.937	0.0146081
660.015	0.0142085
660.093	0.0136604
660.171	0.0130437
660.249	0.0125789
660.328	0.0122747
660.406	0.0116967
660.484	0.0112132
660.562	0.0109335
660.640	0.0107208
660.718	0.0104710
660.796	0.0101527
660.874	0.0101743
660.953	0.0101803
661.031	0.0102756
661.109	0.0104636
661.187	0.0105804
661.265	0.0106268
661.343	0.0108358
661.421	0.0113585
661.499	0.0117405
661.578	0.0120793
661.656	0.0124944
661.734	0.0129910
661.812	0.0134932
661.890	0.0138364
661.968	0.0143340
662.046	0.0146708
662.124	0.0152406
662.203	0.0158609
662.281	0.0161894
662.359	0.0163742
662.437	0.0165561
662.515	0.0169485
662.593	0.0171696
662.671	0.0171858
662.749	0.0173436
662.828	0.0172262
662.906	0.0172701
662.984	0.0171051
663.062	0.0170181
663.140	0.0167607
663.218	0.0165859
663.296	0.0163148
663.374	0.0160130
663.453	0.0155211
663.531	0.0152038
663.609	0.0147899
663.687	0.0144744
663.765	0.0140657
663.843	0.0137137
663.921	0.0131978
663.999	0.0129123
664.078	0.0125234
664.156	0.0120820
664.234	0.0118354
664.312	0.0114611
664.390	0.0113612
664.468	0.0110569
664.546	0.0109702
664.624	0.0107626
664.703	0.0107565
664.781	0.0108616
664.859	0.0108314
664.937	0.0108306
665.015	0.0109763
665.093	0.0111262
665.171	0.0112891
665.249	0.0114166
665.328	0.0116560
665.406	0.0117444
665.484	0.0119833
665.562	0.0124664
665.640	0.0125830
665.718	0.0129104
665.796	0.0131539
665.874	0.0134641
665.953	0.0138250
666.031	0.0141607
666.109	0.0145054
666.187	0.0147675
666.265	0.0150358
666.343	0.0152699
666.421	0.0157166
666.499	0.0157818
666.578	0.0162456
666.656	0.0163976
666.734	0.0164824
666.812	0.0167603
666.890	0.0169795
666.968	0.0171622
667.046	0.0172714
667.124	0.0171957
667.203	0.0172478
667.281	0.0170975
667.359	0.0169688
667.437	0.0168001
667.515	0.0163043
667.593	0.0159016
667.671	0.0154865
667.749	0.0149799
667.828	0.0147054
667.906	0.0143155
667.984	0.0138573
668.062	0.0134560
668.140	0.0129668
668.218	0.0125300
668.296	0.0122800
668.374	0.0120373
668.453	0.0116958
668.531	0.0115366
668.609	0.0114706
668.687	0.0112933
668.765	0.0112046
668.843	0.0111752
668.921	0.0111611
668.999	0.0111123
669.078	0.0111872
669.156	0.0111057
669.234	0.0112287
669.312	0.0113543
669.390	0.0115996
669.468	0.0117344
669.546	0.0120794
669.624	0.0122575
669.703	0.0126755
669.781	0.0129391
669.859	0.0131861
669.937	0.0132455
670.015	0.0135524
670.093	0.0139794
670.171	0.0141625
670.249	0.0143964
670.328	0.0146878
670.406	0.0148015
670.484	0.0152068
670.562	0.0151569
670.640	0.0151694
670.718	0.0153403
670.796	0.0152477
670.874	0.0152570
670.953	0.0150330
671.031	0.0150614
671.109	0.0148689
671.187	0.0148748
671.265	0.0147567
671.343	0.0147372
671.421	0.0145341
671.499	0.0145830
671.578	0.0145140
671.656	0.0144005
671.734	0.0145104
671.812	0.0144253
671.890	0.0144611
671.968	0.0145483
672.046	0.0146190
672.124	0.0147049
672.203	0.0147388
672.281	0.0146972
672.359	0.0146550
672.437	0.0148468
672.515	0.0149461
672.593	0.0147139
672.671	0.0146135
672.749	0.0143839
672.828	0.0145234
672.906	0.0143458
672.984	0.0142326
673.062	0.0141582
673.140	0.0138839
673.218	0.0137875
673.296	0.0135694
673.374	0.0134222
673.453	0.0131797
673.531	0.0128051
673.609	0.0126739
673.687	0.0124283
673.765	0.0121897
673.843	0.0121289
673.921	0.0119537
673.999	0.0118932
674.078	0.0118266
674.156	0.0117912
674.234	0.0119005
674.312	0.0119194
674.390	0.0119926
674.468	0.0122305
674.546	0.0122574
674.624	0.0125581
674.703	0.0128616
674.781	0.0130312
674.859	0.0130449
674.937	0.0132169
675.015	0.0133475
675.093	0.0134951
675.171	0.0138013
675.249	0.0139141
675.328	0.0140176
675.406	0.0141428
675.484	0.0142823
675.562	0.0143404
675.640	0.0144455
675.718	0.0145724
675.796	0.0146638
675.874	0.0146275
675.953	0.0147148
676.031	0.0146275
676.109	0.0145553
676.187	0.0146452
676.265	0.0144488
676.343	0.0145229
676.421	0.0146355
676.499	0.0145514
676.578	0.0144971
676.656	0.0146780
676.734	0.0149648
676.812	0.0151283
676.890	0.0150032
676.968	0.0150767
677.046	0.0154937
677.124	0.0154182
677.203	0.0153637
677.281	0.0154443
677.359	0.0154612
677.437	0.0151934
677.515	0.0149411
677.593	0.0147496
677.671	0.0145036
677.749	0.0142364
677.828	0.0141126
677.906	0.0138096
677.984	0.0137196
678.062	0.0135497
678.140	0.0135236
678.218	0.0132654
678.296	0.0132913
678.374	0.0133549
678.453	0.0134102
678.531	0.0132622
678.609	0.0133193
678.687	0.0134502
678.765	0.0133671
678.843	0.0131957
678.921	0.0132172
678.999	0.0131504
679.078	0.0132086
679.156	0.0129506
679.234	0.0129263
679.312	0.0128262
679.390	0.0126831
679.468	0.0126090
679.546	0.0125915
679.624	0.0124235
679.703	0.0123861
679.781	0.0122922
679.859	0.0123347
679.937	0.0122271
680.015	0.0124551
680.093	0.0125111
680.171	0.0127269
680.249	0.0129549
680.328	0.0130949
680.406	0.0131231
680.484	0.0134582
680.562	0.0138284
680.640	0.0138450
680.718	0.0140607
680.796	0.0142605
680.874	0.0144372
680.953	0.0146829
681.031	0.0148438
681.109	0.0149471
681.187	0.0150308
681.265	0.0149723
681.343	0.0149841
681.421	0.0150441
681.499	0.0149406
681.578	0.0149937
681.656	0.0148528
681.734	0.0149258
681.812	0.0148822
681.890	0.0148517
681.968	0.0147807
682.046	0.0149673
682.124	0.0149284
682.203	0.0151106
682.281	0.0151227
682.359	0.0153776
682.437	0.0152814
682.515	0.0152077
682.593	0.0151900
682.671	0.0151646
682.749	0.0151289
682.828	0.0149410
682.906	0.0148579
682.984	0.0146297
683.062	0.0146146
683.140	0.0143165
683.218	0.0140634
683.296	0.0138803
683.374	0.0136822
683.453	0.0134407
683.531	0.0130952
683.609	0.0130389
683.687	0.0128133
683.765	0.0127642
683.843	0.0126267
683.921	0.0125230
683.999	0.0123251
684.078	0.0121593
684.156	0.0121056
684.234	0.0122816
684.312	0.0122410
684.390	0.0122422
684.468	0.0122333
684.546	0.0122883
684.624	0.0120948
684.703	0.0121310
684.781	0.0121690
684.859	0.0121370
684.937	0.0122739
685.015	0.0121001
685.093	0.0121442
685.171	0.0124869
685.249	0.0124345
685.328	0.0126577
685.406	0.0128531
685.484	0.0130737
685.562	0.0133610
685.640	0.0139146
685.718	0.0140207
685.796	0.0144227
685.874	0.0147285
685.953	0.0150482
686.031	0.0153083
686.109	0.0156316
686.187	0.0158749
686.265	0.0160686
686.343	0.0161266
686.421	0.0162669
686.499	0.0162612
686.578	0.0163999
686.656	0.0163075
686.734	0.0162206
686.812	0.0158593
686.890	0.0156127
686.968	0.0154953
687.046	0.0151492
687.124	0.0148164
687.203	0.0144533
687.281	0.0141747
687.359	0.0138737
687.437	0.0136824
687.515	0.0133788
687.593	0.0132078
687.671	0.0129958
687.749	0.0129498
687.828	0.0128010
687.906	0.0125832
687.984	0.0126154
688.062	0.0124921
688.140	0.0123662
688.218	0.0123657
688.296	0.0126064
688.374	0.0126705
688.453	0.0128143
688.531	0.0130755
688.609	0.0132619
688.687	0.0133962
688.765	0.0136185
688.843	0.0138836
688.921	0.0141186
688.999	0.0142088
689.078	0.0142333
689.156	0.0145017
689.234	0.0145382
689.312	0.0144250
689.390	0.0144537
689.468	0.0143976
689.546	0.0143825
689.624	0.0141585
689.703	0.0140090
689.781	0.0137894
689.859	0.0133894
689.937	0.0132472
690.015	0.0129793
690.093	0.0126721
690.171	0.0125459
690.249	0.0122569
690.328	0.0122265
690.406	0.0121642
690.484	0.0120000
690.562	0.0122845
690.640	0.0123429
690.718	0.0124550
690.796	0.0127319
690.874	0.0130795
690.953	0.0133763
691.031	0.0135123
691.109	0.0138583
691.187	0.0142848
691.265	0.0145304
691.343	0.0147755
691.421	0.0150554
691.499	0.0152950
691.578	0.0154461
691.656	0.0155013
691.734	0.0156073
691.812	0.0158112
691.890	0.0156304
691.968	0.0156821
692.046	0.0156362
692.124	0.0154967
692.203	0.0151720
692.281	0.0151875
692.359	0.0150365
692.437	0.0147749
692.515	0.0146686
692.593	0.0145852
692.671	0.0145245
692.749	0.0143908
692.828	0.0141236
692.906	0.0140757
692.984	0.0140247
693.062	0.0138172
693.140	0.0137077
693.218	0.0133506
693.296	0.0134128
693.374	0.0131580
693.453	0.0130028
693.531	0.0126701
693.609	0.0124637
693.687	0.0122455
693.765	0.0120502
693.843	0.0119369
693.921	0.0115809
693.999	0.0115775
694.078	0.0116515
694.156	0.0115390
694.234	0.0115312
694.312	0.0116722
694.390	0.0118623
694.468	0.0122364
694.546	0.0124342
694.624	0.0125683
694.703	0.0127966
694.781	0.0130732
694.859	0.0134496
694.937	0.0136832
695.015	0.0139857
695.093	0.0143494
695.171	0.0146932
695.249	0.0149757
695.328	0.0150954
695.406	0.0151843
695.484	0.0155176
695.562	0.0155985
695.640	0.0155251
695.718	0.0156363
695.796	0.0157782
695.874	0.0156652
695.953	0.0156384
696.031	0.0155754
696.109	0.0154197
696.187	0.0155734
696.265	0.0152838
696.343	0.0151981
696.421	0.0150093
696.499	0.0149197
696.578	0.0148025
696.656	0.0145305
696.734	0.0145354
696.812	0.0142403
696.890	0.0139545
696.968	0.0138638
697.046	0.0137650
697.124	0.0137427
697.203	0.0132571
697.281	0.0132173
697.359	0.0130344
697.437	0.0130064
697.515	0.0128056
697.593	0.0126003
697.671	0.0125932
697.749	0.0124603
697.828	0.0124104
697.906	0.0123959
697.984	0.0123967
698.062	0.0124194
698.140	0.0125677
698.218	0.0125390
698.296	0.0125361
698.374	0.0126838
698.453	0.0127109
698.531	0.0127428
698.609	0.0128433
698.687	0.0128261
698.765	0.0129809
698.843	0.0129664
698.921	0.0130784
698.999	0.0130680
699.078	0.0131548
699.156	0.0133124
699.234	0.0133297
699.312	0.0133334
699.390	0.0136596
699.468	0.0137052
699.546	0.0136631
699.624	0.0137205
699.703	0.0139748
699.781	0.0141364
699.859	0.0141278
699.937	0.0143475
700.015	0.0145596
700.093	0.0145538
700.171	0.0145927
700.249	0.0147538
700.328	0.0149716
700.406	0.0150667
700.484	0.0149660
700.562	0.0150802
700.640	0.0152618
700.718	0.0153001
700.796	0.0153506
700.874	0.0152397
700.953	0.0152452
701.031	0.0152789
701.109	0.0153862
701.187	0.0154144
701.265	0.0153615
701.343	0.0152951
701.421	0.0152866
701.499	0.0149922
701.578	0.0148064
701.656	0.0147823
701.734	0.0145809
701.812	0.0143147
701.890	0.0141341
701.968	0.0137775
702.046	0.0135609
702.124	0.0131689
702.203	0.0128754
702.281	0.0128562
702.359	0.0125586
702.437	0.0124678
702.515	0.0122800
702.593	0.0122324
702.671	0.0121583
702.749	0.0123692
702.828	0.0122714
702.906	0.0125112
702.984	0.0125152
703.062	0.0127177
703.140	0.0127290
703.218	0.0129069
703.296	0.0130783
703.374	0.0130384
703.453	0.0131285
703.531	0.0132371
703.609	0.0132970
703.687	0.0132124
703.765	0.0133075
703.843	0.0133529
703.921	0.0134371
703.999	0.0135586
704.078	0.0135918
704.156	0.0137755
704.234	0.0140695
704.312	0.0143108
704.390	0.0144419
704.468	0.0146755
704.546	0.0148693
704.624	0.0150053
704.703	0.0150417
704.781	0.0150416
704.859	0.0151239
704.937	0.0150842
705.015	0.0149725
705.093	0.0148526
705.171	0.0147424
705.249	0.0146898
705.328	0.0146405
705.406	0.0145339
705.484	0.0143619
705.562	0.0142199
705.640	0.0141405
705.718	0.0140300
705.796	0.0141635
705.874	0.0140752
705.953	0.0139491
706.031	0.0139677
706.109	0.0138667
706.187	0.0139900
706.265	0.0140066
706.343	0.0139105
706.421	0.0138612
706.499	0.0138432
706.578	0.0138999
706.656	0.0138650
706.734	0.0139281
706.812	0.0139904
706.890	0.0141309
706.968	0.0139413
707.046	0.0140477
707.124	0.0141280
707.203	0.0139993
707.281	0.0139702
707.359	0.0138815
707.437	0.0138579
707.515	0.0137850
707.593	0.0138459
707.671	0.0138384
707.749	0.0135934
707.828	0.0136297
707.906	0.0137907
707.984	0.0136426
708.062	0.0137973
708.140	0.0137130
708.218	0.0138261
708.296	0.0138686
708.374	0.0138708
708.453	0.0137966
708.531	0.0137446
708.609	0.0138700
708.687	0.0138771
708.765	0.0137753
708.843	0.0138447
708.921	0.0137019
708.999	0.0136962
709.078	0.0138092
709.156	0.0136713
709.234	0.0137320
709.312	0.0138395
709.390	0.0137061
709.468	0.0138278
709.546	0.0135735
709.624	0.0135839
709.703	0.0136387
709.781	0.0134690
709.859	0.0135477
709.937	0.0137575
710.015	0.0137399
710.093	0.0139040
710.171	0.0138206
710.249	0.0138297
710.328	0.0140159
710.406	0.0140567
710.484	0.0141266
710.562	0.0142758
710.640	0.0140613
710.718	0.0141172
710.796	0.0141134
710.874	0.0139456
710.953	0.0139453
711.031	0.0139910
711.109	0.0138221
711.187	0.0136584
711.265	0.0135425
711.343	0.0136654
711.421	0.0136057
711.499	0.0135488
711.578	0.0134868
711.656	0.0135933
711.734	0.0137232
711.812	0.0136880
711.890	0.0137019
711.968	0.0138752
712.046	0.0139159
712.124	0.0140888
712.203	0.0142523
712.281	0.0144258
712.359	0.0143990
712.437	0.0144057
712.515	0.0143863
712.593	0.0144582
712.671	0.0144925
712.749	0.0144649
712.828	0.0144841
712.906	0.0142061
712.984	0.0139528
713.062	0.0138627
713.140	0.0136259
713.218	0.0135701
713.296	0.0132913
713.374	0.0132822
713.453	0.0131407
713.531	0.0131020
713.609	0.0131352
713.687	0.0131705
713.765	0.0131230
713.843	0.0132095
713.921	0.0134219
713.999	0.0135278
714.078	0.0136774
714.156	0.0138985
714.234	0.0140971
714.312	0.0141802
714.390	0.0144031
714.468	0.0144251
714.546	0.0144662
714.624	0.0145645
714.703	0.0143974
714.781	0.0144576
714.859	0.0143469
714.937	0.0144051
715.015	0.0140365
715.093	0.0139854
715.171	0.0137963
715.249	0.0137173
715.328	0.0135923
715.406	0.0132912
715.484	0.0133333
715.562	0.0132120
715.640	0.0130989
715.718	0.0130943
715.796	0.0131533
715.874	0.0132354
715.953	0.0130034
716.031	0.0130450
716.109	0.0133292
716.187	0.0134713
716.265	0.0133378
716.343	0.0135062
716.421	0.0137722
716.499	0.0138364
716.578	0.0136759
716.656	0.0137668
716.734	0.0138236
716.812	0.0138943
716.890	0.0137712
716.968	0.0136200
717.046	0.0137045
717.124	0.0137756
717.203	0.0137218
717.281	0.0136912
717.359	0.0137414
717.437	0.0137656
717.515	0.0137770
717.593	0.0138194
717.671	0.0140606
717.749	0.0139987
717.828	0.0140834
717.906	0.0141365
717.984	0.0140718
718.062	0.0141273
718.140	0.0140260
718.218	0.0142499
718.296	0.0141856
718.374	0.0141802
718.453	0.0139696
718.531	0.0140494
718.609	0.0138799
718.687	0.0139682
718.765	0.0139085
718.843	0.0139150
718.921	0.0137154
718.999	0.0137227
719.078	0.0137717
719.156	0.0137853
719.234	0.0138046
719.312	0.0135744
719.390	0.0137225
719.468	0.0137041
719.546	0.0136060
719.624	0.0135905
719.703	0.0136717
719.781	0.0136434
719.859	0.0136005
719.937	0.0136328
720.015	0.0135946
720.093	0.0135477
720.171	0.0136081
720.249	0.0137056
720.328	0.0136749
720.406	0.0136535
720.484	0.0135875
720.562	0.0136230
720.640	0.0137846
720.718	0.0136232
720.796	0.0137030
720.874	0.0138158
720.953	0.0138739
721.031	0.0139774
721.109	0.0141816
721.187	0.0143677
721.265	0.0143848
721.343	0.0143687
721.421	0.0144207
721.499	0.0144782
721.578	0.0145435
721.656	0.0144657
721.734	0.0145657
721.812	0.0144003
721.890	0.0143728
721.968	0.0140905
722.046	0.0140507
722.124	0.0139887
722.203	0.0138979
722.281	0.0136713
722.359	0.0136279
722.437	0.0134627
722.515	0.0134384
722.593	0.0132590
722.671	0.0131577
722.749	0.0131981
722.828	0.0130917
722.906	0.0130475
722.984	0.0130733
723.062	0.0130281
723.140	0.0133098
723.218	0.0132309
723.296	0.0133583
723.374	0.0134110
723.453	0.0133159
723.531	0.0134087
723.609	0.0134711
723.687	0.0134677
723.765	0.0135394
723.843	0.0135989
723.921	0.0135841
723.999	0.0135083
724.078	0.0135890
724.156	0.0136268
724.234	0.0136848
724.312	0.0135803
724.390	0.0137985
724.468	0.0138093
724.546	0.0138967
724.624	0.0140504
724.703	0.0143279
724.781	0.0144376
724.859	0.0145123
724.937	0.0146252
725.015	0.0147868
725.093	0.0149687
725.171	0.0149443
725.249	0.0149089
725.328	0.0148955
725.406	0.0149167
725.484	0.0146395
725.562	0.0144189
725.640	0.0144099
725.718	0.0142671
725.796	0.0141682
725.874	0.0139721
725.953	0.0139419
726.031	0.0139877
726.109	0.0136575
726.187	0.0135805
726.265	0.0135198
726.343	0.0135239
726.421	0.0136432
726.499	0.0136928
726.578	0.0136070
726.656	0.0136803
726.734	0.0135274
726.812	0.0136867
726.890	0.0136244
726.968	0.0136119
727.046	0.0135956
727.124	0.0136121
727.203	0.0135824
727.281	0.0135310
727.359	0.0135819
727.437	0.0135930
727.515	0.0136559
727.593	0.0136593
727.671	0.0136928
727.749	0.0138701
727.828	0.0139217
727.906	0.0138226
727.984	0.0138184
728.062	0.0139505
728.140	0.0140691
728.218	0.0141113
728.296	0.0137769
728.374	0.0139214
728.453	0.0139606
728.531	0.0139297
728.609	0.0139883
728.687	0.0139526
728.765	0.0138806
728.843	0.0136932
728.921	0.0137031
728.999	0.0137646
729.078	0.0135892
729.156	0.0136845
729.234	0.0136337
729.312	0.0134975
729.390	0.0136256
729.468	0.0135831
729.546	0.0135986
729.624	0.0136367
729.703	0.0136042
729.781	0.0137714
729.859	0.0137132
729.937	0.0137486
730.015	0.0138394
730.093	0.0139987
730.171	0.0140293
730.249	0.0141177
730.328	0.0141222
730.406	0.0140981
730.484	0.0141919
730.562	0.0141164
730.640	0.0142065
730.718	0.0143376
730.796	0.0143566
730.874	0.0142623
730.953	0.0142101
731.031	0.0141996
731.109	0.0142644
731.187	0.0142185
731.265	0.0143851
731.343	0.0142334
731.421	0.0140253
731.499	0.0140510
731.578	0.0140617
731.656	0.0139299
731.734	0.0138404
731.812	0.0139223
731.890	0.0137833
731.968	0.0138433
732.046	0.0139507
732.124	0.0139621
732.203	0.0139927
732.281	0.0140141
732.359	0.0141053
732.437	0.0141858
732.515	0.0140910
732.593	0.0142187
732.671	0.0141907
732.749	0.0142062
732.828	0.0141967
732.906	0.0139835
732.984	0.0140219
733.062	0.0137680
733.140	0.0136642
733.218	0.0136481
733.296	0.0135756
733.374	0.0135224
733.453	0.0134227
733.531	0.0133874
733.609	0.0132926
733.687	0.0134225
733.765	0.0135803
733.843	0.0136415
733.921	0.0135413
733.999	0.0136192
734.078	0.0137686
734.156	0.0136755
734.234	0.0138292
734.312	0.0137765
734.390	0.0137319
734.468	0.0138408
734.546	0.0139556
734.624	0.0138322
734.703	0.0138486
734.781	0.0139235
734.859	0.0137993
734.937	0.0139342
735.015	0.0138309
735.093	0.0137604
735.171	0.0137804
735.249	0.0137053
735.328	0.0138368
735.406	0.0138525
735.484	0.0137225
735.562	0.0137132
735.640	0.0137923
735.718	0.0135848
735.796	0.0136587
735.874	0.0137074
735.953	0.0138229
736.031	0.0138889
736.109	0.0140343
736.187	0.0140752
736.265	0.0141602
736.343	0.0143204
736.421	0.0142056
736.499	0.0143802
736.578	0.0144486
736.656	0.0144145
736.734	0.0143680
736.812	0.0144884
736.890	0.0143552
736.968	0.0142525
737.046	0.0143087
737.124	0.0140858
737.203	0.0140507
737.281	0.0139884
737.359	0.0138420
737.437	0.0137266
737.515	0.0138306
737.593	0.0136466
737.671	0.0134200
737.749	0.0134715
737.828	0.0134510
737.906	0.0133591
737.984	0.0134059
738.062	0.0133784
738.140	0.0133852
738.218	0.0133855
738.296	0.0133413
738.374	0.0133824
738.453	0.0133743
738.531	0.0133530
738.609	0.0133728
738.687	0.0133504
738.765	0.0133500
738.843	0.0133981
738.921	0.0132666
738.999	0.0133865
739.078	0.0134093
739.156	0.0134283
739.234	0.0133196
739.312	0.0135410
739.390	0.0135003
739.468	0.0134415
739.546	0.0135228
739.624	0.0135619
739.703	0.0136332
739.781	0.0135519
739.859	0.0136870
739.937	0.0136936
740.015	0.0136951
740.093	0.0137776
740.171	0.0138197
740.249	0.0138388
740.328	0.0138294
740.406	0.0138976
740.484	0.0139502
740.562	0.0140050
740.640	0.0138815
740.718	0.0140370
740.796	0.0141940
740.874	0.0142406
740.953	0.0141778
741.031	0.0142392
741.109	0.0142981
741.187	0.0142001
741.265	0.0141554
741.343	0.0144032
741.421	0.0141991
741.499	0.0143504
741.578	0.0144232
741.656	0.0141515
741.734	0.0142729
741.812	0.0140563
741.890	0.0140604
741.968	0.0139674
742.046	0.0139203
742.124	0.0137931
742.203	0.0137473
742.281	0.0138865
742.359	0.0137735
742.437	0.0135223
742.515	0.0135019
742.593	0.0136452
742.671	0.0136008
742.749	0.0135080
742.828	0.0134851
742.906	0.0133749
742.984	0.0134296
743.062	0.0135534
743.140	0.0135971
743.218	0.0133968
743.296	0.0134385
743.374	0.0133867
743.453	0.0133759
743.531	0.0133977
743.609	0.0135704
743.687	0.0136575
743.765	0.0136232
743.843	0.0137729
743.921	0.0138107
743.999	0.0137341
744.078	0.0137253
744.156	0.0138055
744.234	0.0138089
744.312	0.0139321
744.390	0.0138261
744.468	0.0136927
744.546	0.0136849
744.624	0.0135109
744.703	0.0135402
744.781	0.0135778
744.859	0.0135289
744.937	0.0134479
745.015	0.0134344
745.093	0.0136375
745.171	0.0136365
745.249	0.0135218
745.328	0.0135405
745.406	0.0136893
745.484	0.0135796
745.562	0.0138499
745.640	0.0137978
745.718	0.0139362
745.796	0.0139111
745.874	0.0139185
745.953	0.0141467
746.031	0.0141764
746.109	0.0141203
746.187	0.0141931
746.265	0.0141279
746.343	0.0141471
746.421	0.0140546
746.499	0.0138317
746.578	0.0139767
746.656	0.0139426
746.734	0.0136485
746.812	0.0136893
746.890	0.0136617
746.968	0.0136449
747.046	0.0136438
747.124	0.0135708
747.203	0.0135241
747.281	0.0137000
747.359	0.0136796
747.437	0.0138401
747.515	0.0138980
747.593	0.0140436
747.671	0.0140866
747.749	0.0141667
747.828	0.0143008
747.906	0.0141943
747.984	0.0143868
748.062	0.0141906
748.140	0.0143572
748.218	0.0143591
748.296	0.0142393
748.374	0.0142557
748.453	0.0141780
748.531	0.0141024
748.609	0.0141003
748.687	0.0139482
748.765	0.0140133
748.843	0.0139101
748.921	0.0137333
748.999	0.0136043
749.078	0.0136719
749.156	0.0136355
749.234	0.0136761
749.312	0.0135605
749.390	0.0135036
749.468	0.0137025
749.546	0.0135955
749.624	0.0137016
749.703	0.0138199
749.781	0.0138089
749.859	0.0136733
749.937	0.0138628
750.015	0.0138226
750.093	0.0137434
750.171	0.0138974
750.249	0.0139301
750.328	0.0138638
750.406	0.0138114
750.484	0.0137529
750.562	0.0137025
750.640	0.0138773
750.718	0.0137523
750.796	0.0137502
750.874	0.0136671
750.953	0.0137142
751.031	0.0137165
751.109	0.0138324
751.187	0.0137067
751.265	0.0137953
751.343	0.0138573
751.421	0.0139426
751.499	0.0140238
751.578	0.0139042
751.656	0.0138895
751.734	0.0138609
751.812	0.0138026
751.890	0.0139214
751.968	0.0139586
752.046	0.0138993
752.124	0.0139902
752.203	0.0139703
752.281	0.0140404
752.359	0.0139795
752.437	0.0139265
752.515	0.0140116
752.593	0.0141059
752.671	0.0140418
752.749	0.0141483
752.828	0.0141173
752.906	0.0140370
752.984	0.0141721
753.062	0.0141349
753.140	0.0140445
753.218	0.0141510
753.296	0.0141126
753.374	0.0140982
753.453	0.0139208
753.531	0.0138862
753.609	0.0137978
753.687	0.0137971
753.765	0.0137041
753.843	0.0137624
753.921	0.0136596
753.999	0.0136652
754.078	0.0134785
754.156	0.0135708
754.234	0.0135964
754.312	0.0136861
754.390	0.0137730
754.468	0.0137470
754.546	0.0137442
754.624	0.0138231
754.703	0.0137500
754.781	0.0138174
754.859	0.0139101
754.937	0.0139332
755.015	0.0139529
755.093	0.0140092
755.171	0.0139890
755.249	0.0140845
755.328	0.0140166
755.406	0.0139651
755.484	0.0141615
755.562	0.0140922
755.640	0.0139740
755.718	0.0141423
755.796	0.0141811
755.874	0.0141000
755.953	0.0141706
756.031	0.0142961
756.109	0.0140778
756.187	0.0140704
756.265	0.0141010
756.343	0.0141386
756.421	0.0140779
756.499	0.0139422
756.578	0.0138293
756.656	0.0137563
756.734	0.0137085
756.812	0.0138102
756.890	0.0137272
756.968	0.0136994
757.046	0.0135404
757.124	0.0136320
757.203	0.0135382
757.281	0.0135878
757.359	0.0134692
757.437	0.0134008
757.515	0.0132753
757.593	0.0133530
757.671	0.0133710
757.749	0.0131451
757.828	0.0132114
757.906	0.0130916
757.984	0.0131180
758.062	0.0131531
758.140	0.0131621
758.218	0.0129806
758.296	0.0130891
758.374	0.0132899
758.453	0.0131882
758.531	0.0133022
758.609	0.0133791
758.687	0.0135577
758.765	0.0136593
758.843	0.0136970
758.921	0.0138951
758.999	0.0138496
759.078	0.0140615
759.156	0.0141029
759.234	0.0140881
759.312	0.0143515
759.390	0.0142580
759.468	0.0142976
759.546	0.0141967
759.624	0.0141232
759.703	0.0143033
759.781	0.0143235
759.859	0.0143827
759.937	0.0142492
760.015	0.0142252
760.093	0.0140395
760.171	0.0141627
760.249	0.0141675
760.328	0.0140402
760.406	0.0139436
760.484	0.0138379
760.562	0.0138236
760.640	0.0137722
760.718	0.0137534
760.796	0.0136407
760.874	0.0135293
760.953	0.0135933
761.031	0.0134345
761.109	0.0134033
761.187	0.0134718
761.265	0.0134955
761.343	0.0135687
761.421	0.0136025
761.499	0.0133870
761.578	0.0135201
761.656	0.0134815
761.734	0.0136037
761.812	0.0135046
761.890	0.0136167
761.968	0.0135648
762.046	0.0136036
762.124	0.0136088
762.203	0.0135439
762.281	0.0137462
762.359	0.0136507
762.437	0.0135094
762.515	0.0136437
762.593	0.0137062
762.671	0.0137489
762.749	0.0138634
762.828	0.0136964
762.906	0.0137977
762.984	0.0138866
763.062	0.0137190
763.140	0.0137969
763.218	0.0138708
763.296	0.0139347
763.374	0.0137901
763.453	0.0138721
763.531	0.0137150
763.609	0.0137502
763.687	0.0139041
763.765	0.0138634
763.843	0.0138831
763.921	0.0138544
763.999	0.0137389
764.078	0.0138054
764.156	0.0139139
764.234	0.0137991
764.312	0.0136936
764.390	0.0138452
764.468	0.0137208
764.546	0.0136419
764.624	0.0137280
764.703	0.0137351
764.781	0.0136490
764.859	0.0134866
764.937	0.0134713
765.015	0.0136050
765.093	0.0134872
765.171	0.0134959
765.249	0.0136405
765.328	0.0132996
765.406	0.0133997
765.484	0.0133521
765.562	0.0134385
765.640	0.0133857
765.718	0.0134083
765.796	0.0135644
765.874	0.0134007
765.953	0.0133887
766.031	0.0136349
766.109	0.0134877
766.187	0.0135477
766.265	0.0136607
766.343	0.0137813
766.421	0.0138741
766.499	0.0137469
766.578	0.0137476
766.656	0.0140051
766.734	0.0139581
766.812	0.0137332
766.890	0.0139780
766.968	0.0139035
767.046	0.0139635
767.124	0.0139220
767.203	0.0139193
767.281	0.0138509
767.359	0.0138493
767.437	0.0139403
767.515	0.0141688
767.593	0.0139719
767.671	0.0140391
767.749	0.0141220
767.828	0.0142789
767.906	0.0141202
767.984	0.0139162
768.062	0.0139980
768.140	0.0139901
768.218	0.0140236
768.296	0.0141225
768.374	0.0140407
768.453	0.0140709
768.531	0.0140358
768.609	0.0138315
768.687	0.0141167
768.765	0.0140715
768.843	0.0140461
768.921	0.0138723
768.999	0.0139467
769.078	0.0139031
769.156	0.0140060
769.234	0.0139357
769.312	0.0138921
769.390	0.0140098
769.468	0.0138662
769.546	0.0137434
769.624	0.0137648
769.703	0.0137718
769.781	0.0137302
769.859	0.0137392
769.937	0.0136311
770.015	0.0136053
770.093	0.0137388
770.171	0.0137308
770.249	0.0136486
770.328	0.0134653
770.406	0.0137804
770.484	0.0138916
770.562	0.0139011
770.640	0.0137707
770.718	0.0138992
770.796	0.0139398
770.874	0.0138799
770.953	0.0138016
771.031	0.0138932
771.109	0.0139029
771.187	0.0138825
771.265	0.0136833
771.343	0.0136267
771.421	0.0137864
771.499	0.0137028
771.578	0.0135616
771.656	0.0136184
771.734	0.0136910
771.812	0.0136476
771.890	0.0136592
771.968	0.0137833
772.046	0.0137317
772.124	0.0137454
772.203	0.0137163
772.281	0.0138055
772.359	0.0136900
772.437	0.0135505
772.515	0.0136057
772.593	0.0136755
772.671	0.0137534
772.749	0.0138216
772.828	0.0137869
772.906	0.0139014
772.984	0.0137914
773.062	0.0138354
773.140	0.0139499
773.218	0.0140376
773.296	0.0140301
773.374	0.0140744
773.453	0.0142377
773.531	0.0141698
773.609	0.0141252
773.687	0.0140717
773.765	0.0141787
773.843	0.0139589
773.921	0.0141985
773.999	0.0143311
774.078	0.0142863
774.156	0.0142500
774.234	0.0141953
774.312	0.0143710
774.390	0.0142558
774.468	0.0142975
774.546	0.0142372
774.624	0.0143616
774.703	0.0142872
774.781	0.0142719
774.859	0.0142576
774.937	0.0141640
775.015	0.0140396
775.093	0.0141303
775.171	0.0140712
775.249	0.0139190
775.328	0.0138858
775.406	0.0139330
775.484	0.0138147
775.562	0.0137423
775.640	0.0137543
775.718	0.0138190
775.796	0.0137635
775.874	0.0136547
775.953	0.0137990
776.031	0.0137868
776.109	0.0138483
776.187	0.0138828
776.265	0.0138797
776.343	0.0138386
776.421	0.0137193
776.499	0.0137170
776.578	0.0137178
776.656	0.0137030
776.734	0.0136384
776.812	0.0137144
776.890	0.0136689
776.968	0.0137477
777.046	0.0138008
777.124	0.0139021
777.203	0.0137695
777.281	0.0137337
777.359	0.0138628
777.437	0.0138811
777.515	0.0138820
777.593	0.0138867
777.671	0.0139159
777.749	0.0139767
777.828	0.0138206
777.906	0.0138867
777.984	0.0139506
778.062	0.0138047
778.140	0.0138201
778.218	0.0136736
778.296	0.0137644
778.374	0.0137012
778.453	0.0137489
778.531	0.0137089
778.609	0.0137164
778.687	0.0136346
778.765	0.0136913
778.843	0.0135474
778.921	0.0136777
778.999	0.0137634
779.078	0.0137195
779.156	0.0138119
779.234	0.0138477
779.312	0.0139049
779.390	0.0138378
779.468	0.0138546
779.546	0.0140433
779.624	0.0139760
779.703	0.0139143
779.781	0.0141190
779.859	0.0140910
779.937	0.0139808
780.015	0.0140257
780.093	0.0140086
780.171	0.0140614
780.249	0.0139149
780.328	0.0139392
780.406	0.0138652
780.484	0.0138454
780.562	0.0138775
780.640	0.0138952
780.718	0.0137617
780.796	0.0137334
780.874	0.0137759
780.953	0.0136430
781.031	0.0137260
781.109	0.0137012
781.187	0.0136868
781.265	0.0136847
781.343	0.0135260
781.421	0.0135299
781.499	0.0135614
781.578	0.0135852
781.656	0.0135881
781.734	0.0135292
781.812	0.0136317
781.890	0.0136495
781.968	0.0136161
782.046	0.0135596
782.124	0.0135184
782.203	0.0136611
782.281	0.0136385
782.359	0.0136793
782.437	0.0136274
782.515	0.0134947
782.593	0.0136455
782.671	0.0135593
782.749	0.0136991
782.828	0.0138177
782.906	0.0136745
782.984	0.0136067
783.062	0.0137269
783.140	0.0138272
783.218	0.0138220
783.296	0.0137398
783.374	0.0137274
783.453	0.0138602
783.531	0.0138329
783.609	0.0136600
783.687	0.0137881
783.765	0.0139044
783.843	0.0137386
783.921	0.0137830
783.999	0.0138152
784.078	0.0139351
784.156	0.0139401
784.234	0.0139178
784.312	0.0137483
784.390	0.0138452
784.468	0.0137411
784.546	0.0138230
784.624	0.0138204
784.703	0.0136961
784.781	0.0137775
784.859	0.0137412
784.937	0.0136821
785.015	0.0137199
785.093	0.0137242
785.171	0.0136863
785.249	0.0135954
785.328	0.0138795
785.406	0.0137648
785.484	0.0135771
785.562	0.0138551
785.640	0.0137402
785.718	0.0137839
785.796	0.0136952
785.874	0.0135257
785.953	0.0136915
786.031	0.0136105
786.109	0.0135555
786.187	0.0135900
786.265	0.0135864
786.343	0.0134008
786.421	0.0135382
786.499	0.0137180
786.578	0.0134341
786.656	0.0134165
786.734	0.0134032
786.812	0.0134395
786.890	0.0134940
786.968	0.0135040
787.046	0.0135701
787.124	0.0135193
787.203	0.0135275
787.281	0.0136480
787.359	0.0136102
787.437	0.0135862
787.515	0.0134193
787.593	0.0135891
787.671	0.0135193
787.749	0.0135907
787.828	0.0136543
787.906	0.0135249
787.984	0.0138300
788.062	0.0136440
788.140	0.0135748
788.218	0.0137775
788.296	0.0138563
788.374	0.0139263
788.453	0.0139529
788.531	0.0137721
788.609	0.0139315
788.687	0.0140111
788.765	0.0141487
788.843	0.0140665
788.921	0.0141882
788.999	0.0142480
789.078	0.0140814
789.156	0.0141761
789.234	0.0143524
789.312	0.0143037
789.390	0.0143358
789.468	0.0142991
789.546	0.0141904
789.624	0.0140910
789.703	0.0141196
789.781	0.0138986
789.859	0.0139461
789.937	0.0138451
790.015	0.0138156
790.093	0.0136732
790.171	0.0135959
790.249	0.0134702
790.328	0.0132595
790.406	0.0132819
790.484	0.0133113
790.562	0.0132761
790.640	0.0132516
790.718	0.0133112
790.796	0.0133477
790.874	0.0132095
790.953	0.0132344
791.031	0.0133920
791.109	0.0134991
791.187	0.0134708
791.265	0.0135797
791.343	0.0136194
791.421	0.0135793
791.499	0.0136869
791.578	0.0136168
791.656	0.0137989
791.734	0.0137704
791.812	0.0138849
791.890	0.0137889
791.968	0.0139695
792.046	0.0140151
792.124	0.0139870
792.203	0.0139581
792.281	0.0140015
792.359	0.0141084
792.437	0.0139338
792.515	0.0139719
792.593	0.0139941
792.671	0.0141031
792.749	0.0138538
792.828	0.0139616
792.906	0.0139336
792.984	0.0139842
793.062	0.0139548
793.140	0.0139120
793.218	0.0139235
793.296	0.0139297
793.374	0.0138359
793.453	0.0139215
793.531	0.0140663
793.609	0.0139154
793.687	0.0140006
793.765	0.0140725
793.843	0.0139290
793.921	0.0139677
793.999	0.0140759
794.078	0.0140265
794.156	0.0140649
794.234	0.0139750
794.312	0.0140185
794.390	0.0139337
794.468	0.0139278
794.546	0.0138311
794.624	0.0138605
794.703	0.0139461
794.781	0.0138858
794.859	0.0137482
794.937	0.0137948
795.015	0.0137555
795.093	0.0139047
795.171	0.0138069
795.249	0.0138248
795.328	0.0138223
795.406	0.0140036
795.484	0.0139300
795.562	0.0137891
795.640	0.0138659
795.718	0.0138770
795.796	0.0139282
795.874	0.0140426
795.953	0.0139058
796.031	0.0139375
796.109	0.0139683
796.187	0.0137806
796.265	0.0139204
796.343	0.0139574
796.421	0.0138711
796.499	0.0140083
796.578	0.0139524
796.656	0.0137819
796.734	0.0139243
796.812	0.0139409
796.890	0.0139052
796.968	0.0139417
797.046	0.0139005
797.124	0.0137255
797.203	0.0139549
797.281	0.0138639
797.359	0.0138187
797.437	0.0138542
797.515	0.0139693
797.593	0.0139956
797.671	0.0138238
797.749	0.0138085
797.828	0.0139969
797.906	0.0139578
797.984	0.0139524
798.062	0.0139536
798.140	0.0139225
798.218	0.0138574
798.296	0.0139339
798.374	0.0139276
798.453	0.0137656
798.531	0.0137144
798.609	0.0136679
798.687	0.0138837
798.765	0.0138500
798.843	0.0137666
798.921	0.0136399
798.999	0.0138039
799.078	0.0138345
799.156	0.0136324
799.234	0.0136715
799.312	0.0138454
799.390	0.0138398
799.468	0.0137563
799.546	0.0137830
799.624	0.0138371
799.703	0.0139539
799.781	0.0138678
799.859	0.0138833
799.937	0.0138945
800.015	0.0138596
800.093	0.0139458
800.171	0.0140236
800.249	0.0139112
800.328	0.0139919
800.406	0.0140189
800.484	0.0140139
800.562	0.0138654
800.640	0.0140574
800.718	0.0139244
800.796	0.0140088
800.874	0.0139419
800.953	0.0139429
801.031	0.0139547
801.109	0.0140485
801.187	0.0139283
801.265	0.0138840
801.343	0.0140046
801.421	0.0138784
801.499	0.0140599
801.578	0.0138923
801.656	0.0139243
801.734	0.0139553
801.812	0.0138780
801.890	0.0138958
801.968	0.0137160
802.046	0.0139102
802.124	0.0139049
802.203	0.0139631
802.281	0.0139335
802.359	0.0138927
802.437	0.0140301
802.515	0.0138964
802.593	0.0138840
802.671	0.0139304
802.749	0.0140068
802.828	0.0138882
802.906	0.0138078
802.984	0.0138119
803.062	0.0138818
803.140	0.0138772
803.218	0.0138235
803.296	0.0139207
803.374	0.0138408
803.453	0.0137946
803.531	0.0139169
803.609	0.0137514
803.687	0.0139122
803.765	0.0139457
803.843	0.0138761
803.921	0.0137180
803.999	0.0137109
804.078	0.0138521
804.156	0.0138243
804.234	0.0137392
804.312	0.0138319
804.390	0.0138601
804.468	0.0139444
804.546	0.0138789
804.624	0.0137921
804.703	0.0138234
804.781	0.0138874
804.859	0.0140047
804.937	0.0140307
805.015	0.0139223
805.093	0.0139894
805.171	0.0138882
805.249	0.0138233
805.328	0.0138362
805.406	0.0140173
805.484	0.0138282
805.562	0.0138606
805.640	0.0138950
805.718	0.0137405
805.796	0.0136746
805.874	0.0138100
805.953	0.0137174
806.031	0.0137358
806.109	0.0137354
806.187	0.0136715
806.265	0.0135480
806.343	0.0135626
806.421	0.0134871
806.499	0.0135368
806.578	0.0135409
806.656	0.0135297
806.734	0.0136852
806.812	0.0134852
806.890	0.0135677
806.968	0.0135651
807.046	0.0137646
807.124	0.0136292
807.203	0.0136624
807.281	0.0138801
807.359	0.0137931
807.437	0.0136236
807.515	0.0137823
807.593	0.0139262
807.671	0.0139594
807.749	0.0140378
807.828	0.0138149
807.906	0.0138113
807.984	0.0140240
808.062	0.0141190
808.140	0.0140249
808.218	0.0140802
808.296	0.0139352
808.374	0.0141280
808.453	0.0140305
808.531	0.0140510
808.609	0.0138582
808.687	0.0138495
808.765	0.0140588
808.843	0.0140421
808.921	0.0139708
808.999	0.0140163
809.078	0.0139202
809.156	0.0139759
809.234	0.0138564
809.312	0.0140371
809.390	0.0139782
809.468	0.0140857
809.546	0.0139864
809.624	0.0140898
809.703	0.0142229
809.781	0.0139824
809.859	0.0140900
809.937	0.0141103
810.015	0.0141446
810.093	0.0140955
810.171	0.0140109
810.249	0.0140672
810.328	0.0140487
810.406	0.0140662
810.484	0.0139299
810.562	0.0138091
810.640	0.0138901
810.718	0.0137725
810.796	0.0137415
810.874	0.0138825
810.953	0.0137171
811.031	0.0137879
811.109	0.0137166
811.187	0.0138869
811.265	0.0138021
811.343	0.0138193
811.421	0.0136565
811.499	0.0137667
811.578	0.0137500
811.656	0.0137494
811.734	0.0137327
811.812	0.0137895
811.890	0.0137832
811.968	0.0137332
812.046	0.0138043
812.124	0.0137212
812.203	0.0137761
812.281	0.0138188
812.359	0.0139626
812.437	0.0139027
812.515	0.0138404
812.593	0.0137608
812.671	0.0137911
812.749	0.0137286
812.828	0.0138064
812.906	0.0137221
812.984	0.0136079
813.062	0.0135942
813.140	0.0135704
813.218	0.0137186
813.296	0.0136102
813.374	0.0134377
813.453	0.0134840
813.531	0.0135016
813.609	0.0135233
813.687	0.0134957
813.765	0.0135350
813.843	0.0136063
813.921	0.0136433
813.999	0.0136176
814.078	0.0138982
814.156	0.0138300
814.234	0.0137720
814.312	0.0137634
814.390	0.0137765
814.468	0.0138367
814.546	0.0138224
814.624	0.0138981
814.703	0.0138271
814.781	0.0137974
814.859	0.0139223
814.937	0.0138795
815.015	0.0139697
815.093	0.0140171
815.171	0.0140004
815.249	0.0140087
815.328	0.0141090
815.406	0.0141798
815.484	0.0141714
815.562	0.0141412
815.640	0.0140701
815.718	0.0140470
815.796	0.0139320
815.874	0.0141329
815.953	0.0139302
816.031	0.0138513
816.109	0.0139568
816.187	0.0138307
816.265	0.0137448
816.343	0.0137299
816.421	0.0137025
816.499	0.0135908
816.578	0.0136771
816.656	0.0136118
816.734	0.0136414
816.812	0.0135569
816.890	0.0136580
816.968	0.0136030
817.046	0.0134988
817.124	0.0135986
817.203	0.0137409
817.281	0.0137348
817.359	0.0136073
817.437	0.0138075
817.515	0.0137106
817.593	0.0137367
817.671	0.0136710
817.749	0.0136315
817.828	0.0137524
817.906	0.0138332
817.984	0.0138394
818.062	0.0138586
818.140	0.0138055
818.218	0.0139405
818.296	0.0138099
818.374	0.0139078
818.453	0.0138412
818.531	0.0137628
818.609	0.0138787
818.687	0.0137959
818.765	0.0137486
818.843	0.0137344
818.921	0.0137264
818.999	0.0135720
819.078	0.0136315
819.156	0.0138282
819.234	0.0138492
819.312	0.0137004
819.390	0.0136687
819.468	0.0136839
819.546	0.0136966
819.624	0.0137782
819.703	0.0136623
819.781	0.0137507
819.859	0.0136921
819.937	0.0136829
820.015	0.0136487
820.093	0.0137953
820.171	0.0138455
820.249	0.0137227
820.328	0.0136086
820.406	0.0138568
820.484	0.0138116
820.562	0.0139008
820.640	0.0137975
820.718	0.0139303
820.796	0.0139057
820.874	0.0139140
820.953	0.0139776
821.031	0.0139178
821.109	0.0139683
821.187	0.0138705
821.265	0.0140466
821.343	0.0136976
821.421	0.0139423
821.499	0.0139095
821.578	0.0138115
821.656	0.0138187
821.734	0.0137850
821.812	0.0136916
821.890	0.0136855
821.968	0.0137524
822.046	0.0138498
822.124	0.0137930
822.203	0.0137646
822.281	0.0138789
822.359	0.0137576
822.437	0.0138660
822.515	0.0137988
822.593	0.0137981
822.671	0.0139036
822.749	0.0138158
822.828	0.0138239
822.906	0.0139774
822.984	0.0138567
823.062	0.0139336
823.140	0.0139484
823.218	0.0139209
823.296	0.0139650
823.374	0.0140227
823.453	0.0140157
823.531	0.0139141
823.609	0.0140397
823.687	0.0141582
823.765	0.0139652
823.843	0.0140942
823.921	0.0140695
823.999	0.0140623
824.078	0.0138342
824.156	0.0138518
824.234	0.0139529
824.312	0.0140232
824.390	0.0140053
824.468	0.0139989
824.546	0.0138744
824.624	0.0138023
824.703	0.0138992
824.781	0.0139033
824.859	0.0138622
824.937	0.0136845
825.015	0.0137541
825.093	0.0138864
825.171	0.0138367
825.249	0.0138049
825.328	0.0138982
825.406	0.0137037
825.484	0.0138748
825.562	0.0139091
825.640	0.0138548
825.718	0.0139097
825.796	0.0139307
825.874	0.0138249
825.953	0.0138364
826.031	0.0138586
826.109	0.0138436
826.187	0.0137966
826.265	0.0139488
826.343	0.0140409
826.421	0.0139797
826.499	0.0139034
826.578	0.0140277
826.656	0.0140271
826.734	0.0140299
826.812	0.0140239
826.890	0.0139646
826.968	0.0139851
827.046	0.0139529
827.124	0.0141008
827.203	0.0141053
827.281	0.0141055
827.359	0.0139722
827.437	0.0141317
827.515	0.0139619
827.593	0.0139452
827.671	0.0139925
827.749	0.0139350
827.828	0.0140600
827.906	0.0140454
827.984	0.0137785
828.062	0.0138848
828.140	0.0139126
828.218	0.0137405
828.296	0.0138062
828.374	0.0137634
828.453	0.0138638
828.531	0.0139092
828.609	0.0139066
828.687	0.0138749
828.765	0.0139149
828.843	0.0139504
828.921	0.0138543
828.999	0.0139254
829.078	0.0139511
829.156	0.0139711
829.234	0.0140077
829.312	0.0139391
829.390	0.0139777
829.468	0.0139368
829.546	0.0139367
829.624	0.0138591
829.703	0.0139515
829.781	0.0139951
829.859	0.0138602
829.937	0.0139693
830.015	0.0139290
830.093	0.0138663
830.171	0.0139389
830.249	0.0137543
830.328	0.0137710
830.406	0.0138225
830.484	0.0138595
830.562	0.0138351
830.640	0.0137902
830.718	0.0138732
830.796	0.0138428
830.874	0.0139253
830.953	0.0139528
831.031	0.0137946
831.109	0.0137608
831.187	0.0136795
831.265	0.0137288
831.343	0.0137135
831.421	0.0138060
831.499	0.0136491
831.578	0.0139825
831.656	0.0137864
831.734	0.0137504
831.812	0.0138639
831.890	0.0139307
831.968	0.0137925
832.046	0.0139327
832.124	0.0138365
832.203	0.0138486
832.281	0.0137887
832.359	0.0138780
832.437	0.0139209
832.515	0.0139173
832.593	0.0138306
832.671	0.0139217
832.749	0.0139091
832.828	0.0138249
832.906	0.0138099
832.984	0.0139216
833.062	0.0140132
833.140	0.0140565
833.218	0.0139806
833.296	0.0139522
833.374	0.0139740
833.453	0.0140049
833.531	0.0139231
833.609	0.0140125
833.687	0.0139153
833.765	0.0138662
833.843	0.0139790
833.921	0.0139999
833.999	0.0139279
834.078	0.0138855
834.156	0.0140129
834.234	0.0140472
834.312	0.0140159
834.390	0.0138982
834.468	0.0138062
834.546	0.0139493
834.624	0.0138841
834.703	0.0138580
834.781	0.0139275
834.859	0.0137795
834.937	0.0138586
835.015	0.0138380
835.093	0.0138457
835.171	0.0139796
835.249	0.0138798
835.328	0.0138900
835.406	0.0138326
835.484	0.0138487
835.562	0.0139170
835.640	0.0138731
835.718	0.0137365
835.796	0.0138503
835.874	0.0138962
835.953	0.0137816
836.031	0.0137263
836.109	0.0138244
836.187	0.0138053
836.265	0.0136741
836.343	0.0137289
836.421	0.0137888
836.499	0.0137389
836.578	0.0135437
836.656	0.0135413
836.734	0.0135838
836.812	0.0137420
836.890	0.0136269
836.968	0.0136691
837.046	0.0136419
837.124	0.0136962
837.203	0.0137194
837.281	0.0138103
837.359	0.0137437
837.437	0.0136915
837.515	0.0138198
837.593	0.0138341
837.671	0.0138240
837.749	0.0137906
837.828	0.0138114
837.906	0.0137824
837.984	0.0137932
838.062	0.0139690
838.140	0.0138947
838.218	0.0139514
838.296	0.0139892
838.374	0.0138246
838.453	0.0140180
838.531	0.0140480
838.609	0.0138979
838.687	0.0138988
838.765	0.0139106
838.843	0.0138737
838.921	0.0139130
838.999	0.0136501
839.078	0.0136729
839.156	0.0139065
839.234	0.0137228
839.312	0.0137717
839.390	0.0136626
839.468	0.0137338
839.546	0.0138045
839.624	0.0137377
839.703	0.0137788
839.781	0.0137920
839.859	0.0135673
839.937	0.0137428
840.015	0.0137108
840.093	0.0137436
840.171	0.0137574
840.249	0.0138872
840.328	0.0137913
840.406	0.0137323
840.484	0.0138187
840.562	0.0137837
840.640	0.0137492
840.718	0.0137041
840.796	0.0135595
840.874	0.0135750
840.953	0.0136578
841.031	0.0135136
841.109	0.0135672
841.187	0.0136298
841.265	0.0135471
841.343	0.0135068
841.421	0.0135764
841.499	0.0135853
841.578	0.0134992
841.656	0.0134860
841.734	0.0135504
841.812	0.0135162
841.890	0.0135143
841.968	0.0134972
842.046	0.0134497
842.124	0.0134231
842.203	0.0135724
842.281	0.0136004
842.359	0.0136301
842.437	0.0136407
842.515	0.0136808
842.593	0.0136734
842.671	0.0136516
842.749	0.0136686
842.828	0.0137717
842.906	0.0137173
842.984	0.0137881
843.062	0.0138985
843.140	0.0138857
843.218	0.0136663
843.296	0.0138796
843.374	0.0137600
843.453	0.0137836
843.531	0.0137518
843.609	0.0137003
843.687	0.0137059
843.765	0.0137307
843.843	0.0137508
843.921	0.0138963
843.999	0.0138221
844.078	0.0138350
844.156	0.0138855
844.234	0.0137837
844.312	0.0138457
844.390	0.0137878
844.468	0.0137195
844.546	0.0137774
844.624	0.0139320
844.703	0.0138973
844.781	0.0139017
844.859	0.0138086
844.937	0.0137389
845.015	0.0136942
845.093	0.0136066
845.171	0.0137664
845.249	0.0137533
845.328	0.0138067
845.406	0.0135652
845.484	0.0136026
845.562	0.0136161
845.640	0.0136068
845.718	0.0136339
845.796	0.0136602
845.874	0.0134529
845.953	0.0135377
846.031	0.0136537
846.109	0.0136336
846.187	0.0137201
846.265	0.0137059
846.343	0.0135185
846.421	0.0135857
846.499	0.0136082
846.578	0.0137532
846.656	0.0136574
846.734	0.0138245
846.812	0.0137823
846.890	0.0138830
846.968	0.0137078
847.046	0.0137601
847.124	0.0136794
847.203	0.0137287
847.281	0.0139152
847.359	0.0138814
847.437	0.0138205
847.515	0.0136389
847.593	0.0138453
847.671	0.0138534
847.749	0.0139549
847.828	0.0138545
847.906	0.0138620
847.984	0.0138486
848.062	0.0139113
848.140	0.0139175
848.218	0.0138084
848.296	0.0138331
848.374	0.0138150
848.453	0.0136927
848.531	0.0138239
848.609	0.0138401
848.687	0.0138098
848.765	0.0138531
848.843	0.0137925
848.921	0.0138215
848.999	0.0137927
849.078	0.0138657
849.156	0.0137946
849.234	0.0137751
849.312	0.0136782
849.390	0.0138549
849.468	0.0138013
849.546	0.0137963
849.624	0.0138471
849.703	0.0139456
849.781	0.0139411
849.859	0.0139680
849.937	0.0139948
850.015	0.0140844
850.093	0.0139907
850.171	0.0139139
850.249	0.0140497
850.328	0.0141261
850.406	0.0141520
850.484	0.0140996
850.562	0.0140642
850.640	0.0141106
850.718	0.0142902
850.796	0.0141919
850.874	0.0140165
850.953	0.0140634
851.031	0.0141145
851.109	0.0141220
851.187	0.0140702
851.265	0.0140981
851.343	0.0140755
851.421	0.0140894
851.499	0.0140251
851.578	0.0140559
851.656	0.0139330
851.734	0.0140191
851.812	0.0139420
851.890	0.0138479
851.968	0.0137726
852.046	0.0137696
852.124	0.0137126
852.203	0.0136051
852.281	0.0137658
852.359	0.0137188
852.437	0.0134998
852.515	0.0135857
852.593	0.0136208
852.671	0.0135320
852.749	0.0136253
852.828	0.0137701
852.906	0.0137446
852.984	0.0137386
853.062	0.0138777
853.140	0.0138499
853.218	0.0139420
853.296	0.0139992
853.374	0.0140478
853.453	0.0142451
853.531	0.0141560
853.609	0.0141799
853.687	0.0142344
853.765	0.0141033
853.843	0.0141371
853.921	0.0143936
853.999	0.0143723
854.078	0.0143958
854.156	0.0144031
854.234	0.0143317
854.312	0.0142393
854.390	0.0143708
854.468	0.0142065
854.546	0.0142137
854.624	0.0142719
854.703	0.0141380
854.781	0.0137937
854.859	0.0139176
854.937	0.0140804
855.015	0.0138578
855.093	0.0138561
855.171	0.0139169
855.249	0.0138717
855.328	0.0136128
855.406	0.0137854
855.484	0.0138285
855.562	0.0136055
855.640	0.0136314
855.718	0.0135382
855.796	0.0134418
855.874	0.0134840
855.953	0.0135680
856.031	0.0135145
856.109	0.0134646
856.187	0.0135113
856.265	0.0134715
856.343	0.0134210
856.421	0.0135534
856.499	0.0134832
856.578	0.0135245
856.656	0.0135588
856.734	0.0134200
856.812	0.0135609
856.890	0.0136444
856.968	0.0136301
857.046	0.0135231
857.124	0.0137826
857.203	0.0138003
857.281	0.0138689
857.359	0.0139214
857.437	0.0138330
857.515	0.0139460
857.593	0.0140285
857.671	0.0141893
857.749	0.0140047
857.828	0.0140313
857.906	0.0142405
857.984	0.0142128
858.062	0.0142267
858.140	0.0141948
858.218	0.0142375
858.296	0.0142033
858.374	0.0142590
858.453	0.0142386
858.531	0.0141982
858.609	0.0141219
858.687	0.0142349
858.765	0.0140672
858.843	0.0141130
858.921	0.0140294
858.999	0.0141576
859.078	0.0141777
859.156	0.0139114
859.234	0.0139850
859.312	0.0138778
859.390	0.0138582
859.468	0.0137109
859.546	0.0136432
859.624	0.0135880
859.703	0.0135460
859.781	0.0135411
859.859	0.0133958
859.937	0.0133961
860.015	0.0133363
860.093	0.0132677
860.171	0.0134602
860.249	0.0131858
860.328	0.0132589
860.406	0.0132927
860.484	0.0134660
860.562	0.0133749
860.640	0.0133118
860.718	0.0135770
860.796	0.0134715
860.874	0.0135191
860.953	0.0134151
861.031	0.0135967
861.109	0.0137354
861.187	0.0139307
861.265	0.0137763
861.343	0.0137312
861.421	0.0138851
861.499	0.0139330
861.578	0.0139899
861.656	0.0140652
861.734	0.0138599
861.812	0.0138451
861.890	0.0139701
861.968	0.0140047
862.046	0.0139817
862.124	0.0139768
862.203	0.0139723
862.281	0.0139082
862.359	0.0139786
862.437	0.0140443
862.515	0.0138806
862.593	0.0139141
862.671	0.0138783
862.749	0.0138651
862.828	0.0138725
862.906	0.0138810
862.984	0.0138869
863.062	0.0139129
863.140	0.0138387
863.218	0.0137317
863.296	0.0135712
863.374	0.0136916
863.453	0.0136565
863.531	0.0135390
863.609	0.0135741
863.687	0.0135882
863.765	0.0136005
863.843	0.0137004
863.921	0.0136687
863.999	0.0137107
864.078	0.0136053
864.156	0.0138741
864.234	0.0137489
864.312	0.0137263
864.390	0.0136577
864.468	0.0137255
864.546	0.0137927
864.624	0.0135722
864.703	0.0136308
864.781	0.0137420
864.859	0.0138400
864.937	0.0138119
865.015	0.0137045
865.093	0.0137173
865.171	0.0135722
865.249	0.0135711
865.328	0.0137566
865.406	0.0136428
865.484	0.0135910
865.562	0.0135305
865.640	0.0136322
865.718	0.0136861
865.796	0.0135155
865.874	0.0135204
865.953	0.0135928
866.031	0.0136020
866.109	0.0137838
866.187	0.0138626
866.265	0.0136531
866.343	0.0137363
866.421	0.0137485
866.499	0.0138839
866.578	0.0138060
866.656	0.0138287
866.734	0.0138824
866.812	0.0138416
866.890	0.0137729
866.968	0.0139828
867.046	0.0139357
867.124	0.0138364
867.203	0.0137772
867.281	0.0139581
867.359	0.0138245
867.437	0.0139359
867.515	0.0138380
867.593	0.0138997
867.671	0.0137514
867.749	0.0138075
867.828	0.0137427
867.906	0.0137148
867.984	0.0136703
868.062	0.0137037
868.140	0.0136217
868.218	0.0136301
868.296	0.0137435
868.374	0.0136873
868.453	0.0137760
868.531	0.0137116
868.609	0.0139024
868.687	0.0138932
868.765	0.0139134
868.843	0.0138437
868.921	0.0139518
868.999	0.0138889
869.078	0.0140112
869.156	0.0139267
869.234	0.0139281
869.312	0.0139500
869.390	0.0139909
869.468	0.0138748
869.546	0.0139574
869.624	0.0137340
869.703	0.0137302
869.781	0.0135976
869.859	0.0137325
869.937	0.0136574
870.015	0.0135728
870.093	0.0136749
870.171	0.0136440
870.249	0.0136651
870.328	0.0137444
870.406	0.0136666
870.484	0.0136766
870.562	0.0136475
870.640	0.0137515
870.718	0.0136224
870.796	0.0136843
870.874	0.0138136
870.953	0.0137569
871.031	0.0137833
871.109	0.0138245
871.187	0.0137972
871.265	0.0138591
871.343	0.0137917
871.421	0.0138246
871.499	0.0137627
871.578	0.0139028
871.656	0.0138398
871.734	0.0139101
871.812	0.0140163
871.890	0.0139020
871.968	0.0138457
872.046	0.0138681
872.124	0.0138965
872.203	0.0139205
872.281	0.0138360
872.359	0.0138734
872.437	0.0138539
872.515	0.0138728
872.593	0.0138851
872.671	0.0138010
872.749	0.0137981
872.828	0.0138650
872.906	0.0139021
872.984	0.0137347
873.062	0.0138152
873.140	0.0137791
873.218	0.0138361
873.296	0.0138548
873.374	0.0137573
873.453	0.0137330
873.531	0.0136811
873.609	0.0137975
873.687	0.0138957
873.765	0.0138299
873.843	0.0137544
873.921	0.0139387
873.999	0.0139175
874.078	0.0139194
874.156	0.0140170
874.234	0.0140495
874.312	0.0140147
874.390	0.0140001
874.468	0.0140353
874.546	0.0141530
874.624	0.0140515
874.703	0.0139775
874.781	0.0141162
874.859	0.0141080
874.937	0.0140340
875.015	0.0139851
875.093	0.0141203
875.171	0.0138737
875.249	0.0140224
875.328	0.0139681
875.406	0.0139693
875.484	0.0137801
875.562	0.0136686
875.640	0.0137847
875.718	0.0137805
875.796	0.0138273
875.874	0.0137931
875.953	0.0136037
876.031	0.0135799
876.109	0.0136734
876.187	0.0138570
876.265	0.0137287
876.343	0.0136892
876.421	0.0137738
876.499	0.0136584
876.578	0.0136752
876.656	0.0136146
876.734	0.0137816
876.812	0.0137586
876.890	0.0137295
876.968	0.0138460
877.046	0.0137480
877.124	0.0137105
877.203	0.0138683
877.281	0.0139887
877.359	0.0139138
877.437	0.0138864
877.515	0.0140515
877.593	0.0140151
877.671	0.0141216
877.749	0.0141138
877.828	0.0141265
877.906	0.0141882
877.984	0.0140275
878.062	0.0139967
878.140	0.0141411
878.218	0.0141549
878.296	0.0140086
878.374	0.0141315
878.453	0.0140239
878.531	0.0140367
878.609	0.0140884
878.687	0.0138940
878.765	0.0139449
878.843	0.0139551
878.921	0.0138268
878.999	0.0137798
879.078	0.0140165
879.156	0.0139194
879.234	0.0139038
879.312	0.0138315
879.390	0.0137425
879.468	0.0137108
879.546	0.0138025
879.624	0.0137431
879.703	0.0137337
879.781	0.0137368
879.859	0.0138957
879.937	0.0139730
880.015	0.0138405
880.093	0.0137454
880.171	0.0138336
880.249	0.0138682
880.328	0.0138931
880.406	0.0139437
880.484	0.0138891
880.562	0.0137267
880.640	0.0138316
880.718	0.0138940
880.796	0.0138388
880.874	0.0138522
880.953	0.0138201
881.031	0.0139102
881.109	0.0139016
881.187	0.0138552
881.265	0.0137309
881.343	0.0138544
881.421	0.0138414
881.499	0.0137186
881.578	0.0137491
881.656	0.0137734
881.734	0.0137365
881.812	0.0136999
881.890	0.0137494
881.968	0.0137013
882.046	0.0135988
882.124	0.0137405
882.203	0.0136954
882.281	0.0137606
882.359	0.0138107
882.437	0.0136214
882.515	0.0137809
882.593	0.0138229
882.671	0.0137765
882.749	0.0138905
882.828	0.0139035
882.906	0.0140643
882.984	0.0140321
883.062	0.0140116
883.140	0.0140405
883.218	0.0141058
883.296	0.0140108
883.374	0.0141639
883.453	0.0140031
883.531	0.0141737
883.609	0.0140853
883.687	0.0141421
883.765	0.0140655
883.843	0.0139745
883.921	0.0140246
883.999	0.0139289
884.078	0.0139288
884.156	0.0138616
884.234	0.0138373
884.312	0.0137774
884.390	0.0138615
884.468	0.0137542
884.546	0.0138205
884.624	0.0138876
884.703	0.0137839
884.781	0.0137771
884.859	0.0137459
884.937	0.0138008
885.015	0.0138273
885.093	0.0137932
885.171	0.0138673
885.249	0.0137370
885.328	0.0136609
885.406	0.0138194
885.484	0.0137365
885.562	0.0137267
885.640	0.0137811
885.718	0.0135632
885.796	0.0137093
885.874	0.0138120
885.953	0.0135599
886.031	0.0137563
886.109	0.0136352
886.187	0.0135931
886.265	0.0136475
886.343	0.0134721
886.421	0.0137509
886.499	0.0138443
886.578	0.0136205
886.656	0.0136301
886.734	0.0136483
886.812	0.0136647
886.890	0.0138387
886.968	0.0140170
887.046	0.0139904
887.124	0.0138206
887.203	0.0137719
887.281	0.0140580
887.359	0.0139821
887.437	0.0140211
887.515	0.0139427
887.593	0.0138766
887.671	0.0140977
887.749	0.0140257
887.828	0.0138767
887.906	0.0139763
887.984	0.0140302
888.062	0.0139389
888.140	0.0139541
888.218	0.0138260
888.296	0.0139516
888.374	0.0137522
888.453	0.0138832
888.531	0.0139375
888.609	0.0137186
888.687	0.0138568
888.765	0.0137750
888.843	0.0136578
888.921	0.0138047
888.999	0.0137535
889.078	0.0136491
889.156	0.0136679
889.234	0.0136365
889.312	0.0136366
889.390	0.0138021
889.468	0.0137119
889.546	0.0136814
889.624	0.0135660
889.703	0.0136919
889.781	0.0137537
889.859	0.0137360
889.937	0.0136827
890.015	0.0138145
890.093	0.0136172
890.171	0.0138405
890.249	0.0139421
890.328	0.0138515
890.406	0.0138522
890.484	0.0138622
890.562	0.0139148
890.640	0.0137328
890.718	0.0140152
890.796	0.0140442
890.874	0.0140515
890.953	0.0139172
891.031	0.0140540
891.109	0.0141126
891.187	0.0141022
891.265	0.0141873
891.343	0.0140368
891.421	0.0140520
891.499	0.0139752
891.578	0.0140280
891.656	0.0141018
891.734	0.0139503
891.812	0.0140684
891.890	0.0139925
891.968	0.0139206
892.046	0.0139949
892.124	0.0138178
892.203	0.0139262
892.281	0.0139764
892.359	0.0139850
892.437	0.0139953
892.515	0.0138714
892.593	0.0139649
892.671	0.0137920
892.749	0.0137996
892.828	0.0138197
892.906	0.0137262
892.984	0.0138898
893.062	0.0137645
893.140	0.0138050
893.218	0.0137926
893.296	0.0137968
893.374	0.0138298
893.453	0.0138347
893.531	0.0137329
893.609	0.0136992
893.687	0.0138419
893.765	0.0137301
893.843	0.0137218
893.921	0.0137927
893.999	0.0137796
894.078	0.0137740
894.156	0.0138393
894.234	0.0137540
894.312	0.0138602
894.390	0.0137647
894.468	0.0137648
894.546	0.0137752
894.624	0.0138157
894.703	0.0138374
894.781	0.0138992
894.859	0.0138636
894.937	0.0138980
895.015	0.0138190
895.093	0.0138573
895.171	0.0138675
895.249	0.0139597
895.328	0.0140265
895.406	0.0138679
895.484	0.0137030
895.562	0.0138983
895.640	0.0139469
895.718	0.0137531
895.796	0.0139262
895.874	0.0139513
895.953	0.0138338
896.031	0.0138577
896.109	0.0138690
896.187	0.0138611
896.265	0.0137309
896.343	0.0139263
896.421	0.0139722
896.499	0.0139944
896.578	0.0138245
896.656	0.0138463
896.734	0.0139519
896.812	0.0138897
896.890	0.0138985
896.968	0.0139051
897.046	0.0138989
897.124	0.0138744
897.203	0.0137727
897.281	0.0137598
897.359	0.0137402
897.437	0.0138707
897.515	0.0137963
897.593	0.0138098
897.671	0.0137476
897.749	0.0137111
897.828	0.0136762
897.906	0.0138525
897.984	0.0136481
898.062	0.0136903
898.140	0.0137897
898.218	0.0136971
898.296	0.0136965
898.374	0.0137315
898.453	0.0137909
898.531	0.0136769
898.609	0.0136928
898.687	0.0137302
898.765	0.0136933
898.843	0.0137579
898.921	0.0136433
898.999	0.0136807
899.078	0.0135754
899.156	0.0137431
899.234	0.0136053
899.312	0.0135638
899.390	0.0137128
899.468	0.0137453
899.546	0.0134896
899.624	0.0135461
899.703	0.0136256
899.781	0.0136207
899.859	0.0136240
899.937	0.0136755
900.015	0.0136771
900.093	0.0137950
900.171	0.0138300
900.249	0.0137321
900.328	0.0138482
900.406	0.0138002
900.484	0.0137965
900.562	0.0137254
900.640	0.0138422
900.718	0.0138335
900.796	0.0137595
900.874	0.0136279
900.953	0.0138533
901.031	0.0137732
901.109	0.0139223
901.187	0.0138786
901.265	0.0138573
901.343	0.0137184
901.421	0.0139400
901.499	0.0140254
901.578	0.0137385
901.656	0.0137681
901.734	0.0140863
901.812	0.0138427
901.890	0.0138021
901.968	0.0139926
902.046	0.0138160
902.124	0.0137743
902.203	0.0139015
902.281	0.0139411
902.359	0.0138921
902.437	0.0138138
902.515	0.0139301
902.593	0.0139223
902.671	0.0138393
902.749	0.0140382
902.828	0.0138501
902.906	0.0137081
902.984	0.0138593
903.062	0.0138882
903.140	0.0137822
903.218	0.0136244
903.296	0.0136581
903.374	0.0137472
903.453	0.0136779
903.531	0.0137560
903.609	0.0138277
903.687	0.0137552
903.765	0.0136625
903.843	0.0137704
903.921	0.0138715
903.999	0.0137037
904.078	0.0136816
904.156	0.0136129
904.234	0.0138039
904.312	0.0136837
904.390	0.0137411
904.468	0.0137172
904.546	0.0139264
904.624	0.0137278
904.703	0.0136486
904.781	0.0136778
904.859	0.0138157
904.937	0.0138187
905.015	0.0137883
905.093	0.0138760
905.171	0.0137412
905.249	0.0138162
905.328	0.0138229
905.406	0.0139887
905.484	0.0139688
905.562	0.0138207
905.640	0.0139491
905.718	0.0138880
905.796	0.0140115
905.874	0.0141294
905.953	0.0141485
906.031	0.0140565
906.109	0.0141372
906.187	0.0140865
906.265	0.0142123
906.343	0.0141901
906.421	0.0140054
906.499	0.0140784
906.578	0.0141234
906.656	0.0140340
906.734	0.0139307
906.812	0.0139030
906.890	0.0139648
906.968	0.0140584
907.046	0.0139740
907.124	0.0139100
907.203	0.0137801
907.281	0.0137154
907.359	0.0137626
907.437	0.0137426
907.515	0.0137553
907.593	0.0136804
907.671	0.0137581
907.749	0.0138169
907.828	0.0135870
907.906	0.0137268
907.984	0.0138294
908.062	0.0137769
908.140	0.0138358
908.218	0.0138864
908.296	0.0137560
908.374	0.0136819
908.453	0.0138758
908.531	0.0139864
908.609	0.0139404
908.687	0.0138074
908.765	0.0138844
908.843	0.0138174
908.921	0.0138094
908.999	0.0138924
909.078	0.0138800
909.156	0.0138139
909.234	0.0139976
909.312	0.0138902
909.390	0.0138614
909.468	0.0140152
909.546	0.0137513
909.624	0.0137373
909.703	0.0139526
909.781	0.0139388
909.859	0.0138792
909.937	0.0140007
910.015	0.0139474
910.093	0.0139245
910.171	0.0138924
910.249	0.0138059
910.328	0.0137844
910.406	0.0138107
910.484	0.0138707
910.562	0.0138084
910.640	0.0137141
910.718	0.0137884
910.796	0.0137119
910.874	0.0138361
910.953	0.0138096
911.031	0.0137400
911.109	0.0137902
911.187	0.0137246
911.265	0.0137408
911.343	0.0137867
911.421	0.0138039
911.499	0.0138708
911.578	0.0139314
911.656	0.0138770
911.734	0.0138326
911.812	0.0138623
911.890	0.0138836
911.968	0.0139513
912.046	0.0138829
912.124	0.0138641
912.203	0.0138995
912.281	0.0139362
912.359	0.0139326
912.437	0.0138274
912.515	0.0139172
912.593	0.0139391
912.671	0.0139103
912.749	0.0138350
912.828	0.0140162
912.906	0.0139384
912.984	0.0140707
913.062	0.0141412
913.140	0.0140567
913.218	0.0139356
913.296	0.0140329
913.374	0.0140443
913.453	0.0140112
913.531	0.0139668
913.609	0.0139463
913.687	0.0139991
913.765	0.0139697
913.843	0.0139407
913.921	0.0139666
913.999	0.0138995
914.078	0.0139058
914.156	0.0139214
914.234	0.0137537
914.312	0.0138483
914.390	0.0138597
914.468	0.0138933
914.546	0.0138868
914.624	0.0138444
914.703	0.0138013
914.781	0.0138181
914.859	0.0137798
914.937	0.0138781
915.015	0.0137635
915.093	0.0138181
915.171	0.0138898
915.249	0.0140397
915.328	0.0140808
915.406	0.0137914
915.484	0.0139074
915.562	0.0137889
915.640	0.0137403
915.718	0.0138761
915.796	0.0138940
915.874	0.0137720
915.953	0.0137192
916.031	0.0136939
916.109	0.0138238
916.187	0.0138844
916.265	0.0137251
916.343	0.0138422
916.421	0.0138192
916.499	0.0138052
916.578	0.0136906
916.656	0.0138995
916.734	0.0137839
916.812	0.0136565
916.890	0.0138098
916.968	0.0138048
917.046	0.0137766
917.124	0.0137350
917.203	0.0137907
917.281	0.0137958
917.359	0.0138416
917.437	0.0136747
917.515	0.0137368
917.593	0.0138731
917.671	0.0137267
917.749	0.0136407
917.828	0.0138296
917.906	0.0136762
917.984	0.0138333
918.062	0.0137266
918.140	0.0138358
918.218	0.0137007
918.296	0.0136140
918.374	0.0138480
918.453	0.0138175
918.531	0.0138664
918.609	0.0136042
918.687	0.0136120
918.765	0.0138698
918.843	0.0137274
918.921	0.0137634
918.999	0.0138841
919.078	0.0137469
919.156	0.0138033
919.234	0.0137917
919.312	0.0138767
919.390	0.0139559
919.468	0.0140984
919.546	0.0140591
919.624	0.0139314
919.703	0.0139227
919.781	0.0140369
919.859	0.0140755
919.937	0.0139877
